Data from AgNP_FTO_APTES_CRN_50uM_R6G_10uM_NaF_0.1M_Addition_RamanShift__8__17-55-18-064.txt Node

Date: Wed Dec 15 17:55:18 GMT 2021
User: TCL
Spectrometer: QEP01345
Trigger mode: 4
Integration Time (sec): 7.000000E0
Scans to average: 10
Electric dark correction enabled: true
Nonlinearity correction enabled: false
Boxcar width: 0
XAxis mode: Raman Shifts
Number of Pixels in Spectrum: 1044
>>>>>Begin Spectral Data<<<<<
46.04893	0.5875
50.45542	-1.7125
54.85868	-0.0125
59.25871	-0.6125
63.6555	58.4875
68.04907	61.3875
72.43941	68.7875
76.82654	71.6875
81.21044	76.1875
85.59113	75.1875
89.96862	81.4875
94.34289	76.3875
98.71396	86.1875
103.08183	88.3875
107.4465	91.1875
111.80798	92.2875
116.16626	91.7875
120.52136	97.9875
124.87327	96.9875
129.222	103.6875
133.56755	103.7875
137.90993	115.4875
142.24913	124.0875
146.58517	136.3875
150.91804	157.7875
155.24774	185.6875
159.57429	226.5875
163.89768	287.6875
168.21792	375.6875
172.53501	512.9875
176.84895	703.2875
181.15975	983.3875
185.46741	1373.6875
189.77193	1914.0875
194.07331	2555.0875
198.37157	3280.7875
202.6667	4045.5875
206.9587	4808.1875
211.24758	5588.8875
215.53334	6312.6875
219.81599	7095.9875
224.09553	7966.9875
228.37195	8921.8875
232.64527	9973.4875
236.91549	11057.4875
241.18261	12244.1875
245.44663	13334.3875
249.70755	14312.9875
253.96539	15184.5875
258.22014	15889.1875
262.4718	16480.6875
266.72039	16907.4875
270.96589	17091.6875
275.20832	17148.0875
279.44768	17041.5875
283.68397	16883.1875
287.91719	16777.1875
292.14735	16710.3875
296.37445	16642.9875
300.59849	16689.7875
304.81948	16680.7875
309.03742	16695.1875
313.25231	16553.2875
317.46415	16337.7875
321.67296	16023.5875
325.87872	15759.3875
330.08145	15621.3875
334.28114	15624.3875
338.47781	15686.7875
342.67145	15842.2875
346.86207	16072.5875
351.04966	16339.8875
355.23424	16532.1875
359.4158	16711.8875
363.59435	16849.3875
367.76989	16931.6875
371.94243	17048.3875
376.11196	17070.3875
380.27849	17129.0875
384.44203	17171.6875
388.60257	17363.6875
392.76012	17533.3875
396.91468	17767.9875
401.06626	18011.1875
405.21485	18184.6875
409.36047	18228.7875
413.50311	18087.9875
417.64277	18039.3875
421.77947	18068.8875
425.9132	18166.8875
430.04396	18293.0875
434.17176	18392.8875
438.2966	18440.3875
442.41849	18598.4875
446.53742	18952.9875
450.6534	19295.1875
454.76644	19578.7875
458.87653	19686.0875
462.98368	19651.6875
467.08789	19543.4875
471.18916	19373.0875
475.2875	19223.4875
479.38291	19122.3875
483.4754	18979.2875
487.56496	18797.3875
491.6516	18527.0875
495.73531	18377.2875
499.81612	18311.5875
503.89401	18454.9875
507.96899	18580.2875
512.04106	18603.5875
516.11023	18545.5875
520.1765	18389.9875
524.23987	18266.7875
528.30034	18109.6875
532.35792	17987.6875
536.41261	17799.9875
540.46441	17692.3875
544.51333	17694.3875
548.55936	17859.6875
552.60252	18184.1875
556.64279	18542.6875
560.6802	18765.3875
564.71473	18893.0875
568.7464	19065.5875
572.7752	19464.7875
576.80114	19998.2875
580.82422	20632.8875
584.84444	21255.9875
588.86181	21937.4875
592.87633	22352.4875
596.888	22150.7875
600.89682	21431.9875
604.9028	21180.1875
608.90594	21830.8875
612.90624	22553.1875
616.90371	21399.7875
620.89834	19051.5875
624.89015	18003.5875
628.87913	17944.4875
632.86528	18056.5875
636.84862	18135.2875
640.82913	17894.8875
644.80683	17634.8875
648.78172	17432.0875
652.75379	17424.3875
656.72306	17526.3875
660.68952	17698.0875
664.65319	17646.6875
668.61405	17440.7875
672.57211	17409.8875
676.52738	17483.8875
680.47986	17487.2875
684.42955	17419.5875
688.37646	17408.6875
692.32058	17464.6875
696.26192	17660.9875
700.20048	17813.6875
704.13626	17973.0875
708.06928	18047.7875
711.99952	18048.9875
715.927	18038.1875
719.85171	17981.8875
723.77365	17882.3875
727.69284	17708.9875
731.60928	17493.5875
735.52295	17414.8875
739.43388	17422.9875
743.34206	17478.0875
747.24749	17525.4875
751.15017	17663.7875
755.05012	17919.4875
758.94733	18339.8875
762.8418	19037.0875
766.73354	20003.8875
770.62254	20870.8875
774.50882	20922.1875
778.39237	20115.6875
782.27321	19123.2875
786.15132	18287.9875
790.02671	17757.4875
793.89938	17462.0875
797.76935	17336.0875
801.6366	17324.0875
805.50115	17310.9875
809.36299	17224.0875
813.22213	17124.9875
817.07857	17108.8875
820.93231	17053.2875
824.78336	16986.5875
828.63172	16971.9875
832.47738	16941.4875
836.32036	16933.6875
840.16066	16991.5875
843.99827	16941.6875
847.8332	16929.1875
851.66546	16902.6875
855.49504	16942.6875
859.32195	16942.8875
863.1462	16848.2875
866.96777	16870.8875
870.78668	16819.7875
874.60293	16855.0875
878.41652	16883.8875
882.22745	16922.5875
886.03573	16950.6875
889.84136	16973.4875
893.64433	16932.6875
897.44466	16874.0875
901.24235	16854.8875
905.0374	16795.2875
908.8298	16801.4875
912.61957	16834.4875
916.40671	16971.4875
920.19121	17139.0875
923.97308	17261.1875
927.75233	17250.4875
931.52895	17099.7875
935.30295	16865.6875
939.07433	16673.1875
942.84309	16461.3875
946.60924	16393.8875
950.37278	16340.8875
954.13371	16337.4875
957.89203	16317.9875
961.64774	16321.9875
965.40086	16307.4875
969.15137	16256.1875
972.89929	16193.2875
976.64461	16116.3875
980.38733	16112.4875
984.12747	16151.4875
987.86502	16171.0875
991.59999	16233.5875
995.33237	16317.5875
999.06217	16520.4875
1002.78939	16721.7875
1006.51404	16987.2875
1010.23611	17254.7875
1013.95561	17423.6875
1017.67255	17448.2875
1021.38692	17297.3875
1025.09872	17059.5875
1028.80796	16893.5875
1032.51465	16853.2875
1036.21877	16910.6875
1039.92035	17002.3875
1043.61937	17060.4875
1047.31584	17120.4875
1051.00976	17172.8875
1054.70114	17346.9875
1058.38998	17503.3875
1062.07627	17787.0875
1065.76003	18196.7875
1069.44126	18600.3875
1073.11995	19016.8875
1076.79611	19198.5875
1080.46974	19099.4875
1084.14085	18869.3875
1087.80943	18712.3875
1091.47549	18654.3875
1095.13903	18625.4875
1098.80005	18437.9875
1102.45857	18025.5875
1106.11456	17693.5875
1109.76805	17513.6875
1113.41903	17490.5875
1117.06751	17514.7875
1120.71348	17667.5875
1124.35696	17800.9875
1127.99793	18013.5875
1131.63641	18169.9875
1135.2724	18094.6875
1138.90589	18032.5875
1142.5369	18077.6875
1146.16542	18160.8875
1149.79145	18321.0875
1153.415	18446.9875
1157.03607	18650.8875
1160.65467	19030.1875
1164.27079	19685.7875
1167.88443	20527.7875
1171.49561	21499.0875
1175.10432	22578.8875
1178.71056	23930.2875
1182.31434	25176.3875
1185.91565	25713.1875
1189.51451	25564.5875
1193.11091	25090.8875
1196.70485	24382.6875
1200.29634	23606.6875
1203.88538	23061.1875
1207.47197	22799.3875
1211.05612	22578.9875
1214.63782	22247.2875
1218.21708	21740.7875
1221.79391	21145.0875
1225.36829	20714.3875
1228.94024	20513.7875
1232.50976	20381.0875
1236.07685	20212.5875
1239.6415	20150.5875
1243.20374	20137.6875
1246.76355	20267.4875
1250.32093	20485.4875
1253.8759	20828.9875
1257.42845	21255.5875
1260.97859	21758.4875
1264.52631	22237.8875
1268.07163	22678.0875
1271.61453	23098.4875
1275.15503	23601.2875
1278.69312	24083.5875
1282.22882	24698.1875
1285.76211	25389.5875
1289.29301	26207.9875
1292.82151	27182.6875
1296.34761	28376.6875
1299.87133	29711.6875
1303.39266	30993.6875
1306.9116	32116.6875
1310.42815	32950.2875
1313.94233	33461.4875
1317.45412	33457.7875
1320.96354	33136.2875
1324.47058	32887.5875
1327.97525	32679.7875
1331.47754	32651.3875
1334.97747	32601.4875
1338.47502	32522.4875
1341.97022	32338.5875
1345.46305	32091.0875
1348.95352	31852.1875
1352.44163	31785.0875
1355.92738	32119.3875
1359.41078	32849.8875
1362.89183	33425.4875
1366.37053	32925.3875
1369.84688	30970.6875
1373.32088	28427.5875
1376.79254	26508.8875
1380.26186	25764.8875
1383.72883	25731.1875
1387.19347	25645.7875
1390.65578	25408.5875
1394.11575	25267.1875
1397.57339	25349.1875
1401.0287	25644.9875
1404.48168	25854.6875
1407.93234	25713.4875
1411.38068	25254.6875
1414.82669	24545.4875
1418.27039	23571.1875
1421.71177	22699.0875
1425.15083	22035.8875
1428.58758	21726.6875
1432.02203	21849.5875
1435.45416	22258.3875
1438.88399	22830.5875
1442.31151	23243.8875
1445.73673	23570.8875
1449.15965	23739.3875
1452.58027	23835.6875
1455.9986	23883.0875
1459.41463	23994.8875
1462.82837	24307.7875
1466.23982	24767.4875
1469.64898	25171.8875
1473.05586	25405.9875
1476.46045	25539.6875
1479.86276	25455.8875
1483.26279	25238.1875
1486.66054	25232.9875
1490.05602	25338.0875
1493.44922	25586.5875
1496.84016	25879.5875
1500.22882	26352.1875
1503.61521	26982.8875
1506.99934	27703.1875
1510.38121	28139.3875
1513.76081	28185.3875
1517.13816	27763.9875
1520.51324	27151.8875
1523.88607	26734.3875
1527.25665	26554.4875
1530.62498	26536.1875
1533.99105	26463.3875
1537.35488	26185.4875
1540.71647	25609.8875
1544.07581	24956.7875
1547.4329	24340.6875
1550.78776	23753.5875
1554.14038	23314.8875
1557.49077	23153.3875
1560.83892	23076.3875
1564.18484	23129.9875
1567.52853	23354.1875
1570.86999	23746.1875
1574.20922	24413.9875
1577.54624	25086.1875
1580.88103	25440.2875
1584.2136	25595.0875
1587.54395	25750.8875
1590.87208	26122.5875
1594.19801	26980.5875
1597.52172	27899.8875
1600.84321	28159.1875
1604.16251	27175.8875
1607.47959	25506.7875
1610.79447	23697.0875
1614.10715	21996.9875
1617.41763	20653.1875
1620.7259	19741.1875
1624.03199	19163.3875
1627.33587	19131.9875
1630.63757	19491.1875
1633.93707	20478.5875
1637.23439	22123.7875
1640.52951	24561.0875
1643.82246	27410.4875
1647.11321	29672.8875
1650.40179	30132.8875
1653.68819	28407.9875
1656.97241	25294.9875
1660.25446	22218.9875
1663.53433	19861.8875
1666.81203	18264.3875
1670.08756	17227.8875
1673.36092	16547.3875
1676.63211	16138.1875
1679.90115	15817.1875
1683.16801	15592.2875
1686.43272	15449.6875
1689.69527	15301.4875
1692.95567	15193.3875
1696.2139	15139.3875
1699.46999	15119.3875
1702.72392	15040.4875
1705.97571	15019.8875
1709.22535	14979.7875
1712.47284	14931.8875
1715.71819	14904.2875
1718.96139	14854.9875
1722.20246	14837.2875
1725.44139	14779.4875
1728.67818	14704.3875
1731.91284	14636.4875
1735.14537	14562.1875
1738.37576	14510.6875
1741.60403	14472.2875
1744.83017	14414.2875
1748.05418	14407.6875
1751.27607	14381.6875
1754.49584	14338.0875
1757.71349	14347.6875
1760.92903	14347.5875
1764.14244	14345.6875
1767.35375	14324.4875
1770.56294	14295.3875
1773.77002	14269.1875
1776.97499	14284.1875
1780.17785	14235.2875
1783.37861	14206.6875
1786.57727	14151.0875
1789.77382	14140.0875
1792.96828	14089.8875
1796.16064	14081.1875
1799.3509	14049.8875
1802.53907	14008.2875
1805.72514	13983.8875
1808.90913	13952.0875
1812.09102	13910.3875
1815.27083	13919.3875
1818.44856	13875.8875
1821.6242	13844.5875
1824.79776	13846.7875
1827.96924	13845.0875
1831.13864	13847.1875
1834.30597	13868.0875
1837.47122	13840.5875
1840.6344	13815.3875
1843.7955	13812.3875
1846.95454	13788.6875
1850.11151	13822.4875
1853.26642	13787.5875
1856.41926	13780.2875
1859.57004	13794.0875
1862.71876	13731.2875
1865.86542	13712.9875
1869.01003	13719.0875
1872.15258	13689.8875
1875.29308	13702.0875
1878.43152	13625.6875
1881.56792	13657.0875
1884.70227	13626.1875
1887.83457	13595.5875
1890.96482	13568.3875
1894.09304	13567.8875
1897.21921	13570.5875
1900.34335	13542.5875
1903.46544	13504.6875
1906.58551	13488.6875
1909.70353	13471.1875
1912.81953	13440.1875
1915.93349	13436.4875
1919.04543	13410.2875
1922.15534	13369.0875
1925.26322	13356.7875
1928.36908	13332.7875
1931.47292	13291.5875
1934.57473	13246.3875
1937.67453	13223.4875
1940.77232	13184.4875
1943.86808	13167.8875
1946.96184	13168.9875
1950.05358	13132.7875
1953.14331	13086.9875
1956.23103	13043.6875
1959.31675	13018.3875
1962.40046	12984.3875
1965.48217	12928.0875
1968.56188	12921.9875
1971.63959	12860.4875
1974.7153	12802.6875
1977.78901	12777.7875
1980.86073	12729.9875
1983.93046	12735.8875
1986.99819	12697.3875
1990.06394	12654.9875
1993.1277	12581.8875
1996.18947	12552.9875
1999.24925	12512.6875
2002.30706	12482.4875
2005.36288	12461.6875
2008.41672	12415.5875
2011.46859	12351.2875
2014.51848	12353.6875
2017.56639	12318.0875
2020.61233	12294.1875
2023.6563	12253.8875
2026.6983	12221.8875
2029.73833	12221.2875
2032.7764	12174.9875
2035.8125	12153.6875
2038.84664	12116.8875
2041.87881	12100.9875
2044.90903	12074.7875
2047.93729	12072.3875
2050.96359	12035.9875
2053.98794	12042.7875
2057.01034	12025.5875
2060.03078	12020.2875
2063.04927	11996.4875
2066.06582	12002.6875
2069.08042	11988.2875
2072.09307	11964.3875
2075.10378	11958.0875
2078.11255	11949.8875
2081.11938	11953.4875
2084.12426	11948.3875
2087.12722	11953.4875
2090.12824	11952.7875
2093.12732	11935.3875
2096.12447	11957.2875
2099.11969	11943.1875
2102.11299	11941.6875
2105.10435	11964.4875
2108.09379	11942.7875
2111.08131	11994.6875
2114.0669	11994.5875
2117.05057	11977.3875
2120.03233	11971.4875
2123.01216	12000.4875
2125.99008	11990.6875
2128.96609	12010.7875
2131.94018	12016.4875
2134.91236	12001.5875
2137.88263	12028.9875
2140.851	12004.4875
2143.81746	12014.2875
2146.78201	12051.4875
2149.74466	12028.5875
2152.7054	12060.3875
2155.66425	12055.3875
2158.6212	12061.4875
2161.57625	12049.7875
2164.52941	12034.6875
2167.48067	12033.4875
2170.43004	12033.2875
2173.37752	12018.8875
2176.32311	11993.3875
2179.26681	12010.2875
2182.20863	12015.9875
2185.14856	11998.7875
2188.08661	11983.7875
2191.02278	11975.6875
2193.95707	11981.2875
2196.88948	11992.3875
2199.82001	11948.5875
2202.74867	11934.6875
2205.67545	11952.3875
2208.60037	11927.9875
2211.52341	11929.1875
2214.44458	11893.5875
2217.36388	11844.5875
2220.28132	11849.5875
2223.1969	11810.2875
2226.11061	11807.0875
2229.02246	11811.5875
2231.93245	11767.0875
2234.84058	11731.7875
2237.74686	11746.5875
2240.65128	11736.1875
2243.55385	11696.2875
2246.45456	11696.8875
2249.35343	11680.7875
2252.25044	11657.4875
2255.14561	11618.9875
2258.03893	11590.1875
2260.93041	11588.3875
2263.82004	11563.9875
2266.70783	11522.6875
2269.59378	11518.1875
2272.4779	11481.2875
2275.36017	11453.5875
2278.24061	11425.3875
2281.11922	11413.4875
2283.996	11380.4875
2286.87094	11362.5875
2289.74405	11336.3875
2292.61534	11325.0875
2295.4848	11316.4875
2298.35243	11332.2875
2301.21824	11309.1875
2304.08223	11319.9875
2306.94439	11273.1875
2309.80474	11277.5875
2312.66327	11253.5875
2315.51999	11258.2875
2318.37489	11269.1875
2321.22797	11232.0875
2324.07925	11223.0875
2326.92871	11211.1875
2329.77637	11212.0875
2332.62222	11186.6875
2335.46626	11153.7875
2338.3085	11181.0875
2341.14893	11130.0875
2343.98756	11136.3875
2346.8244	11120.8875
2349.65943	11138.2875
2352.49267	11102.0875
2355.32411	11114.1875
2358.15376	11085.7875
2360.98161	11090.1875
2363.80768	11097.4875
2366.63195	11080.8875
2369.45444	11055.5875
2372.27514	11032.9875
2375.09405	11056.0875
2377.91118	11012.3875
2380.72652	11018.9875
2383.54009	10991.1875
2386.35187	10974.9875
2389.16188	10942.2875
2391.97011	10910.3875
2394.77657	10880.9875
2397.58125	10891.4875
2400.38416	10881.0875
2403.18529	10832.4875
2405.98466	10835.4875
2408.78226	10830.0875
2411.57809	10818.3875
2414.37216	10800.4875
2417.16446	10780.9875
2419.955	10767.7875
2422.74378	10792.6875
2425.5308	10745.3875
2428.31606	10736.8875
2431.09956	10747.5875
2433.88131	10725.7875
2436.6613	10726.4875
2439.43954	10723.5875
2442.21603	10683.8875
2444.99077	10658.2875
2447.76377	10657.2875
2450.53501	10668.3875
2453.30451	10657.9875
2456.07226	10632.9875
2458.83827	10665.0875
2461.60254	10647.9875
2464.36507	10616.4875
2467.12586	10613.9875
2469.88492	10623.4875
2472.64224	10592.2875
2475.39782	10590.1875
2478.15167	10580.1875
2480.90379	10588.0875
2483.65417	10616.6875
2486.40283	10594.7875
2489.14976	10610.0875
2491.89497	10600.6875
2494.63845	10607.8875
2497.3802	10572.6875
2500.12024	10582.7875
2502.85855	10569.9875
2505.59514	10548.5875
2508.33002	10524.0875
2511.06318	10559.6875
2513.79462	10521.9875
2516.52435	10530.3875
2519.25237	10505.2875
2521.97867	10497.3875
2524.70327	10502.5875
2527.42616	10463.6875
2530.14734	10462.3875
2532.86681	10448.3875
2535.58458	10417.1875
2538.30065	10427.9875
2541.01501	10421.8875
2543.72768	10407.9875
2546.43864	10390.9875
2549.14791	10367.4875
2551.85548	10379.6875
2554.56136	10348.0875
2557.26554	10343.8875
2559.96803	10320.5875
2562.66883	10310.2875
2565.36794	10298.3875
2568.06536	10309.3875
2570.7611	10288.2875
2573.45514	10280.4875
2576.14751	10247.6875
2578.83819	10223.2875
2581.52719	10231.5875
2584.21451	10205.6875
2586.90015	10222.1875
2589.58411	10189.4875
2592.2664	10191.1875
2594.94701	10157.7875
2597.62594	10131.3875
2600.30321	10110.1875
2602.9788	10094.0875
2605.65273	10121.4875
2608.32498	10079.2875
2610.99557	10080.7875
2613.66449	10091.3875
2616.33175	10068.0875
2618.99734	10069.0875
2621.66128	10057.3875
2624.32355	10039.1875
2626.98416	10034.7875
2629.64311	10016.9875
2632.30041	10027.0875
2634.95605	10018.2875
2637.61004	10008.7875
2640.26238	9981.6875
2642.91306	9977.9875
2645.56209	10000.4875
2648.20948	9980.8875
2650.85521	9959.9875
2653.4993	9978.8875
2656.14175	9957.1875
2658.78255	9959.6875
2661.42171	9959.5875
2664.05923	9965.4875
2666.6951	9965.1875
2669.32934	9974.3875
2671.96194	9965.1875
2674.59291	9960.2875
2677.22224	9949.2875
2679.84993	9941.1875
2682.476	9963.7875
2685.10043	9960.9875
2687.72324	9967.8875
2690.34441	9949.7875
2692.96396	9955.3875
2695.58188	9960.0875
2698.19818	9937.0875
2700.81285	9949.8875
2703.4259	9969.8875
2706.03733	10027.3875
2708.64714	9987.6875
2711.25533	10001.0875
2713.86191	9997.4875
2716.46687	10012.4875
2719.07021	9973.0875
2721.67194	9974.3875
2724.27206	9947.9875
2726.87057	9982.6875
2729.46747	9971.0875
2732.06276	9983.9875
2734.65644	9976.7875
2737.24852	9967.9875
2739.83899	9957.7875
2742.42786	9956.2875
2745.01513	9933.9875
2747.60079	9946.5875
2750.18486	9915.5875
2752.76733	9929.5875
2755.3482	9915.5875
2757.92747	9920.0875
2760.50515	9889.2875
2763.08123	9872.8875
2765.65573	9880.1875
2768.22863	9904.3875
2770.79994	9852.9875
2773.36967	9859.2875
2775.9378	9852.2875
2778.50435	9842.9875
2781.06932	9829.6875
2783.6327	9805.6875
2786.1945	9800.6875
2788.75471	9789.3875
2791.31335	9761.0875
2793.87041	9757.9875
2796.42589	9746.6875
2798.97979	9714.2875
2801.53212	9724.9875
2804.08288	9710.3875
2806.63206	9680.9875
2809.17967	9647.9875
2811.72571	9622.7875
2814.27018	9632.1875
2816.81308	9593.8875
2819.35442	9611.2875
2821.89419	9583.2875
2824.43239	9563.0875
2826.96904	9567.9875
2829.50412	9572.0875
2832.03763	9531.2875
2834.56959	9554.1875
2837.1	9509.9875
2839.62884	9533.6875
2842.15613	9534.7875
2844.68186	9540.0875
2847.20604	9533.8875
2849.72867	9526.0875
2852.24974	9524.6875
2854.76927	9517.8875
2857.28724	9511.3875
2859.80367	9487.5875
2862.31855	9458.6875
2864.83189	9481.5875
2867.34368	9461.3875
2869.85393	9467.3875
2872.36264	9446.0875
2874.8698	9423.5875
2877.37543	9427.6875
2879.87952	9449.3875
2882.38207	9420.4875
2884.88308	9417.5875
2887.38256	9435.2875
2889.88051	9437.5875
2892.37692	9428.2875
2894.8718	9402.2875
2897.36515	9415.7875
2899.85698	9390.1875
2902.34727	9428.8875
2904.83604	9419.6875
2907.32328	9443.6875
2909.809	9438.2875
2912.29319	9452.3875
2914.77587	9441.3875
2917.25702	9444.8875
2919.73665	9427.1875
2922.21476	9428.7875
2924.69136	9425.0875
2927.16644	9435.1875
2929.64	9426.3875
2932.11205	9411.6875
2934.58258	9382.3875
2937.05161	9410.8875
2939.51912	9410.0875
2941.98513	9397.4875
2944.44962	9349.8875
2946.91261	9339.4875
2949.37409	9337.2875
2951.83407	9328.6875
2954.29254	9306.4875
2956.74951	9306.3875
2959.20498	9291.0875
2961.65895	9300.3875
2964.11142	9312.6875
2966.56239	9290.1875
2969.01186	9273.4875
2971.45984	9236.5875
2973.90632	9238.3875
2976.35131	9180.5875
2978.7948	9181.1875
2981.23681	9160.1875
2983.67732	9150.3875
2986.11635	9140.8875
2988.55388	9125.9875
2990.98993	9106.9875
2993.4245	9077.2875
2995.85758	9056.1875
2998.28917	9023.9875
3000.71928	9038.8875
3003.14791	9006.3875
3005.57506	8987.5875
3008.00073	8998.2875
3010.42493	8986.8875
3012.84764	8979.7875
3015.26888	8926.5875
3017.68865	8903.7875
3020.10694	8916.2875
3022.52376	8890.2875
3024.9391	8899.5875
3027.35298	8872.5875
3029.76539	8876.1875
3032.17632	8866.9875
3034.5858	8835.4875
3036.9938	8856.7875
3039.40034	8822.6875
3041.80542	8818.2875
3044.20903	8785.3875
