Data from AgNP_FTO_APTES_CRN_10uM_R6G_10uM_NaF_0.1M_Addition_RamanShift__18__16-35-57-974.txt Node

Date: Wed Dec 15 16:35:57 GMT 2021
User: TCL
Spectrometer: QEP01345
Trigger mode: 4
Integration Time (sec): 7.000000E0
Scans to average: 10
Electric dark correction enabled: true
Nonlinearity correction enabled: false
Boxcar width: 0
XAxis mode: Raman Shifts
Number of Pixels in Spectrum: 1044
>>>>>Begin Spectral Data<<<<<
46.04893	-1.025
50.45542	-1.525
54.85868	-0.825
59.25871	0.075
63.6555	78.075
68.04907	83.975
72.43941	87.375
76.82654	93.175
81.21044	97.575
85.59113	99.075
89.96862	105.075
94.34289	105.075
98.71396	112.275
103.08183	114.975
107.4465	117.575
111.80798	118.375
116.16626	123.875
120.52136	128.975
124.87327	130.275
129.222	136.175
133.56755	141.675
137.90993	157.775
142.24913	171.575
146.58517	185.075
150.91804	209.475
155.24774	250.475
159.57429	311.775
163.89768	396.275
168.21792	517.675
172.53501	703.875
176.84895	978.975
181.15975	1363.375
185.46741	1902.475
189.77193	2624.375
194.07331	3499.575
198.37157	4511.075
202.6667	5568.575
206.9587	6614.575
211.24758	7672.975
215.53334	8719.175
219.81599	9813.875
224.09553	11041.175
228.37195	12383.575
232.64527	13874.175
236.91549	15428.475
241.18261	17023.975
245.44663	18488.075
249.70755	19802.475
253.96539	20924.875
258.22014	21903.475
262.4718	22743.175
266.72039	23310.175
270.96589	23599.975
275.20832	23633.775
279.44768	23469.575
283.68397	23232.775
287.91719	23039.575
292.14735	22919.975
296.37445	22981.475
300.59849	23028.775
304.81948	23164.075
309.03742	23129.675
313.25231	22912.975
317.46415	22319.575
321.67296	21597.375
325.87872	21043.875
330.08145	20768.175
334.28114	20750.475
338.47781	20934.875
342.67145	21168.075
346.86207	21584.375
351.04966	22109.275
355.23424	22681.375
359.4158	23111.675
363.59435	23393.475
367.76989	23575.775
371.94243	23624.575
376.11196	23650.775
380.27849	23699.075
384.44203	23701.875
388.60257	23801.275
392.76012	23996.375
396.91468	24308.175
401.06626	24635.775
405.21485	24912.575
409.36047	24764.475
413.50311	24332.175
417.64277	23887.075
421.77947	23739.375
425.9132	23748.675
430.04396	23863.975
434.17176	24009.775
438.2966	24210.775
442.41849	24587.675
446.53742	25184.075
450.6534	25842.775
454.76644	26409.675
458.87653	26584.175
462.98368	26498.875
467.08789	26239.075
471.18916	25981.275
475.2875	25714.475
479.38291	25544.075
483.4754	25326.575
487.56496	24970.975
491.6516	24557.075
495.73531	24273.375
499.81612	24194.375
503.89401	24330.575
507.96899	24460.675
512.04106	24498.475
516.11023	24565.275
520.1765	24555.075
524.23987	24543.675
528.30034	24406.475
532.35792	24106.975
536.41261	23753.675
540.46441	23337.275
544.51333	23216.475
548.55936	23443.275
552.60252	23919.375
556.64279	24376.675
560.6802	24723.775
564.71473	24897.875
568.7464	25186.775
572.7752	25605.075
576.80114	25929.675
580.82422	26211.275
584.84444	26572.575
588.86181	27019.175
592.87633	27564.375
596.888	28021.075
600.89682	28379.575
604.9028	29337.075
608.90594	31704.275
612.90624	34169.475
616.90371	32210.775
620.89834	26773.175
624.89015	24358.075
628.87913	24130.675
632.86528	24298.075
636.84862	24282.575
640.82913	23923.675
644.80683	23251.675
648.78172	22724.975
652.75379	22566.175
656.72306	22797.875
660.68952	23120.975
664.65319	23018.275
668.61405	22627.475
672.57211	22460.875
676.52738	22508.475
680.47986	22445.975
684.42955	22318.975
688.37646	22261.375
692.32058	22345.575
696.26192	22521.975
700.20048	22797.775
704.13626	22983.575
708.06928	23011.875
711.99952	22948.375
715.927	22962.575
719.85171	22943.575
723.77365	22833.175
727.69284	22585.175
731.60928	22389.275
735.52295	22323.275
739.43388	22272.675
743.34206	22359.075
747.24749	22435.575
751.15017	22595.175
755.05012	22982.875
758.94733	23653.175
762.8418	24958.275
766.73354	27000.375
770.62254	29057.075
774.50882	29680.775
778.39237	28301.375
782.27321	26022.475
786.15132	24120.975
790.02671	23007.875
793.89938	22496.575
797.76935	22333.875
801.6366	22268.175
805.50115	22193.175
809.36299	22089.375
813.22213	21909.975
817.07857	21861.375
820.93231	21783.775
824.78336	21720.275
828.63172	21764.375
832.47738	21785.275
836.32036	21862.475
840.16066	22018.175
843.99827	22049.775
847.8332	21907.375
851.66546	21785.175
855.49504	21724.675
859.32195	21695.875
863.1462	21592.975
866.96777	21541.875
870.78668	21463.975
874.60293	21470.675
878.41652	21490.375
882.22745	21536.275
886.03573	21624.775
889.84136	21580.875
893.64433	21574.075
897.44466	21411.975
901.24235	21342.875
905.0374	21296.475
908.8298	21305.675
912.61957	21336.875
916.40671	21547.275
920.19121	21777.275
923.97308	22006.075
927.75233	22166.475
931.52895	22138.475
935.30295	21919.175
939.07433	21489.675
942.84309	21136.675
946.60924	20915.375
950.37278	20853.475
954.13371	20792.975
957.89203	20712.475
961.64774	20657.875
965.40086	20612.775
969.15137	20555.875
972.89929	20471.175
976.64461	20439.075
980.38733	20426.475
984.12747	20565.975
987.86502	20755.275
991.59999	20978.875
995.33237	21383.875
999.06217	22026.575
1002.78939	22664.275
1006.51404	23104.675
1010.23611	23401.475
1013.95561	23632.675
1017.67255	23537.975
1021.38692	23191.275
1025.09872	22932.175
1028.80796	23087.275
1032.51465	23685.075
1036.21877	24385.875
1039.92035	24516.275
1043.61937	24239.475
1047.31584	23808.575
1051.00976	23341.675
1054.70114	23231.575
1058.38998	23461.875
1062.07627	23795.575
1065.76003	24416.875
1069.44126	25166.775
1073.11995	26041.575
1076.79611	26691.875
1080.46974	26790.875
1084.14085	26414.175
1087.80943	25892.375
1091.47549	25496.375
1095.13903	25076.375
1098.80005	24491.175
1102.45857	23881.775
1106.11456	23399.875
1109.76805	23288.375
1113.41903	23308.875
1117.06751	23468.475
1120.71348	23703.475
1124.35696	24027.875
1127.99793	24415.575
1131.63641	24661.475
1135.2724	24481.875
1138.90589	24230.075
1142.5369	24073.075
1146.16542	23996.675
1149.79145	23944.975
1153.415	24147.175
1157.03607	24461.775
1160.65467	25069.875
1164.27079	26087.975
1167.88443	27479.075
1171.49561	29334.875
1175.10432	31755.375
1178.71056	34901.875
1182.31434	37571.175
1185.91565	38764.075
1189.51451	38197.375
1193.11091	36648.675
1196.70485	34744.475
1200.29634	32969.675
1203.88538	31756.375
1207.47197	30914.975
1211.05612	30247.875
1214.63782	29784.375
1218.21708	29366.975
1221.79391	29154.575
1225.36829	29000.475
1228.94024	28756.575
1232.50976	28330.075
1236.07685	27908.075
1239.6415	27711.975
1243.20374	27691.175
1246.76355	27884.575
1250.32093	28282.375
1253.8759	28884.675
1257.42845	29697.775
1260.97859	30514.975
1264.52631	31296.075
1268.07163	32219.475
1271.61453	33133.875
1275.15503	34179.575
1278.69312	35225.075
1282.22882	36101.675
1285.76211	36972.875
1289.29301	37974.475
1292.82151	39223.375
1296.34761	40829.675
1299.87133	43012.575
1303.39266	45629.075
1306.9116	48702.075
1310.42815	51664.475
1313.94233	53520.875
1317.45412	53547.075
1320.96354	52447.475
1324.47058	51137.575
1327.97525	49848.675
1331.47754	48790.375
1334.97747	48109.075
1338.47502	47769.875
1341.97022	47413.775
1345.46305	46865.375
1348.95352	46358.375
1352.44163	46461.575
1355.92738	47695.075
1359.41078	50287.675
1362.89183	52917.375
1366.37053	52400.875
1369.84688	48160.775
1373.32088	42962.875
1376.79254	39215.275
1380.26186	37591.575
1383.72883	37083.975
1387.19347	36735.675
1390.65578	36294.375
1394.11575	36066.175
1397.57339	36345.775
1401.0287	36982.775
1404.48168	37538.675
1407.93234	37543.975
1411.38068	37001.075
1414.82669	35831.275
1418.27039	34297.175
1421.71177	32957.175
1425.15083	31749.775
1428.58758	31106.775
1432.02203	31167.675
1435.45416	31721.475
1438.88399	32541.075
1442.31151	33342.975
1445.73673	33923.875
1449.15965	34474.075
1452.58027	34851.975
1455.9986	35145.475
1459.41463	35540.875
1462.82837	36164.175
1466.23982	37071.975
1469.64898	37793.675
1473.05586	38187.575
1476.46045	38213.775
1479.86276	37992.075
1483.26279	37600.575
1486.66054	37237.175
1490.05602	37238.775
1493.44922	37499.475
1496.84016	37969.275
1500.22882	38905.075
1503.61521	40395.075
1506.99934	42322.375
1510.38121	43940.775
1513.76081	44417.675
1517.13816	43312.775
1520.51324	41214.675
1523.88607	39183.575
1527.25665	37788.375
1530.62498	37098.575
1533.99105	36722.775
1537.35488	36387.475
1540.71647	35875.675
1544.07581	35402.075
1547.4329	34751.575
1550.78776	34255.975
1554.14038	33940.675
1557.49077	33815.075
1560.83892	33889.775
1564.18484	34054.275
1567.52853	34570.275
1570.86999	35376.975
1574.20922	36607.975
1577.54624	37974.975
1580.88103	38748.775
1584.2136	39086.575
1587.54395	38978.575
1590.87208	39159.175
1594.19801	40318.675
1597.52172	42002.875
1600.84321	42486.075
1604.16251	40621.875
1607.47959	37544.075
1610.79447	34248.075
1614.10715	31434.375
1617.41763	29116.175
1620.7259	27546.675
1624.03199	26746.275
1627.33587	26768.475
1630.63757	27490.875
1633.93707	29123.775
1637.23439	31760.675
1640.52951	35416.475
1643.82246	39667.375
1647.11321	43060.975
1650.40179	43877.975
1653.68819	41275.375
1656.97241	36232.875
1660.25446	31104.375
1663.53433	27218.575
1666.81203	24734.175
1670.08756	23105.575
1673.36092	22117.175
1676.63211	21470.175
1679.90115	20985.875
1683.16801	20632.075
1686.43272	20412.975
1689.69527	20223.275
1692.95567	20106.975
1696.2139	20015.575
1699.46999	19968.575
1702.72392	19930.675
1705.97571	19844.275
1709.22535	19759.175
1712.47284	19701.175
1715.71819	19662.975
1718.96139	19597.675
1722.20246	19529.675
1725.44139	19450.875
1728.67818	19381.975
1731.91284	19243.375
1735.14537	19137.275
1738.37576	19066.975
1741.60403	19004.975
1744.83017	18941.475
1748.05418	18908.275
1751.27607	18912.275
1754.49584	18872.475
1757.71349	18864.275
1760.92903	18841.275
1764.14244	18827.375
1767.35375	18819.975
1770.56294	18811.475
1773.77002	18742.575
1776.97499	18736.475
1780.17785	18681.675
1783.37861	18629.275
1786.57727	18576.275
1789.77382	18534.075
1792.96828	18519.175
1796.16064	18488.575
1799.3509	18486.775
1802.53907	18416.875
1805.72514	18364.375
1808.90913	18343.175
1812.09102	18277.775
1815.27083	18227.175
1818.44856	18229.375
1821.6242	18160.775
1824.79776	18167.375
1827.96924	18170.975
1831.13864	18149.175
1834.30597	18191.875
1837.47122	18146.475
1840.6344	18177.675
1843.7955	18149.275
1846.95454	18152.075
1850.11151	18154.175
1853.26642	18131.975
1856.41926	18132.675
1859.57004	18109.075
1862.71876	18129.375
1865.86542	18110.275
1869.01003	18102.775
1872.15258	18091.575
1875.29308	18076.275
1878.43152	18038.175
1881.56792	18039.575
1884.70227	18014.575
1887.83457	17996.075
1890.96482	17994.975
1894.09304	17960.775
1897.21921	17970.475
1900.34335	17955.175
1903.46544	17942.375
1906.58551	17959.975
1909.70353	17911.775
1912.81953	17923.675
1915.93349	17845.475
1919.04543	17839.875
1922.15534	17836.675
1925.26322	17774.475
1928.36908	17728.775
1931.47292	17690.175
1934.57473	17627.675
1937.67453	17604.375
1940.77232	17553.675
1943.86808	17496.075
1946.96184	17462.075
1950.05358	17385.575
1953.14331	17348.375
1956.23103	17299.775
1959.31675	17263.075
1962.40046	17228.875
1965.48217	17193.475
1968.56188	17104.275
1971.63959	17100.275
1974.7153	17002.175
1977.78901	16940.975
1980.86073	16906.875
1983.93046	16852.275
1986.99819	16826.575
1990.06394	16765.775
1993.1277	16754.575
1996.18947	16631.975
1999.24925	16620.175
2002.30706	16559.775
2005.36288	16525.275
2008.41672	16510.275
2011.46859	16439.575
2014.51848	16421.175
2017.56639	16379.075
2020.61233	16309.475
2023.6563	16311.975
2026.6983	16253.875
2029.73833	16245.575
2032.7764	16237.975
2035.8125	16220.475
2038.84664	16157.375
2041.87881	16168.975
2044.90903	16148.575
2047.93729	16113.075
2050.96359	16097.875
2053.98794	16098.675
2057.01034	16107.075
2060.03078	16073.775
2063.04927	16055.975
2066.06582	16062.275
2069.08042	16017.175
2072.09307	15996.475
2075.10378	15949.475
2078.11255	15962.075
2081.11938	15986.175
2084.12426	15986.075
2087.12722	15965.875
2090.12824	15977.275
2093.12732	15944.875
2096.12447	16012.475
2099.11969	15955.975
2102.11299	16009.975
2105.10435	15984.375
2108.09379	16015.775
2111.08131	16040.975
2114.0669	16016.075
2117.05057	16032.475
2120.03233	16077.775
2123.01216	16047.075
2125.99008	16076.475
2128.96609	16100.575
2131.94018	16098.275
2134.91236	16130.775
2137.88263	16126.175
2140.851	16116.475
2143.81746	16175.375
2146.78201	16165.475
2149.74466	16164.375
2152.7054	16160.075
2155.66425	16166.775
2158.6212	16185.575
2161.57625	16167.675
2164.52941	16150.275
2167.48067	16176.375
2170.43004	16159.875
2173.37752	16188.475
2176.32311	16158.775
2179.26681	16164.475
2182.20863	16155.775
2185.14856	16142.975
2188.08661	16137.075
2191.02278	16185.075
2193.95707	16146.275
2196.88948	16139.375
2199.82001	16127.175
2202.74867	16139.675
2205.67545	16161.775
2208.60037	16134.375
2211.52341	16119.875
2214.44458	16112.975
2217.36388	16088.275
2220.28132	16078.075
2223.1969	16043.175
2226.11061	16045.775
2229.02246	15997.175
2231.93245	15969.175
2234.84058	15929.775
2237.74686	15932.975
2240.65128	15914.775
2243.55385	15864.275
2246.45456	15826.275
2249.35343	15817.175
2252.25044	15784.375
2255.14561	15772.675
2258.03893	15767.275
2260.93041	15760.675
2263.82004	15705.875
2266.70783	15681.375
2269.59378	15661.375
2272.4779	15589.975
2275.36017	15536.875
2278.24061	15526.275
2281.11922	15513.575
2283.996	15496.575
2286.87094	15495.775
2289.74405	15463.275
2292.61534	15435.975
2295.4848	15444.575
2298.35243	15451.575
2301.21824	15418.875
2304.08223	15439.575
2306.94439	15451.875
2309.80474	15425.675
2312.66327	15468.275
2315.51999	15429.775
2318.37489	15467.275
2321.22797	15426.975
2324.07925	15408.375
2326.92871	15424.675
2329.77637	15441.975
2332.62222	15407.575
2335.46626	15396.575
2338.3085	15401.475
2341.14893	15414.575
2343.98756	15410.775
2346.8244	15416.875
2349.65943	15424.675
2352.49267	15425.475
2355.32411	15419.975
2358.15376	15391.275
2360.98161	15381.975
2363.80768	15381.475
2366.63195	15364.675
2369.45444	15352.675
2372.27514	15318.375
2375.09405	15281.675
2377.91118	15247.575
2380.72652	15190.075
2383.54009	15198.375
2386.35187	15209.875
2389.16188	15140.575
2391.97011	15114.275
2394.77657	15112.875
2397.58125	15061.375
2400.38416	15030.875
2403.18529	15061.275
2405.98466	15042.075
2408.78226	14987.675
2411.57809	15001.975
2414.37216	14950.375
2417.16446	14907.975
2419.955	14896.975
2422.74378	14894.175
2425.5308	14869.275
2428.31606	14831.975
2431.09956	14865.775
2433.88131	14838.475
2436.6613	14847.175
2439.43954	14827.275
2442.21603	14844.375
2444.99077	14825.975
2447.76377	14816.075
2450.53501	14816.575
2453.30451	14816.275
2456.07226	14819.175
2458.83827	14784.675
2461.60254	14788.975
2464.36507	14802.175
2467.12586	14804.075
2469.88492	14818.475
2472.64224	14813.675
2475.39782	14796.375
2478.15167	14849.175
2480.90379	14861.875
2483.65417	14863.675
2486.40283	14884.775
2489.14976	14890.775
2491.89497	14893.175
2494.63845	14914.675
2497.3802	14881.975
2500.12024	14848.475
2502.85855	14888.375
2505.59514	14866.875
2508.33002	14856.475
2511.06318	14840.075
2513.79462	14793.475
2516.52435	14773.075
2519.25237	14743.775
2521.97867	14750.175
2524.70327	14768.675
2527.42616	14769.575
2530.14734	14775.175
2532.86681	14736.075
2535.58458	14738.375
2538.30065	14715.575
2541.01501	14724.875
2543.72768	14722.075
2546.43864	14717.475
2549.14791	14705.375
2551.85548	14669.175
2554.56136	14650.475
2557.26554	14643.975
2559.96803	14640.475
2562.66883	14635.975
2565.36794	14636.975
2568.06536	14614.175
2570.7611	14623.675
2573.45514	14616.175
2576.14751	14618.275
2578.83819	14571.675
2581.52719	14579.575
2584.21451	14583.075
2586.90015	14582.975
2589.58411	14567.075
2592.2664	14538.375
2594.94701	14535.075
2597.62594	14539.175
2600.30321	14515.275
2602.9788	14501.875
2605.65273	14473.275
2608.32498	14476.975
2610.99557	14442.075
2613.66449	14465.575
2616.33175	14470.975
2618.99734	14482.575
2621.66128	14459.775
2624.32355	14471.975
2626.98416	14485.175
2629.64311	14486.375
2632.30041	14471.675
2634.95605	14453.075
2637.61004	14465.475
2640.26238	14439.075
2642.91306	14426.675
2645.56209	14399.175
2648.20948	14401.775
2650.85521	14386.975
2653.4993	14380.675
2656.14175	14414.875
2658.78255	14397.775
2661.42171	14386.475
2664.05923	14407.775
2666.6951	14404.475
2669.32934	14423.275
2671.96194	14405.675
2674.59291	14425.875
2677.22224	14420.075
2679.84993	14441.175
2682.476	14391.075
2685.10043	14391.875
2687.72324	14368.475
2690.34441	14403.575
2692.96396	14399.575
2695.58188	14382.075
2698.19818	14349.375
2700.81285	14393.275
2703.4259	14404.675
2706.03733	14475.075
2708.64714	14432.775
2711.25533	14449.375
2713.86191	14426.875
2716.46687	14455.875
2719.07021	14465.975
2721.67194	14445.375
2724.27206	14437.975
2726.87057	14456.075
2729.46747	14459.775
2732.06276	14443.275
2734.65644	14458.775
2737.24852	14457.475
2739.83899	14465.175
2742.42786	14445.975
2745.01513	14413.675
2747.60079	14397.875
2750.18486	14427.875
2752.76733	14418.675
2755.3482	14417.775
2757.92747	14405.375
2760.50515	14436.275
2763.08123	14422.475
2765.65573	14371.475
2768.22863	14398.975
2770.79994	14361.275
2773.36967	14380.575
2775.9378	14374.275
2778.50435	14332.775
2781.06932	14384.475
2783.6327	14385.775
2786.1945	14352.875
2788.75471	14352.975
2791.31335	14295.875
2793.87041	14286.275
2796.42589	14238.875
2798.97979	14248.075
2801.53212	14233.975
2804.08288	14241.375
2806.63206	14195.075
2809.17967	14152.875
2811.72571	14127.875
2814.27018	14127.475
2816.81308	14085.975
2819.35442	14084.375
2821.89419	14080.775
2824.43239	14092.175
2826.96904	14071.175
2829.50412	14083.675
2832.03763	14031.375
2834.56959	14037.475
2837.1	14007.675
2839.62884	14016.175
2842.15613	14011.675
2844.68186	14042.275
2847.20604	14065.275
2849.72867	14069.675
2852.24974	14040.375
2854.76927	14041.675
2857.28724	14061.075
2859.80367	14034.675
2862.31855	14030.575
2864.83189	14022.175
2867.34368	14008.475
2869.85393	14004.875
2872.36264	14023.475
2874.8698	14005.875
2877.37543	14016.675
2879.87952	14029.175
2882.38207	14030.575
2884.88308	14003.675
2887.38256	14037.075
2889.88051	14024.875
2892.37692	14053.775
2894.8718	14050.575
2897.36515	14032.975
2899.85698	14031.575
2902.34727	14090.175
2904.83604	14065.275
2907.32328	14124.775
2909.809	14117.075
2912.29319	14123.075
2914.77587	14124.475
2917.25702	14111.975
2919.73665	14094.775
2922.21476	14102.575
2924.69136	14119.075
2927.16644	14117.475
2929.64	14105.675
2932.11205	14075.675
2934.58258	14038.875
2937.05161	14096.875
2939.51912	14053.475
2941.98513	14019.575
2944.44962	13996.575
2946.91261	13956.575
2949.37409	14000.875
2951.83407	13992.175
2954.29254	13962.675
2956.74951	13933.675
2959.20498	13930.175
2961.65895	13937.275
2964.11142	13915.375
2966.56239	13892.175
2969.01186	13887.475
2971.45984	13790.475
2973.90632	13745.075
2976.35131	13722.275
2978.7948	13733.075
2981.23681	13672.275
2983.67732	13692.475
2986.11635	13635.175
2988.55388	13622.175
2990.98993	13589.175
2993.4245	13553.875
2995.85758	13560.975
2998.28917	13534.075
3000.71928	13493.475
3003.14791	13461.375
3005.57506	13497.975
3008.00073	13430.575
3010.42493	13429.675
3012.84764	13423.775
3015.26888	13402.875
3017.68865	13364.475
3020.10694	13362.975
3022.52376	13348.075
3024.9391	13357.375
3027.35298	13338.475
3029.76539	13351.175
3032.17632	13308.275
3034.5858	13302.575
3036.9938	13288.575
3039.40034	13291.175
3041.80542	13276.575
3044.20903	13243.175
3046.61118	13268.075
3049.01187	13232.275
3051.4111	13224.375
3053.80888	13205.975
3056.20519	13165.875
3058.60005	13140.575
3060.99345	13121.975
3063.3854	13112.375
3065.7759	13069.275
3068.16494	13050.975
3070.55254	13020.375
3072.93868	13024.875
3075.32338	12983.975
3077.70662	12947.275
3080.08842	12926.375
3082.46878	12903.075
3084.84769	12912.875
3087.22515	12907.775
3089.60118	12884.775
3091.97576	12910.475
3094.3489	12880.975
3096.72061	12885.475
3099.09087	12894.975
3101.4597	12860.275
3103.82709	12866.475
3106.19305	12838.275
3108.55757	12820.475
3110.92066	12796.875
3113.28232	12805.575
3115.64255	12790.375
3118.00134	12759.775
3120.35871	12733.875
3122.71466	12724.975
3125.06917	12736.475
3127.42226	12657.375
