Data from AgNP_FTO_APTES_CRN_500uM_R6G_10uM_NaF_0.1M_Addition_RamanShift__12__20-17-38-214.txt Node

Date: Wed Dec 15 20:17:38 GMT 2021
User: TCL
Spectrometer: QEP01345
Trigger mode: 4
Integration Time (sec): 7.000000E0
Scans to average: 10
Electric dark correction enabled: true
Nonlinearity correction enabled: false
Boxcar width: 0
XAxis mode: Raman Shifts
Number of Pixels in Spectrum: 1044
>>>>>Begin Spectral Data<<<<<
46.04893	1.1125
50.45542	-1.8875
54.85868	0.8125
59.25871	-0.9875
63.6555	54.3125
68.04907	63.5125
72.43941	61.6125
76.82654	67.7125
81.21044	67.3125
85.59113	70.6125
89.96862	73.9125
94.34289	74.0125
98.71396	79.5125
103.08183	83.4125
107.4465	87.9125
111.80798	87.3125
116.16626	89.4125
120.52136	90.6125
124.87327	91.9125
129.222	95.4125
133.56755	100.5125
137.90993	111.2125
142.24913	117.3125
146.58517	127.3125
150.91804	146.0125
155.24774	169.8125
159.57429	213.0125
163.89768	268.7125
168.21792	349.3125
172.53501	470.5125
176.84895	647.0125
181.15975	905.8125
185.46741	1277.2125
189.77193	1772.8125
194.07331	2369.5125
198.37157	3052.6125
202.6667	3773.7125
206.9587	4489.5125
211.24758	5200.2125
215.53334	5884.0125
219.81599	6607.5125
224.09553	7404.4125
228.37195	8252.7125
232.64527	9180.1125
236.91549	10207.7125
241.18261	11282.4125
245.44663	12286.2125
249.70755	13215.1125
253.96539	14051.2125
258.22014	14719.6125
262.4718	15266.5125
266.72039	15664.5125
270.96589	15873.9125
275.20832	15915.5125
279.44768	15892.9125
283.68397	15769.9125
287.91719	15664.8125
292.14735	15607.1125
296.37445	15553.6125
300.59849	15551.7125
304.81948	15499.6125
309.03742	15410.4125
313.25231	15278.8125
317.46415	15065.6125
321.67296	14807.9125
325.87872	14587.1125
330.08145	14497.5125
334.28114	14520.9125
338.47781	14607.9125
342.67145	14769.4125
346.86207	14945.4125
351.04966	15115.7125
355.23424	15350.1125
359.4158	15493.8125
363.59435	15619.0125
367.76989	15725.4125
371.94243	15792.1125
376.11196	15842.6125
380.27849	15898.8125
384.44203	15962.9125
388.60257	16107.3125
392.76012	16274.7125
396.91468	16428.3125
401.06626	16617.0125
405.21485	16801.9125
409.36047	16813.5125
413.50311	16740.8125
417.64277	16681.9125
421.77947	16686.7125
425.9132	16742.7125
430.04396	16884.5125
434.17176	16974.4125
438.2966	17092.6125
442.41849	17260.2125
446.53742	17468.5125
450.6534	17693.2125
454.76644	17938.2125
458.87653	18087.6125
462.98368	18115.3125
467.08789	18079.4125
471.18916	18098.9125
475.2875	18036.2125
479.38291	17991.4125
483.4754	17952.8125
487.56496	17778.3125
491.6516	17634.0125
495.73531	17476.8125
499.81612	17368.3125
503.89401	17439.7125
507.96899	17501.7125
512.04106	17554.6125
516.11023	17555.5125
520.1765	17478.4125
524.23987	17424.5125
528.30034	17309.3125
532.35792	17167.7125
536.41261	17107.7125
540.46441	17034.8125
544.51333	17066.4125
548.55936	17211.6125
552.60252	17453.8125
556.64279	17709.8125
560.6802	17890.0125
564.71473	18014.7125
568.7464	18205.0125
572.7752	18505.6125
576.80114	18938.1125
580.82422	19251.0125
584.84444	19487.0125
588.86181	19719.0125
592.87633	19795.0125
596.888	19719.3125
600.89682	19430.1125
604.9028	19513.4125
608.90594	20011.5125
612.90624	20608.9125
616.90371	19784.1125
620.89834	18093.5125
624.89015	17319.6125
628.87913	17253.6125
632.86528	17364.9125
636.84862	17477.7125
640.82913	17367.0125
644.80683	17137.9125
648.78172	17018.0125
652.75379	16987.5125
656.72306	17049.7125
660.68952	17162.9125
664.65319	17135.8125
668.61405	17059.2125
672.57211	17054.1125
676.52738	17116.0125
680.47986	17157.8125
684.42955	17084.5125
688.37646	17079.7125
692.32058	17103.5125
696.26192	17204.8125
700.20048	17284.6125
704.13626	17411.2125
708.06928	17507.6125
711.99952	17505.2125
715.927	17469.1125
719.85171	17414.2125
723.77365	17319.5125
727.69284	17166.3125
731.60928	17070.1125
735.52295	17005.9125
739.43388	16985.6125
743.34206	17014.1125
747.24749	17048.5125
751.15017	17136.7125
755.05012	17266.0125
758.94733	17599.1125
762.8418	18081.0125
766.73354	18814.9125
770.62254	19512.8125
774.50882	19595.2125
778.39237	19033.2125
782.27321	18257.3125
786.15132	17638.2125
790.02671	17219.8125
793.89938	16968.5125
797.76935	16868.9125
801.6366	16840.4125
805.50115	16800.9125
809.36299	16784.0125
813.22213	16737.3125
817.07857	16726.5125
820.93231	16721.1125
824.78336	16644.5125
828.63172	16622.9125
832.47738	16643.2125
836.32036	16610.4125
840.16066	16603.9125
843.99827	16588.7125
847.8332	16582.9125
851.66546	16568.4125
855.49504	16569.9125
859.32195	16596.3125
863.1462	16575.7125
866.96777	16538.0125
870.78668	16550.7125
874.60293	16580.3125
878.41652	16558.6125
882.22745	16602.9125
886.03573	16598.8125
889.84136	16632.7125
893.64433	16643.5125
897.44466	16599.7125
901.24235	16576.8125
905.0374	16542.7125
908.8298	16576.2125
912.61957	16569.4125
916.40671	16647.4125
920.19121	16782.8125
923.97308	16839.2125
927.75233	16804.4125
931.52895	16691.9125
935.30295	16518.4125
939.07433	16348.2125
942.84309	16233.8125
946.60924	16139.2125
950.37278	16070.2125
954.13371	16066.0125
957.89203	16038.7125
961.64774	16062.2125
965.40086	16036.9125
969.15137	15975.0125
972.89929	15904.9125
976.64461	15857.9125
980.38733	15814.9125
984.12747	15837.0125
987.86502	15853.1125
991.59999	15882.6125
995.33237	15935.4125
999.06217	16000.8125
1002.78939	16163.4125
1006.51404	16279.6125
1010.23611	16478.9125
1013.95561	16605.4125
1017.67255	16598.9125
1021.38692	16554.0125
1025.09872	16452.9125
1028.80796	16319.5125
1032.51465	16253.3125
1036.21877	16270.3125
1039.92035	16351.2125
1043.61937	16433.4125
1047.31584	16491.6125
1051.00976	16620.4125
1054.70114	16704.1125
1058.38998	16859.5125
1062.07627	17123.9125
1065.76003	17460.4125
1069.44126	17762.8125
1073.11995	18092.0125
1076.79611	18198.1125
1080.46974	18067.3125
1084.14085	17811.9125
1087.80943	17690.8125
1091.47549	17621.9125
1095.13903	17619.9125
1098.80005	17452.0125
1102.45857	17231.8125
1106.11456	16993.4125
1109.76805	16805.8125
1113.41903	16751.5125
1117.06751	16786.0125
1120.71348	16878.7125
1124.35696	17009.0125
1127.99793	17202.5125
1131.63641	17330.2125
1135.2724	17286.2125
1138.90589	17199.5125
1142.5369	17201.9125
1146.16542	17173.3125
1149.79145	17290.6125
1153.415	17354.5125
1157.03607	17511.9125
1160.65467	17764.1125
1164.27079	18183.9125
1167.88443	18747.2125
1171.49561	19393.3125
1175.10432	20199.8125
1178.71056	21134.0125
1182.31434	22042.6125
1185.91565	22524.1125
1189.51451	22664.3125
1193.11091	22482.2125
1196.70485	22083.5125
1200.29634	21515.1125
1203.88538	21060.9125
1207.47197	20740.3125
1211.05612	20509.4125
1214.63782	20220.8125
1218.21708	19816.1125
1221.79391	19365.7125
1225.36829	19044.6125
1228.94024	18870.5125
1232.50976	18790.8125
1236.07685	18716.5125
1239.6415	18689.4125
1243.20374	18695.9125
1246.76355	18794.4125
1250.32093	18890.8125
1253.8759	19108.7125
1257.42845	19433.5125
1260.97859	19784.6125
1264.52631	20062.0125
1268.07163	20341.1125
1271.61453	20634.7125
1275.15503	21002.4125
1278.69312	21324.2125
1282.22882	21689.5125
1285.76211	22114.3125
1289.29301	22639.0125
1292.82151	23318.4125
1296.34761	24104.5125
1299.87133	24969.0125
1303.39266	25804.0125
1306.9116	26497.5125
1310.42815	27035.3125
1313.94233	27287.7125
1317.45412	27246.0125
1320.96354	27150.3125
1324.47058	27077.0125
1327.97525	27062.7125
1331.47754	27024.2125
1334.97747	27067.2125
1338.47502	27188.6125
1341.97022	27265.5125
1345.46305	27379.2125
1348.95352	27318.3125
1352.44163	27271.0125
1355.92738	27150.3125
1359.41078	27332.5125
1362.89183	27524.1125
1366.37053	27103.2125
1369.84688	25727.3125
1373.32088	24073.8125
1376.79254	22875.1125
1380.26186	22347.5125
1383.72883	22250.2125
1387.19347	22181.3125
1390.65578	22063.9125
1394.11575	21973.2125
1397.57339	21939.0125
1401.0287	21983.0125
1404.48168	21942.0125
1407.93234	21745.1125
1411.38068	21380.1125
1414.82669	20765.6125
1418.27039	20199.2125
1421.71177	19628.2125
1425.15083	19162.6125
1428.58758	18889.1125
1432.02203	18900.9125
1435.45416	19112.8125
1438.88399	19433.4125
1442.31151	19689.9125
1445.73673	19858.0125
1449.15965	20090.0125
1452.58027	20225.0125
1455.9986	20371.1125
1459.41463	20569.2125
1462.82837	20759.2125
1466.23982	21050.2125
1469.64898	21226.2125
1473.05586	21379.0125
1476.46045	21429.2125
1479.86276	21339.6125
1483.26279	21260.2125
1486.66054	21221.2125
1490.05602	21299.0125
1493.44922	21538.2125
1496.84016	21900.5125
1500.22882	22390.1125
1503.61521	23002.4125
1506.99934	23621.2125
1510.38121	24056.9125
1513.76081	24099.8125
1517.13816	23799.7125
1520.51324	23414.6125
1523.88607	23127.1125
1527.25665	22954.9125
1530.62498	22942.5125
1533.99105	22814.5125
1537.35488	22582.2125
1540.71647	22216.5125
1544.07581	21770.2125
1547.4329	21314.4125
1550.78776	20903.9125
1554.14038	20656.4125
1557.49077	20515.8125
1560.83892	20441.0125
1564.18484	20518.2125
1567.52853	20654.1125
1570.86999	20951.0125
1574.20922	21449.8125
1577.54624	21972.5125
1580.88103	22282.3125
1584.2136	22317.7125
1587.54395	22222.5125
1590.87208	22226.5125
1594.19801	22470.0125
1597.52172	22936.4125
1600.84321	22952.8125
1604.16251	22349.9125
1607.47959	21389.1125
1610.79447	20409.8125
1614.10715	19418.5125
1617.41763	18486.4125
1620.7259	17784.8125
1624.03199	17344.7125
1627.33587	17215.0125
1630.63757	17397.7125
1633.93707	17958.3125
1637.23439	18914.5125
1640.52951	20364.0125
1643.82246	22038.2125
1647.11321	23520.1125
1650.40179	24018.6125
1653.68819	23249.4125
1656.97241	21467.6125
1660.25446	19496.5125
1663.53433	17860.3125
1666.81203	16675.8125
1670.08756	15872.1125
1673.36092	15347.1125
1676.63211	15016.1125
1679.90115	14746.4125
1683.16801	14531.5125
1686.43272	14434.5125
1689.69527	14327.0125
1692.95567	14252.0125
1696.2139	14217.2125
1699.46999	14187.3125
1702.72392	14156.6125
1705.97571	14114.0125
1709.22535	14041.5125
1712.47284	14004.6125
1715.71819	14035.6125
1718.96139	13968.0125
1722.20246	13932.2125
1725.44139	13878.8125
1728.67818	13802.9125
1731.91284	13736.7125
1735.14537	13691.4125
1738.37576	13656.9125
1741.60403	13617.7125
1744.83017	13562.3125
1748.05418	13580.3125
1751.27607	13540.6125
1754.49584	13508.4125
1757.71349	13533.8125
1760.92903	13518.0125
1764.14244	13487.7125
1767.35375	13477.8125
1770.56294	13453.7125
1773.77002	13437.7125
1776.97499	13431.1125
1780.17785	13364.9125
1783.37861	13349.8125
1786.57727	13290.8125
1789.77382	13274.0125
1792.96828	13247.0125
1796.16064	13215.9125
1799.3509	13178.5125
1802.53907	13166.0125
1805.72514	13112.9125
1808.90913	13092.4125
1812.09102	13074.2125
1815.27083	13047.3125
1818.44856	13006.7125
1821.6242	13002.4125
1824.79776	12988.2125
1827.96924	12952.0125
1831.13864	12925.1125
1834.30597	12959.2125
1837.47122	12941.0125
1840.6344	12881.4125
1843.7955	12923.0125
1846.95454	12912.1125
1850.11151	12863.6125
1853.26642	12843.5125
1856.41926	12846.5125
1859.57004	12824.5125
1862.71876	12814.2125
1865.86542	12807.4125
1869.01003	12790.5125
1872.15258	12772.7125
1875.29308	12759.7125
1878.43152	12712.6125
1881.56792	12681.1125
1884.70227	12670.9125
1887.83457	12676.3125
1890.96482	12652.2125
1894.09304	12620.6125
1897.21921	12616.5125
1900.34335	12590.5125
1903.46544	12574.6125
1906.58551	12559.9125
1909.70353	12559.2125
1912.81953	12528.8125
1915.93349	12505.9125
1919.04543	12466.4125
1922.15534	12438.4125
1925.26322	12403.1125
1928.36908	12394.6125
1931.47292	12371.7125
1934.57473	12344.2125
1937.67453	12280.3125
1940.77232	12270.0125
1943.86808	12246.7125
1946.96184	12230.6125
1950.05358	12183.2125
1953.14331	12129.8125
1956.23103	12094.3125
1959.31675	12076.4125
1962.40046	12029.8125
1965.48217	12036.4125
1968.56188	11960.1125
1971.63959	11926.6125
1974.7153	11891.4125
1977.78901	11857.3125
1980.86073	11780.0125
1983.93046	11776.1125
1986.99819	11746.2125
1990.06394	11687.6125
1993.1277	11669.6125
1996.18947	11605.2125
1999.24925	11587.1125
2002.30706	11566.5125
2005.36288	11514.9125
2008.41672	11466.7125
2011.46859	11441.6125
2014.51848	11414.0125
2017.56639	11389.7125
2020.61233	11339.0125
2023.6563	11339.3125
2026.6983	11295.2125
2029.73833	11271.3125
2032.7764	11236.2125
2035.8125	11208.2125
2038.84664	11187.5125
2041.87881	11178.2125
2044.90903	11158.4125
2047.93729	11115.8125
2050.96359	11084.1125
2053.98794	11070.5125
2057.01034	11056.0125
2060.03078	11049.5125
2063.04927	11037.1125
2066.06582	11052.6125
2069.08042	11028.6125
2072.09307	11048.5125
2075.10378	11009.4125
2078.11255	10953.4125
2081.11938	11009.5125
2084.12426	10971.9125
2087.12722	10991.7125
2090.12824	10967.5125
2093.12732	10983.3125
2096.12447	10988.0125
2099.11969	10966.4125
2102.11299	10967.9125
2105.10435	10978.3125
2108.09379	10980.4125
2111.08131	10969.1125
2114.0669	10985.4125
2117.05057	10981.3125
2120.03233	10971.1125
2123.01216	10993.8125
2125.99008	10995.0125
2128.96609	11020.2125
2131.94018	11020.6125
2134.91236	11005.8125
2137.88263	11017.1125
2140.851	11035.7125
2143.81746	11012.7125
2146.78201	11020.2125
2149.74466	11017.5125
2152.7054	11030.2125
2155.66425	11020.5125
2158.6212	11026.0125
2161.57625	11019.3125
2164.52941	11015.3125
2167.48067	11002.4125
2170.43004	10988.7125
2173.37752	10975.3125
2176.32311	10972.3125
2179.26681	10964.7125
2182.20863	10963.4125
2185.14856	10956.6125
2188.08661	10932.6125
2191.02278	10938.8125
2193.95707	10896.8125
2196.88948	10882.6125
2199.82001	10884.8125
2202.74867	10894.4125
2205.67545	10885.3125
2208.60037	10835.0125
2211.52341	10841.2125
2214.44458	10821.2125
2217.36388	10743.6125
2220.28132	10759.7125
2223.1969	10745.1125
2226.11061	10719.4125
2229.02246	10693.6125
2231.93245	10679.2125
2234.84058	10665.1125
2237.74686	10656.7125
2240.65128	10645.4125
2243.55385	10601.1125
2246.45456	10600.8125
2249.35343	10549.1125
2252.25044	10552.5125
2255.14561	10530.7125
2258.03893	10494.6125
2260.93041	10499.4125
2263.82004	10492.3125
2266.70783	10445.6125
2269.59378	10394.8125
2272.4779	10379.9125
2275.36017	10390.0125
2278.24061	10316.0125
2281.11922	10306.1125
2283.996	10271.0125
2286.87094	10269.4125
2289.74405	10225.3125
2292.61534	10232.3125
2295.4848	10227.6125
2298.35243	10208.5125
2301.21824	10177.8125
2304.08223	10159.4125
2306.94439	10161.7125
2309.80474	10151.3125
2312.66327	10155.5125
2315.51999	10153.4125
2318.37489	10127.1125
2321.22797	10107.7125
2324.07925	10097.1125
2326.92871	10090.6125
2329.77637	10069.1125
2332.62222	10019.9125
2335.46626	10035.3125
2338.3085	10024.2125
2341.14893	10004.1125
2343.98756	9985.1125
2346.8244	9966.4125
2349.65943	9959.1125
2352.49267	9978.6125
2355.32411	9968.3125
2358.15376	9924.0125
2360.98161	9954.8125
2363.80768	9924.6125
2366.63195	9898.9125
2369.45444	9900.4125
2372.27514	9863.4125
2375.09405	9885.1125
2377.91118	9863.7125
2380.72652	9862.6125
2383.54009	9808.7125
2386.35187	9812.9125
2389.16188	9784.0125
2391.97011	9732.3125
2394.77657	9715.1125
2397.58125	9713.4125
2400.38416	9685.6125
2403.18529	9656.7125
2405.98466	9667.7125
2408.78226	9638.7125
2411.57809	9631.8125
2414.37216	9589.1125
2417.16446	9589.5125
2419.955	9589.9125
2422.74378	9582.1125
2425.5308	9536.1125
2428.31606	9539.9125
2431.09956	9520.1125
2433.88131	9523.0125
2436.6613	9506.2125
2439.43954	9492.7125
2442.21603	9495.7125
2444.99077	9483.3125
2447.76377	9475.6125
2450.53501	9483.9125
2453.30451	9436.8125
2456.07226	9404.7125
2458.83827	9413.7125
2461.60254	9413.8125
2464.36507	9397.2125
2467.12586	9414.1125
2469.88492	9369.0125
2472.64224	9342.0125
2475.39782	9316.6125
2478.15167	9346.7125
2480.90379	9354.6125
2483.65417	9334.3125
2486.40283	9322.2125
2489.14976	9331.6125
2491.89497	9303.2125
2494.63845	9321.2125
2497.3802	9304.5125
2500.12024	9263.6125
2502.85855	9273.5125
2505.59514	9263.0125
2508.33002	9255.1125
2511.06318	9235.9125
2513.79462	9227.2125
2516.52435	9210.2125
2519.25237	9211.5125
2521.97867	9198.9125
2524.70327	9218.0125
2527.42616	9170.7125
2530.14734	9147.4125
2532.86681	9153.5125
2535.58458	9130.3125
2538.30065	9117.5125
2541.01501	9107.8125
2543.72768	9091.6125
2546.43864	9076.0125
2549.14791	9039.9125
2551.85548	9025.2125
2554.56136	9006.2125
2557.26554	8991.2125
2559.96803	8963.8125
2562.66883	8976.4125
2565.36794	8947.8125
2568.06536	8934.8125
2570.7611	8938.1125
2573.45514	8907.2125
2576.14751	8904.6125
2578.83819	8892.6125
2581.52719	8867.3125
2584.21451	8821.1125
2586.90015	8849.7125
2589.58411	8796.3125
2592.2664	8775.1125
2594.94701	8765.1125
2597.62594	8752.0125
2600.30321	8738.5125
2602.9788	8726.9125
2605.65273	8709.9125
2608.32498	8710.4125
2610.99557	8705.9125
2613.66449	8665.4125
2616.33175	8637.3125
2618.99734	8648.9125
2621.66128	8631.3125
2624.32355	8623.3125
2626.98416	8621.0125
2629.64311	8598.2125
2632.30041	8609.5125
2634.95605	8593.5125
2637.61004	8580.7125
2640.26238	8582.1125
2642.91306	8536.4125
2645.56209	8545.6125
2648.20948	8539.7125
2650.85521	8533.2125
2653.4993	8525.7125
2656.14175	8515.1125
2658.78255	8504.1125
2661.42171	8515.2125
2664.05923	8523.8125
2666.6951	8523.4125
2669.32934	8541.2125
2671.96194	8494.9125
2674.59291	8523.3125
2677.22224	8503.6125
2679.84993	8482.9125
2682.476	8516.0125
2685.10043	8485.6125
2687.72324	8489.2125
2690.34441	8485.1125
2692.96396	8494.5125
2695.58188	8483.5125
2698.19818	8451.7125
2700.81285	8462.3125
2703.4259	8486.6125
2706.03733	8508.7125
2708.64714	8499.4125
2711.25533	8487.2125
2713.86191	8475.6125
2716.46687	8496.7125
2719.07021	8453.1125
2721.67194	8470.5125
2724.27206	8430.7125
2726.87057	8472.3125
2729.46747	8441.8125
2732.06276	8449.1125
2734.65644	8425.3125
2737.24852	8420.7125
2739.83899	8406.1125
2742.42786	8403.2125
2745.01513	8392.6125
2747.60079	8386.6125
2750.18486	8380.6125
2752.76733	8384.1125
2755.3482	8359.4125
2757.92747	8347.2125
2760.50515	8338.7125
2763.08123	8332.9125
2765.65573	8324.7125
2768.22863	8316.5125
2770.79994	8293.3125
2773.36967	8288.5125
2775.9378	8281.4125
2778.50435	8253.4125
2781.06932	8237.7125
2783.6327	8225.2125
2786.1945	8232.8125
2788.75471	8223.4125
2791.31335	8181.0125
2793.87041	8173.5125
2796.42589	8152.7125
2798.97979	8156.5125
2801.53212	8118.7125
2804.08288	8108.4125
2806.63206	8082.0125
2809.17967	8065.9125
2811.72571	8031.9125
2814.27018	8051.2125
2816.81308	8012.4125
2819.35442	8026.1125
2821.89419	7993.3125
2824.43239	7993.1125
2826.96904	7962.5125
2829.50412	7977.0125
2832.03763	7944.5125
2834.56959	7961.3125
2837.1	7960.0125
2839.62884	7942.4125
2842.15613	7928.4125
2844.68186	7958.2125
2847.20604	7958.3125
2849.72867	7967.3125
2852.24974	7962.1125
2854.76927	7958.5125
2857.28724	7951.3125
2859.80367	7912.5125
2862.31855	7901.3125
2864.83189	7926.3125
2867.34368	7879.8125
2869.85393	7878.8125
2872.36264	7873.9125
2874.8698	7871.9125
2877.37543	7859.8125
2879.87952	7874.2125
2882.38207	7857.4125
2884.88308	7836.2125
2887.38256	7864.0125
2889.88051	7849.9125
2892.37692	7808.4125
2894.8718	7824.9125
2897.36515	7839.4125
2899.85698	7821.3125
2902.34727	7837.8125
2904.83604	7833.8125
2907.32328	7839.1125
2909.809	7838.2125
2912.29319	7850.4125
2914.77587	7854.3125
2917.25702	7831.9125
2919.73665	7826.3125
2922.21476	7838.2125
2924.69136	7812.1125
2927.16644	7815.9125
2929.64	7791.3125
2932.11205	7781.1125
2934.58258	7775.6125
2937.05161	7788.5125
2939.51912	7784.1125
2941.98513	7772.3125
2944.44962	7749.8125
2946.91261	7721.5125
2949.37409	7726.4125
2951.83407	7708.9125
2954.29254	7696.1125
2956.74951	7673.9125
2959.20498	7682.8125
2961.65895	7674.7125
2964.11142	7657.7125
2966.56239	7637.6125
2969.01186	7635.8125
2971.45984	7598.1125
2973.90632	7601.8125
2976.35131	7577.9125
2978.7948	7550.2125
2981.23681	7543.3125
2983.67732	7524.7125
2986.11635	7527.1125
2988.55388	7491.6125
2990.98993	7493.9125
2993.4245	7461.7125
2995.85758	7439.5125
2998.28917	7423.6125
3000.71928	7414.5125
3003.14791	7412.9125
3005.57506	7388.7125
3008.00073	7388.4125
3010.42493	7370.2125
3012.84764	7352.4125
3015.26888	7330.0125
3017.68865	7308.1125
3020.10694	7316.4125
3022.52376	7284.2125
3024.9391	7278.4125
3027.35298	7278.1125
3029.76539	7267.6125
3032.17632	7261.0125
3034.5858	7235.5125
3036.9938	7235.2125
3039.40034	7226.3125
3041.80542	7226.8125
3044.20903	7210.7125
3046.61118	7184.0125
3049.01187	7176.1125
3051.4111	7177.6125
3053.80888	7156.3125
3056.20519	7149.9125
