Data from AgNP_FTO_APTES_CRN_100uM_R6G_10uM_NaF_0.1M_Addition_RamanShift__29__19-05-18-143.txt Node

Date: Wed Dec 15 19:05:18 GMT 2021
User: TCL
Spectrometer: QEP01345
Trigger mode: 4
Integration Time (sec): 7.000000E0
Scans to average: 10
Electric dark correction enabled: true
Nonlinearity correction enabled: false
Boxcar width: 0
XAxis mode: Raman Shifts
Number of Pixels in Spectrum: 1044
>>>>>Begin Spectral Data<<<<<
46.04893	-0.125
50.45542	-1.925
54.85868	-1.225
59.25871	-0.525
63.6555	61.875
68.04907	68.475
72.43941	71.675
76.82654	77.375
81.21044	77.975
85.59113	80.175
89.96862	84.075
94.34289	84.075
98.71396	87.175
103.08183	96.275
107.4465	97.075
111.80798	97.375
116.16626	97.875
120.52136	103.275
124.87327	104.375
129.222	112.175
133.56755	111.775
137.90993	124.675
142.24913	134.975
146.58517	149.475
150.91804	170.375
155.24774	201.175
159.57429	244.675
163.89768	317.475
168.21792	419.575
172.53501	564.275
176.84895	789.275
181.15975	1094.775
185.46741	1525.075
189.77193	2115.975
194.07331	2824.275
198.37157	3635.375
202.6667	4495.775
206.9587	5348.075
211.24758	6193.375
215.53334	7045.375
219.81599	7973.575
224.09553	9022.975
228.37195	10170.275
232.64527	11377.275
236.91549	12667.575
241.18261	13893.075
245.44663	14971.975
249.70755	15970.775
253.96539	16803.275
258.22014	17521.175
262.4718	18156.075
266.72039	18627.975
270.96589	18903.775
275.20832	18918.575
279.44768	18790.575
283.68397	18571.275
287.91719	18403.775
292.14735	18395.275
296.37445	18541.075
300.59849	18835.975
304.81948	19203.075
309.03742	19452.175
313.25231	19324.175
317.46415	18651.375
321.67296	17754.775
325.87872	16953.175
330.08145	16606.775
334.28114	16608.175
338.47781	16809.975
342.67145	17148.575
346.86207	17646.475
351.04966	18337.475
355.23424	19095.275
359.4158	19676.575
363.59435	19980.175
367.76989	20155.075
371.94243	20236.075
376.11196	20195.775
380.27849	20226.975
384.44203	20128.975
388.60257	20035.975
392.76012	20006.375
396.91468	20175.375
401.06626	20587.475
405.21485	20863.575
409.36047	20645.375
413.50311	20018.475
417.64277	19381.175
421.77947	19044.475
425.9132	18947.175
430.04396	19007.275
434.17176	19144.975
438.2966	19379.975
442.41849	19776.175
446.53742	20321.775
450.6534	20826.775
454.76644	21211.375
458.87653	21359.675
462.98368	21187.075
467.08789	20947.575
471.18916	20665.175
475.2875	20349.575
479.38291	20050.575
483.4754	19791.275
487.56496	19517.175
491.6516	19326.875
495.73531	19193.075
499.81612	19126.575
503.89401	19279.075
507.96899	19406.975
512.04106	19621.075
516.11023	19835.775
520.1765	20030.075
524.23987	20074.575
528.30034	19883.175
532.35792	19679.375
536.41261	19376.475
540.46441	19076.275
544.51333	18956.375
548.55936	19026.975
552.60252	19368.075
556.64279	19740.275
560.6802	19931.575
564.71473	20122.375
568.7464	20576.075
572.7752	20879.275
576.80114	20588.775
580.82422	20137.075
584.84444	19975.375
588.86181	20088.975
592.87633	20354.175
596.888	20668.875
600.89682	21029.575
604.9028	22399.875
608.90594	26068.375
612.90624	30797.775
616.90371	29609.375
620.89834	23033.775
624.89015	20013.375
628.87913	19475.575
632.86528	19433.575
636.84862	19574.975
640.82913	19367.475
644.80683	18810.975
648.78172	18461.475
652.75379	18505.275
656.72306	18954.275
660.68952	19475.475
664.65319	19389.875
668.61405	18865.375
672.57211	18585.775
676.52738	18572.375
680.47986	18574.775
684.42955	18550.875
688.37646	18479.175
692.32058	18589.575
696.26192	18677.575
700.20048	18854.275
704.13626	18952.475
708.06928	18908.675
711.99952	18793.875
715.927	18731.175
719.85171	18767.075
723.77365	18742.075
727.69284	18605.675
731.60928	18485.375
735.52295	18471.475
739.43388	18485.275
743.34206	18528.875
747.24749	18582.475
751.15017	18693.675
755.05012	18918.175
758.94733	19498.475
762.8418	20779.175
766.73354	22978.275
770.62254	25277.775
774.50882	26358.275
778.39237	25317.375
782.27321	22842.975
786.15132	20586.975
790.02671	19252.575
793.89938	18659.275
797.76935	18420.075
801.6366	18307.075
805.50115	18258.475
809.36299	18205.275
813.22213	18162.375
817.07857	18165.575
820.93231	18132.375
824.78336	18146.475
828.63172	18241.475
832.47738	18272.275
836.32036	18259.375
840.16066	18266.375
843.99827	18190.675
847.8332	18160.675
851.66546	18108.575
855.49504	18097.075
859.32195	18076.275
863.1462	17991.975
866.96777	17956.575
870.78668	17929.475
874.60293	17926.875
878.41652	17954.675
882.22745	18043.775
886.03573	18033.275
889.84136	18013.675
893.64433	17940.075
897.44466	17882.775
901.24235	17867.775
905.0374	17824.575
908.8298	17817.075
912.61957	17825.775
916.40671	17865.475
920.19121	18006.875
923.97308	18114.175
927.75233	18185.675
931.52895	18289.075
935.30295	18202.575
939.07433	17855.175
942.84309	17528.975
946.60924	17379.375
950.37278	17260.475
954.13371	17173.275
957.89203	17122.675
961.64774	17078.675
965.40086	17010.675
969.15137	16987.875
972.89929	16923.975
976.64461	16902.775
980.38733	16912.575
984.12747	16958.775
987.86502	17059.375
991.59999	17150.075
995.33237	17354.675
999.06217	17683.575
1002.78939	18102.675
1006.51404	18330.375
1010.23611	18565.075
1013.95561	18735.975
1017.67255	18689.575
1021.38692	18474.275
1025.09872	18319.875
1028.80796	18290.675
1032.51465	18541.475
1036.21877	18766.075
1039.92035	18828.175
1043.61937	18812.675
1047.31584	18605.375
1051.00976	18368.375
1054.70114	18322.875
1058.38998	18375.575
1062.07627	18456.375
1065.76003	18678.475
1069.44126	18924.775
1073.11995	19263.975
1076.79611	19625.275
1080.46974	19824.975
1084.14085	19923.675
1087.80943	19929.775
1091.47549	19780.375
1095.13903	19417.475
1098.80005	18915.475
1102.45857	18506.475
1106.11456	18345.575
1109.76805	18368.375
1113.41903	18610.075
1117.06751	18947.675
1120.71348	19364.475
1124.35696	19828.275
1127.99793	20234.475
1131.63641	20250.875
1135.2724	19707.875
1138.90589	19142.975
1142.5369	18835.075
1146.16542	18619.675
1149.79145	18499.275
1153.415	18512.975
1157.03607	18667.675
1160.65467	18914.075
1164.27079	19417.275
1167.88443	20190.375
1171.49561	21400.475
1175.10432	23306.775
1178.71056	25739.875
1182.31434	27644.275
1185.91565	28165.075
1189.51451	27605.675
1193.11091	26299.875
1196.70485	24753.875
1200.29634	23548.575
1203.88538	22671.175
1207.47197	21803.675
1211.05612	21020.875
1214.63782	20631.575
1218.21708	20521.375
1221.79391	20508.675
1225.36829	20509.675
1228.94024	20430.275
1232.50976	20290.075
1236.07685	20252.075
1239.6415	20276.475
1243.20374	20385.475
1246.76355	20510.875
1250.32093	20781.975
1253.8759	21172.575
1257.42845	21666.475
1260.97859	22155.275
1264.52631	22536.775
1268.07163	22995.675
1271.61453	23436.175
1275.15503	23863.875
1278.69312	24084.475
1282.22882	24250.175
1285.76211	24581.575
1289.29301	25199.875
1292.82151	25891.775
1296.34761	26648.575
1299.87133	27719.075
1303.39266	29377.975
1306.9116	31707.075
1310.42815	34430.675
1313.94233	36138.375
1317.45412	35934.275
1320.96354	34404.975
1324.47058	32467.975
1327.97525	30772.675
1331.47754	29672.475
1334.97747	29320.275
1338.47502	29524.875
1341.97022	29972.375
1345.46305	30399.175
1348.95352	30983.975
1352.44163	32225.275
1355.92738	34238.375
1359.41078	37653.975
1362.89183	41108.775
1366.37053	40553.575
1369.84688	35838.375
1373.32088	30847.875
1376.79254	27607.575
1380.26186	26044.975
1383.72883	25315.475
1387.19347	24782.275
1390.65578	24207.975
1394.11575	23811.875
1397.57339	23705.275
1401.0287	23897.075
1404.48168	24192.175
1407.93234	24463.275
1411.38068	24543.775
1414.82669	24359.275
1418.27039	23904.375
1421.71177	23273.075
1425.15083	22718.675
1428.58758	22388.175
1432.02203	22399.475
1435.45416	22582.675
1438.88399	22759.175
1442.31151	22872.575
1445.73673	23042.375
1449.15965	23226.375
1452.58027	23242.475
1455.9986	23183.075
1459.41463	23125.475
1462.82837	23362.575
1466.23982	23758.175
1469.64898	24198.275
1473.05586	24495.975
1476.46045	24715.175
1479.86276	24966.775
1483.26279	25241.575
1486.66054	25599.475
1490.05602	26042.875
1493.44922	26649.175
1496.84016	27358.575
1500.22882	28568.875
1503.61521	30384.275
1506.99934	32731.275
1510.38121	35156.375
1513.76081	36439.375
1517.13816	35476.275
1520.51324	32545.675
1523.88607	29422.975
1527.25665	27228.375
1530.62498	25966.075
1533.99105	25312.475
1537.35488	24884.675
1540.71647	24660.475
1544.07581	24521.275
1547.4329	24377.375
1550.78776	24203.375
1554.14038	24115.775
1557.49077	24198.775
1560.83892	24388.875
1564.18484	24738.175
1567.52853	25168.775
1570.86999	25616.375
1574.20922	26103.375
1577.54624	26493.475
1580.88103	26187.975
1584.2136	25387.275
1587.54395	24784.875
1590.87208	24828.075
1594.19801	25689.675
1597.52172	27103.275
1600.84321	27715.275
1604.16251	27063.475
1607.47959	25483.375
1610.79447	23686.875
1614.10715	22070.775
1617.41763	20763.375
1620.7259	19937.075
1624.03199	19506.775
1627.33587	19512.975
1630.63757	19868.775
1633.93707	20635.075
1637.23439	21749.075
1640.52951	23431.775
1643.82246	25588.175
1647.11321	27886.075
1650.40179	29475.775
1653.68819	28752.275
1656.97241	25802.375
1660.25446	22508.975
1663.53433	20066.775
1666.81203	18570.475
1670.08756	17686.175
1673.36092	17104.375
1676.63211	16737.475
1679.90115	16467.875
1683.16801	16286.475
1686.43272	16149.575
1689.69527	16058.375
1692.95567	15967.675
1696.2139	15955.975
1699.46999	15912.575
1702.72392	15900.275
1705.97571	15879.575
1709.22535	15854.475
1712.47284	15793.375
1715.71819	15799.375
1718.96139	15793.875
1722.20246	15802.875
1725.44139	15746.775
1728.67818	15676.575
1731.91284	15615.875
1735.14537	15518.475
1738.37576	15460.475
1741.60403	15415.775
1744.83017	15373.875
1748.05418	15340.075
1751.27607	15327.975
1754.49584	15302.675
1757.71349	15275.875
1760.92903	15285.975
1764.14244	15307.375
1767.35375	15264.375
1770.56294	15234.375
1773.77002	15210.875
1776.97499	15210.875
1780.17785	15148.575
1783.37861	15134.575
1786.57727	15100.475
1789.77382	15064.675
1792.96828	15068.775
1796.16064	15051.875
1799.3509	15038.975
1802.53907	14984.075
1805.72514	14948.475
1808.90913	14946.175
1812.09102	14886.875
1815.27083	14861.475
1818.44856	14841.875
1821.6242	14823.575
1824.79776	14800.975
1827.96924	14775.475
1831.13864	14781.775
1834.30597	14803.175
1837.47122	14792.275
1840.6344	14766.375
1843.7955	14742.975
1846.95454	14721.475
1850.11151	14738.975
1853.26642	14735.975
1856.41926	14738.275
1859.57004	14718.775
1862.71876	14716.975
1865.86542	14720.875
1869.01003	14705.775
1872.15258	14715.175
1875.29308	14686.175
1878.43152	14675.875
1881.56792	14670.775
1884.70227	14656.875
1887.83457	14655.475
1890.96482	14618.075
1894.09304	14631.675
1897.21921	14629.575
1900.34335	14639.975
1903.46544	14617.375
1906.58551	14621.475
1909.70353	14573.975
1912.81953	14616.275
1915.93349	14548.575
1919.04543	14551.275
1922.15534	14535.075
1925.26322	14496.375
1928.36908	14504.275
1931.47292	14464.375
1934.57473	14424.275
1937.67453	14364.675
1940.77232	14336.575
1943.86808	14317.875
1946.96184	14253.075
1950.05358	14238.775
1953.14331	14218.075
1956.23103	14160.575
1959.31675	14129.775
1962.40046	14075.775
1965.48217	14048.075
1968.56188	14012.975
1971.63959	13969.775
1974.7153	13948.075
1977.78901	13881.475
1980.86073	13801.175
1983.93046	13779.975
1986.99819	13732.775
1990.06394	13717.075
1993.1277	13666.975
1996.18947	13624.675
1999.24925	13592.675
2002.30706	13532.775
2005.36288	13533.075
2008.41672	13474.675
2011.46859	13437.775
2014.51848	13415.075
2017.56639	13362.275
2020.61233	13329.375
2023.6563	13330.275
2026.6983	13303.375
2029.73833	13300.075
2032.7764	13224.775
2035.8125	13214.375
2038.84664	13184.975
2041.87881	13165.675
2044.90903	13122.875
2047.93729	13106.175
2050.96359	13114.675
2053.98794	13079.475
2057.01034	13085.575
2060.03078	13073.775
2063.04927	13049.675
2066.06582	13044.275
2069.08042	13041.575
2072.09307	13029.075
2075.10378	12993.075
2078.11255	12985.375
2081.11938	12993.675
2084.12426	12993.975
2087.12722	12993.275
2090.12824	12990.475
2093.12732	13021.575
2096.12447	12998.075
2099.11969	12982.575
2102.11299	12975.675
2105.10435	13002.075
2108.09379	13007.575
2111.08131	13036.075
2114.0669	13024.775
2117.05057	13008.375
2120.03233	13034.075
2123.01216	13014.375
2125.99008	13029.175
2128.96609	13071.675
2131.94018	13077.475
2134.91236	13072.975
2137.88263	13106.775
2140.851	13117.575
2143.81746	13101.975
2146.78201	13103.575
2149.74466	13098.975
2152.7054	13108.675
2155.66425	13105.275
2158.6212	13108.975
2161.57625	13107.075
2164.52941	13107.275
2167.48067	13123.875
2170.43004	13091.475
2173.37752	13117.875
2176.32311	13090.675
2179.26681	13104.375
2182.20863	13095.975
2185.14856	13077.575
2188.08661	13078.675
2191.02278	13078.175
2193.95707	13051.675
2196.88948	13071.975
2199.82001	13061.575
2202.74867	13041.975
2205.67545	13045.475
2208.60037	13057.675
2211.52341	13013.675
2214.44458	13028.075
2217.36388	12973.875
2220.28132	12962.475
2223.1969	12938.375
2226.11061	12904.175
2229.02246	12909.875
2231.93245	12903.075
2234.84058	12851.475
2237.74686	12857.375
2240.65128	12837.675
2243.55385	12790.075
2246.45456	12779.575
2249.35343	12766.475
2252.25044	12744.075
2255.14561	12729.675
2258.03893	12742.175
2260.93041	12746.075
2263.82004	12719.575
2266.70783	12699.875
2269.59378	12632.775
2272.4779	12634.475
2275.36017	12573.375
2278.24061	12551.675
2281.11922	12522.875
2283.996	12512.375
2286.87094	12498.575
2289.74405	12459.375
2292.61534	12473.775
2295.4848	12439.175
2298.35243	12433.475
2301.21824	12432.575
2304.08223	12446.775
2306.94439	12434.675
2309.80474	12411.275
2312.66327	12410.975
2315.51999	12397.975
2318.37489	12403.275
2321.22797	12392.975
2324.07925	12383.975
2326.92871	12363.775
2329.77637	12358.975
2332.62222	12354.075
2335.46626	12335.975
2338.3085	12324.075
2341.14893	12323.575
2343.98756	12301.975
2346.8244	12301.675
2349.65943	12329.075
2352.49267	12297.875
2355.32411	12317.275
2358.15376	12319.475
2360.98161	12315.175
2363.80768	12301.675
2366.63195	12301.475
2369.45444	12282.075
2372.27514	12270.775
2375.09405	12256.275
2377.91118	12221.075
2380.72652	12198.175
2383.54009	12167.875
2386.35187	12154.675
2389.16188	12094.775
2391.97011	12075.175
2394.77657	12055.575
2397.58125	12029.075
2400.38416	12032.775
2403.18529	11998.075
2405.98466	11977.675
2408.78226	11979.675
2411.57809	11953.075
2414.37216	11931.775
2417.16446	11900.775
2419.955	11875.875
2422.74378	11877.575
2425.5308	11870.075
2428.31606	11837.075
2431.09956	11836.375
2433.88131	11834.375
2436.6613	11840.675
2439.43954	11829.975
2442.21603	11820.975
2444.99077	11800.075
2447.76377	11814.775
2450.53501	11793.275
2453.30451	11774.675
2456.07226	11773.775
2458.83827	11747.175
2461.60254	11756.475
2464.36507	11749.575
2467.12586	11752.575
2469.88492	11753.875
2472.64224	11742.375
2475.39782	11735.475
2478.15167	11772.975
2480.90379	11751.075
2483.65417	11785.975
2486.40283	11757.175
2489.14976	11771.175
2491.89497	11772.475
2494.63845	11803.875
2497.3802	11763.875
2500.12024	11769.875
2502.85855	11767.175
2505.59514	11745.275
2508.33002	11699.975
2511.06318	11696.575
2513.79462	11669.875
2516.52435	11650.475
2519.25237	11617.375
2521.97867	11605.975
2524.70327	11590.675
2527.42616	11574.075
2530.14734	11560.175
2532.86681	11543.575
2535.58458	11543.775
2538.30065	11514.475
2541.01501	11519.275
2543.72768	11519.975
2546.43864	11515.975
2549.14791	11490.375
2551.85548	11479.675
2554.56136	11437.375
2557.26554	11426.675
2559.96803	11451.775
2562.66883	11416.675
2565.36794	11415.075
2568.06536	11410.975
2570.7611	11393.775
2573.45514	11381.375
2576.14751	11361.375
2578.83819	11339.575
2581.52719	11318.675
2584.21451	11322.075
2586.90015	11320.175
2589.58411	11289.675
2592.2664	11258.975
2594.94701	11236.575
2597.62594	11256.475
2600.30321	11227.875
2602.9788	11205.975
2605.65273	11210.775
2608.32498	11192.875
2610.99557	11194.775
2613.66449	11184.575
2616.33175	11160.875
2618.99734	11178.475
2621.66128	11161.075
2624.32355	11149.975
2626.98416	11140.075
2629.64311	11151.275
2632.30041	11156.775
2634.95605	11151.675
2637.61004	11113.175
2640.26238	11103.275
2642.91306	11080.475
2645.56209	11088.675
2648.20948	11062.475
2650.85521	11074.375
2653.4993	11036.875
2656.14175	11047.075
2658.78255	11052.075
2661.42171	11048.675
2664.05923	11051.875
2666.6951	11045.675
2669.32934	11082.575
2671.96194	11073.775
2674.59291	11063.575
2677.22224	11082.075
2679.84993	11061.075
2682.476	11070.275
2685.10043	11067.675
2687.72324	11068.275
2690.34441	11065.275
2692.96396	11074.475
2695.58188	11072.375
2698.19818	11047.375
2700.81285	11048.875
2703.4259	11039.775
2706.03733	11089.475
2708.64714	11082.275
2711.25533	11110.975
2713.86191	11089.475
2716.46687	11096.975
2719.07021	11073.075
2721.67194	11099.875
2724.27206	11058.675
2726.87057	11077.875
2729.46747	11109.575
2732.06276	11083.875
2734.65644	11059.175
2737.24852	11068.875
2739.83899	11045.375
2742.42786	11050.575
2745.01513	11033.475
2747.60079	11026.075
2750.18486	11037.575
2752.76733	11026.475
2755.3482	11038.075
2757.92747	11010.075
2760.50515	10989.975
2763.08123	10976.175
2765.65573	10921.475
2768.22863	10970.975
2770.79994	10956.275
2773.36967	10944.075
2775.9378	10932.275
2778.50435	10893.875
2781.06932	10893.275
2783.6327	10880.875
2786.1945	10874.275
2788.75471	10869.075
2791.31335	10856.975
2793.87041	10846.275
2796.42589	10814.175
2798.97979	10812.475
2801.53212	10811.675
2804.08288	10773.775
2806.63206	10752.975
2809.17967	10740.875
2811.72571	10706.175
2814.27018	10716.275
2816.81308	10718.375
2819.35442	10714.975
2821.89419	10694.175
2824.43239	10686.775
2826.96904	10705.975
2829.50412	10688.875
2832.03763	10642.775
2834.56959	10664.975
2837.1	10636.975
2839.62884	10662.375
2842.15613	10651.775
2844.68186	10691.875
2847.20604	10696.075
2849.72867	10709.475
2852.24974	10721.075
2854.76927	10735.175
2857.28724	10704.675
2859.80367	10678.275
2862.31855	10673.675
2864.83189	10651.375
2867.34368	10630.575
2869.85393	10639.475
2872.36264	10628.475
2874.8698	10646.775
2877.37543	10636.375
2879.87952	10649.675
2882.38207	10623.475
2884.88308	10619.575
2887.38256	10639.975
2889.88051	10639.875
2892.37692	10635.575
2894.8718	10615.075
2897.36515	10647.075
2899.85698	10619.975
2902.34727	10635.675
2904.83604	10641.675
2907.32328	10650.075
2909.809	10658.875
2912.29319	10653.475
2914.77587	10653.375
2917.25702	10649.375
2919.73665	10633.875
2922.21476	10640.675
2924.69136	10631.275
2927.16644	10625.875
2929.64	10604.175
2932.11205	10588.375
2934.58258	10557.075
2937.05161	10572.975
2939.51912	10560.975
2941.98513	10537.375
2944.44962	10502.875
2946.91261	10469.375
2949.37409	10471.175
2951.83407	10449.575
2954.29254	10447.175
2956.74951	10426.975
2959.20498	10432.575
2961.65895	10432.475
2964.11142	10409.875
2966.56239	10388.675
2969.01186	10372.075
2971.45984	10328.575
2973.90632	10326.475
2976.35131	10282.875
2978.7948	10250.275
2981.23681	10245.075
2983.67732	10242.175
2986.11635	10238.775
2988.55388	10194.675
2990.98993	10179.475
2993.4245	10177.875
2995.85758	10160.575
2998.28917	10114.375
3000.71928	10097.075
3003.14791	10098.075
3005.57506	10088.375
3008.00073	10069.875
3010.42493	10068.475
3012.84764	10050.875
3015.26888	10045.775
3017.68865	9994.875
3020.10694	10012.875
3022.52376	9963.575
3024.9391	9960.375
3027.35298	9946.375
3029.76539	9965.775
3032.17632	9950.575
3034.5858	9912.975
3036.9938	9910.875
3039.40034	9894.575
3041.80542	9902.375
3044.20903	9837.575
3046.61118	9878.875
3049.01187	9842.975
3051.4111	9833.875
3053.80888	9810.475
3056.20519	9797.175
3058.60005	9771.175
3060.99345	9755.675
3063.3854	9736.375
3065.7759	9701.875
3068.16494	9691.675
3070.55254	9664.875
3072.93868	9675.075
3075.32338	9645.375
3077.70662	9610.975
3080.08842	9578.175
3082.46878	9592.475
3084.84769	9569.975
3087.22515	9562.475
3089.60118	9581.875
3091.97576	9547.875
3094.3489	9571.475
3096.72061	9559.475
3099.09087	9541.675
3101.4597	9530.575
3103.82709	9529.075
3106.19305	9490.475
3108.55757	9491.675
3110.92066	9486.475
3113.28232	9475.575
3115.64255	9437.775
3118.00134	9417.775
3120.35871	9429.575
3122.71466	9397.175
3125.06917	9401.775
3127.42226	9379.975
3129.77393	9389.675
3132.12417	9389.175
3134.47299	9407.375
