Data from AgNP_FTO_APTES_CRN_5uM_R6G_10uM_NaF_0.1M_Addition_RamanShift__25__15-55-07-928.txt Node

Date: Wed Dec 15 15:55:07 GMT 2021
User: TCL
Spectrometer: QEP01345
Trigger mode: 4
Integration Time (sec): 7.000000E0
Scans to average: 10
Electric dark correction enabled: true
Nonlinearity correction enabled: false
Boxcar width: 0
XAxis mode: Raman Shifts
Number of Pixels in Spectrum: 1044
>>>>>Begin Spectral Data<<<<<
46.04893	1.3125
50.45542	-2.2875
54.85868	-1.0875
59.25871	-2.1875
63.6555	111.9125
68.04907	118.1125
72.43941	126.0125
76.82654	129.2125
81.21044	134.9125
85.59113	138.7125
89.96862	147.3125
94.34289	145.7125
98.71396	151.8125
103.08183	162.7125
107.4465	162.2125
111.80798	168.2125
116.16626	169.2125
120.52136	176.3125
124.87327	184.0125
129.222	192.5125
133.56755	204.5125
137.90993	219.9125
142.24913	239.7125
146.58517	265.9125
150.91804	306.2125
155.24774	367.1125
159.57429	450.2125
163.89768	577.5125
168.21792	760.9125
172.53501	1032.8125
176.84895	1426.4125
181.15975	1990.8125
185.46741	2792.5125
189.77193	3842.3125
194.07331	5135.0125
198.37157	6612.9125
202.6667	8161.4125
206.9587	9686.4125
211.24758	11177.1125
215.53334	12699.9125
219.81599	14306.0125
224.09553	16128.2125
228.37195	18096.2125
232.64527	20315.6125
236.91549	22639.0125
241.18261	24926.1125
245.44663	27017.0125
249.70755	28840.1125
253.96539	30456.5125
258.22014	31862.0125
262.4718	33026.7125
266.72039	33853.6125
270.96589	34405.4125
275.20832	34568.2125
279.44768	34418.1125
283.68397	34124.4125
287.91719	33874.1125
292.14735	33712.9125
296.37445	33827.2125
300.59849	34001.0125
304.81948	34308.8125
309.03742	34463.2125
313.25231	34109.9125
317.46415	33337.0125
321.67296	32241.7125
325.87872	31361.0125
330.08145	30949.9125
334.28114	30954.4125
338.47781	31299.8125
342.67145	31805.9125
346.86207	32456.1125
351.04966	33320.6125
355.23424	34274.2125
359.4158	35092.3125
363.59435	35625.8125
367.76989	35898.9125
371.94243	36047.2125
376.11196	36158.5125
380.27849	36137.6125
384.44203	36180.7125
388.60257	36314.8125
392.76012	36570.7125
396.91468	37035.9125
401.06626	37725.9125
405.21485	38231.8125
409.36047	38005.6125
413.50311	37332.7125
417.64277	36688.7125
421.77947	36491.2125
425.9132	36556.4125
430.04396	36789.9125
434.17176	37070.7125
438.2966	37451.4125
442.41849	38047.7125
446.53742	39031.8125
450.6534	40254.3125
454.76644	41135.2125
458.87653	41509.4125
462.98368	41318.0125
467.08789	40748.8125
471.18916	39970.8125
475.2875	39253.9125
479.38291	38660.7125
483.4754	38192.8125
487.56496	37765.3125
491.6516	37297.8125
495.73531	36983.1125
499.81612	36971.1125
503.89401	37217.3125
507.96899	37417.5125
512.04106	37503.7125
516.11023	37559.0125
520.1765	37609.9125
524.23987	37452.3125
528.30034	37243.5125
532.35792	36777.4125
536.41261	36174.6125
540.46441	35623.6125
544.51333	35482.4125
548.55936	35851.2125
552.60252	36549.0125
556.64279	37271.0125
560.6802	37604.2125
564.71473	37787.6125
568.7464	38332.7125
572.7752	39056.4125
576.80114	39507.1125
580.82422	39865.7125
584.84444	40292.2125
588.86181	40708.0125
592.87633	41341.7125
596.888	42071.6125
600.89682	42840.7125
604.9028	44963.1125
608.90594	49864.1125
612.90624	54776.7125
616.90371	51362.8125
620.89834	42449.0125
624.89015	38638.4125
628.87913	38221.4125
632.86528	38079.9125
636.84862	37798.7125
640.82913	36990.0125
644.80683	35957.8125
648.78172	35225.3125
652.75379	35169.0125
656.72306	35761.9125
660.68952	36553.2125
664.65319	36323.9125
668.61405	35684.1125
672.57211	35314.4125
676.52738	35333.7125
680.47986	35257.6125
684.42955	35141.0125
688.37646	35107.3125
692.32058	35331.9125
696.26192	35649.4125
700.20048	36075.3125
704.13626	36284.3125
708.06928	36193.8125
711.99952	35931.0125
715.927	35826.3125
719.85171	35859.8125
723.77365	35739.3125
727.69284	35355.8125
731.60928	35029.2125
735.52295	34966.8125
739.43388	34993.7125
743.34206	35153.2125
747.24749	35358.6125
751.15017	35742.4125
755.05012	36423.5125
758.94733	37533.5125
762.8418	39685.3125
766.73354	43144.5125
770.62254	46422.7125
774.50882	47191.7125
778.39237	44883.9125
782.27321	41126.6125
786.15132	38101.9125
790.02671	36383.2125
793.89938	35592.4125
797.76935	35345.8125
801.6366	35279.8125
805.50115	35147.0125
809.36299	34928.8125
813.22213	34706.6125
817.07857	34580.1125
820.93231	34516.1125
824.78336	34484.9125
828.63172	34554.1125
832.47738	34665.0125
836.32036	34886.1125
840.16066	35051.6125
843.99827	35150.0125
847.8332	35020.7125
851.66546	34780.9125
855.49504	34666.4125
859.32195	34591.4125
863.1462	34398.8125
866.96777	34204.8125
870.78668	34103.6125
874.60293	34115.8125
878.41652	34075.9125
882.22745	34267.6125
886.03573	34373.4125
889.84136	34330.8125
893.64433	34140.3125
897.44466	34019.7125
901.24235	33948.9125
905.0374	33945.2125
908.8298	33899.4125
912.61957	34008.7125
916.40671	34342.8125
920.19121	34854.6125
923.97308	35389.3125
927.75233	35635.1125
931.52895	35587.2125
935.30295	35119.0125
939.07433	34430.8125
942.84309	33927.4125
946.60924	33783.4125
950.37278	33654.2125
954.13371	33392.4125
957.89203	33174.7125
961.64774	32974.8125
965.40086	32922.3125
969.15137	32809.5125
972.89929	32664.0125
976.64461	32662.5125
980.38733	32751.3125
984.12747	32956.1125
987.86502	33356.0125
991.59999	33836.0125
995.33237	34691.6125
999.06217	36043.7125
1002.78939	37520.7125
1006.51404	38462.8125
1010.23611	38962.4125
1013.95561	39269.4125
1017.67255	39136.1125
1021.38692	38614.8125
1025.09872	38408.9125
1028.80796	39112.2125
1032.51465	40816.8125
1036.21877	42301.1125
1039.92035	42454.6125
1043.61937	41602.9125
1047.31584	40183.7125
1051.00976	38636.9125
1054.70114	37810.6125
1058.38998	37665.9125
1062.07627	37849.5125
1065.76003	38259.2125
1069.44126	38898.3125
1073.11995	39822.8125
1076.79611	40670.0125
1080.46974	41022.5125
1084.14085	41040.0125
1087.80943	40919.1125
1091.47549	40559.0125
1095.13903	39823.7125
1098.80005	38891.8125
1102.45857	38020.9125
1106.11456	37580.9125
1109.76805	37560.5125
1113.41903	37852.8125
1117.06751	38237.5125
1120.71348	38692.8125
1124.35696	39123.4125
1127.99793	39551.8125
1131.63641	39818.7125
1135.2724	39513.7125
1138.90589	39052.6125
1142.5369	38766.0125
1146.16542	38522.0125
1149.79145	38390.2125
1153.415	38672.6125
1157.03607	39202.2125
1160.65467	40120.0125
1164.27079	41502.4125
1167.88443	43673.3125
1171.49561	46526.3125
1175.10432	50542.1125
1178.71056	55558.7125
1182.31434	60146.7125
1185.91565	62414.3125
1189.51451	62121.0125
1193.11091	59558.4125
1196.70485	56140.5125
1200.29634	53199.7125
1203.88538	50984.1125
1207.47197	49329.3125
1211.05612	48041.2125
1214.63782	47201.8125
1218.21708	47027.5125
1221.79391	47147.7125
1225.36829	47249.7125
1228.94024	46989.7125
1232.50976	46291.1125
1236.07685	45711.4125
1239.6415	45442.9125
1243.20374	45469.5125
1246.76355	45705.9125
1250.32093	46393.3125
1253.8759	47499.3125
1257.42845	49072.9125
1260.97859	50381.8125
1264.52631	51599.4125
1268.07163	52863.4125
1271.61453	54390.2125
1275.15503	56203.9125
1278.69312	58007.8125
1282.22882	59409.6125
1285.76211	60509.8125
1289.29301	61615.5125
1292.82151	63005.6125
1296.34761	65143.8125
1299.87133	68147.4125
1303.39266	72387.8125
1306.9116	77643.2125
1310.42815	83085.5125
1313.94233	86380.5125
1317.45412	86509.2125
1320.96354	84354.6125
1324.47058	81499.5125
1327.97525	78949.3125
1331.47754	77236.9125
1334.97747	76596.2125
1338.47502	76913.4125
1341.97022	77440.6125
1345.46305	77237.2125
1348.95352	76623.3125
1352.44163	76505.9125
1355.92738	78300.6125
1359.41078	82748.3125
1362.89183	87103.7125
1366.37053	85667.4125
1369.84688	77985.6125
1373.32088	69275.5125
1376.79254	63321.0125
1380.26186	60514.3125
1383.72883	59431.0125
1387.19347	58821.0125
1390.65578	57894.3125
1394.11575	57328.4125
1397.57339	57650.6125
1401.0287	58670.5125
1404.48168	59969.2125
1407.93234	60821.6125
1411.38068	61207.9125
1414.82669	60522.6125
1418.27039	58644.6125
1421.71177	56400.3125
1425.15083	54358.2125
1428.58758	53222.5125
1432.02203	53132.9125
1435.45416	53786.3125
1438.88399	54800.2125
1442.31151	55681.8125
1445.73673	56509.7125
1449.15965	57247.5125
1452.58027	57560.3125
1455.9986	57546.0125
1459.41463	57758.1125
1462.82837	58588.3125
1466.23982	59802.0125
1469.64898	61142.6125
1473.05586	61975.1125
1476.46045	62365.9125
1479.86276	62464.1125
1483.26279	62396.3125
1486.66054	62338.8125
1490.05602	62742.2125
1493.44922	63294.6125
1496.84016	63798.9125
1500.22882	64848.6125
1503.61521	66646.0125
1506.99934	69337.5125
1510.38121	72001.1125
1513.76081	73256.2125
1517.13816	71923.6125
1520.51324	68546.7125
1523.88607	65083.7125
1527.25665	62704.4125
1530.62498	61367.6125
1533.99105	60662.0125
1537.35488	60073.7125
1540.71647	59604.0125
1544.07581	59061.1125
1547.4329	58332.0125
1550.78776	57567.9125
1554.14038	56997.1125
1557.49077	56727.0125
1560.83892	56647.6125
1564.18484	56728.6125
1567.52853	56944.8125
1570.86999	57328.2125
1574.20922	58399.1125
1577.54624	59668.4125
1580.88103	60330.4125
1584.2136	60588.2125
1587.54395	61353.4125
1590.87208	63090.0125
1594.19801	66135.3125
1597.52172	69934.8125
1600.84321	71228.8125
1604.16251	68597.5125
1607.47959	63504.7125
1610.79447	58180.5125
1614.10715	53263.0125
1617.41763	49341.0125
1620.7259	46661.2125
1624.03199	45367.2125
1627.33587	45465.1125
1630.63757	46746.6125
1633.93707	49339.0125
1637.23439	53221.0125
1640.52951	58283.2125
1643.82246	63560.8125
1647.11321	67547.4125
1650.40179	68273.3125
1653.68819	64352.5125
1656.97241	57017.8125
1660.25446	49521.2125
1663.53433	43979.4125
1666.81203	40305.1125
1670.08756	38033.7125
1673.36092	36585.8125
1676.63211	35658.8125
1679.90115	34946.7125
1683.16801	34488.9125
1686.43272	34056.1125
1689.69527	33806.8125
1692.95567	33612.6125
1696.2139	33510.5125
1699.46999	33378.8125
1702.72392	33349.9125
1705.97571	33258.6125
1709.22535	33183.5125
1712.47284	33132.4125
1715.71819	33147.4125
1718.96139	33000.3125
1722.20246	32946.4125
1725.44139	32817.4125
1728.67818	32619.0125
1731.91284	32470.3125
1735.14537	32260.9125
1738.37576	32203.7125
1741.60403	32076.0125
1744.83017	31976.3125
1748.05418	31923.9125
1751.27607	31862.6125
1754.49584	31778.5125
1757.71349	31752.7125
1760.92903	31751.5125
1764.14244	31717.2125
1767.35375	31734.4125
1770.56294	31704.3125
1773.77002	31696.2125
1776.97499	31652.9125
1780.17785	31620.1125
1783.37861	31576.8125
1786.57727	31513.9125
1789.77382	31486.5125
1792.96828	31417.7125
1796.16064	31387.2125
1799.3509	31398.7125
1802.53907	31324.6125
1805.72514	31253.7125
1808.90913	31164.9125
1812.09102	31127.1125
1815.27083	31079.5125
1818.44856	30986.7125
1821.6242	30994.8125
1824.79776	30972.4125
1827.96924	30890.9125
1831.13864	30955.1125
1834.30597	30954.8125
1837.47122	31010.3125
1840.6344	30971.4125
1843.7955	30927.0125
1846.95454	30927.5125
1850.11151	31005.7125
1853.26642	30976.8125
1856.41926	30993.2125
1859.57004	31028.9125
1862.71876	30998.1125
1865.86542	30989.2125
1869.01003	30998.4125
1872.15258	30999.7125
1875.29308	31068.7125
1878.43152	31010.2125
1881.56792	31017.9125
1884.70227	30998.1125
1887.83457	31030.9125
1890.96482	31071.5125
1894.09304	31053.3125
1897.21921	31031.9125
1900.34335	31011.1125
1903.46544	30981.0125
1906.58551	30992.5125
1909.70353	30985.2125
1912.81953	30951.2125
1915.93349	30939.8125
1919.04543	30864.5125
1922.15534	30859.4125
1925.26322	30766.0125
1928.36908	30668.5125
1931.47292	30621.8125
1934.57473	30554.2125
1937.67453	30457.1125
1940.77232	30357.1125
1943.86808	30217.2125
1946.96184	30108.8125
1950.05358	30044.8125
1953.14331	29952.8125
1956.23103	29913.3125
1959.31675	29781.2125
1962.40046	29700.0125
1965.48217	29622.5125
1968.56188	29544.0125
1971.63959	29418.0125
1974.7153	29366.7125
1977.78901	29226.5125
1980.86073	29193.3125
1983.93046	29113.4125
1986.99819	29050.4125
1990.06394	28959.2125
1993.1277	28898.3125
1996.18947	28802.2125
1999.24925	28710.3125
2002.30706	28617.4125
2005.36288	28516.7125
2008.41672	28496.6125
2011.46859	28427.7125
2014.51848	28381.4125
2017.56639	28343.5125
2020.61233	28287.9125
2023.6563	28183.1125
2026.6983	28184.0125
2029.73833	28135.2125
2032.7764	28076.9125
2035.8125	28047.4125
2038.84664	27998.5125
2041.87881	27946.1125
2044.90903	27934.6125
2047.93729	27899.2125
2050.96359	27854.7125
2053.98794	27870.1125
2057.01034	27847.6125
2060.03078	27795.7125
2063.04927	27766.0125
2066.06582	27759.7125
2069.08042	27755.4125
2072.09307	27720.3125
2075.10378	27678.9125
2078.11255	27648.8125
2081.11938	27704.0125
2084.12426	27598.2125
2087.12722	27599.3125
2090.12824	27590.3125
2093.12732	27594.3125
2096.12447	27602.4125
2099.11969	27567.6125
2102.11299	27595.5125
2105.10435	27601.9125
2108.09379	27623.5125
2111.08131	27679.2125
2114.0669	27670.5125
2117.05057	27705.9125
2120.03233	27672.7125
2123.01216	27703.9125
2125.99008	27719.8125
2128.96609	27729.6125
2131.94018	27701.9125
2134.91236	27754.0125
2137.88263	27783.3125
2140.851	27840.2125
2143.81746	27851.6125
2146.78201	27917.3125
2149.74466	27854.0125
2152.7054	27904.0125
2155.66425	27879.9125
2158.6212	27924.1125
2161.57625	27896.7125
2164.52941	27883.6125
2167.48067	27882.6125
2170.43004	27898.3125
2173.37752	27886.5125
2176.32311	27860.5125
2179.26681	27870.1125
2182.20863	27854.4125
2185.14856	27869.6125
2188.08661	27895.0125
2191.02278	27917.7125
2193.95707	27901.2125
2196.88948	27905.8125
2199.82001	27936.4125
2202.74867	27905.0125
2205.67545	27901.6125
2208.60037	27907.0125
2211.52341	27905.4125
2214.44458	27888.3125
2217.36388	27867.3125
2220.28132	27866.4125
2223.1969	27816.1125
2226.11061	27746.3125
2229.02246	27731.1125
2231.93245	27677.5125
2234.84058	27562.5125
2237.74686	27532.3125
2240.65128	27512.8125
2243.55385	27461.9125
2246.45456	27450.5125
2249.35343	27425.3125
2252.25044	27339.4125
2255.14561	27308.8125
2258.03893	27310.2125
2260.93041	27285.9125
2263.82004	27246.1125
2266.70783	27171.2125
2269.59378	27085.2125
2272.4779	27011.3125
2275.36017	26983.4125
2278.24061	26930.2125
2281.11922	26880.3125
2283.996	26846.3125
2286.87094	26826.8125
2289.74405	26774.4125
2292.61534	26800.7125
2295.4848	26738.5125
2298.35243	26785.5125
2301.21824	26771.7125
2304.08223	26809.6125
2306.94439	26814.8125
2309.80474	26864.7125
2312.66327	26912.4125
2315.51999	26905.5125
2318.37489	26906.7125
2321.22797	26909.1125
2324.07925	26885.4125
2326.92871	26863.0125
2329.77637	26844.9125
2332.62222	26847.2125
2335.46626	26886.7125
2338.3085	26873.9125
2341.14893	26902.5125
2343.98756	26940.5125
2346.8244	26920.7125
2349.65943	26977.3125
2352.49267	26926.2125
2355.32411	26940.8125
2358.15376	26898.4125
2360.98161	26868.0125
2363.80768	26844.2125
2366.63195	26828.4125
2369.45444	26787.3125
2372.27514	26694.0125
2375.09405	26656.1125
2377.91118	26587.0125
2380.72652	26524.2125
2383.54009	26472.2125
2386.35187	26440.1125
2389.16188	26359.8125
2391.97011	26357.3125
2394.77657	26360.5125
2397.58125	26324.2125
2400.38416	26288.1125
2403.18529	26214.1125
2405.98466	26162.8125
2408.78226	26101.5125
2411.57809	26043.0125
2414.37216	26000.3125
2417.16446	25989.4125
2419.955	25890.7125
2422.74378	25900.2125
2425.5308	25873.1125
2428.31606	25876.4125
2431.09956	25860.6125
2433.88131	25829.0125
2436.6613	25859.5125
2439.43954	25811.4125
2442.21603	25747.8125
2444.99077	25771.4125
2447.76377	25805.8125
2450.53501	25768.3125
2453.30451	25773.6125
2456.07226	25791.2125
2458.83827	25740.3125
2461.60254	25763.3125
2464.36507	25780.6125
2467.12586	25747.7125
2469.88492	25748.7125
2472.64224	25761.0125
2475.39782	25791.1125
2478.15167	25823.6125
2480.90379	25831.9125
2483.65417	25895.8125
2486.40283	25893.8125
2489.14976	25900.1125
2491.89497	25917.6125
2494.63845	25976.7125
2497.3802	25914.4125
2500.12024	25995.2125
2502.85855	25953.7125
2505.59514	25974.2125
2508.33002	25976.5125
2511.06318	25897.4125
2513.79462	25854.3125
2516.52435	25852.6125
2519.25237	25815.5125
2521.97867	25784.1125
2524.70327	25780.4125
2527.42616	25733.4125
2530.14734	25776.3125
2532.86681	25756.1125
2535.58458	25720.5125
2538.30065	25770.1125
2541.01501	25722.9125
2543.72768	25732.7125
2546.43864	25710.2125
2549.14791	25655.9125
2551.85548	25667.0125
2554.56136	25631.0125
2557.26554	25592.7125
2559.96803	25601.6125
2562.66883	25568.5125
2565.36794	25555.5125
2568.06536	25561.0125
2570.7611	25574.1125
2573.45514	25525.3125
2576.14751	25553.7125
2578.83819	25528.7125
2581.52719	25570.9125
2584.21451	25506.4125
2586.90015	25562.0125
2589.58411	25502.6125
2592.2664	25517.0125
2594.94701	25497.4125
2597.62594	25501.3125
2600.30321	25481.1125
2602.9788	25459.8125
2605.65273	25405.8125
2608.32498	25445.4125
2610.99557	25402.7125
2613.66449	25476.1125
2616.33175	25448.8125
2618.99734	25470.5125
2621.66128	25524.7125
2624.32355	25533.4125
2626.98416	25536.6125
2629.64311	25523.9125
2632.30041	25551.8125
2634.95605	25501.8125
2637.61004	25529.3125
2640.26238	25437.8125
2642.91306	25442.2125
2645.56209	25408.7125
2648.20948	25389.3125
2650.85521	25335.3125
2653.4993	25305.6125
2656.14175	25328.2125
2658.78255	25341.5125
2661.42171	25317.4125
2664.05923	25361.1125
2666.6951	25388.3125
2669.32934	25428.8125
2671.96194	25427.4125
2674.59291	25430.6125
2677.22224	25382.7125
2679.84993	25419.8125
2682.476	25347.5125
2685.10043	25370.5125
2687.72324	25308.8125
2690.34441	25314.9125
2692.96396	25305.9125
2695.58188	25320.3125
2698.19818	25289.1125
2700.81285	25293.0125
2703.4259	25237.9125
2706.03733	25334.9125
2708.64714	25300.0125
2711.25533	25333.3125
2713.86191	25367.2125
2716.46687	25342.5125
2719.07021	25343.4125
2721.67194	25367.5125
2724.27206	25335.3125
2726.87057	25351.3125
2729.46747	25353.3125
2732.06276	25433.7125
2734.65644	25396.2125
2737.24852	25375.5125
2739.83899	25385.8125
2742.42786	25383.8125
2745.01513	25340.4125
2747.60079	25348.6125
2750.18486	25335.6125
2752.76733	25325.4125
2755.3482	25373.1125
2757.92747	25342.7125
2760.50515	25334.2125
2763.08123	25320.7125
2765.65573	25303.9125
2768.22863	25261.9125
2770.79994	25226.3125
2773.36967	25224.2125
2775.9378	25212.6125
2778.50435	25215.9125
2781.06932	25225.0125
2783.6327	25257.6125
2786.1945	25228.8125
2788.75471	25198.6125
2791.31335	25145.0125
2793.87041	25085.0125
2796.42589	25079.1125
2798.97979	25016.0125
2801.53212	24967.6125
2804.08288	24981.7125
2806.63206	24933.5125
2809.17967	24887.2125
2811.72571	24848.8125
2814.27018	24863.4125
2816.81308	24828.6125
2819.35442	24793.2125
2821.89419	24789.7125
2824.43239	24812.4125
2826.96904	24783.4125
2829.50412	24745.7125
2832.03763	24690.9125
2834.56959	24684.9125
2837.1	24659.6125
2839.62884	24634.9125
2842.15613	24618.3125
2844.68186	24627.7125
2847.20604	24549.0125
2849.72867	24570.3125
2852.24974	24556.5125
2854.76927	24551.7125
2857.28724	24503.8125
2859.80367	24438.3125
2862.31855	24430.3125
2864.83189	24447.5125
2867.34368	24418.3125
2869.85393	24424.9125
2872.36264	24401.7125
2874.8698	24439.9125
2877.37543	24429.4125
2879.87952	24459.8125
2882.38207	24432.9125
2884.88308	24446.9125
2887.38256	24460.2125
2889.88051	24430.9125
2892.37692	24433.9125
2894.8718	24466.9125
2897.36515	24496.6125
2899.85698	24506.0125
2902.34727	24550.4125
2904.83604	24536.4125
2907.32328	24627.7125
2909.809	24637.9125
2912.29319	24671.1125
2914.77587	24670.3125
2917.25702	24657.7125
2919.73665	24624.8125
2922.21476	24672.9125
2924.69136	24583.9125
2927.16644	24595.2125
2929.64	24498.7125
2932.11205	24467.0125
2934.58258	24376.4125
2937.05161	24465.2125
2939.51912	24487.5125
2941.98513	24467.5125
2944.44962	24373.2125
2946.91261	24264.4125
2949.37409	24372.7125
2951.83407	24364.3125
2954.29254	24317.4125
2956.74951	24294.9125
2959.20498	24265.2125
2961.65895	24275.2125
2964.11142	24229.0125
2966.56239	24181.2125
2969.01186	24192.5125
2971.45984	24089.5125
2973.90632	24062.2125
2976.35131	24021.6125
2978.7948	23978.3125
2981.23681	23913.1125
2983.67732	23895.5125
2986.11635	23801.8125
2988.55388	23767.0125
2990.98993	23736.7125
2993.4245	23696.0125
2995.85758	23641.9125
2998.28917	23565.2125
3000.71928	23561.4125
3003.14791	23509.6125
3005.57506	23503.7125
3008.00073	23465.9125
3010.42493	23403.0125
3012.84764	23397.7125
3015.26888	23375.7125
3017.68865	23325.7125
3020.10694	23295.5125
3022.52376	23250.3125
