Data from AgNP_FTO_APTES_CRN_5uM_R6G_10uM_NaF_0.1M_Addition_RamanShift__20__15-49-17-921.txt Node

Date: Wed Dec 15 15:49:17 GMT 2021
User: TCL
Spectrometer: QEP01345
Trigger mode: 4
Integration Time (sec): 7.000000E0
Scans to average: 10
Electric dark correction enabled: true
Nonlinearity correction enabled: false
Boxcar width: 0
XAxis mode: Raman Shifts
Number of Pixels in Spectrum: 1044
>>>>>Begin Spectral Data<<<<<
46.04893	-0.5875
50.45542	-0.8875
54.85868	-1.6875
59.25871	-0.8875
63.6555	105.3125
68.04907	113.5125
72.43941	118.1125
76.82654	122.1125
81.21044	127.1125
85.59113	130.6125
89.96862	142.3125
94.34289	137.3125
98.71396	149.4125
103.08183	154.7125
107.4465	157.1125
111.80798	156.5125
116.16626	163.7125
120.52136	166.4125
124.87327	173.3125
129.222	180.7125
133.56755	189.7125
137.90993	208.3125
142.24913	226.4125
146.58517	248.2125
150.91804	291.5125
155.24774	343.3125
159.57429	422.7125
163.89768	545.3125
168.21792	716.2125
172.53501	964.9125
176.84895	1345.8125
181.15975	1895.5125
185.46741	2642.9125
189.77193	3627.5125
194.07331	4836.6125
198.37157	6235.2125
202.6667	7673.1125
206.9587	9092.8125
211.24758	10501.8125
215.53334	11924.4125
219.81599	13459.1125
224.09553	15071.2125
228.37195	16981.4125
232.64527	19010.9125
236.91549	21190.3125
241.18261	23326.3125
245.44663	25277.9125
249.70755	27014.4125
253.96539	28543.5125
258.22014	29851.3125
262.4718	30921.3125
266.72039	31717.0125
270.96589	32141.1125
275.20832	32217.6125
279.44768	32041.7125
283.68397	31734.1125
287.91719	31503.5125
292.14735	31363.3125
296.37445	31387.7125
300.59849	31535.1125
304.81948	31728.7125
309.03742	31791.7125
313.25231	31512.1125
317.46415	30845.7125
321.67296	29974.7125
325.87872	29196.4125
330.08145	28861.2125
334.28114	28888.8125
338.47781	29199.1125
342.67145	29591.7125
346.86207	30151.2125
351.04966	30761.1125
355.23424	31553.7125
359.4158	32205.1125
363.59435	32659.0125
367.76989	32904.2125
371.94243	33078.8125
376.11196	33200.3125
380.27849	33229.0125
384.44203	33272.4125
388.60257	33441.4125
392.76012	33730.1125
396.91468	34118.3125
401.06626	34765.1125
405.21485	35138.3125
409.36047	34970.3125
413.50311	34347.8125
417.64277	33830.7125
421.77947	33681.0125
425.9132	33713.0125
430.04396	33960.3125
434.17176	34129.1125
438.2966	34505.5125
442.41849	34988.2125
446.53742	35958.2125
450.6534	37051.7125
454.76644	37851.9125
458.87653	38196.6125
462.98368	37997.6125
467.08789	37492.3125
471.18916	36903.5125
475.2875	36250.2125
479.38291	35756.0125
483.4754	35441.4125
487.56496	34992.8125
491.6516	34612.7125
495.73531	34231.3125
499.81612	34239.7125
503.89401	34506.2125
507.96899	34693.3125
512.04106	34737.8125
516.11023	34749.3125
520.1765	34623.9125
524.23987	34411.3125
528.30034	34175.3125
532.35792	33814.5125
536.41261	33289.2125
540.46441	32846.2125
544.51333	32725.4125
548.55936	33095.3125
552.60252	33798.9125
556.64279	34485.3125
560.6802	34869.1125
564.71473	35077.5125
568.7464	35543.7125
572.7752	36223.9125
576.80114	36828.2125
580.82422	37477.6125
584.84444	38054.3125
588.86181	38649.0125
592.87633	39438.4125
596.888	40078.0125
600.89682	40607.9125
604.9028	42344.2125
608.90594	45992.4125
612.90624	49381.9125
616.90371	45925.2125
620.89834	38440.1125
624.89015	35420.1125
628.87913	35304.4125
632.86528	35331.9125
636.84862	34937.8125
640.82913	34224.5125
644.80683	33251.6125
648.78172	32550.2125
652.75379	32510.5125
656.72306	32913.8125
660.68952	33460.7125
664.65319	33248.8125
668.61405	32629.5125
672.57211	32454.6125
676.52738	32444.6125
680.47986	32370.0125
684.42955	32219.0125
688.37646	32206.8125
692.32058	32348.6125
696.26192	32685.6125
700.20048	33126.4125
704.13626	33324.1125
708.06928	33239.3125
711.99952	33022.1125
715.927	33007.2125
719.85171	33054.7125
723.77365	33004.6125
727.69284	32554.2125
731.60928	32179.3125
735.52295	32026.8125
739.43388	32028.0125
743.34206	32148.5125
747.24749	32367.1125
751.15017	32690.3125
755.05012	33266.4125
758.94733	34286.6125
762.8418	36121.7125
766.73354	39110.3125
770.62254	41840.1125
774.50882	42372.3125
778.39237	40291.6125
782.27321	37134.6125
786.15132	34630.9125
790.02671	33199.5125
793.89938	32601.8125
797.76935	32313.5125
801.6366	32279.2125
805.50115	32197.7125
809.36299	31952.2125
813.22213	31695.2125
817.07857	31557.9125
820.93231	31460.8125
824.78336	31379.7125
828.63172	31369.9125
832.47738	31393.2125
836.32036	31560.2125
840.16066	31756.9125
843.99827	31916.0125
847.8332	31801.6125
851.66546	31561.8125
855.49504	31488.1125
859.32195	31480.6125
863.1462	31317.2125
866.96777	31164.3125
870.78668	31054.6125
874.60293	31041.3125
878.41652	31053.8125
882.22745	31127.7125
886.03573	31301.6125
889.84136	31201.8125
893.64433	31084.9125
897.44466	30940.2125
901.24235	30898.4125
905.0374	30832.8125
908.8298	30765.3125
912.61957	30845.5125
916.40671	31226.2125
920.19121	31717.5125
923.97308	32214.3125
927.75233	32372.5125
931.52895	32271.7125
935.30295	31896.5125
939.07433	31263.5125
942.84309	30782.3125
946.60924	30618.9125
950.37278	30560.4125
954.13371	30398.1125
957.89203	30204.3125
961.64774	30097.8125
965.40086	30030.3125
969.15137	29917.0125
972.89929	29818.9125
976.64461	29800.2125
980.38733	29873.8125
984.12747	30083.1125
987.86502	30452.3125
991.59999	30931.7125
995.33237	31667.8125
999.06217	32887.0125
1002.78939	34205.5125
1006.51404	34924.6125
1010.23611	35340.4125
1013.95561	35564.7125
1017.67255	35435.9125
1021.38692	34933.1125
1025.09872	34701.0125
1028.80796	35259.8125
1032.51465	36676.4125
1036.21877	38039.6125
1039.92035	38174.1125
1043.61937	37395.7125
1047.31584	36172.4125
1051.00976	34949.2125
1054.70114	34343.1125
1058.38998	34274.0125
1062.07627	34614.6125
1065.76003	35046.6125
1069.44126	35657.8125
1073.11995	36543.4125
1076.79611	37245.3125
1080.46974	37544.7125
1084.14085	37617.4125
1087.80943	37528.2125
1091.47549	37367.0125
1095.13903	36931.7125
1098.80005	36183.1125
1102.45857	35358.7125
1106.11456	34857.6125
1109.76805	34714.7125
1113.41903	34876.0125
1117.06751	35108.5125
1120.71348	35408.6125
1124.35696	35737.7125
1127.99793	36106.5125
1131.63641	36359.2125
1135.2724	36171.5125
1138.90589	35935.6125
1142.5369	35833.8125
1146.16542	35729.3125
1149.79145	35752.7125
1153.415	36041.9125
1157.03607	36571.6125
1160.65467	37553.4125
1164.27079	39058.4125
1167.88443	41164.3125
1171.49561	43914.6125
1175.10432	47549.8125
1178.71056	51968.6125
1182.31434	56123.9125
1185.91565	58288.5125
1189.51451	57881.3125
1193.11091	55595.3125
1196.70485	52581.3125
1200.29634	49922.4125
1203.88538	48093.4125
1207.47197	46839.3125
1211.05612	45907.0125
1214.63782	45174.9125
1218.21708	44777.7125
1221.79391	44559.2125
1225.36829	44518.6125
1228.94024	44119.3125
1232.50976	43351.0125
1236.07685	42556.0125
1239.6415	42215.9125
1243.20374	42100.1125
1246.76355	42372.8125
1250.32093	43059.8125
1253.8759	44099.7125
1257.42845	45525.7125
1260.97859	46803.4125
1264.52631	48113.0125
1268.07163	49534.1125
1271.61453	51154.0125
1275.15503	52931.7125
1278.69312	54744.1125
1282.22882	56226.1125
1285.76211	57295.4125
1289.29301	58402.5125
1292.82151	59954.1125
1296.34761	62166.7125
1299.87133	65468.0125
1303.39266	69708.3125
1306.9116	74634.8125
1310.42815	79475.8125
1313.94233	82450.8125
1317.45412	82517.8125
1320.96354	80583.5125
1324.47058	78357.9125
1327.97525	76298.0125
1331.47754	74837.1125
1334.97747	74074.0125
1338.47502	73906.0125
1341.97022	73574.4125
1345.46305	72973.8125
1348.95352	71972.2125
1352.44163	71530.7125
1355.92738	72894.2125
1359.41078	76384.8125
1362.89183	79653.1125
1366.37053	78273.0125
1369.84688	71746.8125
1373.32088	64071.0125
1376.79254	58862.0125
1380.26186	56643.2125
1383.72883	55931.9125
1387.19347	55683.7125
1390.65578	54941.1125
1394.11575	54418.4125
1397.57339	54768.0125
1401.0287	55818.4125
1404.48168	56840.9125
1407.93234	57331.6125
1411.38068	56868.1125
1414.82669	55539.5125
1418.27039	53555.0125
1421.71177	51448.6125
1425.15083	49655.0125
1428.58758	48657.5125
1432.02203	48841.1125
1435.45416	49775.4125
1438.88399	51112.4125
1442.31151	52425.7125
1445.73673	53322.3125
1449.15965	54043.2125
1452.58027	54464.2125
1455.9986	54582.7125
1459.41463	54929.3125
1462.82837	55916.1125
1466.23982	57279.0125
1469.64898	58449.1125
1473.05586	59251.8125
1476.46045	59422.4125
1479.86276	59167.7125
1483.26279	58479.5125
1486.66054	57949.6125
1490.05602	57815.1125
1493.44922	57975.2125
1496.84016	58265.0125
1500.22882	59229.7125
1503.61521	60906.4125
1506.99934	63160.3125
1510.38121	65239.5125
1513.76081	65915.3125
1517.13816	64554.0125
1520.51324	61934.1125
1523.88607	59345.2125
1527.25665	57738.4125
1530.62498	56946.0125
1533.99105	56565.2125
1537.35488	56257.4125
1540.71647	55695.7125
1544.07581	54998.7125
1547.4329	54132.2125
1550.78776	53273.1125
1554.14038	52665.3125
1557.49077	52228.9125
1560.83892	52112.4125
1564.18484	52041.1125
1567.52853	52283.9125
1570.86999	52825.6125
1574.20922	54031.7125
1577.54624	55222.5125
1580.88103	55857.3125
1584.2136	56393.3125
1587.54395	57398.2125
1590.87208	59309.2125
1594.19801	62432.1125
1597.52172	66016.4125
1600.84321	67094.0125
1604.16251	64225.7125
1607.47959	59227.1125
1610.79447	54009.7125
1614.10715	49353.6125
1617.41763	45559.0125
1620.7259	42981.8125
1624.03199	41649.9125
1627.33587	41645.0125
1630.63757	42939.4125
1633.93707	45614.7125
1637.23439	49913.3125
1640.52951	55649.1125
1643.82246	61624.0125
1647.11321	66220.5125
1650.40179	66654.3125
1653.68819	62017.6125
1656.97241	54321.6125
1660.25446	46684.1125
1663.53433	41038.5125
1666.81203	37346.2125
1670.08756	35029.6125
1673.36092	33565.6125
1676.63211	32562.9125
1679.90115	31890.5125
1683.16801	31342.4125
1686.43272	30961.5125
1689.69527	30650.9125
1692.95567	30483.6125
1696.2139	30358.5125
1699.46999	30259.6125
1702.72392	30162.4125
1705.97571	30064.4125
1709.22535	29981.0125
1712.47284	29900.5125
1715.71819	29920.1125
1718.96139	29826.0125
1722.20246	29701.0125
1725.44139	29600.8125
1728.67818	29457.7125
1731.91284	29249.3125
1735.14537	29089.7125
1738.37576	28929.5125
1741.60403	28839.9125
1744.83017	28776.2125
1748.05418	28706.2125
1751.27607	28627.9125
1754.49584	28567.9125
1757.71349	28560.2125
1760.92903	28554.6125
1764.14244	28533.7125
1767.35375	28513.5125
1770.56294	28461.1125
1773.77002	28439.4125
1776.97499	28439.3125
1780.17785	28362.5125
1783.37861	28360.2125
1786.57727	28256.1125
1789.77382	28228.5125
1792.96828	28129.3125
1796.16064	28143.6125
1799.3509	28108.7125
1802.53907	28029.3125
1805.72514	27957.8125
1808.90913	27913.2125
1812.09102	27843.5125
1815.27083	27743.7125
1818.44856	27739.0125
1821.6242	27751.9125
1824.79776	27684.6125
1827.96924	27672.5125
1831.13864	27689.4125
1834.30597	27680.8125
1837.47122	27666.6125
1840.6344	27705.5125
1843.7955	27689.2125
1846.95454	27670.4125
1850.11151	27727.1125
1853.26642	27659.3125
1856.41926	27684.0125
1859.57004	27704.2125
1862.71876	27630.4125
1865.86542	27664.7125
1869.01003	27639.7125
1872.15258	27660.2125
1875.29308	27691.5125
1878.43152	27661.1125
1881.56792	27638.0125
1884.70227	27644.1125
1887.83457	27672.1125
1890.96482	27625.9125
1894.09304	27592.9125
1897.21921	27617.9125
1900.34335	27569.4125
1903.46544	27519.9125
1906.58551	27540.2125
1909.70353	27554.5125
1912.81953	27558.7125
1915.93349	27499.2125
1919.04543	27428.1125
1922.15534	27407.7125
1925.26322	27321.7125
1928.36908	27243.0125
1931.47292	27188.0125
1934.57473	27124.6125
1937.67453	27046.0125
1940.77232	26978.1125
1943.86808	26890.5125
1946.96184	26795.0125
1950.05358	26718.2125
1953.14331	26657.6125
1956.23103	26591.3125
1959.31675	26523.0125
1962.40046	26418.6125
1965.48217	26337.0125
1968.56188	26327.9125
1971.63959	26234.2125
1974.7153	26127.0125
1977.78901	26060.2125
1980.86073	26002.1125
1983.93046	25965.9125
1986.99819	25872.0125
1990.06394	25797.9125
1993.1277	25728.4125
1996.18947	25615.0125
1999.24925	25586.8125
2002.30706	25471.1125
2005.36288	25418.6125
2008.41672	25388.9125
2011.46859	25323.7125
2014.51848	25260.7125
2017.56639	25231.6125
2020.61233	25175.7125
2023.6563	25161.2125
2026.6983	25112.8125
2029.73833	25091.0125
2032.7764	25051.1125
2035.8125	24991.0125
2038.84664	24917.6125
2041.87881	24967.5125
2044.90903	24899.5125
2047.93729	24889.5125
2050.96359	24858.3125
2053.98794	24863.8125
2057.01034	24832.3125
2060.03078	24816.8125
2063.04927	24780.8125
2066.06582	24795.3125
2069.08042	24747.8125
2072.09307	24721.5125
2075.10378	24710.7125
2078.11255	24676.4125
2081.11938	24702.8125
2084.12426	24662.5125
2087.12722	24664.0125
2090.12824	24641.9125
2093.12732	24669.4125
2096.12447	24646.2125
2099.11969	24614.1125
2102.11299	24638.2125
2105.10435	24666.3125
2108.09379	24706.0125
2111.08131	24739.6125
2114.0669	24750.7125
2117.05057	24753.1125
2120.03233	24750.2125
2123.01216	24809.9125
2125.99008	24800.4125
2128.96609	24780.3125
2131.94018	24813.1125
2134.91236	24877.4125
2137.88263	24887.9125
2140.851	24881.5125
2143.81746	24886.4125
2146.78201	24907.0125
2149.74466	24967.8125
2152.7054	24941.2125
2155.66425	24951.6125
2158.6212	24965.5125
2161.57625	24967.8125
2164.52941	24954.1125
2167.48067	24940.9125
2170.43004	24942.1125
2173.37752	24950.6125
2176.32311	24936.6125
2179.26681	24927.7125
2182.20863	24923.1125
2185.14856	24919.3125
2188.08661	24933.1125
2191.02278	24975.1125
2193.95707	24946.7125
2196.88948	24988.1125
2199.82001	25017.7125
2202.74867	24994.4125
2205.67545	24957.9125
2208.60037	24972.2125
2211.52341	24935.5125
2214.44458	24973.9125
2217.36388	24940.7125
2220.28132	24915.3125
2223.1969	24905.6125
2226.11061	24888.8125
2229.02246	24846.7125
2231.93245	24776.8125
2234.84058	24696.9125
2237.74686	24633.7125
2240.65128	24648.9125
2243.55385	24580.0125
2246.45456	24555.8125
2249.35343	24527.5125
2252.25044	24462.1125
2255.14561	24456.8125
2258.03893	24441.2125
2260.93041	24402.1125
2263.82004	24365.8125
2266.70783	24334.9125
2269.59378	24258.3125
2272.4779	24201.1125
2275.36017	24124.5125
2278.24061	24103.3125
2281.11922	24058.0125
2283.996	24010.3125
2286.87094	24074.0125
2289.74405	23967.3125
2292.61534	24009.0125
2295.4848	23959.0125
2298.35243	23991.1125
2301.21824	23975.8125
2304.08223	23987.5125
2306.94439	24022.3125
2309.80474	24077.4125
2312.66327	24104.9125
2315.51999	24099.7125
2318.37489	24094.7125
2321.22797	24101.2125
2324.07925	24037.8125
2326.92871	24036.1125
2329.77637	24021.9125
2332.62222	24047.2125
2335.46626	24068.9125
2338.3085	24066.2125
2341.14893	24098.6125
2343.98756	24121.4125
2346.8244	24116.7125
2349.65943	24143.8125
2352.49267	24103.2125
2355.32411	24061.3125
2358.15376	24049.6125
2360.98161	24045.0125
2363.80768	24041.4125
2366.63195	24007.4125
2369.45444	23973.4125
2372.27514	23894.4125
2375.09405	23839.7125
2377.91118	23800.0125
2380.72652	23761.5125
2383.54009	23719.4125
2386.35187	23700.5125
2389.16188	23635.6125
2391.97011	23618.4125
2394.77657	23640.6125
2397.58125	23597.3125
2400.38416	23573.0125
2403.18529	23518.4125
2405.98466	23474.8125
2408.78226	23398.1125
2411.57809	23370.0125
2414.37216	23325.7125
2417.16446	23313.9125
2419.955	23247.0125
2422.74378	23293.7125
2425.5308	23235.5125
2428.31606	23224.0125
2431.09956	23229.1125
2433.88131	23186.8125
2436.6613	23211.0125
2439.43954	23222.3125
2442.21603	23156.2125
2444.99077	23145.3125
2447.76377	23229.9125
2450.53501	23205.4125
2453.30451	23205.7125
2456.07226	23161.5125
2458.83827	23187.3125
2461.60254	23151.4125
2464.36507	23188.6125
2467.12586	23170.6125
2469.88492	23171.3125
2472.64224	23177.4125
2475.39782	23229.6125
2478.15167	23249.0125
2480.90379	23284.3125
2483.65417	23298.7125
2486.40283	23294.4125
2489.14976	23336.6125
2491.89497	23311.9125
2494.63845	23369.3125
2497.3802	23378.1125
2500.12024	23365.1125
2502.85855	23385.2125
2505.59514	23339.5125
2508.33002	23341.2125
2511.06318	23301.9125
2513.79462	23309.4125
2516.52435	23268.6125
2519.25237	23219.9125
2521.97867	23209.1125
2524.70327	23215.7125
2527.42616	23205.6125
2530.14734	23219.4125
2532.86681	23177.9125
2535.58458	23187.3125
2538.30065	23179.9125
2541.01501	23217.2125
2543.72768	23178.3125
2546.43864	23134.7125
2549.14791	23149.3125
2551.85548	23119.1125
2554.56136	23104.3125
2557.26554	23106.4125
2559.96803	23070.1125
2562.66883	23049.3125
2565.36794	23039.7125
2568.06536	23105.1125
2570.7611	23055.4125
2573.45514	23018.6125
2576.14751	23051.5125
2578.83819	23022.3125
2581.52719	23064.0125
2584.21451	23043.5125
2586.90015	23030.3125
2589.58411	22991.1125
2592.2664	22991.4125
2594.94701	23002.5125
2597.62594	22990.5125
2600.30321	22971.1125
2602.9788	22993.1125
2605.65273	22948.8125
2608.32498	22955.4125
2610.99557	22924.8125
2613.66449	22992.2125
2616.33175	22949.0125
2618.99734	22977.5125
2621.66128	22957.7125
2624.32355	22996.7125
2626.98416	23013.0125
2629.64311	22997.4125
2632.30041	22980.9125
2634.95605	22996.7125
2637.61004	23000.5125
2640.26238	22958.9125
2642.91306	22978.7125
2645.56209	22954.3125
2648.20948	22932.1125
2650.85521	22873.0125
2653.4993	22891.9125
2656.14175	22862.6125
2658.78255	22904.3125
2661.42171	22862.9125
2664.05923	22895.6125
2666.6951	22943.3125
2669.32934	22970.5125
2671.96194	22962.4125
2674.59291	22972.0125
2677.22224	22934.5125
2679.84993	22973.5125
2682.476	22900.7125
2685.10043	22905.6125
2687.72324	22843.2125
2690.34441	22879.1125
2692.96396	22830.0125
2695.58188	22861.1125
2698.19818	22808.7125
2700.81285	22801.2125
2703.4259	22804.3125
2706.03733	22894.3125
2708.64714	22879.3125
2711.25533	22893.7125
2713.86191	22894.5125
2716.46687	22964.0125
2719.07021	22904.7125
2721.67194	22926.4125
2724.27206	22910.5125
2726.87057	22931.2125
2729.46747	22956.4125
2732.06276	23005.5125
2734.65644	22948.4125
2737.24852	22999.6125
2739.83899	22973.1125
2742.42786	22958.2125
2745.01513	22955.0125
2747.60079	22936.9125
2750.18486	22890.1125
2752.76733	22932.6125
2755.3482	22968.5125
2757.92747	22907.5125
2760.50515	22900.6125
2763.08123	22885.5125
2765.65573	22903.6125
2768.22863	22910.7125
2770.79994	22840.6125
2773.36967	22859.9125
2775.9378	22860.4125
2778.50435	22804.4125
2781.06932	22836.4125
2783.6327	22860.5125
2786.1945	22851.9125
2788.75471	22805.1125
2791.31335	22741.1125
2793.87041	22764.7125
2796.42589	22690.7125
2798.97979	22684.7125
2801.53212	22623.9125
2804.08288	22642.2125
2806.63206	22596.1125
2809.17967	22540.7125
2811.72571	22508.4125
2814.27018	22491.8125
2816.81308	22464.0125
2819.35442	22480.6125
2821.89419	22420.7125
2824.43239	22402.2125
2826.96904	22377.4125
2829.50412	22373.4125
2832.03763	22387.9125
2834.56959	22345.5125
2837.1	22293.2125
2839.62884	22290.6125
2842.15613	22256.0125
2844.68186	22278.9125
2847.20604	22215.2125
2849.72867	22249.6125
2852.24974	22195.8125
2854.76927	22198.8125
2857.28724	22201.0125
2859.80367	22126.9125
2862.31855	22120.1125
2864.83189	22127.5125
2867.34368	22097.4125
2869.85393	22095.0125
2872.36264	22085.4125
2874.8698	22093.5125
2877.37543	22136.8125
2879.87952	22153.8125
2882.38207	22135.3125
2884.88308	22161.1125
2887.38256	22145.8125
2889.88051	22141.0125
2892.37692	22137.2125
2894.8718	22157.2125
2897.36515	22172.2125
2899.85698	22175.1125
2902.34727	22279.8125
2904.83604	22284.9125
2907.32328	22300.6125
2909.809	22316.3125
2912.29319	22380.2125
2914.77587	22383.9125
2917.25702	22400.9125
2919.73665	22369.4125
2922.21476	22372.2125
2924.69136	22332.2125
2927.16644	22337.3125
2929.64	22262.2125
2932.11205	22238.8125
2934.58258	22134.5125
2937.05161	22223.0125
2939.51912	22218.5125
2941.98513	22201.2125
2944.44962	22155.7125
2946.91261	22058.5125
2949.37409	22138.1125
2951.83407	22123.5125
2954.29254	22118.7125
2956.74951	22053.6125
2959.20498	22038.6125
2961.65895	21999.0125
2964.11142	22039.6125
2966.56239	22000.8125
2969.01186	21943.8125
2971.45984	21907.1125
2973.90632	21881.9125
2976.35131	21808.7125
2978.7948	21818.6125
2981.23681	21752.8125
2983.67732	21714.6125
2986.11635	21665.6125
2988.55388	21624.7125
2990.98993	21580.7125
2993.4245	21592.7125
2995.85758	21471.5125
2998.28917	21438.3125
3000.71928	21414.8125
3003.14791	21379.6125
3005.57506	21352.5125
3008.00073	21306.8125
3010.42493	21295.2125
3012.84764	21287.2125
3015.26888	21285.5125
3017.68865	21237.1125
3020.10694	21234.0125
3022.52376	21140.1125
