Data from AgNP_FTO_APTES_CRN_5uM_R6G_10uM_NaF_0.1M_Addition_RamanShift__30__16-00-57-935.txt Node

Date: Wed Dec 15 16:00:57 GMT 2021
User: TCL
Spectrometer: QEP01345
Trigger mode: 4
Integration Time (sec): 7.000000E0
Scans to average: 10
Electric dark correction enabled: true
Nonlinearity correction enabled: false
Boxcar width: 0
XAxis mode: Raman Shifts
Number of Pixels in Spectrum: 1044
>>>>>Begin Spectral Data<<<<<
46.04893	1.1125
50.45542	-1.5875
54.85868	-0.5875
59.25871	0.0125
63.6555	89.6125
68.04907	101.4125
72.43941	104.6125
76.82654	110.9125
81.21044	112.0125
85.59113	117.6125
89.96862	122.6125
94.34289	121.8125
98.71396	131.1125
103.08183	137.4125
107.4465	136.5125
111.80798	140.8125
116.16626	145.7125
120.52136	148.7125
124.87327	148.3125
129.222	160.7125
133.56755	169.5125
137.90993	179.8125
142.24913	197.5125
146.58517	214.5125
150.91804	250.8125
155.24774	297.0125
159.57429	360.1125
163.89768	463.0125
168.21792	608.9125
172.53501	825.2125
176.84895	1139.4125
181.15975	1585.6125
185.46741	2210.7125
189.77193	3050.9125
194.07331	4071.0125
198.37157	5248.2125
202.6667	6473.6125
206.9587	7700.7125
211.24758	8886.7125
215.53334	10129.7125
219.81599	11464.3125
224.09553	12987.0125
228.37195	14650.8125
232.64527	16482.7125
236.91549	18386.2125
241.18261	20232.5125
245.44663	21825.8125
249.70755	23177.3125
253.96539	24368.1125
258.22014	25428.3125
262.4718	26350.5125
266.72039	27041.2125
270.96589	27520.0125
275.20832	27631.6125
279.44768	27513.1125
283.68397	27324.8125
287.91719	27154.1125
292.14735	27088.4125
296.37445	27294.2125
300.59849	27807.2125
304.81948	28403.9125
309.03742	28814.0125
313.25231	28578.0125
317.46415	27653.9125
321.67296	26268.0125
325.87872	25162.0125
330.08145	24615.8125
334.28114	24608.7125
338.47781	24936.4125
342.67145	25442.5125
346.86207	26188.2125
351.04966	27213.9125
355.23424	28316.9125
359.4158	29274.4125
363.59435	29817.0125
367.76989	30001.9125
371.94243	30060.6125
376.11196	30035.0125
380.27849	29970.6125
384.44203	29843.1125
388.60257	29789.1125
392.76012	29849.1125
396.91468	30205.7125
401.06626	30869.5125
405.21485	31376.9125
409.36047	31078.8125
413.50311	30138.9125
417.64277	29286.5125
421.77947	28843.9125
425.9132	28780.6125
430.04396	28915.0125
434.17176	29142.4125
438.2966	29404.0125
442.41849	29934.9125
446.53742	30651.0125
450.6534	31531.3125
454.76644	32158.8125
458.87653	32387.6125
462.98368	32270.2125
467.08789	31893.9125
471.18916	31226.7125
475.2875	30568.7125
479.38291	29969.1125
483.4754	29560.8125
487.56496	29211.1125
491.6516	28920.9125
495.73531	28749.7125
499.81612	28749.8125
503.89401	29060.9125
507.96899	29248.6125
512.04106	29464.3125
516.11023	29691.7125
520.1765	29841.5125
524.23987	29755.6125
528.30034	29404.3125
532.35792	28982.7125
536.41261	28468.8125
540.46441	27995.6125
544.51333	27875.4125
548.55936	28117.7125
552.60252	28690.1125
556.64279	29283.0125
560.6802	29545.6125
564.71473	29732.6125
568.7464	30403.0125
572.7752	31052.2125
576.80114	30979.0125
580.82422	30788.7125
584.84444	30771.8125
588.86181	30805.2125
592.87633	30980.0125
596.888	31419.0125
600.89682	32357.4125
604.9028	35073.3125
608.90594	41243.9125
612.90624	48142.6125
616.90371	45350.9125
620.89834	35128.5125
624.89015	30545.2125
628.87913	29801.9125
632.86528	29775.2125
636.84862	29767.5125
640.82913	29289.4125
644.80683	28323.2125
648.78172	27730.6125
652.75379	27772.8125
656.72306	28523.9125
660.68952	29434.4125
664.65319	29258.5125
668.61405	28383.8125
672.57211	28039.3125
676.52738	27985.2125
680.47986	27954.0125
684.42955	27870.8125
688.37646	27795.1125
692.32058	27948.7125
696.26192	28161.2125
700.20048	28520.0125
704.13626	28751.5125
708.06928	28675.0125
711.99952	28462.9125
715.927	28403.1125
719.85171	28344.3125
723.77365	28263.9125
727.69284	27995.7125
731.60928	27736.4125
735.52295	27762.9125
739.43388	27838.7125
743.34206	27904.6125
747.24749	28159.8125
751.15017	28485.7125
755.05012	29041.8125
758.94733	30148.5125
762.8418	32382.2125
766.73354	36092.6125
770.62254	39752.3125
774.50882	41045.7125
778.39237	38837.2125
782.27321	34829.3125
786.15132	31380.5125
790.02671	29404.8125
793.89938	28515.4125
797.76935	28168.9125
801.6366	27989.7125
805.50115	27872.0125
809.36299	27715.0125
813.22213	27577.9125
817.07857	27515.2125
820.93231	27525.7125
824.78336	27522.4125
828.63172	27656.5125
832.47738	27763.1125
836.32036	27848.8125
840.16066	27871.7125
843.99827	27882.6125
847.8332	27747.9125
851.66546	27638.7125
855.49504	27602.5125
859.32195	27510.9125
863.1462	27366.5125
866.96777	27235.0125
870.78668	27208.5125
874.60293	27187.0125
878.41652	27263.2125
882.22745	27343.0125
886.03573	27456.4125
889.84136	27397.6125
893.64433	27265.9125
897.44466	27208.9125
901.24235	27254.2125
905.0374	27197.9125
908.8298	27206.9125
912.61957	27232.8125
916.40671	27482.0125
920.19121	27817.7125
923.97308	28159.9125
927.75233	28374.7125
931.52895	28405.8125
935.30295	28084.0125
939.07433	27480.6125
942.84309	27038.6125
946.60924	26820.8125
950.37278	26685.2125
954.13371	26483.6125
957.89203	26358.8125
961.64774	26227.6125
965.40086	26150.7125
969.15137	26080.7125
972.89929	25962.6125
976.64461	25975.5125
980.38733	26056.0125
984.12747	26146.4125
987.86502	26371.2125
991.59999	26671.1125
995.33237	27177.0125
999.06217	28112.6125
1002.78939	29153.8125
1006.51404	29907.5125
1010.23611	30542.5125
1013.95561	30866.4125
1017.67255	30804.7125
1021.38692	30378.1125
1025.09872	30231.3125
1028.80796	30589.2125
1032.51465	31561.6125
1036.21877	32439.9125
1039.92035	32534.6125
1043.61937	31994.6125
1047.31584	31129.6125
1051.00976	30184.7125
1054.70114	29650.7125
1058.38998	29535.9125
1062.07627	29697.0125
1065.76003	29980.1125
1069.44126	30381.5125
1073.11995	30917.0125
1076.79611	31483.4125
1080.46974	31860.3125
1084.14085	32074.9125
1087.80943	32258.8125
1091.47549	32116.2125
1095.13903	31590.0125
1098.80005	30693.8125
1102.45857	29966.0125
1106.11456	29589.5125
1109.76805	29565.8125
1113.41903	29933.7125
1117.06751	30435.9125
1120.71348	31063.1125
1124.35696	31653.6125
1127.99793	32278.1125
1131.63641	32374.4125
1135.2724	31756.3125
1138.90589	31049.6125
1142.5369	30593.3125
1146.16542	30231.7125
1149.79145	30070.0125
1153.415	30223.1125
1157.03607	30548.8125
1160.65467	31215.7125
1164.27079	32151.2125
1167.88443	33672.4125
1171.49561	35872.3125
1175.10432	39286.2125
1178.71056	43634.7125
1182.31434	47371.2125
1185.91565	48989.8125
1189.51451	48509.5125
1193.11091	46275.3125
1196.70485	43203.2125
1200.29634	40739.6125
1203.88538	38907.6125
1207.47197	37244.6125
1211.05612	35953.8125
1214.63782	35218.0125
1218.21708	35138.6125
1221.79391	35292.9125
1225.36829	35524.4125
1228.94024	35531.6125
1232.50976	35399.8125
1236.07685	35287.5125
1239.6415	35247.0125
1243.20374	35271.1125
1246.76355	35429.9125
1250.32093	35965.4125
1253.8759	36816.9125
1257.42845	38023.4125
1260.97859	39039.5125
1264.52631	39908.0125
1268.07163	40755.8125
1271.61453	41722.1125
1275.15503	42813.2125
1278.69312	43894.8125
1282.22882	44620.4125
1285.76211	45459.8125
1289.29301	46330.7125
1292.82151	47256.8125
1296.34761	48503.8125
1299.87133	50360.5125
1303.39266	53365.7125
1306.9116	57640.6125
1310.42815	62547.3125
1313.94233	65790.4125
1317.45412	65707.9125
1320.96354	63377.3125
1324.47058	60498.8125
1327.97525	57944.2125
1331.47754	56348.7125
1334.97747	55879.5125
1338.47502	56348.6125
1341.97022	57127.0125
1345.46305	57716.1125
1348.95352	58194.5125
1352.44163	59251.0125
1355.92738	61913.8125
1359.41078	67118.7125
1362.89183	72603.9125
1366.37053	71445.3125
1369.84688	63553.4125
1373.32088	55093.9125
1376.79254	49542.4125
1380.26186	46670.3125
1383.72883	45424.1125
1387.19347	44397.6125
1390.65578	43404.1125
1394.11575	42641.5125
1397.57339	42553.3125
1401.0287	43013.2125
1404.48168	43863.4125
1407.93234	44827.6125
1411.38068	45535.8125
1414.82669	45479.2125
1418.27039	44492.0125
1421.71177	43092.0125
1425.15083	41760.1125
1428.58758	40943.2125
1432.02203	40789.7125
1435.45416	41066.7125
1438.88399	41465.6125
1442.31151	41738.8125
1445.73673	42150.7125
1449.15965	42450.3125
1452.58027	42577.0125
1455.9986	42380.6125
1459.41463	42396.7125
1462.82837	42735.9125
1466.23982	43537.6125
1469.64898	44496.3125
1473.05586	45165.6125
1476.46045	45660.2125
1479.86276	46219.4125
1483.26279	46861.4125
1486.66054	47537.8125
1490.05602	48432.8125
1493.44922	49523.6125
1496.84016	50881.5125
1500.22882	52780.3125
1503.61521	55608.5125
1506.99934	59168.0125
1510.38121	62894.0125
1513.76081	64818.3125
1517.13816	63366.6125
1520.51324	59024.3125
1523.88607	54276.9125
1527.25665	50803.8125
1530.62498	48615.9125
1533.99105	47251.9125
1537.35488	46408.7125
1540.71647	45818.2125
1544.07581	45457.5125
1547.4329	45048.7125
1550.78776	44648.1125
1554.14038	44411.8125
1557.49077	44568.2125
1560.83892	44812.1125
1564.18484	45278.5125
1567.52853	45654.9125
1570.86999	46024.0125
1574.20922	46610.4125
1577.54624	46999.1125
1580.88103	46544.1125
1584.2136	45653.0125
1587.54395	45417.2125
1590.87208	46494.7125
1594.19801	48853.4125
1597.52172	51798.0125
1600.84321	52916.8125
1604.16251	51085.4125
1607.47959	47631.9125
1610.79447	43987.1125
1614.10715	40602.0125
1617.41763	38024.3125
1620.7259	36256.4125
1624.03199	35404.7125
1627.33587	35452.1125
1630.63757	36341.4125
1633.93707	38100.2125
1637.23439	40578.6125
1640.52951	43703.4125
1643.82246	47215.2125
1647.11321	50533.9125
1650.40179	52266.5125
1653.68819	50458.4125
1656.97241	45208.1125
1660.25446	39371.0125
1663.53433	34940.0125
1666.81203	32131.2125
1670.08756	30404.5125
1673.36092	29334.4125
1676.63211	28617.5125
1679.90115	28119.4125
1683.16801	27770.1125
1686.43272	27458.3125
1689.69527	27252.5125
1692.95567	27112.3125
1696.2139	27023.7125
1699.46999	26997.5125
1702.72392	27011.9125
1705.97571	26911.3125
1709.22535	26823.4125
1712.47284	26802.5125
1715.71819	26851.0125
1718.96139	26820.4125
1722.20246	26768.5125
1725.44139	26671.6125
1728.67818	26528.3125
1731.91284	26322.0125
1735.14537	26213.3125
1738.37576	26111.2125
1741.60403	26023.5125
1744.83017	25973.9125
1748.05418	25884.2125
1751.27607	25871.0125
1754.49584	25797.7125
1757.71349	25777.7125
1760.92903	25787.1125
1764.14244	25744.8125
1767.35375	25743.5125
1770.56294	25762.8125
1773.77002	25709.1125
1776.97499	25700.7125
1780.17785	25651.8125
1783.37861	25614.5125
1786.57727	25556.5125
1789.77382	25517.2125
1792.96828	25494.5125
1796.16064	25468.7125
1799.3509	25466.0125
1802.53907	25408.6125
1805.72514	25361.3125
1808.90913	25332.3125
1812.09102	25283.8125
1815.27083	25232.0125
1818.44856	25179.3125
1821.6242	25189.8125
1824.79776	25179.3125
1827.96924	25161.1125
1831.13864	25131.1125
1834.30597	25142.1125
1837.47122	25183.2125
1840.6344	25175.6125
1843.7955	25121.9125
1846.95454	25161.2125
1850.11151	25167.1125
1853.26642	25150.6125
1856.41926	25187.7125
1859.57004	25202.4125
1862.71876	25183.6125
1865.86542	25190.8125
1869.01003	25243.2125
1872.15258	25253.9125
1875.29308	25255.8125
1878.43152	25266.7125
1881.56792	25261.9125
1884.70227	25267.5125
1887.83457	25259.6125
1890.96482	25263.2125
1894.09304	25226.3125
1897.21921	25246.3125
1900.34335	25215.5125
1903.46544	25200.9125
1906.58551	25254.0125
1909.70353	25210.4125
1912.81953	25217.1125
1915.93349	25195.3125
1919.04543	25151.1125
1922.15534	25120.1125
1925.26322	25084.8125
1928.36908	25002.2125
1931.47292	24941.5125
1934.57473	24883.6125
1937.67453	24763.7125
1940.77232	24681.1125
1943.86808	24613.3125
1946.96184	24525.4125
1950.05358	24443.3125
1953.14331	24326.9125
1956.23103	24280.7125
1959.31675	24222.7125
1962.40046	24115.2125
1965.48217	24061.7125
1968.56188	23975.3125
1971.63959	23939.9125
1974.7153	23837.6125
1977.78901	23776.7125
1980.86073	23728.6125
1983.93046	23640.7125
1986.99819	23598.4125
1990.06394	23507.4125
1993.1277	23449.0125
1996.18947	23334.3125
1999.24925	23307.8125
2002.30706	23212.9125
2005.36288	23161.1125
2008.41672	23109.9125
2011.46859	23074.8125
2014.51848	23017.5125
2017.56639	22989.9125
2020.61233	22916.1125
2023.6563	22839.9125
2026.6983	22867.9125
2029.73833	22794.0125
2032.7764	22735.5125
2035.8125	22693.9125
2038.84664	22650.1125
2041.87881	22653.8125
2044.90903	22630.1125
2047.93729	22573.6125
2050.96359	22577.9125
2053.98794	22534.4125
2057.01034	22484.6125
2060.03078	22501.5125
2063.04927	22424.7125
2066.06582	22453.2125
2069.08042	22416.6125
2072.09307	22395.6125
2075.10378	22402.9125
2078.11255	22316.8125
2081.11938	22320.2125
2084.12426	22325.7125
2087.12722	22304.9125
2090.12824	22297.7125
2093.12732	22313.1125
2096.12447	22311.8125
2099.11969	22254.8125
2102.11299	22298.0125
2105.10435	22273.6125
2108.09379	22324.1125
2111.08131	22337.6125
2114.0669	22367.1125
2117.05057	22336.9125
2120.03233	22377.6125
2123.01216	22389.3125
2125.99008	22374.3125
2128.96609	22379.1125
2131.94018	22386.5125
2134.91236	22425.1125
2137.88263	22456.5125
2140.851	22469.7125
2143.81746	22470.9125
2146.78201	22483.1125
2149.74466	22468.0125
2152.7054	22481.8125
2155.66425	22457.0125
2158.6212	22510.7125
2161.57625	22502.9125
2164.52941	22476.9125
2167.48067	22488.4125
2170.43004	22471.0125
2173.37752	22474.3125
2176.32311	22447.0125
2179.26681	22457.6125
2182.20863	22443.3125
2185.14856	22481.1125
2188.08661	22480.7125
2191.02278	22470.0125
2193.95707	22463.8125
2196.88948	22459.8125
2199.82001	22464.3125
2202.74867	22460.2125
2205.67545	22449.4125
2208.60037	22444.2125
2211.52341	22424.9125
2214.44458	22439.5125
2217.36388	22372.5125
2220.28132	22383.0125
2223.1969	22348.9125
2226.11061	22332.7125
2229.02246	22226.5125
2231.93245	22206.3125
2234.84058	22133.7125
2237.74686	22117.8125
2240.65128	22092.7125
2243.55385	22033.2125
2246.45456	22029.9125
2249.35343	21998.9125
2252.25044	21976.9125
2255.14561	21940.5125
2258.03893	21984.2125
2260.93041	21947.9125
2263.82004	21911.4125
2266.70783	21856.8125
2269.59378	21786.4125
2272.4779	21728.5125
2275.36017	21654.6125
2278.24061	21636.3125
2281.11922	21572.7125
2283.996	21540.7125
2286.87094	21532.8125
2289.74405	21496.8125
2292.61534	21509.7125
2295.4848	21467.2125
2298.35243	21466.2125
2301.21824	21470.3125
2304.08223	21444.3125
2306.94439	21498.0125
2309.80474	21513.6125
2312.66327	21551.1125
2315.51999	21507.5125
2318.37489	21538.5125
2321.22797	21504.3125
2324.07925	21478.0125
2326.92871	21498.5125
2329.77637	21458.9125
2332.62222	21489.6125
2335.46626	21478.1125
2338.3085	21473.5125
2341.14893	21497.7125
2343.98756	21494.5125
2346.8244	21510.0125
2349.65943	21519.4125
2352.49267	21496.9125
2355.32411	21504.4125
2358.15376	21484.0125
2360.98161	21462.2125
2363.80768	21459.0125
2366.63195	21435.0125
2369.45444	21404.5125
2372.27514	21368.2125
2375.09405	21291.0125
2377.91118	21278.2125
2380.72652	21227.7125
2383.54009	21180.5125
2386.35187	21159.0125
2389.16188	21092.4125
2391.97011	21056.5125
2394.77657	21025.9125
2397.58125	20955.6125
2400.38416	20982.5125
2403.18529	20920.1125
2405.98466	20879.5125
2408.78226	20824.5125
2411.57809	20783.8125
2414.37216	20690.6125
2417.16446	20707.9125
2419.955	20656.4125
2422.74378	20649.5125
2425.5308	20649.9125
2428.31606	20632.9125
2431.09956	20626.7125
2433.88131	20625.1125
2436.6613	20617.0125
2439.43954	20564.9125
2442.21603	20546.4125
2444.99077	20525.2125
2447.76377	20567.9125
2450.53501	20520.8125
2453.30451	20528.5125
2456.07226	20515.6125
2458.83827	20488.3125
2461.60254	20478.9125
2464.36507	20501.9125
2467.12586	20494.6125
2469.88492	20503.2125
2472.64224	20500.7125
2475.39782	20489.4125
2478.15167	20520.2125
2480.90379	20564.9125
2483.65417	20556.0125
2486.40283	20577.3125
2489.14976	20613.4125
2491.89497	20603.6125
2494.63845	20620.4125
2497.3802	20645.0125
2500.12024	20636.2125
2502.85855	20623.4125
2505.59514	20617.0125
2508.33002	20605.3125
2511.06318	20544.0125
2513.79462	20540.7125
2516.52435	20476.3125
2519.25237	20468.5125
2521.97867	20410.1125
2524.70327	20422.1125
2527.42616	20334.3125
2530.14734	20370.1125
2532.86681	20320.7125
2535.58458	20304.6125
2538.30065	20316.8125
2541.01501	20331.0125
2543.72768	20278.1125
2546.43864	20304.3125
2549.14791	20239.5125
2551.85548	20276.2125
2554.56136	20249.0125
2557.26554	20200.4125
2559.96803	20221.7125
2562.66883	20178.6125
2565.36794	20177.5125
2568.06536	20194.0125
2570.7611	20126.9125
2573.45514	20135.8125
2576.14751	20135.3125
2578.83819	20083.4125
2581.52719	20093.8125
2584.21451	20053.9125
2586.90015	20102.9125
2589.58411	20040.8125
2592.2664	20054.0125
2594.94701	20049.8125
2597.62594	20030.5125
2600.30321	19984.0125
2602.9788	19992.2125
2605.65273	19993.7125
2608.32498	19967.5125
2610.99557	19941.3125
2613.66449	19964.2125
2616.33175	19958.1125
2618.99734	20001.4125
2621.66128	19972.2125
2624.32355	20011.3125
2626.98416	20013.9125
2629.64311	20002.4125
2632.30041	19980.0125
2634.95605	19955.7125
2637.61004	19979.3125
2640.26238	19917.3125
2642.91306	19907.8125
2645.56209	19857.0125
2648.20948	19870.4125
2650.85521	19802.4125
2653.4993	19804.8125
2656.14175	19807.7125
2658.78255	19813.1125
2661.42171	19798.0125
2664.05923	19847.2125
2666.6951	19845.4125
2669.32934	19868.0125
2671.96194	19876.9125
2674.59291	19886.7125
2677.22224	19897.7125
2679.84993	19922.1125
2682.476	19878.9125
2685.10043	19833.6125
2687.72324	19855.8125
2690.34441	19854.6125
2692.96396	19812.8125
2695.58188	19846.4125
2698.19818	19836.3125
2700.81285	19810.0125
2703.4259	19784.5125
2706.03733	19850.6125
2708.64714	19847.6125
2711.25533	19843.1125
2713.86191	19843.3125
2716.46687	19860.3125
2719.07021	19838.4125
2721.67194	19858.0125
2724.27206	19818.8125
2726.87057	19863.4125
2729.46747	19870.3125
2732.06276	19872.6125
2734.65644	19849.3125
2737.24852	19877.6125
2739.83899	19839.8125
2742.42786	19853.7125
2745.01513	19821.6125
2747.60079	19818.1125
2750.18486	19810.9125
2752.76733	19822.8125
2755.3482	19809.3125
2757.92747	19794.4125
2760.50515	19772.3125
2763.08123	19749.4125
2765.65573	19708.8125
2768.22863	19682.6125
2770.79994	19669.5125
2773.36967	19672.1125
2775.9378	19664.5125
2778.50435	19665.2125
2781.06932	19620.0125
2783.6327	19653.7125
2786.1945	19636.0125
2788.75471	19606.1125
2791.31335	19551.3125
2793.87041	19559.4125
2796.42589	19494.0125
2798.97979	19495.7125
2801.53212	19455.9125
2804.08288	19441.3125
2806.63206	19391.1125
2809.17967	19384.8125
2811.72571	19374.9125
2814.27018	19326.5125
2816.81308	19366.2125
2819.35442	19353.5125
2821.89419	19329.4125
2824.43239	19316.6125
2826.96904	19335.4125
2829.50412	19303.8125
2832.03763	19283.2125
2834.56959	19261.5125
2837.1	19248.7125
2839.62884	19252.7125
2842.15613	19233.6125
2844.68186	19208.4125
2847.20604	19178.5125
2849.72867	19213.9125
2852.24974	19220.3125
2854.76927	19167.0125
2857.28724	19185.1125
2859.80367	19158.3125
2862.31855	19123.7125
2864.83189	19109.2125
2867.34368	19091.7125
2869.85393	19120.6125
2872.36264	19079.3125
2874.8698	19083.2125
2877.37543	19063.1125
2879.87952	19110.1125
2882.38207	19095.5125
2884.88308	19067.9125
2887.38256	19066.0125
2889.88051	19082.1125
2892.37692	19058.7125
2894.8718	19045.9125
2897.36515	19108.6125
2899.85698	19070.5125
2902.34727	19144.1125
2904.83604	19129.7125
2907.32328	19175.1125
2909.809	19198.6125
2912.29319	19192.2125
2914.77587	19176.4125
2917.25702	19177.7125
2919.73665	19146.9125
2922.21476	19206.4125
2924.69136	19141.1125
2927.16644	19150.6125
2929.64	19086.2125
2932.11205	19026.6125
2934.58258	18996.8125
2937.05161	19014.7125
2939.51912	19011.2125
2941.98513	19030.6125
2944.44962	18925.0125
2946.91261	18889.3125
2949.37409	18936.6125
2951.83407	18891.8125
2954.29254	18884.7125
2956.74951	18817.7125
2959.20498	18840.9125
2961.65895	18809.4125
2964.11142	18814.9125
2966.56239	18754.8125
2969.01186	18727.5125
2971.45984	18689.9125
2973.90632	18658.4125
2976.35131	18605.4125
2978.7948	18563.7125
2981.23681	18520.0125
2983.67732	18524.6125
2986.11635	18460.5125
2988.55388	18423.4125
2990.98993	18391.4125
2993.4245	18364.0125
2995.85758	18293.0125
2998.28917	18250.8125
3000.71928	18278.5125
3003.14791	18261.5125
3005.57506	18209.2125
3008.00073	18192.5125
3010.42493	18167.8125
3012.84764	18138.7125
3015.26888	18132.4125
3017.68865	18080.7125
3020.10694	18060.5125
3022.52376	18009.1125
