Data from AgNP_FTO_APTES_CRN_50uM_R6G_10uM_NaF_0.1M_Addition_RamanShift__24__18-13-58-076.txt Node

Date: Wed Dec 15 18:13:58 GMT 2021
User: TCL
Spectrometer: QEP01345
Trigger mode: 4
Integration Time (sec): 7.000000E0
Scans to average: 10
Electric dark correction enabled: true
Nonlinearity correction enabled: false
Boxcar width: 0
XAxis mode: Raman Shifts
Number of Pixels in Spectrum: 1044
>>>>>Begin Spectral Data<<<<<
46.04893	2.2875
50.45542	-1.1125
54.85868	-0.6125
59.25871	-1.3125
63.6555	60.7875
68.04907	66.4875
72.43941	69.6875
76.82654	76.3875
81.21044	78.5875
85.59113	79.6875
89.96862	86.4875
94.34289	80.6875
98.71396	88.3875
103.08183	93.0875
107.4465	96.1875
111.80798	94.7875
116.16626	96.6875
120.52136	100.4875
124.87327	102.8875
129.222	104.3875
133.56755	108.2875
137.90993	118.7875
142.24913	128.5875
146.58517	137.8875
150.91804	159.3875
155.24774	184.8875
159.57429	228.3875
163.89768	286.8875
168.21792	374.7875
172.53501	512.8875
176.84895	702.7875
181.15975	988.8875
185.46741	1373.7875
189.77193	1899.3875
194.07331	2548.6875
198.37157	3290.5875
202.6667	4067.9875
206.9587	4831.1875
211.24758	5577.9875
215.53334	6330.7875
219.81599	7121.6875
224.09553	7988.4875
228.37195	8942.7875
232.64527	9989.8875
236.91549	11112.7875
241.18261	12271.6875
245.44663	13350.2875
249.70755	14372.6875
253.96539	15266.1875
258.22014	15985.7875
262.4718	16613.4875
266.72039	17069.0875
270.96589	17298.1875
275.20832	17383.5875
279.44768	17298.6875
283.68397	17112.3875
287.91719	16985.0875
292.14735	16867.0875
296.37445	16851.9875
300.59849	16875.9875
304.81948	16877.3875
309.03742	16796.2875
313.25231	16629.5875
317.46415	16292.0875
321.67296	15924.9875
325.87872	15624.4875
330.08145	15490.7875
334.28114	15522.3875
338.47781	15661.5875
342.67145	15862.8875
346.86207	16122.5875
351.04966	16427.5875
355.23424	16760.3875
359.4158	17031.5875
363.59435	17219.4875
367.76989	17388.8875
371.94243	17529.9875
376.11196	17616.4875
380.27849	17767.7875
384.44203	17837.3875
388.60257	17921.5875
392.76012	18065.6875
396.91468	18275.8875
401.06626	18549.9875
405.21485	18741.5875
409.36047	18691.8875
413.50311	18472.1875
417.64277	18293.3875
421.77947	18229.9875
425.9132	18239.4875
430.04396	18386.6875
434.17176	18499.7875
438.2966	18699.7875
442.41849	18969.7875
446.53742	19344.4875
450.6534	19787.6875
454.76644	20127.8875
458.87653	20313.9875
462.98368	20273.3875
467.08789	20124.5875
471.18916	19944.7875
475.2875	19777.8875
479.38291	19716.6875
483.4754	19574.2875
487.56496	19394.0875
491.6516	19142.9875
495.73531	18962.6875
499.81612	18833.9875
503.89401	18951.1875
507.96899	18964.6875
512.04106	19012.7875
516.11023	19002.6875
520.1765	19037.3875
524.23987	19019.7875
528.30034	18929.9875
532.35792	18821.2875
536.41261	18597.3875
540.46441	18491.4875
544.51333	18457.1875
548.55936	18592.1875
552.60252	18819.2875
556.64279	19147.5875
560.6802	19240.9875
564.71473	19331.8875
568.7464	19474.8875
572.7752	19696.0875
576.80114	19791.5875
580.82422	19879.0875
584.84444	20031.4875
588.86181	20279.1875
592.87633	20607.6875
596.888	20931.7875
600.89682	21129.4875
604.9028	21690.9875
608.90594	23061.4875
612.90624	24536.9875
616.90371	23531.3875
620.89834	20570.3875
624.89015	19284.4875
628.87913	19149.4875
632.86528	19194.9875
636.84862	19212.9875
640.82913	19061.5875
644.80683	18654.4875
648.78172	18433.3875
652.75379	18358.9875
656.72306	18490.8875
660.68952	18735.3875
664.65319	18726.3875
668.61405	18496.5875
672.57211	18406.8875
676.52738	18406.3875
680.47986	18417.8875
684.42955	18415.8875
688.37646	18396.0875
692.32058	18456.8875
696.26192	18535.1875
700.20048	18681.8875
704.13626	18795.3875
708.06928	18807.6875
711.99952	18708.2875
715.927	18642.0875
719.85171	18651.5875
723.77365	18625.5875
727.69284	18501.4875
731.60928	18390.7875
735.52295	18361.9875
739.43388	18386.8875
743.34206	18421.7875
747.24749	18474.2875
751.15017	18575.8875
755.05012	18771.4875
758.94733	19153.4875
762.8418	19834.7875
766.73354	20941.8875
770.62254	22014.6875
774.50882	22359.8875
778.39237	21632.4875
782.27321	20332.8875
786.15132	19279.7875
790.02671	18679.2875
793.89938	18376.5875
797.76935	18306.0875
801.6366	18270.7875
805.50115	18226.4875
809.36299	18147.9875
813.22213	18154.4875
817.07857	18110.5875
820.93231	18133.8875
824.78336	18095.5875
828.63172	18118.6875
832.47738	18141.9875
836.32036	18176.5875
840.16066	18230.7875
843.99827	18208.0875
847.8332	18189.5875
851.66546	18119.8875
855.49504	18112.5875
859.32195	18145.1875
863.1462	18104.3875
866.96777	18077.9875
870.78668	17998.1875
874.60293	17996.6875
878.41652	18030.7875
882.22745	18011.7875
886.03573	18108.1875
889.84136	18042.3875
893.64433	18032.9875
897.44466	17940.7875
901.24235	17905.6875
905.0374	17871.6875
908.8298	17865.7875
912.61957	17879.9875
916.40671	18039.0875
920.19121	18159.1875
923.97308	18249.6875
927.75233	18291.8875
931.52895	18252.5875
935.30295	18160.5875
939.07433	17952.0875
942.84309	17772.1875
946.60924	17663.4875
950.37278	17626.5875
954.13371	17548.0875
957.89203	17452.2875
961.64774	17475.7875
965.40086	17432.5875
969.15137	17343.7875
972.89929	17288.7875
976.64461	17236.2875
980.38733	17238.4875
984.12747	17339.5875
987.86502	17454.4875
991.59999	17604.2875
995.33237	17832.5875
999.06217	18190.7875
1002.78939	18562.0875
1006.51404	18800.5875
1010.23611	18944.3875
1013.95561	19059.2875
1017.67255	19049.0875
1021.38692	18938.6875
1025.09872	18758.9875
1028.80796	18896.7875
1032.51465	19205.8875
1036.21877	19508.4875
1039.92035	19566.3875
1043.61937	19457.3875
1047.31584	19193.6875
1051.00976	18894.0875
1054.70114	18751.1875
1058.38998	18825.7875
1062.07627	18978.7875
1065.76003	19205.5875
1069.44126	19529.5875
1073.11995	19845.6875
1076.79611	20129.9875
1080.46974	20189.7875
1084.14085	20015.7875
1087.80943	19900.8875
1091.47549	19714.3875
1095.13903	19494.1875
1098.80005	19251.1875
1102.45857	18992.9875
1106.11456	18821.0875
1109.76805	18762.1875
1113.41903	18840.6875
1117.06751	18978.7875
1120.71348	19147.9875
1124.35696	19287.8875
1127.99793	19480.2875
1131.63641	19554.4875
1135.2724	19404.6875
1138.90589	19229.0875
1142.5369	19073.4875
1146.16542	19021.4875
1149.79145	19042.9875
1153.415	19089.2875
1157.03607	19283.0875
1160.65467	19546.2875
1164.27079	20047.8875
1167.88443	20726.8875
1171.49561	21695.0875
1175.10432	23005.5875
1178.71056	24556.8875
1182.31434	25910.8875
1185.91565	26526.9875
1189.51451	26299.5875
1193.11091	25578.5875
1196.70485	24618.4875
1200.29634	23720.7875
1203.88538	23106.3875
1207.47197	22670.5875
1211.05612	22283.9875
1214.63782	22008.7875
1218.21708	21807.9875
1221.79391	21723.6875
1225.36829	21659.2875
1228.94024	21494.0875
1232.50976	21312.7875
1236.07685	21138.0875
1239.6415	21121.1875
1243.20374	21182.1875
1246.76355	21290.2875
1250.32093	21549.0875
1253.8759	21863.9875
1257.42845	22320.3875
1260.97859	22675.6875
1264.52631	22992.8875
1268.07163	23345.1875
1271.61453	23792.3875
1275.15503	24245.3875
1278.69312	24798.1875
1282.22882	25210.6875
1285.76211	25616.9875
1289.29301	26152.0875
1292.82151	26893.8875
1296.34761	27783.7875
1299.87133	28861.5875
1303.39266	30187.3875
1306.9116	31678.2875
1310.42815	33195.2875
1313.94233	34103.7875
1317.45412	34254.3875
1320.96354	33660.7875
1324.47058	33042.4875
1327.97525	32310.1875
1331.47754	31822.0875
1334.97747	31625.0875
1338.47502	31697.9875
1341.97022	31726.3875
1345.46305	31606.1875
1348.95352	31305.2875
1352.44163	31244.9875
1355.92738	31736.7875
1359.41078	33024.3875
1362.89183	34377.9875
1366.37053	34024.7875
1369.84688	31725.1875
1373.32088	28912.1875
1376.79254	26979.6875
1380.26186	26084.9875
1383.72883	25809.4875
1387.19347	25657.3875
1390.65578	25430.4875
1394.11575	25389.3875
1397.57339	25610.4875
1401.0287	25993.4875
1404.48168	26404.2875
1407.93234	26657.0875
1411.38068	26607.3875
1414.82669	26144.3875
1418.27039	25345.5875
1421.71177	24474.4875
1425.15083	23723.9875
1428.58758	23303.6875
1432.02203	23268.9875
1435.45416	23496.2875
1438.88399	23805.8875
1442.31151	24143.3875
1445.73673	24422.9875
1449.15965	24729.7875
1452.58027	24923.1875
1455.9986	25041.3875
1459.41463	25153.9875
1462.82837	25453.2875
1466.23982	25885.6875
1469.64898	26252.2875
1473.05586	26541.1875
1476.46045	26580.4875
1479.86276	26556.2875
1483.26279	26505.9875
1486.66054	26467.7875
1490.05602	26509.5875
1493.44922	26682.9875
1496.84016	26819.0875
1500.22882	27160.0875
1503.61521	27707.2875
1506.99934	28618.6875
1510.38121	29386.3875
1513.76081	29731.1875
1517.13816	29221.8875
1520.51324	28165.9875
1523.88607	27044.2875
1527.25665	26325.1875
1530.62498	25988.8875
1533.99105	25841.2875
1537.35488	25733.5875
1540.71647	25559.6875
1544.07581	25363.5875
1547.4329	25074.4875
1550.78776	24772.6875
1554.14038	24541.2875
1557.49077	24502.5875
1560.83892	24511.3875
1564.18484	24599.6875
1567.52853	24756.9875
1570.86999	25055.8875
1574.20922	25546.6875
1577.54624	26072.7875
1580.88103	26335.1875
1584.2136	26256.7875
1587.54395	26335.5875
1590.87208	26668.7875
1594.19801	27542.5875
1597.52172	28697.2875
1600.84321	29068.1875
1604.16251	28252.3875
1607.47959	26695.1875
1610.79447	24909.0875
1614.10715	23326.6875
1617.41763	22012.8875
1620.7259	21137.3875
1624.03199	20717.3875
1627.33587	20703.5875
1630.63757	21047.5875
1633.93707	21870.3875
1637.23439	23105.1875
1640.52951	24852.9875
1643.82246	26765.4875
1647.11321	28423.7875
1650.40179	28857.6875
1653.68819	27659.4875
1656.97241	25177.3875
1660.25446	22612.3875
1663.53433	20611.0875
1666.81203	19321.4875
1670.08756	18425.8875
1673.36092	17909.8875
1676.63211	17545.3875
1679.90115	17299.6875
1683.16801	17071.3875
1686.43272	16933.3875
1689.69527	16850.5875
1692.95567	16739.2875
1696.2139	16769.1875
1699.46999	16741.2875
1702.72392	16670.6875
1705.97571	16666.0875
1709.22535	16619.6875
1712.47284	16596.2875
1715.71819	16547.4875
1718.96139	16509.4875
1722.20246	16485.0875
1725.44139	16440.3875
1728.67818	16412.3875
1731.91284	16343.4875
1735.14537	16269.2875
1738.37576	16227.5875
1741.60403	16177.9875
1744.83017	16149.6875
1748.05418	16139.5875
1751.27607	16104.3875
1754.49584	16081.5875
1757.71349	16057.8875
1760.92903	16059.8875
1764.14244	16061.4875
1767.35375	16059.5875
1770.56294	16029.5875
1773.77002	16005.7875
1776.97499	16003.1875
1780.17785	15963.5875
1783.37861	15972.6875
1786.57727	15937.5875
1789.77382	15872.7875
1792.96828	15893.4875
1796.16064	15869.5875
1799.3509	15845.4875
1802.53907	15812.4875
1805.72514	15778.0875
1808.90913	15712.1875
1812.09102	15723.3875
1815.27083	15685.2875
1818.44856	15665.9875
1821.6242	15634.4875
1824.79776	15641.5875
1827.96924	15629.1875
1831.13864	15618.8875
1834.30597	15647.7875
1837.47122	15596.1875
1840.6344	15598.0875
1843.7955	15613.2875
1846.95454	15572.1875
1850.11151	15601.0875
1853.26642	15571.1875
1856.41926	15584.3875
1859.57004	15575.1875
1862.71876	15559.5875
1865.86542	15539.4875
1869.01003	15547.1875
1872.15258	15563.4875
1875.29308	15540.1875
1878.43152	15523.8875
1881.56792	15522.0875
1884.70227	15524.9875
1887.83457	15461.6875
1890.96482	15459.3875
1894.09304	15464.9875
1897.21921	15454.5875
1900.34335	15441.4875
1903.46544	15434.4875
1906.58551	15438.0875
1909.70353	15444.2875
1912.81953	15385.9875
1915.93349	15410.6875
1919.04543	15347.3875
1922.15534	15328.0875
1925.26322	15309.5875
1928.36908	15303.1875
1931.47292	15268.9875
1934.57473	15224.2875
1937.67453	15191.9875
1940.77232	15176.3875
1943.86808	15123.4875
1946.96184	15103.1875
1950.05358	15062.6875
1953.14331	15003.3875
1956.23103	15017.1875
1959.31675	14955.7875
1962.40046	14916.7875
1965.48217	14852.8875
1968.56188	14858.6875
1971.63959	14788.5875
1974.7153	14718.3875
1977.78901	14698.6875
1980.86073	14634.2875
1983.93046	14596.6875
1986.99819	14579.0875
1990.06394	14542.8875
1993.1277	14486.7875
1996.18947	14402.5875
1999.24925	14408.8875
2002.30706	14375.1875
2005.36288	14342.5875
2008.41672	14314.2875
2011.46859	14235.8875
2014.51848	14244.0875
2017.56639	14219.9875
2020.61233	14148.8875
2023.6563	14155.9875
2026.6983	14097.5875
2029.73833	14084.9875
2032.7764	14050.1875
2035.8125	14026.4875
2038.84664	13992.9875
2041.87881	13967.7875
2044.90903	13989.1875
2047.93729	13935.7875
2050.96359	13948.2875
2053.98794	13924.8875
2057.01034	13922.2875
2060.03078	13876.2875
2063.04927	13865.1875
2066.06582	13900.9875
2069.08042	13868.5875
2072.09307	13866.4875
2075.10378	13844.7875
2078.11255	13859.6875
2081.11938	13823.2875
2084.12426	13837.0875
2087.12722	13822.5875
2090.12824	13837.7875
2093.12732	13826.9875
2096.12447	13844.7875
2099.11969	13843.1875
2102.11299	13816.7875
2105.10435	13842.3875
2108.09379	13876.6875
2111.08131	13864.3875
2114.0669	13860.6875
2117.05057	13885.9875
2120.03233	13871.1875
2123.01216	13874.8875
2125.99008	13892.0875
2128.96609	13920.3875
2131.94018	13928.5875
2134.91236	13940.3875
2137.88263	13983.7875
2140.851	13967.8875
2143.81746	13982.0875
2146.78201	13969.9875
2149.74466	13969.0875
2152.7054	13999.6875
2155.66425	14036.7875
2158.6212	14034.9875
2161.57625	14022.7875
2164.52941	14026.8875
2167.48067	14009.7875
2170.43004	13995.2875
2173.37752	13977.5875
2176.32311	13985.7875
2179.26681	13982.9875
2182.20863	13979.2875
2185.14856	13984.4875
2188.08661	13933.0875
2191.02278	13978.7875
2193.95707	13982.5875
2196.88948	13962.9875
2199.82001	13948.2875
2202.74867	13937.3875
2205.67545	13970.4875
2208.60037	13940.9875
2211.52341	13970.7875
2214.44458	13923.4875
2217.36388	13874.8875
2220.28132	13864.1875
2223.1969	13847.4875
2226.11061	13866.5875
2229.02246	13842.6875
2231.93245	13829.8875
2234.84058	13772.8875
2237.74686	13763.2875
2240.65128	13757.0875
2243.55385	13716.5875
2246.45456	13709.1875
2249.35343	13689.2875
2252.25044	13626.8875
2255.14561	13665.7875
2258.03893	13635.9875
2260.93041	13627.6875
2263.82004	13583.9875
2266.70783	13585.5875
2269.59378	13526.0875
2272.4779	13505.1875
2275.36017	13488.0875
2278.24061	13452.9875
2281.11922	13415.9875
2283.996	13415.3875
2286.87094	13393.1875
2289.74405	13372.1875
2292.61534	13382.8875
2295.4848	13364.7875
2298.35243	13369.0875
2301.21824	13351.0875
2304.08223	13324.6875
2306.94439	13340.1875
2309.80474	13340.3875
2312.66327	13329.7875
2315.51999	13300.4875
2318.37489	13326.1875
2321.22797	13322.2875
2324.07925	13283.5875
2326.92871	13288.4875
2329.77637	13310.7875
2332.62222	13267.1875
2335.46626	13254.8875
2338.3085	13265.8875
2341.14893	13268.2875
2343.98756	13220.6875
2346.8244	13225.5875
2349.65943	13222.3875
2352.49267	13214.5875
2355.32411	13218.8875
2358.15376	13194.9875
2360.98161	13197.2875
2363.80768	13188.6875
2366.63195	13190.3875
2369.45444	13154.5875
2372.27514	13111.5875
2375.09405	13135.2875
2377.91118	13075.0875
2380.72652	13082.8875
2383.54009	13051.5875
2386.35187	13048.6875
2389.16188	12993.1875
2391.97011	12981.1875
2394.77657	12978.3875
2397.58125	12966.1875
2400.38416	12959.4875
2403.18529	12914.2875
2405.98466	12874.1875
2408.78226	12882.2875
2411.57809	12862.0875
2414.37216	12834.2875
2417.16446	12826.3875
2419.955	12802.9875
2422.74378	12824.5875
2425.5308	12783.9875
2428.31606	12731.0875
2431.09956	12739.4875
2433.88131	12740.2875
2436.6613	12762.4875
2439.43954	12735.8875
2442.21603	12722.6875
2444.99077	12672.5875
2447.76377	12687.2875
2450.53501	12691.2875
2453.30451	12684.7875
2456.07226	12638.0875
2458.83827	12652.1875
2461.60254	12668.8875
2464.36507	12627.7875
2467.12586	12662.5875
2469.88492	12656.7875
2472.64224	12639.3875
2475.39782	12641.0875
2478.15167	12635.4875
2480.90379	12653.2875
2483.65417	12654.8875
2486.40283	12665.7875
2489.14976	12670.4875
2491.89497	12656.7875
2494.63845	12672.6875
2497.3802	12646.9875
2500.12024	12642.9875
2502.85855	12613.6875
2505.59514	12632.3875
2508.33002	12630.3875
2511.06318	12608.0875
2513.79462	12601.1875
2516.52435	12595.5875
2519.25237	12591.8875
2521.97867	12556.5875
2524.70327	12576.3875
2527.42616	12531.1875
2530.14734	12495.1875
2532.86681	12529.6875
2535.58458	12498.2875
2538.30065	12472.4875
2541.01501	12509.7875
2543.72768	12460.2875
2546.43864	12457.5875
2549.14791	12452.5875
2551.85548	12424.5875
2554.56136	12402.0875
2557.26554	12392.6875
2559.96803	12403.5875
2562.66883	12378.0875
2565.36794	12373.2875
2568.06536	12360.2875
2570.7611	12357.2875
2573.45514	12348.1875
2576.14751	12302.7875
2578.83819	12305.2875
2581.52719	12299.4875
2584.21451	12291.1875
2586.90015	12297.8875
2589.58411	12236.5875
2592.2664	12243.5875
2594.94701	12242.1875
2597.62594	12232.3875
2600.30321	12218.5875
2602.9788	12202.4875
2605.65273	12178.0875
2608.32498	12164.1875
2610.99557	12181.6875
2613.66449	12192.0875
2616.33175	12173.8875
2618.99734	12170.5875
2621.66128	12147.0875
2624.32355	12133.8875
2626.98416	12160.7875
2629.64311	12146.7875
2632.30041	12154.6875
2634.95605	12176.2875
2637.61004	12125.7875
2640.26238	12110.5875
2642.91306	12109.4875
2645.56209	12093.0875
2648.20948	12074.6875
2650.85521	12051.2875
2653.4993	12066.4875
2656.14175	12059.5875
2658.78255	12082.3875
2661.42171	12062.8875
2664.05923	12083.6875
2666.6951	12080.8875
2669.32934	12070.4875
2671.96194	12056.3875
2674.59291	12069.2875
2677.22224	12066.2875
2679.84993	12115.1875
2682.476	12051.8875
2685.10043	12081.1875
2687.72324	12063.6875
2690.34441	12075.4875
2692.96396	12048.8875
2695.58188	12086.1875
2698.19818	12049.7875
2700.81285	12066.5875
2703.4259	12053.0875
2706.03733	12090.2875
2708.64714	12094.2875
2711.25533	12090.8875
2713.86191	12106.5875
2716.46687	12108.7875
2719.07021	12108.2875
2721.67194	12084.6875
2724.27206	12067.2875
2726.87057	12102.7875
2729.46747	12087.4875
2732.06276	12086.7875
2734.65644	12094.7875
2737.24852	12071.2875
2739.83899	12052.2875
2742.42786	12090.2875
2745.01513	12055.6875
2747.60079	12044.1875
2750.18486	12080.8875
2752.76733	12054.4875
2755.3482	12090.0875
2757.92747	12044.8875
2760.50515	12043.7875
2763.08123	12038.1875
2765.65573	12023.6875
2768.22863	12024.9875
2770.79994	11998.0875
2773.36967	11990.7875
2775.9378	11968.1875
2778.50435	11987.2875
2781.06932	11932.7875
2783.6327	11934.8875
2786.1945	11949.5875
2788.75471	11937.3875
2791.31335	11904.6875
2793.87041	11901.6875
2796.42589	11870.6875
2798.97979	11872.1875
2801.53212	11846.0875
2804.08288	11830.2875
2806.63206	11794.4875
2809.17967	11786.8875
2811.72571	11749.1875
2814.27018	11764.6875
2816.81308	11729.2875
2819.35442	11718.4875
2821.89419	11709.7875
2824.43239	11698.3875
2826.96904	11698.8875
2829.50412	11686.4875
2832.03763	11660.2875
2834.56959	11666.1875
2837.1	11648.3875
2839.62884	11651.1875
2842.15613	11620.0875
2844.68186	11658.6875
2847.20604	11621.4875
2849.72867	11638.9875
2852.24974	11624.9875
2854.76927	11588.2875
2857.28724	11599.3875
2859.80367	11592.0875
2862.31855	11558.6875
2864.83189	11545.3875
2867.34368	11544.9875
2869.85393	11557.0875
2872.36264	11528.7875
2874.8698	11547.0875
2877.37543	11546.4875
2879.87952	11541.1875
2882.38207	11540.3875
2884.88308	11563.0875
2887.38256	11566.3875
2889.88051	11542.9875
2892.37692	11548.0875
2894.8718	11538.0875
2897.36515	11549.0875
2899.85698	11541.4875
2902.34727	11571.1875
2904.83604	11588.1875
2907.32328	11599.8875
2909.809	11565.8875
2912.29319	11619.1875
2914.77587	11576.7875
2917.25702	11577.9875
2919.73665	11558.9875
2922.21476	11599.6875
2924.69136	11541.0875
2927.16644	11599.4875
2929.64	11560.5875
2932.11205	11559.1875
2934.58258	11525.3875
2937.05161	11538.2875
2939.51912	11563.8875
2941.98513	11538.4875
2944.44962	11505.5875
2946.91261	11473.0875
2949.37409	11517.0875
2951.83407	11504.1875
2954.29254	11491.6875
2956.74951	11455.1875
2959.20498	11442.4875
2961.65895	11450.3875
2964.11142	11457.0875
2966.56239	11412.4875
2969.01186	11439.8875
2971.45984	11364.8875
2973.90632	11354.0875
2976.35131	11316.6875
2978.7948	11304.9875
2981.23681	11307.4875
2983.67732	11290.0875
2986.11635	11282.0875
2988.55388	11279.3875
2990.98993	11245.5875
2993.4245	11215.6875
2995.85758	11191.4875
2998.28917	11169.9875
3000.71928	11145.9875
3003.14791	11129.1875
3005.57506	11142.4875
3008.00073	11118.6875
3010.42493	11097.9875
3012.84764	11061.8875
3015.26888	11058.6875
3017.68865	11025.5875
3020.10694	11030.5875
3022.52376	11016.9875
3024.9391	11015.6875
