Data from AgNP_FTO_APTES_CRN_200uM_R6G_10uM_NaF_0.1M_Addition_RamanShift__37__20-00-08-197.txt Node

Date: Wed Dec 15 20:00:08 GMT 2021
User: TCL
Spectrometer: QEP01345
Trigger mode: 4
Integration Time (sec): 7.000000E0
Scans to average: 10
Electric dark correction enabled: true
Nonlinearity correction enabled: false
Boxcar width: 0
XAxis mode: Raman Shifts
Number of Pixels in Spectrum: 1044
>>>>>Begin Spectral Data<<<<<
46.04893	1.125
50.45542	-1.375
54.85868	-1.575
59.25871	0.725
63.6555	51.425
68.04907	51.625
72.43941	58.025
76.82654	59.425
81.21044	63.025
85.59113	67.025
89.96862	67.725
94.34289	67.125
98.71396	73.725
103.08183	75.525
107.4465	76.525
111.80798	79.125
116.16626	78.825
120.52136	84.725
124.87327	82.025
129.222	87.425
133.56755	89.525
137.90993	91.725
142.24913	98.625
146.58517	105.425
150.91804	124.425
155.24774	142.425
159.57429	177.025
163.89768	222.825
168.21792	284.325
172.53501	390.225
176.84895	536.825
181.15975	740.325
185.46741	1027.225
189.77193	1415.725
194.07331	1899.625
198.37157	2434.325
202.6667	3016.225
206.9587	3574.425
211.24758	4125.125
215.53334	4717.125
219.81599	5332.625
224.09553	6014.225
228.37195	6788.325
232.64527	7633.925
236.91549	8473.425
241.18261	9279.625
245.44663	10013.225
249.70755	10592.125
253.96539	11147.425
258.22014	11611.025
262.4718	12005.425
266.72039	12294.925
270.96589	12452.325
275.20832	12463.825
279.44768	12313.625
283.68397	12097.925
287.91719	11968.525
292.14735	11943.525
296.37445	12006.825
300.59849	12267.425
304.81948	12579.125
309.03742	12761.925
313.25231	12796.625
317.46415	12398.425
321.67296	11836.025
325.87872	11349.525
330.08145	11125.225
334.28114	11143.825
338.47781	11270.025
342.67145	11499.925
346.86207	11830.625
351.04966	12293.425
355.23424	12845.825
359.4158	13246.425
363.59435	13490.725
367.76989	13563.125
371.94243	13589.825
376.11196	13574.925
380.27849	13602.025
384.44203	13523.725
388.60257	13456.325
392.76012	13439.525
396.91468	13512.925
401.06626	13793.825
405.21485	13973.325
409.36047	13842.825
413.50311	13399.325
417.64277	12974.625
421.77947	12762.425
425.9132	12684.225
430.04396	12752.225
434.17176	12857.625
438.2966	13059.225
442.41849	13411.225
446.53742	13882.625
450.6534	14309.625
454.76644	14602.425
458.87653	14616.325
462.98368	14436.025
467.08789	14198.225
471.18916	13948.825
475.2875	13670.225
479.38291	13433.725
483.4754	13246.425
487.56496	13094.725
491.6516	12915.825
495.73531	12854.425
499.81612	12849.825
503.89401	12954.025
507.96899	13059.325
512.04106	13182.925
516.11023	13410.125
520.1765	13517.225
524.23987	13589.725
528.30034	13512.725
532.35792	13346.125
536.41261	13126.725
540.46441	12893.525
544.51333	12775.225
548.55936	12835.825
552.60252	13017.825
556.64279	13294.325
560.6802	13473.125
564.71473	13584.525
568.7464	13864.425
572.7752	14024.625
576.80114	13834.825
580.82422	13554.625
584.84444	13518.925
588.86181	13738.725
592.87633	14180.425
596.888	14568.925
600.89682	14734.625
604.9028	15505.025
608.90594	17939.525
612.90624	21155.325
616.90371	20344.425
620.89834	15775.325
624.89015	13635.425
628.87913	13234.525
632.86528	13243.425
636.84862	13270.325
640.82913	13174.925
644.80683	12807.125
648.78172	12573.425
652.75379	12649.125
656.72306	12985.725
660.68952	13353.925
664.65319	13281.425
668.61405	12858.425
672.57211	12718.625
676.52738	12739.525
680.47986	12729.125
684.42955	12651.525
688.37646	12605.625
692.32058	12652.925
696.26192	12776.525
700.20048	12903.925
704.13626	12992.525
708.06928	12912.725
711.99952	12800.225
715.927	12785.825
719.85171	12811.025
723.77365	12795.525
727.69284	12675.425
731.60928	12578.025
735.52295	12575.625
739.43388	12598.825
743.34206	12638.125
747.24749	12662.725
751.15017	12675.425
755.05012	12815.325
758.94733	13218.925
762.8418	14092.425
766.73354	15578.625
770.62254	17185.225
774.50882	17968.925
778.39237	17447.125
782.27321	15775.425
786.15132	14157.325
790.02671	13205.425
793.89938	12805.625
797.76935	12627.525
801.6366	12551.225
805.50115	12481.825
809.36299	12470.325
813.22213	12431.625
817.07857	12445.225
820.93231	12431.925
824.78336	12416.125
828.63172	12493.525
832.47738	12504.125
836.32036	12529.225
840.16066	12496.925
843.99827	12456.725
847.8332	12423.525
851.66546	12377.225
855.49504	12374.825
859.32195	12357.225
863.1462	12343.225
866.96777	12285.625
870.78668	12268.825
874.60293	12262.625
878.41652	12312.725
882.22745	12333.525
886.03573	12363.225
889.84136	12357.925
893.64433	12288.625
897.44466	12274.925
901.24235	12287.525
905.0374	12211.525
908.8298	12193.325
912.61957	12202.725
916.40671	12235.125
920.19121	12302.325
923.97308	12393.925
927.75233	12496.525
931.52895	12548.625
935.30295	12478.525
939.07433	12237.825
942.84309	12015.525
946.60924	11926.325
950.37278	11837.325
954.13371	11809.625
957.89203	11763.825
961.64774	11711.025
965.40086	11704.925
969.15137	11639.425
972.89929	11624.125
976.64461	11625.425
980.38733	11656.625
984.12747	11706.725
987.86502	11790.825
991.59999	11876.025
995.33237	12003.825
999.06217	12201.125
1002.78939	12425.325
1006.51404	12570.225
1010.23611	12720.425
1013.95561	12841.525
1017.67255	12812.925
1021.38692	12638.025
1025.09872	12485.325
1028.80796	12423.225
1032.51465	12515.625
1036.21877	12713.225
1039.92035	12785.325
1043.61937	12792.425
1047.31584	12705.725
1051.00976	12635.525
1054.70114	12583.325
1058.38998	12624.825
1062.07627	12658.925
1065.76003	12815.625
1069.44126	13006.325
1073.11995	13247.825
1076.79611	13480.225
1080.46974	13591.525
1084.14085	13640.225
1087.80943	13712.825
1091.47549	13615.725
1095.13903	13428.225
1098.80005	13085.325
1102.45857	12808.725
1106.11456	12728.325
1109.76805	12783.825
1113.41903	12914.725
1117.06751	13149.625
1120.71348	13469.225
1124.35696	13803.225
1127.99793	14124.025
1131.63641	14077.725
1135.2724	13695.325
1138.90589	13319.525
1142.5369	13055.025
1146.16542	12905.425
1149.79145	12857.325
1153.415	12862.225
1157.03607	12917.925
1160.65467	13090.425
1164.27079	13429.325
1167.88443	14038.125
1171.49561	14914.625
1175.10432	16282.525
1178.71056	18036.825
1182.31434	19369.925
1185.91565	19674.425
1189.51451	19173.525
1193.11091	18156.725
1196.70485	17096.325
1200.29634	16251.025
1203.88538	15610.925
1207.47197	15008.625
1211.05612	14515.425
1214.63782	14272.525
1218.21708	14260.525
1221.79391	14370.325
1225.36829	14463.125
1228.94024	14416.825
1232.50976	14259.825
1236.07685	14122.725
1239.6415	14101.325
1243.20374	14102.325
1246.76355	14160.525
1250.32093	14313.325
1253.8759	14563.425
1257.42845	14914.225
1260.97859	15236.225
1264.52631	15586.225
1268.07163	15984.825
1271.61453	16312.825
1275.15503	16549.325
1278.69312	16697.425
1282.22882	16821.525
1285.76211	17048.625
1289.29301	17542.425
1292.82151	18068.725
1296.34761	18706.725
1299.87133	19488.825
1303.39266	20633.525
1306.9116	22302.525
1310.42815	24197.225
1313.94233	25404.325
1317.45412	25156.025
1320.96354	23905.225
1324.47058	22421.825
1327.97525	21058.725
1331.47754	20097.425
1334.97747	19682.025
1338.47502	19656.925
1341.97022	19782.825
1345.46305	20116.025
1348.95352	20829.725
1352.44163	22086.925
1355.92738	23983.925
1359.41078	26595.025
1362.89183	28999.325
1366.37053	28497.525
1369.84688	25102.625
1373.32088	21398.225
1376.79254	19049.325
1380.26186	17967.025
1383.72883	17483.125
1387.19347	17092.525
1390.65578	16563.625
1394.11575	16211.325
1397.57339	16054.725
1401.0287	16160.125
1404.48168	16308.025
1407.93234	16359.125
1411.38068	16316.225
1414.82669	16142.525
1418.27039	15854.525
1421.71177	15534.625
1425.15083	15266.225
1428.58758	15137.025
1432.02203	15225.625
1435.45416	15497.025
1438.88399	15687.625
1442.31151	15764.625
1445.73673	15824.525
1449.15965	15905.425
1452.58027	15906.125
1455.9986	15731.025
1459.41463	15660.925
1462.82837	15837.125
1466.23982	16129.425
1469.64898	16470.125
1473.05586	16728.625
1476.46045	16959.125
1479.86276	17115.325
1483.26279	17249.425
1486.66054	17456.925
1490.05602	17762.125
1493.44922	18146.625
1496.84016	18676.125
1500.22882	19602.725
1503.61521	20968.225
1506.99934	22648.825
1510.38121	24193.725
1513.76081	24942.625
1517.13816	24073.125
1520.51324	21926.725
1523.88607	19748.225
1527.25665	18325.425
1530.62498	17577.925
1533.99105	17207.825
1537.35488	16981.325
1540.71647	16797.625
1544.07581	16679.325
1547.4329	16550.025
1550.78776	16413.125
1554.14038	16288.325
1557.49077	16260.225
1560.83892	16299.225
1564.18484	16561.025
1567.52853	16945.625
1570.86999	17406.625
1574.20922	17875.025
1577.54624	18104.025
1580.88103	17787.425
1584.2136	17154.925
1587.54395	16717.725
1590.87208	16803.025
1594.19801	17461.225
1597.52172	18462.225
1600.84321	18957.025
1604.16251	18473.525
1607.47959	17339.025
1610.79447	16032.525
1614.10715	14837.225
1617.41763	13954.825
1620.7259	13467.725
1624.03199	13253.425
1627.33587	13267.925
1630.63757	13500.225
1633.93707	14007.225
1637.23439	14865.025
1640.52951	16144.825
1643.82246	17876.425
1647.11321	19636.325
1650.40179	20579.125
1653.68819	19761.625
1656.97241	17561.025
1660.25446	15264.625
1663.53433	13592.025
1666.81203	12624.225
1670.08756	12056.725
1673.36092	11698.625
1676.63211	11498.525
1679.90115	11336.225
1683.16801	11188.525
1686.43272	11129.425
1689.69527	11048.325
1692.95567	11025.125
1696.2139	10994.425
1699.46999	10996.225
1702.72392	10983.825
1705.97571	10962.825
1709.22535	10933.525
1712.47284	10903.825
1715.71819	10885.425
1718.96139	10911.325
1722.20246	10898.125
1725.44139	10860.825
1728.67818	10789.825
1731.91284	10739.725
1735.14537	10677.925
1738.37576	10616.425
1741.60403	10592.525
1744.83017	10603.825
1748.05418	10558.425
1751.27607	10543.425
1754.49584	10533.725
1757.71349	10534.925
1760.92903	10521.925
1764.14244	10509.425
1767.35375	10532.025
1770.56294	10508.825
1773.77002	10477.825
1776.97499	10471.225
1780.17785	10401.225
1783.37861	10408.525
1786.57727	10372.925
1789.77382	10345.725
1792.96828	10336.125
1796.16064	10332.325
1799.3509	10305.925
1802.53907	10306.225
1805.72514	10262.825
1808.90913	10219.625
1812.09102	10220.425
1815.27083	10186.725
1818.44856	10163.625
1821.6242	10161.225
1824.79776	10142.525
1827.96924	10120.625
1831.13864	10099.525
1834.30597	10120.525
1837.47122	10102.825
1840.6344	10085.825
1843.7955	10078.225
1846.95454	10077.825
1850.11151	10053.025
1853.26642	10062.125
1856.41926	10050.025
1859.57004	10062.725
1862.71876	10049.425
1865.86542	10058.225
1869.01003	10033.925
1872.15258	10032.225
1875.29308	10009.325
1878.43152	10007.125
1881.56792	9993.825
1884.70227	9995.225
1887.83457	9982.625
1890.96482	9962.225
1894.09304	9961.225
1897.21921	9977.025
1900.34335	9945.925
1903.46544	9974.025
1906.58551	9970.925
1909.70353	9941.325
1912.81953	9957.925
1915.93349	9938.825
1919.04543	9916.125
1922.15534	9912.725
1925.26322	9874.225
1928.36908	9870.025
1931.47292	9862.025
1934.57473	9833.625
1937.67453	9807.325
1940.77232	9758.125
1943.86808	9754.825
1946.96184	9698.525
1950.05358	9698.125
1953.14331	9651.225
1956.23103	9637.025
1959.31675	9618.825
1962.40046	9584.525
1965.48217	9576.625
1968.56188	9542.725
1971.63959	9522.025
1974.7153	9496.525
1977.78901	9444.425
1980.86073	9439.225
1983.93046	9405.625
1986.99819	9382.625
1990.06394	9368.325
1993.1277	9304.625
1996.18947	9279.225
1999.24925	9290.325
2002.30706	9224.325
2005.36288	9211.125
2008.41672	9190.525
2011.46859	9170.325
2014.51848	9148.725
2017.56639	9119.425
2020.61233	9101.325
2023.6563	9071.025
2026.6983	9080.425
2029.73833	9040.825
2032.7764	9032.625
2035.8125	9017.625
2038.84664	8979.025
2041.87881	8972.125
2044.90903	8976.125
2047.93729	8937.425
2050.96359	8947.225
2053.98794	8923.925
2057.01034	8911.925
2060.03078	8912.225
2063.04927	8907.625
2066.06582	8892.425
2069.08042	8886.025
2072.09307	8883.225
2075.10378	8859.725
2078.11255	8845.325
2081.11938	8872.725
2084.12426	8849.525
2087.12722	8831.625
2090.12824	8840.425
2093.12732	8849.225
2096.12447	8877.425
2099.11969	8838.025
2102.11299	8868.225
2105.10435	8851.225
2108.09379	8850.525
2111.08131	8849.125
2114.0669	8875.125
2117.05057	8869.425
2120.03233	8865.225
2123.01216	8887.125
2125.99008	8904.325
2128.96609	8907.125
2131.94018	8908.225
2134.91236	8924.525
2137.88263	8913.625
2140.851	8934.625
2143.81746	8930.925
2146.78201	8927.325
2149.74466	8924.525
2152.7054	8923.225
2155.66425	8951.525
2158.6212	8961.525
2161.57625	8931.525
2164.52941	8929.725
2167.48067	8915.825
2170.43004	8921.425
2173.37752	8907.125
2176.32311	8914.525
2179.26681	8902.725
2182.20863	8938.825
2185.14856	8904.825
2188.08661	8881.625
2191.02278	8867.725
2193.95707	8880.825
2196.88948	8872.225
2199.82001	8856.725
2202.74867	8870.825
2205.67545	8853.025
2208.60037	8870.525
2211.52341	8837.825
2214.44458	8832.325
2217.36388	8811.625
2220.28132	8802.725
2223.1969	8769.225
2226.11061	8751.525
2229.02246	8747.825
2231.93245	8720.025
2234.84058	8709.125
2237.74686	8723.825
2240.65128	8705.125
2243.55385	8691.125
2246.45456	8669.625
2249.35343	8678.325
2252.25044	8646.925
2255.14561	8647.625
2258.03893	8665.925
2260.93041	8649.825
2263.82004	8614.525
2266.70783	8582.025
2269.59378	8572.625
2272.4779	8558.725
2275.36017	8519.825
2278.24061	8507.125
2281.11922	8500.425
2283.996	8476.925
2286.87094	8456.625
2289.74405	8459.325
2292.61534	8424.725
2295.4848	8432.525
2298.35243	8417.325
2301.21824	8403.225
2304.08223	8427.525
2306.94439	8400.825
2309.80474	8399.925
2312.66327	8413.725
2315.51999	8406.825
2318.37489	8401.625
2321.22797	8365.825
2324.07925	8380.925
2326.92871	8357.725
2329.77637	8363.625
2332.62222	8325.225
2335.46626	8304.925
2338.3085	8307.225
2341.14893	8299.725
2343.98756	8306.925
2346.8244	8298.425
2349.65943	8287.025
2352.49267	8276.525
2355.32411	8298.925
2358.15376	8266.725
2360.98161	8280.325
2363.80768	8285.925
2366.63195	8295.625
2369.45444	8295.025
2372.27514	8290.725
2375.09405	8261.125
2377.91118	8254.525
2380.72652	8220.925
2383.54009	8205.825
2386.35187	8182.125
2389.16188	8159.025
2391.97011	8133.325
2394.77657	8119.525
2397.58125	8122.925
2400.38416	8089.525
2403.18529	8069.225
2405.98466	8064.325
2408.78226	8068.725
2411.57809	8063.125
2414.37216	8025.325
2417.16446	8011.425
2419.955	8012.925
2422.74378	7989.725
2425.5308	7984.525
2428.31606	7978.025
2431.09956	7965.025
2433.88131	7973.725
2436.6613	7946.125
2439.43954	7977.625
2442.21603	7960.225
2444.99077	7952.825
2447.76377	7963.325
2450.53501	7950.625
2453.30451	7942.625
2456.07226	7922.925
2458.83827	7926.625
2461.60254	7925.525
2464.36507	7897.325
2467.12586	7891.225
2469.88492	7901.825
2472.64224	7899.825
2475.39782	7907.825
2478.15167	7910.525
2480.90379	7899.625
2483.65417	7906.625
2486.40283	7901.425
2489.14976	7921.225
2491.89497	7904.725
2494.63845	7943.125
2497.3802	7910.125
2500.12024	7891.025
2502.85855	7859.225
2505.59514	7847.425
2508.33002	7842.225
2511.06318	7847.225
2513.79462	7830.625
2516.52435	7802.425
2519.25237	7784.225
2521.97867	7781.325
2524.70327	7760.725
2527.42616	7761.225
2530.14734	7744.825
2532.86681	7721.425
2535.58458	7727.225
2538.30065	7713.825
2541.01501	7737.625
2543.72768	7696.225
2546.43864	7704.225
2549.14791	7687.125
2551.85548	7684.625
2554.56136	7658.525
2557.26554	7626.225
2559.96803	7643.225
2562.66883	7634.025
2565.36794	7638.225
2568.06536	7619.225
2570.7611	7613.225
2573.45514	7607.825
2576.14751	7593.725
2578.83819	7575.225
2581.52719	7574.025
2584.21451	7547.025
2586.90015	7566.025
2589.58411	7540.425
2592.2664	7527.225
2594.94701	7490.225
2597.62594	7506.825
2600.30321	7483.725
2602.9788	7466.425
2605.65273	7458.125
2608.32498	7435.925
2610.99557	7439.325
2613.66449	7440.525
2616.33175	7422.425
2618.99734	7426.725
2621.66128	7408.925
2624.32355	7420.225
2626.98416	7407.725
2629.64311	7391.825
2632.30041	7386.825
2634.95605	7363.325
2637.61004	7357.225
2640.26238	7352.925
2642.91306	7370.125
2645.56209	7328.825
2648.20948	7338.625
2650.85521	7331.025
2653.4993	7321.025
2656.14175	7320.525
2658.78255	7327.925
2661.42171	7340.025
2664.05923	7336.625
2666.6951	7324.425
2669.32934	7336.225
2671.96194	7333.425
2674.59291	7327.025
2677.22224	7325.825
2679.84993	7324.425
2682.476	7336.725
2685.10043	7312.525
2687.72324	7325.825
2690.34441	7330.225
2692.96396	7335.125
2695.58188	7337.325
2698.19818	7339.925
2700.81285	7343.325
2703.4259	7346.625
2706.03733	7399.025
2708.64714	7375.825
2711.25533	7371.925
2713.86191	7372.525
2716.46687	7372.425
2719.07021	7348.725
2721.67194	7370.025
2724.27206	7334.625
2726.87057	7350.725
2729.46747	7340.425
2732.06276	7354.925
2734.65644	7346.625
2737.24852	7319.125
2739.83899	7303.025
2742.42786	7335.225
2745.01513	7299.625
2747.60079	7306.125
2750.18486	7277.725
2752.76733	7280.725
2755.3482	7288.525
2757.92747	7267.825
2760.50515	7249.525
2763.08123	7263.525
2765.65573	7260.525
2768.22863	7237.925
2770.79994	7225.225
2773.36967	7236.625
2775.9378	7235.525
2778.50435	7223.125
2781.06932	7193.725
2783.6327	7183.725
2786.1945	7213.925
2788.75471	7200.925
2791.31335	7187.625
2793.87041	7170.125
2796.42589	7158.525
2798.97979	7159.425
2801.53212	7145.225
2804.08288	7141.625
2806.63206	7097.425
2809.17967	7087.525
2811.72571	7091.125
2814.27018	7086.525
2816.81308	7085.625
2819.35442	7087.625
2821.89419	7074.025
2824.43239	7084.325
2826.96904	7080.525
2829.50412	7069.425
2832.03763	7069.225
2834.56959	7068.125
2837.1	7063.425
2839.62884	7097.125
2842.15613	7114.925
2844.68186	7152.925
2847.20604	7188.325
2849.72867	7235.725
2852.24974	7227.325
2854.76927	7223.825
2857.28724	7240.225
2859.80367	7201.525
2862.31855	7189.025
2864.83189	7173.325
2867.34368	7133.625
2869.85393	7142.025
2872.36264	7153.525
2874.8698	7148.225
2877.37543	7141.825
2879.87952	7163.825
2882.38207	7145.025
2884.88308	7129.625
2887.38256	7144.525
2889.88051	7141.625
2892.37692	7139.425
2894.8718	7149.325
2897.36515	7134.125
2899.85698	7162.125
2902.34727	7164.825
2904.83604	7168.325
2907.32328	7161.425
2909.809	7155.525
2912.29319	7175.325
2914.77587	7170.925
2917.25702	7139.225
2919.73665	7130.625
2922.21476	7156.225
2924.69136	7158.625
2927.16644	7137.625
2929.64	7114.925
2932.11205	7108.525
2934.58258	7064.025
2937.05161	7097.825
2939.51912	7106.325
2941.98513	7065.025
2944.44962	7019.925
2946.91261	6982.125
2949.37409	6991.125
2951.83407	6970.525
2954.29254	6935.325
2956.74951	6900.025
2959.20498	6899.425
2961.65895	6889.125
2964.11142	6903.525
2966.56239	6869.925
2969.01186	6867.125
2971.45984	6860.825
2973.90632	6833.425
2976.35131	6797.525
2978.7948	6796.625
2981.23681	6779.425
2983.67732	6763.025
2986.11635	6770.925
2988.55388	6726.225
2990.98993	6724.225
2993.4245	6705.825
2995.85758	6689.225
2998.28917	6675.425
3000.71928	6673.425
3003.14791	6662.725
3005.57506	6676.625
3008.00073	6651.925
3010.42493	6640.025
3012.84764	6627.025
3015.26888	6620.025
3017.68865	6611.825
3020.10694	6622.725
3022.52376	6600.025
3024.9391	6585.325
3027.35298	6573.425
3029.76539	6573.225
3032.17632	6579.625
3034.5858	6564.725
3036.9938	6578.325
3039.40034	6548.425
3041.80542	6549.225
3044.20903	6530.025
3046.61118	6539.025
3049.01187	6508.925
3051.4111	6518.125
3053.80888	6492.725
3056.20519	6508.125
3058.60005	6485.225
3060.99345	6468.725
3063.3854	6463.725
3065.7759	6469.825
3068.16494	6465.225
3070.55254	6452.825
3072.93868	6436.625
3075.32338	6433.825
3077.70662	6419.725
3080.08842	6381.425
3082.46878	6386.525
3084.84769	6394.225
3087.22515	6393.325
3089.60118	6399.125
3091.97576	6394.125
3094.3489	6404.225
3096.72061	6396.525
3099.09087	6385.925
3101.4597	6380.025
3103.82709	6387.525
3106.19305	6357.925
3108.55757	6381.025
3110.92066	6352.725
3113.28232	6344.925
3115.64255	6335.225
3118.00134	6315.725
3120.35871	6334.125
3122.71466	6321.425
3125.06917	6288.125
3127.42226	6303.425
3129.77393	6321.425
3132.12417	6310.725
3134.47299	6333.625
3136.82039	6308.525
3139.16636	6356.925
3141.51092	6341.025
3143.85406	6346.325
3146.19579	6353.125
3148.53609	6348.725
3150.87499	6355.425
3153.21246	6374.225
3155.54853	6347.125
3157.88318	6338.525
3160.21642	6363.425
3162.54826	6370.825
3164.87868	6334.125
3167.2077	6361.025
3169.5353	6372.725
3171.86151	6371.225
3174.18631	6356.425
3176.5097	6385.725
3178.83169	6357.525
3181.15228	6372.025
3183.47147	6358.625
