Data from AgNP_FTO_APTES_CRN_500uM_R6G_10uM_NaF_0.1M_Addition_RamanShift__31__20-39-48-251.txt Node

Date: Wed Dec 15 20:39:48 GMT 2021
User: TCL
Spectrometer: QEP01345
Trigger mode: 4
Integration Time (sec): 7.000000E0
Scans to average: 10
Electric dark correction enabled: true
Nonlinearity correction enabled: false
Boxcar width: 0
XAxis mode: Raman Shifts
Number of Pixels in Spectrum: 1044
>>>>>Begin Spectral Data<<<<<
46.04893	0.3125
50.45542	-1.0875
54.85868	-0.8875
59.25871	-0.6875
63.6555	66.5125
68.04907	73.6125
72.43941	76.2125
76.82654	80.9125
81.21044	84.4125
85.59113	84.0125
89.96862	88.2125
94.34289	89.7125
98.71396	95.3125
103.08183	100.4125
107.4465	101.1125
111.80798	101.5125
116.16626	105.5125
120.52136	113.5125
124.87327	110.8125
129.222	115.3125
133.56755	124.1125
137.90993	137.3125
142.24913	149.1125
146.58517	163.7125
150.91804	188.9125
155.24774	226.3125
159.57429	287.1125
163.89768	361.4125
168.21792	472.3125
172.53501	652.1125
176.84895	903.4125
181.15975	1265.9125
185.46741	1778.2125
189.77193	2450.1125
194.07331	3273.8125
198.37157	4226.4125
202.6667	5207.0125
206.9587	6205.3125
211.24758	7225.2125
215.53334	8211.5125
219.81599	9310.4125
224.09553	10521.1125
228.37195	11836.7125
232.64527	13296.1125
236.91549	14764.4125
241.18261	16189.9125
245.44663	17415.2125
249.70755	18473.1125
253.96539	19390.8125
258.22014	20185.7125
262.4718	20897.0125
266.72039	21420.2125
270.96589	21679.8125
275.20832	21673.6125
279.44768	21509.2125
283.68397	21222.1125
287.91719	20988.1125
292.14735	20948.0125
296.37445	21180.3125
300.59849	21626.0125
304.81948	22160.6125
309.03742	22512.5125
313.25231	22445.7125
317.46415	21648.1125
321.67296	20491.9125
325.87872	19523.2125
330.08145	19110.6125
334.28114	19104.2125
338.47781	19368.3125
342.67145	19762.8125
346.86207	20372.9125
351.04966	21318.7125
355.23424	22300.2125
359.4158	23036.8125
363.59435	23443.6125
367.76989	23557.3125
371.94243	23626.0125
376.11196	23628.6125
380.27849	23579.4125
384.44203	23456.5125
388.60257	23282.1125
392.76012	23200.0125
396.91468	23404.5125
401.06626	23809.3125
405.21485	24183.0125
409.36047	23913.8125
413.50311	23029.8125
417.64277	22219.9125
421.77947	21821.5125
425.9132	21643.5125
430.04396	21700.9125
434.17176	21915.7125
438.2966	22251.7125
442.41849	22814.7125
446.53742	23486.4125
450.6534	24189.3125
454.76644	24593.8125
458.87653	24696.0125
462.98368	24453.0125
467.08789	24129.2125
471.18916	23740.2125
475.2875	23404.8125
479.38291	23021.0125
483.4754	22660.0125
487.56496	22346.7125
491.6516	22036.9125
495.73531	21875.9125
499.81612	21868.1125
503.89401	22069.7125
507.96899	22317.8125
512.04106	22641.9125
516.11023	23058.5125
520.1765	23407.0125
524.23987	23482.9125
528.30034	23319.4125
532.35792	23002.7125
536.41261	22633.3125
540.46441	22248.2125
544.51333	22115.7125
548.55936	22176.9125
552.60252	22502.0125
556.64279	22969.5125
560.6802	23258.9125
564.71473	23445.4125
568.7464	24010.7125
572.7752	24410.4125
576.80114	23926.9125
580.82422	23287.4125
584.84444	22953.1125
588.86181	23088.4125
592.87633	23505.9125
596.888	23885.7125
600.89682	24294.7125
604.9028	25923.8125
608.90594	30772.3125
612.90624	36994.7125
616.90371	35544.6125
620.89834	27081.1125
624.89015	23050.8125
628.87913	22248.6125
632.86528	22303.5125
636.84862	22438.7125
640.82913	22264.3125
644.80683	21639.5125
648.78172	21235.2125
652.75379	21288.6125
656.72306	21831.1125
660.68952	22552.5125
664.65319	22411.2125
668.61405	21706.6125
672.57211	21340.0125
676.52738	21393.5125
680.47986	21399.9125
684.42955	21296.7125
688.37646	21229.5125
692.32058	21257.7125
696.26192	21452.4125
700.20048	21633.9125
704.13626	21713.6125
708.06928	21630.7125
711.99952	21448.7125
715.927	21375.7125
719.85171	21441.0125
723.77365	21313.7125
727.69284	21128.1125
731.60928	20954.1125
735.52295	20934.9125
739.43388	20950.9125
743.34206	20949.1125
747.24749	21007.9125
751.15017	21027.5125
755.05012	21290.1125
758.94733	21981.8125
762.8418	23632.5125
766.73354	26353.6125
770.62254	29283.4125
774.50882	30748.2125
778.39237	29515.1125
782.27321	26391.7125
786.15132	23433.4125
790.02671	21725.7125
793.89938	20949.0125
797.76935	20655.0125
801.6366	20496.7125
805.50115	20397.8125
809.36299	20351.0125
813.22213	20274.1125
817.07857	20233.8125
820.93231	20240.1125
824.78336	20246.3125
828.63172	20350.6125
832.47738	20417.8125
836.32036	20394.4125
840.16066	20349.0125
843.99827	20229.2125
847.8332	20165.6125
851.66546	20155.1125
855.49504	20151.6125
859.32195	20100.9125
863.1462	20050.7125
866.96777	19990.9125
870.78668	19940.9125
874.60293	19895.6125
878.41652	19897.6125
882.22745	19958.4125
886.03573	20015.4125
889.84136	19969.6125
893.64433	19882.1125
897.44466	19849.3125
901.24235	19832.9125
905.0374	19807.3125
908.8298	19744.7125
912.61957	19706.1125
916.40671	19805.7125
920.19121	19908.7125
923.97308	20023.5125
927.75233	20158.2125
931.52895	20350.1125
935.30295	20213.6125
939.07433	19813.9125
942.84309	19423.3125
946.60924	19180.6125
950.37278	19023.0125
954.13371	18944.6125
957.89203	18861.4125
961.64774	18835.2125
965.40086	18762.1125
969.15137	18702.1125
972.89929	18652.4125
976.64461	18607.2125
980.38733	18605.5125
984.12747	18659.5125
987.86502	18722.4125
991.59999	18853.5125
995.33237	19048.5125
999.06217	19382.3125
1002.78939	19793.3125
1006.51404	20121.7125
1010.23611	20398.9125
1013.95561	20601.3125
1017.67255	20543.4125
1021.38692	20286.0125
1025.09872	20062.4125
1028.80796	19985.4125
1032.51465	20092.0125
1036.21877	20270.8125
1039.92035	20369.6125
1043.61937	20400.3125
1047.31584	20298.6125
1051.00976	20187.0125
1054.70114	20161.1125
1058.38998	20196.4125
1062.07627	20423.9125
1065.76003	20780.4125
1069.44126	21230.9125
1073.11995	21859.6125
1076.79611	22446.4125
1080.46974	22749.9125
1084.14085	22729.5125
1087.80943	22494.8125
1091.47549	22112.8125
1095.13903	21555.3125
1098.80005	20910.0125
1102.45857	20426.9125
1106.11456	20248.7125
1109.76805	20288.5125
1113.41903	20589.7125
1117.06751	21043.8125
1120.71348	21605.6125
1124.35696	22277.0125
1127.99793	22799.1125
1131.63641	22812.4125
1135.2724	22184.5125
1138.90589	21437.2125
1142.5369	20965.9125
1146.16542	20641.9125
1149.79145	20487.8125
1153.415	20486.5125
1157.03607	20617.1125
1160.65467	20942.5125
1164.27079	21557.6125
1167.88443	22558.5125
1171.49561	24150.2125
1175.10432	26554.3125
1178.71056	29676.1125
1182.31434	31970.0125
1185.91565	32415.9125
1189.51451	31597.0125
1193.11091	29915.5125
1196.70485	28038.2125
1200.29634	26601.9125
1203.88538	25547.1125
1207.47197	24399.3125
1211.05612	23471.6125
1214.63782	22984.1125
1218.21708	22880.1125
1221.79391	22860.2125
1225.36829	22805.4125
1228.94024	22651.9125
1232.50976	22507.2125
1236.07685	22486.5125
1239.6415	22578.6125
1243.20374	22706.8125
1246.76355	22892.3125
1250.32093	23124.9125
1253.8759	23527.6125
1257.42845	24072.2125
1260.97859	24610.1125
1264.52631	25163.2125
1268.07163	25715.2125
1271.61453	26202.0125
1275.15503	26607.1125
1278.69312	26796.6125
1282.22882	26915.2125
1285.76211	27293.0125
1289.29301	28095.1125
1292.82151	28934.0125
1296.34761	29925.6125
1299.87133	31255.6125
1303.39266	33318.7125
1306.9116	36248.1125
1310.42815	39669.3125
1313.94233	41756.4125
1317.45412	41443.0125
1320.96354	39374.4125
1324.47058	37004.4125
1327.97525	34894.9125
1331.47754	33429.5125
1334.97747	32989.4125
1338.47502	33251.5125
1341.97022	33851.7125
1345.46305	34624.4125
1348.95352	35706.3125
1352.44163	37573.5125
1355.92738	40457.9125
1359.41078	44983.0125
1362.89183	49315.7125
1366.37053	48349.3125
1369.84688	42204.6125
1373.32088	35861.4125
1376.79254	31844.0125
1380.26186	29973.6125
1383.72883	29096.2125
1387.19347	28452.8125
1390.65578	27631.5125
1394.11575	27024.6125
1397.57339	26794.1125
1401.0287	26988.6125
1404.48168	27345.1125
1407.93234	27619.6125
1411.38068	27724.0125
1414.82669	27524.5125
1418.27039	26939.6125
1421.71177	26263.5125
1425.15083	25556.7125
1428.58758	25153.2125
1432.02203	25194.5125
1435.45416	25468.5125
1438.88399	25736.5125
1442.31151	25835.9125
1445.73673	26074.6125
1449.15965	26341.2125
1452.58027	26409.7125
1455.9986	26228.3125
1459.41463	26199.0125
1462.82837	26407.8125
1466.23982	26890.6125
1469.64898	27446.3125
1473.05586	27806.4125
1476.46045	28000.5125
1479.86276	28249.5125
1483.26279	28549.2125
1486.66054	28888.8125
1490.05602	29404.1125
1493.44922	30076.2125
1496.84016	30942.5125
1500.22882	32467.1125
1503.61521	34901.8125
1506.99934	37962.4125
1510.38121	41078.4125
1513.76081	42634.0125
1517.13816	41133.4125
1520.51324	37351.5125
1523.88607	33363.7125
1527.25665	30618.7125
1530.62498	29174.3125
1533.99105	28455.6125
1537.35488	28107.5125
1540.71647	27928.0125
1544.07581	27820.4125
1547.4329	27628.1125
1550.78776	27476.1125
1554.14038	27366.1125
1557.49077	27347.5125
1560.83892	27543.7125
1564.18484	28005.5125
1567.52853	28676.8125
1570.86999	29422.0125
1574.20922	30340.4125
1577.54624	31020.2125
1580.88103	30751.4125
1584.2136	29525.1125
1587.54395	28375.1125
1590.87208	28101.4125
1594.19801	28982.2125
1597.52172	30557.9125
1600.84321	31405.9125
1604.16251	30637.0125
1607.47959	28734.0125
1610.79447	26558.6125
1614.10715	24437.4125
1617.41763	22817.9125
1620.7259	21824.5125
1624.03199	21361.9125
1627.33587	21351.8125
1630.63757	21739.8125
1633.93707	22647.8125
1637.23439	24092.2125
1640.52951	26241.4125
1643.82246	29040.7125
1647.11321	32134.3125
1650.40179	33975.4125
1653.68819	32880.5125
1656.97241	29122.9125
1660.25446	24945.6125
1663.53433	21952.8125
1666.81203	20148.7125
1670.08756	19088.0125
1673.36092	18408.8125
1676.63211	17988.6125
1679.90115	17723.2125
1683.16801	17460.4125
1686.43272	17281.7125
1689.69527	17181.6125
1692.95567	17106.7125
1696.2139	17045.8125
1699.46999	17022.1125
1702.72392	17023.2125
1705.97571	16948.2125
1709.22535	16903.0125
1712.47284	16864.6125
1715.71819	16921.0125
1718.96139	16851.9125
1722.20246	16828.7125
1725.44139	16781.6125
1728.67818	16635.6125
1731.91284	16558.9125
1735.14537	16481.6125
1738.37576	16405.4125
1741.60403	16351.2125
1744.83017	16317.7125
1748.05418	16268.0125
1751.27607	16230.3125
1754.49584	16201.4125
1757.71349	16206.0125
1760.92903	16186.2125
1764.14244	16151.9125
1767.35375	16131.2125
1770.56294	16132.0125
1773.77002	16092.3125
1776.97499	16046.4125
1780.17785	15999.2125
1783.37861	15965.8125
1786.57727	15975.8125
1789.77382	15913.5125
1792.96828	15914.6125
1796.16064	15854.5125
1799.3509	15837.0125
1802.53907	15803.4125
1805.72514	15770.4125
1808.90913	15722.3125
1812.09102	15687.4125
1815.27083	15635.1125
1818.44856	15656.1125
1821.6242	15589.6125
1824.79776	15579.2125
1827.96924	15538.6125
1831.13864	15532.8125
1834.30597	15536.0125
1837.47122	15516.5125
1840.6344	15482.8125
1843.7955	15471.5125
1846.95454	15489.9125
1850.11151	15451.5125
1853.26642	15445.5125
1856.41926	15439.0125
1859.57004	15454.4125
1862.71876	15445.9125
1865.86542	15424.9125
1869.01003	15386.8125
1872.15258	15436.6125
1875.29308	15418.0125
1878.43152	15387.3125
1881.56792	15372.7125
1884.70227	15388.5125
1887.83457	15371.0125
1890.96482	15389.4125
1894.09304	15374.3125
1897.21921	15349.7125
1900.34335	15373.3125
1903.46544	15323.7125
1906.58551	15332.5125
1909.70353	15308.3125
1912.81953	15307.6125
1915.93349	15280.7125
1919.04543	15246.7125
1922.15534	15226.3125
1925.26322	15239.6125
1928.36908	15182.0125
1931.47292	15147.0125
1934.57473	15131.2125
1937.67453	15069.4125
1940.77232	15007.3125
1943.86808	14976.2125
1946.96184	14930.0125
1950.05358	14903.4125
1953.14331	14833.4125
1956.23103	14812.3125
1959.31675	14751.7125
1962.40046	14720.1125
1965.48217	14692.2125
1968.56188	14675.9125
1971.63959	14585.5125
1974.7153	14557.8125
1977.78901	14517.8125
1980.86073	14468.6125
1983.93046	14430.6125
1986.99819	14357.0125
1990.06394	14328.7125
1993.1277	14304.6125
1996.18947	14233.9125
1999.24925	14180.0125
2002.30706	14129.7125
2005.36288	14105.7125
2008.41672	14066.1125
2011.46859	14012.4125
2014.51848	13975.2125
2017.56639	13953.3125
2020.61233	13923.8125
2023.6563	13923.4125
2026.6983	13870.8125
2029.73833	13847.3125
2032.7764	13805.0125
2035.8125	13784.8125
2038.84664	13752.9125
2041.87881	13731.7125
2044.90903	13734.3125
2047.93729	13688.2125
2050.96359	13683.4125
2053.98794	13642.1125
2057.01034	13628.7125
2060.03078	13641.2125
2063.04927	13617.7125
2066.06582	13597.7125
2069.08042	13580.9125
2072.09307	13568.8125
2075.10378	13554.9125
2078.11255	13553.1125
2081.11938	13546.6125
2084.12426	13529.2125
2087.12722	13566.9125
2090.12824	13494.3125
2093.12732	13510.7125
2096.12447	13524.6125
2099.11969	13527.7125
2102.11299	13525.1125
2105.10435	13540.3125
2108.09379	13565.1125
2111.08131	13555.2125
2114.0669	13559.9125
2117.05057	13549.1125
2120.03233	13549.0125
2123.01216	13569.4125
2125.99008	13574.2125
2128.96609	13597.9125
2131.94018	13585.8125
2134.91236	13578.4125
2137.88263	13589.4125
2140.851	13574.3125
2143.81746	13588.7125
2146.78201	13613.1125
2149.74466	13593.4125
2152.7054	13613.4125
2155.66425	13628.1125
2158.6212	13616.5125
2161.57625	13594.7125
2164.52941	13598.4125
2167.48067	13564.8125
2170.43004	13551.3125
2173.37752	13548.8125
2176.32311	13557.3125
2179.26681	13560.3125
2182.20863	13557.7125
2185.14856	13556.9125
2188.08661	13523.6125
2191.02278	13549.9125
2193.95707	13515.5125
2196.88948	13508.9125
2199.82001	13496.3125
2202.74867	13483.6125
2205.67545	13490.3125
2208.60037	13470.4125
2211.52341	13450.8125
2214.44458	13430.2125
2217.36388	13396.7125
2220.28132	13358.5125
2223.1969	13352.8125
2226.11061	13340.1125
2229.02246	13301.7125
2231.93245	13274.1125
2234.84058	13239.4125
2237.74686	13214.4125
2240.65128	13191.1125
2243.55385	13198.8125
2246.45456	13156.3125
2249.35343	13153.2125
2252.25044	13127.6125
2255.14561	13109.6125
2258.03893	13117.8125
2260.93041	13105.8125
2263.82004	13073.9125
2266.70783	13041.4125
2269.59378	13014.7125
2272.4779	12985.4125
2275.36017	12949.4125
2278.24061	12927.1125
2281.11922	12901.6125
2283.996	12856.4125
2286.87094	12855.7125
2289.74405	12813.8125
2292.61534	12816.3125
2295.4848	12754.1125
2298.35243	12791.7125
2301.21824	12761.1125
2304.08223	12755.3125
2306.94439	12741.0125
2309.80474	12741.0125
2312.66327	12750.6125
2315.51999	12720.4125
2318.37489	12724.1125
2321.22797	12714.1125
2324.07925	12692.5125
2326.92871	12683.8125
2329.77637	12658.2125
2332.62222	12671.7125
2335.46626	12632.2125
2338.3085	12666.7125
2341.14893	12625.6125
2343.98756	12625.9125
2346.8244	12619.1125
2349.65943	12597.4125
2352.49267	12600.0125
2355.32411	12592.0125
2358.15376	12571.1125
2360.98161	12594.7125
2363.80768	12622.0125
2366.63195	12572.7125
2369.45444	12571.3125
2372.27514	12569.9125
2375.09405	12557.2125
2377.91118	12515.2125
2380.72652	12438.2125
2383.54009	12409.7125
2386.35187	12401.4125
2389.16188	12375.0125
2391.97011	12330.3125
2394.77657	12321.6125
2397.58125	12279.7125
2400.38416	12288.6125
2403.18529	12238.5125
2405.98466	12242.2125
2408.78226	12198.6125
2411.57809	12195.0125
2414.37216	12137.2125
2417.16446	12144.0125
2419.955	12126.5125
2422.74378	12133.0125
2425.5308	12167.2125
2428.31606	12160.4125
2431.09956	12089.5125
2433.88131	12076.6125
2436.6613	12080.0125
2439.43954	12085.2125
2442.21603	12059.9125
2444.99077	12043.0125
2447.76377	12056.0125
2450.53501	12044.8125
2453.30451	12028.7125
2456.07226	11999.9125
2458.83827	12000.8125
2461.60254	12014.3125
2464.36507	11969.4125
2467.12586	11973.0125
2469.88492	11989.6125
2472.64224	11960.0125
2475.39782	11944.6125
2478.15167	12003.1125
2480.90379	11971.7125
2483.65417	11973.7125
2486.40283	12000.8125
2489.14976	12024.5125
2491.89497	11999.6125
2494.63845	12014.5125
2497.3802	11986.4125
2500.12024	11965.7125
2502.85855	11978.1125
2505.59514	11944.4125
2508.33002	11978.2125
2511.06318	11900.6125
2513.79462	11870.7125
2516.52435	11845.8125
2519.25237	11823.8125
2521.97867	11786.9125
2524.70327	11833.8125
2527.42616	11773.0125
2530.14734	11768.5125
2532.86681	11754.1125
2535.58458	11740.5125
2538.30065	11739.3125
2541.01501	11728.9125
2543.72768	11726.9125
2546.43864	11710.2125
2549.14791	11676.7125
2551.85548	11668.1125
2554.56136	11629.8125
2557.26554	11606.1125
2559.96803	11603.9125
2562.66883	11600.0125
2565.36794	11587.0125
2568.06536	11570.8125
2570.7611	11580.2125
2573.45514	11548.1125
2576.14751	11540.9125
2578.83819	11517.7125
2581.52719	11504.0125
2584.21451	11455.5125
2586.90015	11473.3125
2589.58411	11429.5125
2592.2664	11416.1125
2594.94701	11374.6125
2597.62594	11403.3125
2600.30321	11352.5125
2602.9788	11374.5125
2605.65273	11340.1125
2608.32498	11327.6125
2610.99557	11324.0125
2613.66449	11312.3125
2616.33175	11306.3125
2618.99734	11291.0125
2621.66128	11313.1125
2624.32355	11301.0125
2626.98416	11290.2125
2629.64311	11276.9125
2632.30041	11253.4125
2634.95605	11234.0125
2637.61004	11210.9125
2640.26238	11223.1125
2642.91306	11228.5125
2645.56209	11209.6125
2648.20948	11164.9125
2650.85521	11168.5125
2653.4993	11176.6125
2656.14175	11173.9125
2658.78255	11185.4125
2661.42171	11178.3125
2664.05923	11211.8125
2666.6951	11223.9125
2669.32934	11170.9125
2671.96194	11203.8125
2674.59291	11193.9125
2677.22224	11201.2125
2679.84993	11208.1125
2682.476	11173.4125
2685.10043	11202.9125
2687.72324	11172.5125
2690.34441	11180.2125
2692.96396	11164.5125
2695.58188	11161.9125
2698.19818	11176.0125
2700.81285	11183.8125
2703.4259	11181.3125
2706.03733	11229.7125
2708.64714	11236.1125
2711.25533	11227.3125
2713.86191	11211.7125
2716.46687	11216.3125
2719.07021	11208.4125
2721.67194	11180.6125
2724.27206	11195.9125
2726.87057	11178.8125
2729.46747	11179.9125
2732.06276	11164.6125
2734.65644	11172.9125
2737.24852	11151.0125
2739.83899	11127.5125
2742.42786	11150.7125
2745.01513	11112.3125
2747.60079	11110.4125
2750.18486	11097.1125
2752.76733	11110.6125
2755.3482	11080.8125
2757.92747	11079.6125
2760.50515	11073.0125
2763.08123	11042.2125
2765.65573	11046.6125
2768.22863	11041.3125
2770.79994	11029.6125
2773.36967	11019.8125
2775.9378	11022.2125
2778.50435	10961.0125
2781.06932	10970.2125
2783.6327	10972.4125
2786.1945	10952.9125
2788.75471	10953.6125
2791.31335	10955.1125
2793.87041	10904.7125
2796.42589	10880.5125
2798.97979	10881.8125
2801.53212	10849.5125
2804.08288	10845.1125
2806.63206	10826.2125
2809.17967	10788.2125
2811.72571	10784.3125
2814.27018	10814.7125
2816.81308	10773.2125
2819.35442	10782.3125
2821.89419	10788.2125
2824.43239	10776.9125
2826.96904	10764.9125
2829.50412	10769.5125
2832.03763	10729.2125
2834.56959	10738.5125
2837.1	10741.0125
2839.62884	10758.6125
2842.15613	10743.1125
2844.68186	10754.6125
2847.20604	10806.6125
2849.72867	10822.5125
2852.24974	10806.6125
2854.76927	10833.2125
2857.28724	10815.7125
2859.80367	10789.2125
2862.31855	10774.0125
2864.83189	10740.8125
2867.34368	10752.2125
2869.85393	10740.2125
2872.36264	10710.4125
2874.8698	10739.4125
2877.37543	10732.5125
2879.87952	10749.8125
2882.38207	10725.0125
2884.88308	10714.5125
2887.38256	10717.2125
2889.88051	10721.6125
2892.37692	10707.8125
2894.8718	10742.0125
2897.36515	10739.7125
2899.85698	10755.1125
2902.34727	10774.2125
2904.83604	10758.8125
2907.32328	10759.8125
2909.809	10745.5125
2912.29319	10774.4125
2914.77587	10763.7125
2917.25702	10761.4125
2919.73665	10735.5125
2922.21476	10757.8125
2924.69136	10751.6125
2927.16644	10728.2125
2929.64	10719.7125
2932.11205	10676.0125
2934.58258	10669.5125
2937.05161	10677.4125
2939.51912	10654.8125
2941.98513	10626.1125
2944.44962	10581.2125
2946.91261	10505.8125
2949.37409	10530.7125
2951.83407	10501.8125
2954.29254	10489.5125
2956.74951	10448.5125
2959.20498	10433.1125
2961.65895	10402.0125
2964.11142	10402.1125
2966.56239	10362.1125
2969.01186	10346.4125
2971.45984	10334.1125
2973.90632	10313.2125
2976.35131	10280.2125
2978.7948	10251.1125
2981.23681	10238.2125
2983.67732	10200.6125
2986.11635	10197.7125
2988.55388	10160.4125
2990.98993	10148.9125
2993.4245	10134.6125
2995.85758	10103.7125
2998.28917	10087.8125
3000.71928	10058.6125
3003.14791	10064.6125
3005.57506	10047.3125
3008.00073	10033.6125
3010.42493	10019.1125
3012.84764	10003.8125
3015.26888	9953.3125
3017.68865	9960.4125
3020.10694	9951.3125
3022.52376	9896.0125
3024.9391	9898.6125
