Data from AgNP_FTO_APTES_CRN_200uM_R6G_10uM_NaF_0.1M_Addition_RamanShift__7__19-25-08-152.txt Node

Date: Wed Dec 15 19:25:08 GMT 2021
User: TCL
Spectrometer: QEP01345
Trigger mode: 4
Integration Time (sec): 7.000000E0
Scans to average: 10
Electric dark correction enabled: true
Nonlinearity correction enabled: false
Boxcar width: 0
XAxis mode: Raman Shifts
Number of Pixels in Spectrum: 1044
>>>>>Begin Spectral Data<<<<<
46.04893	1.7875
50.45542	-1.4125
54.85868	-0.3125
59.25871	-0.6125
63.6555	55.9875
68.04907	63.4875
72.43941	62.5875
76.82654	66.0875
81.21044	70.6875
85.59113	72.3875
89.96862	78.3875
94.34289	73.9875
98.71396	83.2875
103.08183	86.2875
107.4465	84.8875
111.80798	88.1875
116.16626	90.8875
120.52136	94.8875
124.87327	93.2875
129.222	93.3875
133.56755	98.9875
137.90993	106.4875
142.24913	114.5875
146.58517	127.1875
150.91804	142.1875
155.24774	170.2875
159.57429	204.8875
163.89768	258.8875
168.21792	336.7875
172.53501	449.6875
176.84895	624.7875
181.15975	869.0875
185.46741	1218.8875
189.77193	1662.7875
194.07331	2228.8875
198.37157	2889.7875
202.6667	3553.6875
206.9587	4225.1875
211.24758	4884.0875
215.53334	5527.6875
219.81599	6214.6875
224.09553	6955.3875
228.37195	7777.0875
232.64527	8694.1875
236.91549	9662.9875
241.18261	10662.2875
245.44663	11625.7875
249.70755	12518.1875
253.96539	13295.9875
258.22014	13940.5875
262.4718	14475.5875
266.72039	14815.4875
270.96589	14966.8875
275.20832	15024.6875
279.44768	14929.9875
283.68397	14798.6875
287.91719	14690.8875
292.14735	14612.6875
296.37445	14535.3875
300.59849	14565.1875
304.81948	14506.4875
309.03742	14443.1875
313.25231	14330.7875
317.46415	14112.1875
321.67296	13861.5875
325.87872	13650.8875
330.08145	13520.3875
334.28114	13559.4875
338.47781	13590.0875
342.67145	13737.6875
346.86207	13902.4875
351.04966	14068.0875
355.23424	14294.8875
359.4158	14436.6875
363.59435	14561.7875
367.76989	14620.8875
371.94243	14683.1875
376.11196	14713.1875
380.27849	14772.2875
384.44203	14835.1875
388.60257	14989.1875
392.76012	15197.7875
396.91468	15356.7875
401.06626	15563.0875
405.21485	15694.6875
409.36047	15731.8875
413.50311	15614.7875
417.64277	15551.4875
421.77947	15601.1875
425.9132	15670.1875
430.04396	15747.9875
434.17176	15850.2875
438.2966	15890.4875
442.41849	16058.1875
446.53742	16318.3875
450.6534	16610.4875
454.76644	16808.5875
458.87653	16921.0875
462.98368	16932.0875
467.08789	16887.5875
471.18916	16823.7875
475.2875	16814.6875
479.38291	16788.7875
483.4754	16709.5875
487.56496	16545.7875
491.6516	16299.6875
495.73531	16102.2875
499.81612	16006.9875
503.89401	16113.0875
507.96899	16157.8875
512.04106	16235.3875
516.11023	16168.7875
520.1765	16077.8875
524.23987	16023.2875
528.30034	15893.6875
532.35792	15754.3875
536.41261	15611.1875
540.46441	15579.8875
544.51333	15564.8875
548.55936	15736.4875
552.60252	15977.6875
556.64279	16283.5875
560.6802	16470.2875
564.71473	16576.8875
568.7464	16731.1875
572.7752	17070.8875
576.80114	17511.8875
580.82422	17935.4875
584.84444	18377.1875
588.86181	18830.3875
592.87633	19103.8875
596.888	18973.6875
600.89682	18457.0875
604.9028	18241.3875
608.90594	18722.3875
612.90624	19243.9875
616.90371	18344.2875
620.89834	16551.6875
624.89015	15750.3875
628.87913	15668.5875
632.86528	15777.4875
636.84862	15846.4875
640.82913	15742.4875
644.80683	15539.5875
648.78172	15370.6875
652.75379	15356.4875
656.72306	15407.6875
660.68952	15502.3875
664.65319	15482.6875
668.61405	15390.8875
672.57211	15372.3875
676.52738	15434.2875
680.47986	15458.1875
684.42955	15409.0875
688.37646	15367.9875
692.32058	15420.7875
696.26192	15547.9875
700.20048	15661.4875
704.13626	15789.7875
708.06928	15858.5875
711.99952	15891.5875
715.927	15866.0875
719.85171	15826.4875
723.77365	15745.8875
727.69284	15605.0875
731.60928	15439.1875
735.52295	15398.9875
739.43388	15376.2875
743.34206	15414.6875
747.24749	15486.7875
751.15017	15579.1875
755.05012	15768.0875
758.94733	16081.2875
762.8418	16602.6875
766.73354	17350.2875
770.62254	18036.6875
774.50882	18101.3875
778.39237	17503.7875
782.27321	16676.8875
786.15132	15986.6875
790.02671	15608.9875
793.89938	15399.0875
797.76935	15333.1875
801.6366	15277.5875
805.50115	15254.2875
809.36299	15261.7875
813.22213	15202.1875
817.07857	15161.2875
820.93231	15144.3875
824.78336	15082.3875
828.63172	15057.3875
832.47738	15038.2875
836.32036	15057.6875
840.16066	15074.4875
843.99827	15042.0875
847.8332	15021.0875
851.66546	14995.6875
855.49504	14990.2875
859.32195	15002.5875
863.1462	14957.7875
866.96777	14956.7875
870.78668	14976.9875
874.60293	14944.0875
878.41652	14987.2875
882.22745	15019.7875
886.03573	15033.1875
889.84136	15068.6875
893.64433	15051.2875
897.44466	15022.9875
901.24235	14969.3875
905.0374	14926.2875
908.8298	14936.8875
912.61957	14967.9875
916.40671	15084.5875
920.19121	15196.9875
923.97308	15283.7875
927.75233	15256.6875
931.52895	15157.1875
935.30295	14979.6875
939.07433	14810.1875
942.84309	14634.4875
946.60924	14541.9875
950.37278	14484.7875
954.13371	14461.3875
957.89203	14508.8875
961.64774	14486.2875
965.40086	14474.6875
969.15137	14448.4875
972.89929	14392.3875
976.64461	14319.3875
980.38733	14267.2875
984.12747	14289.3875
987.86502	14320.1875
991.59999	14388.9875
995.33237	14436.2875
999.06217	14561.4875
1002.78939	14713.8875
1006.51404	14890.2875
1010.23611	15112.6875
1013.95561	15226.4875
1017.67255	15264.5875
1021.38692	15180.6875
1025.09872	15025.1875
1028.80796	14886.8875
1032.51465	14815.4875
1036.21877	14854.3875
1039.92035	14946.9875
1043.61937	15001.7875
1047.31584	15101.2875
1051.00976	15188.8875
1054.70114	15327.0875
1058.38998	15503.4875
1062.07627	15854.1875
1065.76003	16188.8875
1069.44126	16602.3875
1073.11995	16942.0875
1076.79611	17021.9875
1080.46974	16860.4875
1084.14085	16569.0875
1087.80943	16371.6875
1091.47549	16263.9875
1095.13903	16228.9875
1098.80005	16093.9875
1102.45857	15778.0875
1106.11456	15505.3875
1109.76805	15326.9875
1113.41903	15274.8875
1117.06751	15336.4875
1120.71348	15444.5875
1124.35696	15603.0875
1127.99793	15807.5875
1131.63641	15945.9875
1135.2724	15873.3875
1138.90589	15865.1875
1142.5369	15841.7875
1146.16542	15920.7875
1149.79145	16003.1875
1153.415	16138.5875
1157.03607	16257.0875
1160.65467	16546.0875
1164.27079	17077.7875
1167.88443	17740.4875
1171.49561	18519.0875
1175.10432	19431.3875
1178.71056	20548.7875
1182.31434	21504.7875
1185.91565	21953.6875
1189.51451	21830.5875
1193.11091	21441.8875
1196.70485	20856.5875
1200.29634	20191.7875
1203.88538	19747.8875
1207.47197	19575.4875
1211.05612	19416.7875
1214.63782	19158.3875
1218.21708	18718.3875
1221.79391	18236.8875
1225.36829	17908.0875
1228.94024	17696.7875
1232.50976	17598.2875
1236.07685	17482.9875
1239.6415	17451.6875
1243.20374	17459.3875
1246.76355	17515.5875
1250.32093	17679.7875
1253.8759	17911.7875
1257.42845	18267.2875
1260.97859	18618.2875
1264.52631	18972.2875
1268.07163	19292.5875
1271.61453	19624.2875
1275.15503	20056.3875
1278.69312	20462.9875
1282.22882	20946.2875
1285.76211	21518.1875
1289.29301	22236.0875
1292.82151	23079.3875
1296.34761	24085.5875
1299.87133	25144.0875
1303.39266	26101.5875
1306.9116	26885.4875
1310.42815	27585.4875
1313.94233	27936.2875
1317.45412	27907.8875
1320.96354	27692.0875
1324.47058	27510.7875
1327.97525	27409.8875
1331.47754	27311.7875
1334.97747	27255.2875
1338.47502	27172.7875
1341.97022	27015.3875
1345.46305	26894.6875
1348.95352	26697.4875
1352.44163	26589.5875
1355.92738	26831.8875
1359.41078	27348.6875
1362.89183	27774.4875
1366.37053	27404.2875
1369.84688	25918.7875
1373.32088	23934.8875
1376.79254	22435.0875
1380.26186	21855.5875
1383.72883	21796.7875
1387.19347	21725.0875
1390.65578	21594.9875
1394.11575	21524.8875
1397.57339	21618.2875
1401.0287	21841.2875
1404.48168	21949.4875
1407.93234	21798.2875
1411.38068	21371.4875
1414.82669	20744.6875
1418.27039	19948.3875
1421.71177	19301.6875
1425.15083	18684.3875
1428.58758	18420.7875
1432.02203	18516.2875
1435.45416	18817.5875
1438.88399	19204.3875
1442.31151	19513.7875
1445.73673	19673.0875
1449.15965	19923.4875
1452.58027	20066.6875
1455.9986	20192.9875
1459.41463	20352.5875
1462.82837	20622.7875
1466.23982	20943.6875
1469.64898	21202.5875
1473.05586	21369.3875
1476.46045	21431.1875
1479.86276	21361.7875
1483.26279	21248.9875
1486.66054	21185.9875
1490.05602	21298.1875
1493.44922	21532.6875
1496.84016	21776.0875
1500.22882	22177.2875
1503.61521	22719.9875
1506.99934	23280.7875
1510.38121	23664.7875
1513.76081	23660.1875
1517.13816	23342.1875
1520.51324	22803.0875
1523.88607	22540.3875
1527.25665	22388.0875
1530.62498	22357.7875
1533.99105	22252.1875
1537.35488	22013.2875
1540.71647	21611.2875
1544.07581	21136.8875
1547.4329	20643.7875
1550.78776	20225.1875
1554.14038	19926.6875
1557.49077	19753.2875
1560.83892	19699.2875
1564.18484	19785.5875
1567.52853	19997.4875
1570.86999	20363.1875
1574.20922	21018.2875
1577.54624	21617.3875
1580.88103	22028.9875
1584.2136	22087.2875
1587.54395	22042.1875
1590.87208	22167.5875
1594.19801	22646.6875
1597.52172	23241.6875
1600.84321	23409.1875
1604.16251	22718.3875
1607.47959	21487.0875
1610.79447	20127.7875
1614.10715	18818.8875
1617.41763	17754.8875
1620.7259	17023.8875
1624.03199	16589.7875
1627.33587	16469.4875
1630.63757	16722.4875
1633.93707	17426.5875
1637.23439	18669.0875
1640.52951	20497.1875
1643.82246	22703.9875
1647.11321	24525.0875
1650.40179	25022.0875
1653.68819	23797.5875
1656.97241	21463.0875
1660.25446	19061.4875
1663.53433	17203.8875
1666.81203	15914.8875
1670.08756	15061.5875
1673.36092	14535.3875
1676.63211	14184.7875
1679.90115	13927.5875
1683.16801	13721.5875
1686.43272	13605.9875
1689.69527	13515.7875
1692.95567	13437.3875
1696.2139	13416.3875
1699.46999	13401.3875
1702.72392	13349.3875
1705.97571	13298.7875
1709.22535	13267.5875
1712.47284	13203.4875
1715.71819	13206.0875
1718.96139	13162.2875
1722.20246	13142.3875
1725.44139	13063.0875
1728.67818	13036.5875
1731.91284	12976.9875
1735.14537	12914.6875
1738.37576	12860.7875
1741.60403	12845.5875
1744.83017	12830.6875
1748.05418	12797.3875
1751.27607	12760.8875
1754.49584	12777.2875
1757.71349	12790.6875
1760.92903	12753.9875
1764.14244	12778.2875
1767.35375	12775.7875
1770.56294	12725.7875
1773.77002	12705.3875
1776.97499	12684.1875
1780.17785	12655.1875
1783.37861	12610.6875
1786.57727	12611.0875
1789.77382	12539.6875
1792.96828	12552.3875
1796.16064	12519.4875
1799.3509	12484.6875
1802.53907	12457.0875
1805.72514	12443.8875
1808.90913	12399.2875
1812.09102	12369.6875
1815.27083	12350.1875
1818.44856	12348.3875
1821.6242	12311.6875
1824.79776	12310.3875
1827.96924	12309.4875
1831.13864	12311.1875
1834.30597	12288.2875
1837.47122	12294.4875
1840.6344	12306.2875
1843.7955	12286.6875
1846.95454	12288.7875
1850.11151	12246.2875
1853.26642	12235.1875
1856.41926	12216.6875
1859.57004	12245.3875
1862.71876	12221.0875
1865.86542	12187.4875
1869.01003	12200.6875
1872.15258	12172.0875
1875.29308	12156.9875
1878.43152	12115.6875
1881.56792	12116.6875
1884.70227	12101.2875
1887.83457	12094.8875
1890.96482	12105.9875
1894.09304	12047.5875
1897.21921	12056.3875
1900.34335	12039.5875
1903.46544	12010.8875
1906.58551	11986.9875
1909.70353	11977.8875
1912.81953	11964.3875
1915.93349	11932.1875
1919.04543	11901.5875
1922.15534	11893.4875
1925.26322	11894.8875
1928.36908	11867.9875
1931.47292	11843.9875
1934.57473	11831.2875
1937.67453	11794.2875
1940.77232	11767.1875
1943.86808	11723.0875
1946.96184	11689.7875
1950.05358	11682.7875
1953.14331	11631.0875
1956.23103	11619.9875
1959.31675	11591.5875
1962.40046	11526.4875
1965.48217	11529.8875
1968.56188	11495.8875
1971.63959	11436.6875
1974.7153	11402.9875
1977.78901	11376.7875
1980.86073	11322.8875
1983.93046	11313.2875
1986.99819	11265.4875
1990.06394	11239.7875
1993.1277	11225.8875
1996.18947	11178.8875
1999.24925	11127.6875
2002.30706	11107.2875
2005.36288	11069.7875
2008.41672	11063.0875
2011.46859	11036.4875
2014.51848	10995.0875
2017.56639	10967.6875
2020.61233	10930.9875
2023.6563	10905.2875
2026.6983	10903.6875
2029.73833	10860.4875
2032.7764	10827.5875
2035.8125	10821.7875
2038.84664	10812.2875
2041.87881	10773.5875
2044.90903	10768.4875
2047.93729	10726.1875
2050.96359	10727.2875
2053.98794	10709.4875
2057.01034	10678.9875
2060.03078	10679.8875
2063.04927	10659.2875
2066.06582	10666.6875
2069.08042	10660.1875
2072.09307	10636.7875
2075.10378	10631.2875
2078.11255	10652.5875
2081.11938	10655.1875
2084.12426	10643.6875
2087.12722	10629.5875
2090.12824	10631.1875
2093.12732	10651.5875
2096.12447	10622.3875
2099.11969	10644.3875
2102.11299	10661.6875
2105.10435	10613.2875
2108.09379	10652.6875
2111.08131	10627.4875
2114.0669	10651.1875
2117.05057	10670.5875
2120.03233	10662.0875
2123.01216	10685.5875
2125.99008	10676.4875
2128.96609	10687.2875
2131.94018	10686.0875
2134.91236	10678.6875
2137.88263	10688.5875
2140.851	10716.5875
2143.81746	10683.5875
2146.78201	10692.3875
2149.74466	10714.1875
2152.7054	10709.5875
2155.66425	10715.1875
2158.6212	10739.8875
2161.57625	10708.4875
2164.52941	10699.0875
2167.48067	10700.5875
2170.43004	10698.6875
2173.37752	10657.8875
2176.32311	10699.5875
2179.26681	10696.3875
2182.20863	10681.2875
2185.14856	10691.6875
2188.08661	10652.3875
2191.02278	10672.2875
2193.95707	10659.4875
2196.88948	10631.8875
2199.82001	10621.4875
2202.74867	10634.0875
2205.67545	10611.6875
2208.60037	10637.8875
2211.52341	10597.9875
2214.44458	10569.3875
2217.36388	10526.2875
2220.28132	10519.7875
2223.1969	10499.5875
2226.11061	10505.1875
2229.02246	10479.1875
2231.93245	10446.5875
2234.84058	10430.0875
2237.74686	10429.3875
2240.65128	10420.4875
2243.55385	10408.1875
2246.45456	10382.9875
2249.35343	10386.7875
2252.25044	10363.9875
2255.14561	10346.0875
2258.03893	10308.8875
2260.93041	10308.0875
2263.82004	10280.4875
2266.70783	10254.9875
2269.59378	10221.6875
2272.4779	10230.3875
2275.36017	10197.2875
2278.24061	10169.9875
2281.11922	10116.7875
2283.996	10123.3875
2286.87094	10099.2875
2289.74405	10057.0875
2292.61534	10070.3875
2295.4848	10052.0875
2298.35243	10071.2875
2301.21824	10044.3875
2304.08223	10045.1875
2306.94439	10016.9875
2309.80474	10004.6875
2312.66327	10020.7875
2315.51999	9998.8875
2318.37489	9963.8875
2321.22797	9985.0875
2324.07925	9975.8875
2326.92871	9943.3875
2329.77637	9945.2875
2332.62222	9938.0875
2335.46626	9904.7875
2338.3085	9896.9875
2341.14893	9875.0875
2343.98756	9862.4875
2346.8244	9853.6875
2349.65943	9869.7875
2352.49267	9855.6875
2355.32411	9838.7875
2358.15376	9832.0875
2360.98161	9835.1875
2363.80768	9850.5875
2366.63195	9821.0875
2369.45444	9823.3875
2372.27514	9794.3875
2375.09405	9803.9875
2377.91118	9798.3875
2380.72652	9766.9875
2383.54009	9742.2875
2386.35187	9730.2875
2389.16188	9690.0875
2391.97011	9686.3875
2394.77657	9681.1875
2397.58125	9638.4875
2400.38416	9632.6875
2403.18529	9613.8875
2405.98466	9613.9875
2408.78226	9597.6875
2411.57809	9593.4875
2414.37216	9562.4875
2417.16446	9583.7875
2419.955	9536.7875
2422.74378	9537.6875
2425.5308	9522.4875
2428.31606	9502.4875
2431.09956	9507.0875
2433.88131	9486.7875
2436.6613	9488.2875
2439.43954	9506.4875
2442.21603	9453.9875
2444.99077	9462.2875
2447.76377	9448.5875
2450.53501	9457.3875
2453.30451	9439.4875
2456.07226	9428.6875
2458.83827	9418.7875
2461.60254	9407.8875
2464.36507	9382.1875
2467.12586	9400.8875
2469.88492	9385.6875
2472.64224	9401.1875
2475.39782	9377.1875
2478.15167	9393.8875
2480.90379	9353.4875
2483.65417	9361.1875
2486.40283	9358.5875
2489.14976	9363.3875
2491.89497	9357.1875
2494.63845	9372.8875
2497.3802	9358.8875
2500.12024	9331.6875
2502.85855	9329.7875
2505.59514	9317.4875
2508.33002	9325.0875
2511.06318	9282.5875
2513.79462	9290.1875
2516.52435	9279.6875
2519.25237	9280.7875
2521.97867	9244.4875
2524.70327	9258.7875
2527.42616	9234.4875
2530.14734	9219.7875
2532.86681	9203.4875
2535.58458	9187.1875
2538.30065	9194.4875
2541.01501	9190.0875
2543.72768	9167.5875
2546.43864	9170.7875
2549.14791	9117.6875
2551.85548	9141.5875
2554.56136	9088.4875
2557.26554	9068.0875
2559.96803	9083.9875
2562.66883	9055.3875
2565.36794	9064.5875
2568.06536	9063.2875
2570.7611	9044.0875
2573.45514	9033.7875
2576.14751	9026.2875
2578.83819	9009.1875
2581.52719	8989.7875
2584.21451	8965.0875
2586.90015	8965.2875
2589.58411	8936.1875
2592.2664	8924.6875
2594.94701	8929.1875
2597.62594	8926.3875
2600.30321	8885.1875
2602.9788	8877.9875
2605.65273	8865.4875
2608.32498	8852.4875
2610.99557	8842.6875
2613.66449	8834.8875
2616.33175	8814.4875
2618.99734	8824.0875
2621.66128	8808.0875
2624.32355	8796.4875
2626.98416	8798.5875
2629.64311	8754.7875
2632.30041	8765.4875
2634.95605	8754.3875
2637.61004	8739.2875
2640.26238	8758.4875
2642.91306	8729.1875
2645.56209	8748.5875
2648.20948	8741.6875
2650.85521	8698.7875
2653.4993	8720.1875
2656.14175	8736.0875
2658.78255	8709.7875
2661.42171	8711.7875
2664.05923	8726.4875
2666.6951	8710.0875
2669.32934	8716.1875
2671.96194	8713.7875
2674.59291	8703.7875
2677.22224	8681.8875
2679.84993	8710.8875
2682.476	8693.5875
2685.10043	8685.9875
2687.72324	8695.7875
2690.34441	8728.7875
2692.96396	8705.4875
2695.58188	8695.8875
2698.19818	8686.3875
2700.81285	8713.3875
2703.4259	8726.5875
2706.03733	8776.2875
2708.64714	8737.4875
2711.25533	8757.0875
2713.86191	8736.0875
2716.46687	8741.3875
2719.07021	8717.3875
2721.67194	8709.6875
2724.27206	8704.0875
2726.87057	8713.8875
2729.46747	8716.2875
2732.06276	8719.0875
2734.65644	8697.7875
2737.24852	8690.9875
2739.83899	8683.9875
2742.42786	8701.2875
2745.01513	8671.6875
2747.60079	8659.1875
2750.18486	8665.7875
2752.76733	8653.8875
2755.3482	8647.6875
2757.92747	8626.2875
2760.50515	8626.6875
2763.08123	8642.9875
2765.65573	8603.3875
2768.22863	8590.6875
2770.79994	8589.1875
2773.36967	8586.0875
2775.9378	8570.0875
2778.50435	8553.1875
2781.06932	8553.5875
2783.6327	8550.9875
2786.1945	8549.8875
2788.75471	8513.1875
2791.31335	8515.2875
2793.87041	8503.2875
2796.42589	8482.0875
2798.97979	8494.9875
2801.53212	8457.4875
2804.08288	8441.4875
2806.63206	8415.5875
2809.17967	8419.9875
2811.72571	8383.6875
2814.27018	8374.7875
2816.81308	8352.5875
2819.35442	8356.7875
2821.89419	8335.8875
2824.43239	8326.4875
2826.96904	8300.9875
2829.50412	8336.6875
2832.03763	8305.2875
2834.56959	8308.9875
2837.1	8306.8875
2839.62884	8300.5875
2842.15613	8310.7875
2844.68186	8329.2875
2847.20604	8315.4875
2849.72867	8341.6875
2852.24974	8336.1875
2854.76927	8341.7875
2857.28724	8323.8875
2859.80367	8319.1875
2862.31855	8280.7875
2864.83189	8289.5875
2867.34368	8250.7875
2869.85393	8249.8875
2872.36264	8241.1875
2874.8698	8253.3875
2877.37543	8241.5875
2879.87952	8245.1875
2882.38207	8235.5875
2884.88308	8240.0875
2887.38256	8247.0875
2889.88051	8238.8875
2892.37692	8231.9875
2894.8718	8203.2875
2897.36515	8249.4875
2899.85698	8233.9875
2902.34727	8230.1875
2904.83604	8232.1875
2907.32328	8261.0875
2909.809	8237.7875
2912.29319	8253.9875
2914.77587	8254.7875
2917.25702	8234.1875
2919.73665	8235.2875
2922.21476	8225.4875
2924.69136	8235.8875
2927.16644	8228.7875
2929.64	8222.4875
2932.11205	8206.7875
2934.58258	8198.8875
2937.05161	8236.9875
2939.51912	8221.7875
2941.98513	8221.6875
2944.44962	8174.1875
2946.91261	8148.9875
2949.37409	8167.5875
2951.83407	8141.2875
2954.29254	8126.5875
2956.74951	8121.9875
2959.20498	8108.1875
2961.65895	8086.0875
2964.11142	8092.4875
2966.56239	8079.3875
2969.01186	8072.8875
2971.45984	8039.4875
2973.90632	8027.4875
2976.35131	8006.9875
2978.7948	8008.6875
2981.23681	7985.1875
2983.67732	7975.8875
2986.11635	7968.5875
2988.55388	7932.5875
2990.98993	7912.3875
2993.4245	7901.1875
2995.85758	7877.9875
2998.28917	7837.3875
3000.71928	7846.3875
3003.14791	7837.4875
3005.57506	7846.1875
3008.00073	7843.0875
3010.42493	7810.4875
3012.84764	7786.5875
3015.26888	7793.7875
3017.68865	7772.1875
3020.10694	7770.3875
3022.52376	7735.9875
3024.9391	7734.7875
3027.35298	7730.9875
3029.76539	7734.8875
3032.17632	7720.2875
3034.5858	7700.3875
3036.9938	7688.4875
3039.40034	7668.2875
3041.80542	7692.8875
3044.20903	7677.8875
3046.61118	7664.5875
3049.01187	7648.1875
3051.4111	7634.3875
3053.80888	7638.9875
3056.20519	7602.4875
3058.60005	7616.2875
