Data from AgNP_FTO_APTES_CRN_20uM_R6G_10uM_NaF_0.1M_Addition_RamanShift__13__17-15-38-020.txt Node

Date: Wed Dec 15 17:15:38 GMT 2021
User: TCL
Spectrometer: QEP01345
Trigger mode: 4
Integration Time (sec): 7.000000E0
Scans to average: 10
Electric dark correction enabled: true
Nonlinearity correction enabled: false
Boxcar width: 0
XAxis mode: Raman Shifts
Number of Pixels in Spectrum: 1044
>>>>>Begin Spectral Data<<<<<
46.04893	0.225
50.45542	-0.875
54.85868	-0.275
59.25871	-0.575
63.6555	60.425
68.04907	65.625
72.43941	64.925
76.82654	72.325
81.21044	76.425
85.59113	80.725
89.96862	84.625
94.34289	80.725
98.71396	89.725
103.08183	94.225
107.4465	92.725
111.80798	95.325
116.16626	97.825
120.52136	99.425
124.87327	99.725
129.222	102.825
133.56755	110.125
137.90993	118.625
142.24913	123.225
146.58517	138.725
150.91804	156.625
155.24774	181.725
159.57429	227.225
163.89768	280.425
168.21792	366.125
172.53501	498.825
176.84895	682.325
181.15975	962.325
185.46741	1333.725
189.77193	1839.925
194.07331	2482.225
198.37157	3200.525
202.6667	3973.525
206.9587	4723.225
211.24758	5475.025
215.53334	6220.025
219.81599	6989.525
224.09553	7841.725
228.37195	8769.025
232.64527	9820.125
236.91549	10902.425
241.18261	12047.725
245.44663	13136.625
249.70755	14105.725
253.96539	14974.425
258.22014	15647.425
262.4718	16250.525
266.72039	16623.825
270.96589	16823.625
275.20832	16862.025
279.44768	16769.925
283.68397	16637.225
287.91719	16540.925
292.14735	16471.025
296.37445	16401.925
300.59849	16404.025
304.81948	16405.125
309.03742	16357.225
313.25231	16259.725
317.46415	16035.425
321.67296	15732.725
325.87872	15423.325
330.08145	15323.425
334.28114	15302.625
338.47781	15413.625
342.67145	15579.925
346.86207	15747.125
351.04966	16006.625
355.23424	16177.225
359.4158	16359.125
363.59435	16515.625
367.76989	16584.625
371.94243	16647.725
376.11196	16686.225
380.27849	16700.525
384.44203	16758.825
388.60257	16899.425
392.76012	17020.225
396.91468	17269.425
401.06626	17517.725
405.21485	17748.725
409.36047	17739.325
413.50311	17594.225
417.64277	17506.725
421.77947	17501.125
425.9132	17618.225
430.04396	17657.025
434.17176	17773.925
438.2966	17816.825
442.41849	17950.125
446.53742	18155.625
450.6534	18418.025
454.76644	18623.625
458.87653	18735.925
462.98368	18782.025
467.08789	18719.825
471.18916	18619.525
475.2875	18483.725
479.38291	18398.025
483.4754	18250.225
487.56496	18152.625
491.6516	18026.725
495.73531	17949.825
499.81612	17885.325
503.89401	17976.825
507.96899	18093.125
512.04106	18100.525
516.11023	18073.125
520.1765	17999.925
524.23987	17911.325
528.30034	17790.825
532.35792	17670.925
536.41261	17553.425
540.46441	17434.925
544.51333	17457.025
548.55936	17610.925
552.60252	17891.525
556.64279	18122.025
560.6802	18292.425
564.71473	18367.625
568.7464	18508.525
572.7752	18843.625
576.80114	19229.625
580.82422	19756.025
584.84444	20248.925
588.86181	20477.825
592.87633	20521.825
596.888	20380.325
600.89682	20105.525
604.9028	20239.225
608.90594	21006.025
612.90624	21883.725
616.90371	20961.925
620.89834	18824.225
624.89015	17883.325
628.87913	17769.625
632.86528	17925.025
636.84862	17999.425
640.82913	17875.425
644.80683	17615.925
648.78172	17394.525
652.75379	17308.925
656.72306	17453.125
660.68952	17547.525
664.65319	17625.225
668.61405	17472.725
672.57211	17472.025
676.52738	17464.225
680.47986	17457.425
684.42955	17421.925
688.37646	17372.625
692.32058	17420.925
696.26192	17546.725
700.20048	17720.625
704.13626	17860.225
708.06928	17946.125
711.99952	17927.725
715.927	17847.525
719.85171	17799.025
723.77365	17693.725
727.69284	17547.125
731.60928	17390.125
735.52295	17276.325
739.43388	17242.325
743.34206	17266.225
747.24749	17336.825
751.15017	17443.225
755.05012	17639.425
758.94733	17981.625
762.8418	18648.825
766.73354	19575.125
770.62254	20504.425
774.50882	20604.225
778.39237	19859.125
782.27321	18924.025
786.15132	18172.825
790.02671	17651.825
793.89938	17381.625
797.76935	17223.125
801.6366	17193.325
805.50115	17129.825
809.36299	17075.225
813.22213	17001.025
817.07857	16999.025
820.93231	16983.525
824.78336	16941.625
828.63172	16943.125
832.47738	16929.625
836.32036	16954.325
840.16066	16947.325
843.99827	16902.325
847.8332	16896.625
851.66546	16888.925
855.49504	16888.225
859.32195	16884.425
863.1462	16887.325
866.96777	16870.725
870.78668	16847.125
874.60293	16870.325
878.41652	16886.725
882.22745	16900.525
886.03573	16976.225
889.84136	16973.225
893.64433	16941.925
897.44466	16913.425
901.24235	16891.225
905.0374	16869.525
908.8298	16876.425
912.61957	16899.125
916.40671	17031.225
920.19121	17125.225
923.97308	17202.625
927.75233	17216.425
931.52895	17081.025
935.30295	16909.625
939.07433	16761.925
942.84309	16590.725
946.60924	16496.225
950.37278	16438.825
954.13371	16380.425
957.89203	16356.325
961.64774	16349.525
965.40086	16326.325
969.15137	16333.125
972.89929	16257.925
976.64461	16200.325
980.38733	16190.825
984.12747	16207.725
987.86502	16223.425
991.59999	16297.425
995.33237	16352.625
999.06217	16477.625
1002.78939	16662.325
1006.51404	16859.725
1010.23611	17100.725
1013.95561	17232.425
1017.67255	17248.825
1021.38692	17128.225
1025.09872	17005.125
1028.80796	16857.025
1032.51465	16780.425
1036.21877	16797.325
1039.92035	16864.525
1043.61937	16948.625
1047.31584	17040.225
1051.00976	17139.725
1054.70114	17280.625
1058.38998	17452.225
1062.07627	17730.825
1065.76003	18065.125
1069.44126	18446.625
1073.11995	18752.525
1076.79611	18962.125
1080.46974	18909.825
1084.14085	18705.225
1087.80943	18582.925
1091.47549	18543.425
1095.13903	18506.925
1098.80005	18374.125
1102.45857	18057.725
1106.11456	17746.725
1109.76805	17532.425
1113.41903	17434.625
1117.06751	17471.325
1120.71348	17558.125
1124.35696	17684.825
1127.99793	17836.825
1131.63641	17970.125
1135.2724	17912.025
1138.90589	17825.425
1142.5369	17828.425
1146.16542	17866.825
1149.79145	17927.725
1153.415	18009.525
1157.03607	18119.325
1160.65467	18362.225
1164.27079	18794.425
1167.88443	19348.225
1171.49561	20092.025
1175.10432	20958.725
1178.71056	22042.925
1182.31434	23084.725
1185.91565	23764.725
1189.51451	23982.325
1193.11091	23890.625
1196.70485	23380.425
1200.29634	22573.625
1203.88538	21938.225
1207.47197	21468.325
1211.05612	21042.125
1214.63782	20756.025
1218.21708	20382.925
1221.79391	19960.325
1225.36829	19663.225
1228.94024	19516.425
1232.50976	19455.225
1236.07685	19440.825
1239.6415	19429.325
1243.20374	19446.625
1246.76355	19540.425
1250.32093	19671.225
1253.8759	19947.825
1257.42845	20304.825
1260.97859	20731.025
1264.52631	21125.425
1268.07163	21527.725
1271.61453	21871.625
1275.15503	22139.925
1278.69312	22477.325
1282.22882	22797.025
1285.76211	23198.725
1289.29301	23605.825
1292.82151	24146.625
1296.34761	24801.125
1299.87133	25481.025
1303.39266	26274.225
1306.9116	27044.825
1310.42815	27755.525
1313.94233	28123.725
1317.45412	28194.825
1320.96354	28041.425
1324.47058	28021.625
1327.97525	28059.925
1331.47754	28177.025
1334.97747	28409.225
1338.47502	28711.725
1341.97022	29082.825
1345.46305	29469.625
1348.95352	29612.925
1352.44163	29542.025
1355.92738	29447.725
1359.41078	29474.125
1362.89183	29579.225
1366.37053	28931.325
1369.84688	27493.425
1373.32088	25614.625
1376.79254	24218.925
1380.26186	23447.125
1383.72883	23140.125
1387.19347	22929.025
1390.65578	22685.425
1394.11575	22467.625
1397.57339	22292.225
1401.0287	22275.625
1404.48168	22313.025
1407.93234	22207.225
1411.38068	21989.625
1414.82669	21579.525
1418.27039	21012.525
1421.71177	20489.025
1425.15083	20103.525
1428.58758	19845.925
1432.02203	19894.525
1435.45416	20135.725
1438.88399	20413.925
1442.31151	20661.525
1445.73673	20897.425
1449.15965	21033.125
1452.58027	21211.125
1455.9986	21339.325
1459.41463	21539.625
1462.82837	21894.325
1466.23982	22270.725
1469.64898	22606.525
1473.05586	22893.325
1476.46045	23023.125
1479.86276	23061.225
1483.26279	23076.725
1486.66054	23102.225
1490.05602	23274.825
1493.44922	23649.025
1496.84016	24078.725
1500.22882	24813.325
1503.61521	25649.525
1506.99934	26506.125
1510.38121	26937.825
1513.76081	26833.225
1517.13816	26299.925
1520.51324	25550.625
1523.88607	25012.925
1527.25665	24609.125
1530.62498	24412.325
1533.99105	24219.625
1537.35488	23912.725
1540.71647	23549.325
1544.07581	23028.425
1547.4329	22577.425
1550.78776	22202.225
1554.14038	21892.625
1557.49077	21820.725
1560.83892	21799.425
1564.18484	21936.525
1567.52853	22115.025
1570.86999	22389.125
1574.20922	22727.825
1577.54624	23060.925
1580.88103	23191.025
1584.2136	23132.225
1587.54395	23029.225
1590.87208	23007.725
1594.19801	23341.125
1597.52172	23904.225
1600.84321	24082.425
1604.16251	23496.925
1607.47959	22640.625
1610.79447	21653.325
1614.10715	20627.825
1617.41763	19613.125
1620.7259	18831.625
1624.03199	18299.825
1627.33587	18167.825
1630.63757	18324.225
1633.93707	18873.425
1637.23439	19852.125
1640.52951	21371.425
1643.82246	23251.425
1647.11321	24887.925
1650.40179	25630.425
1653.68819	24915.025
1656.97241	23047.125
1660.25446	20861.225
1663.53433	19000.725
1666.81203	17660.125
1670.08756	16788.725
1673.36092	16239.125
1676.63211	15849.525
1679.90115	15575.425
1683.16801	15370.525
1686.43272	15227.125
1689.69527	15145.425
1692.95567	15072.325
1696.2139	15000.225
1699.46999	15006.625
1702.72392	14903.125
1705.97571	14888.125
1709.22535	14871.725
1712.47284	14819.125
1715.71819	14826.825
1718.96139	14766.525
1722.20246	14699.925
1725.44139	14658.325
1728.67818	14622.825
1731.91284	14565.925
1735.14537	14466.425
1738.37576	14434.825
1741.60403	14383.625
1744.83017	14339.225
1748.05418	14330.425
1751.27607	14293.225
1754.49584	14293.325
1757.71349	14272.025
1760.92903	14279.225
1764.14244	14244.825
1767.35375	14234.825
1770.56294	14233.525
1773.77002	14201.825
1776.97499	14191.225
1780.17785	14175.225
1783.37861	14139.125
1786.57727	14100.025
1789.77382	14052.325
1792.96828	14029.025
1796.16064	14010.925
1799.3509	13963.625
1802.53907	13920.025
1805.72514	13907.125
1808.90913	13863.725
1812.09102	13852.925
1815.27083	13820.925
1818.44856	13811.525
1821.6242	13786.925
1824.79776	13746.325
1827.96924	13771.725
1831.13864	13758.625
1834.30597	13784.325
1837.47122	13785.525
1840.6344	13734.925
1843.7955	13735.925
1846.95454	13717.625
1850.11151	13700.025
1853.26642	13703.125
1856.41926	13698.525
1859.57004	13690.025
1862.71876	13675.725
1865.86542	13639.425
1869.01003	13611.225
1872.15258	13603.425
1875.29308	13589.825
1878.43152	13546.725
1881.56792	13559.725
1884.70227	13522.525
1887.83457	13481.425
1890.96482	13445.225
1894.09304	13446.125
1897.21921	13417.025
1900.34335	13416.525
1903.46544	13417.625
1906.58551	13396.625
1909.70353	13368.625
1912.81953	13353.425
1915.93349	13315.225
1919.04543	13274.125
1922.15534	13249.425
1925.26322	13239.725
1928.36908	13234.225
1931.47292	13188.925
1934.57473	13158.925
1937.67453	13102.525
1940.77232	13099.925
1943.86808	13087.725
1946.96184	13043.825
1950.05358	12966.025
1953.14331	12953.125
1956.23103	12922.525
1959.31675	12937.925
1962.40046	12866.725
1965.48217	12812.225
1968.56188	12776.225
1971.63959	12757.825
1974.7153	12696.225
1977.78901	12669.225
1980.86073	12592.425
1983.93046	12575.225
1986.99819	12563.725
1990.06394	12522.725
1993.1277	12485.525
1996.18947	12434.725
1999.24925	12389.125
2002.30706	12344.525
2005.36288	12320.825
2008.41672	12295.825
2011.46859	12246.425
2014.51848	12230.825
2017.56639	12166.925
2020.61233	12130.825
2023.6563	12104.925
2026.6983	12087.925
2029.73833	12064.325
2032.7764	12036.725
2035.8125	12018.525
2038.84664	11966.725
2041.87881	11961.825
2044.90903	11909.625
2047.93729	11893.225
2050.96359	11905.925
2053.98794	11874.525
2057.01034	11874.125
2060.03078	11845.025
2063.04927	11811.725
2066.06582	11807.125
2069.08042	11825.125
2072.09307	11804.225
2075.10378	11765.125
2078.11255	11763.025
2081.11938	11769.825
2084.12426	11762.425
2087.12722	11761.525
2090.12824	11747.925
2093.12732	11808.325
2096.12447	11789.225
2099.11969	11775.825
2102.11299	11773.025
2105.10435	11778.025
2108.09379	11771.125
2111.08131	11791.925
2114.0669	11802.725
2117.05057	11802.125
2120.03233	11774.525
2123.01216	11794.125
2125.99008	11821.225
2128.96609	11819.325
2131.94018	11844.725
2134.91236	11836.225
2137.88263	11846.925
2140.851	11858.925
2143.81746	11838.525
2146.78201	11872.825
2149.74466	11859.125
2152.7054	11844.025
2155.66425	11869.725
2158.6212	11851.025
2161.57625	11861.925
2164.52941	11825.225
2167.48067	11832.425
2170.43004	11829.425
2173.37752	11808.125
2176.32311	11806.525
2179.26681	11799.525
2182.20863	11809.225
2185.14856	11802.225
2188.08661	11762.025
2191.02278	11785.925
2193.95707	11764.425
2196.88948	11782.425
2199.82001	11730.625
2202.74867	11726.325
2205.67545	11690.925
2208.60037	11720.825
2211.52341	11690.425
2214.44458	11685.725
2217.36388	11639.425
2220.28132	11624.825
2223.1969	11582.425
2226.11061	11601.025
2229.02246	11581.125
2231.93245	11540.125
2234.84058	11510.025
2237.74686	11522.325
2240.65128	11503.225
2243.55385	11494.625
2246.45456	11456.825
2249.35343	11434.725
2252.25044	11415.025
2255.14561	11420.125
2258.03893	11373.325
2260.93041	11391.625
2263.82004	11358.225
2266.70783	11301.325
2269.59378	11278.725
2272.4779	11261.225
2275.36017	11212.525
2278.24061	11214.025
2281.11922	11174.025
2283.996	11167.725
2286.87094	11148.625
2289.74405	11106.925
2292.61534	11095.225
2295.4848	11078.125
2298.35243	11085.825
2301.21824	11063.225
2304.08223	11077.225
2306.94439	11059.025
2309.80474	11023.425
2312.66327	11009.025
2315.51999	10995.425
2318.37489	10984.125
2321.22797	10996.225
2324.07925	10950.525
2326.92871	10955.125
2329.77637	10955.725
2332.62222	10901.725
2335.46626	10885.125
2338.3085	10895.925
2341.14893	10871.925
2343.98756	10868.125
2346.8244	10857.725
2349.65943	10838.825
2352.49267	10858.725
2355.32411	10848.525
2358.15376	10833.325
2360.98161	10816.825
2363.80768	10832.125
2366.63195	10818.025
2369.45444	10792.725
2372.27514	10791.025
2375.09405	10770.425
2377.91118	10758.125
2380.72652	10758.625
2383.54009	10708.125
2386.35187	10719.425
2389.16188	10657.525
2391.97011	10661.525
2394.77657	10627.025
2397.58125	10607.425
2400.38416	10595.125
2403.18529	10581.625
2405.98466	10576.125
2408.78226	10553.625
2411.57809	10536.125
2414.37216	10508.125
2417.16446	10509.225
2419.955	10501.225
2422.74378	10453.925
2425.5308	10469.025
2428.31606	10458.925
2431.09956	10424.525
2433.88131	10418.125
2436.6613	10414.625
2439.43954	10424.625
2442.21603	10399.625
2444.99077	10360.625
2447.76377	10391.425
2450.53501	10386.125
2453.30451	10348.725
2456.07226	10333.725
2458.83827	10319.025
2461.60254	10332.725
2464.36507	10297.325
2467.12586	10319.325
2469.88492	10274.625
2472.64224	10281.325
2475.39782	10284.225
2478.15167	10289.925
2480.90379	10249.025
2483.65417	10268.725
2486.40283	10264.525
2489.14976	10240.425
2491.89497	10243.325
2494.63845	10246.625
2497.3802	10247.325
2500.12024	10227.725
2502.85855	10231.925
2505.59514	10208.225
2508.33002	10187.025
2511.06318	10174.225
2513.79462	10198.625
2516.52435	10187.425
2519.25237	10147.925
2521.97867	10146.525
2524.70327	10132.925
2527.42616	10131.525
2530.14734	10125.525
2532.86681	10097.525
2535.58458	10071.125
2538.30065	10050.425
2541.01501	10022.925
2543.72768	10036.225
2546.43864	10012.525
2549.14791	9999.825
2551.85548	9998.925
2554.56136	9970.025
2557.26554	9942.125
2559.96803	9960.825
2562.66883	9949.125
2565.36794	9933.625
2568.06536	9912.025
2570.7611	9894.425
2573.45514	9859.525
2576.14751	9855.225
2578.83819	9844.625
2581.52719	9819.125
2584.21451	9799.925
2586.90015	9823.925
2589.58411	9774.525
2592.2664	9768.625
2594.94701	9715.625
2597.62594	9735.725
2600.30321	9695.125
2602.9788	9711.825
2605.65273	9682.225
2608.32498	9633.325
2610.99557	9650.225
2613.66449	9644.025
2616.33175	9649.725
2618.99734	9621.025
2621.66128	9609.525
2624.32355	9572.725
2626.98416	9564.825
2629.64311	9571.425
2632.30041	9571.825
2634.95605	9558.725
2637.61004	9548.225
2640.26238	9528.425
2642.91306	9523.525
2645.56209	9548.825
2648.20948	9550.225
2650.85521	9516.525
2653.4993	9483.725
2656.14175	9493.325
2658.78255	9485.325
2661.42171	9497.925
2664.05923	9505.025
2666.6951	9493.225
2669.32934	9481.925
2671.96194	9481.625
2674.59291	9457.825
2677.22224	9463.725
2679.84993	9490.125
2682.476	9475.725
2685.10043	9474.125
2687.72324	9470.425
2690.34441	9494.525
2692.96396	9479.825
2695.58188	9482.225
2698.19818	9477.725
2700.81285	9473.125
2703.4259	9478.525
2706.03733	9549.425
2708.64714	9510.325
2711.25533	9485.325
2713.86191	9482.125
2716.46687	9509.125
2719.07021	9487.425
2721.67194	9477.025
2724.27206	9481.325
2726.87057	9455.925
2729.46747	9451.325
2732.06276	9474.025
2734.65644	9451.425
2737.24852	9464.325
2739.83899	9429.125
2742.42786	9431.925
2745.01513	9415.025
2747.60079	9406.525
2750.18486	9397.225
2752.76733	9390.025
2755.3482	9402.725
2757.92747	9367.425
2760.50515	9343.925
2763.08123	9354.925
2765.65573	9337.125
2768.22863	9313.125
2770.79994	9327.325
2773.36967	9294.425
2775.9378	9306.925
2778.50435	9278.325
2781.06932	9268.725
2783.6327	9251.625
2786.1945	9246.225
2788.75471	9238.625
2791.31335	9198.425
2793.87041	9199.725
2796.42589	9166.925
2798.97979	9173.525
2801.53212	9139.925
2804.08288	9138.325
2806.63206	9108.925
2809.17967	9081.525
2811.72571	9053.925
2814.27018	9060.525
2816.81308	9035.225
2819.35442	9044.625
2821.89419	9007.825
2824.43239	9021.325
2826.96904	8973.425
2829.50412	8988.825
2832.03763	8980.325
2834.56959	8961.625
2837.1	8945.825
2839.62884	8959.925
2842.15613	8930.825
2844.68186	8943.925
2847.20604	8921.325
2849.72867	8935.825
2852.24974	8906.225
2854.76927	8906.825
2857.28724	8935.025
2859.80367	8912.525
2862.31855	8893.925
2864.83189	8880.425
2867.34368	8840.925
2869.85393	8846.125
2872.36264	8842.625
2874.8698	8839.625
2877.37543	8844.925
2879.87952	8842.125
2882.38207	8832.525
2884.88308	8836.225
2887.38256	8831.025
2889.88051	8838.225
2892.37692	8819.525
2894.8718	8807.625
2897.36515	8812.825
2899.85698	8807.225
2902.34727	8814.725
2904.83604	8825.325
2907.32328	8812.125
2909.809	8812.525
2912.29319	8801.525
2914.77587	8816.325
2917.25702	8813.025
2919.73665	8791.725
2922.21476	8802.025
2924.69136	8801.825
2927.16644	8792.325
2929.64	8792.025
2932.11205	8794.625
2934.58258	8766.125
2937.05161	8765.025
2939.51912	8788.925
2941.98513	8757.425
2944.44962	8730.525
2946.91261	8696.225
2949.37409	8721.525
2951.83407	8716.125
2954.29254	8732.825
2956.74951	8679.825
2959.20498	8675.725
2961.65895	8658.425
2964.11142	8668.725
2966.56239	8663.225
2969.01186	8646.325
2971.45984	8625.325
2973.90632	8601.825
2976.35131	8581.625
2978.7948	8560.325
2981.23681	8560.725
2983.67732	8543.825
2986.11635	8554.925
2988.55388	8523.925
2990.98993	8498.625
2993.4245	8471.725
2995.85758	8457.625
2998.28917	8436.725
3000.71928	8434.825
3003.14791	8417.225
3005.57506	8383.025
3008.00073	8378.025
3010.42493	8364.825
3012.84764	8342.125
3015.26888	8322.425
3017.68865	8306.425
3020.10694	8317.525
3022.52376	8302.225
3024.9391	8309.725
3027.35298	8291.225
3029.76539	8296.325
3032.17632	8280.925
3034.5858	8255.225
3036.9938	8257.525
3039.40034	8229.625
3041.80542	8224.625
3044.20903	8208.225
3046.61118	8204.725
3049.01187	8187.925
3051.4111	8178.025
3053.80888	8184.425
3056.20519	8160.625
3058.60005	8122.025
3060.99345	8120.825
3063.3854	8112.825
3065.7759	8078.425
3068.16494	8063.725
3070.55254	8049.825
3072.93868	8060.425
3075.32338	8014.525
3077.70662	8004.625
3080.08842	7979.025
3082.46878	7976.225
3084.84769	7980.425
3087.22515	7966.725
3089.60118	7959.925
3091.97576	7957.025
3094.3489	7951.525
3096.72061	7957.225
3099.09087	7939.925
3101.4597	7917.325
3103.82709	7920.725
3106.19305	7913.725
3108.55757	7905.425
3110.92066	7886.425
3113.28232	7895.625
3115.64255	7857.925
3118.00134	7868.225
3120.35871	7852.325
3122.71466	7834.125
3125.06917	7805.225
3127.42226	7801.725
3129.77393	7826.725
3132.12417	7823.525
3134.47299	7810.825
3136.82039	7791.225
3139.16636	7800.025
3141.51092	7808.625
3143.85406	7812.325
3146.19579	7829.925
3148.53609	7838.425
3150.87499	7810.425
3153.21246	7798.425
3155.54853	7825.125
3157.88318	7815.625
