Data from AgNP_FTO_APTES_CRN_50uM_R6G_10uM_NaF_0.1M_Addition_RamanShift__4__17-50-38-059.txt Node

Date: Wed Dec 15 17:50:38 GMT 2021
User: TCL
Spectrometer: QEP01345
Trigger mode: 4
Integration Time (sec): 7.000000E0
Scans to average: 10
Electric dark correction enabled: true
Nonlinearity correction enabled: false
Boxcar width: 0
XAxis mode: Raman Shifts
Number of Pixels in Spectrum: 1044
>>>>>Begin Spectral Data<<<<<
46.04893	0.375
50.45542	-0.525
54.85868	-1.825
59.25871	-0.525
63.6555	60.175
68.04907	66.375
72.43941	66.675
76.82654	73.675
81.21044	75.675
85.59113	77.375
89.96862	84.275
94.34289	82.175
98.71396	85.975
103.08183	93.075
107.4465	94.675
111.80798	94.875
116.16626	98.775
120.52136	100.375
124.87327	102.275
129.222	107.275
133.56755	112.075
137.90993	119.775
142.24913	128.975
146.58517	144.675
150.91804	164.475
155.24774	193.775
159.57429	237.575
163.89768	303.875
168.21792	397.675
172.53501	541.275
176.84895	746.575
181.15975	1036.775
185.46741	1456.475
189.77193	1998.775
194.07331	2675.875
198.37157	3441.675
202.6667	4261.175
206.9587	5047.075
211.24758	5836.475
215.53334	6627.675
219.81599	7449.775
224.09553	8381.675
228.37195	9374.775
232.64527	10501.675
236.91549	11690.375
241.18261	12877.575
245.44663	14001.275
249.70755	15011.175
253.96539	15902.975
258.22014	16624.775
262.4718	17243.575
266.72039	17679.775
270.96589	17897.875
275.20832	17920.875
279.44768	17767.775
283.68397	17578.675
287.91719	17423.875
292.14735	17350.375
296.37445	17296.075
300.59849	17328.875
304.81948	17381.075
309.03742	17379.675
313.25231	17285.475
317.46415	17042.375
321.67296	16712.175
325.87872	16407.575
330.08145	16260.575
334.28114	16243.175
338.47781	16356.575
342.67145	16506.475
346.86207	16728.575
351.04966	17033.575
355.23424	17326.675
359.4158	17531.375
363.59435	17695.675
367.76989	17853.975
371.94243	17907.875
376.11196	17961.375
380.27849	18031.575
384.44203	18122.075
388.60257	18282.175
392.76012	18521.875
396.91468	18696.675
401.06626	18953.775
405.21485	19177.675
409.36047	19129.675
413.50311	19000.675
417.64277	18844.175
421.77947	18838.975
425.9132	18921.375
430.04396	19033.775
434.17176	19162.075
438.2966	19223.175
442.41849	19483.675
446.53742	19925.775
450.6534	20385.675
454.76644	20775.275
458.87653	20862.175
462.98368	20755.975
467.08789	20509.675
471.18916	20242.475
475.2875	20001.775
479.38291	19862.375
483.4754	19711.075
487.56496	19508.275
491.6516	19233.675
495.73531	19067.775
499.81612	19023.075
503.89401	19115.775
507.96899	19255.475
512.04106	19256.475
516.11023	19170.575
520.1765	19052.975
524.23987	18956.375
528.30034	18871.075
532.35792	18729.175
536.41261	18526.075
540.46441	18284.675
544.51333	18284.175
548.55936	18457.575
552.60252	18831.875
556.64279	19209.175
560.6802	19512.175
564.71473	19590.875
568.7464	19746.475
572.7752	20139.775
576.80114	20603.475
580.82422	21107.175
584.84444	21770.475
588.86181	22599.475
592.87633	23111.175
596.888	23013.875
600.89682	22293.475
604.9028	22135.275
608.90594	23185.675
612.90624	24462.375
616.90371	23155.975
620.89834	20155.175
624.89015	18850.475
628.87913	18702.575
632.86528	18754.475
636.84862	18718.975
640.82913	18495.175
644.80683	18147.675
648.78172	17946.775
652.75379	17922.275
656.72306	18062.475
660.68952	18254.575
664.65319	18182.275
668.61405	17958.575
672.57211	17905.275
676.52738	17974.475
680.47986	17946.275
684.42955	17887.275
688.37646	17820.175
692.32058	17928.275
696.26192	18138.875
700.20048	18362.575
704.13626	18498.575
708.06928	18537.475
711.99952	18508.475
715.927	18508.775
719.85171	18529.975
723.77365	18429.175
727.69284	18213.675
731.60928	18042.475
735.52295	17938.075
739.43388	17959.275
743.34206	17984.375
747.24749	18123.775
751.15017	18213.575
755.05012	18511.975
758.94733	18932.775
762.8418	19665.275
766.73354	20863.275
770.62254	21964.075
774.50882	22156.075
778.39237	21272.675
782.27321	20038.375
786.15132	19027.675
790.02671	18427.875
793.89938	18070.475
797.76935	18015.975
801.6366	17936.675
805.50115	17886.875
809.36299	17812.075
813.22213	17741.575
817.07857	17644.375
820.93231	17598.175
824.78336	17508.275
828.63172	17515.575
832.47738	17529.875
836.32036	17565.875
840.16066	17604.275
843.99827	17667.975
847.8332	17597.175
851.66546	17524.675
855.49504	17487.975
859.32195	17523.275
863.1462	17456.475
866.96777	17418.275
870.78668	17375.675
874.60293	17382.075
878.41652	17392.175
882.22745	17477.975
886.03573	17517.875
889.84136	17496.375
893.64433	17506.375
897.44466	17407.675
901.24235	17356.875
905.0374	17323.375
908.8298	17284.675
912.61957	17351.975
916.40671	17458.675
920.19121	17652.575
923.97308	17799.275
927.75233	17789.675
931.52895	17698.975
935.30295	17541.475
939.07433	17257.075
942.84309	17063.375
946.60924	16979.175
950.37278	16937.575
954.13371	16882.975
957.89203	16870.775
961.64774	16867.475
965.40086	16814.475
969.15137	16822.875
972.89929	16720.075
976.64461	16690.575
980.38733	16701.375
984.12747	16777.175
987.86502	16862.875
991.59999	16963.875
995.33237	17188.175
999.06217	17502.975
1002.78939	17850.975
1006.51404	18151.675
1010.23611	18369.375
1013.95561	18563.175
1017.67255	18549.775
1021.38692	18363.675
1025.09872	18111.275
1028.80796	18081.975
1032.51465	18283.175
1036.21877	18618.175
1039.92035	18724.875
1043.61937	18658.175
1047.31584	18502.675
1051.00976	18316.075
1054.70114	18258.675
1058.38998	18369.575
1062.07627	18580.975
1065.76003	18962.075
1069.44126	19343.775
1073.11995	19764.175
1076.79611	20054.875
1080.46974	19993.475
1084.14085	19795.675
1087.80943	19661.275
1091.47549	19574.175
1095.13903	19477.675
1098.80005	19199.575
1102.45857	18803.175
1106.11456	18512.475
1109.76805	18404.475
1113.41903	18394.175
1117.06751	18443.275
1120.71348	18576.275
1124.35696	18760.275
1127.99793	18954.875
1131.63641	19095.275
1135.2724	18992.975
1138.90589	18883.775
1142.5369	18893.175
1146.16542	18962.775
1149.79145	19027.275
1153.415	19200.675
1157.03607	19355.075
1160.65467	19887.975
1164.27079	20622.375
1167.88443	21608.275
1171.49561	22748.075
1175.10432	24161.275
1178.71056	25888.475
1182.31434	27522.475
1185.91565	28189.175
1189.51451	27843.675
1193.11091	26950.775
1196.70485	25895.675
1200.29634	24972.175
1203.88538	24408.775
1207.47197	24031.875
1211.05612	23677.975
1214.63782	23301.575
1218.21708	22832.675
1221.79391	22407.575
1225.36829	22042.575
1228.94024	21809.675
1232.50976	21572.375
1236.07685	21260.675
1239.6415	21098.275
1243.20374	21110.975
1246.76355	21266.875
1250.32093	21534.975
1253.8759	21957.875
1257.42845	22503.275
1260.97859	23052.275
1264.52631	23551.175
1268.07163	24155.975
1271.61453	24768.175
1275.15503	25358.075
1278.69312	26006.775
1282.22882	26587.375
1285.76211	27296.475
1289.29301	28181.275
1292.82151	29287.075
1296.34761	30665.375
1299.87133	32325.775
1303.39266	34100.675
1306.9116	35816.775
1310.42815	37290.575
1313.94233	37976.175
1317.45412	37815.375
1320.96354	37062.975
1324.47058	36325.475
1327.97525	35681.975
1331.47754	35220.175
1334.97747	34957.275
1338.47502	34636.775
1341.97022	34207.375
1345.46305	33772.575
1348.95352	33549.275
1352.44163	33778.975
1355.92738	34615.775
1359.41078	36155.575
1362.89183	37282.275
1366.37053	36791.275
1369.84688	34133.775
1373.32088	30803.475
1376.79254	28439.475
1380.26186	27507.275
1383.72883	27411.075
1387.19347	27303.675
1390.65578	26961.875
1394.11575	26828.375
1397.57339	27005.875
1401.0287	27397.475
1404.48168	27698.175
1407.93234	27663.075
1411.38068	27222.875
1414.82669	26514.375
1418.27039	25599.175
1421.71177	24602.675
1425.15083	23803.975
1428.58758	23395.575
1432.02203	23574.775
1435.45416	24059.975
1438.88399	24707.675
1442.31151	25180.375
1445.73673	25508.375
1449.15965	25647.675
1452.58027	25697.975
1455.9986	25661.275
1459.41463	25748.775
1462.82837	26088.375
1466.23982	26571.775
1469.64898	27094.575
1473.05586	27432.875
1476.46045	27559.075
1479.86276	27518.375
1483.26279	27329.175
1486.66054	27254.175
1490.05602	27388.375
1493.44922	27737.475
1496.84016	28007.175
1500.22882	28461.075
1503.61521	29204.075
1506.99934	30034.875
1510.38121	30663.275
1513.76081	30719.475
1517.13816	30074.775
1520.51324	29043.575
1523.88607	28215.175
1527.25665	27885.875
1530.62498	27737.775
1533.99105	27658.475
1537.35488	27403.175
1540.71647	26944.075
1544.07581	26334.175
1547.4329	25738.575
1550.78776	25185.375
1554.14038	24774.275
1557.49077	24589.775
1560.83892	24489.575
1564.18484	24547.875
1567.52853	24764.575
1570.86999	25246.275
1574.20922	25922.175
1577.54624	26640.875
1580.88103	26997.375
1584.2136	27213.075
1587.54395	27457.575
1590.87208	28119.675
1594.19801	29326.875
1597.52172	30624.075
1600.84321	31049.475
1604.16251	29921.175
1607.47959	27837.175
1610.79447	25520.275
1614.10715	23449.075
1617.41763	21869.175
1620.7259	20819.075
1624.03199	20299.975
1627.33587	20325.375
1630.63757	20831.775
1633.93707	21926.675
1637.23439	23795.375
1640.52951	26514.875
1643.82246	29766.075
1647.11321	32356.975
1650.40179	32876.975
1653.68819	30677.275
1656.97241	27029.675
1660.25446	23534.675
1663.53433	20918.575
1666.81203	19186.475
1670.08756	18100.075
1673.36092	17452.675
1676.63211	16943.375
1679.90115	16667.275
1683.16801	16446.575
1686.43272	16236.675
1689.69527	16112.875
1692.95567	16048.075
1696.2139	15993.475
1699.46999	15959.175
1702.72392	15915.675
1705.97571	15849.175
1709.22535	15827.975
1712.47284	15815.075
1715.71819	15761.175
1718.96139	15732.375
1722.20246	15706.675
1725.44139	15650.175
1728.67818	15582.075
1731.91284	15485.175
1735.14537	15392.375
1738.37576	15359.875
1741.60403	15295.675
1744.83017	15268.175
1748.05418	15264.375
1751.27607	15209.875
1754.49584	15184.275
1757.71349	15196.575
1760.92903	15187.975
1764.14244	15181.375
1767.35375	15167.775
1770.56294	15172.675
1773.77002	15146.975
1776.97499	15125.475
1780.17785	15105.375
1783.37861	15051.975
1786.57727	15016.175
1789.77382	14983.075
1792.96828	15001.075
1796.16064	14948.675
1799.3509	14902.575
1802.53907	14866.275
1805.72514	14817.475
1808.90913	14823.975
1812.09102	14776.475
1815.27083	14761.875
1818.44856	14717.875
1821.6242	14729.375
1824.79776	14713.275
1827.96924	14697.575
1831.13864	14703.575
1834.30597	14710.075
1837.47122	14700.375
1840.6344	14706.375
1843.7955	14664.975
1846.95454	14680.375
1850.11151	14671.175
1853.26642	14653.575
1856.41926	14658.475
1859.57004	14650.975
1862.71876	14625.475
1865.86542	14615.875
1869.01003	14641.775
1872.15258	14590.975
1875.29308	14564.675
1878.43152	14547.675
1881.56792	14530.075
1884.70227	14521.875
1887.83457	14496.775
1890.96482	14512.775
1894.09304	14481.675
1897.21921	14496.875
1900.34335	14470.175
1903.46544	14429.675
1906.58551	14426.375
1909.70353	14405.875
1912.81953	14380.675
1915.93349	14365.075
1919.04543	14323.975
1922.15534	14289.175
1925.26322	14300.975
1928.36908	14253.575
1931.47292	14216.475
1934.57473	14188.875
1937.67453	14147.975
1940.77232	14118.475
1943.86808	14094.675
1946.96184	14055.975
1950.05358	14057.675
1953.14331	14002.375
1956.23103	13966.075
1959.31675	13949.175
1962.40046	13909.875
1965.48217	13871.575
1968.56188	13840.575
1971.63959	13784.075
1974.7153	13716.775
1977.78901	13704.075
1980.86073	13659.675
1983.93046	13620.775
1986.99819	13603.275
1990.06394	13555.575
1993.1277	13503.375
1996.18947	13445.175
1999.24925	13408.475
2002.30706	13381.175
2005.36288	13366.375
2008.41672	13327.475
2011.46859	13301.075
2014.51848	13260.575
2017.56639	13240.475
2020.61233	13209.775
2023.6563	13191.975
2026.6983	13157.675
2029.73833	13119.275
2032.7764	13103.575
2035.8125	13087.575
2038.84664	13038.675
2041.87881	13040.775
2044.90903	13014.175
2047.93729	12986.575
2050.96359	12966.375
2053.98794	12986.975
2057.01034	12973.975
2060.03078	12965.975
2063.04927	12936.475
2066.06582	12936.475
2069.08042	12930.075
2072.09307	12926.075
2075.10378	12893.875
2078.11255	12890.075
2081.11938	12875.875
2084.12426	12891.175
2087.12722	12881.875
2090.12824	12912.375
2093.12732	12906.975
2096.12447	12918.875
2099.11969	12904.575
2102.11299	12914.775
2105.10435	12901.375
2108.09379	12941.875
2111.08131	12969.075
2114.0669	12974.975
2117.05057	12960.975
2120.03233	12960.875
2123.01216	12971.775
2125.99008	12954.975
2128.96609	12996.375
2131.94018	13024.875
2134.91236	12985.475
2137.88263	13034.175
2140.851	13011.375
2143.81746	13044.575
2146.78201	13035.675
2149.74466	13061.475
2152.7054	13050.575
2155.66425	13081.575
2158.6212	13068.075
2161.57625	13066.975
2164.52941	13060.575
2167.48067	13059.175
2170.43004	13045.375
2173.37752	13041.675
2176.32311	13031.975
2179.26681	13031.475
2182.20863	13057.875
2185.14856	13032.575
2188.08661	13019.075
2191.02278	13027.175
2193.95707	13027.175
2196.88948	13015.975
2199.82001	12987.675
2202.74867	12983.275
2205.67545	12993.175
2208.60037	13012.175
2211.52341	13001.175
2214.44458	12963.375
2217.36388	12957.875
2220.28132	12920.975
2223.1969	12907.875
2226.11061	12902.175
2229.02246	12870.675
2231.93245	12848.475
2234.84058	12829.575
2237.74686	12800.875
2240.65128	12808.775
2243.55385	12758.575
2246.45456	12755.975
2249.35343	12736.375
2252.25044	12711.175
2255.14561	12687.675
2258.03893	12706.775
2260.93041	12680.275
2263.82004	12660.975
2266.70783	12643.675
2269.59378	12607.875
2272.4779	12574.775
2275.36017	12542.575
2278.24061	12524.975
2281.11922	12489.575
2283.996	12484.275
2286.87094	12422.975
2289.74405	12440.675
2292.61534	12451.875
2295.4848	12432.975
2298.35243	12458.475
2301.21824	12416.275
2304.08223	12440.675
2306.94439	12411.275
2309.80474	12401.875
2312.66327	12413.175
2315.51999	12381.275
2318.37489	12393.575
2321.22797	12394.275
2324.07925	12364.675
2326.92871	12384.775
2329.77637	12374.475
2332.62222	12342.675
2335.46626	12342.075
2338.3085	12323.975
2341.14893	12303.775
2343.98756	12306.575
2346.8244	12292.275
2349.65943	12301.875
2352.49267	12288.175
2355.32411	12296.575
2358.15376	12271.375
2360.98161	12286.675
2363.80768	12278.575
2366.63195	12260.175
2369.45444	12245.875
2372.27514	12221.875
2375.09405	12211.875
2377.91118	12223.175
2380.72652	12183.975
2383.54009	12171.575
2386.35187	12160.775
2389.16188	12093.075
2391.97011	12081.275
2394.77657	12065.075
2397.58125	12069.475
2400.38416	12072.575
2403.18529	12048.675
2405.98466	12015.575
2408.78226	12003.575
2411.57809	12008.975
2414.37216	11952.875
2417.16446	11953.875
2419.955	11952.375
2422.74378	11949.375
2425.5308	11934.375
2428.31606	11902.675
2431.09956	11903.075
2433.88131	11908.475
2436.6613	11896.575
2439.43954	11907.075
2442.21603	11868.275
2444.99077	11843.675
2447.76377	11866.075
2450.53501	11881.875
2453.30451	11827.175
2456.07226	11831.575
2458.83827	11814.775
2461.60254	11824.475
2464.36507	11839.475
2467.12586	11832.575
2469.88492	11835.075
2472.64224	11811.075
2475.39782	11840.675
2478.15167	11836.675
2480.90379	11841.675
2483.65417	11831.875
2486.40283	11838.875
2489.14976	11839.975
2491.89497	11856.775
2494.63845	11867.075
2497.3802	11841.875
2500.12024	11858.475
2502.85855	11818.175
2505.59514	11810.775
2508.33002	11792.875
2511.06318	11805.075
2513.79462	11769.775
2516.52435	11768.275
2519.25237	11761.575
2521.97867	11756.175
2524.70327	11766.875
2527.42616	11753.475
2530.14734	11741.275
2532.86681	11713.075
2535.58458	11703.275
2538.30065	11691.875
2541.01501	11678.375
2543.72768	11684.375
2546.43864	11696.175
2549.14791	11678.375
2551.85548	11642.075
2554.56136	11640.775
2557.26554	11625.275
2559.96803	11611.375
2562.66883	11614.875
2565.36794	11632.175
2568.06536	11600.675
2570.7611	11596.975
2573.45514	11597.175
2576.14751	11590.375
2578.83819	11532.975
2581.52719	11555.775
2584.21451	11533.775
2586.90015	11522.875
2589.58411	11517.875
2592.2664	11481.175
2594.94701	11471.975
2597.62594	11453.875
2600.30321	11444.475
2602.9788	11458.875
2605.65273	11437.575
2608.32498	11424.675
2610.99557	11444.675
2613.66449	11439.375
2616.33175	11400.675
2618.99734	11409.175
2621.66128	11411.975
2624.32355	11390.575
2626.98416	11382.575
2629.64311	11376.475
2632.30041	11382.275
2634.95605	11367.575
2637.61004	11355.975
2640.26238	11325.775
2642.91306	11343.375
2645.56209	11322.075
2648.20948	11336.375
2650.85521	11327.775
2653.4993	11327.675
2656.14175	11323.875
2658.78255	11353.575
2661.42171	11338.075
2664.05923	11353.775
2666.6951	11318.175
2669.32934	11354.375
2671.96194	11346.575
2674.59291	11348.175
2677.22224	11339.575
2679.84993	11339.575
2682.476	11323.775
2685.10043	11348.175
2687.72324	11339.275
2690.34441	11333.275
2692.96396	11352.575
2695.58188	11335.975
2698.19818	11328.975
2700.81285	11349.575
2703.4259	11352.975
2706.03733	11399.675
2708.64714	11385.375
2711.25533	11382.475
2713.86191	11388.375
2716.46687	11397.575
2719.07021	11371.175
2721.67194	11397.075
2724.27206	11366.775
2726.87057	11397.675
2729.46747	11414.175
2732.06276	11380.375
2734.65644	11384.375
2737.24852	11405.975
2739.83899	11384.575
2742.42786	11389.975
2745.01513	11362.975
2747.60079	11369.075
2750.18486	11347.175
2752.76733	11349.175
2755.3482	11354.775
2757.92747	11372.975
2760.50515	11346.975
2763.08123	11323.875
2765.65573	11319.075
2768.22863	11314.875
2770.79994	11309.375
2773.36967	11300.875
2775.9378	11302.475
2778.50435	11293.075
2781.06932	11259.375
2783.6327	11291.975
2786.1945	11255.675
2788.75471	11254.075
2791.31335	11222.975
2793.87041	11241.275
2796.42589	11198.575
2798.97979	11213.975
2801.53212	11170.775
2804.08288	11153.075
2806.63206	11146.075
2809.17967	11099.975
2811.72571	11054.075
2814.27018	11086.075
2816.81308	11066.775
2819.35442	11053.375
2821.89419	11031.975
2824.43239	11043.275
2826.96904	11031.575
2829.50412	11032.475
2832.03763	10986.075
2834.56959	11000.375
2837.1	10980.975
2839.62884	10975.175
2842.15613	10981.475
2844.68186	11019.675
2847.20604	11017.475
2849.72867	10983.675
2852.24974	10998.075
2854.76927	11010.875
2857.28724	10997.075
2859.80367	10976.875
2862.31855	10945.375
2864.83189	10964.475
2867.34368	10941.675
2869.85393	10932.375
2872.36264	10954.075
2874.8698	10938.875
2877.37543	10946.875
2879.87952	10962.075
2882.38207	10943.175
2884.88308	10953.675
2887.38256	10941.375
2889.88051	10950.475
2892.37692	10951.775
2894.8718	10923.575
2897.36515	10967.375
2899.85698	10959.475
2902.34727	10967.175
2904.83604	10960.475
2907.32328	10980.775
2909.809	10983.975
2912.29319	10996.175
2914.77587	10988.275
2917.25702	10980.075
2919.73665	10973.275
2922.21476	10972.575
2924.69136	10985.275
2927.16644	10971.575
2929.64	10976.775
2932.11205	10951.175
2934.58258	10921.875
2937.05161	10977.975
2939.51912	10956.775
2941.98513	10936.475
2944.44962	10927.375
2946.91261	10870.875
2949.37409	10901.675
2951.83407	10889.875
2954.29254	10890.075
2956.74951	10872.275
2959.20498	10905.375
2961.65895	10871.275
2964.11142	10874.275
2966.56239	10848.675
2969.01186	10840.975
2971.45984	10818.175
2973.90632	10785.575
2976.35131	10772.275
2978.7948	10722.675
2981.23681	10731.575
2983.67732	10728.975
2986.11635	10704.675
2988.55388	10690.775
2990.98993	10677.775
2993.4245	10645.175
2995.85758	10650.375
2998.28917	10584.475
3000.71928	10605.675
3003.14791	10587.875
3005.57506	10578.675
3008.00073	10574.875
3010.42493	10567.475
3012.84764	10517.875
3015.26888	10516.575
3017.68865	10489.475
3020.10694	10492.575
3022.52376	10466.575
3024.9391	10471.375
3027.35298	10470.775
3029.76539	10451.075
3032.17632	10457.175
3034.5858	10438.575
3036.9938	10443.375
3039.40034	10420.375
3041.80542	10423.375
3044.20903	10420.575
3046.61118	10372.075
3049.01187	10368.775
3051.4111	10368.775
3053.80888	10364.175
3056.20519	10361.475
3058.60005	10295.175
3060.99345	10299.275
3063.3854	10274.375
3065.7759	10256.675
3068.16494	10240.475
3070.55254	10218.975
3072.93868	10226.675
3075.32338	10176.875
3077.70662	10166.075
3080.08842	10104.475
3082.46878	10134.075
3084.84769	10127.575
3087.22515	10112.375
3089.60118	10135.075
3091.97576	10127.475
3094.3489	10124.175
3096.72061	10115.575
3099.09087	10097.675
3101.4597	10087.375
3103.82709	10094.575
3106.19305	10077.975
3108.55757	10069.275
3110.92066	10061.075
3113.28232	10032.975
3115.64255	10019.175
3118.00134	9983.175
3120.35871	10019.275
3122.71466	9965.875
3125.06917	9959.175
3127.42226	9949.375
3129.77393	9982.375
