Data from AgNP_FTO_APTES_CRN_20uM_R6G_10uM_NaF_0.1M_Addition_RamanShift__31__17-36-38-033.txt Node

Date: Wed Dec 15 17:36:38 GMT 2021
User: TCL
Spectrometer: QEP01345
Trigger mode: 4
Integration Time (sec): 7.000000E0
Scans to average: 10
Electric dark correction enabled: true
Nonlinearity correction enabled: false
Boxcar width: 0
XAxis mode: Raman Shifts
Number of Pixels in Spectrum: 1044
>>>>>Begin Spectral Data<<<<<
46.04893	0.675
50.45542	-1.225
54.85868	-1.825
59.25871	-0.925
63.6555	62.275
68.04907	62.475
72.43941	65.975
76.82654	70.875
81.21044	72.475
85.59113	75.275
89.96862	77.875
94.34289	79.575
98.71396	80.175
103.08183	88.275
107.4465	91.475
111.80798	89.375
116.16626	93.375
120.52136	99.575
124.87327	99.175
129.222	102.675
133.56755	106.775
137.90993	111.375
142.24913	122.875
146.58517	134.075
150.91804	152.075
155.24774	179.075
159.57429	215.375
163.89768	276.375
168.21792	360.675
172.53501	488.775
176.84895	670.875
181.15975	942.575
185.46741	1317.675
189.77193	1804.875
194.07331	2427.975
198.37157	3131.775
202.6667	3875.175
206.9587	4610.775
211.24758	5330.775
215.53334	6079.275
219.81599	6883.175
224.09553	7790.275
228.37195	8760.175
232.64527	9855.275
236.91549	10998.475
241.18261	12107.975
245.44663	13077.375
249.70755	13881.275
253.96539	14579.175
258.22014	15261.075
262.4718	15801.575
266.72039	16243.475
270.96589	16491.875
275.20832	16555.775
279.44768	16406.675
283.68397	16199.675
287.91719	16093.575
292.14735	16088.975
296.37445	16232.275
300.59849	16485.775
304.81948	16834.575
309.03742	17082.475
313.25231	16992.475
317.46415	16412.975
321.67296	15562.275
325.87872	14829.575
330.08145	14510.175
334.28114	14491.075
338.47781	14691.375
342.67145	14988.575
346.86207	15405.575
351.04966	16018.475
355.23424	16692.075
359.4158	17271.275
363.59435	17569.175
367.76989	17691.675
371.94243	17760.175
376.11196	17731.675
380.27849	17711.875
384.44203	17613.375
388.60257	17505.575
392.76012	17516.775
396.91468	17702.575
401.06626	18088.875
405.21485	18372.075
409.36047	18168.975
413.50311	17633.375
417.64277	17073.375
421.77947	16786.275
425.9132	16669.775
430.04396	16685.375
434.17176	16819.375
438.2966	16992.075
442.41849	17315.375
446.53742	17743.175
450.6534	18203.875
454.76644	18544.175
458.87653	18671.975
462.98368	18636.575
467.08789	18407.175
471.18916	18064.075
475.2875	17724.575
479.38291	17440.275
483.4754	17200.175
487.56496	17017.675
491.6516	16790.675
495.73531	16701.075
499.81612	16652.475
503.89401	16815.175
507.96899	16868.175
512.04106	17028.175
516.11023	17254.975
520.1765	17376.775
524.23987	17397.775
528.30034	17233.775
532.35792	16963.775
536.41261	16699.975
540.46441	16448.275
544.51333	16330.375
548.55936	16387.175
552.60252	16689.575
556.64279	16996.975
560.6802	17147.375
564.71473	17267.875
568.7464	17637.675
572.7752	17918.475
576.80114	17765.275
580.82422	17482.175
584.84444	17405.075
588.86181	17475.975
592.87633	17613.075
596.888	17880.075
600.89682	18309.375
604.9028	19576.075
608.90594	22909.975
612.90624	27133.675
616.90371	26236.275
620.89834	20352.475
624.89015	17576.975
628.87913	17102.275
632.86528	17074.175
636.84862	17119.375
640.82913	16882.675
644.80683	16351.175
648.78172	16027.075
652.75379	16037.775
656.72306	16421.975
660.68952	16928.575
664.65319	16886.175
668.61405	16383.975
672.57211	16135.375
676.52738	16095.575
680.47986	16106.175
684.42955	16083.575
688.37646	16019.475
692.32058	16089.875
696.26192	16223.675
700.20048	16402.875
704.13626	16502.375
708.06928	16472.975
711.99952	16361.975
715.927	16297.175
719.85171	16329.775
723.77365	16295.875
727.69284	16168.075
731.60928	16049.475
735.52295	16039.075
739.43388	16075.675
743.34206	16140.975
747.24749	16150.975
751.15017	16281.975
755.05012	16552.075
758.94733	17033.875
762.8418	18173.475
766.73354	20107.575
770.62254	22204.075
774.50882	23176.675
778.39237	22181.975
782.27321	20048.975
786.15132	18045.575
790.02671	16866.875
793.89938	16334.575
797.76935	16178.675
801.6366	16038.775
805.50115	15974.675
809.36299	15921.275
813.22213	15853.275
817.07857	15838.875
820.93231	15836.575
824.78336	15874.375
828.63172	15913.375
832.47738	15983.175
836.32036	15999.875
840.16066	15984.375
843.99827	15993.375
847.8332	15931.075
851.66546	15864.675
855.49504	15820.675
859.32195	15795.175
863.1462	15744.275
866.96777	15668.575
870.78668	15643.175
874.60293	15616.975
878.41652	15710.775
882.22745	15732.075
886.03573	15778.075
889.84136	15768.875
893.64433	15685.475
897.44466	15630.975
901.24235	15597.775
905.0374	15601.675
908.8298	15592.675
912.61957	15582.575
916.40671	15666.975
920.19121	15804.975
923.97308	15937.275
927.75233	16061.075
931.52895	16128.175
935.30295	16023.075
939.07433	15713.475
942.84309	15441.875
946.60924	15283.075
950.37278	15208.975
954.13371	15119.175
957.89203	15022.375
961.64774	14997.875
965.40086	14940.275
969.15137	14889.275
972.89929	14853.675
976.64461	14814.175
980.38733	14816.175
984.12747	14883.875
987.86502	15015.275
991.59999	15115.075
995.33237	15317.875
999.06217	15718.875
1002.78939	16179.775
1006.51404	16474.675
1010.23611	16698.475
1013.95561	16834.875
1017.67255	16816.775
1021.38692	16647.275
1025.09872	16546.075
1028.80796	16649.475
1032.51465	17047.575
1036.21877	17438.275
1039.92035	17487.275
1043.61937	17315.075
1047.31584	16941.575
1051.00976	16594.475
1054.70114	16415.975
1058.38998	16391.575
1062.07627	16452.375
1065.76003	16583.675
1069.44126	16816.175
1073.11995	17074.475
1076.79611	17316.575
1080.46974	17511.875
1084.14085	17643.675
1087.80943	17693.475
1091.47549	17593.475
1095.13903	17255.775
1098.80005	16833.875
1102.45857	16453.475
1106.11456	16252.975
1109.76805	16312.475
1113.41903	16525.375
1117.06751	16782.775
1120.71348	17159.475
1124.35696	17518.075
1127.99793	17896.375
1131.63641	17935.075
1135.2724	17503.975
1138.90589	17025.375
1142.5369	16741.575
1146.16542	16549.375
1149.79145	16417.375
1153.415	16480.975
1157.03607	16586.275
1160.65467	16828.475
1164.27079	17253.475
1167.88443	17956.675
1171.49561	19093.575
1175.10432	20747.375
1178.71056	23013.575
1182.31434	24802.675
1185.91565	25459.275
1189.51451	25040.375
1193.11091	23851.775
1196.70485	22309.975
1200.29634	21110.675
1203.88538	20285.675
1207.47197	19497.275
1211.05612	18824.775
1214.63782	18433.975
1218.21708	18364.775
1221.79391	18392.775
1225.36829	18449.275
1228.94024	18436.775
1232.50976	18328.375
1236.07685	18255.675
1239.6415	18278.075
1243.20374	18364.475
1246.76355	18476.675
1250.32093	18728.675
1253.8759	19145.175
1257.42845	19654.275
1260.97859	20129.575
1264.52631	20518.775
1268.07163	20926.375
1271.61453	21400.175
1275.15503	21833.175
1278.69312	22223.275
1282.22882	22465.275
1285.76211	22793.475
1289.29301	23220.375
1292.82151	23750.975
1296.34761	24385.575
1299.87133	25260.275
1303.39266	26725.775
1306.9116	28917.075
1310.42815	31411.375
1313.94233	33052.775
1317.45412	32946.075
1320.96354	31551.875
1324.47058	29849.475
1327.97525	28318.275
1331.47754	27324.375
1334.97747	27003.275
1338.47502	27219.175
1341.97022	27623.575
1345.46305	28040.575
1348.95352	28536.075
1352.44163	29408.975
1355.92738	31085.575
1359.41078	34019.575
1362.89183	37259.775
1366.37053	36854.275
1369.84688	32605.075
1373.32088	28027.275
1376.79254	25076.875
1380.26186	23617.275
1383.72883	22936.575
1387.19347	22424.275
1390.65578	21937.375
1394.11575	21486.975
1397.57339	21370.375
1401.0287	21517.675
1404.48168	21796.275
1407.93234	22163.775
1411.38068	22320.975
1414.82669	22277.375
1418.27039	21812.275
1421.71177	21255.475
1425.15083	20723.375
1428.58758	20441.375
1432.02203	20473.575
1435.45416	20587.975
1438.88399	20775.575
1442.31151	20883.775
1445.73673	21013.175
1449.15965	21199.975
1452.58027	21244.575
1455.9986	21113.075
1459.41463	21075.875
1462.82837	21239.275
1466.23982	21591.575
1469.64898	21980.175
1473.05586	22320.675
1476.46045	22534.075
1479.86276	22788.875
1483.26279	23064.275
1486.66054	23413.775
1490.05602	23869.775
1493.44922	24412.175
1496.84016	25129.975
1500.22882	26224.975
1503.61521	27822.475
1506.99934	29862.175
1510.38121	31998.675
1513.76081	33316.875
1517.13816	32641.975
1520.51324	30161.575
1523.88607	27402.475
1527.25665	25294.675
1530.62498	24053.575
1533.99105	23346.875
1537.35488	22869.775
1540.71647	22604.575
1544.07581	22454.775
1547.4329	22289.175
1550.78776	22130.675
1554.14038	22049.175
1557.49077	22155.575
1560.83892	22353.775
1564.18484	22669.975
1567.52853	22999.775
1570.86999	23286.175
1574.20922	23647.875
1577.54624	23886.475
1580.88103	23673.475
1584.2136	23068.875
1587.54395	22649.475
1590.87208	22870.275
1594.19801	23807.375
1597.52172	25115.975
1600.84321	25773.575
1604.16251	24998.475
1607.47959	23508.775
1610.79447	21868.575
1614.10715	20306.775
1617.41763	19085.575
1620.7259	18310.375
1624.03199	17933.875
1627.33587	17922.275
1630.63757	18309.275
1633.93707	19048.475
1637.23439	20130.175
1640.52951	21579.575
1643.82246	23358.175
1647.11321	25257.975
1650.40179	26613.375
1653.68819	26008.075
1656.97241	23449.575
1660.25446	20429.975
1663.53433	18200.375
1666.81203	16828.275
1670.08756	15982.075
1673.36092	15487.275
1676.63211	15151.775
1679.90115	14902.875
1683.16801	14737.075
1686.43272	14627.575
1689.69527	14554.475
1692.95567	14474.775
1696.2139	14444.475
1699.46999	14427.375
1702.72392	14415.775
1705.97571	14362.075
1709.22535	14349.875
1712.47284	14333.975
1715.71819	14345.075
1718.96139	14329.075
1722.20246	14288.875
1725.44139	14248.975
1728.67818	14210.275
1731.91284	14106.275
1735.14537	14037.475
1738.37576	13973.575
1741.60403	13939.675
1744.83017	13941.775
1748.05418	13905.575
1751.27607	13896.075
1754.49584	13828.175
1757.71349	13855.075
1760.92903	13855.175
1764.14244	13859.275
1767.35375	13840.475
1770.56294	13829.375
1773.77002	13789.875
1776.97499	13788.675
1780.17785	13740.275
1783.37861	13740.275
1786.57727	13706.175
1789.77382	13692.175
1792.96828	13688.375
1796.16064	13651.975
1799.3509	13634.575
1802.53907	13618.675
1805.72514	13584.375
1808.90913	13560.575
1812.09102	13547.575
1815.27083	13513.675
1818.44856	13494.275
1821.6242	13487.675
1824.79776	13460.975
1827.96924	13461.875
1831.13864	13468.075
1834.30597	13450.975
1837.47122	13415.375
1840.6344	13450.475
1843.7955	13426.775
1846.95454	13423.475
1850.11151	13436.775
1853.26642	13424.275
1856.41926	13401.275
1859.57004	13427.575
1862.71876	13427.175
1865.86542	13414.075
1869.01003	13427.475
1872.15258	13399.075
1875.29308	13420.275
1878.43152	13396.875
1881.56792	13399.975
1884.70227	13387.775
1887.83457	13389.175
1890.96482	13361.775
1894.09304	13379.475
1897.21921	13389.975
1900.34335	13348.075
1903.46544	13340.675
1906.58551	13365.075
1909.70353	13345.575
1912.81953	13312.375
1915.93349	13321.075
1919.04543	13280.375
1922.15534	13287.775
1925.26322	13240.275
1928.36908	13237.175
1931.47292	13227.875
1934.57473	13155.375
1937.67453	13148.775
1940.77232	13070.175
1943.86808	13094.775
1946.96184	13020.075
1950.05358	12987.475
1953.14331	12963.475
1956.23103	12913.175
1959.31675	12914.475
1962.40046	12864.075
1965.48217	12815.775
1968.56188	12788.275
1971.63959	12746.375
1974.7153	12700.875
1977.78901	12693.575
1980.86073	12653.475
1983.93046	12592.875
1986.99819	12574.375
1990.06394	12513.275
1993.1277	12486.575
1996.18947	12417.875
1999.24925	12392.475
2002.30706	12377.375
2005.36288	12349.275
2008.41672	12325.175
2011.46859	12272.775
2014.51848	12241.175
2017.56639	12222.175
2020.61233	12187.475
2023.6563	12147.875
2026.6983	12124.575
2029.73833	12117.775
2032.7764	12084.175
2035.8125	12099.275
2038.84664	12047.675
2041.87881	12043.775
2044.90903	12007.675
2047.93729	12006.675
2050.96359	11987.575
2053.98794	11979.675
2057.01034	11975.675
2060.03078	11954.075
2063.04927	11941.575
2066.06582	11930.775
2069.08042	11905.975
2072.09307	11898.275
2075.10378	11882.675
2078.11255	11869.475
2081.11938	11853.575
2084.12426	11893.175
2087.12722	11866.075
2090.12824	11857.375
2093.12732	11868.875
2096.12447	11860.875
2099.11969	11878.375
2102.11299	11901.175
2105.10435	11858.575
2108.09379	11891.575
2111.08131	11909.175
2114.0669	11930.475
2117.05057	11900.475
2120.03233	11914.475
2123.01216	11920.375
2125.99008	11932.575
2128.96609	11927.275
2131.94018	11959.175
2134.91236	11958.875
2137.88263	11992.875
2140.851	11972.875
2143.81746	11987.475
2146.78201	12005.675
2149.74466	11986.575
2152.7054	12011.475
2155.66425	12005.675
2158.6212	12009.675
2161.57625	12019.175
2164.52941	12004.175
2167.48067	11975.675
2170.43004	11969.975
2173.37752	11989.075
2176.32311	11984.775
2179.26681	11984.875
2182.20863	12019.475
2185.14856	11982.175
2188.08661	11995.875
2191.02278	12004.175
2193.95707	11987.175
2196.88948	11948.475
2199.82001	11986.775
2202.74867	11958.675
2205.67545	11965.475
2208.60037	11938.675
2211.52341	11929.575
2214.44458	11932.475
2217.36388	11935.175
2220.28132	11913.175
2223.1969	11877.575
2226.11061	11873.975
2229.02246	11873.275
2231.93245	11837.675
2234.84058	11800.775
2237.74686	11774.575
2240.65128	11752.675
2243.55385	11736.375
2246.45456	11718.475
2249.35343	11696.575
2252.25044	11722.875
2255.14561	11703.675
2258.03893	11684.375
2260.93041	11677.075
2263.82004	11651.975
2266.70783	11632.175
2269.59378	11628.875
2272.4779	11575.475
2275.36017	11552.475
2278.24061	11549.475
2281.11922	11503.575
2283.996	11488.575
2286.87094	11463.675
2289.74405	11472.075
2292.61534	11430.475
2295.4848	11423.175
2298.35243	11450.175
2301.21824	11450.075
2304.08223	11423.175
2306.94439	11413.775
2309.80474	11436.875
2312.66327	11425.075
2315.51999	11442.375
2318.37489	11428.775
2321.22797	11414.875
2324.07925	11404.875
2326.92871	11416.275
2329.77637	11416.075
2332.62222	11363.975
2335.46626	11374.475
2338.3085	11373.975
2341.14893	11373.075
2343.98756	11409.075
2346.8244	11354.875
2349.65943	11374.575
2352.49267	11381.875
2355.32411	11388.075
2358.15376	11378.375
2360.98161	11367.975
2363.80768	11376.775
2366.63195	11373.975
2369.45444	11339.075
2372.27514	11317.575
2375.09405	11327.675
2377.91118	11303.275
2380.72652	11254.275
2383.54009	11212.475
2386.35187	11218.575
2389.16188	11154.875
2391.97011	11136.975
2394.77657	11150.975
2397.58125	11124.075
2400.38416	11099.475
2403.18529	11079.075
2405.98466	11052.975
2408.78226	11035.775
2411.57809	11018.175
2414.37216	11004.175
2417.16446	10978.575
2419.955	10951.475
2422.74378	10957.675
2425.5308	10930.175
2428.31606	10929.675
2431.09956	10920.575
2433.88131	10908.575
2436.6613	10930.575
2439.43954	10897.875
2442.21603	10910.475
2444.99077	10905.975
2447.76377	10898.675
2450.53501	10874.275
2453.30451	10873.775
2456.07226	10874.575
2458.83827	10865.175
2461.60254	10826.175
2464.36507	10845.375
2467.12586	10831.275
2469.88492	10848.575
2472.64224	10852.875
2475.39782	10859.775
2478.15167	10862.175
2480.90379	10885.775
2483.65417	10875.075
2486.40283	10873.175
2489.14976	10918.375
2491.89497	10900.275
2494.63845	10909.575
2497.3802	10893.175
2500.12024	10921.175
2502.85855	10871.175
2505.59514	10867.575
2508.33002	10854.775
2511.06318	10827.475
2513.79462	10797.175
2516.52435	10783.075
2519.25237	10793.175
2521.97867	10748.475
2524.70327	10748.575
2527.42616	10738.275
2530.14734	10710.675
2532.86681	10724.475
2535.58458	10719.475
2538.30065	10705.275
2541.01501	10680.175
2543.72768	10677.975
2546.43864	10668.275
2549.14791	10665.475
2551.85548	10646.175
2554.56136	10658.475
2557.26554	10626.475
2559.96803	10643.375
2562.66883	10604.675
2565.36794	10603.575
2568.06536	10618.575
2570.7611	10586.775
2573.45514	10602.375
2576.14751	10582.175
2578.83819	10535.275
2581.52719	10541.275
2584.21451	10538.275
2586.90015	10517.775
2589.58411	10502.775
2592.2664	10528.175
2594.94701	10496.175
2597.62594	10499.175
2600.30321	10476.075
2602.9788	10458.475
2605.65273	10467.275
2608.32498	10429.475
2610.99557	10451.875
2613.66449	10460.575
2616.33175	10441.775
2618.99734	10432.075
2621.66128	10445.475
2624.32355	10430.975
2626.98416	10441.375
2629.64311	10408.275
2632.30041	10439.875
2634.95605	10421.375
2637.61004	10387.475
2640.26238	10402.275
2642.91306	10376.675
2645.56209	10367.775
2648.20948	10363.275
2650.85521	10325.375
2653.4993	10317.075
2656.14175	10326.575
2658.78255	10336.375
2661.42171	10376.275
2664.05923	10343.275
2666.6951	10329.375
2669.32934	10355.975
2671.96194	10365.675
2674.59291	10353.375
2677.22224	10359.575
2679.84993	10387.075
2682.476	10335.775
2685.10043	10357.475
2687.72324	10353.675
2690.34441	10355.175
2692.96396	10342.875
2695.58188	10362.375
2698.19818	10332.175
2700.81285	10365.875
2703.4259	10354.375
2706.03733	10390.175
2708.64714	10358.675
2711.25533	10394.975
2713.86191	10352.075
2716.46687	10389.675
2719.07021	10373.975
2721.67194	10377.375
2724.27206	10364.475
2726.87057	10364.875
2729.46747	10361.875
2732.06276	10369.275
2734.65644	10348.375
2737.24852	10356.975
2739.83899	10345.275
2742.42786	10335.575
2745.01513	10300.575
2747.60079	10331.775
2750.18486	10319.475
2752.76733	10288.175
2755.3482	10308.675
2757.92747	10274.875
2760.50515	10308.075
2763.08123	10295.475
2765.65573	10277.675
2768.22863	10249.875
2770.79994	10232.375
2773.36967	10259.775
2775.9378	10248.975
2778.50435	10228.475
2781.06932	10218.675
2783.6327	10216.775
2786.1945	10210.975
2788.75471	10191.975
2791.31335	10173.475
2793.87041	10182.475
2796.42589	10131.575
2798.97979	10143.675
2801.53212	10135.875
2804.08288	10119.575
2806.63206	10108.975
2809.17967	10040.375
2811.72571	10049.875
2814.27018	10050.175
2816.81308	10058.175
2819.35442	10036.675
2821.89419	10041.375
2824.43239	10055.275
2826.96904	10038.775
2829.50412	10013.375
2832.03763	9994.775
2834.56959	10022.575
2837.1	10003.175
2839.62884	10025.775
2842.15613	9998.975
2844.68186	10045.375
2847.20604	10018.175
2849.72867	10025.475
2852.24974	10031.875
2854.76927	10045.175
2857.28724	10014.475
2859.80367	10018.975
2862.31855	9984.275
2864.83189	9952.275
2867.34368	9975.375
2869.85393	9981.275
2872.36264	9968.375
2874.8698	9940.875
2877.37543	9959.875
2879.87952	9989.275
2882.38207	9954.275
2884.88308	9943.575
2887.38256	9971.975
2889.88051	9971.375
2892.37692	9961.075
2894.8718	9973.075
2897.36515	9970.575
2899.85698	9975.575
2902.34727	9979.775
2904.83604	9970.075
2907.32328	9990.975
2909.809	9994.775
2912.29319	10001.775
2914.77587	10005.575
2917.25702	9987.375
2919.73665	9968.675
2922.21476	9970.375
2924.69136	9964.075
2927.16644	9964.875
2929.64	9955.775
2932.11205	9936.175
2934.58258	9907.775
2937.05161	9942.775
2939.51912	9928.175
2941.98513	9915.375
2944.44962	9897.475
2946.91261	9863.975
2949.37409	9854.975
2951.83407	9858.775
2954.29254	9859.675
2956.74951	9838.075
2959.20498	9844.675
2961.65895	9831.775
2964.11142	9831.475
2966.56239	9779.975
2969.01186	9793.475
2971.45984	9753.675
2973.90632	9723.175
2976.35131	9715.775
2978.7948	9684.775
2981.23681	9697.475
2983.67732	9682.875
2986.11635	9628.375
2988.55388	9624.975
2990.98993	9605.675
2993.4245	9606.975
2995.85758	9572.375
2998.28917	9565.375
3000.71928	9557.875
3003.14791	9546.975
3005.57506	9539.675
3008.00073	9509.375
3010.42493	9510.575
3012.84764	9496.975
3015.26888	9491.175
3017.68865	9444.475
3020.10694	9443.975
3022.52376	9442.075
3024.9391	9413.575
3027.35298	9404.575
3029.76539	9411.175
3032.17632	9410.875
3034.5858	9399.575
3036.9938	9373.575
3039.40034	9366.875
3041.80542	9368.875
3044.20903	9369.375
3046.61118	9344.075
3049.01187	9332.675
3051.4111	9317.775
3053.80888	9302.775
3056.20519	9288.675
3058.60005	9259.175
3060.99345	9238.375
3063.3854	9215.475
3065.7759	9200.475
3068.16494	9184.275
3070.55254	9170.975
3072.93868	9140.775
3075.32338	9104.375
3077.70662	9092.075
3080.08842	9091.775
3082.46878	9083.175
3084.84769	9063.375
3087.22515	9078.275
3089.60118	9074.775
3091.97576	9074.375
3094.3489	9055.475
3096.72061	9046.475
3099.09087	9054.175
3101.4597	9044.675
3103.82709	9031.375
3106.19305	9029.575
3108.55757	9030.575
3110.92066	8998.375
3113.28232	9003.275
3115.64255	8961.475
3118.00134	8945.975
3120.35871	8956.275
3122.71466	8948.075
3125.06917	8925.175
3127.42226	8908.975
3129.77393	8938.875
3132.12417	8928.475
3134.47299	8909.175
3136.82039	8931.875
3139.16636	8951.475
3141.51092	8895.675
3143.85406	8938.175
