Data from AgNP_FTO_APTES_CRN_10uM_R6G_10uM_NaF_0.1M_Addition_RamanShift__29__16-48-47-989.txt Node

Date: Wed Dec 15 16:48:47 GMT 2021
User: TCL
Spectrometer: QEP01345
Trigger mode: 4
Integration Time (sec): 7.000000E0
Scans to average: 10
Electric dark correction enabled: true
Nonlinearity correction enabled: false
Boxcar width: 0
XAxis mode: Raman Shifts
Number of Pixels in Spectrum: 1044
>>>>>Begin Spectral Data<<<<<
46.04893	0.575
50.45542	-1.425
54.85868	-0.225
59.25871	-0.325
63.6555	72.775
68.04907	79.975
72.43941	84.475
76.82654	90.475
81.21044	92.275
85.59113	94.875
89.96862	100.175
94.34289	99.075
98.71396	108.375
103.08183	110.575
107.4465	113.675
111.80798	111.675
116.16626	114.575
120.52136	120.075
124.87327	122.375
129.222	128.275
133.56755	129.875
137.90993	141.975
142.24913	150.475
146.58517	166.975
150.91804	194.575
155.24774	227.875
159.57429	283.575
163.89768	359.175
168.21792	462.975
172.53501	633.475
176.84895	872.275
181.15975	1218.575
185.46741	1699.675
189.77193	2343.075
194.07331	3119.175
198.37157	4024.575
202.6667	4974.675
206.9587	5907.475
211.24758	6878.375
215.53334	7842.675
219.81599	8922.475
224.09553	10117.975
228.37195	11436.775
232.64527	12884.275
236.91549	14339.475
241.18261	15703.175
245.44663	16869.175
249.70755	17832.475
253.96539	18638.975
258.22014	19427.575
262.4718	20082.275
266.72039	20614.175
270.96589	20951.575
275.20832	20984.875
279.44768	20827.375
283.68397	20574.575
287.91719	20466.075
292.14735	20553.775
296.37445	20885.775
300.59849	21447.275
304.81948	22075.375
309.03742	22481.675
313.25231	22359.475
317.46415	21478.675
321.67296	20053.775
325.87872	18893.175
330.08145	18285.175
334.28114	18190.075
338.47781	18452.375
342.67145	18898.875
346.86207	19581.175
351.04966	20527.575
355.23424	21601.875
359.4158	22457.375
363.59435	22830.375
367.76989	22913.575
371.94243	22862.175
376.11196	22738.675
380.27849	22590.175
384.44203	22397.275
388.60257	22199.375
392.76012	22135.075
396.91468	22345.075
401.06626	22801.775
405.21485	23193.275
409.36047	22858.775
413.50311	21888.775
417.64277	20973.075
421.77947	20397.575
425.9132	20244.275
430.04396	20237.775
434.17176	20319.075
438.2966	20558.375
442.41849	20998.175
446.53742	21588.075
450.6534	22145.475
454.76644	22561.375
458.87653	22675.775
462.98368	22574.075
467.08789	22260.975
471.18916	21870.175
475.2875	21386.375
479.38291	20927.775
483.4754	20635.275
487.56496	20342.875
491.6516	20140.275
495.73531	20016.075
499.81612	20041.975
503.89401	20254.375
507.96899	20414.475
512.04106	20720.575
516.11023	21063.075
520.1765	21340.375
524.23987	21375.675
528.30034	21113.675
532.35792	20686.675
536.41261	20212.675
540.46441	19719.175
544.51333	19527.775
548.55936	19668.375
552.60252	20059.875
556.64279	20551.375
560.6802	20749.675
564.71473	20999.075
568.7464	21598.475
572.7752	22069.275
576.80114	21726.775
580.82422	21281.575
584.84444	21022.675
588.86181	21019.175
592.87633	21180.175
596.888	21566.275
600.89682	22326.175
604.9028	24412.275
608.90594	29817.275
612.90624	36577.975
616.90371	35176.975
620.89834	25715.175
624.89015	21147.875
628.87913	20341.475
632.86528	20401.175
636.84862	20478.075
640.82913	20189.975
644.80683	19435.875
648.78172	18812.075
652.75379	18847.475
656.72306	19463.275
660.68952	20300.675
664.65319	20238.275
668.61405	19403.475
672.57211	18960.975
676.52738	18932.475
680.47986	18904.075
684.42955	18822.475
688.37646	18737.575
692.32058	18827.575
696.26192	19017.175
700.20048	19246.975
704.13626	19410.475
708.06928	19402.475
711.99952	19270.575
715.927	19189.175
719.85171	19226.075
723.77365	19150.575
727.69284	18951.075
731.60928	18776.575
735.52295	18728.675
739.43388	18765.575
743.34206	18801.575
747.24749	18932.875
751.15017	19077.975
755.05012	19436.975
758.94733	20287.775
762.8418	22154.475
766.73354	25381.675
770.62254	28844.375
774.50882	30249.275
778.39237	28669.675
782.27321	25265.075
786.15132	22056.675
790.02671	20141.575
793.89938	19282.175
797.76935	18931.075
801.6366	18781.775
805.50115	18680.375
809.36299	18550.975
813.22213	18440.275
817.07857	18441.775
820.93231	18388.175
824.78336	18472.775
828.63172	18577.775
832.47738	18656.275
836.32036	18711.175
840.16066	18724.575
843.99827	18654.875
847.8332	18544.275
851.66546	18434.775
855.49504	18399.075
859.32195	18363.875
863.1462	18229.775
866.96777	18148.875
870.78668	18062.175
874.60293	18094.675
878.41652	18149.975
882.22745	18218.375
886.03573	18287.175
889.84136	18237.975
893.64433	18159.275
897.44466	18127.675
901.24235	18094.075
905.0374	18082.375
908.8298	18060.075
912.61957	18062.075
916.40671	18229.675
920.19121	18422.875
923.97308	18600.475
927.75233	18783.875
931.52895	18917.975
935.30295	18741.575
939.07433	18271.775
942.84309	17821.375
946.60924	17570.275
950.37278	17409.775
954.13371	17331.575
957.89203	17234.375
961.64774	17175.975
965.40086	17115.975
969.15137	17093.875
972.89929	16987.475
976.64461	16975.675
980.38733	17011.875
984.12747	17077.575
987.86502	17182.975
991.59999	17356.075
995.33237	17639.075
999.06217	18104.675
1002.78939	18702.275
1006.51404	19138.575
1010.23611	19493.375
1013.95561	19738.075
1017.67255	19672.875
1021.38692	19412.675
1025.09872	19234.975
1028.80796	19308.475
1032.51465	19745.875
1036.21877	20204.775
1039.92035	20287.975
1043.61937	20136.575
1047.31584	19813.275
1051.00976	19429.675
1054.70114	19291.875
1058.38998	19367.075
1062.07627	19560.375
1065.76003	19903.175
1069.44126	20349.275
1073.11995	20970.375
1076.79611	21630.875
1080.46974	21999.475
1084.14085	22142.675
1087.80943	22042.475
1091.47549	21672.975
1095.13903	20946.075
1098.80005	20135.975
1102.45857	19466.675
1106.11456	19181.475
1109.76805	19250.475
1113.41903	19507.675
1117.06751	19983.175
1120.71348	20562.075
1124.35696	21216.675
1127.99793	21862.375
1131.63641	21942.575
1135.2724	21246.875
1138.90589	20525.075
1142.5369	20046.675
1146.16542	19675.575
1149.79145	19481.675
1153.415	19486.775
1157.03607	19690.875
1160.65467	20100.075
1164.27079	20807.875
1167.88443	21923.475
1171.49561	23689.675
1175.10432	26439.575
1178.71056	29973.775
1182.31434	32763.375
1185.91565	33580.975
1189.51451	32727.375
1193.11091	30797.375
1196.70485	28458.475
1200.29634	26624.275
1203.88538	25259.575
1207.47197	24007.575
1211.05612	22919.975
1214.63782	22293.875
1218.21708	22098.375
1221.79391	22158.475
1225.36829	22235.175
1228.94024	22315.175
1232.50976	22203.775
1236.07685	22156.775
1239.6415	22122.775
1243.20374	22148.975
1246.76355	22294.775
1250.32093	22596.275
1253.8759	23122.575
1257.42845	23841.475
1260.97859	24518.375
1264.52631	25234.975
1268.07163	25958.975
1271.61453	26669.975
1275.15503	27316.575
1278.69312	27790.775
1282.22882	28126.675
1285.76211	28642.275
1289.29301	29368.875
1292.82151	30131.875
1296.34761	31059.875
1299.87133	32478.275
1303.39266	34736.575
1306.9116	38173.075
1310.42815	42175.575
1313.94233	44882.975
1317.45412	44729.775
1320.96354	42476.575
1324.47058	39721.875
1327.97525	37316.175
1331.47754	35641.775
1334.97747	34951.775
1338.47502	35005.175
1341.97022	35463.375
1345.46305	36181.075
1348.95352	37316.075
1352.44163	39177.275
1355.92738	42178.875
1359.41078	47122.675
1362.89183	52494.075
1366.37053	52061.975
1369.84688	45242.275
1373.32088	38006.375
1376.79254	33272.475
1380.26186	30931.775
1383.72883	29777.375
1387.19347	28871.575
1390.65578	27894.075
1394.11575	27144.775
1397.57339	26833.275
1401.0287	26959.775
1404.48168	27223.575
1407.93234	27526.175
1411.38068	27626.775
1414.82669	27389.875
1418.27039	26848.275
1421.71177	26174.175
1425.15083	25516.775
1428.58758	25074.275
1432.02203	25023.575
1435.45416	25241.675
1438.88399	25496.775
1442.31151	25600.175
1445.73673	25789.375
1449.15965	26019.875
1452.58027	26085.775
1455.9986	25979.575
1459.41463	25967.775
1462.82837	26239.375
1466.23982	26708.875
1469.64898	27352.075
1473.05586	27764.575
1476.46045	28031.975
1479.86276	28346.475
1483.26279	28713.875
1486.66054	29205.275
1490.05602	29877.075
1493.44922	30819.275
1496.84016	32112.875
1500.22882	34152.675
1503.61521	37072.775
1506.99934	40683.575
1510.38121	44342.175
1513.76081	46643.675
1517.13816	45412.375
1520.51324	41315.175
1523.88607	36718.275
1527.25665	33204.875
1530.62498	31096.675
1533.99105	29839.975
1537.35488	29072.675
1540.71647	28566.775
1544.07581	28218.175
1547.4329	27946.175
1550.78776	27750.075
1554.14038	27687.475
1557.49077	27961.275
1560.83892	28350.775
1564.18484	28978.075
1567.52853	29749.375
1570.86999	30426.875
1574.20922	31346.475
1577.54624	32081.175
1580.88103	31857.775
1584.2136	30832.675
1587.54395	29782.275
1590.87208	29374.175
1594.19801	30227.575
1597.52172	31796.875
1600.84321	32451.475
1604.16251	31295.775
1607.47959	29164.075
1610.79447	26927.175
1614.10715	24796.075
1617.41763	23168.475
1620.7259	22079.575
1624.03199	21548.375
1627.33587	21577.175
1630.63757	22116.775
1633.93707	23168.975
1637.23439	24835.675
1640.52951	27091.975
1643.82246	29936.975
1647.11321	33069.275
1650.40179	35275.175
1653.68819	34609.975
1656.97241	30706.275
1660.25446	26040.175
1663.53433	22549.675
1666.81203	20414.175
1670.08756	19128.675
1673.36092	18290.075
1676.63211	17797.875
1679.90115	17432.675
1683.16801	17195.675
1686.43272	16995.575
1689.69527	16887.775
1692.95567	16817.075
1696.2139	16754.475
1699.46999	16729.275
1702.72392	16708.775
1705.97571	16662.275
1709.22535	16612.675
1712.47284	16591.775
1715.71819	16580.775
1718.96139	16554.175
1722.20246	16518.575
1725.44139	16480.775
1728.67818	16368.575
1731.91284	16251.975
1735.14537	16181.475
1738.37576	16116.075
1741.60403	16025.275
1744.83017	16005.775
1748.05418	15949.175
1751.27607	15934.875
1754.49584	15875.475
1757.71349	15901.975
1760.92903	15891.775
1764.14244	15881.275
1767.35375	15877.975
1770.56294	15852.475
1773.77002	15818.875
1776.97499	15803.975
1780.17785	15737.475
1783.37861	15701.975
1786.57727	15649.375
1789.77382	15622.275
1792.96828	15622.975
1796.16064	15598.575
1799.3509	15579.975
1802.53907	15577.075
1805.72514	15511.275
1808.90913	15476.475
1812.09102	15415.175
1815.27083	15405.475
1818.44856	15382.075
1821.6242	15382.675
1824.79776	15352.575
1827.96924	15337.775
1831.13864	15315.375
1834.30597	15356.075
1837.47122	15340.875
1840.6344	15325.575
1843.7955	15328.275
1846.95454	15311.875
1850.11151	15308.975
1853.26642	15331.375
1856.41926	15323.075
1859.57004	15311.175
1862.71876	15327.775
1865.86542	15337.475
1869.01003	15364.075
1872.15258	15348.075
1875.29308	15349.875
1878.43152	15309.875
1881.56792	15299.975
1884.70227	15314.275
1887.83457	15315.975
1890.96482	15302.175
1894.09304	15308.875
1897.21921	15305.475
1900.34335	15309.175
1903.46544	15309.175
1906.58551	15324.075
1909.70353	15312.175
1912.81953	15314.475
1915.93349	15287.875
1919.04543	15261.775
1922.15534	15235.275
1925.26322	15176.075
1928.36908	15163.575
1931.47292	15118.475
1934.57473	15071.475
1937.67453	15023.575
1940.77232	14981.075
1943.86808	14937.575
1946.96184	14884.675
1950.05358	14807.775
1953.14331	14777.275
1956.23103	14730.075
1959.31675	14701.075
1962.40046	14668.575
1965.48217	14620.775
1968.56188	14586.275
1971.63959	14520.275
1974.7153	14524.475
1977.78901	14448.875
1980.86073	14402.675
1983.93046	14364.175
1986.99819	14317.775
1990.06394	14252.175
1993.1277	14228.775
1996.18947	14149.375
1999.24925	14136.475
2002.30706	14099.675
2005.36288	14050.975
2008.41672	14046.975
2011.46859	13990.975
2014.51848	13937.775
2017.56639	13894.275
2020.61233	13876.975
2023.6563	13862.975
2026.6983	13844.575
2029.73833	13822.375
2032.7764	13779.475
2035.8125	13780.875
2038.84664	13711.575
2041.87881	13724.775
2044.90903	13687.475
2047.93729	13655.075
2050.96359	13670.075
2053.98794	13668.975
2057.01034	13654.675
2060.03078	13629.075
2063.04927	13590.875
2066.06582	13609.775
2069.08042	13582.475
2072.09307	13553.175
2075.10378	13540.775
2078.11255	13534.175
2081.11938	13513.475
2084.12426	13530.975
2087.12722	13534.775
2090.12824	13522.075
2093.12732	13536.675
2096.12447	13543.975
2099.11969	13515.875
2102.11299	13538.475
2105.10435	13520.275
2108.09379	13577.175
2111.08131	13588.975
2114.0669	13591.775
2117.05057	13597.775
2120.03233	13634.175
2123.01216	13606.575
2125.99008	13589.775
2128.96609	13644.075
2131.94018	13637.675
2134.91236	13642.775
2137.88263	13658.975
2140.851	13675.675
2143.81746	13707.875
2146.78201	13684.375
2149.74466	13700.475
2152.7054	13692.575
2155.66425	13678.675
2158.6212	13677.875
2161.57625	13670.375
2164.52941	13674.975
2167.48067	13681.875
2170.43004	13658.975
2173.37752	13651.975
2176.32311	13684.375
2179.26681	13669.075
2182.20863	13682.475
2185.14856	13674.675
2188.08661	13638.875
2191.02278	13671.975
2193.95707	13668.975
2196.88948	13642.775
2199.82001	13631.175
2202.74867	13651.075
2205.67545	13643.175
2208.60037	13645.275
2211.52341	13655.075
2214.44458	13650.875
2217.36388	13601.275
2220.28132	13568.575
2223.1969	13565.375
2226.11061	13553.775
2229.02246	13539.275
2231.93245	13470.175
2234.84058	13458.275
2237.74686	13440.775
2240.65128	13455.075
2243.55385	13425.475
2246.45456	13375.375
2249.35343	13392.075
2252.25044	13334.075
2255.14561	13337.675
2258.03893	13376.975
2260.93041	13379.575
2263.82004	13346.075
2266.70783	13305.475
2269.59378	13267.475
2272.4779	13231.375
2275.36017	13219.275
2278.24061	13185.875
2281.11922	13146.975
2283.996	13130.075
2286.87094	13149.175
2289.74405	13057.475
2292.61534	13045.975
2295.4848	13040.075
2298.35243	13071.975
2301.21824	13063.275
2304.08223	13069.575
2306.94439	13051.775
2309.80474	13066.975
2312.66327	13104.075
2315.51999	13091.875
2318.37489	13051.575
2321.22797	13071.975
2324.07925	13075.475
2326.92871	13028.475
2329.77637	13047.675
2332.62222	13035.175
2335.46626	13019.275
2338.3085	13032.875
2341.14893	13033.675
2343.98756	13049.975
2346.8244	13031.675
2349.65943	13047.475
2352.49267	13048.575
2355.32411	13053.175
2358.15376	13053.175
2360.98161	13046.875
2363.80768	13031.775
2366.63195	13045.075
2369.45444	13037.375
2372.27514	13013.975
2375.09405	13008.575
2377.91118	12958.275
2380.72652	12950.775
2383.54009	12890.775
2386.35187	12858.975
2389.16188	12809.475
2391.97011	12799.775
2394.77657	12772.175
2397.58125	12760.775
2400.38416	12748.275
2403.18529	12710.475
2405.98466	12669.975
2408.78226	12651.875
2411.57809	12606.275
2414.37216	12607.175
2417.16446	12585.575
2419.955	12558.975
2422.74378	12563.075
2425.5308	12550.275
2428.31606	12532.275
2431.09956	12552.575
2433.88131	12506.375
2436.6613	12546.775
2439.43954	12516.375
2442.21603	12515.175
2444.99077	12495.975
2447.76377	12526.675
2450.53501	12513.775
2453.30451	12530.875
2456.07226	12496.375
2458.83827	12488.575
2461.60254	12501.175
2464.36507	12497.575
2467.12586	12480.075
2469.88492	12486.075
2472.64224	12491.775
2475.39782	12496.475
2478.15167	12536.675
2480.90379	12538.675
2483.65417	12554.375
2486.40283	12560.475
2489.14976	12616.975
2491.89497	12573.275
2494.63845	12632.975
2497.3802	12597.175
2500.12024	12569.475
2502.85855	12604.475
2505.59514	12578.475
2508.33002	12537.875
2511.06318	12501.175
2513.79462	12448.875
2516.52435	12444.575
2519.25237	12427.275
2521.97867	12395.375
2524.70327	12389.775
2527.42616	12370.575
2530.14734	12381.975
2532.86681	12368.175
2535.58458	12348.875
2538.30065	12327.875
2541.01501	12347.775
2543.72768	12332.275
2546.43864	12350.875
2549.14791	12319.575
2551.85548	12322.175
2554.56136	12281.575
2557.26554	12265.375
2559.96803	12290.575
2562.66883	12300.675
2565.36794	12249.575
2568.06536	12247.475
2570.7611	12241.375
2573.45514	12239.275
2576.14751	12218.575
2578.83819	12209.275
2581.52719	12196.275
2584.21451	12159.775
2586.90015	12188.475
2589.58411	12165.575
2592.2664	12163.975
2594.94701	12135.375
2597.62594	12158.775
2600.30321	12115.775
2602.9788	12120.875
2605.65273	12120.975
2608.32498	12083.675
2610.99557	12069.575
2613.66449	12120.975
2616.33175	12086.075
2618.99734	12095.375
2621.66128	12078.875
2624.32355	12101.375
2626.98416	12097.575
2629.64311	12123.575
2632.30041	12098.675
2634.95605	12070.875
2637.61004	12072.675
2640.26238	12040.875
2642.91306	12023.375
2645.56209	11993.275
2648.20948	12010.075
2650.85521	11987.375
2653.4993	11974.775
2656.14175	11983.075
2658.78255	11981.975
2661.42171	11961.975
2664.05923	12010.275
2666.6951	12003.675
2669.32934	12004.575
2671.96194	12012.375
2674.59291	12012.275
2677.22224	12017.275
2679.84993	12024.975
2682.476	12010.875
2685.10043	12054.475
2687.72324	12002.775
2690.34441	12008.475
2692.96396	12005.875
2695.58188	12005.375
2698.19818	12002.975
2700.81285	12024.275
2703.4259	12021.475
2706.03733	12094.475
2708.64714	12061.175
2711.25533	12046.775
2713.86191	12045.175
2716.46687	12063.475
2719.07021	12060.775
2721.67194	12060.975
2724.27206	12047.275
2726.87057	12045.075
2729.46747	12048.975
2732.06276	12075.075
2734.65644	12071.975
2737.24852	12066.975
2739.83899	12035.575
2742.42786	12020.775
2745.01513	11992.475
2747.60079	11978.175
2750.18486	12008.375
2752.76733	11999.875
2755.3482	12017.375
2757.92747	12000.275
2760.50515	11981.875
2763.08123	11978.075
2765.65573	11950.775
2768.22863	11960.075
2770.79994	11925.575
2773.36967	11930.375
2775.9378	11919.175
2778.50435	11913.975
2781.06932	11883.775
2783.6327	11915.475
2786.1945	11884.275
2788.75471	11886.175
2791.31335	11876.375
2793.87041	11835.875
2796.42589	11797.375
2798.97979	11802.775
2801.53212	11800.775
2804.08288	11812.075
2806.63206	11760.475
2809.17967	11731.675
2811.72571	11727.775
2814.27018	11721.675
2816.81308	11738.875
2819.35442	11741.275
2821.89419	11728.975
2824.43239	11725.475
2826.96904	11744.375
2829.50412	11760.375
2832.03763	11721.675
2834.56959	11732.475
2837.1	11704.575
2839.62884	11720.875
2842.15613	11725.075
2844.68186	11786.075
2847.20604	11815.675
2849.72867	11834.875
2852.24974	11844.975
2854.76927	11824.275
2857.28724	11852.575
2859.80367	11832.575
2862.31855	11802.775
2864.83189	11813.975
2867.34368	11775.075
2869.85393	11764.275
2872.36264	11767.775
2874.8698	11762.975
2877.37543	11775.175
2879.87952	11792.375
2882.38207	11781.775
2884.88308	11785.375
2887.38256	11775.675
2889.88051	11782.575
2892.37692	11763.675
2894.8718	11790.675
2897.36515	11792.175
2899.85698	11793.475
2902.34727	11805.475
2904.83604	11828.075
2907.32328	11833.875
2909.809	11815.175
2912.29319	11843.875
2914.77587	11840.675
2917.25702	11834.375
2919.73665	11806.775
2922.21476	11811.475
2924.69136	11815.575
2927.16644	11802.875
2929.64	11795.975
2932.11205	11783.275
2934.58258	11726.375
2937.05161	11760.375
2939.51912	11753.375
2941.98513	11686.275
2944.44962	11647.075
2946.91261	11572.675
2949.37409	11606.175
2951.83407	11605.375
2954.29254	11604.075
2956.74951	11572.475
2959.20498	11570.675
2961.65895	11541.075
2964.11142	11559.475
2966.56239	11524.075
2969.01186	11515.775
2971.45984	11476.875
2973.90632	11440.975
2976.35131	11375.975
2978.7948	11365.275
2981.23681	11329.575
2983.67732	11342.875
2986.11635	11334.175
2988.55388	11292.775
2990.98993	11281.375
2993.4245	11246.275
2995.85758	11245.475
2998.28917	11214.775
3000.71928	11177.275
3003.14791	11191.075
3005.57506	11190.675
3008.00073	11179.675
3010.42493	11163.175
3012.84764	11146.675
3015.26888	11130.775
3017.68865	11118.175
3020.10694	11073.675
3022.52376	11086.875
3024.9391	11081.475
3027.35298	11069.275
3029.76539	11070.075
3032.17632	11054.875
3034.5858	11009.875
3036.9938	10994.375
3039.40034	11003.575
3041.80542	10983.975
3044.20903	10937.975
3046.61118	10946.975
3049.01187	10921.075
3051.4111	10944.575
3053.80888	10901.575
3056.20519	10884.875
3058.60005	10861.975
3060.99345	10847.275
3063.3854	10828.075
3065.7759	10781.275
3068.16494	10791.275
3070.55254	10761.375
3072.93868	10742.175
3075.32338	10722.275
3077.70662	10679.575
3080.08842	10642.675
3082.46878	10670.075
3084.84769	10627.775
3087.22515	10628.075
3089.60118	10656.575
3091.97576	10634.475
3094.3489	10647.375
3096.72061	10621.375
3099.09087	10626.175
3101.4597	10618.075
3103.82709	10605.475
3106.19305	10561.075
3108.55757	10602.875
3110.92066	10550.675
3113.28232	10549.575
3115.64255	10528.975
3118.00134	10509.275
3120.35871	10516.175
3122.71466	10502.075
3125.06917	10475.575
3127.42226	10470.875
