Data from AgNP_FTO_APTES_CRN_1000uM_R6G_10uM_NaF_0.1M_Addition_RamanShift__13__21-05-28-280.txt Node

Date: Wed Dec 15 21:05:28 GMT 2021
User: TCL
Spectrometer: QEP01345
Trigger mode: 4
Integration Time (sec): 7.000000E0
Scans to average: 10
Electric dark correction enabled: true
Nonlinearity correction enabled: false
Boxcar width: 0
XAxis mode: Raman Shifts
Number of Pixels in Spectrum: 1044
>>>>>Begin Spectral Data<<<<<
46.04893	0.8875
50.45542	-1.6125
54.85868	-1.2125
59.25871	-0.7125
63.6555	48.9875
68.04907	52.0875
72.43941	54.3875
76.82654	58.0875
81.21044	61.9875
85.59113	62.0875
89.96862	66.2875
94.34289	61.7875
98.71396	66.4875
103.08183	69.4875
107.4465	75.4875
111.80798	76.3875
116.16626	77.5875
120.52136	79.2875
124.87327	81.3875
129.222	84.2875
133.56755	87.0875
137.90993	92.6875
142.24913	105.0875
146.58517	113.5875
150.91804	133.4875
155.24774	155.7875
159.57429	187.9875
163.89768	237.9875
168.21792	311.6875
172.53501	424.7875
176.84895	589.9875
181.15975	822.9875
185.46741	1155.6875
189.77193	1591.5875
194.07331	2146.6875
198.37157	2774.2875
202.6667	3447.7875
206.9587	4119.5875
211.24758	4768.1875
215.53334	5409.3875
219.81599	6083.4875
224.09553	6809.7875
228.37195	7608.0875
232.64527	8481.8875
236.91549	9426.1875
241.18261	10396.5875
245.44663	11294.6875
249.70755	12128.9875
253.96539	12855.6875
258.22014	13391.0875
262.4718	13848.6875
266.72039	14134.2875
270.96589	14275.8875
275.20832	14271.3875
279.44768	14178.1875
283.68397	14086.3875
287.91719	13960.5875
292.14735	13862.2875
296.37445	13795.8875
300.59849	13744.3875
304.81948	13692.9875
309.03742	13598.7875
313.25231	13493.7875
317.46415	13292.2875
321.67296	13030.7875
325.87872	12830.3875
330.08145	12735.0875
334.28114	12767.3875
338.47781	12885.6875
342.67145	12963.4875
346.86207	13092.1875
351.04966	13268.3875
355.23424	13417.3875
359.4158	13526.9875
363.59435	13651.9875
367.76989	13736.8875
371.94243	13823.4875
376.11196	13847.3875
380.27849	13917.6875
384.44203	13980.6875
388.60257	14084.4875
392.76012	14212.0875
396.91468	14348.8875
401.06626	14548.9875
405.21485	14729.6875
409.36047	14743.9875
413.50311	14695.2875
417.64277	14645.5875
421.77947	14590.8875
425.9132	14637.6875
430.04396	14726.0875
434.17176	14813.2875
438.2966	14930.2875
442.41849	15063.3875
446.53742	15294.1875
450.6534	15488.0875
454.76644	15647.2875
458.87653	15767.0875
462.98368	15802.3875
467.08789	15813.6875
471.18916	15794.7875
475.2875	15728.1875
479.38291	15700.5875
483.4754	15672.2875
487.56496	15598.2875
491.6516	15480.5875
495.73531	15378.2875
499.81612	15345.1875
503.89401	15355.1875
507.96899	15383.9875
512.04106	15438.2875
516.11023	15439.9875
520.1765	15417.6875
524.23987	15349.0875
528.30034	15299.9875
532.35792	15173.4875
536.41261	15111.0875
540.46441	15055.7875
544.51333	15097.6875
548.55936	15212.4875
552.60252	15407.8875
556.64279	15625.4875
560.6802	15748.6875
564.71473	15857.0875
568.7464	15986.9875
572.7752	16294.8875
576.80114	16623.8875
580.82422	16874.2875
584.84444	17065.4875
588.86181	17046.5875
592.87633	17038.7875
596.888	16954.2875
600.89682	16932.5875
604.9028	17092.6875
608.90594	17610.2875
612.90624	18124.3875
616.90371	17464.2875
620.89834	16035.6875
624.89015	15380.9875
628.87913	15313.3875
632.86528	15396.5875
636.84862	15487.1875
640.82913	15439.8875
644.80683	15271.9875
648.78172	15119.3875
652.75379	15049.7875
656.72306	15136.0875
660.68952	15225.0875
664.65319	15253.3875
668.61405	15206.0875
672.57211	15250.0875
676.52738	15310.0875
680.47986	15375.5875
684.42955	15328.4875
688.37646	15324.7875
692.32058	15343.0875
696.26192	15348.8875
700.20048	15424.7875
704.13626	15552.8875
708.06928	15542.7875
711.99952	15575.1875
715.927	15521.8875
719.85171	15443.6875
723.77365	15368.0875
727.69284	15258.6875
731.60928	15101.7875
735.52295	15017.2875
739.43388	14996.5875
743.34206	15052.2875
747.24749	15049.4875
751.15017	15133.4875
755.05012	15287.7875
758.94733	15517.0875
762.8418	15984.7875
766.73354	16683.9875
770.62254	17254.7875
774.50882	17314.7875
778.39237	16828.7875
782.27321	16156.8875
786.15132	15597.5875
790.02671	15221.3875
793.89938	15015.2875
797.76935	14904.6875
801.6366	14856.4875
805.50115	14818.4875
809.36299	14765.2875
813.22213	14735.5875
817.07857	14753.6875
820.93231	14760.7875
824.78336	14723.0875
828.63172	14723.4875
832.47738	14690.7875
836.32036	14681.1875
840.16066	14656.4875
843.99827	14642.7875
847.8332	14639.1875
851.66546	14633.3875
855.49504	14670.0875
859.32195	14646.2875
863.1462	14646.6875
866.96777	14621.0875
870.78668	14629.8875
874.60293	14668.9875
878.41652	14631.0875
882.22745	14672.3875
886.03573	14702.5875
889.84136	14694.8875
893.64433	14738.8875
897.44466	14701.3875
901.24235	14701.1875
905.0374	14681.3875
908.8298	14674.5875
912.61957	14678.4875
916.40671	14800.1875
920.19121	14889.2875
923.97308	14920.0875
927.75233	14863.7875
931.52895	14798.3875
935.30295	14660.1875
939.07433	14539.1875
942.84309	14397.8875
946.60924	14308.0875
950.37278	14231.3875
954.13371	14218.8875
957.89203	14189.6875
961.64774	14188.9875
965.40086	14179.6875
969.15137	14152.4875
972.89929	14106.6875
976.64461	14049.8875
980.38733	14051.0875
984.12747	14056.7875
987.86502	14074.9875
991.59999	14087.3875
995.33237	14134.8875
999.06217	14237.2875
1002.78939	14330.8875
1006.51404	14432.0875
1010.23611	14534.5875
1013.95561	14632.4875
1017.67255	14675.7875
1021.38692	14623.3875
1025.09872	14556.0875
1028.80796	14461.0875
1032.51465	14433.2875
1036.21877	14444.6875
1039.92035	14489.0875
1043.61937	14560.5875
1047.31584	14603.1875
1051.00976	14679.5875
1054.70114	14793.7875
1058.38998	14894.5875
1062.07627	15084.9875
1065.76003	15322.9875
1069.44126	15558.5875
1073.11995	15791.3875
1076.79611	15947.5875
1080.46974	15893.7875
1084.14085	15719.2875
1087.80943	15595.0875
1091.47549	15605.8875
1095.13903	15585.4875
1098.80005	15546.5875
1102.45857	15367.3875
1106.11456	15132.9875
1109.76805	14948.0875
1113.41903	14886.0875
1117.06751	14903.5875
1120.71348	14949.8875
1124.35696	15078.0875
1127.99793	15255.8875
1131.63641	15345.0875
1135.2724	15285.0875
1138.90589	15200.4875
1142.5369	15191.8875
1146.16542	15174.0875
1149.79145	15244.0875
1153.415	15326.7875
1157.03607	15442.5875
1160.65467	15657.0875
1164.27079	15938.5875
1167.88443	16314.1875
1171.49561	16803.7875
1175.10432	17395.4875
1178.71056	18123.4875
1182.31434	18886.1875
1185.91565	19352.3875
1189.51451	19539.1875
1193.11091	19551.8875
1196.70485	19240.4875
1200.29634	18826.6875
1203.88538	18376.5875
1207.47197	18030.3875
1211.05612	17726.5875
1214.63782	17449.8875
1218.21708	17203.3875
1221.79391	16885.2875
1225.36829	16682.9875
1228.94024	16548.3875
1232.50976	16493.9875
1236.07685	16447.8875
1239.6415	16451.6875
1243.20374	16476.4875
1246.76355	16568.6875
1250.32093	16650.8875
1253.8759	16828.2875
1257.42845	17062.1875
1260.97859	17281.4875
1264.52631	17599.5875
1268.07163	17832.9875
1271.61453	18047.5875
1275.15503	18283.4875
1278.69312	18520.8875
1282.22882	18747.5875
1285.76211	19006.7875
1289.29301	19332.0875
1292.82151	19753.7875
1296.34761	20238.0875
1299.87133	20793.2875
1303.39266	21368.1875
1306.9116	21889.4875
1310.42815	22369.3875
1313.94233	22588.0875
1317.45412	22583.4875
1320.96354	22534.7875
1324.47058	22450.8875
1327.97525	22490.4875
1331.47754	22552.5875
1334.97747	22755.0875
1338.47502	22984.7875
1341.97022	23310.5875
1345.46305	23549.8875
1348.95352	23647.7875
1352.44163	23593.2875
1355.92738	23394.4875
1359.41078	23325.0875
1362.89183	23296.7875
1366.37053	22838.1875
1369.84688	21782.5875
1373.32088	20583.3875
1376.79254	19678.3875
1380.26186	19209.9875
1383.72883	18998.0875
1387.19347	18921.9875
1390.65578	18802.7875
1394.11575	18680.1875
1397.57339	18584.6875
1401.0287	18555.8875
1404.48168	18428.5875
1407.93234	18326.6875
1411.38068	18114.6875
1414.82669	17779.9875
1418.27039	17355.7875
1421.71177	16907.0875
1425.15083	16568.5875
1428.58758	16369.6875
1432.02203	16320.7875
1435.45416	16423.1875
1438.88399	16593.3875
1442.31151	16723.8875
1445.73673	16883.6875
1449.15965	17060.1875
1452.58027	17238.1875
1455.9986	17400.3875
1459.41463	17557.7875
1462.82837	17760.9875
1466.23982	17999.2875
1469.64898	18187.8875
1473.05586	18357.8875
1476.46045	18409.3875
1479.86276	18428.1875
1483.26279	18428.0875
1486.66054	18509.1875
1490.05602	18635.8875
1493.44922	18903.8875
1496.84016	19241.4875
1500.22882	19778.9875
1503.61521	20451.4875
1506.99934	21035.8875
1510.38121	21403.8875
1513.76081	21418.9875
1517.13816	21080.1875
1520.51324	20597.7875
1523.88607	20251.0875
1527.25665	19935.3875
1530.62498	19811.0875
1533.99105	19643.4875
1537.35488	19411.4875
1540.71647	19144.2875
1544.07581	18808.8875
1547.4329	18483.5875
1550.78776	18201.3875
1554.14038	18015.4875
1557.49077	17918.4875
1560.83892	17967.8875
1564.18484	18009.7875
1567.52853	18126.6875
1570.86999	18303.6875
1574.20922	18553.6875
1577.54624	18755.2875
1580.88103	18840.4875
1584.2136	18838.6875
1587.54395	18743.1875
1590.87208	18746.4875
1594.19801	18917.0875
1597.52172	19273.1875
1600.84321	19257.3875
1604.16251	18941.3875
1607.47959	18322.1875
1610.79447	17668.1875
1614.10715	16917.3875
1617.41763	16253.4875
1620.7259	15659.9875
1624.03199	15274.0875
1627.33587	15146.5875
1630.63757	15157.6875
1633.93707	15499.0875
1637.23439	16087.0875
1640.52951	17013.0875
1643.82246	18182.2875
1647.11321	19300.2875
1650.40179	19895.6875
1653.68819	19650.7875
1656.97241	18566.9875
1660.25446	17178.9875
1663.53433	15878.5875
1666.81203	14865.3875
1670.08756	14174.3875
1673.36092	13691.0875
1676.63211	13367.8875
1679.90115	13151.1875
1683.16801	12964.0875
1686.43272	12870.4875
1689.69527	12778.5875
1692.95567	12714.9875
1696.2139	12660.7875
1699.46999	12589.0875
1702.72392	12571.5875
1705.97571	12537.7875
1709.22535	12534.4875
1712.47284	12485.9875
1715.71819	12468.1875
1718.96139	12448.5875
1722.20246	12389.2875
1725.44139	12343.9875
1728.67818	12298.1875
1731.91284	12234.5875
1735.14537	12184.6875
1738.37576	12163.0875
1741.60403	12115.6875
1744.83017	12107.3875
1748.05418	12062.6875
1751.27607	12059.1875
1754.49584	12035.2875
1757.71349	12042.7875
1760.92903	12051.3875
1764.14244	12034.9875
1767.35375	12020.5875
1770.56294	11990.3875
1773.77002	11973.3875
1776.97499	11930.6875
1780.17785	11870.4875
1783.37861	11841.1875
1786.57727	11814.2875
1789.77382	11773.5875
1792.96828	11767.7875
1796.16064	11705.3875
1799.3509	11690.7875
1802.53907	11611.2875
1805.72514	11591.4875
1808.90913	11565.4875
1812.09102	11551.6875
1815.27083	11525.7875
1818.44856	11489.8875
1821.6242	11473.0875
1824.79776	11479.5875
1827.96924	11432.0875
1831.13864	11437.4875
1834.30597	11409.8875
1837.47122	11388.9875
1840.6344	11394.8875
1843.7955	11389.5875
1846.95454	11342.1875
1850.11151	11373.9875
1853.26642	11336.7875
1856.41926	11328.2875
1859.57004	11315.4875
1862.71876	11300.0875
1865.86542	11309.6875
1869.01003	11270.9875
1872.15258	11261.1875
1875.29308	11249.6875
1878.43152	11215.5875
1881.56792	11217.7875
1884.70227	11214.8875
1887.83457	11163.1875
1890.96482	11161.1875
1894.09304	11156.0875
1897.21921	11119.0875
1900.34335	11108.6875
1903.46544	11120.6875
1906.58551	11083.8875
1909.70353	11059.7875
1912.81953	11050.0875
1915.93349	10997.4875
1919.04543	11009.7875
1922.15534	10970.1875
1925.26322	10922.7875
1928.36908	10953.2875
1931.47292	10935.6875
1934.57473	10875.4875
1937.67453	10877.9875
1940.77232	10839.5875
1943.86808	10809.3875
1946.96184	10795.6875
1950.05358	10743.0875
1953.14331	10703.1875
1956.23103	10677.2875
1959.31675	10642.9875
1962.40046	10641.3875
1965.48217	10593.9875
1968.56188	10556.1875
1971.63959	10481.1875
1974.7153	10478.3875
1977.78901	10439.3875
1980.86073	10414.8875
1983.93046	10369.7875
1986.99819	10355.4875
1990.06394	10318.4875
1993.1277	10273.9875
1996.18947	10255.6875
1999.24925	10209.3875
2002.30706	10176.0875
2005.36288	10133.8875
2008.41672	10106.9875
2011.46859	10054.0875
2014.51848	10065.8875
2017.56639	10024.5875
2020.61233	10011.5875
2023.6563	9980.2875
2026.6983	9963.2875
2029.73833	9924.7875
2032.7764	9902.7875
2035.8125	9862.4875
2038.84664	9831.0875
2041.87881	9845.4875
2044.90903	9788.0875
2047.93729	9777.6875
2050.96359	9775.2875
2053.98794	9742.4875
2057.01034	9743.1875
2060.03078	9723.4875
2063.04927	9707.5875
2066.06582	9682.4875
2069.08042	9713.3875
2072.09307	9700.5875
2075.10378	9681.7875
2078.11255	9677.7875
2081.11938	9671.3875
2084.12426	9666.9875
2087.12722	9653.1875
2090.12824	9642.0875
2093.12732	9652.5875
2096.12447	9641.0875
2099.11969	9611.7875
2102.11299	9646.9875
2105.10435	9634.0875
2108.09379	9651.0875
2111.08131	9668.8875
2114.0669	9633.1875
2117.05057	9641.0875
2120.03233	9642.9875
2123.01216	9669.1875
2125.99008	9657.6875
2128.96609	9657.0875
2131.94018	9676.3875
2134.91236	9678.4875
2137.88263	9674.7875
2140.851	9687.0875
2143.81746	9660.1875
2146.78201	9654.2875
2149.74466	9674.3875
2152.7054	9681.3875
2155.66425	9682.5875
2158.6212	9687.1875
2161.57625	9674.7875
2164.52941	9662.5875
2167.48067	9661.2875
2170.43004	9642.1875
2173.37752	9618.3875
2176.32311	9619.9875
2179.26681	9617.2875
2182.20863	9616.9875
2185.14856	9614.2875
2188.08661	9582.0875
2191.02278	9591.9875
2193.95707	9584.5875
2196.88948	9569.6875
2199.82001	9540.6875
2202.74867	9529.8875
2205.67545	9530.4875
2208.60037	9524.1875
2211.52341	9525.5875
2214.44458	9486.2875
2217.36388	9457.9875
2220.28132	9441.0875
2223.1969	9426.2875
2226.11061	9383.7875
2229.02246	9409.1875
2231.93245	9377.3875
2234.84058	9358.6875
2237.74686	9337.6875
2240.65128	9312.9875
2243.55385	9279.1875
2246.45456	9277.9875
2249.35343	9240.8875
2252.25044	9239.2875
2255.14561	9199.2875
2258.03893	9216.4875
2260.93041	9222.3875
2263.82004	9175.1875
2266.70783	9157.1875
2269.59378	9128.1875
2272.4779	9104.0875
2275.36017	9080.0875
2278.24061	9069.5875
2281.11922	9028.7875
2283.996	8983.2875
2286.87094	8997.9875
2289.74405	8970.0875
2292.61534	8963.4875
2295.4848	8930.0875
2298.35243	8926.9875
2301.21824	8914.5875
2304.08223	8914.0875
2306.94439	8883.3875
2309.80474	8877.1875
2312.66327	8888.4875
2315.51999	8867.3875
2318.37489	8849.3875
2321.22797	8856.8875
2324.07925	8835.0875
2326.92871	8830.6875
2329.77637	8818.3875
2332.62222	8785.4875
2335.46626	8764.8875
2338.3085	8738.7875
2341.14893	8729.9875
2343.98756	8735.6875
2346.8244	8694.9875
2349.65943	8710.7875
2352.49267	8692.0875
2355.32411	8692.8875
2358.15376	8670.1875
2360.98161	8684.3875
2363.80768	8651.2875
2366.63195	8632.4875
2369.45444	8652.1875
2372.27514	8640.0875
2375.09405	8623.7875
2377.91118	8605.5875
2380.72652	8594.3875
2383.54009	8569.9875
2386.35187	8580.4875
2389.16188	8525.1875
2391.97011	8505.2875
2394.77657	8513.3875
2397.58125	8458.2875
2400.38416	8460.9875
2403.18529	8457.5875
2405.98466	8427.3875
2408.78226	8424.2875
2411.57809	8419.9875
2414.37216	8382.3875
2417.16446	8350.3875
2419.955	8360.2875
2422.74378	8341.8875
2425.5308	8347.2875
2428.31606	8313.0875
2431.09956	8318.8875
2433.88131	8307.7875
2436.6613	8286.1875
2439.43954	8315.5875
2442.21603	8287.7875
2444.99077	8291.4875
2447.76377	8271.0875
2450.53501	8261.9875
2453.30451	8230.8875
2456.07226	8222.6875
2458.83827	8211.0875
2461.60254	8210.4875
2464.36507	8204.6875
2467.12586	8189.5875
2469.88492	8162.0875
2472.64224	8141.3875
2475.39782	8133.7875
2478.15167	8142.5875
2480.90379	8126.4875
2483.65417	8132.8875
2486.40283	8122.3875
2489.14976	8137.2875
2491.89497	8101.6875
2494.63845	8106.4875
2497.3802	8100.4875
2500.12024	8069.5875
2502.85855	8094.4875
2505.59514	8059.5875
2508.33002	8048.5875
2511.06318	8061.3875
2513.79462	8041.0875
2516.52435	8024.6875
2519.25237	8017.2875
2521.97867	7994.9875
2524.70327	7999.7875
2527.42616	7979.9875
2530.14734	7962.1875
2532.86681	7950.5875
2535.58458	7936.4875
2538.30065	7924.7875
2541.01501	7931.4875
2543.72768	7877.7875
2546.43864	7892.8875
2549.14791	7862.3875
2551.85548	7861.7875
2554.56136	7825.8875
2557.26554	7809.1875
2559.96803	7810.4875
2562.66883	7788.3875
2565.36794	7766.4875
2568.06536	7778.5875
2570.7611	7776.5875
2573.45514	7738.7875
2576.14751	7722.1875
2578.83819	7715.9875
2581.52719	7698.8875
2584.21451	7685.1875
2586.90015	7669.9875
2589.58411	7630.4875
2592.2664	7625.2875
2594.94701	7589.7875
2597.62594	7571.8875
2600.30321	7573.8875
2602.9788	7573.2875
2605.65273	7569.6875
2608.32498	7527.0875
2610.99557	7550.5875
2613.66449	7511.9875
2616.33175	7485.4875
2618.99734	7479.0875
2621.66128	7448.7875
2624.32355	7460.6875
2626.98416	7457.3875
2629.64311	7460.3875
2632.30041	7443.8875
2634.95605	7428.7875
2637.61004	7411.8875
2640.26238	7389.8875
2642.91306	7397.4875
2645.56209	7394.6875
2648.20948	7391.0875
2650.85521	7374.1875
2653.4993	7390.5875
2656.14175	7393.0875
2658.78255	7380.0875
2661.42171	7384.4875
2664.05923	7380.3875
2666.6951	7350.8875
2669.32934	7359.4875
2671.96194	7337.6875
2674.59291	7346.3875
2677.22224	7357.0875
2679.84993	7347.8875
2682.476	7327.7875
2685.10043	7339.9875
2687.72324	7303.6875
2690.34441	7327.9875
2692.96396	7318.4875
2695.58188	7333.1875
2698.19818	7323.7875
2700.81285	7329.4875
2703.4259	7335.1875
2706.03733	7382.5875
2708.64714	7353.1875
2711.25533	7394.6875
2713.86191	7427.6875
2716.46687	7385.2875
2719.07021	7380.3875
2721.67194	7312.7875
2724.27206	7295.3875
2726.87057	7303.9875
2729.46747	7316.5875
2732.06276	7310.0875
2734.65644	7267.0875
2737.24852	7276.2875
2739.83899	7243.5875
2742.42786	7276.4875
2745.01513	7244.2875
2747.60079	7251.5875
2750.18486	7222.4875
2752.76733	7212.5875
2755.3482	7228.4875
2757.92747	7219.0875
2760.50515	7213.9875
2763.08123	7187.8875
2765.65573	7157.2875
2768.22863	7147.0875
2770.79994	7167.0875
2773.36967	7139.2875
2775.9378	7154.8875
2778.50435	7122.6875
2781.06932	7102.4875
2783.6327	7119.8875
2786.1945	7104.8875
2788.75471	7100.5875
2791.31335	7060.2875
2793.87041	7046.5875
2796.42589	7037.5875
2798.97979	7016.8875
2801.53212	6998.7875
2804.08288	6981.6875
2806.63206	6970.1875
2809.17967	6939.9875
2811.72571	6926.4875
2814.27018	6905.6875
2816.81308	6905.1875
2819.35442	6909.3875
2821.89419	6898.0875
2824.43239	6883.4875
2826.96904	6884.5875
2829.50412	6873.0875
2832.03763	6854.6875
2834.56959	6854.9875
2837.1	6842.7875
2839.62884	6869.3875
2842.15613	6855.6875
2844.68186	6861.0875
2847.20604	6891.7875
2849.72867	6892.7875
2852.24974	6857.4875
2854.76927	6868.1875
2857.28724	6867.6875
2859.80367	6849.7875
2862.31855	6828.6875
2864.83189	6831.7875
2867.34368	6802.1875
2869.85393	6792.9875
2872.36264	6785.7875
2874.8698	6784.3875
2877.37543	6770.6875
2879.87952	6775.1875
2882.38207	6779.5875
2884.88308	6767.6875
2887.38256	6770.4875
2889.88051	6774.0875
2892.37692	6744.8875
2894.8718	6746.0875
2897.36515	6746.7875
2899.85698	6748.0875
2902.34727	6771.6875
2904.83604	6756.6875
2907.32328	6770.3875
2909.809	6756.0875
2912.29319	6763.7875
2914.77587	6760.8875
2917.25702	6761.9875
2919.73665	6757.5875
2922.21476	6764.9875
2924.69136	6764.4875
2927.16644	6765.1875
2929.64	6748.8875
2932.11205	6745.2875
2934.58258	6734.4875
2937.05161	6746.6875
2939.51912	6736.4875
2941.98513	6735.9875
2944.44962	6702.6875
2946.91261	6683.9875
2949.37409	6679.6875
2951.83407	6665.1875
2954.29254	6655.3875
2956.74951	6636.4875
2959.20498	6631.5875
2961.65895	6607.3875
2964.11142	6622.8875
2966.56239	6605.1875
2969.01186	6579.1875
2971.45984	6558.3875
2973.90632	6551.8875
2976.35131	6528.8875
2978.7948	6526.8875
2981.23681	6505.9875
2983.67732	6506.5875
2986.11635	6492.8875
2988.55388	6474.9875
2990.98993	6443.1875
2993.4245	6438.6875
2995.85758	6428.9875
2998.28917	6393.8875
3000.71928	6398.5875
3003.14791	6379.8875
3005.57506	6372.5875
3008.00073	6361.9875
3010.42493	6354.9875
3012.84764	6342.6875
3015.26888	6336.3875
3017.68865	6296.0875
3020.10694	6304.4875
3022.52376	6309.7875
3024.9391	6292.7875
3027.35298	6288.4875
3029.76539	6277.5875
3032.17632	6266.7875
3034.5858	6245.5875
3036.9938	6249.8875
3039.40034	6239.3875
3041.80542	6249.3875
3044.20903	6222.6875
3046.61118	6209.9875
3049.01187	6210.3875
3051.4111	6201.6875
3053.80888	6188.8875
3056.20519	6172.0875
3058.60005	6159.6875
3060.99345	6151.9875
3063.3854	6152.7875
3065.7759	6140.5875
3068.16494	6138.4875
