Data from AgNP_FTO_APTES_CRN_100uM_R6G_10uM_NaF_0.1M_Addition_RamanShift__30__19-06-28-145.txt Node

Date: Wed Dec 15 19:06:28 GMT 2021
User: TCL
Spectrometer: QEP01345
Trigger mode: 4
Integration Time (sec): 7.000000E0
Scans to average: 10
Electric dark correction enabled: true
Nonlinearity correction enabled: false
Boxcar width: 0
XAxis mode: Raman Shifts
Number of Pixels in Spectrum: 1044
>>>>>Begin Spectral Data<<<<<
46.04893	2.1875
50.45542	-1.7125
54.85868	-1.3125
59.25871	-0.4125
63.6555	60.6875
68.04907	67.6875
72.43941	68.5875
76.82654	74.9875
81.21044	77.1875
85.59113	77.1875
89.96862	82.9875
94.34289	80.0875
98.71396	88.9875
103.08183	92.5875
107.4465	93.7875
111.80798	96.1875
116.16626	97.5875
120.52136	100.1875
124.87327	100.8875
129.222	109.4875
133.56755	113.5875
137.90993	122.2875
142.24913	134.5875
146.58517	146.1875
150.91804	167.7875
155.24774	197.3875
159.57429	244.2875
163.89768	316.9875
168.21792	406.0875
172.53501	556.9875
176.84895	778.2875
181.15975	1083.8875
185.46741	1511.8875
189.77193	2086.4875
194.07331	2811.4875
198.37157	3605.6875
202.6667	4465.2875
206.9587	5306.3875
211.24758	6147.3875
215.53334	6998.0875
219.81599	7902.8875
224.09553	8955.2875
228.37195	10070.9875
232.64527	11306.0875
236.91549	12558.1875
241.18261	13769.1875
245.44663	14874.0875
249.70755	15829.1875
253.96539	16595.5875
258.22014	17332.4875
262.4718	17975.4875
266.72039	18418.4875
270.96589	18660.1875
275.20832	18706.4875
279.44768	18579.1875
283.68397	18330.5875
287.91719	18158.6875
292.14735	18164.1875
296.37445	18298.3875
300.59849	18623.9875
304.81948	19021.8875
309.03742	19267.2875
313.25231	19132.7875
317.46415	18537.4875
321.67296	17597.4875
325.87872	16815.0875
330.08145	16422.3875
334.28114	16408.7875
338.47781	16637.3875
342.67145	16969.5875
346.86207	17429.5875
351.04966	18191.0875
355.23424	18917.5875
359.4158	19541.7875
363.59435	19885.4875
367.76989	19995.0875
371.94243	20043.7875
376.11196	20059.9875
380.27849	19995.9875
384.44203	19926.9875
388.60257	19836.3875
392.76012	19808.1875
396.91468	19945.1875
401.06626	20366.3875
405.21485	20619.9875
409.36047	20452.6875
413.50311	19752.4875
417.64277	19142.4875
421.77947	18824.2875
425.9132	18675.0875
430.04396	18719.7875
434.17176	18875.0875
438.2966	19103.6875
442.41849	19528.3875
446.53742	20033.8875
450.6534	20580.1875
454.76644	20960.8875
458.87653	21037.0875
462.98368	20922.4875
467.08789	20660.5875
471.18916	20361.9875
475.2875	20037.8875
479.38291	19743.8875
483.4754	19446.3875
487.56496	19187.9875
491.6516	18958.9875
495.73531	18820.3875
499.81612	18774.5875
503.89401	18927.2875
507.96899	19090.6875
512.04106	19274.1875
516.11023	19523.1875
520.1765	19723.1875
524.23987	19750.0875
528.30034	19620.3875
532.35792	19368.7875
536.41261	19061.1875
540.46441	18733.7875
544.51333	18631.7875
548.55936	18745.1875
552.60252	19014.7875
556.64279	19392.1875
560.6802	19582.8875
564.71473	19784.8875
568.7464	20199.6875
572.7752	20561.2875
576.80114	20221.1875
580.82422	19773.8875
584.84444	19596.4875
588.86181	19712.0875
592.87633	20050.9875
596.888	20350.7875
600.89682	20714.3875
604.9028	22007.9875
608.90594	25802.8875
612.90624	30593.2875
616.90371	29471.4875
620.89834	22757.0875
624.89015	19663.0875
628.87913	19103.2875
632.86528	19085.7875
636.84862	19173.1875
640.82913	18983.8875
644.80683	18480.2875
648.78172	18119.9875
652.75379	18151.9875
656.72306	18588.9875
660.68952	19116.7875
664.65319	19052.4875
668.61405	18512.6875
672.57211	18212.6875
676.52738	18206.0875
680.47986	18198.3875
684.42955	18111.6875
688.37646	18096.0875
692.32058	18172.1875
696.26192	18316.3875
700.20048	18497.0875
704.13626	18602.9875
708.06928	18519.5875
711.99952	18418.2875
715.927	18356.7875
719.85171	18403.0875
723.77365	18370.7875
727.69284	18230.0875
731.60928	18077.6875
735.52295	18070.6875
739.43388	18117.6875
743.34206	18161.6875
747.24749	18206.6875
751.15017	18275.4875
755.05012	18546.2875
758.94733	19083.6875
762.8418	20408.5875
766.73354	22653.4875
770.62254	24968.1875
774.50882	26095.2875
778.39237	25044.0875
782.27321	22578.7875
786.15132	20251.0875
790.02671	18880.0875
793.89938	18303.1875
797.76935	18057.2875
801.6366	17956.0875
805.50115	17873.5875
809.36299	17818.6875
813.22213	17755.9875
817.07857	17764.5875
820.93231	17748.0875
824.78336	17809.8875
828.63172	17846.0875
832.47738	17884.6875
836.32036	17905.7875
840.16066	17882.8875
843.99827	17826.9875
847.8332	17762.1875
851.66546	17710.2875
855.49504	17673.7875
859.32195	17666.4875
863.1462	17623.0875
866.96777	17561.3875
870.78668	17547.6875
874.60293	17536.4875
878.41652	17549.9875
882.22745	17614.1875
886.03573	17684.5875
889.84136	17634.9875
893.64433	17553.0875
897.44466	17501.2875
901.24235	17472.5875
905.0374	17431.2875
908.8298	17413.7875
912.61957	17424.8875
916.40671	17475.4875
920.19121	17590.3875
923.97308	17699.9875
927.75233	17783.6875
931.52895	17902.1875
935.30295	17774.4875
939.07433	17480.0875
942.84309	17165.3875
946.60924	16973.4875
950.37278	16850.1875
954.13371	16773.8875
957.89203	16717.9875
961.64774	16685.8875
965.40086	16671.4875
969.15137	16572.7875
972.89929	16531.6875
976.64461	16485.8875
980.38733	16505.0875
984.12747	16554.4875
987.86502	16653.6875
991.59999	16749.9875
995.33237	16925.4875
999.06217	17302.1875
1002.78939	17679.7875
1006.51404	17917.2875
1010.23611	18143.8875
1013.95561	18304.7875
1017.67255	18283.7875
1021.38692	18051.6875
1025.09872	17887.2875
1028.80796	17866.3875
1032.51465	18073.2875
1036.21877	18317.6875
1039.92035	18409.9875
1043.61937	18307.3875
1047.31584	18170.4875
1051.00976	17959.9875
1054.70114	17886.0875
1058.38998	17875.0875
1062.07627	18005.0875
1065.76003	18170.7875
1069.44126	18433.6875
1073.11995	18785.4875
1076.79611	19139.8875
1080.46974	19328.1875
1084.14085	19440.7875
1087.80943	19451.1875
1091.47549	19348.5875
1095.13903	18949.9875
1098.80005	18452.8875
1102.45857	18061.1875
1106.11456	17890.4875
1109.76805	17956.0875
1113.41903	18189.9875
1117.06751	18515.4875
1120.71348	19000.3875
1124.35696	19434.0875
1127.99793	19857.3875
1131.63641	19885.6875
1135.2724	19314.9875
1138.90589	18791.9875
1142.5369	18441.9875
1146.16542	18188.4875
1149.79145	18057.3875
1153.415	18118.3875
1157.03607	18179.2875
1160.65467	18463.5875
1164.27079	18946.0875
1167.88443	19736.9875
1171.49561	20948.9875
1175.10432	22870.5875
1178.71056	25311.3875
1182.31434	27225.7875
1185.91565	27779.5875
1189.51451	27166.8875
1193.11091	25860.1875
1196.70485	24283.5875
1200.29634	23094.8875
1203.88538	22191.7875
1207.47197	21293.7875
1211.05612	20541.0875
1214.63782	20156.4875
1218.21708	20017.6875
1221.79391	20058.3875
1225.36829	20046.1875
1228.94024	19917.2875
1232.50976	19832.2875
1236.07685	19751.5875
1239.6415	19791.8875
1243.20374	19930.6875
1246.76355	20051.5875
1250.32093	20290.4875
1253.8759	20666.9875
1257.42845	21168.3875
1260.97859	21622.2875
1264.52631	22068.8875
1268.07163	22507.2875
1271.61453	22945.6875
1275.15503	23345.4875
1278.69312	23581.3875
1282.22882	23741.8875
1285.76211	24057.8875
1289.29301	24667.8875
1292.82151	25393.4875
1296.34761	26118.6875
1299.87133	27224.6875
1303.39266	28805.5875
1306.9116	31148.1875
1310.42815	33962.9875
1313.94233	35666.8875
1317.45412	35537.0875
1320.96354	33905.6875
1324.47058	31929.1875
1327.97525	30130.1875
1331.47754	28990.1875
1334.97747	28650.6875
1338.47502	28834.1875
1341.97022	29277.7875
1345.46305	29710.9875
1348.95352	30421.9875
1352.44163	31630.9875
1355.92738	33751.0875
1359.41078	37262.0875
1362.89183	40872.1875
1366.37053	40330.7875
1369.84688	35546.9875
1373.32088	30394.3875
1376.79254	27141.3875
1380.26186	25526.0875
1383.72883	24775.4875
1387.19347	24256.6875
1390.65578	23667.3875
1394.11575	23254.3875
1397.57339	23113.5875
1401.0287	23305.5875
1404.48168	23578.9875
1407.93234	23814.3875
1411.38068	23943.3875
1414.82669	23794.4875
1418.27039	23285.3875
1421.71177	22733.5875
1425.15083	22185.6875
1428.58758	21836.6875
1432.02203	21868.6875
1435.45416	22069.0875
1438.88399	22263.2875
1442.31151	22382.2875
1445.73673	22519.6875
1449.15965	22704.4875
1452.58027	22737.9875
1455.9986	22630.1875
1459.41463	22594.7875
1462.82837	22799.1875
1466.23982	23173.3875
1469.64898	23597.3875
1473.05586	23954.6875
1476.46045	24162.2875
1479.86276	24407.4875
1483.26279	24700.4875
1486.66054	25034.9875
1490.05602	25494.1875
1493.44922	26085.8875
1496.84016	26826.6875
1500.22882	28022.6875
1503.61521	29877.6875
1506.99934	32308.4875
1510.38121	34812.0875
1513.76081	36105.2875
1517.13816	35174.9875
1520.51324	32197.1875
1523.88607	28997.8875
1527.25665	26723.5875
1530.62498	25430.1875
1533.99105	24750.2875
1537.35488	24342.5875
1540.71647	24076.6875
1544.07581	23934.2875
1547.4329	23812.3875
1550.78776	23666.2875
1554.14038	23552.0875
1557.49077	23617.1875
1560.83892	23795.5875
1564.18484	24177.7875
1567.52853	24601.5875
1570.86999	25091.0875
1574.20922	25595.7875
1577.54624	25931.6875
1580.88103	25568.4875
1584.2136	24743.8875
1587.54395	24148.2875
1590.87208	24212.1875
1594.19801	25102.7875
1597.52172	26431.5875
1600.84321	27147.3875
1604.16251	26484.8875
1607.47959	24947.3875
1610.79447	23193.9875
1614.10715	21508.1875
1617.41763	20179.9875
1620.7259	19371.6875
1624.03199	18959.8875
1627.33587	18976.7875
1630.63757	19308.3875
1633.93707	20006.5875
1637.23439	21220.7875
1640.52951	22854.2875
1643.82246	25076.2875
1647.11321	27453.8875
1650.40179	29033.5875
1653.68819	28312.6875
1656.97241	25367.9875
1660.25446	22025.7875
1663.53433	19570.1875
1666.81203	18097.5875
1670.08756	17203.9875
1673.36092	16603.8875
1676.63211	16257.1875
1679.90115	16003.6875
1683.16801	15816.6875
1686.43272	15697.6875
1689.69527	15591.1875
1692.95567	15492.2875
1696.2139	15443.8875
1699.46999	15450.8875
1702.72392	15441.4875
1705.97571	15411.7875
1709.22535	15380.9875
1712.47284	15379.9875
1715.71819	15346.8875
1718.96139	15346.7875
1722.20246	15305.6875
1725.44139	15279.6875
1728.67818	15214.1875
1731.91284	15152.1875
1735.14537	15037.4875
1738.37576	15014.8875
1741.60403	14947.2875
1744.83017	14930.1875
1748.05418	14892.5875
1751.27607	14851.0875
1754.49584	14837.5875
1757.71349	14816.7875
1760.92903	14802.3875
1764.14244	14815.0875
1767.35375	14805.2875
1770.56294	14771.7875
1773.77002	14747.8875
1776.97499	14702.8875
1780.17785	14684.4875
1783.37861	14671.2875
1786.57727	14624.5875
1789.77382	14573.4875
1792.96828	14597.0875
1796.16064	14599.4875
1799.3509	14562.0875
1802.53907	14506.7875
1805.72514	14492.7875
1808.90913	14467.0875
1812.09102	14447.2875
1815.27083	14396.5875
1818.44856	14390.0875
1821.6242	14370.5875
1824.79776	14335.1875
1827.96924	14330.0875
1831.13864	14339.9875
1834.30597	14339.8875
1837.47122	14309.6875
1840.6344	14274.6875
1843.7955	14281.6875
1846.95454	14265.2875
1850.11151	14272.4875
1853.26642	14235.7875
1856.41926	14266.8875
1859.57004	14274.2875
1862.71876	14242.7875
1865.86542	14245.6875
1869.01003	14239.0875
1872.15258	14236.3875
1875.29308	14246.5875
1878.43152	14235.5875
1881.56792	14193.1875
1884.70227	14201.7875
1887.83457	14206.0875
1890.96482	14168.8875
1894.09304	14191.0875
1897.21921	14197.5875
1900.34335	14175.6875
1903.46544	14174.5875
1906.58551	14175.7875
1909.70353	14161.7875
1912.81953	14124.8875
1915.93349	14108.5875
1919.04543	14089.6875
1922.15534	14055.7875
1925.26322	14052.0875
1928.36908	14036.6875
1931.47292	13964.3875
1934.57473	13970.2875
1937.67453	13953.8875
1940.77232	13867.4875
1943.86808	13839.8875
1946.96184	13795.8875
1950.05358	13764.4875
1953.14331	13714.0875
1956.23103	13694.6875
1959.31675	13682.8875
1962.40046	13631.6875
1965.48217	13592.8875
1968.56188	13586.3875
1971.63959	13522.2875
1974.7153	13481.9875
1977.78901	13449.4875
1980.86073	13407.6875
1983.93046	13355.5875
1986.99819	13335.3875
1990.06394	13273.4875
1993.1277	13249.8875
1996.18947	13171.8875
1999.24925	13154.2875
2002.30706	13109.7875
2005.36288	13072.8875
2008.41672	13064.2875
2011.46859	12987.1875
2014.51848	12968.0875
2017.56639	12963.0875
2020.61233	12923.9875
2023.6563	12884.0875
2026.6983	12873.7875
2029.73833	12854.1875
2032.7764	12815.3875
2035.8125	12814.4875
2038.84664	12765.4875
2041.87881	12739.3875
2044.90903	12717.8875
2047.93729	12701.1875
2050.96359	12699.1875
2053.98794	12685.9875
2057.01034	12667.3875
2060.03078	12644.5875
2063.04927	12614.2875
2066.06582	12621.3875
2069.08042	12602.8875
2072.09307	12591.5875
2075.10378	12577.2875
2078.11255	12577.9875
2081.11938	12597.2875
2084.12426	12562.8875
2087.12722	12560.0875
2090.12824	12569.0875
2093.12732	12571.5875
2096.12447	12574.6875
2099.11969	12562.8875
2102.11299	12580.0875
2105.10435	12596.2875
2108.09379	12593.3875
2111.08131	12594.9875
2114.0669	12618.5875
2117.05057	12599.2875
2120.03233	12598.8875
2123.01216	12637.9875
2125.99008	12622.8875
2128.96609	12657.5875
2131.94018	12666.6875
2134.91236	12659.8875
2137.88263	12683.5875
2140.851	12663.7875
2143.81746	12676.1875
2146.78201	12677.8875
2149.74466	12675.2875
2152.7054	12672.5875
2155.66425	12681.6875
2158.6212	12714.3875
2161.57625	12687.9875
2164.52941	12689.0875
2167.48067	12692.6875
2170.43004	12671.5875
2173.37752	12690.2875
2176.32311	12667.7875
2179.26681	12678.7875
2182.20863	12679.6875
2185.14856	12665.6875
2188.08661	12668.5875
2191.02278	12660.7875
2193.95707	12657.1875
2196.88948	12630.3875
2199.82001	12627.3875
2202.74867	12604.0875
2205.67545	12624.5875
2208.60037	12641.7875
2211.52341	12604.2875
2214.44458	12569.3875
2217.36388	12547.0875
2220.28132	12551.9875
2223.1969	12521.1875
2226.11061	12501.8875
2229.02246	12514.2875
2231.93245	12454.4875
2234.84058	12424.5875
2237.74686	12413.0875
2240.65128	12398.7875
2243.55385	12381.1875
2246.45456	12350.9875
2249.35343	12336.7875
2252.25044	12345.5875
2255.14561	12305.7875
2258.03893	12317.6875
2260.93041	12302.6875
2263.82004	12301.6875
2266.70783	12271.6875
2269.59378	12237.7875
2272.4779	12213.0875
2275.36017	12152.3875
2278.24061	12131.2875
2281.11922	12114.3875
2283.996	12125.0875
2286.87094	12076.6875
2289.74405	12059.9875
2292.61534	12037.5875
2295.4848	12028.5875
2298.35243	12033.5875
2301.21824	12017.8875
2304.08223	12037.5875
2306.94439	12007.7875
2309.80474	11996.0875
2312.66327	11998.6875
2315.51999	11990.7875
2318.37489	11982.2875
2321.22797	11938.2875
2324.07925	11961.4875
2326.92871	11928.1875
2329.77637	11959.9875
2332.62222	11940.8875
2335.46626	11919.4875
2338.3085	11930.5875
2341.14893	11907.7875
2343.98756	11914.4875
2346.8244	11898.1875
2349.65943	11894.4875
2352.49267	11910.5875
2355.32411	11906.4875
2358.15376	11911.1875
2360.98161	11915.9875
2363.80768	11902.2875
2366.63195	11898.3875
2369.45444	11871.6875
2372.27514	11873.4875
2375.09405	11818.1875
2377.91118	11837.6875
2380.72652	11807.7875
2383.54009	11782.8875
2386.35187	11736.8875
2389.16188	11709.5875
2391.97011	11691.9875
2394.77657	11667.0875
2397.58125	11655.7875
2400.38416	11623.5875
2403.18529	11585.3875
2405.98466	11569.3875
2408.78226	11560.1875
2411.57809	11538.8875
2414.37216	11515.9875
2417.16446	11511.5875
2419.955	11486.0875
2422.74378	11466.6875
2425.5308	11444.0875
2428.31606	11449.3875
2431.09956	11448.1875
2433.88131	11433.5875
2436.6613	11452.9875
2439.43954	11431.0875
2442.21603	11394.2875
2444.99077	11394.7875
2447.76377	11442.9875
2450.53501	11393.1875
2453.30451	11400.0875
2456.07226	11360.6875
2458.83827	11393.5875
2461.60254	11370.3875
2464.36507	11358.6875
2467.12586	11338.3875
2469.88492	11359.6875
2472.64224	11360.5875
2475.39782	11376.1875
2478.15167	11375.8875
2480.90379	11363.3875
2483.65417	11392.0875
2486.40283	11382.1875
2489.14976	11387.3875
2491.89497	11389.0875
2494.63845	11391.9875
2497.3802	11400.3875
2500.12024	11376.9875
2502.85855	11374.2875
2505.59514	11364.8875
2508.33002	11348.1875
2511.06318	11281.3875
2513.79462	11298.4875
2516.52435	11272.2875
2519.25237	11240.5875
2521.97867	11223.1875
2524.70327	11200.6875
2527.42616	11186.5875
2530.14734	11176.4875
2532.86681	11178.7875
2535.58458	11167.1875
2538.30065	11135.1875
2541.01501	11118.7875
2543.72768	11130.2875
2546.43864	11122.5875
2549.14791	11116.2875
2551.85548	11124.3875
2554.56136	11072.1875
2557.26554	11065.3875
2559.96803	11035.0875
2562.66883	11054.7875
2565.36794	11019.2875
2568.06536	11014.7875
2570.7611	11016.2875
2573.45514	10997.4875
2576.14751	10989.7875
2578.83819	10964.9875
2581.52719	10947.6875
2584.21451	10955.9875
2586.90015	10936.1875
2589.58411	10932.8875
2592.2664	10913.9875
2594.94701	10887.0875
2597.62594	10875.7875
2600.30321	10854.3875
2602.9788	10863.1875
2605.65273	10841.5875
2608.32498	10837.8875
2610.99557	10825.2875
2613.66449	10814.7875
2616.33175	10800.4875
2618.99734	10814.6875
2621.66128	10792.0875
2624.32355	10797.7875
2626.98416	10795.9875
2629.64311	10794.7875
2632.30041	10750.4875
2634.95605	10738.8875
2637.61004	10731.2875
2640.26238	10708.4875
2642.91306	10738.6875
2645.56209	10723.5875
2648.20948	10720.2875
2650.85521	10681.6875
2653.4993	10668.9875
2656.14175	10687.6875
2658.78255	10686.5875
2661.42171	10674.2875
2664.05923	10686.2875
2666.6951	10683.3875
2669.32934	10700.1875
2671.96194	10692.5875
2674.59291	10679.6875
2677.22224	10694.6875
2679.84993	10708.5875
2682.476	10670.6875
2685.10043	10725.5875
2687.72324	10682.1875
2690.34441	10705.4875
2692.96396	10685.9875
2695.58188	10709.2875
2698.19818	10706.9875
2700.81285	10705.8875
2703.4259	10687.6875
2706.03733	10750.6875
2708.64714	10713.4875
2711.25533	10702.9875
2713.86191	10708.6875
2716.46687	10722.3875
2719.07021	10724.5875
2721.67194	10701.5875
2724.27206	10701.9875
2726.87057	10722.4875
2729.46747	10695.7875
2732.06276	10701.0875
2734.65644	10677.0875
2737.24852	10685.8875
2739.83899	10684.6875
2742.42786	10688.0875
2745.01513	10652.7875
2747.60079	10673.4875
2750.18486	10635.8875
2752.76733	10658.3875
2755.3482	10638.0875
2757.92747	10632.1875
2760.50515	10639.1875
2763.08123	10600.6875
2765.65573	10608.2875
2768.22863	10573.2875
2770.79994	10562.0875
2773.36967	10578.8875
2775.9378	10558.2875
2778.50435	10550.2875
2781.06932	10529.4875
2783.6327	10491.8875
2786.1945	10509.4875
2788.75471	10506.6875
2791.31335	10483.6875
2793.87041	10481.8875
2796.42589	10451.2875
2798.97979	10452.1875
2801.53212	10424.1875
2804.08288	10424.9875
2806.63206	10380.4875
2809.17967	10378.8875
2811.72571	10344.7875
2814.27018	10374.7875
2816.81308	10348.3875
2819.35442	10329.0875
2821.89419	10331.5875
2824.43239	10308.7875
2826.96904	10297.6875
2829.50412	10339.4875
2832.03763	10298.2875
2834.56959	10292.6875
2837.1	10300.9875
2839.62884	10305.6875
2842.15613	10294.8875
2844.68186	10326.3875
2847.20604	10342.0875
2849.72867	10357.7875
2852.24974	10347.9875
2854.76927	10357.0875
2857.28724	10366.3875
2859.80367	10320.9875
2862.31855	10322.8875
2864.83189	10298.9875
2867.34368	10298.0875
2869.85393	10260.9875
2872.36264	10268.5875
2874.8698	10278.7875
2877.37543	10281.4875
2879.87952	10281.5875
2882.38207	10278.4875
2884.88308	10264.9875
2887.38256	10278.0875
2889.88051	10269.0875
2892.37692	10274.9875
2894.8718	10249.9875
2897.36515	10257.6875
2899.85698	10271.6875
2902.34727	10280.9875
2904.83604	10293.2875
2907.32328	10318.2875
2909.809	10286.0875
2912.29319	10285.6875
2914.77587	10302.9875
2917.25702	10309.4875
2919.73665	10276.4875
2922.21476	10253.5875
2924.69136	10255.9875
2927.16644	10274.4875
2929.64	10242.7875
2932.11205	10229.8875
2934.58258	10197.1875
2937.05161	10225.8875
2939.51912	10186.9875
2941.98513	10181.7875
2944.44962	10150.6875
2946.91261	10092.2875
2949.37409	10108.3875
2951.83407	10098.9875
2954.29254	10088.8875
2956.74951	10066.5875
2959.20498	10046.4875
2961.65895	10043.0875
2964.11142	10072.0875
2966.56239	10001.5875
2969.01186	10026.4875
2971.45984	9963.5875
2973.90632	9960.6875
2976.35131	9906.8875
2978.7948	9908.6875
2981.23681	9868.8875
2983.67732	9883.5875
2986.11635	9889.3875
2988.55388	9858.6875
2990.98993	9845.2875
2993.4245	9798.0875
2995.85758	9797.7875
2998.28917	9754.9875
3000.71928	9770.7875
3003.14791	9738.9875
3005.57506	9725.1875
3008.00073	9707.3875
3010.42493	9705.9875
3012.84764	9682.2875
3015.26888	9656.6875
3017.68865	9673.6875
3020.10694	9639.2875
3022.52376	9616.4875
3024.9391	9603.2875
3027.35298	9604.7875
