Data from AgNP_FTO_APTES_CRN_500uM_R6G_10uM_NaF_0.1M_Addition_RamanShift__11__20-16-28-224.txt Node

Date: Wed Dec 15 20:16:28 GMT 2021
User: TCL
Spectrometer: QEP01345
Trigger mode: 4
Integration Time (sec): 7.000000E0
Scans to average: 10
Electric dark correction enabled: true
Nonlinearity correction enabled: false
Boxcar width: 0
XAxis mode: Raman Shifts
Number of Pixels in Spectrum: 1044
>>>>>Begin Spectral Data<<<<<
46.04893	1.875
50.45542	-2.225
54.85868	-0.425
59.25871	-0.925
63.6555	56.975
68.04907	61.275
72.43941	64.775
76.82654	67.875
81.21044	70.075
85.59113	74.175
89.96862	77.275
94.34289	74.775
98.71396	80.475
103.08183	88.375
107.4465	89.575
111.80798	89.775
116.16626	92.175
120.52136	95.475
124.87327	96.875
129.222	97.975
133.56755	102.275
137.90993	112.775
142.24913	123.075
146.58517	131.175
150.91804	151.175
155.24774	175.575
159.57429	221.075
163.89768	280.175
168.21792	361.675
172.53501	492.475
176.84895	677.175
181.15975	955.275
185.46741	1336.675
189.77193	1837.375
194.07331	2459.275
198.37157	3197.275
202.6667	3940.475
206.9587	4681.175
211.24758	5432.275
215.53334	6137.675
219.81599	6884.475
224.09553	7705.675
228.37195	8625.375
232.64527	9609.475
236.91549	10667.875
241.18261	11758.475
245.44663	12783.975
249.70755	13765.575
253.96539	14637.975
258.22014	15343.975
262.4718	15915.275
266.72039	16347.775
270.96589	16551.475
275.20832	16632.275
279.44768	16552.675
283.68397	16470.375
287.91719	16329.275
292.14735	16225.675
296.37445	16187.575
300.59849	16188.075
304.81948	16186.675
309.03742	16079.875
313.25231	15961.575
317.46415	15696.575
321.67296	15416.775
325.87872	15168.775
330.08145	15062.675
334.28114	15102.175
338.47781	15206.575
342.67145	15350.675
346.86207	15545.275
351.04966	15758.375
355.23424	15979.875
359.4158	16155.475
363.59435	16280.675
367.76989	16399.775
371.94243	16501.575
376.11196	16549.475
380.27849	16579.675
384.44203	16681.075
388.60257	16797.975
392.76012	16945.075
396.91468	17109.875
401.06626	17325.875
405.21485	17506.975
409.36047	17504.975
413.50311	17404.875
417.64277	17346.475
421.77947	17339.775
425.9132	17439.475
430.04396	17552.875
434.17176	17651.875
438.2966	17758.675
442.41849	17936.175
446.53742	18175.675
450.6534	18445.875
454.76644	18661.775
458.87653	18787.575
462.98368	18829.275
467.08789	18795.375
471.18916	18774.675
475.2875	18753.775
479.38291	18720.175
483.4754	18670.775
487.56496	18535.675
491.6516	18261.375
495.73531	18099.475
499.81612	18006.175
503.89401	18104.975
507.96899	18156.175
512.04106	18223.075
516.11023	18200.875
520.1765	18145.075
524.23987	18021.975
528.30034	17933.275
532.35792	17805.475
536.41261	17675.675
540.46441	17623.975
544.51333	17660.575
548.55936	17817.275
552.60252	18089.475
556.64279	18363.675
560.6802	18539.475
564.71473	18654.675
568.7464	18889.975
572.7752	19272.075
576.80114	19622.075
580.82422	19959.875
584.84444	20233.775
588.86181	20466.075
592.87633	20614.075
596.888	20499.375
600.89682	20212.575
604.9028	20232.575
608.90594	20852.375
612.90624	21492.675
616.90371	20582.475
620.89834	18684.875
624.89015	17865.275
628.87913	17759.575
632.86528	17893.575
636.84862	17946.775
640.82913	17900.875
644.80683	17638.875
648.78172	17492.375
652.75379	17458.275
656.72306	17527.075
660.68952	17649.375
664.65319	17654.075
668.61405	17522.675
672.57211	17529.175
676.52738	17587.475
680.47986	17645.775
684.42955	17609.975
688.37646	17534.375
692.32058	17555.675
696.26192	17637.775
700.20048	17801.675
704.13626	17878.575
708.06928	17938.475
711.99952	17980.175
715.927	17936.475
719.85171	17885.275
723.77365	17774.775
727.69284	17656.575
731.60928	17500.675
735.52295	17436.275
739.43388	17442.075
743.34206	17462.875
747.24749	17494.275
751.15017	17570.075
755.05012	17776.675
758.94733	18088.575
762.8418	18611.875
766.73354	19401.575
770.62254	20168.675
774.50882	20244.275
778.39237	19631.075
782.27321	18783.475
786.15132	18105.175
790.02671	17634.575
793.89938	17402.075
797.76935	17308.875
801.6366	17264.675
805.50115	17235.975
809.36299	17200.475
813.22213	17157.375
817.07857	17141.175
820.93231	17145.675
824.78336	17067.475
828.63172	17021.775
832.47738	17025.875
836.32036	17010.875
840.16066	17006.875
843.99827	17004.675
847.8332	16977.275
851.66546	16948.675
855.49504	16971.375
859.32195	16981.675
863.1462	16960.375
866.96777	16968.975
870.78668	16931.775
874.60293	16940.775
878.41652	16953.275
882.22745	16955.775
886.03573	17000.475
889.84136	17022.675
893.64433	17014.575
897.44466	16982.775
901.24235	16921.275
905.0374	16908.575
908.8298	16876.675
912.61957	16946.375
916.40671	17025.675
920.19121	17142.175
923.97308	17207.975
927.75233	17150.675
931.52895	17037.375
935.30295	16893.775
939.07433	16693.475
942.84309	16542.475
946.60924	16456.775
950.37278	16407.275
954.13371	16356.375
957.89203	16388.675
961.64774	16373.575
965.40086	16369.575
969.15137	16303.975
972.89929	16226.475
976.64461	16151.975
980.38733	16119.575
984.12747	16112.175
987.86502	16184.775
991.59999	16182.275
995.33237	16265.375
999.06217	16368.575
1002.78939	16509.375
1006.51404	16671.575
1010.23611	16866.775
1013.95561	17003.575
1017.67255	17010.975
1021.38692	16936.675
1025.09872	16811.575
1028.80796	16646.575
1032.51465	16638.575
1036.21877	16630.375
1039.92035	16705.175
1043.61937	16763.175
1047.31584	16849.375
1051.00976	16945.775
1054.70114	17073.075
1058.38998	17268.175
1062.07627	17535.475
1065.76003	17900.975
1069.44126	18243.475
1073.11995	18572.675
1076.79611	18711.775
1080.46974	18589.775
1084.14085	18304.275
1087.80943	18077.475
1091.47549	18027.975
1095.13903	17912.675
1098.80005	17836.575
1102.45857	17562.975
1106.11456	17312.975
1109.76805	17138.775
1113.41903	17101.675
1117.06751	17120.975
1120.71348	17248.375
1124.35696	17379.575
1127.99793	17596.275
1131.63641	17773.475
1135.2724	17681.575
1138.90589	17568.575
1142.5369	17574.175
1146.16542	17608.875
1149.79145	17660.975
1153.415	17786.175
1157.03607	17921.275
1160.65467	18202.975
1164.27079	18697.975
1167.88443	19335.075
1171.49561	20078.275
1175.10432	20926.375
1178.71056	22019.875
1182.31434	23009.175
1185.91565	23477.075
1189.51451	23512.375
1193.11091	23262.875
1196.70485	22755.675
1200.29634	22136.275
1203.88538	21648.575
1207.47197	21343.175
1211.05612	21099.275
1214.63782	20783.575
1218.21708	20365.575
1221.79391	19889.675
1225.36829	19548.975
1228.94024	19373.375
1232.50976	19257.175
1236.07685	19220.275
1239.6415	19189.375
1243.20374	19161.475
1246.76355	19273.375
1250.32093	19436.575
1253.8759	19631.875
1257.42845	19973.175
1260.97859	20287.475
1264.52631	20655.675
1268.07163	20940.075
1271.61453	21272.975
1275.15503	21663.875
1278.69312	22074.375
1282.22882	22463.475
1285.76211	22892.175
1289.29301	23571.275
1292.82151	24352.675
1296.34761	25237.975
1299.87133	26207.475
1303.39266	27166.775
1306.9116	27915.075
1310.42815	28504.475
1313.94233	28790.675
1317.45412	28738.975
1320.96354	28599.675
1324.47058	28470.675
1327.97525	28360.675
1331.47754	28417.375
1334.97747	28396.675
1338.47502	28435.075
1341.97022	28447.275
1345.46305	28440.475
1348.95352	28369.375
1352.44163	28250.575
1355.92738	28325.175
1359.41078	28642.375
1362.89183	28935.875
1366.37053	28496.575
1369.84688	26962.375
1373.32088	25084.875
1376.79254	23739.375
1380.26186	23174.975
1383.72883	23069.975
1387.19347	23076.175
1390.65578	22929.275
1394.11575	22877.675
1397.57339	22859.775
1401.0287	22889.475
1404.48168	22874.175
1407.93234	22643.275
1411.38068	22205.075
1414.82669	21584.275
1418.27039	20907.175
1421.71177	20318.275
1425.15083	19772.775
1428.58758	19513.175
1432.02203	19538.375
1435.45416	19840.375
1438.88399	20196.175
1442.31151	20435.475
1445.73673	20674.875
1449.15965	20873.575
1452.58027	21055.975
1455.9986	21178.075
1459.41463	21360.575
1462.82837	21600.175
1466.23982	21849.475
1469.64898	22084.175
1473.05586	22161.475
1476.46045	22201.275
1479.86276	22134.175
1483.26279	22004.675
1486.66054	21936.675
1490.05602	22036.775
1493.44922	22261.875
1496.84016	22613.475
1500.22882	23089.175
1503.61521	23773.575
1506.99934	24485.275
1510.38121	24975.775
1513.76081	25054.275
1517.13816	24702.775
1520.51324	24243.375
1523.88607	23909.275
1527.25665	23741.475
1530.62498	23692.075
1533.99105	23580.475
1537.35488	23333.775
1540.71647	22950.475
1544.07581	22465.275
1547.4329	21952.275
1550.78776	21548.075
1554.14038	21228.475
1557.49077	21113.275
1560.83892	21054.275
1564.18484	21094.675
1567.52853	21314.175
1570.86999	21623.875
1574.20922	22216.475
1577.54624	22842.875
1580.88103	23189.775
1584.2136	23216.175
1587.54395	23116.175
1590.87208	23155.575
1594.19801	23439.375
1597.52172	23908.175
1600.84321	23929.375
1604.16251	23189.475
1607.47959	22100.475
1610.79447	20971.175
1614.10715	19863.075
1617.41763	18899.175
1620.7259	18130.875
1624.03199	17719.975
1627.33587	17635.875
1630.63757	17856.475
1633.93707	18505.475
1637.23439	19660.675
1640.52951	21314.575
1643.82246	23213.975
1647.11321	24752.775
1650.40179	25208.975
1653.68819	24100.275
1656.97241	22057.475
1660.25446	19862.875
1663.53433	18086.975
1666.81203	16866.675
1670.08756	16083.075
1673.36092	15511.075
1676.63211	15203.075
1679.90115	14957.375
1683.16801	14762.075
1686.43272	14645.875
1689.69527	14519.875
1692.95567	14420.775
1696.2139	14420.675
1699.46999	14372.375
1702.72392	14340.575
1705.97571	14283.875
1709.22535	14238.375
1712.47284	14215.375
1715.71819	14178.675
1718.96139	14142.075
1722.20246	14092.375
1725.44139	14068.175
1728.67818	13994.075
1731.91284	13927.675
1735.14537	13873.175
1738.37576	13805.775
1741.60403	13765.175
1744.83017	13748.775
1748.05418	13738.475
1751.27607	13671.775
1754.49584	13682.675
1757.71349	13694.775
1760.92903	13663.875
1764.14244	13662.375
1767.35375	13632.475
1770.56294	13624.775
1773.77002	13579.075
1776.97499	13576.075
1780.17785	13500.475
1783.37861	13491.875
1786.57727	13462.075
1789.77382	13433.775
1792.96828	13412.875
1796.16064	13369.275
1799.3509	13334.975
1802.53907	13313.775
1805.72514	13265.575
1808.90913	13241.075
1812.09102	13191.975
1815.27083	13169.875
1818.44856	13169.875
1821.6242	13133.375
1824.79776	13122.975
1827.96924	13100.975
1831.13864	13093.475
1834.30597	13104.775
1837.47122	13093.375
1840.6344	13080.575
1843.7955	13073.975
1846.95454	13060.975
1850.11151	13042.475
1853.26642	13021.275
1856.41926	13015.875
1859.57004	13001.275
1862.71876	12976.275
1865.86542	12947.975
1869.01003	12949.475
1872.15258	12935.575
1875.29308	12924.975
1878.43152	12859.175
1881.56792	12857.275
1884.70227	12860.675
1887.83457	12823.675
1890.96482	12806.475
1894.09304	12773.375
1897.21921	12790.875
1900.34335	12763.875
1903.46544	12739.775
1906.58551	12730.275
1909.70353	12704.775
1912.81953	12696.675
1915.93349	12644.975
1919.04543	12627.675
1922.15534	12582.275
1925.26322	12576.175
1928.36908	12541.475
1931.47292	12530.175
1934.57473	12486.175
1937.67453	12448.975
1940.77232	12432.475
1943.86808	12409.975
1946.96184	12358.975
1950.05358	12330.675
1953.14331	12287.875
1956.23103	12247.275
1959.31675	12218.775
1962.40046	12194.075
1965.48217	12177.675
1968.56188	12112.975
1971.63959	12054.975
1974.7153	12040.375
1977.78901	11978.875
1980.86073	11943.175
1983.93046	11911.075
1986.99819	11895.875
1990.06394	11865.675
1993.1277	11835.675
1996.18947	11790.175
1999.24925	11756.375
2002.30706	11708.775
2005.36288	11645.175
2008.41672	11634.375
2011.46859	11614.575
2014.51848	11570.375
2017.56639	11543.975
2020.61233	11478.475
2023.6563	11462.075
2026.6983	11462.975
2029.73833	11428.075
2032.7764	11405.175
2035.8125	11362.775
2038.84664	11314.575
2041.87881	11299.975
2044.90903	11282.175
2047.93729	11249.775
2050.96359	11234.375
2053.98794	11242.475
2057.01034	11235.775
2060.03078	11195.675
2063.04927	11179.275
2066.06582	11185.475
2069.08042	11185.675
2072.09307	11152.875
2075.10378	11155.875
2078.11255	11143.075
2081.11938	11123.975
2084.12426	11170.575
2087.12722	11131.775
2090.12824	11132.475
2093.12732	11104.275
2096.12447	11135.175
2099.11969	11118.675
2102.11299	11137.975
2105.10435	11123.575
2108.09379	11128.675
2111.08131	11120.075
2114.0669	11130.375
2117.05057	11100.775
2120.03233	11149.475
2123.01216	11178.775
2125.99008	11120.775
2128.96609	11150.675
2131.94018	11171.575
2134.91236	11150.175
2137.88263	11154.375
2140.851	11151.475
2143.81746	11176.275
2146.78201	11160.275
2149.74466	11163.675
2152.7054	11153.975
2155.66425	11171.075
2158.6212	11162.975
2161.57625	11164.875
2164.52941	11159.975
2167.48067	11144.475
2170.43004	11140.675
2173.37752	11105.075
2176.32311	11110.075
2179.26681	11132.275
2182.20863	11096.275
2185.14856	11093.975
2188.08661	11090.275
2191.02278	11092.375
2193.95707	11045.975
2196.88948	11025.775
2199.82001	11052.375
2202.74867	11031.675
2205.67545	11022.975
2208.60037	10995.275
2211.52341	10999.175
2214.44458	10965.575
2217.36388	10920.575
2220.28132	10926.275
2223.1969	10873.875
2226.11061	10867.275
2229.02246	10846.775
2231.93245	10827.675
2234.84058	10817.975
2237.74686	10797.375
2240.65128	10800.875
2243.55385	10769.475
2246.45456	10726.475
2249.35343	10710.575
2252.25044	10706.875
2255.14561	10659.175
2258.03893	10669.775
2260.93041	10647.475
2263.82004	10632.775
2266.70783	10586.875
2269.59378	10572.675
2272.4779	10546.575
2275.36017	10515.275
2278.24061	10484.975
2281.11922	10452.875
2283.996	10429.975
2286.87094	10421.975
2289.74405	10403.875
2292.61534	10396.975
2295.4848	10353.675
2298.35243	10383.775
2301.21824	10348.175
2304.08223	10305.975
2306.94439	10317.175
2309.80474	10285.475
2312.66327	10287.075
2315.51999	10273.275
2318.37489	10267.775
2321.22797	10270.075
2324.07925	10235.475
2326.92871	10214.975
2329.77637	10229.075
2332.62222	10184.875
2335.46626	10169.775
2338.3085	10164.175
2341.14893	10170.975
2343.98756	10123.075
2346.8244	10116.075
2349.65943	10115.075
2352.49267	10103.075
2355.32411	10087.075
2358.15376	10068.475
2360.98161	10066.375
2363.80768	10078.275
2366.63195	10051.775
2369.45444	10058.275
2372.27514	10037.775
2375.09405	10022.775
2377.91118	9996.775
2380.72652	9995.875
2383.54009	9932.175
2386.35187	9952.275
2389.16188	9906.175
2391.97011	9909.175
2394.77657	9865.775
2397.58125	9870.275
2400.38416	9850.075
2403.18529	9808.675
2405.98466	9801.975
2408.78226	9787.575
2411.57809	9773.075
2414.37216	9764.475
2417.16446	9762.075
2419.955	9730.875
2422.74378	9713.975
2425.5308	9689.675
2428.31606	9684.675
2431.09956	9686.575
2433.88131	9665.475
2436.6613	9672.975
2439.43954	9651.875
2442.21603	9640.675
2444.99077	9635.675
2447.76377	9623.375
2450.53501	9616.875
2453.30451	9607.375
2456.07226	9578.875
2458.83827	9574.775
2461.60254	9549.575
2464.36507	9564.675
2467.12586	9549.275
2469.88492	9517.075
2472.64224	9503.875
2475.39782	9511.275
2478.15167	9519.375
2480.90379	9494.075
2483.65417	9503.975
2486.40283	9488.075
2489.14976	9491.575
2491.89497	9462.675
2494.63845	9479.675
2497.3802	9447.575
2500.12024	9466.075
2502.85855	9456.975
2505.59514	9430.875
2508.33002	9427.575
2511.06318	9409.475
2513.79462	9403.075
2516.52435	9379.075
2519.25237	9390.275
2521.97867	9377.875
2524.70327	9368.175
2527.42616	9335.175
2530.14734	9305.375
2532.86681	9283.575
2535.58458	9266.075
2538.30065	9279.775
2541.01501	9295.275
2543.72768	9257.975
2546.43864	9232.875
2549.14791	9210.675
2551.85548	9193.575
2554.56136	9188.775
2557.26554	9158.775
2559.96803	9152.675
2562.66883	9129.075
2565.36794	9127.075
2568.06536	9119.875
2570.7611	9097.375
2573.45514	9082.675
2576.14751	9067.275
2578.83819	9041.975
2581.52719	9026.575
2584.21451	9010.775
2586.90015	9001.575
2589.58411	8964.575
2592.2664	8968.975
2594.94701	8938.875
2597.62594	8931.175
2600.30321	8901.275
2602.9788	8879.175
2605.65273	8895.275
2608.32498	8879.875
2610.99557	8854.875
2613.66449	8863.075
2616.33175	8841.975
2618.99734	8832.075
2621.66128	8841.775
2624.32355	8805.675
2626.98416	8787.275
2629.64311	8780.975
2632.30041	8780.875
2634.95605	8758.575
2637.61004	8733.975
2640.26238	8721.775
2642.91306	8729.675
2645.56209	8742.075
2648.20948	8721.075
2650.85521	8701.475
2653.4993	8709.775
2656.14175	8711.475
2658.78255	8693.775
2661.42171	8686.275
2664.05923	8708.175
2666.6951	8696.875
2669.32934	8704.975
2671.96194	8666.875
2674.59291	8687.375
2677.22224	8681.075
2679.84993	8699.775
2682.476	8674.975
2685.10043	8668.575
2687.72324	8642.075
2690.34441	8673.275
2692.96396	8650.475
2695.58188	8649.175
2698.19818	8639.875
2700.81285	8661.275
2703.4259	8663.675
2706.03733	8707.575
2708.64714	8667.875
2711.25533	8696.575
2713.86191	8664.175
2716.46687	8692.475
2719.07021	8663.275
2721.67194	8662.075
2724.27206	8621.275
2726.87057	8628.875
2729.46747	8641.575
2732.06276	8624.175
2734.65644	8619.575
2737.24852	8621.975
2739.83899	8584.275
2742.42786	8614.475
2745.01513	8580.675
2747.60079	8584.075
2750.18486	8560.475
2752.76733	8558.175
2755.3482	8554.475
2757.92747	8536.975
2760.50515	8535.575
2763.08123	8523.875
2765.65573	8510.275
2768.22863	8497.375
2770.79994	8481.875
2773.36967	8488.675
2775.9378	8473.075
2778.50435	8437.075
2781.06932	8436.875
2783.6327	8432.075
2786.1945	8409.575
2788.75471	8402.275
2791.31335	8372.075
2793.87041	8373.275
2796.42589	8336.075
2798.97979	8336.175
2801.53212	8309.175
2804.08288	8319.475
2806.63206	8296.075
2809.17967	8272.175
2811.72571	8242.775
2814.27018	8246.875
2816.81308	8200.875
2819.35442	8222.875
2821.89419	8194.875
2824.43239	8195.375
2826.96904	8174.975
2829.50412	8148.075
2832.03763	8162.875
2834.56959	8145.675
2837.1	8137.475
2839.62884	8142.675
2842.15613	8131.675
2844.68186	8151.775
2847.20604	8165.475
2849.72867	8178.675
2852.24974	8158.375
2854.76927	8143.675
2857.28724	8136.475
2859.80367	8134.975
2862.31855	8118.275
2864.83189	8103.175
2867.34368	8072.275
2869.85393	8068.375
2872.36264	8065.275
2874.8698	8067.375
2877.37543	8059.775
2879.87952	8060.275
2882.38207	8052.775
2884.88308	8047.775
2887.38256	8051.575
2889.88051	8035.575
2892.37692	8026.275
2894.8718	8013.375
2897.36515	8013.975
2899.85698	8034.075
2902.34727	8032.975
2904.83604	8045.475
2907.32328	8054.975
2909.809	8047.975
2912.29319	8063.075
2914.77587	8028.775
2917.25702	8018.575
2919.73665	8016.675
2922.21476	8017.675
2924.69136	8012.075
2927.16644	8035.275
2929.64	8018.775
2932.11205	8003.075
2934.58258	7973.875
2937.05161	7994.375
2939.51912	7995.275
2941.98513	7998.675
2944.44962	7955.275
2946.91261	7918.575
2949.37409	7918.975
2951.83407	7894.175
2954.29254	7874.675
2956.74951	7887.275
2959.20498	7863.275
2961.65895	7857.375
2964.11142	7851.475
2966.56239	7831.275
2969.01186	7825.675
2971.45984	7802.275
2973.90632	7778.675
2976.35131	7778.775
2978.7948	7751.875
2981.23681	7748.775
2983.67732	7746.875
2986.11635	7704.275
2988.55388	7697.075
2990.98993	7676.675
2993.4245	7644.475
2995.85758	7631.475
2998.28917	7630.475
3000.71928	7603.575
3003.14791	7563.875
3005.57506	7573.875
3008.00073	7559.175
3010.42493	7560.375
3012.84764	7529.075
3015.26888	7529.975
3017.68865	7508.675
3020.10694	7510.975
3022.52376	7487.075
3024.9391	7469.075
3027.35298	7477.475
3029.76539	7458.175
3032.17632	7467.375
3034.5858	7446.975
3036.9938	7432.375
3039.40034	7433.875
3041.80542	7428.775
3044.20903	7412.575
3046.61118	7389.675
3049.01187	7370.175
3051.4111	7352.575
3053.80888	7386.775
3056.20519	7354.575
3058.60005	7331.575
3060.99345	7316.975
3063.3854	7314.875
3065.7759	7298.075
3068.16494	7288.675
3070.55254	7276.475
3072.93868	7249.975
3075.32338	7230.675
3077.70662	7218.275
3080.08842	7204.675
3082.46878	7199.675
3084.84769	7192.175
3087.22515	7181.975
3089.60118	7195.075
3091.97576	7180.575
3094.3489	7200.775
3096.72061	7187.675
3099.09087	7186.275
3101.4597	7172.475
3103.82709	7161.575
3106.19305	7161.575
3108.55757	7150.675
3110.92066	7150.375
3113.28232	7134.675
3115.64255	7117.875
3118.00134	7105.975
3120.35871	7101.575
3122.71466	7081.375
3125.06917	7086.475
3127.42226	7053.475
3129.77393	7071.875
3132.12417	7080.675
3134.47299	7063.675
3136.82039	7074.375
3139.16636	7079.575
3141.51092	7084.875
3143.85406	7105.975
3146.19579	7088.175
3148.53609	7077.075
3150.87499	7090.775
3153.21246	7080.975
3155.54853	7105.875
3157.88318	7115.475
3160.21642	7101.475
3162.54826	7097.775
3164.87868	7090.975
