Data from AgNP_FTO_APTES_CRN_500uM_R6G_10uM_NaF_0.1M_Addition_RamanShift__26__20-33-58-244.txt Node

Date: Wed Dec 15 20:33:58 GMT 2021
User: TCL
Spectrometer: QEP01345
Trigger mode: 4
Integration Time (sec): 7.000000E0
Scans to average: 10
Electric dark correction enabled: true
Nonlinearity correction enabled: false
Boxcar width: 0
XAxis mode: Raman Shifts
Number of Pixels in Spectrum: 1044
>>>>>Begin Spectral Data<<<<<
46.04893	1.0125
50.45542	-1.6875
54.85868	-1.4875
59.25871	-1.5875
63.6555	60.2125
68.04907	69.9125
72.43941	72.8125
76.82654	79.5125
81.21044	79.1125
85.59113	83.3125
89.96862	87.1125
94.34289	82.2125
98.71396	88.5125
103.08183	94.3125
107.4465	96.8125
111.80798	95.2125
116.16626	102.6125
120.52136	103.5125
124.87327	108.5125
129.222	109.5125
133.56755	120.1125
137.90993	125.7125
142.24913	134.4125
146.58517	148.1125
150.91804	168.5125
155.24774	202.3125
159.57429	245.3125
163.89768	313.4125
168.21792	409.3125
172.53501	555.4125
176.84895	769.9125
181.15975	1082.3125
185.46741	1511.2125
189.77193	2083.8125
194.07331	2782.9125
198.37157	3595.5125
202.6667	4441.1125
206.9587	5287.5125
211.24758	6136.4125
215.53334	6943.1125
219.81599	7806.0125
224.09553	8765.0125
228.37195	9796.3125
232.64527	10936.5125
236.91549	12152.3125
241.18261	13370.6125
245.44663	14517.2125
249.70755	15572.2125
253.96539	16488.1125
258.22014	17281.8125
262.4718	17945.1125
266.72039	18431.7125
270.96589	18632.2125
275.20832	18673.9125
279.44768	18596.3125
283.68397	18419.5125
287.91719	18222.1125
292.14735	18123.8125
296.37445	18084.8125
300.59849	18088.4125
304.81948	18087.8125
309.03742	17982.6125
313.25231	17809.8125
317.46415	17494.5125
321.67296	17153.3125
325.87872	16886.9125
330.08145	16831.5125
334.28114	16875.1125
338.47781	17037.9125
342.67145	17239.3125
346.86207	17488.6125
351.04966	17792.1125
355.23424	18138.0125
359.4158	18413.4125
363.59435	18648.4125
367.76989	18796.6125
371.94243	18958.9125
376.11196	19083.1125
380.27849	19209.2125
384.44203	19288.5125
388.60257	19441.6125
392.76012	19580.1125
396.91468	19733.3125
401.06626	19970.8125
405.21485	20195.7125
409.36047	20145.2125
413.50311	20012.6125
417.64277	19846.9125
421.77947	19795.0125
425.9132	19855.5125
430.04396	20063.5125
434.17176	20263.1125
438.2966	20544.6125
442.41849	20910.2125
446.53742	21449.5125
450.6534	22004.2125
454.76644	22442.0125
458.87653	22608.4125
462.98368	22472.7125
467.08789	22214.9125
471.18916	22065.2125
475.2875	21935.7125
479.38291	21889.0125
483.4754	21783.9125
487.56496	21541.6125
491.6516	21246.8125
495.73531	21014.2125
499.81612	20912.3125
503.89401	20940.0125
507.96899	21016.3125
512.04106	21079.8125
516.11023	21199.4125
520.1765	21290.2125
524.23987	21246.7125
528.30034	21180.1125
532.35792	21074.6125
536.41261	20909.4125
540.46441	20722.3125
544.51333	20732.1125
548.55936	20888.4125
552.60252	21201.0125
556.64279	21525.5125
560.6802	21809.7125
564.71473	21969.9125
568.7464	22174.3125
572.7752	22490.0125
576.80114	22541.9125
580.82422	22553.2125
584.84444	22644.4125
588.86181	23034.4125
592.87633	23555.7125
596.888	23935.3125
600.89682	23888.1125
604.9028	24140.2125
608.90594	25284.0125
612.90624	26638.1125
616.90371	25601.4125
620.89834	22681.3125
624.89015	21357.1125
628.87913	21172.6125
632.86528	21226.0125
636.84862	21344.1125
640.82913	21215.4125
644.80683	20840.7125
648.78172	20600.3125
652.75379	20579.1125
656.72306	20712.9125
660.68952	20929.8125
664.65319	20888.7125
668.61405	20680.9125
672.57211	20646.9125
676.52738	20716.6125
680.47986	20788.2125
684.42955	20733.3125
688.37646	20676.5125
692.32058	20722.6125
696.26192	20832.4125
700.20048	20952.6125
704.13626	21075.0125
708.06928	20997.4125
711.99952	20885.8125
715.927	20789.3125
719.85171	20747.5125
723.77365	20708.9125
727.69284	20525.6125
731.60928	20415.5125
735.52295	20353.1125
739.43388	20340.0125
743.34206	20336.8125
747.24749	20374.5125
751.15017	20421.3125
755.05012	20581.2125
758.94733	20925.3125
762.8418	21560.9125
766.73354	22605.7125
770.62254	23644.3125
774.50882	23981.5125
778.39237	23245.4125
782.27321	21990.2125
786.15132	20875.2125
790.02671	20304.1125
793.89938	20003.5125
797.76935	19871.1125
801.6366	19831.5125
805.50115	19827.3125
809.36299	19803.3125
813.22213	19750.3125
817.07857	19744.9125
820.93231	19705.4125
824.78336	19694.2125
828.63172	19659.5125
832.47738	19657.5125
836.32036	19696.2125
840.16066	19682.3125
843.99827	19705.6125
847.8332	19667.6125
851.66546	19602.9125
855.49504	19606.8125
859.32195	19642.5125
863.1462	19631.0125
866.96777	19618.1125
870.78668	19566.8125
874.60293	19533.9125
878.41652	19493.6125
882.22745	19583.9125
886.03573	19554.6125
889.84136	19549.5125
893.64433	19483.2125
897.44466	19439.3125
901.24235	19387.4125
905.0374	19325.7125
908.8298	19332.8125
912.61957	19358.1125
916.40671	19457.6125
920.19121	19582.0125
923.97308	19675.8125
927.75233	19789.7125
931.52895	19726.3125
935.30295	19623.9125
939.07433	19385.6125
942.84309	19204.0125
946.60924	19077.1125
950.37278	18969.6125
954.13371	18909.0125
957.89203	18876.7125
961.64774	18859.6125
965.40086	18814.5125
969.15137	18740.9125
972.89929	18648.6125
976.64461	18608.5125
980.38733	18611.2125
984.12747	18651.3125
987.86502	18749.3125
991.59999	18847.2125
995.33237	19051.0125
999.06217	19344.6125
1002.78939	19650.0125
1006.51404	19948.7125
1010.23611	20085.7125
1013.95561	20214.9125
1017.67255	20197.4125
1021.38692	20047.8125
1025.09872	19862.3125
1028.80796	19861.1125
1032.51465	19969.1125
1036.21877	20133.9125
1039.92035	20163.0125
1043.61937	20104.9125
1047.31584	20028.8125
1051.00976	19902.8125
1054.70114	19915.2125
1058.38998	19970.5125
1062.07627	20219.1125
1065.76003	20560.0125
1069.44126	20976.0125
1073.11995	21522.9125
1076.79611	21896.9125
1080.46974	21929.0125
1084.14085	21616.4125
1087.80943	21229.2125
1091.47549	20924.0125
1095.13903	20690.1125
1098.80005	20410.3125
1102.45857	20146.0125
1106.11456	19931.6125
1109.76805	19940.0125
1113.41903	20009.8125
1117.06751	20127.1125
1120.71348	20286.7125
1124.35696	20464.2125
1127.99793	20694.0125
1131.63641	20855.1125
1135.2724	20682.3125
1138.90589	20542.7125
1142.5369	20420.5125
1146.16542	20381.1125
1149.79145	20365.5125
1153.415	20505.6125
1157.03607	20663.4125
1160.65467	21027.4125
1164.27079	21579.7125
1167.88443	22388.4125
1171.49561	23427.7125
1175.10432	24846.7125
1178.71056	26453.0125
1182.31434	27890.3125
1185.91565	28336.0125
1189.51451	28020.5125
1193.11091	27288.5125
1196.70485	26433.5125
1200.29634	25667.5125
1203.88538	25051.2125
1207.47197	24606.7125
1211.05612	24229.1125
1214.63782	23951.2125
1218.21708	23738.3125
1221.79391	23654.0125
1225.36829	23497.7125
1228.94024	23236.0125
1232.50976	22942.4125
1236.07685	22751.0125
1239.6415	22636.7125
1243.20374	22697.5125
1246.76355	22811.1125
1250.32093	23002.8125
1253.8759	23339.9125
1257.42845	23701.4125
1260.97859	24080.8125
1264.52631	24430.1125
1268.07163	24837.4125
1271.61453	25268.2125
1275.15503	25683.1125
1278.69312	26170.1125
1282.22882	26557.8125
1285.76211	27044.6125
1289.29301	27744.2125
1292.82151	28669.0125
1296.34761	29823.3125
1299.87133	31148.1125
1303.39266	32645.8125
1306.9116	34253.0125
1310.42815	35875.3125
1313.94233	36975.5125
1317.45412	37136.5125
1320.96354	36691.1125
1324.47058	36068.2125
1327.97525	35305.9125
1331.47754	34731.8125
1334.97747	34584.1125
1338.47502	34663.4125
1341.97022	34632.4125
1345.46305	34348.9125
1348.95352	33946.6125
1352.44163	33832.9125
1355.92738	34337.5125
1359.41078	35550.1125
1362.89183	36756.6125
1366.37053	36439.8125
1369.84688	34086.9125
1373.32088	31096.1125
1376.79254	29090.5125
1380.26186	28287.8125
1383.72883	28153.8125
1387.19347	28139.2125
1390.65578	28052.3125
1394.11575	28121.6125
1397.57339	28439.5125
1401.0287	29002.2125
1404.48168	29574.9125
1407.93234	29858.7125
1411.38068	29648.9125
1414.82669	29016.0125
1418.27039	28019.1125
1421.71177	26911.0125
1425.15083	25979.7125
1428.58758	25430.6125
1432.02203	25400.1125
1435.45416	25682.7125
1438.88399	26192.0125
1442.31151	26582.7125
1445.73673	26979.4125
1449.15965	27341.0125
1452.58027	27617.8125
1455.9986	27761.6125
1459.41463	27875.2125
1462.82837	28140.7125
1466.23982	28606.5125
1469.64898	29000.6125
1473.05586	29184.6125
1476.46045	29163.7125
1479.86276	29043.7125
1483.26279	28785.5125
1486.66054	28518.2125
1490.05602	28436.7125
1493.44922	28377.8125
1496.84016	28262.5125
1500.22882	28382.5125
1503.61521	28744.7125
1506.99934	29456.3125
1510.38121	30219.4125
1513.76081	30504.7125
1517.13816	29996.7125
1520.51324	29044.7125
1523.88607	28113.7125
1527.25665	27596.1125
1530.62498	27460.9125
1533.99105	27493.7125
1537.35488	27549.2125
1540.71647	27444.7125
1544.07581	27207.0125
1547.4329	26879.9125
1550.78776	26532.6125
1554.14038	26283.3125
1557.49077	26174.8125
1560.83892	26144.6125
1564.18484	26200.9125
1567.52853	26409.8125
1570.86999	26895.4125
1574.20922	27664.3125
1577.54624	28540.5125
1580.88103	29022.8125
1584.2136	29010.1125
1587.54395	28920.5125
1590.87208	29209.3125
1594.19801	30062.7125
1597.52172	31221.8125
1600.84321	31702.4125
1604.16251	30859.3125
1607.47959	28980.0125
1610.79447	26922.6125
1614.10715	24890.2125
1617.41763	23419.7125
1620.7259	22398.9125
1624.03199	21922.1125
1627.33587	21901.1125
1630.63757	22260.8125
1633.93707	23228.9125
1637.23439	24727.1125
1640.52951	26854.5125
1643.82246	29264.6125
1647.11321	31270.6125
1650.40179	31712.8125
1653.68819	30204.8125
1656.97241	27243.5125
1660.25446	24222.1125
1663.53433	21942.1125
1666.81203	20453.1125
1670.08756	19485.7125
1673.36092	18900.0125
1676.63211	18483.8125
1679.90115	18189.1125
1683.16801	17968.4125
1686.43272	17793.3125
1689.69527	17684.3125
1692.95567	17542.4125
1696.2139	17522.5125
1699.46999	17495.2125
1702.72392	17476.4125
1705.97571	17409.9125
1709.22535	17351.5125
1712.47284	17380.1125
1715.71819	17327.9125
1718.96139	17284.3125
1722.20246	17205.8125
1725.44139	17151.5125
1728.67818	17068.4125
1731.91284	17024.5125
1735.14537	16940.7125
1738.37576	16885.3125
1741.60403	16860.6125
1744.83017	16803.0125
1748.05418	16824.8125
1751.27607	16770.7125
1754.49584	16746.1125
1757.71349	16786.5125
1760.92903	16707.0125
1764.14244	16700.9125
1767.35375	16671.2125
1770.56294	16645.6125
1773.77002	16650.9125
1776.97499	16633.3125
1780.17785	16580.1125
1783.37861	16562.4125
1786.57727	16524.9125
1789.77382	16469.6125
1792.96828	16474.6125
1796.16064	16472.4125
1799.3509	16404.1125
1802.53907	16383.0125
1805.72514	16372.5125
1808.90913	16332.7125
1812.09102	16293.0125
1815.27083	16249.5125
1818.44856	16241.5125
1821.6242	16189.3125
1824.79776	16194.4125
1827.96924	16189.8125
1831.13864	16204.0125
1834.30597	16156.6125
1837.47122	16153.5125
1840.6344	16126.8125
1843.7955	16140.9125
1846.95454	16097.4125
1850.11151	16105.7125
1853.26642	16094.2125
1856.41926	16079.3125
1859.57004	16066.4125
1862.71876	16048.3125
1865.86542	16083.6125
1869.01003	16070.2125
1872.15258	16072.3125
1875.29308	16052.8125
1878.43152	16028.4125
1881.56792	16049.4125
1884.70227	16074.5125
1887.83457	16023.3125
1890.96482	16022.7125
1894.09304	15996.9125
1897.21921	16005.8125
1900.34335	15982.7125
1903.46544	15959.9125
1906.58551	15990.4125
1909.70353	15924.6125
1912.81953	15953.1125
1915.93349	15921.3125
1919.04543	15854.7125
1922.15534	15859.0125
1925.26322	15847.9125
1928.36908	15824.8125
1931.47292	15812.2125
1934.57473	15753.9125
1937.67453	15673.7125
1940.77232	15667.0125
1943.86808	15634.4125
1946.96184	15608.8125
1950.05358	15513.5125
1953.14331	15490.7125
1956.23103	15442.2125
1959.31675	15424.7125
1962.40046	15375.4125
1965.48217	15340.6125
1968.56188	15284.3125
1971.63959	15237.4125
1974.7153	15173.2125
1977.78901	15139.9125
1980.86073	15097.6125
1983.93046	15057.6125
1986.99819	15036.6125
1990.06394	14998.2125
1993.1277	14946.7125
1996.18947	14872.1125
1999.24925	14858.5125
2002.30706	14824.4125
2005.36288	14773.3125
2008.41672	14722.1125
2011.46859	14672.6125
2014.51848	14666.7125
2017.56639	14633.5125
2020.61233	14581.4125
2023.6563	14574.1125
2026.6983	14522.3125
2029.73833	14507.3125
2032.7764	14487.3125
2035.8125	14435.8125
2038.84664	14442.9125
2041.87881	14425.3125
2044.90903	14395.1125
2047.93729	14362.0125
2050.96359	14359.6125
2053.98794	14336.3125
2057.01034	14333.2125
2060.03078	14309.0125
2063.04927	14268.1125
2066.06582	14282.1125
2069.08042	14283.9125
2072.09307	14283.3125
2075.10378	14265.0125
2078.11255	14227.1125
2081.11938	14237.0125
2084.12426	14264.3125
2087.12722	14215.5125
2090.12824	14257.9125
2093.12732	14266.5125
2096.12447	14233.3125
2099.11969	14236.8125
2102.11299	14245.3125
2105.10435	14251.8125
2108.09379	14268.0125
2111.08131	14241.5125
2114.0669	14233.0125
2117.05057	14269.0125
2120.03233	14273.2125
2123.01216	14282.9125
2125.99008	14276.2125
2128.96609	14294.6125
2131.94018	14303.5125
2134.91236	14332.5125
2137.88263	14304.0125
2140.851	14353.5125
2143.81746	14319.0125
2146.78201	14343.5125
2149.74466	14349.4125
2152.7054	14354.1125
2155.66425	14363.7125
2158.6212	14391.1125
2161.57625	14384.2125
2164.52941	14354.6125
2167.48067	14341.6125
2170.43004	14306.0125
2173.37752	14328.4125
2176.32311	14323.3125
2179.26681	14344.1125
2182.20863	14333.5125
2185.14856	14337.3125
2188.08661	14308.8125
2191.02278	14305.2125
2193.95707	14285.6125
2196.88948	14265.0125
2199.82001	14273.0125
2202.74867	14250.4125
2205.67545	14279.7125
2208.60037	14270.0125
2211.52341	14241.3125
2214.44458	14215.5125
2217.36388	14189.3125
2220.28132	14160.2125
2223.1969	14112.3125
2226.11061	14122.3125
2229.02246	14080.0125
2231.93245	14071.3125
2234.84058	14034.8125
2237.74686	14021.8125
2240.65128	14012.5125
2243.55385	13981.4125
2246.45456	13952.7125
2249.35343	13949.3125
2252.25044	13939.2125
2255.14561	13903.2125
2258.03893	13901.0125
2260.93041	13865.5125
2263.82004	13821.3125
2266.70783	13807.8125
2269.59378	13745.9125
2272.4779	13758.8125
2275.36017	13752.7125
2278.24061	13679.6125
2281.11922	13627.4125
2283.996	13617.4125
2286.87094	13621.3125
2289.74405	13575.1125
2292.61534	13557.1125
2295.4848	13553.5125
2298.35243	13546.0125
2301.21824	13522.9125
2304.08223	13516.3125
2306.94439	13539.1125
2309.80474	13515.5125
2312.66327	13521.2125
2315.51999	13528.7125
2318.37489	13527.8125
2321.22797	13493.6125
2324.07925	13480.3125
2326.92871	13490.4125
2329.77637	13503.3125
2332.62222	13434.3125
2335.46626	13419.7125
2338.3085	13402.0125
2341.14893	13417.4125
2343.98756	13365.9125
2346.8244	13382.9125
2349.65943	13379.4125
2352.49267	13332.9125
2355.32411	13370.2125
2358.15376	13355.1125
2360.98161	13333.7125
2363.80768	13291.6125
2366.63195	13330.2125
2369.45444	13264.7125
2372.27514	13280.8125
2375.09405	13271.1125
2377.91118	13251.4125
2380.72652	13206.8125
2383.54009	13173.9125
2386.35187	13174.0125
2389.16188	13129.8125
2391.97011	13112.7125
2394.77657	13094.5125
2397.58125	13070.9125
2400.38416	13060.4125
2403.18529	13049.9125
2405.98466	13029.8125
2408.78226	13014.3125
2411.57809	12989.0125
2414.37216	12959.0125
2417.16446	12932.6125
2419.955	12924.8125
2422.74378	12900.8125
2425.5308	12887.9125
2428.31606	12869.6125
2431.09956	12860.6125
2433.88131	12848.8125
2436.6613	12884.8125
2439.43954	12869.8125
2442.21603	12826.2125
2444.99077	12827.9125
2447.76377	12830.0125
2450.53501	12830.8125
2453.30451	12798.4125
2456.07226	12795.8125
2458.83827	12777.9125
2461.60254	12792.7125
2464.36507	12750.2125
2467.12586	12776.2125
2469.88492	12731.7125
2472.64224	12733.4125
2475.39782	12706.9125
2478.15167	12743.9125
2480.90379	12718.6125
2483.65417	12761.9125
2486.40283	12752.6125
2489.14976	12743.5125
2491.89497	12723.1125
2494.63845	12738.9125
2497.3802	12728.5125
2500.12024	12710.0125
2502.85855	12720.0125
2505.59514	12702.1125
2508.33002	12686.4125
2511.06318	12680.6125
2513.79462	12669.5125
2516.52435	12651.7125
2519.25237	12645.6125
2521.97867	12620.8125
2524.70327	12608.2125
2527.42616	12581.1125
2530.14734	12592.6125
2532.86681	12570.5125
2535.58458	12550.6125
2538.30065	12521.8125
2541.01501	12553.5125
2543.72768	12534.1125
2546.43864	12501.0125
2549.14791	12470.6125
2551.85548	12449.9125
2554.56136	12442.1125
2557.26554	12409.9125
2559.96803	12381.5125
2562.66883	12398.1125
2565.36794	12377.3125
2568.06536	12366.2125
2570.7611	12377.8125
2573.45514	12359.2125
2576.14751	12324.3125
2578.83819	12295.9125
2581.52719	12278.9125
2584.21451	12268.5125
2586.90015	12280.9125
2589.58411	12248.6125
2592.2664	12247.8125
2594.94701	12226.9125
2597.62594	12225.3125
2600.30321	12164.4125
2602.9788	12184.8125
2605.65273	12149.6125
2608.32498	12166.2125
2610.99557	12129.2125
2613.66449	12133.5125
2616.33175	12118.4125
2618.99734	12132.4125
2621.66128	12113.3125
2624.32355	12112.6125
2626.98416	12127.2125
2629.64311	12099.6125
2632.30041	12090.5125
2634.95605	12077.8125
2637.61004	12057.1125
2640.26238	12054.5125
2642.91306	12045.9125
2645.56209	12030.8125
2648.20948	12038.8125
2650.85521	12029.5125
2653.4993	12034.0125
2656.14175	12023.6125
2658.78255	12019.6125
2661.42171	12032.8125
2664.05923	12041.2125
2666.6951	12027.4125
2669.32934	12039.3125
2671.96194	12012.7125
2674.59291	12036.6125
2677.22224	12038.1125
2679.84993	12044.8125
2682.476	12029.4125
2685.10043	11997.3125
2687.72324	11984.0125
2690.34441	11993.4125
2692.96396	12005.2125
2695.58188	12005.6125
2698.19818	12010.8125
2700.81285	12025.0125
2703.4259	11999.1125
2706.03733	12064.1125
2708.64714	12064.3125
2711.25533	12053.9125
2713.86191	12048.5125
2716.46687	12053.9125
2719.07021	12041.1125
2721.67194	12027.5125
2724.27206	12006.1125
2726.87057	12009.7125
2729.46747	12036.9125
2732.06276	12000.7125
2734.65644	12000.4125
2737.24852	12005.0125
2739.83899	12024.0125
2742.42786	11999.5125
2745.01513	11989.6125
2747.60079	11984.3125
2750.18486	11943.9125
2752.76733	11966.8125
2755.3482	11958.9125
2757.92747	11950.4125
2760.50515	11945.0125
2763.08123	11950.0125
2765.65573	11941.9125
2768.22863	11933.0125
2770.79994	11903.7125
2773.36967	11901.0125
2775.9378	11898.4125
2778.50435	11875.2125
2781.06932	11867.3125
2783.6327	11865.0125
2786.1945	11863.7125
2788.75471	11835.8125
2791.31335	11806.1125
2793.87041	11801.0125
2796.42589	11768.5125
2798.97979	11775.8125
2801.53212	11745.3125
2804.08288	11735.4125
2806.63206	11686.3125
2809.17967	11674.5125
2811.72571	11668.6125
2814.27018	11660.1125
2816.81308	11616.2125
2819.35442	11629.4125
2821.89419	11598.3125
2824.43239	11594.6125
2826.96904	11579.2125
2829.50412	11587.3125
2832.03763	11528.1125
2834.56959	11548.4125
2837.1	11550.3125
2839.62884	11539.4125
2842.15613	11510.6125
2844.68186	11561.2125
2847.20604	11532.3125
2849.72867	11543.2125
2852.24974	11527.4125
2854.76927	11508.1125
2857.28724	11499.7125
2859.80367	11469.6125
2862.31855	11478.1125
2864.83189	11444.0125
2867.34368	11452.8125
2869.85393	11432.4125
2872.36264	11436.9125
2874.8698	11444.1125
2877.37543	11448.3125
2879.87952	11439.8125
2882.38207	11481.5125
2884.88308	11442.9125
2887.38256	11483.9125
2889.88051	11457.0125
2892.37692	11476.8125
2894.8718	11464.6125
2897.36515	11455.8125
2899.85698	11488.9125
2902.34727	11506.0125
2904.83604	11512.7125
2907.32328	11519.8125
2909.809	11531.0125
2912.29319	11545.6125
2914.77587	11531.7125
2917.25702	11512.7125
2919.73665	11524.3125
2922.21476	11523.5125
2924.69136	11547.3125
2927.16644	11514.9125
2929.64	11505.9125
2932.11205	11497.9125
2934.58258	11443.2125
2937.05161	11507.6125
2939.51912	11499.6125
2941.98513	11453.5125
2944.44962	11426.2125
2946.91261	11367.6125
2949.37409	11403.5125
2951.83407	11369.0125
2954.29254	11354.5125
2956.74951	11310.2125
2959.20498	11287.3125
2961.65895	11277.5125
2964.11142	11289.3125
2966.56239	11246.0125
2969.01186	11235.6125
2971.45984	11215.8125
2973.90632	11187.6125
2976.35131	11180.6125
2978.7948	11156.4125
2981.23681	11115.6125
2983.67732	11114.1125
2986.11635	11053.8125
2988.55388	11043.4125
2990.98993	10997.2125
2993.4245	10978.2125
2995.85758	10991.8125
2998.28917	10942.2125
3000.71928	10922.8125
3003.14791	10913.3125
3005.57506	10910.9125
3008.00073	10882.9125
3010.42493	10881.3125
3012.84764	10845.1125
3015.26888	10834.4125
3017.68865	10810.0125
3020.10694	10794.5125
3022.52376	10765.3125
3024.9391	10758.7125
