Data from AgNP_FTO_APTES_CRN_500uM_R6G_10uM_NaF_0.1M_Addition_RamanShift__29__20-37-28-248.txt Node

Date: Wed Dec 15 20:37:28 GMT 2021
User: TCL
Spectrometer: QEP01345
Trigger mode: 4
Integration Time (sec): 7.000000E0
Scans to average: 10
Electric dark correction enabled: true
Nonlinearity correction enabled: false
Boxcar width: 0
XAxis mode: Raman Shifts
Number of Pixels in Spectrum: 1044
>>>>>Begin Spectral Data<<<<<
46.04893	0.7625
50.45542	-1.6375
54.85868	-0.8375
59.25871	-1.7375
63.6555	69.1625
68.04907	73.4625
72.43941	74.3625
76.82654	81.6625
81.21044	82.8625
85.59113	86.1625
89.96862	91.5625
94.34289	88.5625
98.71396	96.3625
103.08183	102.7625
107.4465	104.6625
111.80798	104.0625
116.16626	107.7625
120.52136	114.8625
124.87327	113.4625
129.222	119.1625
133.56755	121.7625
137.90993	133.0625
142.24913	149.3625
146.58517	166.0625
150.91804	185.4625
155.24774	224.9625
159.57429	283.0625
163.89768	357.0625
168.21792	468.9625
172.53501	640.9625
176.84895	879.3625
181.15975	1246.2625
185.46741	1735.3625
189.77193	2406.5625
194.07331	3228.3625
198.37157	4147.3625
202.6667	5127.8625
206.9587	6113.7625
211.24758	7093.0625
215.53334	8042.7625
219.81599	9116.4625
224.09553	10282.8625
228.37195	11560.5625
232.64527	12981.7625
236.91549	14392.8625
241.18261	15829.2625
245.44663	17045.2625
249.70755	18116.6625
253.96539	19054.7625
258.22014	19835.1625
262.4718	20567.5625
266.72039	21055.2625
270.96589	21353.5625
275.20832	21404.8625
279.44768	21223.7625
283.68397	20931.2625
287.91719	20750.1625
292.14735	20691.1625
296.37445	20926.9625
300.59849	21268.8625
304.81948	21718.5625
309.03742	22008.2625
313.25231	21865.8625
317.46415	21137.5625
321.67296	20088.3625
325.87872	19192.9625
330.08145	18803.3625
334.28114	18812.7625
338.47781	19064.9625
342.67145	19482.4625
346.86207	20034.0625
351.04966	20837.0625
355.23424	21783.6625
359.4158	22466.3625
363.59435	22842.7625
367.76989	23044.8625
371.94243	23115.0625
376.11196	23143.3625
380.27849	23125.2625
384.44203	23041.4625
388.60257	22939.6625
392.76012	22884.3625
396.91468	22999.9625
401.06626	23437.7625
405.21485	23785.4625
409.36047	23547.1625
413.50311	22783.5625
417.64277	22066.1625
421.77947	21644.9625
425.9132	21576.5625
430.04396	21628.1625
434.17176	21791.9625
438.2966	22126.4625
442.41849	22600.1625
446.53742	23215.3625
450.6534	23817.7625
454.76644	24205.2625
458.87653	24327.7625
462.98368	24212.7625
467.08789	23950.9625
471.18916	23629.3625
475.2875	23265.5625
479.38291	22991.9625
483.4754	22672.1625
487.56496	22364.0625
491.6516	22124.6625
495.73531	21933.0625
499.81612	21925.1625
503.89401	22083.6625
507.96899	22308.8625
512.04106	22605.7625
516.11023	22988.2625
520.1765	23288.6625
524.23987	23358.4625
528.30034	23201.8625
532.35792	22861.5625
536.41261	22502.7625
540.46441	22190.6625
544.51333	22068.7625
548.55936	22151.8625
552.60252	22495.6625
556.64279	22905.1625
560.6802	23178.5625
564.71473	23372.8625
568.7464	23921.0625
572.7752	24278.8625
576.80114	23856.3625
580.82422	23277.9625
584.84444	23005.9625
588.86181	23071.4625
592.87633	23406.1625
596.888	23721.0625
600.89682	24177.6625
604.9028	25742.7625
608.90594	30152.5625
612.90624	35739.2625
616.90371	34377.4625
620.89834	26718.7625
624.89015	23142.9625
628.87913	22450.1625
632.86528	22464.0625
636.84862	22591.2625
640.82913	22391.7625
644.80683	21827.1625
648.78172	21458.7625
652.75379	21488.8625
656.72306	22024.3625
660.68952	22692.9625
664.65319	22581.4625
668.61405	21888.3625
672.57211	21578.7625
676.52738	21619.7625
680.47986	21624.3625
684.42955	21562.6625
688.37646	21502.8625
692.32058	21545.2625
696.26192	21711.3625
700.20048	21889.3625
704.13626	21960.8625
708.06928	21883.2625
711.99952	21692.7625
715.927	21671.4625
719.85171	21628.3625
723.77365	21574.7625
727.69284	21360.8625
731.60928	21187.8625
735.52295	21128.9625
739.43388	21110.9625
743.34206	21170.1625
747.24749	21160.0625
751.15017	21215.6625
755.05012	21458.4625
758.94733	22108.6625
762.8418	23613.1625
766.73354	26141.2625
770.62254	28802.0625
774.50882	30124.8625
778.39237	28985.9625
782.27321	26063.1625
786.15132	23390.7625
790.02671	21825.3625
793.89938	21109.9625
797.76935	20816.0625
801.6366	20687.6625
805.50115	20599.9625
809.36299	20531.5625
813.22213	20502.3625
817.07857	20501.7625
820.93231	20474.5625
824.78336	20495.1625
828.63172	20565.7625
832.47738	20614.8625
836.32036	20591.7625
840.16066	20542.3625
843.99827	20497.0625
847.8332	20402.1625
851.66546	20379.1625
855.49504	20351.2625
859.32195	20368.0625
863.1462	20346.7625
866.96777	20262.3625
870.78668	20182.6625
874.60293	20187.4625
878.41652	20196.6625
882.22745	20233.6625
886.03573	20265.6625
889.84136	20245.5625
893.64433	20146.7625
897.44466	20088.3625
901.24235	20071.0625
905.0374	20057.6625
908.8298	20010.0625
912.61957	19998.6625
916.40671	20058.8625
920.19121	20165.9625
923.97308	20292.2625
927.75233	20446.3625
931.52895	20555.1625
935.30295	20485.4625
939.07433	20092.2625
942.84309	19718.3625
946.60924	19462.3625
950.37278	19352.7625
954.13371	19250.8625
957.89203	19198.6625
961.64774	19163.8625
965.40086	19119.3625
969.15137	19019.0625
972.89929	18930.6625
976.64461	18926.9625
980.38733	18913.7625
984.12747	18962.9625
987.86502	19073.1625
991.59999	19167.0625
995.33237	19318.9625
999.06217	19673.1625
1002.78939	20073.2625
1006.51404	20409.1625
1010.23611	20665.9625
1013.95561	20877.6625
1017.67255	20825.0625
1021.38692	20607.0625
1025.09872	20366.2625
1028.80796	20316.9625
1032.51465	20480.9625
1036.21877	20673.6625
1039.92035	20796.5625
1043.61937	20755.3625
1047.31584	20672.4625
1051.00976	20521.4625
1054.70114	20477.8625
1058.38998	20546.3625
1062.07627	20739.6625
1065.76003	21066.1625
1069.44126	21526.6625
1073.11995	22129.2625
1076.79611	22729.2625
1080.46974	22962.6625
1084.14085	22896.9625
1087.80943	22680.6625
1091.47549	22317.5625
1095.13903	21771.8625
1098.80005	21192.6625
1102.45857	20729.7625
1106.11456	20514.9625
1109.76805	20620.9625
1113.41903	20866.3625
1117.06751	21267.0625
1120.71348	21830.5625
1124.35696	22312.6625
1127.99793	22824.2625
1131.63641	22842.7625
1135.2724	22270.1625
1138.90589	21645.0625
1142.5369	21200.6625
1146.16542	20928.7625
1149.79145	20743.1625
1153.415	20790.2625
1157.03607	20910.9625
1160.65467	21230.7625
1164.27079	21838.8625
1167.88443	22771.4625
1171.49561	24249.5625
1175.10432	26486.0625
1178.71056	29256.9625
1182.31434	31414.2625
1185.91565	31909.4625
1189.51451	31241.2625
1193.11091	29727.6625
1196.70485	28006.0625
1200.29634	26718.4625
1203.88538	25678.2625
1207.47197	24674.1625
1211.05612	23820.1625
1214.63782	23340.9625
1218.21708	23164.1625
1221.79391	23152.2625
1225.36829	23110.4625
1228.94024	22979.2625
1232.50976	22825.9625
1236.07685	22800.5625
1239.6415	22877.8625
1243.20374	23001.1625
1246.76355	23132.9625
1250.32093	23379.4625
1253.8759	23787.4625
1257.42845	24312.8625
1260.97859	24857.2625
1264.52631	25300.6625
1268.07163	25792.9625
1271.61453	26352.3625
1275.15503	26686.6625
1278.69312	26988.0625
1282.22882	27111.5625
1285.76211	27534.1625
1289.29301	28172.3625
1292.82151	29034.8625
1296.34761	29987.1625
1299.87133	31289.9625
1303.39266	33212.3625
1306.9116	35997.7625
1310.42815	39077.1625
1313.94233	40946.3625
1317.45412	40539.3625
1320.96354	38808.8625
1324.47058	36722.0625
1327.97525	34835.8625
1331.47754	33597.8625
1334.97747	33217.4625
1338.47502	33482.8625
1341.97022	34035.6625
1345.46305	34681.0625
1348.95352	35545.6625
1352.44163	37107.7625
1355.92738	39591.9625
1359.41078	43639.3625
1362.89183	47465.1625
1366.37053	46532.5625
1369.84688	40915.6625
1373.32088	35230.2625
1376.79254	31592.2625
1380.26186	29847.1625
1383.72883	29016.8625
1387.19347	28424.0625
1390.65578	27729.6625
1394.11575	27276.2625
1397.57339	27152.1625
1401.0287	27347.5625
1404.48168	27675.0625
1407.93234	27986.0625
1411.38068	28096.1625
1414.82669	27843.7625
1418.27039	27230.0625
1421.71177	26505.2625
1425.15083	25807.8625
1428.58758	25435.8625
1432.02203	25416.9625
1435.45416	25610.1625
1438.88399	25810.1625
1442.31151	25960.7625
1445.73673	26145.6625
1449.15965	26407.6625
1452.58027	26500.2625
1455.9986	26458.9625
1459.41463	26460.9625
1462.82837	26699.2625
1466.23982	27135.7625
1469.64898	27664.4625
1473.05586	27973.5625
1476.46045	28106.8625
1479.86276	28304.7625
1483.26279	28528.8625
1486.66054	28862.1625
1490.05602	29317.2625
1493.44922	29906.3625
1496.84016	30786.0625
1500.22882	32223.4625
1503.61521	34462.1625
1506.99934	37274.6625
1510.38121	40035.3625
1513.76081	41399.0625
1517.13816	39973.3625
1520.51324	36539.5625
1523.88607	32983.6625
1527.25665	30565.5625
1530.62498	29230.2625
1533.99105	28571.6625
1537.35488	28229.6625
1540.71647	28002.1625
1544.07581	27913.8625
1547.4329	27733.6625
1550.78776	27595.7625
1554.14038	27503.2625
1557.49077	27528.1625
1560.83892	27771.7625
1564.18484	28224.2625
1567.52853	28767.4625
1570.86999	29444.7625
1574.20922	30290.2625
1577.54624	30982.8625
1580.88103	30721.4625
1584.2136	29692.6625
1587.54395	28647.6625
1590.87208	28462.8625
1594.19801	29304.6625
1597.52172	30706.3625
1600.84321	31360.5625
1604.16251	30585.9625
1607.47959	28747.7625
1610.79447	26713.5625
1614.10715	24787.7625
1617.41763	23264.5625
1620.7259	22287.6625
1624.03199	21818.2625
1627.33587	21782.2625
1630.63757	22166.2625
1633.93707	23062.6625
1637.23439	24436.9625
1640.52951	26419.7625
1643.82246	28961.6625
1647.11321	31679.4625
1650.40179	33345.0625
1653.68819	32320.9625
1656.97241	28832.4625
1660.25446	25001.1625
1663.53433	22270.6625
1666.81203	20579.2625
1670.08756	19528.4625
1673.36092	18900.4625
1676.63211	18493.8625
1679.90115	18218.0625
1683.16801	17963.8625
1686.43272	17815.0625
1689.69527	17680.2625
1692.95567	17593.7625
1696.2139	17544.6625
1699.46999	17529.9625
1702.72392	17483.2625
1705.97571	17459.8625
1709.22535	17438.5625
1712.47284	17397.2625
1715.71819	17392.1625
1718.96139	17411.0625
1722.20246	17312.8625
1725.44139	17271.5625
1728.67818	17165.4625
1731.91284	17078.3625
1735.14537	16949.5625
1738.37576	16888.5625
1741.60403	16873.4625
1744.83017	16838.6625
1748.05418	16801.5625
1751.27607	16757.8625
1754.49584	16722.7625
1757.71349	16703.8625
1760.92903	16711.2625
1764.14244	16701.2625
1767.35375	16651.3625
1770.56294	16633.7625
1773.77002	16585.9625
1776.97499	16580.2625
1780.17785	16536.0625
1783.37861	16506.4625
1786.57727	16468.6625
1789.77382	16436.1625
1792.96828	16425.5625
1796.16064	16414.4625
1799.3509	16386.6625
1802.53907	16375.0625
1805.72514	16309.8625
1808.90913	16259.7625
1812.09102	16242.4625
1815.27083	16205.7625
1818.44856	16152.1625
1821.6242	16164.7625
1824.79776	16130.7625
1827.96924	16094.6625
1831.13864	16092.0625
1834.30597	16083.4625
1837.47122	16060.7625
1840.6344	16025.7625
1843.7955	16039.7625
1846.95454	16008.8625
1850.11151	16011.8625
1853.26642	15974.7625
1856.41926	15988.1625
1859.57004	15971.8625
1862.71876	16001.4625
1865.86542	15975.3625
1869.01003	16001.9625
1872.15258	15981.0625
1875.29308	15960.8625
1878.43152	15913.1625
1881.56792	15949.7625
1884.70227	15930.2625
1887.83457	15926.9625
1890.96482	15899.8625
1894.09304	15911.8625
1897.21921	15925.5625
1900.34335	15926.3625
1903.46544	15896.1625
1906.58551	15888.5625
1909.70353	15893.0625
1912.81953	15831.6625
1915.93349	15837.9625
1919.04543	15762.4625
1922.15534	15787.5625
1925.26322	15767.4625
1928.36908	15724.4625
1931.47292	15717.9625
1934.57473	15644.5625
1937.67453	15629.2625
1940.77232	15570.1625
1943.86808	15526.9625
1946.96184	15478.9625
1950.05358	15427.3625
1953.14331	15369.8625
1956.23103	15326.4625
1959.31675	15310.9625
1962.40046	15253.7625
1965.48217	15227.0625
1968.56188	15193.1625
1971.63959	15128.6625
1974.7153	15070.0625
1977.78901	15028.3625
1980.86073	14985.6625
1983.93046	14939.1625
1986.99819	14919.8625
1990.06394	14863.6625
1993.1277	14824.5625
1996.18947	14779.4625
1999.24925	14717.6625
2002.30706	14670.1625
2005.36288	14642.3625
2008.41672	14594.8625
2011.46859	14590.3625
2014.51848	14509.9625
2017.56639	14442.7625
2020.61233	14446.5625
2023.6563	14457.9625
2026.6983	14401.5625
2029.73833	14354.0625
2032.7764	14350.4625
2035.8125	14295.5625
2038.84664	14254.5625
2041.87881	14247.9625
2044.90903	14227.5625
2047.93729	14197.6625
2050.96359	14191.5625
2053.98794	14153.6625
2057.01034	14137.8625
2060.03078	14128.1625
2063.04927	14084.1625
2066.06582	14112.7625
2069.08042	14103.3625
2072.09307	14112.9625
2075.10378	14072.3625
2078.11255	14054.2625
2081.11938	14070.2625
2084.12426	14051.2625
2087.12722	14038.7625
2090.12824	14034.8625
2093.12732	14033.8625
2096.12447	14053.6625
2099.11969	14019.4625
2102.11299	14062.5625
2105.10435	14042.9625
2108.09379	14070.4625
2111.08131	14066.8625
2114.0669	14065.4625
2117.05057	14052.7625
2120.03233	14058.9625
2123.01216	14104.1625
2125.99008	14090.1625
2128.96609	14104.1625
2131.94018	14127.2625
2134.91236	14132.8625
2137.88263	14118.4625
2140.851	14112.5625
2143.81746	14156.2625
2146.78201	14124.7625
2149.74466	14135.6625
2152.7054	14149.0625
2155.66425	14144.8625
2158.6212	14156.7625
2161.57625	14162.4625
2164.52941	14120.1625
2167.48067	14108.3625
2170.43004	14094.9625
2173.37752	14090.8625
2176.32311	14094.2625
2179.26681	14097.2625
2182.20863	14077.0625
2185.14856	14102.1625
2188.08661	14085.8625
2191.02278	14066.2625
2193.95707	14040.2625
2196.88948	14022.6625
2199.82001	14051.3625
2202.74867	14028.4625
2205.67545	14048.2625
2208.60037	14017.9625
2211.52341	14013.0625
2214.44458	13999.4625
2217.36388	13952.9625
2220.28132	13915.8625
2223.1969	13875.4625
2226.11061	13865.0625
2229.02246	13842.5625
2231.93245	13804.3625
2234.84058	13794.9625
2237.74686	13746.1625
2240.65128	13757.7625
2243.55385	13715.0625
2246.45456	13686.2625
2249.35343	13670.8625
2252.25044	13673.9625
2255.14561	13663.0625
2258.03893	13656.9625
2260.93041	13624.2625
2263.82004	13592.7625
2266.70783	13534.8625
2269.59378	13523.7625
2272.4779	13512.4625
2275.36017	13515.6625
2278.24061	13487.1625
2281.11922	13438.8625
2283.996	13384.8625
2286.87094	13400.5625
2289.74405	13345.9625
2292.61534	13342.3625
2295.4848	13310.1625
2298.35243	13314.2625
2301.21824	13311.7625
2304.08223	13278.5625
2306.94439	13272.6625
2309.80474	13262.1625
2312.66327	13276.3625
2315.51999	13291.0625
2318.37489	13235.9625
2321.22797	13270.6625
2324.07925	13216.4625
2326.92871	13238.0625
2329.77637	13215.0625
2332.62222	13172.0625
2335.46626	13134.9625
2338.3085	13154.7625
2341.14893	13160.4625
2343.98756	13146.2625
2346.8244	13134.3625
2349.65943	13131.4625
2352.49267	13145.8625
2355.32411	13128.8625
2358.15376	13129.6625
2360.98161	13135.1625
2363.80768	13113.2625
2366.63195	13127.8625
2369.45444	13115.6625
2372.27514	13097.3625
2375.09405	13064.5625
2377.91118	13018.8625
2380.72652	13001.1625
2383.54009	12964.5625
2386.35187	12948.9625
2389.16188	12917.0625
2391.97011	12905.2625
2394.77657	12834.5625
2397.58125	12821.2625
2400.38416	12792.5625
2403.18529	12808.3625
2405.98466	12769.3625
2408.78226	12743.2625
2411.57809	12746.7625
2414.37216	12676.7625
2417.16446	12680.1625
2419.955	12655.8625
2422.74378	12644.2625
2425.5308	12617.9625
2428.31606	12588.9625
2431.09956	12600.3625
2433.88131	12618.7625
2436.6613	12608.8625
2439.43954	12602.1625
2442.21603	12606.8625
2444.99077	12596.5625
2447.76377	12600.0625
2450.53501	12574.0625
2453.30451	12558.3625
2456.07226	12524.9625
2458.83827	12539.2625
2461.60254	12528.1625
2464.36507	12522.2625
2467.12586	12508.8625
2469.88492	12485.9625
2472.64224	12476.5625
2475.39782	12462.8625
2478.15167	12473.3625
2480.90379	12501.5625
2483.65417	12518.2625
2486.40283	12504.3625
2489.14976	12534.8625
2491.89497	12529.9625
2494.63845	12535.2625
2497.3802	12525.7625
2500.12024	12488.6625
2502.85855	12494.1625
2505.59514	12459.9625
2508.33002	12436.4625
2511.06318	12431.6625
2513.79462	12395.5625
2516.52435	12371.4625
2519.25237	12335.6625
2521.97867	12296.2625
2524.70327	12320.8625
2527.42616	12293.2625
2530.14734	12290.2625
2532.86681	12261.1625
2535.58458	12243.8625
2538.30065	12227.5625
2541.01501	12217.6625
2543.72768	12235.8625
2546.43864	12225.6625
2549.14791	12163.4625
2551.85548	12170.2625
2554.56136	12170.5625
2557.26554	12127.3625
2559.96803	12099.5625
2562.66883	12103.5625
2565.36794	12095.5625
2568.06536	12085.8625
2570.7611	12071.8625
2573.45514	12058.1625
2576.14751	12047.7625
2578.83819	12003.2625
2581.52719	12000.7625
2584.21451	11976.5625
2586.90015	11969.1625
2589.58411	11955.6625
2592.2664	11903.1625
2594.94701	11870.7625
2597.62594	11883.4625
2600.30321	11877.5625
2602.9788	11868.7625
2605.65273	11844.5625
2608.32498	11854.3625
2610.99557	11834.5625
2613.66449	11821.7625
2616.33175	11803.7625
2618.99734	11780.3625
2621.66128	11793.8625
2624.32355	11787.7625
2626.98416	11802.3625
2629.64311	11789.2625
2632.30041	11746.1625
2634.95605	11740.3625
2637.61004	11733.8625
2640.26238	11716.8625
2642.91306	11704.6625
2645.56209	11690.7625
2648.20948	11692.1625
2650.85521	11673.6625
2653.4993	11673.5625
2656.14175	11686.3625
2658.78255	11655.4625
2661.42171	11655.6625
2664.05923	11687.3625
2666.6951	11665.8625
2669.32934	11704.7625
2671.96194	11668.2625
2674.59291	11709.9625
2677.22224	11719.5625
2679.84993	11714.7625
2682.476	11663.1625
2685.10043	11697.3625
2687.72324	11669.9625
2690.34441	11695.4625
2692.96396	11666.9625
2695.58188	11687.5625
2698.19818	11673.7625
2700.81285	11676.2625
2703.4259	11661.8625
2706.03733	11729.4625
2708.64714	11714.2625
2711.25533	11702.0625
2713.86191	11698.8625
2716.46687	11700.4625
2719.07021	11709.5625
2721.67194	11691.9625
2724.27206	11694.6625
2726.87057	11678.9625
2729.46747	11701.9625
2732.06276	11672.7625
2734.65644	11669.7625
2737.24852	11664.9625
2739.83899	11635.7625
2742.42786	11621.6625
2745.01513	11621.9625
2747.60079	11614.5625
2750.18486	11626.9625
2752.76733	11596.3625
2755.3482	11582.9625
2757.92747	11593.8625
2760.50515	11568.8625
2763.08123	11559.7625
2765.65573	11520.3625
2768.22863	11537.3625
2770.79994	11513.6625
2773.36967	11523.3625
2775.9378	11489.3625
2778.50435	11510.9625
2781.06932	11463.6625
2783.6327	11439.2625
2786.1945	11456.6625
2788.75471	11442.5625
2791.31335	11414.4625
2793.87041	11383.5625
2796.42589	11388.3625
2798.97979	11395.8625
2801.53212	11372.9625
2804.08288	11338.2625
2806.63206	11328.3625
2809.17967	11292.4625
2811.72571	11269.4625
2814.27018	11280.0625
2816.81308	11249.0625
2819.35442	11252.4625
2821.89419	11262.4625
2824.43239	11253.1625
2826.96904	11218.9625
2829.50412	11244.7625
2832.03763	11213.5625
2834.56959	11227.2625
2837.1	11231.4625
2839.62884	11230.7625
2842.15613	11215.0625
2844.68186	11255.5625
2847.20604	11251.0625
2849.72867	11300.6625
2852.24974	11285.5625
2854.76927	11291.2625
2857.28724	11263.9625
2859.80367	11264.7625
2862.31855	11233.2625
2864.83189	11211.1625
2867.34368	11197.7625
2869.85393	11228.4625
2872.36264	11207.8625
2874.8698	11187.7625
2877.37543	11202.0625
2879.87952	11214.0625
2882.38207	11216.0625
2884.88308	11211.8625
2887.38256	11217.9625
2889.88051	11226.5625
2892.37692	11211.9625
2894.8718	11184.9625
2897.36515	11182.3625
2899.85698	11209.0625
2902.34727	11229.9625
2904.83604	11225.4625
2907.32328	11230.2625
2909.809	11236.3625
2912.29319	11275.2625
2914.77587	11257.5625
2917.25702	11237.9625
2919.73665	11221.6625
2922.21476	11240.4625
2924.69136	11220.3625
2927.16644	11224.0625
2929.64	11182.9625
2932.11205	11189.0625
2934.58258	11144.8625
2937.05161	11144.7625
2939.51912	11150.3625
2941.98513	11112.8625
2944.44962	11084.7625
2946.91261	11010.7625
2949.37409	11014.4625
2951.83407	10986.5625
2954.29254	10987.9625
2956.74951	10923.5625
2959.20498	10901.7625
2961.65895	10888.3625
2964.11142	10883.8625
2966.56239	10860.4625
2969.01186	10842.5625
2971.45984	10808.1625
2973.90632	10785.7625
2976.35131	10757.7625
2978.7948	10734.4625
2981.23681	10740.3625
2983.67732	10692.0625
2986.11635	10681.4625
2988.55388	10644.9625
2990.98993	10633.9625
2993.4245	10631.6625
2995.85758	10583.5625
2998.28917	10564.0625
3000.71928	10563.6625
3003.14791	10537.9625
3005.57506	10528.7625
3008.00073	10493.3625
3010.42493	10500.3625
3012.84764	10477.5625
3015.26888	10443.5625
3017.68865	10433.1625
3020.10694	10421.3625
3022.52376	10390.6625
3024.9391	10366.6625
