Data from AgNP_FTO_APTES_CRN_100uM_R6G_10uM_NaF_0.1M_Addition_RamanShift__25__19-00-38-138.txt Node

Date: Wed Dec 15 19:00:38 GMT 2021
User: TCL
Spectrometer: QEP01345
Trigger mode: 4
Integration Time (sec): 7.000000E0
Scans to average: 10
Electric dark correction enabled: true
Nonlinearity correction enabled: false
Boxcar width: 0
XAxis mode: Raman Shifts
Number of Pixels in Spectrum: 1044
>>>>>Begin Spectral Data<<<<<
46.04893	1.0875
50.45542	-0.4125
54.85868	-1.7125
59.25871	-0.6125
63.6555	62.1875
68.04907	69.0875
72.43941	71.2875
76.82654	71.9875
81.21044	76.7875
85.59113	80.3875
89.96862	83.4875
94.34289	83.2875
98.71396	88.3875
103.08183	91.6875
107.4465	93.6875
111.80798	94.0875
116.16626	97.2875
120.52136	96.7875
124.87327	99.0875
129.222	105.8875
133.56755	111.0875
137.90993	117.5875
142.24913	126.5875
146.58517	144.5875
150.91804	165.3875
155.24774	192.7875
159.57429	234.8875
163.89768	298.5875
168.21792	391.9875
172.53501	534.4875
176.84895	736.5875
181.15975	1038.7875
185.46741	1442.2875
189.77193	2005.0875
194.07331	2674.3875
198.37157	3434.8875
202.6667	4250.2875
206.9587	5048.6875
211.24758	5837.2875
215.53334	6631.9875
219.81599	7471.3875
224.09553	8380.7875
228.37195	9381.7875
232.64527	10477.2875
236.91549	11648.5875
241.18261	12845.8875
245.44663	13992.5875
249.70755	14991.5875
253.96539	15902.8875
258.22014	16710.2875
262.4718	17348.2875
266.72039	17789.6875
270.96589	18042.0875
275.20832	18098.6875
279.44768	18012.7875
283.68397	17832.4875
287.91719	17684.7875
292.14735	17580.0875
296.37445	17555.1875
300.59849	17602.0875
304.81948	17566.8875
309.03742	17542.2875
313.25231	17308.5875
317.46415	16963.0875
321.67296	16566.4875
325.87872	16284.4875
330.08145	16180.3875
334.28114	16175.3875
338.47781	16322.4875
342.67145	16518.3875
346.86207	16780.8875
351.04966	17107.6875
355.23424	17450.2875
359.4158	17741.9875
363.59435	17962.3875
367.76989	18137.7875
371.94243	18234.9875
376.11196	18342.3875
380.27849	18449.6875
384.44203	18593.5875
388.60257	18674.8875
392.76012	18819.6875
396.91468	19025.4875
401.06626	19270.7875
405.21485	19474.8875
409.36047	19435.4875
413.50311	19185.0875
417.64277	18977.6875
421.77947	18882.0875
425.9132	18912.1875
430.04396	19079.2875
434.17176	19205.0875
438.2966	19455.8875
442.41849	19802.3875
446.53742	20287.9875
450.6534	20792.3875
454.76644	21173.9875
458.87653	21304.9875
462.98368	21197.4875
467.08789	21004.3875
471.18916	20819.1875
475.2875	20664.1875
479.38291	20632.7875
483.4754	20461.6875
487.56496	20266.4875
491.6516	19949.7875
495.73531	19765.5875
499.81612	19607.6875
503.89401	19678.8875
507.96899	19723.8875
512.04106	19774.0875
516.11023	19790.0875
520.1765	19822.1875
524.23987	19827.7875
528.30034	19782.7875
532.35792	19691.2875
536.41261	19475.1875
540.46441	19319.3875
544.51333	19281.6875
548.55936	19391.4875
552.60252	19671.8875
556.64279	20035.0875
560.6802	20263.8875
564.71473	20373.9875
568.7464	20537.1875
572.7752	20732.1875
576.80114	20861.2875
580.82422	20859.4875
584.84444	21059.7875
588.86181	21352.1875
592.87633	21903.9875
596.888	22302.3875
600.89682	22369.2875
604.9028	22716.8875
608.90594	24026.9875
612.90624	25639.6875
616.90371	24526.1875
620.89834	21366.9875
624.89015	19974.8875
628.87913	19791.6875
632.86528	19877.9875
636.84862	19907.3875
640.82913	19702.3875
644.80683	19359.8875
648.78172	19099.3875
652.75379	19020.7875
656.72306	19156.2875
660.68952	19382.5875
664.65319	19356.7875
668.61405	19129.9875
672.57211	19005.3875
676.52738	19070.1875
680.47986	19057.7875
684.42955	19020.5875
688.37646	18997.5875
692.32058	19041.6875
696.26192	19185.2875
700.20048	19329.4875
704.13626	19449.2875
708.06928	19405.5875
711.99952	19327.6875
715.927	19276.4875
719.85171	19316.0875
723.77365	19246.0875
727.69284	19123.5875
731.60928	19018.5875
735.52295	19014.1875
739.43388	19005.1875
743.34206	19035.0875
747.24749	19112.6875
751.15017	19194.4875
755.05012	19371.1875
758.94733	19816.3875
762.8418	20507.4875
766.73354	21648.8875
770.62254	22849.9875
774.50882	23247.4875
778.39237	22453.0875
782.27321	21035.9875
786.15132	19892.1875
790.02671	19229.1875
793.89938	18919.6875
797.76935	18815.8875
801.6366	18807.9875
805.50115	18787.0875
809.36299	18747.7875
813.22213	18690.6875
817.07857	18695.7875
820.93231	18681.8875
824.78336	18656.8875
828.63172	18668.0875
832.47738	18703.0875
836.32036	18695.4875
840.16066	18724.7875
843.99827	18726.1875
847.8332	18662.7875
851.66546	18588.2875
855.49504	18595.5875
859.32195	18610.7875
863.1462	18586.4875
866.96777	18576.3875
870.78668	18505.0875
874.60293	18469.7875
878.41652	18483.2875
882.22745	18553.2875
886.03573	18575.7875
889.84136	18558.3875
893.64433	18514.0875
897.44466	18433.7875
901.24235	18410.3875
905.0374	18367.4875
908.8298	18347.2875
912.61957	18352.8875
916.40671	18478.8875
920.19121	18606.2875
923.97308	18672.0875
927.75233	18740.3875
931.52895	18701.4875
935.30295	18585.5875
939.07433	18361.2875
942.84309	18165.3875
946.60924	18047.4875
950.37278	17983.6875
954.13371	17922.2875
957.89203	17898.1875
961.64774	17870.6875
965.40086	17811.3875
969.15137	17745.6875
972.89929	17687.5875
976.64461	17656.2875
980.38733	17614.9875
984.12747	17685.4875
987.86502	17765.5875
991.59999	17919.9875
995.33237	18109.4875
999.06217	18472.6875
1002.78939	18791.1875
1006.51404	19043.4875
1010.23611	19195.6875
1013.95561	19308.4875
1017.67255	19304.6875
1021.38692	19141.3875
1025.09872	18968.5875
1028.80796	18995.7875
1032.51465	19207.7875
1036.21877	19461.8875
1039.92035	19543.4875
1043.61937	19432.5875
1047.31584	19253.6875
1051.00976	19061.1875
1054.70114	18979.1875
1058.38998	19078.5875
1062.07627	19275.6875
1065.76003	19536.6875
1069.44126	19898.2875
1073.11995	20279.0875
1076.79611	20599.6875
1080.46974	20660.9875
1084.14085	20454.7875
1087.80943	20221.4875
1091.47549	20018.1875
1095.13903	19797.3875
1098.80005	19537.2875
1102.45857	19213.8875
1106.11456	19025.5875
1109.76805	19015.9875
1113.41903	19078.0875
1117.06751	19205.7875
1120.71348	19406.8875
1124.35696	19631.0875
1127.99793	19831.6875
1131.63641	19904.9875
1135.2724	19747.9875
1138.90589	19530.7875
1142.5369	19408.0875
1146.16542	19324.0875
1149.79145	19351.7875
1153.415	19480.9875
1157.03607	19605.7875
1160.65467	19939.1875
1164.27079	20497.0875
1167.88443	21253.0875
1171.49561	22289.5875
1175.10432	23709.5875
1178.71056	25437.1875
1182.31434	26936.5875
1185.91565	27417.5875
1189.51451	27109.0875
1193.11091	26268.8875
1196.70485	25249.8875
1200.29634	24391.3875
1203.88538	23751.7875
1207.47197	23296.3875
1211.05612	22902.6875
1214.63782	22634.2875
1218.21708	22423.7875
1221.79391	22302.8875
1225.36829	22176.1875
1228.94024	22014.0875
1232.50976	21719.1875
1236.07685	21560.2875
1239.6415	21495.3875
1243.20374	21491.1875
1246.76355	21650.7875
1250.32093	21872.4875
1253.8759	22212.1875
1257.42845	22615.5875
1260.97859	23019.9875
1264.52631	23380.5875
1268.07163	23758.8875
1271.61453	24180.0875
1275.15503	24697.7875
1278.69312	25160.1875
1282.22882	25585.5875
1285.76211	26102.7875
1289.29301	26825.8875
1292.82151	27649.3875
1296.34761	28739.3875
1299.87133	29953.2875
1303.39266	31419.8875
1306.9116	33082.5875
1310.42815	34726.7875
1313.94233	35822.0875
1317.45412	35968.3875
1320.96354	35432.1875
1324.47058	34612.2875
1327.97525	33804.4875
1331.47754	33207.4875
1334.97747	32958.9875
1338.47502	32990.8875
1341.97022	32970.2875
1345.46305	32709.1875
1348.95352	32336.7875
1352.44163	32334.3875
1355.92738	32993.9875
1359.41078	34459.3875
1362.89183	35925.7875
1366.37053	35647.2875
1369.84688	33125.7875
1373.32088	30095.9875
1376.79254	27911.4875
1380.26186	26943.6875
1383.72883	26683.4875
1387.19347	26547.5875
1390.65578	26394.9875
1394.11575	26387.3875
1397.57339	26706.5875
1401.0287	27252.8875
1404.48168	27742.4875
1407.93234	28030.4875
1411.38068	27806.2875
1414.82669	27162.0875
1418.27039	26218.0875
1421.71177	25218.8875
1425.15083	24338.1875
1428.58758	23845.0875
1432.02203	23768.9875
1435.45416	24065.0875
1438.88399	24501.7875
1442.31151	24909.6875
1445.73673	25231.6875
1449.15965	25563.9875
1452.58027	25827.6875
1455.9986	25928.8875
1459.41463	26057.5875
1462.82837	26434.0875
1466.23982	26868.0875
1469.64898	27289.8875
1473.05586	27515.3875
1476.46045	27526.7875
1479.86276	27527.0875
1483.26279	27353.3875
1486.66054	27265.4875
1490.05602	27308.8875
1493.44922	27398.4875
1496.84016	27462.3875
1500.22882	27701.0875
1503.61521	28244.6875
1506.99934	29138.0875
1510.38121	29977.5875
1513.76081	30320.6875
1517.13816	29746.8875
1520.51324	28649.0875
1523.88607	27518.0875
1527.25665	26748.2875
1530.62498	26443.4875
1533.99105	26374.6875
1537.35488	26349.6875
1540.71647	26181.4875
1544.07581	25930.8875
1547.4329	25630.6875
1550.78776	25276.3875
1554.14038	25014.2875
1557.49077	24927.2875
1560.83892	24931.3875
1564.18484	25038.0875
1567.52853	25219.7875
1570.86999	25624.6875
1574.20922	26231.9875
1577.54624	26855.1875
1580.88103	27146.9875
1584.2136	27198.3875
1587.54395	27207.3875
1590.87208	27531.1875
1594.19801	28409.6875
1597.52172	29567.2875
1600.84321	30124.1875
1604.16251	29299.5875
1607.47959	27486.1875
1610.79447	25497.0875
1614.10715	23693.1875
1617.41763	22253.6875
1620.7259	21320.9875
1624.03199	20845.8875
1627.33587	20795.5875
1630.63757	21208.5875
1633.93707	22076.6875
1637.23439	23456.2875
1640.52951	25479.2875
1643.82246	27836.6875
1647.11321	29821.5875
1650.40179	30433.3875
1653.68819	29071.9875
1656.97241	26207.1875
1660.25446	23280.1875
1663.53433	21056.8875
1666.81203	19604.3875
1670.08756	18645.2875
1673.36092	18042.6875
1676.63211	17658.6875
1679.90115	17397.7875
1683.16801	17165.0875
1686.43272	17024.2875
1689.69527	16894.0875
1692.95567	16810.0875
1696.2139	16754.8875
1699.46999	16735.4875
1702.72392	16686.3875
1705.97571	16676.3875
1709.22535	16610.8875
1712.47284	16623.3875
1715.71819	16628.8875
1718.96139	16529.7875
1722.20246	16514.3875
1725.44139	16456.9875
1728.67818	16415.5875
1731.91284	16321.5875
1735.14537	16274.2875
1738.37576	16205.2875
1741.60403	16170.7875
1744.83017	16184.9875
1748.05418	16118.5875
1751.27607	16073.6875
1754.49584	16058.3875
1757.71349	16074.2875
1760.92903	16059.0875
1764.14244	16049.6875
1767.35375	16044.1875
1770.56294	16034.2875
1773.77002	16015.6875
1776.97499	15989.5875
1780.17785	15941.0875
1783.37861	15949.5875
1786.57727	15904.1875
1789.77382	15880.7875
1792.96828	15852.9875
1796.16064	15837.9875
1799.3509	15795.3875
1802.53907	15761.1875
1805.72514	15746.7875
1808.90913	15723.9875
1812.09102	15683.5875
1815.27083	15657.9875
1818.44856	15626.3875
1821.6242	15595.2875
1824.79776	15605.1875
1827.96924	15612.0875
1831.13864	15594.2875
1834.30597	15626.3875
1837.47122	15569.2875
1840.6344	15555.6875
1843.7955	15573.7875
1846.95454	15531.5875
1850.11151	15526.0875
1853.26642	15535.7875
1856.41926	15560.5875
1859.57004	15538.2875
1862.71876	15523.1875
1865.86542	15526.7875
1869.01003	15531.1875
1872.15258	15517.8875
1875.29308	15488.5875
1878.43152	15519.0875
1881.56792	15452.4875
1884.70227	15431.6875
1887.83457	15443.2875
1890.96482	15459.5875
1894.09304	15428.0875
1897.21921	15442.0875
1900.34335	15404.2875
1903.46544	15403.0875
1906.58551	15389.1875
1909.70353	15391.6875
1912.81953	15388.7875
1915.93349	15340.7875
1919.04543	15282.6875
1922.15534	15314.2875
1925.26322	15272.6875
1928.36908	15253.5875
1931.47292	15202.3875
1934.57473	15188.0875
1937.67453	15139.2875
1940.77232	15117.0875
1943.86808	15065.5875
1946.96184	15057.3875
1950.05358	15024.1875
1953.14331	14954.4875
1956.23103	14924.0875
1959.31675	14884.7875
1962.40046	14821.1875
1965.48217	14813.5875
1968.56188	14790.6875
1971.63959	14718.7875
1974.7153	14658.6875
1977.78901	14649.2875
1980.86073	14579.5875
1983.93046	14548.1875
1986.99819	14498.3875
1990.06394	14487.9875
1993.1277	14417.3875
1996.18947	14370.8875
1999.24925	14336.9875
2002.30706	14322.7875
2005.36288	14246.8875
2008.41672	14205.8875
2011.46859	14197.9875
2014.51848	14153.8875
2017.56639	14135.9875
2020.61233	14115.7875
2023.6563	14087.2875
2026.6983	14032.3875
2029.73833	14008.7875
2032.7764	13992.6875
2035.8125	13990.1875
2038.84664	13918.9875
2041.87881	13894.0875
2044.90903	13875.8875
2047.93729	13867.8875
2050.96359	13888.0875
2053.98794	13848.5875
2057.01034	13848.8875
2060.03078	13824.8875
2063.04927	13804.9875
2066.06582	13795.5875
2069.08042	13787.1875
2072.09307	13797.2875
2075.10378	13772.5875
2078.11255	13760.2875
2081.11938	13756.5875
2084.12426	13762.2875
2087.12722	13765.9875
2090.12824	13761.9875
2093.12732	13772.4875
2096.12447	13747.4875
2099.11969	13715.9875
2102.11299	13756.8875
2105.10435	13762.5875
2108.09379	13759.0875
2111.08131	13772.7875
2114.0669	13787.0875
2117.05057	13794.5875
2120.03233	13791.2875
2123.01216	13812.8875
2125.99008	13808.4875
2128.96609	13843.1875
2131.94018	13842.8875
2134.91236	13841.7875
2137.88263	13851.3875
2140.851	13885.6875
2143.81746	13892.6875
2146.78201	13872.1875
2149.74466	13882.4875
2152.7054	13906.7875
2155.66425	13913.4875
2158.6212	13926.0875
2161.57625	13899.1875
2164.52941	13872.1875
2167.48067	13891.5875
2170.43004	13891.8875
2173.37752	13886.5875
2176.32311	13885.7875
2179.26681	13870.3875
2182.20863	13884.8875
2185.14856	13876.6875
2188.08661	13855.4875
2191.02278	13858.2875
2193.95707	13869.4875
2196.88948	13875.8875
2199.82001	13852.8875
2202.74867	13815.5875
2205.67545	13837.0875
2208.60037	13828.4875
2211.52341	13810.1875
2214.44458	13771.2875
2217.36388	13757.1875
2220.28132	13750.1875
2223.1969	13693.1875
2226.11061	13711.4875
2229.02246	13718.0875
2231.93245	13676.2875
2234.84058	13652.7875
2237.74686	13603.2875
2240.65128	13615.6875
2243.55385	13596.4875
2246.45456	13565.9875
2249.35343	13544.0875
2252.25044	13552.5875
2255.14561	13494.1875
2258.03893	13521.0875
2260.93041	13511.0875
2263.82004	13442.8875
2266.70783	13426.0875
2269.59378	13391.5875
2272.4779	13363.8875
2275.36017	13339.8875
2278.24061	13306.6875
2281.11922	13273.5875
2283.996	13262.3875
2286.87094	13233.9875
2289.74405	13207.7875
2292.61534	13197.2875
2295.4848	13169.5875
2298.35243	13205.8875
2301.21824	13167.1875
2304.08223	13190.1875
2306.94439	13199.5875
2309.80474	13164.8875
2312.66327	13175.4875
2315.51999	13153.1875
2318.37489	13163.7875
2321.22797	13154.4875
2324.07925	13115.1875
2326.92871	13131.3875
2329.77637	13103.1875
2332.62222	13098.8875
2335.46626	13093.9875
2338.3085	13058.0875
2341.14893	13040.4875
2343.98756	13062.4875
2346.8244	13052.5875
2349.65943	13040.5875
2352.49267	13038.3875
2355.32411	13067.5875
2358.15376	13023.3875
2360.98161	13023.9875
2363.80768	13026.7875
2366.63195	13014.9875
2369.45444	12981.3875
2372.27514	12963.4875
2375.09405	12925.0875
2377.91118	12925.6875
2380.72652	12918.5875
2383.54009	12874.1875
2386.35187	12879.2875
2389.16188	12810.2875
2391.97011	12817.4875
2394.77657	12796.2875
2397.58125	12761.7875
2400.38416	12747.6875
2403.18529	12720.2875
2405.98466	12724.7875
2408.78226	12709.3875
2411.57809	12661.3875
2414.37216	12658.8875
2417.16446	12637.9875
2419.955	12630.4875
2422.74378	12611.0875
2425.5308	12578.8875
2428.31606	12576.8875
2431.09956	12580.0875
2433.88131	12553.7875
2436.6613	12573.0875
2439.43954	12558.2875
2442.21603	12532.3875
2444.99077	12540.6875
2447.76377	12516.1875
2450.53501	12505.8875
2453.30451	12503.3875
2456.07226	12475.2875
2458.83827	12487.6875
2461.60254	12465.9875
2464.36507	12472.2875
2467.12586	12451.9875
2469.88492	12496.4875
2472.64224	12466.4875
2475.39782	12454.7875
2478.15167	12478.9875
2480.90379	12452.6875
2483.65417	12458.3875
2486.40283	12450.3875
2489.14976	12489.6875
2491.89497	12484.8875
2494.63845	12484.9875
2497.3802	12476.1875
2500.12024	12496.6875
2502.85855	12474.6875
2505.59514	12456.1875
2508.33002	12419.1875
2511.06318	12408.2875
2513.79462	12382.6875
2516.52435	12376.2875
2519.25237	12369.7875
2521.97867	12376.2875
2524.70327	12366.9875
2527.42616	12330.6875
2530.14734	12345.8875
2532.86681	12304.9875
2535.58458	12311.6875
2538.30065	12263.5875
2541.01501	12280.9875
2543.72768	12259.6875
2546.43864	12252.1875
2549.14791	12227.5875
2551.85548	12208.6875
2554.56136	12196.6875
2557.26554	12187.3875
2559.96803	12178.7875
2562.66883	12186.3875
2565.36794	12161.5875
2568.06536	12153.7875
2570.7611	12157.4875
2573.45514	12124.9875
2576.14751	12123.5875
2578.83819	12108.0875
2581.52719	12085.4875
2584.21451	12075.8875
2586.90015	12076.3875
2589.58411	12052.0875
2592.2664	12048.8875
2594.94701	12026.2875
2597.62594	12016.2875
2600.30321	11988.9875
2602.9788	11980.3875
2605.65273	11997.0875
2608.32498	11974.7875
2610.99557	11935.5875
2613.66449	11977.7875
2616.33175	11930.3875
2618.99734	11947.7875
2621.66128	11941.6875
2624.32355	11918.6875
2626.98416	11929.0875
2629.64311	11914.4875
2632.30041	11938.5875
2634.95605	11924.6875
2637.61004	11902.9875
2640.26238	11900.8875
2642.91306	11897.0875
2645.56209	11870.8875
2648.20948	11887.9875
2650.85521	11837.2875
2653.4993	11840.5875
2656.14175	11819.6875
2658.78255	11846.7875
2661.42171	11846.4875
2664.05923	11845.3875
2666.6951	11842.0875
2669.32934	11873.0875
2671.96194	11853.8875
2674.59291	11854.0875
2677.22224	11831.1875
2679.84993	11864.7875
2682.476	11822.7875
2685.10043	11839.4875
2687.72324	11843.2875
2690.34441	11861.7875
2692.96396	11823.6875
2695.58188	11845.8875
2698.19818	11846.8875
2700.81285	11857.0875
2703.4259	11842.9875
2706.03733	11922.6875
2708.64714	11882.0875
2711.25533	11893.8875
2713.86191	11866.6875
2716.46687	11883.9875
2719.07021	11890.1875
2721.67194	11866.7875
2724.27206	11852.2875
2726.87057	11873.8875
2729.46747	11892.9875
2732.06276	11862.7875
2734.65644	11840.6875
2737.24852	11865.6875
2739.83899	11847.6875
2742.42786	11855.4875
2745.01513	11821.5875
2747.60079	11853.8875
2750.18486	11831.9875
2752.76733	11838.1875
2755.3482	11838.6875
2757.92747	11843.1875
2760.50515	11822.4875
2763.08123	11813.6875
2765.65573	11780.6875
2768.22863	11769.1875
2770.79994	11777.5875
2773.36967	11771.0875
2775.9378	11756.4875
2778.50435	11745.2875
2781.06932	11729.5875
2783.6327	11735.2875
2786.1945	11717.3875
2788.75471	11707.0875
2791.31335	11679.5875
2793.87041	11690.4875
2796.42589	11616.2875
2798.97979	11640.6875
2801.53212	11621.4875
2804.08288	11610.1875
2806.63206	11577.1875
2809.17967	11546.0875
2811.72571	11525.1875
2814.27018	11529.5875
2816.81308	11504.5875
2819.35442	11509.2875
2821.89419	11483.3875
2824.43239	11480.5875
2826.96904	11447.4875
2829.50412	11456.3875
2832.03763	11438.4875
2834.56959	11425.9875
2837.1	11398.0875
2839.62884	11398.9875
2842.15613	11416.0875
2844.68186	11415.4875
2847.20604	11412.9875
2849.72867	11432.0875
2852.24974	11396.9875
2854.76927	11407.9875
2857.28724	11396.6875
2859.80367	11396.3875
2862.31855	11360.6875
2864.83189	11350.9875
2867.34368	11312.8875
2869.85393	11335.3875
2872.36264	11300.8875
2874.8698	11322.3875
2877.37543	11317.2875
2879.87952	11334.5875
2882.38207	11325.6875
2884.88308	11331.6875
2887.38256	11333.9875
2889.88051	11363.6875
2892.37692	11360.4875
2894.8718	11332.2875
2897.36515	11316.1875
2899.85698	11350.3875
2902.34727	11360.4875
2904.83604	11380.8875
2907.32328	11365.3875
2909.809	11375.9875
2912.29319	11377.4875
2914.77587	11364.0875
2917.25702	11363.0875
2919.73665	11329.4875
2922.21476	11377.7875
2924.69136	11336.1875
2927.16644	11360.8875
2929.64	11355.2875
2932.11205	11340.6875
2934.58258	11274.3875
2937.05161	11322.5875
2939.51912	11303.9875
2941.98513	11310.4875
2944.44962	11272.6875
2946.91261	11235.5875
2949.37409	11275.0875
2951.83407	11233.1875
2954.29254	11239.9875
2956.74951	11213.3875
2959.20498	11223.4875
2961.65895	11219.0875
2964.11142	11223.7875
2966.56239	11166.4875
2969.01186	11174.3875
2971.45984	11134.4875
2973.90632	11095.0875
2976.35131	11071.6875
2978.7948	11053.5875
2981.23681	11033.8875
2983.67732	11018.7875
2986.11635	11012.1875
2988.55388	10963.8875
2990.98993	10970.8875
2993.4245	10952.7875
2995.85758	10907.3875
2998.28917	10898.9875
3000.71928	10867.2875
3003.14791	10835.3875
3005.57506	10867.8875
3008.00073	10821.6875
3010.42493	10828.4875
3012.84764	10786.7875
3015.26888	10763.4875
3017.68865	10754.5875
3020.10694	10748.1875
3022.52376	10734.2875
3024.9391	10720.0875
