Data from AgNP_FTO_APTES_CRN_10uM_R6G_10uM_NaF_0.1M_Addition_RamanShift__27__16-46-27-987.txt Node

Date: Wed Dec 15 16:46:27 GMT 2021
User: TCL
Spectrometer: QEP01345
Trigger mode: 4
Integration Time (sec): 7.000000E0
Scans to average: 10
Electric dark correction enabled: true
Nonlinearity correction enabled: false
Boxcar width: 0
XAxis mode: Raman Shifts
Number of Pixels in Spectrum: 1044
>>>>>Begin Spectral Data<<<<<
46.04893	0.425
50.45542	-1.975
54.85868	-0.375
59.25871	-0.975
63.6555	82.425
68.04907	89.825
72.43941	89.625
76.82654	98.525
81.21044	102.925
85.59113	105.425
89.96862	111.925
94.34289	110.325
98.71396	118.325
103.08183	124.225
107.4465	125.725
111.80798	127.125
116.16626	131.125
120.52136	137.525
124.87327	139.625
129.222	144.425
133.56755	153.525
137.90993	163.125
142.24913	179.225
146.58517	199.325
150.91804	230.925
155.24774	274.525
159.57429	337.725
163.89768	423.825
168.21792	559.025
172.53501	759.925
176.84895	1055.225
181.15975	1484.825
185.46741	2066.525
189.77193	2831.625
194.07331	3798.225
198.37157	4896.325
202.6667	6072.125
206.9587	7192.725
211.24758	8341.325
215.53334	9503.125
219.81599	10706.125
224.09553	12094.625
228.37195	13610.225
232.64527	15281.425
236.91549	16978.825
241.18261	18678.725
245.44663	20192.525
249.70755	21540.925
253.96539	22673.025
258.22014	23710.625
262.4718	24553.625
266.72039	25202.525
270.96589	25609.025
275.20832	25664.725
279.44768	25521.625
283.68397	25245.525
287.91719	25039.125
292.14735	25078.825
296.37445	25227.825
300.59849	25527.325
304.81948	25920.625
309.03742	26117.225
313.25231	25856.925
317.46415	25112.225
321.67296	23997.925
325.87872	23095.225
330.08145	22646.825
334.28114	22593.725
338.47781	22841.125
342.67145	23220.225
346.86207	23829.625
351.04966	24653.525
355.23424	25572.025
359.4158	26239.225
363.59435	26619.125
367.76989	26759.025
371.94243	26770.425
376.11196	26704.525
380.27849	26616.425
384.44203	26590.725
388.60257	26506.425
392.76012	26609.425
396.91468	26876.025
401.06626	27347.125
405.21485	27704.925
409.36047	27500.725
413.50311	26715.625
417.64277	25990.025
421.77947	25650.825
425.9132	25587.325
430.04396	25671.225
434.17176	25897.925
438.2966	26208.125
442.41849	26711.025
446.53742	27345.525
450.6534	28119.625
454.76644	28715.825
458.87653	28919.725
462.98368	28768.525
467.08789	28378.325
471.18916	27934.325
475.2875	27522.025
479.38291	27118.425
483.4754	26771.125
487.56496	26424.925
491.6516	26062.025
495.73531	25805.625
499.81612	25723.525
503.89401	25901.625
507.96899	26037.825
512.04106	26276.325
516.11023	26549.825
520.1765	26830.325
524.23987	26917.525
528.30034	26756.925
532.35792	26358.425
536.41261	25835.425
540.46441	25270.825
544.51333	25022.625
548.55936	25177.525
552.60252	25637.525
556.64279	26164.725
560.6802	26500.025
564.71473	26649.325
568.7464	27081.225
572.7752	27549.025
576.80114	27545.425
580.82422	27383.025
584.84444	27482.425
588.86181	27767.725
592.87633	28279.025
596.888	28896.525
600.89682	29494.725
604.9028	31077.625
608.90594	35157.125
612.90624	40198.225
616.90371	38347.325
620.89834	30274.725
624.89015	26495.425
628.87913	25878.825
632.86528	25976.025
636.84862	26031.325
640.82913	25598.525
644.80683	24747.625
648.78172	24182.325
652.75379	24128.425
656.72306	24531.025
660.68952	25170.525
664.65319	25082.025
668.61405	24439.825
672.57211	24145.125
676.52738	24129.225
680.47986	24110.525
684.42955	24008.725
688.37646	23954.425
692.32058	24034.425
696.26192	24202.825
700.20048	24507.525
704.13626	24711.325
708.06928	24731.025
711.99952	24545.925
715.927	24465.825
719.85171	24501.225
723.77365	24428.525
727.69284	24169.525
731.60928	23965.225
735.52295	23929.625
739.43388	23915.125
743.34206	23999.925
747.24749	24099.425
751.15017	24271.525
755.05012	24681.125
758.94733	25488.825
762.8418	27229.125
766.73354	30100.525
770.62254	33027.725
774.50882	34098.925
778.39237	32414.725
782.27321	29284.025
786.15132	26571.725
790.02671	24945.225
793.89938	24207.125
797.76935	23960.425
801.6366	23835.425
805.50115	23713.125
809.36299	23604.825
813.22213	23486.425
817.07857	23480.425
820.93231	23451.825
824.78336	23442.625
828.63172	23460.525
832.47738	23608.225
836.32036	23687.825
840.16066	23797.425
843.99827	23772.925
847.8332	23594.825
851.66546	23475.325
855.49504	23381.225
859.32195	23322.525
863.1462	23223.925
866.96777	23099.225
870.78668	23002.525
874.60293	22992.225
878.41652	23032.125
882.22745	23113.225
886.03573	23190.825
889.84136	23137.425
893.64433	23072.625
897.44466	22987.825
901.24235	22919.725
905.0374	22883.025
908.8298	22863.425
912.61957	22918.525
916.40671	23094.425
920.19121	23336.625
923.97308	23507.225
927.75233	23747.525
931.52895	23768.925
935.30295	23538.325
939.07433	23035.525
942.84309	22596.325
946.60924	22401.825
950.37278	22233.325
954.13371	22137.125
957.89203	22024.025
961.64774	22010.625
965.40086	21890.825
969.15137	21835.825
972.89929	21748.125
976.64461	21721.225
980.38733	21685.325
984.12747	21824.725
987.86502	21973.725
991.59999	22216.325
995.33237	22600.225
999.06217	23316.625
1002.78939	24069.425
1006.51404	24626.325
1010.23611	25019.225
1013.95561	25300.125
1017.67255	25173.025
1021.38692	24812.025
1025.09872	24561.325
1028.80796	24732.625
1032.51465	25383.125
1036.21877	26041.625
1039.92035	26207.825
1043.61937	25925.125
1047.31584	25466.125
1051.00976	24938.825
1054.70114	24752.925
1058.38998	24889.825
1062.07627	25282.525
1065.76003	25849.625
1069.44126	26692.625
1073.11995	27814.725
1076.79611	28780.825
1080.46974	29147.125
1084.14085	28848.425
1087.80943	28214.625
1091.47549	27350.925
1095.13903	26515.425
1098.80005	25552.225
1102.45857	24809.925
1106.11456	24413.125
1109.76805	24392.825
1113.41903	24569.925
1117.06751	24920.625
1120.71348	25416.025
1124.35696	25864.425
1127.99793	26425.225
1131.63641	26611.525
1135.2724	26176.325
1138.90589	25680.025
1142.5369	25322.625
1146.16542	24975.825
1149.79145	24840.625
1153.415	24927.025
1157.03607	25186.325
1160.65467	25715.625
1164.27079	26647.425
1167.88443	28044.825
1171.49561	30110.925
1175.10432	33158.025
1178.71056	36969.225
1182.31434	40096.225
1185.91565	41219.825
1189.51451	40427.125
1193.11091	38514.025
1196.70485	36127.925
1200.29634	34031.925
1203.88538	32531.825
1207.47197	31273.525
1211.05612	30259.225
1214.63782	29595.725
1218.21708	29322.525
1221.79391	29334.225
1225.36829	29332.425
1228.94024	29223.025
1232.50976	28952.725
1236.07685	28712.125
1239.6415	28576.725
1243.20374	28561.725
1246.76355	28700.525
1250.32093	29126.525
1253.8759	29746.725
1257.42845	30639.325
1260.97859	31459.325
1264.52631	32301.425
1268.07163	33095.325
1271.61453	34049.425
1275.15503	34977.025
1278.69312	35812.625
1282.22882	36467.925
1285.76211	37220.825
1289.29301	38094.225
1292.82151	39265.725
1296.34761	40637.925
1299.87133	42573.025
1303.39266	45290.725
1306.9116	48850.125
1310.42815	52795.825
1313.94233	55304.525
1317.45412	55474.225
1320.96354	53709.325
1324.47058	51459.425
1327.97525	49335.425
1331.47754	47781.525
1334.97747	47138.425
1338.47502	47220.725
1341.97022	47530.425
1345.46305	47755.825
1348.95352	48111.625
1352.44163	49101.525
1355.92738	51258.525
1359.41078	55526.025
1362.89183	59898.725
1366.37053	59362.925
1369.84688	53382.425
1373.32088	46339.525
1376.79254	41612.525
1380.26186	39378.925
1383.72883	38416.625
1387.19347	37665.825
1390.65578	36768.625
1394.11575	36280.125
1397.57339	36271.725
1401.0287	36707.725
1404.48168	37258.825
1407.93234	37637.325
1411.38068	37527.625
1414.82669	36887.625
1418.27039	35696.625
1421.71177	34431.825
1425.15083	33298.625
1428.58758	32693.725
1432.02203	32605.425
1435.45416	32978.625
1438.88399	33528.725
1442.31151	33942.925
1445.73673	34383.925
1449.15965	34801.825
1452.58027	35132.725
1455.9986	35136.425
1459.41463	35416.725
1462.82837	35899.625
1466.23982	36716.025
1469.64898	37435.825
1473.05586	37895.125
1476.46045	38085.525
1479.86276	38107.825
1483.26279	38119.625
1486.66054	38158.425
1490.05602	38576.225
1493.44922	39203.125
1496.84016	40062.125
1500.22882	41398.125
1503.61521	43527.125
1506.99934	46370.225
1510.38121	49192.625
1513.76081	50710.625
1517.13816	49550.425
1520.51324	46286.525
1523.88607	42649.225
1527.25665	40097.325
1530.62498	38577.425
1533.99105	37675.325
1537.35488	37212.825
1540.71647	36722.625
1544.07581	36275.625
1547.4329	35875.725
1550.78776	35477.025
1554.14038	35274.125
1557.49077	35316.325
1560.83892	35565.425
1564.18484	36090.825
1567.52853	36702.925
1570.86999	37563.925
1574.20922	38931.225
1577.54624	40455.025
1580.88103	41349.925
1584.2136	41270.525
1587.54395	40627.725
1590.87208	40071.025
1594.19801	40760.925
1597.52172	42344.925
1600.84321	42991.525
1604.16251	41361.225
1607.47959	38443.925
1610.79447	35278.025
1614.10715	32388.625
1617.41763	30053.525
1620.7259	28463.625
1624.03199	27728.025
1627.33587	27716.025
1630.63757	28472.125
1633.93707	29964.725
1637.23439	32300.025
1640.52951	35528.025
1643.82246	39346.325
1647.11321	42750.925
1650.40179	44305.425
1653.68819	42351.625
1656.97241	37437.525
1660.25446	32070.625
1663.53433	28071.625
1666.81203	25515.125
1670.08756	23968.425
1673.36092	22977.625
1676.63211	22304.525
1679.90115	21841.925
1683.16801	21523.425
1686.43272	21288.325
1689.69527	21117.825
1692.95567	21029.225
1696.2139	20943.225
1699.46999	20886.525
1702.72392	20852.025
1705.97571	20787.825
1709.22535	20727.225
1712.47284	20701.925
1715.71819	20668.425
1718.96139	20614.825
1722.20246	20539.825
1725.44139	20436.425
1728.67818	20349.825
1731.91284	20259.425
1735.14537	20120.425
1738.37576	20047.425
1741.60403	19968.825
1744.83017	19922.125
1748.05418	19898.425
1751.27607	19844.925
1754.49584	19853.125
1757.71349	19810.325
1760.92903	19797.625
1764.14244	19785.725
1767.35375	19746.725
1770.56294	19741.025
1773.77002	19716.325
1776.97499	19667.225
1780.17785	19623.025
1783.37861	19615.325
1786.57727	19576.325
1789.77382	19504.625
1792.96828	19486.225
1796.16064	19514.525
1799.3509	19440.325
1802.53907	19417.025
1805.72514	19379.425
1808.90913	19315.325
1812.09102	19265.825
1815.27083	19231.725
1818.44856	19202.325
1821.6242	19169.125
1824.79776	19128.525
1827.96924	19136.525
1831.13864	19175.325
1834.30597	19166.125
1837.47122	19147.925
1840.6344	19151.525
1843.7955	19146.725
1846.95454	19143.625
1850.11151	19158.425
1853.26642	19133.725
1856.41926	19154.425
1859.57004	19092.825
1862.71876	19150.125
1865.86542	19119.925
1869.01003	19144.625
1872.15258	19123.325
1875.29308	19101.425
1878.43152	19075.425
1881.56792	19090.825
1884.70227	19082.125
1887.83457	19080.525
1890.96482	19072.425
1894.09304	19072.025
1897.21921	19056.625
1900.34335	19071.625
1903.46544	19049.525
1906.58551	19038.125
1909.70353	19030.925
1912.81953	19048.525
1915.93349	18999.025
1919.04543	18963.925
1922.15534	18923.425
1925.26322	18914.125
1928.36908	18896.525
1931.47292	18843.825
1934.57473	18742.225
1937.67453	18661.625
1940.77232	18651.525
1943.86808	18560.425
1946.96184	18467.825
1950.05358	18448.125
1953.14331	18391.425
1956.23103	18366.125
1959.31675	18293.825
1962.40046	18246.925
1965.48217	18179.025
1968.56188	18123.425
1971.63959	18075.825
1974.7153	18019.425
1977.78901	17965.125
1980.86073	17889.325
1983.93046	17839.325
1986.99819	17791.625
1990.06394	17778.625
1993.1277	17719.625
1996.18947	17616.325
1999.24925	17561.625
2002.30706	17560.425
2005.36288	17477.725
2008.41672	17429.625
2011.46859	17397.025
2014.51848	17337.225
2017.56639	17326.125
2020.61233	17262.525
2023.6563	17221.925
2026.6983	17221.725
2029.73833	17186.825
2032.7764	17146.325
2035.8125	17135.225
2038.84664	17077.825
2041.87881	17081.625
2044.90903	17042.425
2047.93729	17028.825
2050.96359	16999.425
2053.98794	17014.825
2057.01034	16968.925
2060.03078	16963.025
2063.04927	16958.525
2066.06582	16936.125
2069.08042	16923.325
2072.09307	16878.625
2075.10378	16825.025
2078.11255	16857.825
2081.11938	16853.925
2084.12426	16848.725
2087.12722	16828.825
2090.12824	16834.325
2093.12732	16826.125
2096.12447	16847.825
2099.11969	16836.525
2102.11299	16848.225
2105.10435	16856.225
2108.09379	16857.625
2111.08131	16877.525
2114.0669	16882.525
2117.05057	16905.725
2120.03233	16918.025
2123.01216	16910.025
2125.99008	16909.225
2128.96609	16961.425
2131.94018	16981.725
2134.91236	16960.125
2137.88263	16971.825
2140.851	16991.525
2143.81746	17012.325
2146.78201	16998.525
2149.74466	16988.825
2152.7054	17028.725
2155.66425	17015.825
2158.6212	17034.925
2161.57625	17007.425
2164.52941	17025.825
2167.48067	17017.525
2170.43004	17023.325
2173.37752	16987.225
2176.32311	16999.125
2179.26681	17007.825
2182.20863	16995.325
2185.14856	17001.525
2188.08661	16972.325
2191.02278	17003.825
2193.95707	16980.825
2196.88948	16987.925
2199.82001	16958.025
2202.74867	16979.425
2205.67545	16959.825
2208.60037	16994.325
2211.52341	16949.625
2214.44458	16928.525
2217.36388	16892.825
2220.28132	16915.225
2223.1969	16855.825
2226.11061	16873.325
2229.02246	16838.425
2231.93245	16780.025
2234.84058	16748.725
2237.74686	16719.525
2240.65128	16760.225
2243.55385	16671.725
2246.45456	16662.425
2249.35343	16618.725
2252.25044	16592.625
2255.14561	16577.025
2258.03893	16582.425
2260.93041	16581.125
2263.82004	16562.825
2266.70783	16527.425
2269.59378	16442.325
2272.4779	16438.425
2275.36017	16374.125
2278.24061	16338.325
2281.11922	16317.825
2283.996	16306.325
2286.87094	16310.125
2289.74405	16254.525
2292.61534	16259.325
2295.4848	16218.525
2298.35243	16241.625
2301.21824	16224.425
2304.08223	16190.725
2306.94439	16243.625
2309.80474	16243.025
2312.66327	16266.825
2315.51999	16225.225
2318.37489	16254.625
2321.22797	16243.225
2324.07925	16247.125
2326.92871	16209.625
2329.77637	16191.025
2332.62222	16186.625
2335.46626	16191.825
2338.3085	16205.725
2341.14893	16209.825
2343.98756	16233.325
2346.8244	16169.425
2349.65943	16208.425
2352.49267	16220.625
2355.32411	16243.025
2358.15376	16209.725
2360.98161	16165.125
2363.80768	16188.425
2366.63195	16173.025
2369.45444	16137.425
2372.27514	16120.225
2375.09405	16095.725
2377.91118	16071.325
2380.72652	16035.525
2383.54009	16002.125
2386.35187	15962.525
2389.16188	15898.125
2391.97011	15913.725
2394.77657	15868.225
2397.58125	15848.225
2400.38416	15841.725
2403.18529	15783.725
2405.98466	15774.125
2408.78226	15723.025
2411.57809	15705.325
2414.37216	15674.125
2417.16446	15645.725
2419.955	15638.825
2422.74378	15603.725
2425.5308	15593.525
2428.31606	15554.725
2431.09956	15571.325
2433.88131	15557.825
2436.6613	15566.525
2439.43954	15530.025
2442.21603	15534.425
2444.99077	15520.725
2447.76377	15551.225
2450.53501	15564.225
2453.30451	15559.225
2456.07226	15502.725
2458.83827	15546.525
2461.60254	15546.325
2464.36507	15510.225
2467.12586	15523.025
2469.88492	15519.725
2472.64224	15507.625
2475.39782	15533.725
2478.15167	15571.025
2480.90379	15572.025
2483.65417	15569.125
2486.40283	15604.125
2489.14976	15613.625
2491.89497	15585.225
2494.63845	15628.425
2497.3802	15624.525
2500.12024	15592.825
2502.85855	15592.125
2505.59514	15615.225
2508.33002	15565.725
2511.06318	15542.325
2513.79462	15533.025
2516.52435	15505.925
2519.25237	15474.625
2521.97867	15445.525
2524.70327	15463.325
2527.42616	15431.525
2530.14734	15441.025
2532.86681	15407.825
2535.58458	15403.325
2538.30065	15359.625
2541.01501	15367.125
2543.72768	15388.925
2546.43864	15384.125
2549.14791	15382.025
2551.85548	15327.925
2554.56136	15330.325
2557.26554	15283.425
2559.96803	15308.125
2562.66883	15309.525
2565.36794	15294.925
2568.06536	15297.925
2570.7611	15284.625
2573.45514	15277.525
2576.14751	15281.225
2578.83819	15238.725
2581.52719	15228.125
2584.21451	15245.825
2586.90015	15231.725
2589.58411	15216.825
2592.2664	15233.125
2594.94701	15151.325
2597.62594	15138.325
2600.30321	15144.525
2602.9788	15175.025
2605.65273	15130.125
2608.32498	15136.525
2610.99557	15143.725
2613.66449	15138.425
2616.33175	15122.325
2618.99734	15117.725
2621.66128	15124.425
2624.32355	15118.825
2626.98416	15122.625
2629.64311	15166.525
2632.30041	15133.825
2634.95605	15111.725
2637.61004	15101.725
2640.26238	15074.725
2642.91306	15082.425
2645.56209	15036.925
2648.20948	15057.325
2650.85521	15025.025
2653.4993	15023.525
2656.14175	14985.925
2658.78255	15022.725
2661.42171	15011.625
2664.05923	15067.925
2666.6951	15046.525
2669.32934	15053.325
2671.96194	15061.225
2674.59291	15049.125
2677.22224	15042.225
2679.84993	15069.625
2682.476	15034.025
2685.10043	15048.925
2687.72324	15033.525
2690.34441	15052.425
2692.96396	15054.225
2695.58188	15039.925
2698.19818	15009.925
2700.81285	15026.225
2703.4259	15026.625
2706.03733	15116.725
2708.64714	15078.825
2711.25533	15080.625
2713.86191	15042.925
2716.46687	15123.425
2719.07021	15095.625
2721.67194	15095.425
2724.27206	15089.425
2726.87057	15088.125
2729.46747	15098.825
2732.06276	15080.925
2734.65644	15077.725
2737.24852	15086.125
2739.83899	15082.525
2742.42786	15062.325
2745.01513	15027.825
2747.60079	15030.825
2750.18486	15041.925
2752.76733	15070.025
2755.3482	15083.825
2757.92747	15062.825
2760.50515	15039.225
2763.08123	15039.025
2765.65573	15017.425
2768.22863	15010.425
2770.79994	14990.925
2773.36967	14974.725
2775.9378	14987.225
2778.50435	14981.025
2781.06932	14963.725
2783.6327	14951.025
2786.1945	14962.725
2788.75471	14922.025
2791.31335	14897.025
2793.87041	14872.125
2796.42589	14835.725
2798.97979	14860.325
2801.53212	14839.425
2804.08288	14831.925
2806.63206	14776.225
2809.17967	14748.725
2811.72571	14745.525
2814.27018	14756.525
2816.81308	14720.925
2819.35442	14678.425
2821.89419	14698.225
2824.43239	14719.025
2826.96904	14688.325
2829.50412	14708.525
2832.03763	14677.625
2834.56959	14683.225
2837.1	14635.625
2839.62884	14693.025
2842.15613	14663.825
2844.68186	14715.125
2847.20604	14702.125
2849.72867	14707.125
2852.24974	14722.525
2854.76927	14681.525
2857.28724	14674.225
2859.80367	14670.725
2862.31855	14664.725
2864.83189	14654.425
2867.34368	14646.025
2869.85393	14644.225
2872.36264	14636.625
2874.8698	14660.525
2877.37543	14660.325
2879.87952	14639.225
2882.38207	14651.925
2884.88308	14647.525
2887.38256	14660.225
2889.88051	14654.525
2892.37692	14679.925
2894.8718	14652.025
2897.36515	14662.025
2899.85698	14678.725
2902.34727	14682.925
2904.83604	14712.025
2907.32328	14704.525
2909.809	14725.425
2912.29319	14759.525
2914.77587	14752.425
2917.25702	14733.525
2919.73665	14697.325
2922.21476	14724.625
2924.69136	14722.625
2927.16644	14726.025
2929.64	14709.925
2932.11205	14683.925
2934.58258	14633.725
2937.05161	14676.425
2939.51912	14668.325
2941.98513	14621.425
2944.44962	14596.125
2946.91261	14536.725
2949.37409	14558.825
2951.83407	14540.725
2954.29254	14567.325
2956.74951	14515.425
2959.20498	14494.925
2961.65895	14491.325
2964.11142	14475.625
2966.56239	14436.225
2969.01186	14413.925
2971.45984	14355.925
2973.90632	14330.425
2976.35131	14293.125
2978.7948	14249.025
2981.23681	14219.625
2983.67732	14216.225
2986.11635	14210.125
2988.55388	14162.125
2990.98993	14117.225
2993.4245	14101.425
2995.85758	14085.925
2998.28917	14045.725
3000.71928	14033.525
3003.14791	14014.625
3005.57506	14003.125
3008.00073	13985.925
3010.42493	14004.325
3012.84764	13953.225
3015.26888	13916.325
3017.68865	13872.425
3020.10694	13866.725
3022.52376	13836.425
3024.9391	13865.325
3027.35298	13849.125
3029.76539	13862.725
3032.17632	13836.525
3034.5858	13789.425
3036.9938	13786.025
3039.40034	13773.625
3041.80542	13775.625
3044.20903	13730.225
3046.61118	13724.225
3049.01187	13704.925
3051.4111	13711.025
3053.80888	13689.525
3056.20519	13663.525
3058.60005	13630.825
3060.99345	13594.125
3063.3854	13546.925
3065.7759	13495.525
3068.16494	13482.825
3070.55254	13475.225
3072.93868	13445.425
3075.32338	13415.125
3077.70662	13372.025
3080.08842	13335.325
3082.46878	13331.625
3084.84769	13301.225
3087.22515	13281.025
3089.60118	13290.625
3091.97576	13314.925
3094.3489	13287.425
3096.72061	13313.125
3099.09087	13280.425
3101.4597	13231.425
3103.82709	13272.925
3106.19305	13249.325
3108.55757	13224.625
3110.92066	13196.825
3113.28232	13182.025
3115.64255	13116.625
3118.00134	13119.725
3120.35871	13133.025
3122.71466	13106.725
3125.06917	13060.125
3127.42226	13054.925
