Data from AgNP_FTO_APTES_CRN_100uM_R6G_10uM_NaF_0.1M_Addition_RamanShift__32__19-08-48-147.txt Node

Date: Wed Dec 15 19:08:48 GMT 2021
User: TCL
Spectrometer: QEP01345
Trigger mode: 4
Integration Time (sec): 7.000000E0
Scans to average: 10
Electric dark correction enabled: true
Nonlinearity correction enabled: false
Boxcar width: 0
XAxis mode: Raman Shifts
Number of Pixels in Spectrum: 1044
>>>>>Begin Spectral Data<<<<<
46.04893	2.025
50.45542	-2.375
54.85868	0.225
59.25871	-0.175
63.6555	56.525
68.04907	65.925
72.43941	66.525
76.82654	72.025
81.21044	74.025
85.59113	80.025
89.96862	80.725
94.34289	76.425
98.71396	85.525
103.08183	88.125
107.4465	88.925
111.80798	88.625
116.16626	93.325
120.52136	101.425
124.87327	99.425
129.222	106.825
133.56755	105.325
137.90993	115.125
142.24913	128.625
146.58517	136.325
150.91804	158.425
155.24774	183.525
159.57429	229.425
163.89768	290.325
168.21792	376.625
172.53501	510.225
176.84895	706.225
181.15975	988.425
185.46741	1374.625
189.77193	1903.225
194.07331	2546.425
198.37157	3273.125
202.6667	4050.925
206.9587	4825.625
211.24758	5595.825
215.53334	6350.025
219.81599	7209.625
224.09553	8165.725
228.37195	9193.825
232.64527	10349.125
236.91549	11477.825
241.18261	12597.325
245.44663	13560.025
249.70755	14378.825
253.96539	15102.925
258.22014	15769.825
262.4718	16290.925
266.72039	16689.925
270.96589	16942.325
275.20832	16986.125
279.44768	16840.525
283.68397	16645.825
287.91719	16505.925
292.14735	16466.325
296.37445	16663.725
300.59849	16970.725
304.81948	17379.525
309.03742	17659.625
313.25231	17535.825
317.46415	16960.525
321.67296	16068.325
325.87872	15339.025
330.08145	14987.325
334.28114	14954.625
338.47781	15153.425
342.67145	15487.825
346.86207	15935.325
351.04966	16621.325
355.23424	17351.825
359.4158	17984.125
363.59435	18290.625
367.76989	18401.825
371.94243	18423.325
376.11196	18382.325
380.27849	18342.825
384.44203	18256.925
388.60257	18139.525
392.76012	18108.025
396.91468	18263.625
401.06626	18642.025
405.21485	18920.725
409.36047	18713.725
413.50311	18101.925
417.64277	17464.125
421.77947	17143.425
425.9132	17060.925
430.04396	17115.525
434.17176	17211.125
438.2966	17457.825
442.41849	17877.725
446.53742	18383.525
450.6534	18858.225
454.76644	19230.625
458.87653	19338.425
462.98368	19120.825
467.08789	18911.525
471.18916	18594.625
475.2875	18272.025
479.38291	17977.925
483.4754	17721.425
487.56496	17463.325
491.6516	17277.425
495.73531	17171.725
499.81612	17152.525
503.89401	17284.625
507.96899	17470.825
512.04106	17619.525
516.11023	17879.225
520.1765	18055.925
524.23987	18107.525
528.30034	17969.325
532.35792	17729.625
536.41261	17444.225
540.46441	17146.325
544.51333	17036.525
548.55936	17104.725
552.60252	17401.725
556.64279	17697.925
560.6802	17945.325
564.71473	18129.625
568.7464	18519.725
572.7752	18860.825
576.80114	18534.225
580.82422	18068.625
584.84444	17964.425
588.86181	18059.425
592.87633	18389.925
596.888	18720.925
600.89682	19001.025
604.9028	20262.025
608.90594	23844.525
612.90624	28492.725
616.90371	27414.025
620.89834	21065.625
624.89015	18043.725
628.87913	17515.925
632.86528	17521.125
636.84862	17638.525
640.82913	17433.525
644.80683	16958.925
648.78172	16663.325
652.75379	16691.825
656.72306	17092.625
660.68952	17669.725
664.65319	17566.825
668.61405	17040.725
672.57211	16749.825
676.52738	16746.725
680.47986	16771.825
684.42955	16708.325
688.37646	16683.325
692.32058	16738.125
696.26192	16874.225
700.20048	17060.125
704.13626	17143.225
708.06928	17084.625
711.99952	17000.525
715.927	16909.725
719.85171	16949.725
723.77365	16908.125
727.69284	16812.425
731.60928	16662.225
735.52295	16693.925
739.43388	16691.725
743.34206	16746.025
747.24749	16818.825
751.15017	16859.925
755.05012	17120.625
758.94733	17661.625
762.8418	18949.425
766.73354	21061.325
770.62254	23297.925
774.50882	24335.325
778.39237	23390.025
782.27321	21020.825
786.15132	18790.425
790.02671	17502.225
793.89938	16923.225
797.76935	16681.925
801.6366	16576.125
805.50115	16504.825
809.36299	16487.425
813.22213	16421.225
817.07857	16402.825
820.93231	16408.325
824.78336	16439.325
828.63172	16532.925
832.47738	16555.325
836.32036	16568.025
840.16066	16544.025
843.99827	16491.225
847.8332	16401.625
851.66546	16371.225
855.49504	16368.025
859.32195	16333.425
863.1462	16274.825
866.96777	16253.525
870.78668	16195.525
874.60293	16239.825
878.41652	16300.325
882.22745	16338.925
886.03573	16362.525
889.84136	16344.725
893.64433	16273.925
897.44466	16203.725
901.24235	16236.125
905.0374	16179.025
908.8298	16166.725
912.61957	16137.725
916.40671	16235.125
920.19121	16307.725
923.97308	16390.325
927.75233	16509.625
931.52895	16603.125
935.30295	16482.225
939.07433	16190.025
942.84309	15914.425
946.60924	15735.925
950.37278	15634.925
954.13371	15582.125
957.89203	15500.725
961.64774	15461.925
965.40086	15407.025
969.15137	15375.025
972.89929	15328.525
976.64461	15281.825
980.38733	15309.225
984.12747	15379.325
987.86502	15415.525
991.59999	15530.925
995.33237	15703.525
999.06217	15995.825
1002.78939	16350.925
1006.51404	16580.525
1010.23611	16805.825
1013.95561	16954.525
1017.67255	16924.825
1021.38692	16726.525
1025.09872	16536.625
1028.80796	16516.625
1032.51465	16687.825
1036.21877	16875.225
1039.92035	16984.325
1043.61937	16959.725
1047.31584	16828.825
1051.00976	16656.425
1054.70114	16571.725
1058.38998	16588.425
1062.07627	16734.525
1065.76003	16885.425
1069.44126	17124.725
1073.11995	17447.125
1076.79611	17758.625
1080.46974	17967.325
1084.14085	18057.425
1087.80943	18134.225
1091.47549	17993.525
1095.13903	17648.225
1098.80005	17176.225
1102.45857	16765.525
1106.11456	16631.925
1109.76805	16674.325
1113.41903	16879.625
1117.06751	17260.825
1120.71348	17661.725
1124.35696	18120.025
1127.99793	18546.225
1131.63641	18504.325
1135.2724	18044.025
1138.90589	17466.425
1142.5369	17137.425
1146.16542	16941.325
1149.79145	16800.725
1153.415	16827.125
1157.03607	16951.825
1160.65467	17174.225
1164.27079	17623.525
1167.88443	18319.925
1171.49561	19504.825
1175.10432	21316.525
1178.71056	23637.125
1182.31434	25395.125
1185.91565	25837.125
1189.51451	25269.225
1193.11091	23982.325
1196.70485	22544.525
1200.29634	21458.625
1203.88538	20595.225
1207.47197	19698.325
1211.05612	19025.825
1214.63782	18647.925
1218.21708	18574.025
1221.79391	18559.025
1225.36829	18588.025
1228.94024	18530.425
1232.50976	18402.625
1236.07685	18373.725
1239.6415	18447.025
1243.20374	18527.825
1246.76355	18682.825
1250.32093	18911.425
1253.8759	19241.825
1257.42845	19683.225
1260.97859	20135.525
1264.52631	20538.825
1268.07163	20960.625
1271.61453	21352.925
1275.15503	21665.425
1278.69312	21850.925
1282.22882	22010.125
1285.76211	22333.725
1289.29301	22940.025
1292.82151	23575.125
1296.34761	24281.425
1299.87133	25244.125
1303.39266	26748.325
1306.9116	28984.925
1310.42815	31578.725
1313.94233	33281.525
1317.45412	32996.625
1320.96354	31445.725
1324.47058	29482.525
1327.97525	27782.925
1331.47754	26745.425
1334.97747	26452.725
1338.47502	26624.025
1341.97022	27111.725
1345.46305	27598.425
1348.95352	28321.925
1352.44163	29602.925
1355.92738	31659.325
1359.41078	35045.525
1362.89183	38394.625
1366.37053	37840.225
1369.84688	33194.125
1373.32088	28419.425
1376.79254	25290.025
1380.26186	23803.025
1383.72883	23095.425
1387.19347	22553.025
1390.65578	21962.725
1394.11575	21521.025
1397.57339	21366.125
1401.0287	21526.625
1404.48168	21779.725
1407.93234	22036.925
1411.38068	22135.025
1414.82669	22044.625
1418.27039	21602.425
1421.71177	21074.225
1425.15083	20601.325
1428.58758	20354.825
1432.02203	20366.225
1435.45416	20604.525
1438.88399	20773.725
1442.31151	20793.125
1445.73673	20954.525
1449.15965	21055.225
1452.58027	21055.525
1455.9986	20950.225
1459.41463	20868.225
1462.82837	21070.125
1466.23982	21417.825
1469.64898	21860.525
1473.05586	22147.425
1476.46045	22360.425
1479.86276	22636.625
1483.26279	22943.625
1486.66054	23302.725
1490.05602	23784.225
1493.44922	24396.225
1496.84016	25120.425
1500.22882	26350.025
1503.61521	28169.025
1506.99934	30451.225
1510.38121	32828.125
1513.76081	34093.525
1517.13816	33137.825
1520.51324	30271.525
1523.88607	27209.425
1527.25665	24945.625
1530.62498	23744.625
1533.99105	23108.025
1537.35488	22743.225
1540.71647	22501.225
1544.07581	22409.025
1547.4329	22243.125
1550.78776	22095.725
1554.14038	21947.125
1557.49077	22026.925
1560.83892	22233.825
1564.18484	22568.725
1567.52853	23058.825
1570.86999	23490.425
1574.20922	23947.525
1577.54624	24208.725
1580.88103	23808.925
1584.2136	22992.125
1587.54395	22355.925
1590.87208	22440.025
1594.19801	23223.925
1597.52172	24535.025
1600.84321	25234.325
1604.16251	24607.225
1607.47959	23225.025
1610.79447	21604.825
1614.10715	20026.125
1617.41763	18849.125
1620.7259	18106.425
1624.03199	17729.425
1627.33587	17738.525
1630.63757	18025.925
1633.93707	18725.325
1637.23439	19762.325
1640.52951	21280.625
1643.82246	23289.125
1647.11321	25575.725
1650.40179	27038.725
1653.68819	26413.225
1656.97241	23683.525
1660.25446	20601.225
1663.53433	18335.425
1666.81203	16945.525
1670.08756	16107.925
1673.36092	15600.825
1676.63211	15252.425
1679.90115	15027.525
1683.16801	14852.325
1686.43272	14739.525
1689.69527	14666.825
1692.95567	14570.025
1696.2139	14538.125
1699.46999	14512.825
1702.72392	14499.025
1705.97571	14494.525
1709.22535	14446.525
1712.47284	14461.225
1715.71819	14461.625
1718.96139	14457.125
1722.20246	14394.925
1725.44139	14410.125
1728.67818	14303.825
1731.91284	14242.625
1735.14537	14180.925
1738.37576	14107.325
1741.60403	14066.425
1744.83017	14062.125
1748.05418	14010.525
1751.27607	13972.125
1754.49584	13969.925
1757.71349	13967.125
1760.92903	13937.025
1764.14244	13965.725
1767.35375	13939.225
1770.56294	13875.425
1773.77002	13880.125
1776.97499	13854.025
1780.17785	13804.625
1783.37861	13816.225
1786.57727	13768.025
1789.77382	13750.525
1792.96828	13732.325
1796.16064	13736.725
1799.3509	13702.025
1802.53907	13713.025
1805.72514	13638.825
1808.90913	13618.225
1812.09102	13595.925
1815.27083	13560.525
1818.44856	13554.925
1821.6242	13529.425
1824.79776	13523.125
1827.96924	13506.225
1831.13864	13491.325
1834.30597	13513.225
1837.47122	13481.425
1840.6344	13457.025
1843.7955	13414.325
1846.95454	13419.025
1850.11151	13417.225
1853.26642	13407.725
1856.41926	13426.625
1859.57004	13413.425
1862.71876	13413.625
1865.86542	13415.225
1869.01003	13411.825
1872.15258	13390.425
1875.29308	13404.925
1878.43152	13387.525
1881.56792	13386.325
1884.70227	13367.625
1887.83457	13370.825
1890.96482	13347.225
1894.09304	13368.025
1897.21921	13336.025
1900.34335	13329.925
1903.46544	13318.825
1906.58551	13319.025
1909.70353	13294.825
1912.81953	13297.125
1915.93349	13317.625
1919.04543	13255.525
1922.15534	13245.325
1925.26322	13232.225
1928.36908	13213.225
1931.47292	13175.825
1934.57473	13148.425
1937.67453	13094.925
1940.77232	13083.125
1943.86808	13058.625
1946.96184	13035.125
1950.05358	12982.825
1953.14331	12937.625
1956.23103	12887.425
1959.31675	12886.525
1962.40046	12826.625
1965.48217	12812.525
1968.56188	12789.625
1971.63959	12700.625
1974.7153	12653.925
1977.78901	12645.825
1980.86073	12598.325
1983.93046	12562.525
1986.99819	12541.725
1990.06394	12514.525
1993.1277	12459.225
1996.18947	12400.825
1999.24925	12369.625
2002.30706	12338.025
2005.36288	12306.325
2008.41672	12268.425
2011.46859	12244.225
2014.51848	12232.525
2017.56639	12179.925
2020.61233	12176.625
2023.6563	12155.925
2026.6983	12114.125
2029.73833	12099.425
2032.7764	12075.225
2035.8125	12054.425
2038.84664	12029.425
2041.87881	12003.825
2044.90903	11981.725
2047.93729	11962.625
2050.96359	11916.425
2053.98794	11938.725
2057.01034	11922.625
2060.03078	11915.225
2063.04927	11888.525
2066.06582	11887.125
2069.08042	11882.725
2072.09307	11861.625
2075.10378	11863.725
2078.11255	11840.625
2081.11938	11848.325
2084.12426	11848.125
2087.12722	11843.525
2090.12824	11828.525
2093.12732	11849.325
2096.12447	11848.325
2099.11969	11822.125
2102.11299	11819.525
2105.10435	11835.725
2108.09379	11852.325
2111.08131	11864.825
2114.0669	11894.425
2117.05057	11868.225
2120.03233	11866.525
2123.01216	11865.425
2125.99008	11888.025
2128.96609	11902.425
2131.94018	11906.925
2134.91236	11924.025
2137.88263	11929.625
2140.851	11941.125
2143.81746	11940.325
2146.78201	11950.325
2149.74466	11950.225
2152.7054	11941.625
2155.66425	11939.525
2158.6212	11967.625
2161.57625	11938.325
2164.52941	11966.225
2167.48067	11935.425
2170.43004	11919.825
2173.37752	11935.225
2176.32311	11917.125
2179.26681	11920.325
2182.20863	11917.425
2185.14856	11931.725
2188.08661	11926.125
2191.02278	11909.025
2193.95707	11908.325
2196.88948	11897.525
2199.82001	11875.225
2202.74867	11853.725
2205.67545	11842.425
2208.60037	11890.225
2211.52341	11870.725
2214.44458	11835.025
2217.36388	11825.625
2220.28132	11806.225
2223.1969	11753.525
2226.11061	11774.625
2229.02246	11741.725
2231.93245	11725.925
2234.84058	11687.925
2237.74686	11674.125
2240.65128	11670.125
2243.55385	11644.125
2246.45456	11623.725
2249.35343	11642.425
2252.25044	11601.625
2255.14561	11595.025
2258.03893	11584.425
2260.93041	11572.425
2263.82004	11544.625
2266.70783	11536.725
2269.59378	11490.025
2272.4779	11460.225
2275.36017	11432.825
2278.24061	11420.125
2281.11922	11364.725
2283.996	11367.325
2286.87094	11349.125
2289.74405	11312.825
2292.61534	11306.325
2295.4848	11316.425
2298.35243	11331.425
2301.21824	11306.825
2304.08223	11285.825
2306.94439	11280.125
2309.80474	11272.725
2312.66327	11280.725
2315.51999	11244.825
2318.37489	11272.925
2321.22797	11248.225
2324.07925	11262.425
2326.92871	11219.925
2329.77637	11235.325
2332.62222	11227.825
2335.46626	11216.925
2338.3085	11191.825
2341.14893	11157.325
2343.98756	11187.925
2346.8244	11171.225
2349.65943	11186.625
2352.49267	11181.125
2355.32411	11164.025
2358.15376	11157.425
2360.98161	11178.125
2363.80768	11156.325
2366.63195	11168.225
2369.45444	11157.425
2372.27514	11113.925
2375.09405	11120.625
2377.91118	11091.425
2380.72652	11077.525
2383.54009	11063.525
2386.35187	11028.125
2389.16188	10982.125
2391.97011	10959.725
2394.77657	10940.825
2397.58125	10919.025
2400.38416	10880.325
2403.18529	10887.425
2405.98466	10861.125
2408.78226	10853.325
2411.57809	10818.725
2414.37216	10796.525
2417.16446	10788.625
2419.955	10759.425
2422.74378	10753.725
2425.5308	10734.825
2428.31606	10722.625
2431.09956	10741.025
2433.88131	10724.525
2436.6613	10738.425
2439.43954	10719.625
2442.21603	10706.825
2444.99077	10710.425
2447.76377	10700.825
2450.53501	10714.725
2453.30451	10667.525
2456.07226	10658.925
2458.83827	10665.225
2461.60254	10668.025
2464.36507	10664.525
2467.12586	10640.925
2469.88492	10635.725
2472.64224	10633.225
2475.39782	10624.125
2478.15167	10645.325
2480.90379	10657.025
2483.65417	10649.525
2486.40283	10652.925
2489.14976	10671.425
2491.89497	10665.925
2494.63845	10687.225
2497.3802	10662.225
2500.12024	10642.025
2502.85855	10663.825
2505.59514	10629.725
2508.33002	10597.125
2511.06318	10577.725
2513.79462	10553.125
2516.52435	10532.925
2519.25237	10529.925
2521.97867	10490.625
2524.70327	10499.525
2527.42616	10472.325
2530.14734	10443.125
2532.86681	10443.325
2535.58458	10429.125
2538.30065	10415.325
2541.01501	10409.325
2543.72768	10407.125
2546.43864	10394.025
2549.14791	10365.325
2551.85548	10384.925
2554.56136	10366.025
2557.26554	10357.125
2559.96803	10334.925
2562.66883	10314.225
2565.36794	10304.125
2568.06536	10314.725
2570.7611	10281.825
2573.45514	10278.725
2576.14751	10264.025
2578.83819	10215.625
2581.52719	10257.125
2584.21451	10204.825
2586.90015	10192.925
2589.58411	10165.225
2592.2664	10190.325
2594.94701	10169.925
2597.62594	10143.425
2600.30321	10134.625
2602.9788	10123.725
2605.65273	10135.025
2608.32498	10123.525
2610.99557	10085.625
2613.66449	10087.925
2616.33175	10078.325
2618.99734	10089.725
2621.66128	10080.625
2624.32355	10047.625
2626.98416	10083.925
2629.64311	10072.625
2632.30041	10059.525
2634.95605	10027.125
2637.61004	10030.925
2640.26238	10028.925
2642.91306	10002.425
2645.56209	9984.425
2648.20948	9966.525
2650.85521	9954.025
2653.4993	9953.925
2656.14175	9948.025
2658.78255	9968.325
2661.42171	9959.425
2664.05923	9959.725
2666.6951	9969.225
2669.32934	9947.925
2671.96194	9956.525
2674.59291	9972.725
2677.22224	9965.425
2679.84993	9989.525
2682.476	9984.025
2685.10043	9969.025
2687.72324	9960.525
2690.34441	9978.325
2692.96396	9974.625
2695.58188	9973.425
2698.19818	9964.925
2700.81285	9987.925
2703.4259	9978.925
2706.03733	10029.825
2708.64714	10011.725
2711.25533	9975.425
2713.86191	9988.325
2716.46687	10003.025
2719.07021	9992.725
2721.67194	9978.925
2724.27206	9958.725
2726.87057	9990.125
2729.46747	9987.725
2732.06276	9974.925
2734.65644	9953.925
2737.24852	9970.425
2739.83899	9962.525
2742.42786	9937.525
2745.01513	9909.125
2747.60079	9914.525
2750.18486	9923.325
2752.76733	9915.425
2755.3482	9916.325
2757.92747	9907.225
2760.50515	9892.125
2763.08123	9869.525
2765.65573	9874.725
2768.22863	9844.025
2770.79994	9837.925
2773.36967	9819.925
2775.9378	9817.725
2778.50435	9826.825
2781.06932	9797.725
2783.6327	9784.025
2786.1945	9761.025
2788.75471	9764.025
2791.31335	9744.825
2793.87041	9753.325
2796.42589	9702.625
2798.97979	9727.125
2801.53212	9717.425
2804.08288	9702.925
2806.63206	9661.825
2809.17967	9656.125
2811.72571	9620.825
2814.27018	9649.625
2816.81308	9633.125
2819.35442	9613.025
2821.89419	9623.925
2824.43239	9626.025
2826.96904	9612.525
2829.50412	9615.025
2832.03763	9613.125
2834.56959	9596.125
2837.1	9572.825
2839.62884	9602.925
2842.15613	9597.725
2844.68186	9646.525
2847.20604	9661.125
2849.72867	9666.525
2852.24974	9685.325
2854.76927	9661.625
2857.28724	9655.325
2859.80367	9661.225
2862.31855	9635.525
2864.83189	9622.925
2867.34368	9602.525
2869.85393	9600.725
2872.36264	9606.425
2874.8698	9590.525
2877.37543	9586.725
2879.87952	9601.025
2882.38207	9576.025
2884.88308	9574.825
2887.38256	9575.925
2889.88051	9591.525
2892.37692	9565.825
2894.8718	9570.825
2897.36515	9559.025
2899.85698	9584.425
2902.34727	9594.025
2904.83604	9596.325
2907.32328	9598.125
2909.809	9582.825
2912.29319	9600.225
2914.77587	9606.825
2917.25702	9598.625
2919.73665	9563.925
2922.21476	9582.125
2924.69136	9567.925
2927.16644	9575.225
2929.64	9558.125
2932.11205	9543.225
2934.58258	9503.525
2937.05161	9519.525
2939.51912	9513.425
2941.98513	9475.925
2944.44962	9439.825
2946.91261	9423.225
2949.37409	9407.525
2951.83407	9392.625
2954.29254	9376.225
2956.74951	9340.325
2959.20498	9361.725
2961.65895	9365.025
2964.11142	9357.525
2966.56239	9313.225
2969.01186	9311.725
2971.45984	9284.125
2973.90632	9253.925
2976.35131	9229.825
2978.7948	9210.025
2981.23681	9185.825
2983.67732	9185.825
2986.11635	9177.525
2988.55388	9137.925
2990.98993	9140.425
2993.4245	9125.325
2995.85758	9106.325
2998.28917	9075.625
3000.71928	9077.525
3003.14791	9048.025
3005.57506	9043.225
3008.00073	9013.425
3010.42493	9022.925
3012.84764	9000.125
3015.26888	8998.225
3017.68865	8948.825
3020.10694	8961.325
3022.52376	8947.225
3024.9391	8930.025
3027.35298	8920.125
3029.76539	8936.425
3032.17632	8907.225
3034.5858	8888.325
3036.9938	8880.425
3039.40034	8858.925
3041.80542	8861.125
3044.20903	8841.325
3046.61118	8825.525
3049.01187	8819.925
3051.4111	8805.025
3053.80888	8796.525
3056.20519	8773.425
3058.60005	8737.925
3060.99345	8752.825
3063.3854	8724.725
3065.7759	8692.025
3068.16494	8691.525
3070.55254	8663.825
3072.93868	8650.725
3075.32338	8625.925
3077.70662	8630.125
3080.08842	8589.425
3082.46878	8589.525
3084.84769	8581.225
3087.22515	8562.525
3089.60118	8554.525
3091.97576	8574.025
3094.3489	8571.825
3096.72061	8554.925
3099.09087	8570.725
3101.4597	8568.325
3103.82709	8542.025
3106.19305	8508.725
3108.55757	8523.625
3110.92066	8493.225
3113.28232	8494.325
3115.64255	8466.325
3118.00134	8450.025
3120.35871	8457.025
3122.71466	8450.625
3125.06917	8419.825
3127.42226	8405.125
3129.77393	8428.025
3132.12417	8421.525
3134.47299	8417.225
3136.82039	8412.825
3139.16636	8432.025
3141.51092	8431.325
3143.85406	8439.925
3146.19579	8438.125
3148.53609	8434.725
3150.87499	8453.225
3153.21246	8438.125
