Data from AgNP_FTO_APTES_CRN_5uM_R6G_10uM_NaF_0.1M_Addition_RamanShift__35__16-06-47-941.txt Node

Date: Wed Dec 15 16:06:47 GMT 2021
User: TCL
Spectrometer: QEP01345
Trigger mode: 4
Integration Time (sec): 7.000000E0
Scans to average: 10
Electric dark correction enabled: true
Nonlinearity correction enabled: false
Boxcar width: 0
XAxis mode: Raman Shifts
Number of Pixels in Spectrum: 1044
>>>>>Begin Spectral Data<<<<<
46.04893	0.8625
50.45542	-1.4375
54.85868	-0.0375
59.25871	-1.3375
63.6555	61.1625
68.04907	68.2625
72.43941	72.3625
76.82654	77.7625
81.21044	79.5625
85.59113	83.2625
89.96862	87.3625
94.34289	86.6625
98.71396	92.9625
103.08183	95.3625
107.4465	98.8625
111.80798	97.9625
116.16626	101.8625
120.52136	108.6625
124.87327	101.8625
129.222	106.6625
133.56755	109.7625
137.90993	111.8625
142.24913	123.0625
146.58517	132.5625
150.91804	146.8625
155.24774	161.8625
159.57429	197.5625
163.89768	251.6625
168.21792	311.3625
172.53501	419.6625
176.84895	564.6625
181.15975	779.9625
185.46741	1075.8625
189.77193	1479.2625
194.07331	1964.6625
198.37157	2520.8625
202.6667	3101.0625
206.9587	3686.0625
211.24758	4271.6625
215.53334	4910.7625
219.81599	5591.2625
224.09553	6362.8625
228.37195	7273.9625
232.64527	8208.2625
236.91549	9151.0625
241.18261	9993.5625
245.44663	10631.8625
249.70755	11132.3625
253.96539	11536.0625
258.22014	11951.3625
262.4718	12355.1625
266.72039	12699.2625
270.96589	12929.1625
275.20832	12968.2625
279.44768	12835.9625
283.68397	12645.6625
287.91719	12537.9625
292.14735	12571.0625
296.37445	12930.9625
300.59849	13483.2625
304.81948	14152.2625
309.03742	14642.3625
313.25231	14620.5625
317.46415	13840.6625
321.67296	12668.2625
325.87872	11709.3625
330.08145	11226.9625
334.28114	11173.1625
338.47781	11407.1625
342.67145	11762.2625
346.86207	12312.7625
351.04966	13122.3625
355.23424	14057.0625
359.4158	14780.2625
363.59435	15151.9625
367.76989	15209.8625
371.94243	15169.2625
376.11196	15087.1625
380.27849	14936.2625
384.44203	14790.2625
388.60257	14562.2625
392.76012	14450.7625
396.91468	14561.4625
401.06626	14966.6625
405.21485	15271.1625
409.36047	14906.7625
413.50311	14048.0625
417.64277	13229.6625
421.77947	12736.1625
425.9132	12547.4625
430.04396	12523.8625
434.17176	12614.9625
438.2966	12775.2625
442.41849	13029.7625
446.53742	13428.5625
450.6534	13799.3625
454.76644	14046.5625
458.87653	14100.4625
462.98368	13975.3625
467.08789	13719.5625
471.18916	13361.7625
475.2875	12997.5625
479.38291	12675.6625
483.4754	12441.7625
487.56496	12273.4625
491.6516	12155.3625
495.73531	12110.9625
499.81612	12202.4625
503.89401	12366.7625
507.96899	12582.6625
512.04106	12832.8625
516.11023	13139.1625
520.1765	13318.6625
524.23987	13260.9625
528.30034	12983.6625
532.35792	12652.4625
536.41261	12287.5625
540.46441	11934.5625
544.51333	11791.1625
548.55936	11877.8625
552.60252	12171.3625
556.64279	12521.4625
560.6802	12675.6625
564.71473	12865.8625
568.7464	13426.3625
572.7752	13793.3625
576.80114	13417.3625
580.82422	12942.7625
584.84444	12713.8625
588.86181	12625.4625
592.87633	12658.6625
596.888	12846.0625
600.89682	13445.5625
604.9028	15427.6625
608.90594	20382.9625
612.90624	26565.6625
616.90371	25207.1625
620.89834	17036.7625
624.89015	13165.4625
628.87913	12452.5625
632.86528	12543.5625
636.84862	12797.0625
640.82913	12638.9625
644.80683	11995.8625
648.78172	11647.9625
652.75379	11740.9625
656.72306	12369.2625
660.68952	13078.4625
664.65319	12876.8625
668.61405	12092.1625
672.57211	11728.9625
676.52738	11712.7625
680.47986	11657.8625
684.42955	11607.3625
688.37646	11538.1625
692.32058	11594.7625
696.26192	11685.6625
700.20048	11865.5625
704.13626	12004.6625
708.06928	11995.2625
711.99952	11964.2625
715.927	11866.9625
719.85171	11908.2625
723.77365	11861.9625
727.69284	11754.3625
731.60928	11656.0625
735.52295	11633.3625
739.43388	11682.2625
743.34206	11756.5625
747.24749	11845.8625
751.15017	11943.1625
755.05012	12251.3625
758.94733	12950.2625
762.8418	14529.4625
766.73354	17227.9625
770.62254	20118.9625
774.50882	21524.2625
778.39237	20379.3625
782.27321	17406.8625
786.15132	14585.0625
790.02671	12968.8625
793.89938	12274.6625
797.76935	11957.1625
801.6366	11804.9625
805.50115	11712.5625
809.36299	11635.0625
813.22213	11568.2625
817.07857	11559.4625
820.93231	11552.2625
824.78336	11614.0625
828.63172	11677.1625
832.47738	11745.6625
836.32036	11723.0625
840.16066	11627.5625
843.99827	11560.5625
847.8332	11543.8625
851.66546	11502.4625
855.49504	11511.7625
859.32195	11471.0625
863.1462	11410.8625
866.96777	11352.8625
870.78668	11339.5625
874.60293	11348.4625
878.41652	11383.4625
882.22745	11479.3625
886.03573	11518.0625
889.84136	11479.3625
893.64433	11427.4625
897.44466	11410.2625
901.24235	11431.9625
905.0374	11417.4625
908.8298	11375.1625
912.61957	11347.2625
916.40671	11429.5625
920.19121	11520.2625
923.97308	11649.8625
927.75233	11784.5625
931.52895	11902.9625
935.30295	11741.2625
939.07433	11406.8625
942.84309	11110.3625
946.60924	10944.0625
950.37278	10851.6625
954.13371	10783.0625
957.89203	10701.2625
961.64774	10673.2625
965.40086	10671.4625
969.15137	10613.0625
972.89929	10579.1625
976.64461	10596.6625
980.38733	10590.4625
984.12747	10639.1625
987.86502	10654.6625
991.59999	10719.1625
995.33237	10854.9625
999.06217	11112.6625
1002.78939	11467.1625
1006.51404	11771.7625
1010.23611	12108.6625
1013.95561	12314.3625
1017.67255	12249.7625
1021.38692	12040.5625
1025.09872	11872.6625
1028.80796	11807.9625
1032.51465	11941.2625
1036.21877	12147.7625
1039.92035	12258.6625
1043.61937	12270.6625
1047.31584	12163.3625
1051.00976	12031.4625
1054.70114	11933.5625
1058.38998	11911.4625
1062.07627	11964.5625
1065.76003	12113.8625
1069.44126	12253.8625
1073.11995	12532.3625
1076.79611	12788.4625
1080.46974	13034.5625
1084.14085	13315.3625
1087.80943	13610.5625
1091.47549	13627.4625
1095.13903	13305.7625
1098.80005	12753.6625
1102.45857	12333.7625
1106.11456	12149.7625
1109.76805	12220.4625
1113.41903	12472.7625
1117.06751	12907.1625
1120.71348	13437.4625
1124.35696	14023.3625
1127.99793	14561.7625
1131.63641	14592.2625
1135.2724	13895.8625
1138.90589	13195.3625
1142.5369	12811.2625
1146.16542	12494.4625
1149.79145	12303.2625
1153.415	12325.8625
1157.03607	12438.5625
1160.65467	12762.0625
1164.27079	13242.9625
1167.88443	14017.5625
1171.49561	15224.7625
1175.10432	17325.0625
1178.71056	20070.5625
1182.31434	22164.1625
1185.91565	22596.0625
1189.51451	21814.0625
1193.11091	20166.1625
1196.70485	18306.5625
1200.29634	16981.7625
1203.88538	16119.0625
1207.47197	15123.4625
1211.05612	14257.0625
1214.63782	13801.7625
1218.21708	13664.1625
1221.79391	13668.5625
1225.36829	13783.4625
1228.94024	13893.4625
1232.50976	13958.5625
1236.07685	14080.7625
1239.6415	14146.0625
1243.20374	14187.8625
1246.76355	14268.8625
1250.32093	14468.9625
1253.8759	14813.8625
1257.42845	15287.2625
1260.97859	15768.0625
1264.52631	16272.6625
1268.07163	16729.8625
1271.61453	17208.0625
1275.15503	17564.9625
1278.69312	17702.1625
1282.22882	17815.0625
1285.76211	18175.3625
1289.29301	18702.9625
1292.82151	19264.6625
1296.34761	19841.0625
1299.87133	20788.3625
1303.39266	22388.1625
1306.9116	25085.6625
1310.42815	28137.3625
1313.94233	30022.1625
1317.45412	29546.8625
1320.96354	27564.1625
1324.47058	25238.5625
1327.97525	23248.6625
1331.47754	22019.4625
1334.97747	21570.5625
1338.47502	21768.3625
1341.97022	22266.1625
1345.46305	23058.1625
1348.95352	24332.8625
1352.44163	26221.6625
1355.92738	29015.1625
1359.41078	33421.0625
1362.89183	37981.8625
1366.37053	37371.1625
1369.84688	31612.5625
1373.32088	25563.3625
1376.79254	21711.5625
1380.26186	19813.0625
1383.72883	18875.9625
1387.19347	18162.7625
1390.65578	17347.9625
1394.11575	16710.6625
1397.57339	16329.5625
1401.0287	16279.4625
1404.48168	16518.4625
1407.93234	16882.8625
1411.38068	17222.8625
1414.82669	17334.0625
1418.27039	17112.3625
1421.71177	16720.0625
1425.15083	16335.5625
1428.58758	16020.4625
1432.02203	16046.5625
1435.45416	16152.5625
1438.88399	16239.3625
1442.31151	16282.4625
1445.73673	16379.8625
1449.15965	16504.2625
1452.58027	16441.4625
1455.9986	16254.5625
1459.41463	16205.7625
1462.82837	16269.2625
1466.23982	16627.6625
1469.64898	17063.1625
1473.05586	17409.6625
1476.46045	17643.6625
1479.86276	18058.3625
1483.26279	18544.2625
1486.66054	19102.5625
1490.05602	19797.5625
1493.44922	20766.5625
1496.84016	22154.3625
1500.22882	24301.6625
1503.61521	27338.6625
1506.99934	30831.8625
1510.38121	34133.0625
1513.76081	35750.6625
1517.13816	34114.9625
1520.51324	30012.6625
1523.88607	25697.6625
1527.25665	22692.5625
1530.62498	20879.9625
1533.99105	19816.6625
1537.35488	19100.4625
1540.71647	18674.4625
1544.07581	18463.4625
1547.4329	18350.9625
1550.78776	18218.4625
1554.14038	18216.1625
1557.49077	18364.1625
1560.83892	18733.5625
1564.18484	19301.6625
1567.52853	19885.1625
1570.86999	20527.0625
1574.20922	21090.9625
1577.54624	21152.6625
1580.88103	20284.0625
1584.2136	18929.6625
1587.54395	18120.2625
1590.87208	18110.2625
1594.19801	18989.1625
1597.52172	20278.9625
1600.84321	20814.9625
1604.16251	20059.4625
1607.47959	18684.1625
1610.79447	17322.5625
1614.10715	15945.6625
1617.41763	14879.1625
1620.7259	14183.7625
1624.03199	13851.2625
1627.33587	13872.2625
1630.63757	14216.6625
1633.93707	14886.1625
1637.23439	15945.7625
1640.52951	17417.2625
1643.82246	19413.0625
1647.11321	21893.0625
1650.40179	23915.2625
1653.68819	23596.2625
1656.97241	20654.9625
1660.25446	17158.2625
1663.53433	14598.3625
1666.81203	13076.6625
1670.08756	12205.3625
1673.36092	11667.4625
1676.63211	11344.7625
1679.90115	11106.2625
1683.16801	10927.6625
1686.43272	10788.3625
1689.69527	10728.6625
1692.95567	10677.8625
1696.2139	10629.8625
1699.46999	10641.1625
1702.72392	10631.7625
1705.97571	10592.2625
1709.22535	10547.7625
1712.47284	10526.1625
1715.71819	10553.0625
1718.96139	10528.4625
1722.20246	10527.1625
1725.44139	10464.6625
1728.67818	10382.7625
1731.91284	10309.4625
1735.14537	10222.6625
1738.37576	10143.6625
1741.60403	10119.7625
1744.83017	10091.0625
1748.05418	10057.5625
1751.27607	10024.7625
1754.49584	10006.5625
1757.71349	9991.9625
1760.92903	10013.2625
1764.14244	9997.3625
1767.35375	10000.5625
1770.56294	9981.1625
1773.77002	9940.5625
1776.97499	9921.8625
1780.17785	9890.1625
1783.37861	9837.4625
1786.57727	9824.5625
1789.77382	9784.6625
1792.96828	9767.6625
1796.16064	9745.0625
1799.3509	9754.6625
1802.53907	9739.7625
1805.72514	9704.5625
1808.90913	9693.4625
1812.09102	9663.4625
1815.27083	9620.8625
1818.44856	9623.9625
1821.6242	9614.1625
1824.79776	9593.6625
1827.96924	9589.2625
1831.13864	9581.9625
1834.30597	9569.9625
1837.47122	9572.2625
1840.6344	9578.9625
1843.7955	9541.3625
1846.95454	9555.4625
1850.11151	9550.3625
1853.26642	9553.7625
1856.41926	9561.7625
1859.57004	9563.2625
1862.71876	9552.3625
1865.86542	9552.1625
1869.01003	9566.6625
1872.15258	9563.1625
1875.29308	9578.7625
1878.43152	9554.8625
1881.56792	9570.7625
1884.70227	9573.5625
1887.83457	9593.9625
1890.96482	9576.3625
1894.09304	9604.0625
1897.21921	9585.2625
1900.34335	9585.6625
1903.46544	9557.0625
1906.58551	9569.2625
1909.70353	9557.6625
1912.81953	9559.0625
1915.93349	9543.2625
1919.04543	9540.5625
1922.15534	9540.6625
1925.26322	9485.0625
1928.36908	9465.1625
1931.47292	9451.2625
1934.57473	9390.5625
1937.67453	9350.0625
1940.77232	9319.2625
1943.86808	9272.3625
1946.96184	9237.4625
1950.05358	9187.7625
1953.14331	9176.8625
1956.23103	9144.2625
1959.31675	9113.1625
1962.40046	9093.5625
1965.48217	9050.4625
1968.56188	9042.1625
1971.63959	9010.9625
1974.7153	8977.0625
1977.78901	8948.2625
1980.86073	8916.9625
1983.93046	8887.9625
1986.99819	8861.7625
1990.06394	8834.7625
1993.1277	8810.3625
1996.18947	8782.4625
1999.24925	8750.7625
2002.30706	8704.9625
2005.36288	8676.0625
2008.41672	8671.0625
2011.46859	8621.4625
2014.51848	8639.9625
2017.56639	8618.7625
2020.61233	8589.4625
2023.6563	8525.2625
2026.6983	8533.8625
2029.73833	8510.5625
2032.7764	8484.5625
2035.8125	8454.6625
2038.84664	8451.4625
2041.87881	8444.1625
2044.90903	8417.1625
2047.93729	8408.6625
2050.96359	8407.5625
2053.98794	8395.8625
2057.01034	8394.1625
2060.03078	8360.2625
2063.04927	8356.5625
2066.06582	8330.3625
2069.08042	8334.2625
2072.09307	8327.9625
2075.10378	8305.9625
2078.11255	8302.4625
2081.11938	8308.2625
2084.12426	8311.9625
2087.12722	8295.5625
2090.12824	8296.5625
2093.12732	8288.1625
2096.12447	8283.9625
2099.11969	8257.4625
2102.11299	8282.2625
2105.10435	8287.4625
2108.09379	8276.4625
2111.08131	8296.1625
2114.0669	8307.8625
2117.05057	8275.0625
2120.03233	8300.9625
2123.01216	8293.7625
2125.99008	8311.9625
2128.96609	8302.2625
2131.94018	8317.3625
2134.91236	8309.0625
2137.88263	8331.4625
2140.851	8328.9625
2143.81746	8340.1625
2146.78201	8323.7625
2149.74466	8301.4625
2152.7054	8315.8625
2155.66425	8299.8625
2158.6212	8298.8625
2161.57625	8318.7625
2164.52941	8300.1625
2167.48067	8314.9625
2170.43004	8285.4625
2173.37752	8281.9625
2176.32311	8285.4625
2179.26681	8267.2625
2182.20863	8268.8625
2185.14856	8297.8625
2188.08661	8270.1625
2191.02278	8289.2625
2193.95707	8278.4625
2196.88948	8248.8625
2199.82001	8242.8625
2202.74867	8244.8625
2205.67545	8230.9625
2208.60037	8205.2625
2211.52341	8214.4625
2214.44458	8215.5625
2217.36388	8181.3625
2220.28132	8185.0625
2223.1969	8151.6625
2226.11061	8140.4625
2229.02246	8133.8625
2231.93245	8095.3625
2234.84058	8043.7625
2237.74686	8058.6625
2240.65128	8056.1625
2243.55385	8057.1625
2246.45456	8050.5625
2249.35343	8034.2625
2252.25044	8020.7625
2255.14561	8016.6625
2258.03893	8028.8625
2260.93041	8035.0625
2263.82004	8006.8625
2266.70783	7990.0625
2269.59378	7957.9625
2272.4779	7954.6625
2275.36017	7922.7625
2278.24061	7910.2625
2281.11922	7877.2625
2283.996	7879.9625
2286.87094	7856.1625
2289.74405	7831.0625
2292.61534	7820.1625
2295.4848	7793.6625
2298.35243	7781.8625
2301.21824	7771.4625
2304.08223	7782.1625
2306.94439	7772.7625
2309.80474	7781.8625
2312.66327	7785.7625
2315.51999	7765.4625
2318.37489	7756.9625
2321.22797	7766.7625
2324.07925	7757.9625
2326.92871	7749.0625
2329.77637	7727.7625
2332.62222	7729.0625
2335.46626	7717.6625
2338.3085	7711.3625
2341.14893	7725.2625
2343.98756	7729.7625
2346.8244	7705.7625
2349.65943	7735.2625
2352.49267	7744.4625
2355.32411	7728.3625
2358.15376	7736.8625
2360.98161	7747.9625
2363.80768	7753.1625
2366.63195	7771.5625
2369.45444	7763.1625
2372.27514	7749.6625
2375.09405	7744.7625
2377.91118	7722.1625
2380.72652	7674.2625
2383.54009	7652.3625
2386.35187	7628.1625
2389.16188	7589.3625
2391.97011	7577.6625
2394.77657	7540.8625
2397.58125	7535.7625
2400.38416	7509.3625
2403.18529	7494.7625
2405.98466	7487.5625
2408.78226	7471.8625
2411.57809	7445.5625
2414.37216	7415.1625
2417.16446	7418.7625
2419.955	7413.5625
2422.74378	7391.1625
2425.5308	7402.3625
2428.31606	7418.5625
2431.09956	7379.3625
2433.88131	7393.5625
2436.6613	7374.5625
2439.43954	7394.9625
2442.21603	7379.3625
2444.99077	7375.8625
2447.76377	7375.5625
2450.53501	7371.1625
2453.30451	7386.4625
2456.07226	7357.4625
2458.83827	7360.1625
2461.60254	7367.7625
2464.36507	7369.3625
2467.12586	7347.6625
2469.88492	7327.0625
2472.64224	7328.7625
2475.39782	7366.1625
2478.15167	7355.1625
2480.90379	7375.4625
2483.65417	7378.1625
2486.40283	7394.9625
2489.14976	7414.6625
2491.89497	7379.3625
2494.63845	7434.9625
2497.3802	7436.3625
2500.12024	7402.8625
2502.85855	7395.3625
2505.59514	7384.4625
2508.33002	7350.7625
2511.06318	7328.5625
2513.79462	7305.7625
2516.52435	7275.5625
2519.25237	7251.0625
2521.97867	7230.8625
2524.70327	7229.1625
2527.42616	7214.7625
2530.14734	7186.7625
2532.86681	7189.2625
2535.58458	7180.2625
2538.30065	7184.0625
2541.01501	7165.8625
2543.72768	7179.8625
2546.43864	7158.2625
2549.14791	7167.4625
2551.85548	7160.3625
2554.56136	7175.6625
2557.26554	7120.8625
2559.96803	7145.5625
2562.66883	7122.1625
2565.36794	7108.9625
2568.06536	7119.6625
2570.7611	7090.9625
2573.45514	7086.3625
2576.14751	7074.9625
2578.83819	7053.0625
2581.52719	7044.5625
2584.21451	7051.3625
2586.90015	7033.7625
2589.58411	7032.6625
2592.2664	7016.9625
2594.94701	7014.7625
2597.62594	7018.8625
2600.30321	6973.0625
2602.9788	6986.2625
2605.65273	6985.6625
2608.32498	6979.6625
2610.99557	6955.3625
2613.66449	6964.3625
2616.33175	6986.4625
2618.99734	6961.7625
2621.66128	6959.7625
2624.32355	6978.8625
2626.98416	6954.0625
2629.64311	6959.1625
2632.30041	6950.1625
2634.95605	6920.3625
2637.61004	6926.8625
2640.26238	6899.6625
2642.91306	6904.9625
2645.56209	6886.4625
2648.20948	6882.6625
2650.85521	6866.6625
2653.4993	6859.1625
2656.14175	6876.6625
2658.78255	6892.9625
2661.42171	6861.0625
2664.05923	6887.3625
2666.6951	6900.0625
2669.32934	6892.7625
2671.96194	6913.5625
2674.59291	6908.8625
2677.22224	6892.1625
2679.84993	6913.6625
2682.476	6911.7625
2685.10043	6906.1625
2687.72324	6904.7625
2690.34441	6897.0625
2692.96396	6896.7625
2695.58188	6917.5625
2698.19818	6895.5625
2700.81285	6909.3625
2703.4259	6928.3625
2706.03733	6956.9625
2708.64714	6940.6625
2711.25533	6923.8625
2713.86191	6919.1625
2716.46687	6930.2625
2719.07021	6938.7625
2721.67194	6925.3625
2724.27206	6906.0625
2726.87057	6890.1625
2729.46747	6924.0625
2732.06276	6920.1625
2734.65644	6903.1625
2737.24852	6919.5625
2739.83899	6898.3625
2742.42786	6901.4625
2745.01513	6882.5625
2747.60079	6866.3625
2750.18486	6859.0625
2752.76733	6876.8625
2755.3482	6864.7625
2757.92747	6872.7625
2760.50515	6837.0625
2763.08123	6826.9625
2765.65573	6824.4625
2768.22863	6804.2625
2770.79994	6799.6625
2773.36967	6795.2625
2775.9378	6751.1625
2778.50435	6759.4625
2781.06932	6752.3625
2783.6327	6783.4625
2786.1945	6778.4625
2788.75471	6765.7625
2791.31335	6747.9625
2793.87041	6749.0625
2796.42589	6740.8625
2798.97979	6733.5625
2801.53212	6727.6625
2804.08288	6730.3625
2806.63206	6690.4625
2809.17967	6712.6625
2811.72571	6706.1625
2814.27018	6724.7625
2816.81308	6696.2625
2819.35442	6724.3625
2821.89419	6723.1625
2824.43239	6723.4625
2826.96904	6730.9625
2829.50412	6737.0625
2832.03763	6721.2625
2834.56959	6729.2625
2837.1	6703.3625
2839.62884	6713.0625
2842.15613	6733.4625
2844.68186	6750.9625
2847.20604	6769.3625
2849.72867	6794.9625
2852.24974	6810.4625
2854.76927	6828.1625
2857.28724	6807.7625
2859.80367	6784.5625
2862.31855	6768.3625
2864.83189	6777.5625
2867.34368	6751.9625
2869.85393	6770.4625
2872.36264	6746.9625
2874.8698	6755.0625
2877.37543	6755.8625
2879.87952	6752.2625
2882.38207	6734.7625
2884.88308	6723.2625
2887.38256	6732.3625
2889.88051	6729.5625
2892.37692	6699.9625
2894.8718	6708.8625
2897.36515	6711.7625
2899.85698	6701.4625
2902.34727	6722.8625
2904.83604	6725.1625
2907.32328	6731.2625
2909.809	6732.3625
2912.29319	6741.7625
2914.77587	6735.0625
2917.25702	6726.6625
2919.73665	6732.1625
2922.21476	6742.0625
2924.69136	6736.3625
2927.16644	6700.2625
2929.64	6719.6625
2932.11205	6686.4625
2934.58258	6663.4625
2937.05161	6631.4625
2939.51912	6647.4625
2941.98513	6632.9625
2944.44962	6599.5625
2946.91261	6552.1625
2949.37409	6540.3625
2951.83407	6535.7625
2954.29254	6510.2625
2956.74951	6499.2625
2959.20498	6485.2625
2961.65895	6472.8625
2964.11142	6448.7625
2966.56239	6443.9625
2969.01186	6451.9625
2971.45984	6409.7625
2973.90632	6410.1625
2976.35131	6375.3625
2978.7948	6362.3625
2981.23681	6351.0625
2983.67732	6338.6625
2986.11635	6320.0625
2988.55388	6305.3625
2990.98993	6291.4625
2993.4245	6286.8625
2995.85758	6240.5625
2998.28917	6250.1625
3000.71928	6227.6625
3003.14791	6239.5625
3005.57506	6213.2625
3008.00073	6210.5625
3010.42493	6195.8625
3012.84764	6188.7625
3015.26888	6202.1625
3017.68865	6164.6625
3020.10694	6151.0625
3022.52376	6151.4625
3024.9391	6142.6625
3027.35298	6135.3625
3029.76539	6134.5625
3032.17632	6117.2625
3034.5858	6098.2625
3036.9938	6092.3625
3039.40034	6079.8625
3041.80542	6086.9625
3044.20903	6038.7625
3046.61118	6050.2625
3049.01187	6037.9625
3051.4111	6027.3625
3053.80888	6011.8625
3056.20519	5991.0625
3058.60005	5986.1625
3060.99345	5967.2625
3063.3854	5970.9625
3065.7759	5929.6625
3068.16494	5945.8625
3070.55254	5924.8625
3072.93868	5904.9625
3075.32338	5888.0625
3077.70662	5881.7625
