Data from AgNP_FTO_APTES_CRN_500uM_R6G_10uM_NaF_0.1M_Addition_RamanShift__25__20-32-48-243.txt Node

Date: Wed Dec 15 20:32:48 GMT 2021
User: TCL
Spectrometer: QEP01345
Trigger mode: 4
Integration Time (sec): 7.000000E0
Scans to average: 10
Electric dark correction enabled: true
Nonlinearity correction enabled: false
Boxcar width: 0
XAxis mode: Raman Shifts
Number of Pixels in Spectrum: 1044
>>>>>Begin Spectral Data<<<<<
46.04893	0.525
50.45542	-1.775
54.85868	-0.775
59.25871	-0.275
63.6555	62.425
68.04907	68.725
72.43941	69.125
76.82654	75.525
81.21044	78.625
85.59113	82.125
89.96862	84.925
94.34289	84.125
98.71396	91.125
103.08183	92.625
107.4465	96.325
111.80798	95.525
116.16626	98.525
120.52136	103.325
124.87327	101.025
129.222	108.625
133.56755	114.525
137.90993	120.825
142.24913	132.625
146.58517	147.125
150.91804	172.225
155.24774	200.325
159.57429	242.625
163.89768	314.025
168.21792	408.825
172.53501	553.125
176.84895	764.525
181.15975	1070.925
185.46741	1494.025
189.77193	2073.625
194.07331	2766.025
198.37157	3578.725
202.6667	4404.425
206.9587	5248.225
211.24758	6079.925
215.53334	6887.725
219.81599	7762.825
224.09553	8703.825
228.37195	9732.525
232.64527	10854.525
236.91549	12059.525
241.18261	13250.125
245.44663	14440.725
249.70755	15440.925
253.96539	16374.125
258.22014	17162.125
262.4718	17833.725
266.72039	18244.025
270.96589	18495.825
275.20832	18555.225
279.44768	18431.725
283.68397	18246.025
287.91719	18096.725
292.14735	18010.625
296.37445	17908.225
300.59849	17934.225
304.81948	17951.625
309.03742	17826.025
313.25231	17689.025
317.46415	17357.125
321.67296	17020.525
325.87872	16741.825
330.08145	16694.625
334.28114	16743.925
338.47781	16867.625
342.67145	17102.725
346.86207	17351.025
351.04966	17655.925
355.23424	18010.225
359.4158	18286.525
363.59435	18499.625
367.76989	18669.925
371.94243	18786.825
376.11196	18923.225
380.27849	19065.425
384.44203	19165.725
388.60257	19313.425
392.76012	19460.525
396.91468	19657.225
401.06626	19860.325
405.21485	20032.425
409.36047	20031.925
413.50311	19877.725
417.64277	19733.425
421.77947	19676.425
425.9132	19757.025
430.04396	19899.625
434.17176	20083.825
438.2966	20395.025
442.41849	20800.525
446.53742	21283.325
450.6534	21862.025
454.76644	22262.825
458.87653	22437.425
462.98368	22290.725
467.08789	22079.925
471.18916	21909.125
475.2875	21774.825
479.38291	21723.225
483.4754	21605.225
487.56496	21385.325
491.6516	21074.725
495.73531	20841.825
499.81612	20716.225
503.89401	20756.125
507.96899	20861.325
512.04106	20945.325
516.11023	21010.925
520.1765	21081.125
524.23987	21098.625
528.30034	21025.025
532.35792	20877.225
536.41261	20718.425
540.46441	20601.625
544.51333	20583.425
548.55936	20729.225
552.60252	21040.525
556.64279	21388.525
560.6802	21665.725
564.71473	21788.925
568.7464	22018.025
572.7752	22298.425
576.80114	22381.225
580.82422	22384.025
584.84444	22502.525
588.86181	22898.825
592.87633	23417.625
596.888	23739.725
600.89682	23730.825
604.9028	23952.425
608.90594	25132.725
612.90624	26499.225
616.90371	25398.525
620.89834	22487.725
624.89015	21213.925
628.87913	21011.725
632.86528	21132.725
636.84862	21175.525
640.82913	21042.825
644.80683	20704.625
648.78172	20468.525
652.75379	20456.625
656.72306	20558.525
660.68952	20794.925
664.65319	20760.225
668.61405	20611.525
672.57211	20516.225
676.52738	20617.125
680.47986	20624.225
684.42955	20648.525
688.37646	20537.625
692.32058	20592.725
696.26192	20688.525
700.20048	20864.525
704.13626	20953.525
708.06928	20867.125
711.99952	20735.325
715.927	20638.325
719.85171	20631.125
723.77365	20532.525
727.69284	20433.525
731.60928	20265.625
735.52295	20216.025
739.43388	20225.925
743.34206	20201.425
747.24749	20252.825
751.15017	20280.525
755.05012	20427.225
758.94733	20817.425
762.8418	21434.425
766.73354	22435.225
770.62254	23471.325
774.50882	23787.825
778.39237	23099.625
782.27321	21851.325
786.15132	20746.125
790.02671	20141.625
793.89938	19830.925
797.76935	19743.425
801.6366	19706.025
805.50115	19694.325
809.36299	19660.725
813.22213	19621.725
817.07857	19610.025
820.93231	19621.525
824.78336	19540.625
828.63172	19567.025
832.47738	19525.525
836.32036	19531.025
840.16066	19529.925
843.99827	19524.325
847.8332	19506.925
851.66546	19449.325
855.49504	19494.825
859.32195	19485.025
863.1462	19515.025
866.96777	19511.825
870.78668	19428.025
874.60293	19386.225
878.41652	19372.225
882.22745	19373.525
886.03573	19423.425
889.84136	19440.825
893.64433	19382.725
897.44466	19320.625
901.24235	19254.625
905.0374	19223.325
908.8298	19190.725
912.61957	19227.925
916.40671	19336.025
920.19121	19444.725
923.97308	19546.025
927.75233	19628.325
931.52895	19591.725
935.30295	19471.125
939.07433	19267.725
942.84309	19063.625
946.60924	18930.925
950.37278	18819.825
954.13371	18794.225
957.89203	18734.025
961.64774	18715.825
965.40086	18701.925
969.15137	18574.325
972.89929	18553.125
976.64461	18475.125
980.38733	18457.325
984.12747	18512.025
987.86502	18615.725
991.59999	18742.925
995.33237	18889.525
999.06217	19210.925
1002.78939	19548.325
1006.51404	19785.225
1010.23611	19942.225
1013.95561	20046.125
1017.67255	20031.925
1021.38692	19888.825
1025.09872	19716.725
1028.80796	19656.225
1032.51465	19836.125
1036.21877	19989.025
1039.92035	20022.825
1043.61937	20007.725
1047.31584	19881.325
1051.00976	19764.625
1054.70114	19782.025
1058.38998	19859.725
1062.07627	20071.425
1065.76003	20373.525
1069.44126	20825.125
1073.11995	21319.625
1076.79611	21785.225
1080.46974	21767.825
1084.14085	21418.525
1087.80943	21071.825
1091.47549	20760.725
1095.13903	20523.225
1098.80005	20288.125
1102.45857	20012.225
1106.11456	19831.025
1109.76805	19781.025
1113.41903	19864.125
1117.06751	19988.325
1120.71348	20167.725
1124.35696	20340.725
1127.99793	20536.925
1131.63641	20686.125
1135.2724	20541.825
1138.90589	20409.225
1142.5369	20286.825
1146.16542	20222.125
1149.79145	20261.425
1153.415	20376.725
1157.03607	20518.325
1160.65467	20812.425
1164.27079	21433.425
1167.88443	22224.625
1171.49561	23296.225
1175.10432	24637.725
1178.71056	26276.925
1182.31434	27639.925
1185.91565	28124.325
1189.51451	27825.325
1193.11091	27095.725
1196.70485	26212.325
1200.29634	25463.025
1203.88538	24869.425
1207.47197	24442.825
1211.05612	24065.925
1214.63782	23768.725
1218.21708	23563.025
1221.79391	23439.025
1225.36829	23327.925
1228.94024	23080.425
1232.50976	22806.925
1236.07685	22592.025
1239.6415	22548.725
1243.20374	22583.025
1246.76355	22682.325
1250.32093	22883.725
1253.8759	23169.325
1257.42845	23544.425
1260.97859	23911.025
1264.52631	24287.625
1268.07163	24677.125
1271.61453	25077.125
1275.15503	25492.325
1278.69312	26007.025
1282.22882	26419.925
1285.76211	26889.625
1289.29301	27600.125
1292.82151	28523.625
1296.34761	29652.425
1299.87133	30960.425
1303.39266	32394.225
1306.9116	33943.525
1310.42815	35553.925
1313.94233	36667.125
1317.45412	36825.325
1320.96354	36397.225
1324.47058	35739.725
1327.97525	35008.325
1331.47754	34479.625
1334.97747	34238.125
1338.47502	34370.625
1341.97022	34343.225
1345.46305	34054.525
1348.95352	33627.625
1352.44163	33516.525
1355.92738	34067.825
1359.41078	35202.125
1362.89183	36499.625
1366.37053	36175.425
1369.84688	33774.925
1373.32088	30880.725
1376.79254	28866.425
1380.26186	27998.825
1383.72883	27905.025
1387.19347	27945.025
1390.65578	27817.825
1394.11575	27891.125
1397.57339	28187.025
1401.0287	28789.525
1404.48168	29308.625
1407.93234	29603.125
1411.38068	29405.725
1414.82669	28704.425
1418.27039	27730.225
1421.71177	26676.725
1425.15083	25747.425
1428.58758	25229.525
1432.02203	25150.225
1435.45416	25505.825
1438.88399	25997.625
1442.31151	26449.425
1445.73673	26766.425
1449.15965	27122.825
1452.58027	27408.125
1455.9986	27562.625
1459.41463	27665.025
1462.82837	27903.625
1466.23982	28352.225
1469.64898	28722.525
1473.05586	28903.325
1476.46045	28902.825
1479.86276	28780.225
1483.26279	28497.425
1486.66054	28237.925
1490.05602	28166.225
1493.44922	28123.825
1496.84016	28042.825
1500.22882	28122.025
1503.61521	28539.725
1506.99934	29242.225
1510.38121	29966.725
1513.76081	30257.625
1517.13816	29805.225
1520.51324	28841.725
1523.88607	27947.125
1527.25665	27405.125
1530.62498	27246.925
1533.99105	27286.725
1537.35488	27298.925
1540.71647	27242.725
1544.07581	27015.825
1547.4329	26696.525
1550.78776	26343.725
1554.14038	26110.425
1557.49077	25949.625
1560.83892	25874.225
1564.18484	25984.125
1567.52853	26197.625
1570.86999	26653.825
1574.20922	27444.825
1577.54624	28268.225
1580.88103	28757.325
1584.2136	28747.825
1587.54395	28660.925
1590.87208	28928.225
1594.19801	29812.225
1597.52172	30950.125
1600.84321	31444.925
1604.16251	30574.625
1607.47959	28719.225
1610.79447	26653.225
1614.10715	24738.825
1617.41763	23208.925
1620.7259	22229.025
1624.03199	21755.325
1627.33587	21694.325
1630.63757	22114.925
1633.93707	23025.425
1637.23439	24524.925
1640.52951	26624.625
1643.82246	29037.525
1647.11321	31004.925
1650.40179	31455.225
1653.68819	29993.625
1656.97241	27057.525
1660.25446	24027.825
1663.53433	21826.925
1666.81203	20306.125
1670.08756	19375.325
1673.36092	18761.625
1676.63211	18369.425
1679.90115	18068.125
1683.16801	17845.625
1686.43272	17661.125
1689.69527	17575.225
1692.95567	17467.225
1696.2139	17437.525
1699.46999	17394.125
1702.72392	17351.725
1705.97571	17316.425
1709.22535	17292.325
1712.47284	17271.825
1715.71819	17211.925
1718.96139	17164.225
1722.20246	17117.125
1725.44139	17081.925
1728.67818	17003.725
1731.91284	16899.425
1735.14537	16820.725
1738.37576	16796.125
1741.60403	16791.425
1744.83017	16719.725
1748.05418	16687.425
1751.27607	16666.725
1754.49584	16630.225
1757.71349	16648.025
1760.92903	16624.825
1764.14244	16594.325
1767.35375	16552.625
1770.56294	16543.825
1773.77002	16541.625
1776.97499	16532.125
1780.17785	16492.425
1783.37861	16461.725
1786.57727	16419.325
1789.77382	16366.925
1792.96828	16370.025
1796.16064	16357.325
1799.3509	16310.225
1802.53907	16291.125
1805.72514	16228.325
1808.90913	16179.325
1812.09102	16175.225
1815.27083	16164.225
1818.44856	16127.925
1821.6242	16129.425
1824.79776	16086.125
1827.96924	16074.925
1831.13864	16072.125
1834.30597	16053.525
1837.47122	16026.925
1840.6344	16004.125
1843.7955	16013.225
1846.95454	16016.225
1850.11151	15984.225
1853.26642	16021.325
1856.41926	16000.725
1859.57004	15995.825
1862.71876	15977.225
1865.86542	15956.025
1869.01003	15968.125
1872.15258	15966.325
1875.29308	15952.825
1878.43152	15907.825
1881.56792	15920.225
1884.70227	15926.125
1887.83457	15931.825
1890.96482	15925.625
1894.09304	15915.625
1897.21921	15903.025
1900.34335	15908.225
1903.46544	15861.825
1906.58551	15886.225
1909.70353	15829.125
1912.81953	15809.825
1915.93349	15788.725
1919.04543	15766.925
1922.15534	15763.225
1925.26322	15727.125
1928.36908	15707.325
1931.47292	15686.625
1934.57473	15645.825
1937.67453	15600.425
1940.77232	15556.825
1943.86808	15523.725
1946.96184	15498.525
1950.05358	15382.325
1953.14331	15392.425
1956.23103	15347.625
1959.31675	15284.325
1962.40046	15270.225
1965.48217	15246.925
1968.56188	15209.225
1971.63959	15116.625
1974.7153	15085.825
1977.78901	15040.825
1980.86073	15007.625
1983.93046	14960.725
1986.99819	14919.525
1990.06394	14877.925
1993.1277	14833.125
1996.18947	14785.425
1999.24925	14730.125
2002.30706	14719.125
2005.36288	14680.425
2008.41672	14621.925
2011.46859	14610.825
2014.51848	14563.025
2017.56639	14546.025
2020.61233	14515.225
2023.6563	14475.825
2026.6983	14446.425
2029.73833	14422.125
2032.7764	14387.825
2035.8125	14366.325
2038.84664	14334.125
2041.87881	14320.925
2044.90903	14299.725
2047.93729	14251.125
2050.96359	14250.225
2053.98794	14209.725
2057.01034	14219.725
2060.03078	14205.725
2063.04927	14186.125
2066.06582	14194.425
2069.08042	14168.825
2072.09307	14163.725
2075.10378	14145.425
2078.11255	14137.825
2081.11938	14162.625
2084.12426	14138.125
2087.12722	14151.625
2090.12824	14120.225
2093.12732	14126.725
2096.12447	14139.825
2099.11969	14151.425
2102.11299	14153.825
2105.10435	14142.225
2108.09379	14148.525
2111.08131	14146.525
2114.0669	14129.625
2117.05057	14153.625
2120.03233	14194.425
2123.01216	14204.325
2125.99008	14183.025
2128.96609	14174.725
2131.94018	14208.825
2134.91236	14192.125
2137.88263	14208.625
2140.851	14214.225
2143.81746	14255.025
2146.78201	14243.125
2149.74466	14229.725
2152.7054	14262.025
2155.66425	14252.625
2158.6212	14280.925
2161.57625	14296.625
2164.52941	14244.625
2167.48067	14244.125
2170.43004	14254.525
2173.37752	14253.725
2176.32311	14236.225
2179.26681	14244.725
2182.20863	14209.025
2185.14856	14201.425
2188.08661	14216.425
2191.02278	14239.425
2193.95707	14204.625
2196.88948	14175.825
2199.82001	14183.225
2202.74867	14183.225
2205.67545	14171.725
2208.60037	14186.525
2211.52341	14165.225
2214.44458	14135.125
2217.36388	14080.825
2220.28132	14085.125
2223.1969	14044.425
2226.11061	14005.925
2229.02246	13981.525
2231.93245	13981.625
2234.84058	13955.225
2237.74686	13944.325
2240.65128	13916.725
2243.55385	13885.325
2246.45456	13854.425
2249.35343	13835.525
2252.25044	13837.725
2255.14561	13825.325
2258.03893	13795.325
2260.93041	13766.725
2263.82004	13737.225
2266.70783	13742.025
2269.59378	13667.725
2272.4779	13632.125
2275.36017	13601.225
2278.24061	13582.025
2281.11922	13527.525
2283.996	13521.025
2286.87094	13514.325
2289.74405	13495.725
2292.61534	13491.625
2295.4848	13471.825
2298.35243	13468.725
2301.21824	13471.025
2304.08223	13435.325
2306.94439	13402.725
2309.80474	13435.825
2312.66327	13450.025
2315.51999	13424.625
2318.37489	13417.725
2321.22797	13400.225
2324.07925	13413.325
2326.92871	13401.025
2329.77637	13374.725
2332.62222	13346.625
2335.46626	13327.525
2338.3085	13326.725
2341.14893	13320.125
2343.98756	13298.225
2346.8244	13283.925
2349.65943	13282.225
2352.49267	13255.925
2355.32411	13277.225
2358.15376	13278.325
2360.98161	13243.425
2363.80768	13237.325
2366.63195	13226.725
2369.45444	13186.025
2372.27514	13186.425
2375.09405	13174.325
2377.91118	13153.225
2380.72652	13112.125
2383.54009	13102.025
2386.35187	13064.725
2389.16188	13060.925
2391.97011	13008.125
2394.77657	12983.125
2397.58125	12977.725
2400.38416	12972.025
2403.18529	12963.325
2405.98466	12941.425
2408.78226	12912.325
2411.57809	12909.525
2414.37216	12872.425
2417.16446	12873.925
2419.955	12843.425
2422.74378	12828.425
2425.5308	12815.425
2428.31606	12774.425
2431.09956	12769.425
2433.88131	12764.825
2436.6613	12764.325
2439.43954	12766.825
2442.21603	12779.225
2444.99077	12725.025
2447.76377	12742.625
2450.53501	12738.025
2453.30451	12692.725
2456.07226	12663.425
2458.83827	12673.825
2461.60254	12681.325
2464.36507	12686.525
2467.12586	12685.625
2469.88492	12670.125
2472.64224	12639.325
2475.39782	12620.725
2478.15167	12626.325
2480.90379	12657.925
2483.65417	12645.825
2486.40283	12653.425
2489.14976	12662.525
2491.89497	12637.925
2494.63845	12665.525
2497.3802	12631.725
2500.12024	12620.125
2502.85855	12631.525
2505.59514	12611.425
2508.33002	12615.325
2511.06318	12603.025
2513.79462	12583.525
2516.52435	12549.625
2519.25237	12547.825
2521.97867	12516.725
2524.70327	12533.525
2527.42616	12509.425
2530.14734	12491.525
2532.86681	12454.325
2535.58458	12467.625
2538.30065	12491.325
2541.01501	12464.025
2543.72768	12428.225
2546.43864	12425.025
2549.14791	12402.925
2551.85548	12378.525
2554.56136	12351.525
2557.26554	12320.025
2559.96803	12307.725
2562.66883	12301.525
2565.36794	12301.425
2568.06536	12298.025
2570.7611	12269.025
2573.45514	12281.525
2576.14751	12260.125
2578.83819	12233.425
2581.52719	12231.925
2584.21451	12208.325
2586.90015	12191.525
2589.58411	12183.825
2592.2664	12164.325
2594.94701	12144.725
2597.62594	12133.925
2600.30321	12144.825
2602.9788	12110.425
2605.65273	12067.625
2608.32498	12080.825
2610.99557	12051.525
2613.66449	12057.125
2616.33175	12032.125
2618.99734	12040.225
2621.66128	12027.925
2624.32355	12033.325
2626.98416	12019.925
2629.64311	12034.325
2632.30041	12000.025
2634.95605	12023.525
2637.61004	11983.025
2640.26238	11976.725
2642.91306	11965.725
2645.56209	11972.225
2648.20948	11966.525
2650.85521	11943.725
2653.4993	11952.325
2656.14175	11956.425
2658.78255	11951.325
2661.42171	11963.925
2664.05923	11964.925
2666.6951	11942.225
2669.32934	11951.825
2671.96194	11941.225
2674.59291	11944.825
2677.22224	11944.525
2679.84993	11942.725
2682.476	11935.025
2685.10043	11932.825
2687.72324	11930.825
2690.34441	11948.925
2692.96396	11918.425
2695.58188	11914.625
2698.19818	11914.825
2700.81285	11931.925
2703.4259	11934.225
2706.03733	11997.225
2708.64714	11976.625
2711.25533	11961.225
2713.86191	11951.625
2716.46687	11967.825
2719.07021	11941.725
2721.67194	11938.125
2724.27206	11943.925
2726.87057	11958.425
2729.46747	11979.025
2732.06276	11952.225
2734.65644	11911.925
2737.24852	11941.625
2739.83899	11937.925
2742.42786	11917.625
2745.01513	11895.525
2747.60079	11903.025
2750.18486	11867.225
2752.76733	11857.025
2755.3482	11857.825
2757.92747	11900.625
2760.50515	11860.725
2763.08123	11870.125
2765.65573	11843.125
2768.22863	11848.825
2770.79994	11849.825
2773.36967	11857.825
2775.9378	11836.925
2778.50435	11821.225
2781.06932	11770.425
2783.6327	11808.525
2786.1945	11780.125
2788.75471	11750.625
2791.31335	11723.025
2793.87041	11712.725
2796.42589	11702.025
2798.97979	11692.125
2801.53212	11682.325
2804.08288	11655.025
2806.63206	11602.625
2809.17967	11584.025
2811.72571	11534.825
2814.27018	11580.125
2816.81308	11532.225
2819.35442	11530.525
2821.89419	11518.925
2824.43239	11535.725
2826.96904	11485.025
2829.50412	11507.725
2832.03763	11459.125
2834.56959	11477.725
2837.1	11454.425
2839.62884	11437.225
2842.15613	11433.625
2844.68186	11477.625
2847.20604	11459.925
2849.72867	11472.625
2852.24974	11431.725
2854.76927	11405.125
2857.28724	11419.525
2859.80367	11408.925
2862.31855	11383.925
2864.83189	11373.625
2867.34368	11377.625
2869.85393	11366.325
2872.36264	11353.025
2874.8698	11349.625
2877.37543	11368.325
2879.87952	11355.225
2882.38207	11363.225
2884.88308	11367.625
2887.38256	11408.225
2889.88051	11366.125
2892.37692	11399.925
2894.8718	11397.725
2897.36515	11404.825
2899.85698	11396.425
2902.34727	11423.725
2904.83604	11427.725
2907.32328	11472.825
2909.809	11436.425
2912.29319	11452.325
2914.77587	11447.125
2917.25702	11429.525
2919.73665	11441.625
2922.21476	11453.225
2924.69136	11432.925
2927.16644	11435.025
2929.64	11429.225
2932.11205	11422.525
2934.58258	11383.625
2937.05161	11411.825
2939.51912	11413.925
2941.98513	11395.425
2944.44962	11341.825
2946.91261	11294.625
2949.37409	11323.625
2951.83407	11312.425
2954.29254	11300.325
2956.74951	11237.225
2959.20498	11234.525
2961.65895	11200.425
2964.11142	11220.025
2966.56239	11176.625
2969.01186	11171.625
2971.45984	11124.625
2973.90632	11098.925
2976.35131	11070.925
2978.7948	11064.925
2981.23681	11027.925
2983.67732	10996.025
2986.11635	10991.525
2988.55388	10957.325
2990.98993	10945.125
2993.4245	10927.125
2995.85758	10896.925
2998.28917	10872.225
3000.71928	10838.725
3003.14791	10825.025
3005.57506	10823.625
3008.00073	10806.025
3010.42493	10811.725
3012.84764	10763.425
3015.26888	10769.225
3017.68865	10725.525
3020.10694	10729.125
3022.52376	10694.425
3024.9391	10674.125
3027.35298	10680.225
3029.76539	10693.725
3032.17632	10663.225
3034.5858	10637.925
3036.9938	10623.825
3039.40034	10617.225
3041.80542	10568.925
3044.20903	10571.225
3046.61118	10580.025
3049.01187	10537.125
3051.4111	10552.525
3053.80888	10516.625
3056.20519	10520.225
3058.60005	10455.125
3060.99345	10429.225
3063.3854	10428.025
3065.7759	10422.125
3068.16494	10384.325
3070.55254	10351.525
3072.93868	10353.525
3075.32338	10315.225
3077.70662	10284.525
3080.08842	10257.725
3082.46878	10272.125
3084.84769	10240.425
3087.22515	10275.125
3089.60118	10260.325
3091.97576	10276.425
3094.3489	10276.725
3096.72061	10256.525
3099.09087	10240.625
3101.4597	10239.625
3103.82709	10225.825
3106.19305	10229.525
3108.55757	10206.425
3110.92066	10189.925
3113.28232	10158.725
3115.64255	10134.125
3118.00134	10113.325
3120.35871	10129.725
3122.71466	10120.725
3125.06917	10078.425
3127.42226	10057.325
3129.77393	10070.725
