Data from AgNP_FTO_APTES_CRN_100uM_R6G_10uM_NaF_0.1M_Addition_RamanShift__17__18-51-18-128.txt Node

Date: Wed Dec 15 18:51:18 GMT 2021
User: TCL
Spectrometer: QEP01345
Trigger mode: 4
Integration Time (sec): 7.000000E0
Scans to average: 10
Electric dark correction enabled: true
Nonlinearity correction enabled: false
Boxcar width: 0
XAxis mode: Raman Shifts
Number of Pixels in Spectrum: 1044
>>>>>Begin Spectral Data<<<<<
46.04893	0.775
50.45542	-1.125
54.85868	-0.725
59.25871	-1.525
63.6555	56.275
68.04907	64.775
72.43941	64.675
76.82654	71.675
81.21044	69.075
85.59113	74.275
89.96862	82.975
94.34289	80.775
98.71396	84.775
103.08183	87.675
107.4465	91.175
111.80798	93.775
116.16626	92.275
120.52136	94.375
124.87327	95.575
129.222	101.975
133.56755	104.975
137.90993	117.975
142.24913	125.275
146.58517	138.675
150.91804	157.575
155.24774	184.675
159.57429	221.875
163.89768	287.075
168.21792	376.175
172.53501	507.975
176.84895	702.775
181.15975	988.675
185.46741	1383.275
189.77193	1922.175
194.07331	2570.875
198.37157	3288.475
202.6667	4066.875
206.9587	4825.275
211.24758	5592.575
215.53334	6338.575
219.81599	7161.075
224.09553	8043.575
228.37195	9008.475
232.64527	10054.775
236.91549	11202.875
241.18261	12328.775
245.44663	13417.575
249.70755	14413.375
253.96539	15227.175
258.22014	15936.375
262.4718	16521.975
266.72039	16960.875
270.96589	17146.775
275.20832	17221.775
279.44768	17092.575
283.68397	16880.175
287.91719	16721.775
292.14735	16615.975
296.37445	16556.775
300.59849	16621.375
304.81948	16682.875
309.03742	16644.275
313.25231	16490.975
317.46415	16220.775
321.67296	15822.175
325.87872	15493.875
330.08145	15350.575
334.28114	15359.575
338.47781	15467.075
342.67145	15735.775
346.86207	15946.675
351.04966	16279.275
355.23424	16588.675
359.4158	16898.075
363.59435	17118.875
367.76989	17211.075
371.94243	17300.275
376.11196	17388.075
380.27849	17496.175
384.44203	17618.475
388.60257	17760.175
392.76012	17874.975
396.91468	18042.975
401.06626	18284.175
405.21485	18475.375
409.36047	18399.075
413.50311	18148.375
417.64277	17885.875
421.77947	17778.875
425.9132	17812.275
430.04396	17906.075
434.17176	18025.175
438.2966	18218.575
442.41849	18549.275
446.53742	18971.075
450.6534	19499.675
454.76644	19806.075
458.87653	19916.075
462.98368	19775.475
467.08789	19623.275
471.18916	19478.375
475.2875	19342.675
479.38291	19341.075
483.4754	19196.675
487.56496	19026.075
491.6516	18770.475
495.73531	18529.875
499.81612	18410.275
503.89401	18430.775
507.96899	18471.375
512.04106	18528.475
516.11023	18540.975
520.1765	18507.675
524.23987	18523.375
528.30034	18487.175
532.35792	18378.675
536.41261	18182.075
540.46441	18020.875
544.51333	17960.375
548.55936	18148.375
552.60252	18457.475
556.64279	18794.975
560.6802	19090.175
564.71473	19218.375
568.7464	19402.675
572.7752	19674.675
576.80114	19789.375
580.82422	19902.175
584.84444	20084.275
588.86181	20506.675
592.87633	20993.375
596.888	21316.775
600.89682	21153.275
604.9028	21469.975
608.90594	22828.375
612.90624	24465.475
616.90371	23346.975
620.89834	20099.275
624.89015	18636.475
628.87913	18463.475
632.86528	18594.775
636.84862	18659.675
640.82913	18517.275
644.80683	18164.975
648.78172	17832.775
652.75379	17786.375
656.72306	17946.375
660.68952	18179.275
664.65319	18119.975
668.61405	17892.475
672.57211	17797.175
676.52738	17829.475
680.47986	17822.475
684.42955	17782.075
688.37646	17750.875
692.32058	17771.875
696.26192	17866.975
700.20048	18014.575
704.13626	18161.875
708.06928	18161.475
711.99952	18113.875
715.927	18110.975
719.85171	18100.475
723.77365	18045.075
727.69284	17969.475
731.60928	17815.275
735.52295	17822.775
739.43388	17819.375
743.34206	17819.875
747.24749	17879.975
751.15017	17977.275
755.05012	18188.975
758.94733	18607.375
762.8418	19310.775
766.73354	20488.575
770.62254	21751.675
774.50882	22175.575
778.39237	21456.075
782.27321	20067.075
786.15132	18854.075
790.02671	18153.575
793.89938	17821.275
797.76935	17735.975
801.6366	17670.275
805.50115	17659.475
809.36299	17583.275
813.22213	17497.575
817.07857	17556.775
820.93231	17498.075
824.78336	17466.475
828.63172	17459.275
832.47738	17469.775
836.32036	17520.575
840.16066	17545.575
843.99827	17538.675
847.8332	17481.275
851.66546	17484.175
855.49504	17430.575
859.32195	17462.375
863.1462	17450.375
866.96777	17413.975
870.78668	17357.575
874.60293	17395.775
878.41652	17402.175
882.22745	17453.675
886.03573	17507.275
889.84136	17488.775
893.64433	17396.175
897.44466	17396.875
901.24235	17332.875
905.0374	17266.475
908.8298	17266.375
912.61957	17265.075
916.40671	17378.375
920.19121	17475.675
923.97308	17586.075
927.75233	17646.375
931.52895	17637.575
935.30295	17478.375
939.07433	17290.275
942.84309	17071.575
946.60924	16928.475
950.37278	16917.575
954.13371	16880.175
957.89203	16855.175
961.64774	16817.975
965.40086	16809.875
969.15137	16770.475
972.89929	16694.875
976.64461	16678.775
980.38733	16672.075
984.12747	16750.075
987.86502	16856.575
991.59999	16996.275
995.33237	17211.775
999.06217	17457.575
1002.78939	17725.575
1006.51404	17921.375
1010.23611	18104.675
1013.95561	18235.675
1017.67255	18215.475
1021.38692	18059.275
1025.09872	17835.775
1028.80796	17784.475
1032.51465	17940.375
1036.21877	18126.575
1039.92035	18195.275
1043.61937	18149.975
1047.31584	18063.575
1051.00976	17980.175
1054.70114	17982.975
1058.38998	18071.075
1062.07627	18283.075
1065.76003	18575.775
1069.44126	18910.675
1073.11995	19277.675
1076.79611	19539.275
1080.46974	19514.075
1084.14085	19354.675
1087.80943	19267.575
1091.47549	19184.875
1095.13903	19086.775
1098.80005	18869.375
1102.45857	18534.575
1106.11456	18329.575
1109.76805	18235.175
1113.41903	18262.975
1117.06751	18398.075
1120.71348	18588.675
1124.35696	18801.575
1127.99793	19010.975
1131.63641	19126.075
1135.2724	18926.875
1138.90589	18740.775
1142.5369	18666.575
1146.16542	18634.175
1149.79145	18644.175
1153.415	18760.875
1157.03607	18904.475
1160.65467	19208.275
1164.27079	19669.075
1167.88443	20465.275
1171.49561	21531.175
1175.10432	22957.475
1178.71056	24693.375
1182.31434	26147.875
1185.91565	26621.775
1189.51451	26176.475
1193.11091	25238.775
1196.70485	24238.775
1200.29634	23342.375
1203.88538	22746.475
1207.47197	22327.475
1211.05612	21981.875
1214.63782	21689.975
1218.21708	21495.375
1221.79391	21365.275
1225.36829	21271.675
1228.94024	21074.875
1232.50976	20835.775
1236.07685	20598.275
1239.6415	20499.575
1243.20374	20485.375
1246.76355	20587.075
1250.32093	20801.575
1253.8759	21159.575
1257.42845	21528.475
1260.97859	21945.375
1264.52631	22327.275
1268.07163	22714.575
1271.61453	23216.075
1275.15503	23673.175
1278.69312	24141.775
1282.22882	24650.375
1285.76211	25235.375
1289.29301	25970.275
1292.82151	26838.875
1296.34761	27932.475
1299.87133	29094.975
1303.39266	30558.575
1306.9116	32100.575
1310.42815	33748.175
1313.94233	34858.375
1317.45412	35011.775
1320.96354	34380.475
1324.47058	33525.375
1327.97525	32615.475
1331.47754	31885.275
1334.97747	31449.575
1338.47502	31213.875
1341.97022	30997.075
1345.46305	30643.675
1348.95352	30425.775
1352.44163	30670.275
1355.92738	31541.175
1359.41078	33099.975
1362.89183	34681.775
1366.37053	34406.675
1369.84688	31894.575
1373.32088	28774.475
1376.79254	26650.175
1380.26186	25766.475
1383.72883	25509.775
1387.19347	25400.475
1390.65578	25209.575
1394.11575	25131.175
1397.57339	25362.475
1401.0287	25736.575
1404.48168	25988.775
1407.93234	25947.275
1411.38068	25582.075
1414.82669	24909.975
1418.27039	24017.175
1421.71177	23212.975
1425.15083	22479.575
1428.58758	22117.475
1432.02203	22142.875
1435.45416	22553.975
1438.88399	23007.875
1442.31151	23405.975
1445.73673	23784.075
1449.15965	24088.475
1452.58027	24310.075
1455.9986	24369.375
1459.41463	24541.075
1462.82837	24826.675
1466.23982	25255.375
1469.64898	25614.675
1473.05586	25789.275
1476.46045	25838.075
1479.86276	25811.075
1483.26279	25671.575
1486.66054	25552.175
1490.05602	25602.675
1493.44922	25809.175
1496.84016	26062.275
1500.22882	26599.275
1503.61521	27469.575
1506.99934	28638.175
1510.38121	29615.175
1513.76081	29950.875
1517.13816	29243.075
1520.51324	27861.375
1523.88607	26577.675
1527.25665	25811.575
1530.62498	25353.075
1533.99105	25231.975
1537.35488	25052.075
1540.71647	24802.475
1544.07581	24430.075
1547.4329	24123.675
1550.78776	23829.775
1554.14038	23619.675
1557.49077	23543.175
1560.83892	23569.175
1564.18484	23731.475
1567.52853	24020.875
1570.86999	24506.975
1574.20922	25070.175
1577.54624	25619.575
1580.88103	25791.875
1584.2136	25680.575
1587.54395	25584.475
1590.87208	25894.175
1594.19801	26688.475
1597.52172	27723.575
1600.84321	28156.875
1604.16251	27368.675
1607.47959	25760.575
1610.79447	23946.475
1614.10715	22303.575
1617.41763	20972.375
1620.7259	20167.375
1624.03199	19746.275
1627.33587	19709.475
1630.63757	20065.475
1633.93707	20933.575
1637.23439	22383.175
1640.52951	24488.275
1643.82246	27077.275
1647.11321	29299.075
1650.40179	29963.575
1653.68819	28508.775
1656.97241	25553.675
1660.25446	22505.575
1663.53433	20291.475
1666.81203	18812.675
1670.08756	17881.375
1673.36092	17305.175
1676.63211	16892.575
1679.90115	16659.075
1683.16801	16400.475
1686.43272	16304.175
1689.69527	16191.575
1692.95567	16132.475
1696.2139	16054.475
1699.46999	16044.575
1702.72392	15984.275
1705.97571	15963.875
1709.22535	15941.175
1712.47284	15889.475
1715.71819	15869.475
1718.96139	15852.175
1722.20246	15840.975
1725.44139	15766.875
1728.67818	15705.475
1731.91284	15627.575
1735.14537	15573.075
1738.37576	15522.175
1741.60403	15483.875
1744.83017	15451.975
1748.05418	15453.875
1751.27607	15389.675
1754.49584	15387.075
1757.71349	15385.075
1760.92903	15390.375
1764.14244	15364.475
1767.35375	15363.275
1770.56294	15320.375
1773.77002	15315.675
1776.97499	15275.975
1780.17785	15236.375
1783.37861	15237.475
1786.57727	15191.075
1789.77382	15160.775
1792.96828	15118.975
1796.16064	15122.975
1799.3509	15083.775
1802.53907	15053.675
1805.72514	15012.075
1808.90913	15006.475
1812.09102	14971.675
1815.27083	14938.575
1818.44856	14902.275
1821.6242	14882.175
1824.79776	14844.275
1827.96924	14849.375
1831.13864	14856.875
1834.30597	14859.975
1837.47122	14846.175
1840.6344	14801.375
1843.7955	14795.075
1846.95454	14778.675
1850.11151	14797.575
1853.26642	14797.775
1856.41926	14784.675
1859.57004	14755.375
1862.71876	14763.075
1865.86542	14762.075
1869.01003	14756.775
1872.15258	14732.475
1875.29308	14711.875
1878.43152	14711.875
1881.56792	14684.675
1884.70227	14669.075
1887.83457	14672.775
1890.96482	14644.075
1894.09304	14623.475
1897.21921	14649.575
1900.34335	14636.175
1903.46544	14622.875
1906.58551	14598.375
1909.70353	14611.775
1912.81953	14542.975
1915.93349	14509.375
1919.04543	14506.275
1922.15534	14482.975
1925.26322	14470.375
1928.36908	14451.175
1931.47292	14426.975
1934.57473	14366.475
1937.67453	14343.375
1940.77232	14323.875
1943.86808	14297.775
1946.96184	14251.775
1950.05358	14234.175
1953.14331	14184.675
1956.23103	14165.675
1959.31675	14109.375
1962.40046	14072.775
1965.48217	14035.975
1968.56188	14020.475
1971.63959	13963.075
1974.7153	13913.275
1977.78901	13870.975
1980.86073	13822.075
1983.93046	13778.775
1986.99819	13765.575
1990.06394	13716.075
1993.1277	13670.075
1996.18947	13631.775
1999.24925	13599.375
2002.30706	13569.875
2005.36288	13511.275
2008.41672	13478.475
2011.46859	13457.775
2014.51848	13433.975
2017.56639	13388.875
2020.61233	13384.275
2023.6563	13335.375
2026.6983	13337.875
2029.73833	13275.375
2032.7764	13225.375
2035.8125	13248.775
2038.84664	13197.275
2041.87881	13162.075
2044.90903	13174.175
2047.93729	13125.475
2050.96359	13125.175
2053.98794	13125.675
2057.01034	13128.875
2060.03078	13122.775
2063.04927	13109.375
2066.06582	13076.275
2069.08042	13109.275
2072.09307	13064.275
2075.10378	13057.875
2078.11255	13047.575
2081.11938	13065.675
2084.12426	13038.175
2087.12722	13036.975
2090.12824	13015.275
2093.12732	13015.975
2096.12447	13038.375
2099.11969	13043.075
2102.11299	13015.275
2105.10435	13015.575
2108.09379	13043.075
2111.08131	13072.675
2114.0669	13064.175
2117.05057	13046.075
2120.03233	13065.775
2123.01216	13089.575
2125.99008	13110.775
2128.96609	13101.075
2131.94018	13115.775
2134.91236	13127.975
2137.88263	13120.075
2140.851	13153.175
2143.81746	13138.375
2146.78201	13174.275
2149.74466	13183.675
2152.7054	13189.275
2155.66425	13180.475
2158.6212	13192.175
2161.57625	13166.275
2164.52941	13192.675
2167.48067	13165.075
2170.43004	13133.175
2173.37752	13142.475
2176.32311	13130.775
2179.26681	13166.575
2182.20863	13152.475
2185.14856	13154.675
2188.08661	13128.375
2191.02278	13172.775
2193.95707	13153.175
2196.88948	13139.775
2199.82001	13120.375
2202.74867	13083.675
2205.67545	13095.575
2208.60037	13110.775
2211.52341	13101.575
2214.44458	13054.975
2217.36388	13021.375
2220.28132	13012.375
2223.1969	12988.175
2226.11061	12986.075
2229.02246	12947.675
2231.93245	12927.275
2234.84058	12892.775
2237.74686	12885.675
2240.65128	12896.775
2243.55385	12856.975
2246.45456	12820.275
2249.35343	12837.675
2252.25044	12806.575
2255.14561	12756.675
2258.03893	12793.775
2260.93041	12766.275
2263.82004	12737.075
2266.70783	12694.075
2269.59378	12656.875
2272.4779	12629.575
2275.36017	12623.875
2278.24061	12584.575
2281.11922	12532.675
2283.996	12526.875
2286.87094	12533.275
2289.74405	12492.175
2292.61534	12477.575
2295.4848	12492.475
2298.35243	12492.375
2301.21824	12475.775
2304.08223	12453.575
2306.94439	12467.775
2309.80474	12449.075
2312.66327	12435.975
2315.51999	12424.975
2318.37489	12418.375
2321.22797	12408.675
2324.07925	12378.875
2326.92871	12373.775
2329.77637	12364.175
2332.62222	12372.775
2335.46626	12335.075
2338.3085	12336.175
2341.14893	12293.975
2343.98756	12315.375
2346.8244	12300.475
2349.65943	12282.675
2352.49267	12305.475
2355.32411	12292.675
2358.15376	12264.975
2360.98161	12293.675
2363.80768	12270.275
2366.63195	12273.975
2369.45444	12236.575
2372.27514	12236.175
2375.09405	12224.575
2377.91118	12201.775
2380.72652	12180.975
2383.54009	12135.775
2386.35187	12153.175
2389.16188	12120.375
2391.97011	12087.275
2394.77657	12062.175
2397.58125	12053.975
2400.38416	12019.775
2403.18529	12000.975
2405.98466	11992.875
2408.78226	11967.175
2411.57809	11965.175
2414.37216	11938.875
2417.16446	11935.775
2419.955	11911.175
2422.74378	11893.875
2425.5308	11862.075
2428.31606	11875.575
2431.09956	11863.575
2433.88131	11854.975
2436.6613	11847.075
2439.43954	11848.975
2442.21603	11822.675
2444.99077	11820.675
2447.76377	11811.075
2450.53501	11810.575
2453.30451	11795.075
2456.07226	11792.875
2458.83827	11755.775
2461.60254	11756.875
2464.36507	11758.675
2467.12586	11760.975
2469.88492	11749.475
2472.64224	11749.475
2475.39782	11740.775
2478.15167	11754.075
2480.90379	11745.175
2483.65417	11774.175
2486.40283	11762.175
2489.14976	11754.275
2491.89497	11760.975
2494.63845	11759.775
2497.3802	11729.475
2500.12024	11746.775
2502.85855	11749.775
2505.59514	11716.275
2508.33002	11702.575
2511.06318	11672.575
2513.79462	11681.975
2516.52435	11669.275
2519.25237	11653.675
2521.97867	11650.575
2524.70327	11614.575
2527.42616	11623.875
2530.14734	11589.275
2532.86681	11589.275
2535.58458	11569.475
2538.30065	11551.875
2541.01501	11545.575
2543.72768	11528.075
2546.43864	11517.275
2549.14791	11516.275
2551.85548	11496.975
2554.56136	11487.075
2557.26554	11445.175
2559.96803	11442.875
2562.66883	11421.175
2565.36794	11411.475
2568.06536	11421.875
2570.7611	11433.175
2573.45514	11427.075
2576.14751	11399.475
2578.83819	11363.875
2581.52719	11351.375
2584.21451	11340.775
2586.90015	11332.875
2589.58411	11312.075
2592.2664	11298.075
2594.94701	11287.275
2597.62594	11260.075
2600.30321	11259.775
2602.9788	11241.275
2605.65273	11218.275
2608.32498	11227.275
2610.99557	11196.975
2613.66449	11186.875
2616.33175	11169.775
2618.99734	11199.175
2621.66128	11170.875
2624.32355	11166.875
2626.98416	11140.475
2629.64311	11180.175
2632.30041	11151.975
2634.95605	11143.275
2637.61004	11114.675
2640.26238	11106.175
2642.91306	11113.175
2645.56209	11100.775
2648.20948	11109.075
2650.85521	11075.475
2653.4993	11074.775
2656.14175	11080.175
2658.78255	11092.575
2661.42171	11068.775
2664.05923	11081.275
2666.6951	11103.675
2669.32934	11091.175
2671.96194	11078.075
2674.59291	11058.075
2677.22224	11077.775
2679.84993	11069.575
2682.476	11053.775
2685.10043	11070.475
2687.72324	11071.175
2690.34441	11092.175
2692.96396	11046.775
2695.58188	11057.675
2698.19818	11029.875
2700.81285	11074.375
2703.4259	11070.975
2706.03733	11102.475
2708.64714	11096.775
2711.25533	11110.175
2713.86191	11067.175
2716.46687	11092.375
2719.07021	11097.075
2721.67194	11099.175
2724.27206	11043.775
2726.87057	11086.275
2729.46747	11078.675
2732.06276	11075.775
2734.65644	11068.275
2737.24852	11058.275
2739.83899	11073.375
2742.42786	11041.575
2745.01513	11014.875
2747.60079	11021.775
2750.18486	11016.375
2752.76733	11033.175
2755.3482	11021.575
2757.92747	11039.475
2760.50515	10996.275
2763.08123	10995.175
2765.65573	10968.875
2768.22863	10984.575
2770.79994	10968.675
2773.36967	10954.375
2775.9378	10940.975
2778.50435	10934.375
2781.06932	10914.175
2783.6327	10887.175
2786.1945	10915.675
2788.75471	10899.675
2791.31335	10878.575
2793.87041	10856.675
2796.42589	10819.175
2798.97979	10846.075
2801.53212	10789.075
2804.08288	10815.775
2806.63206	10751.975
2809.17967	10744.075
2811.72571	10723.975
2814.27018	10694.875
2816.81308	10707.975
2819.35442	10688.175
2821.89419	10645.575
2824.43239	10648.375
2826.96904	10627.775
2829.50412	10650.175
2832.03763	10620.775
2834.56959	10619.775
2837.1	10564.275
2839.62884	10591.675
2842.15613	10607.275
2844.68186	10597.175
2847.20604	10599.275
2849.72867	10609.575
2852.24974	10597.975
2854.76927	10587.475
2857.28724	10585.075
2859.80367	10556.375
2862.31855	10526.975
2864.83189	10530.375
2867.34368	10530.975
2869.85393	10515.875
2872.36264	10507.575
2874.8698	10516.875
2877.37543	10515.575
2879.87952	10507.275
2882.38207	10514.175
2884.88308	10496.675
2887.38256	10527.175
2889.88051	10527.675
2892.37692	10483.975
2894.8718	10499.775
2897.36515	10494.075
2899.85698	10476.975
2902.34727	10518.475
2904.83604	10502.175
2907.32328	10557.675
2909.809	10525.075
2912.29319	10546.775
2914.77587	10543.375
2917.25702	10528.575
2919.73665	10542.075
2922.21476	10531.475
2924.69136	10501.675
2927.16644	10524.375
2929.64	10516.575
2932.11205	10490.375
2934.58258	10478.975
2937.05161	10495.875
2939.51912	10488.775
2941.98513	10477.875
2944.44962	10470.075
2946.91261	10400.175
2949.37409	10440.275
2951.83407	10426.175
2954.29254	10410.575
2956.74951	10391.175
2959.20498	10398.875
2961.65895	10381.275
2964.11142	10415.175
2966.56239	10387.275
2969.01186	10390.775
2971.45984	10328.175
2973.90632	10306.475
2976.35131	10279.875
2978.7948	10239.775
2981.23681	10247.675
2983.67732	10254.675
2986.11635	10210.375
2988.55388	10175.675
2990.98993	10165.875
2993.4245	10153.075
2995.85758	10156.975
2998.28917	10117.775
3000.71928	10103.475
3003.14791	10106.875
3005.57506	10084.575
3008.00073	10065.775
3010.42493	10085.875
3012.84764	10053.175
3015.26888	10046.575
3017.68865	10005.375
3020.10694	10005.975
3022.52376	9985.375
3024.9391	9966.475
3027.35298	9968.375
3029.76539	9968.075
3032.17632	9960.175
3034.5858	9940.575
3036.9938	9953.575
3039.40034	9923.375
3041.80542	9903.775
3044.20903	9882.975
3046.61118	9874.875
3049.01187	9880.175
3051.4111	9840.475
3053.80888	9854.475
3056.20519	9840.475
3058.60005	9806.575
3060.99345	9793.375
3063.3854	9780.675
3065.7759	9752.475
3068.16494	9739.375
3070.55254	9706.175
3072.93868	9682.575
3075.32338	9664.375
3077.70662	9671.275
3080.08842	9616.975
3082.46878	9629.475
3084.84769	9596.575
3087.22515	9636.775
3089.60118	9612.475
3091.97576	9609.575
3094.3489	9627.675
3096.72061	9622.375
3099.09087	9599.375
3101.4597	9595.475
3103.82709	9600.875
3106.19305	9568.475
3108.55757	9583.275
3110.92066	9569.775
3113.28232	9542.775
3115.64255	9522.575
3118.00134	9494.575
3120.35871	9484.575
3122.71466	9494.775
3125.06917	9481.675
3127.42226	9459.375
3129.77393	9463.675
3132.12417	9482.575
3134.47299	9477.375
