Data from AgNP_FTO_APTES_CRN_5uM_R6G_10uM_NaF_0.1M_Addition_RamanShift__29__15-59-47-925.txt Node

Date: Wed Dec 15 15:59:47 GMT 2021
User: TCL
Spectrometer: QEP01345
Trigger mode: 4
Integration Time (sec): 7.000000E0
Scans to average: 10
Electric dark correction enabled: true
Nonlinearity correction enabled: false
Boxcar width: 0
XAxis mode: Raman Shifts
Number of Pixels in Spectrum: 1044
>>>>>Begin Spectral Data<<<<<
46.04893	0.1875
50.45542	-2.5125
54.85868	-1.1125
59.25871	-0.8125
63.6555	98.5875
68.04907	101.5875
72.43941	108.9875
76.82654	112.3875
81.21044	115.8875
85.59113	121.1875
89.96862	124.2875
94.34289	125.8875
98.71396	135.3875
103.08183	138.0875
107.4465	141.2875
111.80798	145.5875
116.16626	149.9875
120.52136	153.3875
124.87327	155.2875
129.222	166.9875
133.56755	172.4875
137.90993	187.3875
142.24913	199.1875
146.58517	226.8875
150.91804	263.5875
155.24774	307.2875
159.57429	380.7875
163.89768	482.4875
168.21792	633.2875
172.53501	852.2875
176.84895	1187.3875
181.15975	1657.0875
185.46741	2307.7875
189.77193	3182.7875
194.07331	4229.6875
198.37157	5475.3875
202.6667	6758.3875
206.9587	8004.7875
211.24758	9267.1875
215.53334	10541.3875
219.81599	11917.7875
224.09553	13466.1875
228.37195	15209.7875
232.64527	17104.1875
236.91549	19080.9875
241.18261	21000.2875
245.44663	22658.0875
249.70755	24126.3875
253.96539	25378.1875
258.22014	26493.5875
262.4718	27453.5875
266.72039	28226.0875
270.96589	28661.9875
275.20832	28803.8875
279.44768	28706.6875
283.68397	28513.6875
287.91719	28283.1875
292.14735	28271.6875
296.37445	28468.3875
300.59849	28944.7875
304.81948	29479.1875
309.03742	29794.3875
313.25231	29614.8875
317.46415	28675.2875
321.67296	27298.5875
325.87872	26206.0875
330.08145	25719.9875
334.28114	25745.5875
338.47781	26028.1875
342.67145	26579.7875
346.86207	27311.0875
351.04966	28302.4875
355.23424	29444.8875
359.4158	30353.3875
363.59435	30866.4875
367.76989	31117.1875
371.94243	31191.7875
376.11196	31187.9875
380.27849	31102.2875
384.44203	31064.7875
388.60257	30985.3875
392.76012	31088.3875
396.91468	31470.1875
401.06626	32186.8875
405.21485	32698.9875
409.36047	32440.6875
413.50311	31507.6875
417.64277	30668.5875
421.77947	30268.2875
425.9132	30212.3875
430.04396	30346.3875
434.17176	30573.6875
438.2966	30908.2875
442.41849	31386.1875
446.53742	32219.9875
450.6534	33057.9875
454.76644	33738.3875
458.87653	34021.0875
462.98368	33933.5875
467.08789	33521.9875
471.18916	32848.6875
475.2875	32157.3875
479.38291	31563.9875
483.4754	31084.7875
487.56496	30724.0875
491.6516	30405.0875
495.73531	30281.4875
499.81612	30305.0875
503.89401	30556.7875
507.96899	30791.3875
512.04106	30961.4875
516.11023	31185.8875
520.1765	31334.1875
524.23987	31258.7875
528.30034	30938.6875
532.35792	30466.9875
536.41261	29964.9875
540.46441	29507.4875
544.51333	29352.4875
548.55936	29606.1875
552.60252	30202.8875
556.64279	30813.1875
560.6802	31068.6875
564.71473	31262.4875
568.7464	31920.8875
572.7752	32545.5875
576.80114	32501.8875
580.82422	32456.4875
584.84444	32461.4875
588.86181	32417.9875
592.87633	32612.4875
596.888	33115.1875
600.89682	34048.8875
604.9028	36720.5875
608.90594	42887.8875
612.90624	49546.4875
616.90371	46753.5875
620.89834	36622.8875
624.89015	32162.8875
628.87913	31427.9875
632.86528	31380.2875
636.84862	31324.4875
640.82913	30780.7875
644.80683	29818.5875
648.78172	29235.0875
652.75379	29310.1875
656.72306	30070.7875
660.68952	30931.7875
664.65319	30828.9875
668.61405	29908.7875
672.57211	29552.9875
676.52738	29542.9875
680.47986	29531.5875
684.42955	29428.6875
688.37646	29368.2875
692.32058	29515.5875
696.26192	29819.0875
700.20048	30152.0875
704.13626	30349.9875
708.06928	30273.9875
711.99952	30055.2875
715.927	29958.9875
719.85171	29959.2875
723.77365	29800.4875
727.69284	29537.1875
731.60928	29332.5875
735.52295	29256.6875
739.43388	29346.3875
743.34206	29509.1875
747.24749	29719.6875
751.15017	30079.0875
755.05012	30637.1875
758.94733	31763.7875
762.8418	34043.1875
766.73354	37715.7875
770.62254	41395.8875
774.50882	42510.8875
778.39237	40348.4875
782.27321	36279.9875
786.15132	32889.5875
790.02671	30978.4875
793.89938	30077.3875
797.76935	29755.7875
801.6366	29579.8875
805.50115	29451.8875
809.36299	29259.0875
813.22213	29122.2875
817.07857	29092.7875
820.93231	29072.5875
824.78336	29079.6875
828.63172	29232.6875
832.47738	29337.0875
836.32036	29418.3875
840.16066	29459.1875
843.99827	29515.5875
847.8332	29389.3875
851.66546	29238.6875
855.49504	29185.9875
859.32195	29110.9875
863.1462	28921.1875
866.96777	28842.5875
870.78668	28778.2875
874.60293	28782.3875
878.41652	28801.7875
882.22745	28955.7875
886.03573	29046.8875
889.84136	28981.3875
893.64433	28902.0875
897.44466	28787.5875
901.24235	28746.8875
905.0374	28773.3875
908.8298	28749.0875
912.61957	28836.4875
916.40671	29052.0875
920.19121	29441.7875
923.97308	29836.5875
927.75233	30030.4875
931.52895	30025.0875
935.30295	29696.2875
939.07433	29122.9875
942.84309	28649.0875
946.60924	28426.5875
950.37278	28275.7875
954.13371	28091.2875
957.89203	27891.7875
961.64774	27798.7875
965.40086	27721.8875
969.15137	27633.7875
972.89929	27533.0875
976.64461	27533.4875
980.38733	27567.1875
984.12747	27721.0875
987.86502	27952.1875
991.59999	28312.4875
995.33237	28879.3875
999.06217	29799.0875
1002.78939	30930.7875
1006.51404	31750.3875
1010.23611	32340.2875
1013.95561	32703.9875
1017.67255	32578.0875
1021.38692	32217.0875
1025.09872	32041.7875
1028.80796	32410.2875
1032.51465	33521.3875
1036.21877	34472.4875
1039.92035	34556.4875
1043.61937	33922.9875
1047.31584	33018.5875
1051.00976	31987.0875
1054.70114	31427.3875
1058.38998	31320.2875
1062.07627	31461.6875
1065.76003	31770.2875
1069.44126	32198.9875
1073.11995	32813.0875
1076.79611	33371.8875
1080.46974	33639.6875
1084.14085	33929.3875
1087.80943	34050.4875
1091.47549	33889.7875
1095.13903	33295.8875
1098.80005	32449.8875
1102.45857	31646.7875
1106.11456	31332.1875
1109.76805	31343.4875
1113.41903	31631.4875
1117.06751	32124.5875
1120.71348	32739.3875
1124.35696	33357.6875
1127.99793	33905.0875
1131.63641	34088.4875
1135.2724	33444.2875
1138.90589	32770.4875
1142.5369	32345.4875
1146.16542	31963.1875
1149.79145	31832.8875
1153.415	31965.7875
1157.03607	32312.0875
1160.65467	32963.2875
1164.27079	34009.9875
1167.88443	35543.7875
1171.49561	37783.4875
1175.10432	41317.8875
1178.71056	45691.8875
1182.31434	49458.5875
1185.91565	51232.4875
1189.51451	50826.0875
1193.11091	48546.9875
1196.70485	45411.0875
1200.29634	42863.1875
1203.88538	40965.5875
1207.47197	39315.8875
1211.05612	37961.6875
1214.63782	37228.3875
1218.21708	37121.2875
1221.79391	37360.6875
1225.36829	37577.9875
1228.94024	37563.8875
1232.50976	37456.1875
1236.07685	37253.1875
1239.6415	37248.3875
1243.20374	37232.3875
1246.76355	37435.9875
1250.32093	37991.8875
1253.8759	38951.3875
1257.42845	40147.8875
1260.97859	41183.5875
1264.52631	42038.8875
1268.07163	42964.1875
1271.61453	43959.8875
1275.15503	45122.5875
1278.69312	46218.9875
1282.22882	47140.3875
1285.76211	47951.6875
1289.29301	48768.0875
1292.82151	49680.5875
1296.34761	50996.3875
1299.87133	52954.3875
1303.39266	56034.5875
1306.9116	60419.5875
1310.42815	65373.2875
1313.94233	68639.2875
1317.45412	68611.9875
1320.96354	66313.1875
1324.47058	63441.5875
1327.97525	60887.5875
1331.47754	59280.5875
1334.97747	58834.7875
1338.47502	59271.0875
1341.97022	60109.6875
1345.46305	60695.5875
1348.95352	61077.3875
1352.44163	61966.5875
1355.92738	64560.3875
1359.41078	69673.5875
1362.89183	75001.0875
1366.37053	73725.9875
1369.84688	65871.5875
1373.32088	57450.3875
1376.79254	51863.9875
1380.26186	49096.6875
1383.72883	47728.7875
1387.19347	46734.5875
1390.65578	45683.8875
1394.11575	45008.4875
1397.57339	44892.4875
1401.0287	45404.7875
1404.48168	46278.7875
1407.93234	47283.1875
1411.38068	48027.5875
1414.82669	47957.0875
1418.27039	46887.6875
1421.71177	45418.3875
1425.15083	44045.5875
1428.58758	43176.5875
1432.02203	43070.8875
1435.45416	43325.2875
1438.88399	43740.9875
1442.31151	44006.2875
1445.73673	44398.4875
1449.15965	44778.4875
1452.58027	44913.2875
1455.9986	44712.6875
1459.41463	44694.1875
1462.82837	45081.1875
1466.23982	45897.0875
1469.64898	46912.6875
1473.05586	47577.4875
1476.46045	48160.2875
1479.86276	48696.1875
1483.26279	49335.4875
1486.66054	49904.4875
1490.05602	50801.1875
1493.44922	51937.1875
1496.84016	53117.6875
1500.22882	55077.1875
1503.61521	57769.6875
1506.99934	61292.3875
1510.38121	64813.2875
1513.76081	66739.6875
1517.13816	65268.5875
1520.51324	61040.5875
1523.88607	56433.7875
1527.25665	53011.9875
1530.62498	50940.7875
1533.99105	49618.7875
1537.35488	48744.0875
1540.71647	48235.0875
1544.07581	47867.7875
1547.4329	47415.9875
1550.78776	46958.5875
1554.14038	46821.2875
1557.49077	46794.9875
1560.83892	47109.4875
1564.18484	47538.6875
1567.52853	47840.8875
1570.86999	48196.7875
1574.20922	48718.0875
1577.54624	49208.0875
1580.88103	48824.8875
1584.2136	48068.0875
1587.54395	47955.1875
1590.87208	49022.9875
1594.19801	51416.4875
1597.52172	54527.1875
1600.84321	55707.5875
1604.16251	53840.2875
1607.47959	50302.9875
1610.79447	46417.0875
1614.10715	42920.0875
1617.41763	40126.3875
1620.7259	38341.4875
1624.03199	37375.5875
1627.33587	37465.2875
1630.63757	38397.8875
1633.93707	40210.4875
1637.23439	42856.4875
1640.52951	46038.9875
1643.82246	49593.5875
1647.11321	52883.9875
1650.40179	54506.2875
1653.68819	52568.3875
1656.97241	47194.8875
1660.25446	41261.3875
1663.53433	36809.9875
1666.81203	33892.2875
1670.08756	32121.5875
1673.36092	31055.0875
1676.63211	30291.4875
1679.90115	29818.6875
1683.16801	29383.8875
1686.43272	29120.0875
1689.69527	28949.1875
1692.95567	28764.7875
1696.2139	28690.2875
1699.46999	28668.7875
1702.72392	28585.6875
1705.97571	28528.3875
1709.22535	28452.4875
1712.47284	28438.7875
1715.71819	28504.5875
1718.96139	28407.7875
1722.20246	28395.1875
1725.44139	28285.6875
1728.67818	28136.2875
1731.91284	27951.8875
1735.14537	27855.7875
1738.37576	27728.8875
1741.60403	27636.9875
1744.83017	27590.2875
1748.05418	27512.6875
1751.27607	27434.2875
1754.49584	27427.0875
1757.71349	27370.0875
1760.92903	27397.7875
1764.14244	27362.2875
1767.35375	27409.3875
1770.56294	27336.3875
1773.77002	27305.9875
1776.97499	27329.3875
1780.17785	27306.7875
1783.37861	27255.3875
1786.57727	27217.3875
1789.77382	27154.4875
1792.96828	27106.8875
1796.16064	27080.0875
1799.3509	27087.0875
1802.53907	27041.3875
1805.72514	26952.9875
1808.90913	26908.5875
1812.09102	26857.6875
1815.27083	26815.6875
1818.44856	26782.2875
1821.6242	26735.0875
1824.79776	26729.5875
1827.96924	26735.0875
1831.13864	26738.6875
1834.30597	26729.1875
1837.47122	26742.7875
1840.6344	26741.2875
1843.7955	26750.8875
1846.95454	26736.3875
1850.11151	26795.8875
1853.26642	26805.3875
1856.41926	26808.9875
1859.57004	26797.7875
1862.71876	26801.6875
1865.86542	26798.1875
1869.01003	26854.2875
1872.15258	26873.3875
1875.29308	26858.6875
1878.43152	26849.5875
1881.56792	26831.6875
1884.70227	26854.9875
1887.83457	26879.4875
1890.96482	26861.1875
1894.09304	26878.0875
1897.21921	26875.3875
1900.34335	26884.9875
1903.46544	26854.3875
1906.58551	26830.8875
1909.70353	26869.7875
1912.81953	26822.3875
1915.93349	26821.7875
1919.04543	26758.2875
1922.15534	26771.3875
1925.26322	26675.4875
1928.36908	26638.1875
1931.47292	26563.8875
1934.57473	26496.5875
1937.67453	26378.0875
1940.77232	26259.6875
1943.86808	26171.8875
1946.96184	26093.5875
1950.05358	26005.3875
1953.14331	25939.4875
1956.23103	25853.4875
1959.31675	25778.5875
1962.40046	25679.9875
1965.48217	25628.4875
1968.56188	25561.1875
1971.63959	25500.0875
1974.7153	25401.3875
1977.78901	25351.3875
1980.86073	25269.5875
1983.93046	25205.7875
1986.99819	25083.1875
1990.06394	25023.9875
1993.1277	24982.2875
1996.18947	24899.2875
1999.24925	24833.7875
2002.30706	24757.7875
2005.36288	24671.9875
2008.41672	24630.8875
2011.46859	24593.6875
2014.51848	24534.7875
2017.56639	24530.4875
2020.61233	24464.9875
2023.6563	24407.5875
2026.6983	24363.5875
2029.73833	24300.2875
2032.7764	24268.4875
2035.8125	24165.0875
2038.84664	24183.2875
2041.87881	24127.1875
2044.90903	24085.1875
2047.93729	24063.2875
2050.96359	24029.5875
2053.98794	23994.6875
2057.01034	24026.2875
2060.03078	23964.7875
2063.04927	23941.8875
2066.06582	23914.5875
2069.08042	23886.3875
2072.09307	23890.3875
2075.10378	23853.4875
2078.11255	23827.1875
2081.11938	23794.1875
2084.12426	23755.7875
2087.12722	23769.8875
2090.12824	23727.4875
2093.12732	23797.2875
2096.12447	23791.5875
2099.11969	23758.7875
2102.11299	23815.2875
2105.10435	23773.0875
2108.09379	23791.8875
2111.08131	23876.4875
2114.0669	23834.6875
2117.05057	23878.9875
2120.03233	23859.0875
2123.01216	23830.2875
2125.99008	23886.5875
2128.96609	23913.5875
2131.94018	23906.1875
2134.91236	23932.9875
2137.88263	23962.0875
2140.851	23945.1875
2143.81746	23976.2875
2146.78201	23989.1875
2149.74466	24017.8875
2152.7054	24020.9875
2155.66425	23978.8875
2158.6212	24037.0875
2161.57625	24022.1875
2164.52941	24036.3875
2167.48067	23998.0875
2170.43004	23981.1875
2173.37752	23990.6875
2176.32311	23954.5875
2179.26681	23986.0875
2182.20863	24001.2875
2185.14856	23979.0875
2188.08661	24027.4875
2191.02278	23988.2875
2193.95707	24009.6875
2196.88948	23971.9875
2199.82001	24000.7875
2202.74867	24006.5875
2205.67545	23965.0875
2208.60037	23923.5875
2211.52341	23951.5875
2214.44458	23934.8875
2217.36388	23909.2875
2220.28132	23927.2875
2223.1969	23867.1875
2226.11061	23824.2875
2229.02246	23795.1875
2231.93245	23679.9875
2234.84058	23656.2875
2237.74686	23554.2875
2240.65128	23597.5875
2243.55385	23534.7875
2246.45456	23564.2875
2249.35343	23514.8875
2252.25044	23530.5875
2255.14561	23450.6875
2258.03893	23458.7875
2260.93041	23448.5875
2263.82004	23386.5875
2266.70783	23357.5875
2269.59378	23278.3875
2272.4779	23229.4875
2275.36017	23153.9875
2278.24061	23132.8875
2281.11922	23068.5875
2283.996	23039.1875
2286.87094	23004.3875
2289.74405	23013.6875
2292.61534	22967.9875
2295.4848	22932.9875
2298.35243	22969.8875
2301.21824	22946.7875
2304.08223	22992.7875
2306.94439	22967.7875
2309.80474	23045.6875
2312.66327	23015.1875
2315.51999	23043.6875
2318.37489	22996.3875
2321.22797	23002.0875
2324.07925	22979.6875
2326.92871	22985.9875
2329.77637	22966.1875
2332.62222	22975.4875
2335.46626	22980.2875
2338.3085	22970.2875
2341.14893	22968.4875
2343.98756	22986.9875
2346.8244	23035.8875
2349.65943	23029.4875
2352.49267	23029.7875
2355.32411	23004.7875
2358.15376	22979.6875
2360.98161	22965.6875
2363.80768	22934.7875
2366.63195	22916.0875
2369.45444	22877.5875
2372.27514	22835.0875
2375.09405	22783.0875
2377.91118	22764.7875
2380.72652	22692.3875
2383.54009	22628.4875
2386.35187	22599.4875
2389.16188	22544.5875
2391.97011	22524.4875
2394.77657	22535.2875
2397.58125	22476.1875
2400.38416	22417.7875
2403.18529	22358.7875
2405.98466	22321.9875
2408.78226	22274.8875
2411.57809	22230.4875
2414.37216	22176.6875
2417.16446	22148.1875
2419.955	22114.5875
2422.74378	22124.7875
2425.5308	22058.2875
2428.31606	22078.8875
2431.09956	22052.0875
2433.88131	22031.3875
2436.6613	22046.2875
2439.43954	22017.1875
2442.21603	21982.9875
2444.99077	21966.2875
2447.76377	21993.0875
2450.53501	22005.9875
2453.30451	21983.7875
2456.07226	21932.3875
2458.83827	21980.5875
2461.60254	21933.2875
2464.36507	21943.9875
2467.12586	21954.8875
2469.88492	21921.9875
2472.64224	21920.1875
2475.39782	21955.0875
2478.15167	21995.8875
2480.90379	22005.3875
2483.65417	22009.3875
2486.40283	21991.1875
2489.14976	22039.2875
2491.89497	22019.7875
2494.63845	22093.8875
2497.3802	22098.8875
2500.12024	22104.8875
2502.85855	22069.3875
2505.59514	22071.6875
2508.33002	22049.4875
2511.06318	21988.8875
2513.79462	21938.0875
2516.52435	21891.5875
2519.25237	21886.9875
2521.97867	21861.3875
2524.70327	21836.6875
2527.42616	21795.4875
2530.14734	21784.1875
2532.86681	21789.0875
2535.58458	21753.2875
2538.30065	21755.5875
2541.01501	21743.0875
2543.72768	21748.0875
2546.43864	21749.4875
2549.14791	21720.6875
2551.85548	21682.7875
2554.56136	21707.8875
2557.26554	21664.5875
2559.96803	21617.8875
2562.66883	21630.6875
2565.36794	21601.9875
2568.06536	21599.6875
2570.7611	21542.2875
2573.45514	21524.4875
2576.14751	21539.0875
2578.83819	21552.3875
2581.52719	21518.5875
2584.21451	21517.8875
2586.90015	21521.5875
2589.58411	21461.3875
2592.2664	21494.4875
2594.94701	21477.2875
2597.62594	21455.1875
2600.30321	21436.5875
2602.9788	21442.9875
2605.65273	21403.8875
2608.32498	21435.8875
2610.99557	21387.5875
2613.66449	21380.5875
2616.33175	21384.4875
2618.99734	21375.2875
2621.66128	21426.9875
2624.32355	21427.0875
2626.98416	21424.9875
2629.64311	21418.7875
2632.30041	21429.0875
2634.95605	21426.4875
2637.61004	21375.1875
2640.26238	21362.9875
2642.91306	21315.5875
2645.56209	21268.4875
2648.20948	21266.6875
2650.85521	21230.7875
2653.4993	21212.8875
2656.14175	21198.8875
2658.78255	21212.7875
2661.42171	21198.4875
2664.05923	21267.3875
2666.6951	21277.6875
2669.32934	21323.4875
2671.96194	21294.7875
2674.59291	21295.1875
2677.22224	21305.3875
2679.84993	21318.7875
2682.476	21298.4875
2685.10043	21277.1875
2687.72324	21228.6875
2690.34441	21271.7875
2692.96396	21294.5875
2695.58188	21263.9875
2698.19818	21238.6875
2700.81285	21225.3875
2703.4259	21208.2875
2706.03733	21310.6875
2708.64714	21276.6875
2711.25533	21259.0875
2713.86191	21261.0875
2716.46687	21289.5875
2719.07021	21281.4875
2721.67194	21261.3875
2724.27206	21237.9875
2726.87057	21306.8875
2729.46747	21279.2875
2732.06276	21317.2875
2734.65644	21282.6875
2737.24852	21321.2875
2739.83899	21257.9875
2742.42786	21265.5875
2745.01513	21258.6875
2747.60079	21227.9875
2750.18486	21227.1875
2752.76733	21264.8875
2755.3482	21242.5875
2757.92747	21228.6875
2760.50515	21223.4875
2763.08123	21213.5875
2765.65573	21174.0875
2768.22863	21131.1875
2770.79994	21074.8875
2773.36967	21089.2875
2775.9378	21077.6875
2778.50435	21095.1875
2781.06932	21053.0875
2783.6327	21067.2875
2786.1945	21054.9875
2788.75471	21048.1875
2791.31335	21003.2875
2793.87041	20977.6875
2796.42589	20863.0875
2798.97979	20895.0875
2801.53212	20864.6875
2804.08288	20850.4875
2806.63206	20803.9875
2809.17967	20765.9875
2811.72571	20761.6875
2814.27018	20744.8875
2816.81308	20769.1875
2819.35442	20715.8875
2821.89419	20705.8875
2824.43239	20709.1875
2826.96904	20691.3875
2829.50412	20673.7875
2832.03763	20641.4875
2834.56959	20693.9875
2837.1	20615.2875
2839.62884	20606.5875
2842.15613	20592.4875
2844.68186	20608.9875
2847.20604	20570.0875
2849.72867	20593.0875
2852.24974	20571.9875
2854.76927	20575.3875
2857.28724	20571.7875
2859.80367	20531.3875
2862.31855	20497.6875
2864.83189	20492.5875
2867.34368	20476.4875
2869.85393	20461.9875
2872.36264	20439.5875
2874.8698	20385.9875
2877.37543	20457.9875
2879.87952	20462.3875
2882.38207	20467.6875
2884.88308	20423.3875
2887.38256	20454.2875
2889.88051	20429.6875
2892.37692	20428.6875
2894.8718	20404.9875
2897.36515	20438.1875
2899.85698	20433.9875
2902.34727	20477.3875
2904.83604	20507.5875
2907.32328	20551.7875
2909.809	20533.9875
2912.29319	20562.5875
2914.77587	20583.6875
2917.25702	20555.8875
2919.73665	20574.5875
2922.21476	20580.9875
2924.69136	20501.4875
2927.16644	20500.9875
2929.64	20445.7875
2932.11205	20424.5875
2934.58258	20342.6875
2937.05161	20403.9875
2939.51912	20406.3875
2941.98513	20381.6875
2944.44962	20312.2875
2946.91261	20251.8875
2949.37409	20313.2875
2951.83407	20263.1875
2954.29254	20255.5875
2956.74951	20193.6875
2959.20498	20228.3875
2961.65895	20211.9875
2964.11142	20192.9875
2966.56239	20106.4875
2969.01186	20083.9875
2971.45984	20065.3875
2973.90632	20037.3875
2976.35131	19960.3875
2978.7948	19970.3875
2981.23681	19921.5875
2983.67732	19844.6875
2986.11635	19804.4875
2988.55388	19774.9875
2990.98993	19763.5875
2993.4245	19693.4875
2995.85758	19670.4875
2998.28917	19618.2875
3000.71928	19598.8875
3003.14791	19576.0875
3005.57506	19576.8875
3008.00073	19501.0875
3010.42493	19510.0875
3012.84764	19499.8875
3015.26888	19489.6875
3017.68865	19403.6875
3020.10694	19370.6875
3022.52376	19352.3875
