Data from AgNP_FTO_APTES_CRN_0uM_R6G_10uM_NaF_0.1M_Addition_RamanShift__20__11-53-02-919.txt Node

Date: Wed Dec 15 11:53:02 GMT 2021
User: TCL
Spectrometer: QEP01345
Trigger mode: 4
Integration Time (sec): 7.000000E0
Scans to average: 10
Electric dark correction enabled: true
Nonlinearity correction enabled: false
Boxcar width: 0
XAxis mode: Raman Shifts
Number of Pixels in Spectrum: 1044
>>>>>Begin Spectral Data<<<<<
46.04893	2.1125
50.45542	-0.6875
54.85868	0.2125
59.25871	0.3125
63.6555	59.2125
68.04907	67.8125
72.43941	71.8125
76.82654	79.3125
81.21044	82.4125
85.59113	85.2125
89.96862	91.3125
94.34289	90.2125
98.71396	95.7125
103.08183	101.8125
107.4465	104.8125
111.80798	100.9125
116.16626	102.6125
120.52136	103.8125
124.87327	102.1125
129.222	103.0125
133.56755	106.0125
137.90993	109.7125
142.24913	117.0125
146.58517	120.2125
150.91804	131.9125
155.24774	144.1125
159.57429	172.8125
163.89768	209.6125
168.21792	255.7125
172.53501	329.8125
176.84895	440.0125
181.15975	598.3125
185.46741	822.4125
189.77193	1122.6125
194.07331	1488.7125
198.37157	1907.5125
202.6667	2389.7125
206.9587	2837.4125
211.24758	3288.1125
215.53334	3764.9125
219.81599	4270.1125
224.09553	4835.6125
228.37195	5455.6125
232.64527	6123.4125
236.91549	6756.5125
241.18261	7368.8125
245.44663	7843.6125
249.70755	8197.7125
253.96539	8473.3125
258.22014	8673.3125
262.4718	8884.5125
266.72039	9037.1125
270.96589	9052.4125
275.20832	8975.7125
279.44768	8794.7125
283.68397	8560.8125
287.91719	8391.1125
292.14735	8295.3125
296.37445	8359.3125
300.59849	8546.1125
304.81948	8889.4125
309.03742	9138.3125
313.25231	9239.2125
317.46415	9068.6125
321.67296	8743.0125
325.87872	8435.6125
330.08145	8256.4125
334.28114	8209.0125
338.47781	8263.5125
342.67145	8397.0125
346.86207	8554.8125
351.04966	8821.8125
355.23424	9142.3125
359.4158	9358.2125
363.59435	9453.1125
367.76989	9466.8125
371.94243	9406.9125
376.11196	9346.9125
380.27849	9309.1125
384.44203	9251.1125
388.60257	9196.9125
392.76012	9125.0125
396.91468	9179.0125
401.06626	9290.0125
405.21485	9398.1125
409.36047	9249.6125
413.50311	8840.5125
417.64277	8472.0125
421.77947	8300.8125
425.9132	8269.1125
430.04396	8317.9125
434.17176	8423.0125
438.2966	8603.9125
442.41849	8961.3125
446.53742	9440.0125
450.6534	9866.7125
454.76644	9993.1125
458.87653	9781.6125
462.98368	9422.2125
467.08789	9052.7125
471.18916	8737.0125
475.2875	8424.4125
479.38291	8164.7125
483.4754	8021.8125
487.56496	7934.8125
491.6516	7914.9125
495.73531	7939.1125
499.81612	8002.7125
503.89401	8145.2125
507.96899	8290.7125
512.04106	8419.4125
516.11023	8562.2125
520.1765	8701.0125
524.23987	8807.6125
528.30034	8816.0125
532.35792	8758.8125
536.41261	8556.2125
540.46441	8283.0125
544.51333	8058.2125
548.55936	8066.3125
552.60252	8250.5125
556.64279	8583.6125
560.6802	8784.4125
564.71473	8762.2125
568.7464	8772.6125
572.7752	8810.8125
576.80114	8638.7125
580.82422	8494.3125
584.84444	8696.8125
588.86181	9359.5125
592.87633	10458.1125
596.888	11182.0125
600.89682	10774.7125
604.9028	10534.8125
608.90594	12059.4125
612.90624	14599.3125
616.90371	14103.3125
620.89834	10326.6125
624.89015	8316.8125
628.87913	7847.9125
632.86528	7810.6125
636.84862	7875.9125
640.82913	7775.8125
644.80683	7490.0125
648.78172	7300.9125
652.75379	7327.8125
656.72306	7570.1125
660.68952	7876.9125
664.65319	7789.3125
668.61405	7368.0125
672.57211	7209.9125
676.52738	7240.0125
680.47986	7253.8125
684.42955	7156.6125
688.37646	7075.8125
692.32058	7068.3125
696.26192	7132.1125
700.20048	7271.3125
704.13626	7355.3125
708.06928	7371.5125
711.99952	7349.6125
715.927	7372.6125
719.85171	7457.9125
723.77365	7457.5125
727.69284	7388.2125
731.60928	7320.9125
735.52295	7325.9125
739.43388	7386.8125
743.34206	7406.1125
747.24749	7430.4125
751.15017	7466.3125
755.05012	7542.7125
758.94733	7818.7125
762.8418	8553.7125
766.73354	9894.7125
770.62254	11434.1125
774.50882	12125.9125
778.39237	11514.8125
782.27321	10046.4125
786.15132	8711.4125
790.02671	7867.0125
793.89938	7462.5125
797.76935	7287.4125
801.6366	7190.2125
805.50115	7140.1125
809.36299	7055.8125
813.22213	6983.5125
817.07857	6950.4125
820.93231	6912.2125
824.78336	6917.3125
828.63172	6912.9125
832.47738	6914.1125
836.32036	6922.4125
840.16066	6938.9125
843.99827	6939.1125
847.8332	6914.0125
851.66546	6907.4125
855.49504	6903.9125
859.32195	6897.7125
863.1462	6858.4125
866.96777	6834.8125
870.78668	6806.4125
874.60293	6835.5125
878.41652	6837.7125
882.22745	6900.0125
886.03573	6958.0125
889.84136	6986.4125
893.64433	6972.2125
897.44466	7004.5125
901.24235	7037.0125
905.0374	7072.8125
908.8298	7077.5125
912.61957	7134.1125
916.40671	7244.9125
920.19121	7372.9125
923.97308	7546.7125
927.75233	7671.5125
931.52895	7678.9125
935.30295	7558.4125
939.07433	7283.8125
942.84309	7044.3125
946.60924	6860.0125
950.37278	6778.8125
954.13371	6694.8125
957.89203	6601.6125
961.64774	6533.9125
965.40086	6478.2125
969.15137	6407.5125
972.89929	6413.8125
976.64461	6383.8125
980.38733	6359.8125
984.12747	6374.2125
987.86502	6406.4125
991.59999	6450.3125
995.33237	6559.6125
999.06217	6728.6125
1002.78939	6928.6125
1006.51404	7061.6125
1010.23611	7247.9125
1013.95561	7348.4125
1017.67255	7338.7125
1021.38692	7198.5125
1025.09872	6947.5125
1028.80796	6763.0125
1032.51465	6687.6125
1036.21877	6698.7125
1039.92035	6763.1125
1043.61937	6828.9125
1047.31584	6884.0125
1051.00976	6942.7125
1054.70114	7011.5125
1058.38998	7055.8125
1062.07627	7124.1125
1065.76003	7176.3125
1069.44126	7264.5125
1073.11995	7410.4125
1076.79611	7557.9125
1080.46974	7639.0125
1084.14085	7681.5125
1087.80943	7727.6125
1091.47549	7673.0125
1095.13903	7447.3125
1098.80005	7148.3125
1102.45857	6849.1125
1106.11456	6744.6125
1109.76805	6765.1125
1113.41903	6909.0125
1117.06751	7102.9125
1120.71348	7321.9125
1124.35696	7570.5125
1127.99793	7808.1125
1131.63641	7856.4125
1135.2724	7567.7125
1138.90589	7214.0125
1142.5369	7005.1125
1146.16542	6870.6125
1149.79145	6819.2125
1153.415	6800.8125
1157.03607	6803.4125
1160.65467	6917.2125
1164.27079	7192.9125
1167.88443	7763.4125
1171.49561	8624.2125
1175.10432	9950.0125
1178.71056	11717.5125
1182.31434	13207.3125
1185.91565	13521.7125
1189.51451	12708.8125
1193.11091	11539.6125
1196.70485	10480.1125
1200.29634	9638.6125
1203.88538	8916.5125
1207.47197	8227.7125
1211.05612	7694.3125
1214.63782	7429.1125
1218.21708	7451.1125
1221.79391	7662.2125
1225.36829	7941.4125
1228.94024	8040.3125
1232.50976	7787.6125
1236.07685	7453.8125
1239.6415	7212.3125
1243.20374	7106.3125
1246.76355	7058.8125
1250.32093	7090.0125
1253.8759	7230.3125
1257.42845	7450.4125
1260.97859	7729.7125
1264.52631	8042.1125
1268.07163	8346.9125
1271.61453	8594.6125
1275.15503	8851.2125
1278.69312	9042.2125
1282.22882	9248.7125
1285.76211	9664.2125
1289.29301	10263.6125
1292.82151	10908.2125
1296.34761	11567.7125
1299.87133	12399.2125
1303.39266	13449.3125
1306.9116	14946.0125
1310.42815	16741.1125
1313.94233	18147.3125
1317.45412	18028.4125
1320.96354	16558.6125
1324.47058	14662.7125
1327.97525	12919.1125
1331.47754	11759.4125
1334.97747	11136.5125
1338.47502	10920.2125
1341.97022	10873.0125
1345.46305	11100.9125
1348.95352	11878.3125
1352.44163	13379.0125
1355.92738	15531.1125
1359.41078	18286.8125
1362.89183	21025.9125
1366.37053	21384.8125
1369.84688	18469.9125
1373.32088	14466.0125
1376.79254	11779.4125
1380.26186	10645.9125
1383.72883	10245.4125
1387.19347	9901.6125
1390.65578	9485.3125
1394.11575	9229.2125
1397.57339	9215.6125
1401.0287	9321.1125
1404.48168	9385.3125
1407.93234	9345.8125
1411.38068	9184.1125
1414.82669	9009.1125
1418.27039	8810.5125
1421.71177	8597.6125
1425.15083	8358.0125
1428.58758	8216.9125
1432.02203	8328.0125
1435.45416	8592.1125
1438.88399	8791.4125
1442.31151	8857.8125
1445.73673	8852.2125
1449.15965	8863.0125
1452.58027	8716.0125
1455.9986	8429.2125
1459.41463	8222.0125
1462.82837	8272.9125
1466.23982	8493.4125
1469.64898	8799.8125
1473.05586	9038.4125
1476.46045	9195.4125
1479.86276	9347.0125
1483.26279	9426.9125
1486.66054	9553.5125
1490.05602	9761.2125
1493.44922	10024.3125
1496.84016	10458.0125
1500.22882	11243.5125
1503.61521	12458.5125
1506.99934	14038.0125
1510.38121	15564.7125
1513.76081	16239.3125
1517.13816	15459.2125
1520.51324	13586.1125
1523.88607	11737.9125
1527.25665	10570.4125
1530.62498	9987.7125
1533.99105	9714.5125
1537.35488	9408.8125
1540.71647	9117.6125
1544.07581	8828.1125
1547.4329	8564.6125
1550.78776	8360.2125
1554.14038	8227.4125
1557.49077	8203.3125
1560.83892	8311.4125
1564.18484	8500.7125
1567.52853	8897.6125
1570.86999	9325.2125
1574.20922	9807.1125
1577.54624	10072.2125
1580.88103	9814.4125
1584.2136	9150.9125
1587.54395	8664.9125
1590.87208	8595.7125
1594.19801	9133.8125
1597.52172	10131.3125
1600.84321	10871.9125
1604.16251	10667.5125
1607.47959	9662.4125
1610.79447	8439.1125
1614.10715	7392.9125
1617.41763	6681.7125
1620.7259	6285.2125
1624.03199	6105.2125
1627.33587	6120.5125
1630.63757	6305.1125
1633.93707	6707.6125
1637.23439	7517.2125
1640.52951	8882.5125
1643.82246	10886.4125
1647.11321	12925.6125
1650.40179	13932.8125
1653.68819	13001.6125
1656.97241	10687.5125
1660.25446	8396.0125
1663.53433	6819.6125
1666.81203	5931.6125
1670.08756	5429.4125
1673.36092	5136.0125
1676.63211	4952.5125
1679.90115	4830.9125
1683.16801	4707.6125
1686.43272	4631.9125
1689.69527	4581.7125
1692.95567	4541.8125
1696.2139	4532.7125
1699.46999	4505.5125
1702.72392	4461.3125
1705.97571	4461.2125
1709.22535	4452.7125
1712.47284	4463.5125
1715.71819	4454.1125
1718.96139	4434.6125
1722.20246	4416.7125
1725.44139	4386.8125
1728.67818	4329.0125
1731.91284	4296.5125
1735.14537	4257.3125
1738.37576	4205.4125
1741.60403	4203.9125
1744.83017	4182.1125
1748.05418	4150.9125
1751.27607	4124.5125
1754.49584	4112.9125
1757.71349	4077.1125
1760.92903	4068.4125
1764.14244	4068.0125
1767.35375	4052.3125
1770.56294	4045.5125
1773.77002	4017.8125
1776.97499	4022.5125
1780.17785	4002.1125
1783.37861	3988.8125
1786.57727	3977.1125
1789.77382	3956.3125
1792.96828	3946.2125
1796.16064	3925.3125
1799.3509	3924.7125
1802.53907	3906.4125
1805.72514	3901.9125
1808.90913	3874.1125
1812.09102	3869.4125
1815.27083	3861.3125
1818.44856	3842.6125
1821.6242	3834.0125
1824.79776	3812.1125
1827.96924	3832.0125
1831.13864	3801.8125
1834.30597	3801.7125
1837.47122	3790.2125
1840.6344	3792.8125
1843.7955	3785.7125
1846.95454	3787.7125
1850.11151	3771.7125
1853.26642	3764.5125
1856.41926	3767.2125
1859.57004	3752.7125
1862.71876	3750.0125
1865.86542	3757.0125
1869.01003	3730.1125
1872.15258	3768.0125
1875.29308	3731.1125
1878.43152	3718.6125
1881.56792	3725.9125
1884.70227	3724.3125
1887.83457	3723.6125
1890.96482	3726.9125
1894.09304	3722.6125
1897.21921	3703.5125
1900.34335	3695.2125
1903.46544	3687.8125
1906.58551	3688.2125
1909.70353	3695.3125
1912.81953	3694.4125
1915.93349	3659.2125
1919.04543	3655.2125
1922.15534	3627.7125
1925.26322	3626.6125
1928.36908	3618.5125
1931.47292	3593.4125
1934.57473	3566.5125
1937.67453	3558.2125
1940.77232	3545.0125
1943.86808	3542.3125
1946.96184	3514.0125
1950.05358	3499.5125
1953.14331	3493.5125
1956.23103	3477.5125
1959.31675	3468.4125
1962.40046	3480.4125
1965.48217	3453.4125
1968.56188	3442.7125
1971.63959	3431.7125
1974.7153	3417.9125
1977.78901	3406.5125
1980.86073	3402.4125
1983.93046	3382.2125
1986.99819	3356.0125
1990.06394	3346.4125
1993.1277	3340.4125
1996.18947	3331.5125
1999.24925	3320.8125
2002.30706	3292.4125
2005.36288	3281.1125
2008.41672	3289.7125
2011.46859	3259.9125
2014.51848	3254.6125
2017.56639	3246.7125
2020.61233	3232.3125
2023.6563	3213.1125
2026.6983	3199.8125
2029.73833	3200.8125
2032.7764	3184.2125
2035.8125	3177.0125
2038.84664	3172.9125
2041.87881	3169.8125
2044.90903	3155.0125
2047.93729	3146.2125
2050.96359	3149.0125
2053.98794	3123.1125
2057.01034	3133.0125
2060.03078	3119.3125
2063.04927	3119.3125
2066.06582	3114.0125
2069.08042	3110.0125
2072.09307	3110.7125
2075.10378	3105.2125
2078.11255	3097.9125
2081.11938	3101.0125
2084.12426	3088.5125
2087.12722	3099.8125
2090.12824	3091.8125
2093.12732	3084.3125
2096.12447	3085.2125
2099.11969	3073.5125
2102.11299	3066.9125
2105.10435	3077.9125
2108.09379	3083.2125
2111.08131	3080.6125
2114.0669	3076.1125
2117.05057	3078.5125
2120.03233	3070.4125
2123.01216	3076.1125
2125.99008	3077.4125
2128.96609	3083.0125
2131.94018	3074.7125
2134.91236	3071.9125
2137.88263	3088.3125
2140.851	3064.0125
2143.81746	3072.1125
2146.78201	3062.0125
2149.74466	3064.8125
2152.7054	3052.8125
2155.66425	3058.5125
2158.6212	3052.6125
2161.57625	3054.6125
2164.52941	3037.6125
2167.48067	3050.9125
2170.43004	3040.8125
2173.37752	3025.0125
2176.32311	3022.7125
2179.26681	3019.0125
2182.20863	3014.8125
2185.14856	3024.8125
2188.08661	3027.4125
2191.02278	3038.7125
2193.95707	3024.1125
2196.88948	3025.8125
2199.82001	3013.2125
2202.74867	3021.7125
2205.67545	2996.4125
2208.60037	2996.2125
2211.52341	2988.0125
2214.44458	2987.1125
2217.36388	2967.0125
2220.28132	2967.3125
2223.1969	2957.6125
2226.11061	2941.6125
2229.02246	2943.5125
2231.93245	2916.3125
2234.84058	2922.6125
2237.74686	2926.5125
2240.65128	2931.3125
2243.55385	2917.1125
2246.45456	2917.1125
2249.35343	2896.9125
2252.25044	2899.3125
2255.14561	2891.3125
2258.03893	2884.7125
2260.93041	2881.3125
2263.82004	2884.3125
2266.70783	2871.1125
2269.59378	2868.2125
2272.4779	2852.2125
2275.36017	2847.6125
2278.24061	2836.6125
2281.11922	2825.6125
2283.996	2816.6125
2286.87094	2815.0125
2289.74405	2809.8125
2292.61534	2791.9125
2295.4848	2787.7125
2298.35243	2777.7125
2301.21824	2774.3125
2304.08223	2769.8125
2306.94439	2769.5125
2309.80474	2770.3125
2312.66327	2772.2125
2315.51999	2765.7125
2318.37489	2762.9125
2321.22797	2760.6125
2324.07925	2744.0125
2326.92871	2744.8125
2329.77637	2747.9125
2332.62222	2738.7125
2335.46626	2732.4125
2338.3085	2725.2125
2341.14893	2726.7125
2343.98756	2725.5125
2346.8244	2699.3125
2349.65943	2722.4125
2352.49267	2720.2125
2355.32411	2729.3125
2358.15376	2730.1125
2360.98161	2724.3125
2363.80768	2739.1125
2366.63195	2741.6125
2369.45444	2735.3125
2372.27514	2730.0125
2375.09405	2735.8125
2377.91118	2705.1125
2380.72652	2708.8125
2383.54009	2698.8125
2386.35187	2684.8125
2389.16188	2663.7125
2391.97011	2658.4125
2394.77657	2662.4125
2397.58125	2634.9125
2400.38416	2638.9125
2403.18529	2623.3125
2405.98466	2605.2125
2408.78226	2609.3125
2411.57809	2600.3125
2414.37216	2593.7125
2417.16446	2594.0125
2419.955	2588.9125
2422.74378	2586.4125
2425.5308	2585.8125
2428.31606	2586.1125
2431.09956	2580.3125
2433.88131	2584.4125
2436.6613	2563.4125
2439.43954	2586.2125
2442.21603	2574.9125
2444.99077	2573.1125
2447.76377	2569.6125
2450.53501	2582.6125
2453.30451	2571.1125
2456.07226	2571.7125
2458.83827	2572.5125
2461.60254	2567.5125
2464.36507	2567.7125
2467.12586	2549.9125
2469.88492	2554.6125
2472.64224	2542.9125
2475.39782	2551.9125
2478.15167	2555.7125
2480.90379	2564.2125
2483.65417	2568.4125
2486.40283	2566.8125
2489.14976	2572.6125
2491.89497	2556.3125
2494.63845	2576.2125
2497.3802	2585.4125
2500.12024	2564.0125
2502.85855	2560.9125
2505.59514	2553.6125
2508.33002	2538.4125
2511.06318	2518.1125
2513.79462	2507.4125
2516.52435	2497.3125
2519.25237	2487.8125
2521.97867	2481.2125
2524.70327	2475.9125
2527.42616	2459.4125
2530.14734	2467.7125
2532.86681	2464.9125
2535.58458	2451.8125
2538.30065	2462.7125
2541.01501	2462.1125
2543.72768	2472.7125
2546.43864	2455.0125
2549.14791	2451.7125
2551.85548	2453.7125
2554.56136	2447.9125
2557.26554	2462.1125
2559.96803	2454.5125
2562.66883	2448.0125
2565.36794	2433.7125
2568.06536	2440.5125
2570.7611	2420.5125
2573.45514	2424.3125
2576.14751	2423.6125
2578.83819	2412.5125
2581.52719	2422.9125
2584.21451	2410.7125
2586.90015	2411.6125
2589.58411	2411.2125
2592.2664	2405.8125
2594.94701	2394.6125
2597.62594	2379.9125
2600.30321	2379.5125
2602.9788	2383.8125
2605.65273	2378.7125
2608.32498	2376.0125
2610.99557	2370.7125
2613.66449	2372.1125
2616.33175	2376.8125
2618.99734	2367.8125
2621.66128	2360.3125
2624.32355	2363.7125
2626.98416	2364.1125
2629.64311	2354.4125
2632.30041	2350.4125
2634.95605	2342.4125
2637.61004	2346.1125
2640.26238	2336.9125
2642.91306	2334.7125
2645.56209	2337.0125
2648.20948	2337.6125
2650.85521	2333.9125
2653.4993	2347.0125
2656.14175	2349.6125
2658.78255	2342.2125
2661.42171	2342.8125
2664.05923	2353.3125
2666.6951	2358.8125
2669.32934	2358.9125
2671.96194	2352.8125
2674.59291	2354.7125
2677.22224	2352.2125
2679.84993	2350.9125
2682.476	2358.0125
2685.10043	2345.7125
2687.72324	2349.9125
2690.34441	2349.2125
2692.96396	2345.8125
2695.58188	2349.3125
2698.19818	2350.4125
2700.81285	2353.0125
2703.4259	2343.5125
2706.03733	2335.3125
2708.64714	2341.8125
2711.25533	2357.0125
2713.86191	2365.8125
2716.46687	2377.3125
2719.07021	2377.1125
2721.67194	2386.4125
2724.27206	2369.4125
2726.87057	2397.2125
2729.46747	2406.9125
2732.06276	2411.9125
2734.65644	2401.0125
2737.24852	2415.0125
2739.83899	2414.8125
2742.42786	2414.7125
2745.01513	2422.6125
2747.60079	2422.0125
2750.18486	2420.2125
2752.76733	2428.2125
2755.3482	2429.6125
2757.92747	2440.6125
2760.50515	2442.2125
2763.08123	2440.7125
2765.65573	2437.9125
2768.22863	2438.8125
2770.79994	2440.3125
2773.36967	2431.8125
2775.9378	2445.2125
2778.50435	2439.6125
2781.06932	2439.3125
2783.6327	2431.0125
2786.1945	2437.7125
2788.75471	2447.3125
2791.31335	2456.2125
2793.87041	2459.5125
2796.42589	2461.7125
2798.97979	2451.9125
2801.53212	2465.3125
2804.08288	2464.2125
2806.63206	2472.9125
2809.17967	2460.6125
2811.72571	2456.6125
2814.27018	2450.1125
2816.81308	2450.1125
2819.35442	2460.5125
2821.89419	2460.8125
2824.43239	2467.5125
2826.96904	2469.8125
2829.50412	2485.2125
2832.03763	2482.8125
2834.56959	2490.4125
2837.1	2501.6125
2839.62884	2515.6125
2842.15613	2520.6125
2844.68186	2557.4125
2847.20604	2592.4125
2849.72867	2621.8125
2852.24974	2660.6125
2854.76927	2680.6125
2857.28724	2686.4125
2859.80367	2717.0125
2862.31855	2733.1125
2864.83189	2768.3125
2867.34368	2785.9125
2869.85393	2807.0125
2872.36264	2815.4125
2874.8698	2842.9125
2877.37543	2856.1125
2879.87952	2896.9125
2882.38207	2904.3125
2884.88308	2912.3125
2887.38256	2930.6125
2889.88051	2929.2125
2892.37692	2942.5125
2894.8718	2944.1125
2897.36515	2942.6125
2899.85698	2945.2125
2902.34727	2950.5125
2904.83604	2946.4125
2907.32328	2952.8125
2909.809	2940.3125
2912.29319	2938.9125
2914.77587	2932.7125
2917.25702	2925.7125
2919.73665	2930.7125
2922.21476	2933.5125
2924.69136	2928.7125
2927.16644	2910.9125
2929.64	2907.5125
2932.11205	2889.3125
2934.58258	2860.6125
2937.05161	2842.3125
2939.51912	2825.4125
2941.98513	2795.8125
2944.44962	2754.1125
2946.91261	2702.8125
2949.37409	2671.8125
2951.83407	2635.2125
2954.29254	2603.7125
2956.74951	2553.6125
2959.20498	2549.4125
2961.65895	2512.6125
2964.11142	2484.9125
2966.56239	2443.1125
2969.01186	2425.2125
2971.45984	2395.7125
2973.90632	2368.9125
2976.35131	2337.2125
2978.7948	2324.7125
2981.23681	2298.0125
2983.67732	2274.6125
2986.11635	2263.2125
2988.55388	2234.0125
2990.98993	2228.6125
2993.4245	2210.5125
2995.85758	2187.2125
2998.28917	2188.7125
3000.71928	2179.2125
3003.14791	2175.3125
3005.57506	2158.8125
3008.00073	2153.4125
3010.42493	2156.0125
3012.84764	2154.7125
3015.26888	2136.3125
3017.68865	2145.9125
3020.10694	2137.1125
3022.52376	2131.0125
3024.9391	2119.7125
3027.35298	2104.9125
3029.76539	2112.6125
3032.17632	2106.7125
3034.5858	2095.1125
3036.9938	2093.0125
3039.40034	2096.8125
3041.80542	2092.8125
3044.20903	2092.4125
3046.61118	2089.2125
3049.01187	2094.7125
3051.4111	2076.7125
3053.80888	2082.1125
3056.20519	2091.0125
3058.60005	2085.6125
3060.99345	2083.2125
3063.3854	2087.9125
3065.7759	2082.7125
3068.16494	2079.6125
3070.55254	2079.6125
3072.93868	2073.4125
3075.32338	2060.8125
3077.70662	2068.6125
3080.08842	2060.1125
3082.46878	2064.6125
3084.84769	2057.8125
3087.22515	2070.2125
3089.60118	2079.3125
3091.97576	2075.9125
3094.3489	2076.1125
3096.72061	2075.3125
3099.09087	2075.6125
3101.4597	2070.5125
3103.82709	2074.6125
3106.19305	2079.6125
3108.55757	2082.4125
3110.92066	2082.3125
3113.28232	2075.3125
3115.64255	2081.8125
3118.00134	2082.9125
