Data from AgNP_FTO_APTES_CRN_1uM_R6G_10uM_NaF_0.1M_Addition_RamanShift__2__13-47-50-780.txt Node

Date: Wed Dec 15 13:47:50 GMT 2021
User: TCL
Spectrometer: QEP01345
Trigger mode: 4
Integration Time (sec): 7.000000E0
Scans to average: 10
Electric dark correction enabled: true
Nonlinearity correction enabled: false
Boxcar width: 0
XAxis mode: Raman Shifts
Number of Pixels in Spectrum: 1044
>>>>>Begin Spectral Data<<<<<
46.04893	-0.4
50.45542	-2.9
54.85868	-2.6
59.25871	-1.8
63.6555	166
68.04907	174.9
72.43941	183.4
76.82654	193.3
81.21044	198.5
85.59113	204.1
89.96862	220.6
94.34289	218.3
98.71396	228.2
103.08183	236.5
107.4465	243.7
111.80798	243.3
116.16626	251.3
120.52136	260.9
124.87327	268.1
129.222	283.7
133.56755	294.3
137.90993	311.7
142.24913	334.1
146.58517	373.6
150.91804	425.5
155.24774	497.6
159.57429	614.5
163.89768	775.4
168.21792	1013.6
172.53501	1356.2
176.84895	1875.9
181.15975	2630.1
185.46741	3664
189.77193	5045.2
194.07331	6697.7
198.37157	8621.4
202.6667	10651
206.9587	12647.5
211.24758	14640.9
215.53334	16636.1
219.81599	18777.3
224.09553	21078.1
228.37195	23700.6
232.64527	26517.5
236.91549	29410.9
241.18261	32326
245.44663	35033
249.70755	37438.3
253.96539	39610
258.22014	41429.2
262.4718	42877.2
266.72039	43930.1
270.96589	44362.9
275.20832	44349
279.44768	43997.8
283.68397	43495.3
287.91719	43028.4
292.14735	42708.9
296.37445	42656
300.59849	42761.9
304.81948	42976.4
309.03742	43108
313.25231	43087.7
317.46415	42767.2
321.67296	42206.3
325.87872	41780.4
330.08145	41647.9
334.28114	41678.9
338.47781	41958.6
342.67145	42445
346.86207	43093.7
351.04966	43891.9
355.23424	44760.6
359.4158	45525.4
363.59435	46215.7
367.76989	46657.5
371.94243	46962.1
376.11196	47214.2
380.27849	47410.2
384.44203	47749
388.60257	48196.8
392.76012	48605.4
396.91468	49178.8
401.06626	49920.9
405.21485	50549.2
409.36047	50785
413.50311	50788
417.64277	50886.8
421.77947	51281.3
425.9132	51656.7
430.04396	51961.2
434.17176	52248.7
438.2966	52598.7
442.41849	53592.3
446.53742	55414.8
450.6534	57416.1
454.76644	58671.3
458.87653	58779.4
462.98368	57887
467.08789	56540.4
471.18916	55010.7
475.2875	53403
479.38291	52132.2
483.4754	51422.3
487.56496	50899.5
491.6516	50638.5
495.73531	50510.7
499.81612	50692.9
503.89401	51272
507.96899	51528.6
512.04106	51435.4
516.11023	51117.7
520.1765	50895.9
524.23987	50793.8
528.30034	50759.8
532.35792	50321.9
536.41261	49539.1
540.46441	48723.7
544.51333	48392.7
548.55936	48733.7
552.60252	49518.2
556.64279	50602.1
560.6802	51498.2
564.71473	51890.7
568.7464	52457.3
572.7752	53467.8
576.80114	55159
580.82422	57394.2
584.84444	60545.4
588.86181	64162.2
592.87633	66972.2
596.888	66995.2
600.89682	63769.5
604.9028	62575.3
608.90594	65687.1
612.90624	68721.2
616.90371	64561.3
620.89834	56180.3
624.89015	52291.6
628.87913	51525
632.86528	51196.6
636.84862	50430.8
640.82913	49287.7
644.80683	48165.3
648.78172	47708.4
652.75379	47966.4
656.72306	48738.1
660.68952	49388.9
664.65319	49146.4
668.61405	48490.1
672.57211	48525.2
676.52738	48746.3
680.47986	48622.4
684.42955	48218.1
688.37646	48070
692.32058	48613.4
696.26192	49602.8
700.20048	50490.1
704.13626	50931.2
708.06928	50592.7
711.99952	50334.3
715.927	50483.9
719.85171	51047
723.77365	50873.4
727.69284	49998
731.60928	49188.1
735.52295	48876.3
739.43388	48911.7
743.34206	49131.4
747.24749	49440.9
751.15017	49837.9
755.05012	50624.2
758.94733	51854.6
762.8418	53847
766.73354	56588
770.62254	58962.1
774.50882	59068.4
778.39237	56865.8
782.27321	53823
786.15132	51445.7
790.02671	50012.8
793.89938	49480.8
797.76935	49361.1
801.6366	49465.2
805.50115	49429.5
809.36299	49179.3
813.22213	48736
817.07857	48318.4
820.93231	48095.6
824.78336	47967.5
828.63172	47932.1
832.47738	47946.8
836.32036	48221.7
840.16066	48564.9
843.99827	48803.9
847.8332	48732.3
851.66546	48474.2
855.49504	48362.4
859.32195	48293.1
863.1462	48151.1
866.96777	47853
870.78668	47746.3
874.60293	47805.3
878.41652	47875.7
882.22745	48093.6
886.03573	48367.4
889.84136	48249.2
893.64433	47947.3
897.44466	47689.6
901.24235	47490.2
905.0374	47476.2
908.8298	47520.1
912.61957	47722.3
916.40671	48099.9
920.19121	48823.9
923.97308	49639.9
927.75233	50137.8
931.52895	49906.5
935.30295	49204.9
939.07433	48339.5
942.84309	47857.6
946.60924	47780.9
950.37278	47854.5
954.13371	47762.8
957.89203	47466.3
961.64774	47304.2
965.40086	47356.1
969.15137	47316.1
972.89929	47237.7
976.64461	47285.6
980.38733	47535.4
984.12747	47804.9
987.86502	48342
991.59999	49044.6
995.33237	50110.6
999.06217	51904.2
1002.78939	54015
1006.51404	55655.8
1010.23611	56708.3
1013.95561	57121.4
1017.67255	56795.4
1021.38692	55813.3
1025.09872	54968.9
1028.80796	55648.4
1032.51465	57857.5
1036.21877	59933.3
1039.92035	60203.5
1043.61937	59141.4
1047.31584	57327.4
1051.00976	55279.3
1054.70114	54187.3
1058.38998	53866.4
1062.07627	53892.2
1065.76003	54253.7
1069.44126	55033.1
1073.11995	56366.2
1076.79611	57619.2
1080.46974	57987.2
1084.14085	58040.5
1087.80943	57986.7
1091.47549	57743.7
1095.13903	57204.7
1098.80005	56162.8
1102.45857	55015.6
1106.11456	54270.9
1109.76805	53989
1113.41903	53968.4
1117.06751	54126
1120.71348	54304.1
1124.35696	54528.6
1127.99793	54983.2
1131.63641	55441.7
1135.2724	55470.7
1138.90589	55499
1142.5369	55699.2
1146.16542	55968.8
1149.79145	56344.2
1153.415	56688.4
1157.03607	57445.6
1160.65467	59268.5
1164.27079	62278.4
1167.88443	65686.7
1171.49561	69105
1175.10432	73246.2
1178.71056	78827
1182.31434	84384
1185.91565	87031.2
1189.51451	85931.8
1193.11091	82853.4
1196.70485	79424.2
1200.29634	76702
1203.88538	75062.1
1207.47197	74319.1
1211.05612	73444.2
1214.63782	72414.5
1218.21708	71226.8
1221.79391	70273.8
1225.36829	69581
1228.94024	68588.7
1232.50976	66916.1
1236.07685	65313.4
1239.6415	64468.1
1243.20374	64466.8
1246.76355	65222.9
1250.32093	66718.7
1253.8759	68545.7
1257.42845	70641
1260.97859	72890.2
1264.52631	75166.7
1268.07163	77642.7
1271.61453	80238.8
1275.15503	82934.8
1278.69312	85655.5
1282.22882	88156.6
1285.76211	90661.7
1289.29301	93660.6
1292.82151	97089.1
1296.34761	101753.9
1299.87133	108144.3
1303.39266	115377.5
1306.9116	122133.6
1310.42815	127170.9
1313.94233	129288.5
1317.45412	127760.1
1320.96354	123812.2
1324.47058	120069
1327.97525	117471.2
1331.47754	116008.8
1334.97747	115185
1338.47502	113636.2
1341.97022	110287.4
1345.46305	106149.6
1348.95352	103869.7
1352.44163	105161.2
1355.92738	110731.1
1359.41078	118495.6
1362.89183	123780
1366.37053	122750.1
1369.84688	114035
1373.32088	101299.8
1376.79254	91779.9
1380.26186	88306.6
1383.72883	88385.8
1387.19347	88171.9
1390.65578	86444.6
1394.11575	85415.9
1397.57339	85826.9
1401.0287	87513.8
1404.48168	89579.6
1407.93234	90857.3
1411.38068	90737.5
1414.82669	89178.7
1418.27039	86455.1
1421.71177	83135.1
1425.15083	79910.2
1428.58758	78625
1432.02203	79761.8
1435.45416	82524.8
1438.88399	85578
1442.31151	87617.4
1445.73673	88400.1
1449.15965	88307
1452.58027	87347
1455.9986	85741.6
1459.41463	85080.2
1462.82837	86042.9
1466.23982	88603.6
1469.64898	91290.3
1473.05586	93523.7
1476.46045	94738.3
1479.86276	94956.7
1483.26279	94319.3
1486.66054	93650.2
1490.05602	93813.7
1493.44922	93756.2
1496.84016	92888.3
1500.22882	91915
1503.61521	91550.9
1506.99934	91991.5
1510.38121	92424.2
1513.76081	92106.4
1517.13816	90475.8
1520.51324	88307.3
1523.88607	86922
1527.25665	87039.5
1530.62498	87818.8
1533.99105	88319.1
1537.35488	87918.1
1540.71647	86606.8
1544.07581	84995.8
1547.4329	83126
1550.78776	81243
1554.14038	79587.3
1557.49077	78249.6
1560.83892	77182.4
1564.18484	76534.2
1567.52853	76358.1
1570.86999	77029.1
1574.20922	78640.3
1577.54624	80540.8
1580.88103	82144.3
1584.2136	84397.9
1587.54395	88450.6
1590.87208	94723.3
1594.19801	102571.9
1597.52172	109791.1
1600.84321	111707.1
1604.16251	106110.2
1607.47959	95560.1
1610.79447	84448.4
1614.10715	75143.2
1617.41763	68882.2
1620.7259	65374.8
1624.03199	63991.1
1627.33587	64657.3
1630.63757	67020.9
1633.93707	71617.7
1637.23439	78901.6
1640.52951	89683.2
1643.82246	102264.4
1647.11321	111239.5
1650.40179	110462.6
1653.68819	99346.1
1656.97241	84290.3
1660.25446	71347.1
1663.53433	62945.1
1666.81203	57967.9
1670.08756	54923
1673.36092	53107.1
1676.63211	51749
1679.90115	50914.4
1683.16801	50208.6
1686.43272	49684.4
1689.69527	49412.7
1692.95567	49099.5
1696.2139	48886.8
1699.46999	48815.9
1702.72392	48737.4
1705.97571	48555.2
1709.22535	48579.7
1712.47284	48484.9
1715.71819	48485.1
1718.96139	48396.2
1722.20246	48279.1
1725.44139	48098.4
1728.67818	47856.3
1731.91284	47598.9
1735.14537	47443.5
1738.37576	47258.4
1741.60403	47089.7
1744.83017	47003.8
1748.05418	46837.4
1751.27607	46703.9
1754.49584	46687.7
1757.71349	46649.2
1760.92903	46653.7
1764.14244	46695.7
1767.35375	46651.5
1770.56294	46584.8
1773.77002	46579.1
1776.97499	46578.8
1780.17785	46494.8
1783.37861	46456.2
1786.57727	46519.9
1789.77382	46340.2
1792.96828	46289.2
1796.16064	46241.9
1799.3509	46194.4
1802.53907	46126.1
1805.72514	46005.1
1808.90913	45934.8
1812.09102	45809.9
1815.27083	45773.5
1818.44856	45692.3
1821.6242	45748.7
1824.79776	45719.9
1827.96924	45669
1831.13864	45618.5
1834.30597	45644.7
1837.47122	45733.3
1840.6344	45702.5
1843.7955	45680.9
1846.95454	45545.6
1850.11151	45605.8
1853.26642	45626.1
1856.41926	45656
1859.57004	45644.7
1862.71876	45608.8
1865.86542	45626.8
1869.01003	45647.2
1872.15258	45665.7
1875.29308	45632.9
1878.43152	45551.3
1881.56792	45594
1884.70227	45515
1887.83457	45564
1890.96482	45594.3
1894.09304	45517.6
1897.21921	45405.6
1900.34335	45428.7
1903.46544	45413
1906.58551	45336.5
1909.70353	45331
1912.81953	45344.2
1915.93349	45283.9
1919.04543	45197.6
1922.15534	45128.2
1925.26322	45048.8
1928.36908	44975.8
1931.47292	44994.4
1934.57473	44855.9
1937.67453	44726.1
1940.77232	44569.3
1943.86808	44513.7
1946.96184	44426
1950.05358	44239
1953.14331	44197
1956.23103	44147.4
1959.31675	44065.9
1962.40046	43987.9
1965.48217	43835.5
1968.56188	43773.8
1971.63959	43647.1
1974.7153	43504.4
1977.78901	43405.4
1980.86073	43263.1
1983.93046	43192.8
1986.99819	43026.3
1990.06394	42890.3
1993.1277	42868.2
1996.18947	42780.8
1999.24925	42639.2
2002.30706	42565.5
2005.36288	42459.4
2008.41672	42367.3
2011.46859	42249.6
2014.51848	42177.1
2017.56639	42149.1
2020.61233	42031.7
2023.6563	41976.7
2026.6983	41976.6
2029.73833	41902
2032.7764	41867.1
2035.8125	41792.8
2038.84664	41840.3
2041.87881	41792.3
2044.90903	41653.9
2047.93729	41638.8
2050.96359	41623.6
2053.98794	41542.2
2057.01034	41537.4
2060.03078	41505.7
2063.04927	41461.2
2066.06582	41436.8
2069.08042	41421.3
2072.09307	41467.1
2075.10378	41357.7
2078.11255	41301.3
2081.11938	41350.9
2084.12426	41265.8
2087.12722	41311.7
2090.12824	41230
2093.12732	41324.7
2096.12447	41354.4
2099.11969	41306.6
2102.11299	41355.5
2105.10435	41398.8
2108.09379	41411.5
2111.08131	41477
2114.0669	41446.5
2117.05057	41504.8
2120.03233	41524.6
2123.01216	41604.3
2125.99008	41580.2
2128.96609	41701.8
2131.94018	41700.6
2134.91236	41771.7
2137.88263	41783.9
2140.851	41805.7
2143.81746	41868.7
2146.78201	41819
2149.74466	41899.7
2152.7054	41981.6
2155.66425	41970
2158.6212	42060.4
2161.57625	41976.1
2164.52941	41987.9
2167.48067	41977.4
2170.43004	41961
2173.37752	41942.9
2176.32311	41998.8
2179.26681	41970.9
2182.20863	42013.5
2185.14856	42067
2188.08661	42017.6
2191.02278	42099.7
2193.95707	42086.5
2196.88948	42073.1
2199.82001	42143.6
2202.74867	42134.4
2205.67545	42072
2208.60037	42049.6
2211.52341	42073.8
2214.44458	42047.1
2217.36388	41937.1
2220.28132	41976.5
2223.1969	41828.4
2226.11061	41864.7
2229.02246	41742.3
2231.93245	41738.1
2234.84058	41649
2237.74686	41587.5
2240.65128	41633.6
2243.55385	41560.3
2246.45456	41494.9
2249.35343	41404.3
2252.25044	41327.1
2255.14561	41267.2
2258.03893	41284.8
2260.93041	41158.2
2263.82004	41072.3
2266.70783	41031.8
2269.59378	40916.1
2272.4779	40883.2
2275.36017	40776.1
2278.24061	40741
2281.11922	40660.9
2283.996	40623.1
2286.87094	40610.6
2289.74405	40589.6
2292.61534	40530.2
2295.4848	40585
2298.35243	40703.8
2301.21824	40647.4
2304.08223	40714.7
2306.94439	40717.9
2309.80474	40815.6
2312.66327	40802.9
2315.51999	40736
2318.37489	40830.9
2321.22797	40822.4
2324.07925	40858.6
2326.92871	40860.8
2329.77637	40869.5
2332.62222	40783.1
2335.46626	40787.6
2338.3085	40818.3
2341.14893	40844.2
2343.98756	40868.3
2346.8244	40854.5
2349.65943	40835.6
2352.49267	40766.6
2355.32411	40736.4
2358.15376	40666.3
2360.98161	40674.5
2363.80768	40592.6
2366.63195	40579.2
2369.45444	40543.3
2372.27514	40438.6
2375.09405	40421.8
2377.91118	40343.8
2380.72652	40198.8
2383.54009	40119.7
2386.35187	40143.2
2389.16188	40087.9
2391.97011	40071.4
2394.77657	40043
2397.58125	40030.1
2400.38416	39961.4
2403.18529	39913.7
2405.98466	39880.4
2408.78226	39805.1
2411.57809	39742.5
2414.37216	39674.9
2417.16446	39678.3
2419.955	39619.1
2422.74378	39599.3
2425.5308	39531
2428.31606	39543.1
2431.09956	39524.3
2433.88131	39491.3
2436.6613	39479.5
2439.43954	39464.3
2442.21603	39501.8
2444.99077	39453.5
2447.76377	39464.5
2450.53501	39400.1
2453.30451	39510.1
2456.07226	39485
2458.83827	39523.1
2461.60254	39486.8
2464.36507	39511.4
2467.12586	39502.6
2469.88492	39559.5
2472.64224	39547.4
2475.39782	39576.6
2478.15167	39628.9
2480.90379	39610
2483.65417	39709.6
2486.40283	39654.5
2489.14976	39681.2
2491.89497	39570.3
2494.63845	39697.2
2497.3802	39685
2500.12024	39730.2
2502.85855	39693.8
2505.59514	39725.1
2508.33002	39681.8
2511.06318	39629.6
2513.79462	39612.4
2516.52435	39592.3
2519.25237	39647.3
2521.97867	39651
2524.70327	39563.4
2527.42616	39529.7
2530.14734	39585.6
2532.86681	39527.1
2535.58458	39549.9
2538.30065	39527.7
2541.01501	39518.3
2543.72768	39465.2
2546.43864	39422.7
2549.14791	39427.6
2551.85548	39443
2554.56136	39428.3
2557.26554	39374.3
2559.96803	39420
2562.66883	39386.3
2565.36794	39369.5
2568.06536	39410.7
2570.7611	39360.3
2573.45514	39369.7
2576.14751	39366.9
2578.83819	39351.5
2581.52719	39353.8
2584.21451	39368.8
2586.90015	39327
2589.58411	39293.6
2592.2664	39312.8
2594.94701	39211.7
2597.62594	39205.9
2600.30321	39231.2
2602.9788	39196.3
2605.65273	39210.5
2608.32498	39242.2
2610.99557	39256.3
2613.66449	39274.8
2616.33175	39252.9
2618.99734	39221.1
2621.66128	39223.7
2624.32355	39231.2
2626.98416	39261.5
2629.64311	39186
2632.30041	39142.5
2634.95605	39109.3
2637.61004	39037.7
2640.26238	39006.7
2642.91306	39041.2
2645.56209	38980.5
2648.20948	38980.1
2650.85521	38970.5
2653.4993	39032.6
2656.14175	39005.4
2658.78255	39014.9
2661.42171	39063.5
2664.05923	39071.1
2666.6951	39107.1
2669.32934	39238.8
2671.96194	39190.7
2674.59291	39232.4
2677.22224	39202.7
2679.84993	39164.9
2682.476	39138.2
2685.10043	39191.8
2687.72324	39122.4
2690.34441	39125.9
2692.96396	39094.2
2695.58188	39070.8
2698.19818	39071.4
2700.81285	39094.3
2703.4259	39112.5
2706.03733	39197.7
2708.64714	39236.3
2711.25533	39220.2
2713.86191	39218.3
2716.46687	39261
2719.07021	39286
2721.67194	39348.3
2724.27206	39301.2
2726.87057	39349.2
2729.46747	39352.8
2732.06276	39362.1
2734.65644	39355.1
2737.24852	39376
2739.83899	39429.7
2742.42786	39476.4
2745.01513	39481.7
2747.60079	39491.3
2750.18486	39450.9
2752.76733	39494.6
2755.3482	39441
2757.92747	39370.9
2760.50515	39379.7
2763.08123	39374.3
2765.65573	39347.3
2768.22863	39420
2770.79994	39363
2773.36967	39374.3
2775.9378	39384.5
2778.50435	39395
2781.06932	39309.4
2783.6327	39299.3
2786.1945	39333.5
2788.75471	39310
2791.31335	39248.6
2793.87041	39184.3
2796.42589	39101
2798.97979	39071.8
2801.53212	38925.8
2804.08288	38987.1
2806.63206	38850
2809.17967	38876.2
2811.72571	38822.7
2814.27018	38787.4
2816.81308	38682.5
2819.35442	38634.7
2821.89419	38607.1
2824.43239	38579.9
2826.96904	38536.5
2829.50412	38554.4
2832.03763	38423.8
2834.56959	38418.9
2837.1	38384.6
2839.62884	38394.5
2842.15613	38364.4
2844.68186	38358
2847.20604	38299.5
2849.72867	38296.1
2852.24974	38255.7
2854.76927	38262.6
2857.28724	38236.4
2859.80367	38213.1
2862.31855	38148.4
2864.83189	38147.8
2867.34368	38054
2869.85393	38154.6
2872.36264	38144
2874.8698	38120.3
2877.37543	38106.6
2879.87952	38115.9
2882.38207	38117.6
2884.88308	38174.5
2887.38256	38207.2
2889.88051	38204.6
2892.37692	38262.7
2894.8718	38297.5
2897.36515	38372.9
2899.85698	38380.7
2902.34727	38430.4
2904.83604	38415
2907.32328	38489.4
2909.809	38496.3
2912.29319	38512.6
2914.77587	38480
2917.25702	38490
2919.73665	38482.7
2922.21476	38450.3
2924.69136	38436.1
2927.16644	38515.1
2929.64	38402.6
2932.11205	38410.8
2934.58258	38290.6
2937.05161	38354.8
2939.51912	38271
2941.98513	38323.6
2944.44962	38239.5
2946.91261	38157.5
2949.37409	38188.4
2951.83407	38237.5
2954.29254	38200.8
2956.74951	38163
2959.20498	38236.7
2961.65895	38169.1
2964.11142	38140.4
2966.56239	38097.4
2969.01186	38085.1
2971.45984	37955.4
2973.90632	37905.7
2976.35131	37803.3
2978.7948	37704.4
2981.23681	37658
2983.67732	37611.6
2986.11635	37499.9
2988.55388	37432
2990.98993	37335.1
2993.4245	37290.7
2995.85758	37228.7
2998.28917	37141.8
3000.71928	37134.5
3003.14791	37049.7
3005.57506	37058.6
3008.00073	36887.6
3010.42493	36976
3012.84764	36925.3
3015.26888	36940.3
3017.68865	36826.3
3020.10694	36739.8
3022.52376	36653.8
3024.9391	36628.8
3027.35298	36599.2
3029.76539	36545.9
3032.17632	36517.3
3034.5858	36398.1
3036.9938	36409.9
3039.40034	36408.2
3041.80542	36362.9
3044.20903	36305.7
3046.61118	36241.2
3049.01187	36197.2
3051.4111	36178.7
3053.80888	36124.1
3056.20519	36129.1
3058.60005	35977.1
3060.99345	36002.7
3063.3854	35912
3065.7759	35849.7
3068.16494	35797.3
3070.55254	35634.3
3072.93868	35615.5
3075.32338	35501.2
3077.70662	35448.9
3080.08842	35381
3082.46878	35378.2
3084.84769	35279.3
3087.22515	35326.7
3089.60118	35309
3091.97576	35307.2
3094.3489	35290.5
3096.72061	35289.2
3099.09087	35280
3101.4597	35194.8
3103.82709	35235.1
3106.19305	35159.2
3108.55757	35154
3110.92066	35030.9
3113.28232	35004.3
3115.64255	34855.7
3118.00134	34827.1
3120.35871	34778.5
3122.71466	34684.8
3125.06917	34679.2
3127.42226	34641.5
3129.77393	34642.8
3132.12417	34543.8
3134.47299	34539.5
3136.82039	34544.3
3139.16636	34564.8
3141.51092	34552.3
3143.85406	34557.7
3146.19579	34520.3
3148.53609	34578.5
3150.87499	34534.2
3153.21246	34478.4
3155.54853	34493.8
3157.88318	34447.7
3160.21642	34452.5
3162.54826	34377.8
3164.87868	34405.2
3167.2077	34377.5
3169.5353	34390.9
3171.86151	34380.6
3174.18631	34333.1
3176.5097	34287.2
3178.83169	34269.7
3181.15228	34269.9
3183.47147	34201.1
3185.78926	34214.3
3188.10565	34128.3
3190.42065	34188.7
3192.73424	34141.3
3195.04645	34168
3197.35725	34148.6
3199.66667	34097.3
3201.97469	34101.5
3204.28132	34030.3
3206.58656	34111.4
3208.8904	34040.4
3211.19287	34048.7
3213.49394	34007
3215.79363	34005.1
3218.09193	34034
3220.38884	34032.2
3222.68438	34040.6
3224.97853	33920.4
3227.2713	33981.2
3229.56269	33962.6
3231.8527	33932.2
3234.14133	33914.8
3236.42858	33855.6
3238.71446	33908.9
3240.99896	33797.4
3243.28209	33778.2
3245.56384	33738.4
3247.84423	33730.9
3250.12324	33732.5
3252.40088	33710.9
3254.67715	33665.4
3256.95205	33569.8
3259.22558	33599.7
3261.49775	33521.5
3263.76855	33539.7
3266.03799	33508.7
3268.30606	33432.8
3270.57277	33401
3272.83812	33311.4
3275.10211	33265.7
3277.36474	33270.4
3279.62601	33313.4
3281.88593	33254.1
3284.14448	33237.7
3286.40168	33254.4
3288.65753	33246.2
3290.91202	33161.2
3293.16516	33068.4
3295.41695	33013.6
3297.66738	32849.1
3299.91647	32767.4
3302.16421	32534.8
3304.4106	32439.9
3306.65564	32299.8
3308.89933	32081.5
3311.14169	31855
3313.38269	31597.1
3315.62236	31463.7
3317.86068	31216.3
3320.09766	30933.2
3322.3333	30710.6
3324.5676	30648.4
3326.80056	30121.5
3329.03219	29968.6
3331.26248	6.6
3333.49143	0.3
3335.71905	0.1
