Data from AgNP_FTO_APTES_CRN_2uM_R6G_10uM_NaF_0.1M_Addition_RamanShift__2__14-37-19-325.txt Node

Date: Wed Dec 15 14:37:19 GMT 2021
User: TCL
Spectrometer: QEP01345
Trigger mode: 4
Integration Time (sec): 7.000000E0
Scans to average: 10
Electric dark correction enabled: true
Nonlinearity correction enabled: false
Boxcar width: 0
XAxis mode: Raman Shifts
Number of Pixels in Spectrum: 1044
>>>>>Begin Spectral Data<<<<<
46.04893	0.05
50.45542	-1.65
54.85868	-2.25
59.25871	-1.95
63.6555	156.85
68.04907	166.15
72.43941	173.75
76.82654	179.85
81.21044	186.95
85.59113	193.55
89.96862	201.85
94.34289	202.65
98.71396	212.45
103.08183	217.95
107.4465	228.15
111.80798	230.55
116.16626	237.25
120.52136	245.75
124.87327	255.65
129.222	270.25
133.56755	281.35
137.90993	305.55
142.24913	334.25
146.58517	375.15
150.91804	432.65
155.24774	511.45
159.57429	630.85
163.89768	812.65
168.21792	1057.05
172.53501	1445.55
176.84895	2003.55
181.15975	2804.95
185.46741	3936.05
189.77193	5414.05
194.07331	7229.45
198.37157	9299.65
202.6667	11479.05
206.9587	13623.75
211.24758	15730.35
215.53334	17862.95
219.81599	20143.45
224.09553	22588.15
228.37195	25352.15
232.64527	28315.05
236.91549	31506.25
241.18261	34717.35
245.44663	37749.05
249.70755	40456.25
253.96539	42840.95
258.22014	44919.25
262.4718	46534.45
266.72039	47682.65
270.96589	48215.95
275.20832	48267.75
279.44768	48011.65
283.68397	47560.05
287.91719	47125.25
292.14735	46742.25
296.37445	46632.35
300.59849	46686.65
304.81948	46700.35
309.03742	46733.95
313.25231	46468.45
317.46415	45952.25
321.67296	45246.15
325.87872	44656.85
330.08145	44385.25
334.28114	44460.15
338.47781	44736.95
342.67145	45240.15
346.86207	45850.75
351.04966	46639.95
355.23424	47543.55
359.4158	48419.35
363.59435	49180.55
367.76989	49760.55
371.94243	50057.75
376.11196	50343.65
380.27849	50399.35
384.44203	50631.55
388.60257	51090.55
392.76012	51588.95
396.91468	52321.55
401.06626	53135.95
405.21485	53736.85
409.36047	53810.95
413.50311	53709.55
417.64277	53784.85
421.77947	54088.75
425.9132	54422.45
430.04396	54716.05
434.17176	54890.15
438.2966	54982.65
442.41849	55424.35
446.53742	56638.95
450.6534	58036.15
454.76644	59146.65
458.87653	59542.15
462.98368	59126.15
467.08789	58307.05
471.18916	57307.55
475.2875	56243.65
479.38291	55439.75
483.4754	55012.45
487.56496	54567.55
491.6516	54175.35
495.73531	54022.15
499.81612	54161.35
503.89401	54817.25
507.96899	55213.45
512.04106	55283.75
516.11023	55005.45
520.1765	54381.25
524.23987	53876.55
528.30034	53364.25
532.35792	52864.05
536.41261	52147.55
540.46441	51698.05
544.51333	51610.65
548.55936	52115.45
552.60252	52955.15
556.64279	54019.65
560.6802	54670.55
564.71473	55145.45
568.7464	55992.85
572.7752	57393.35
576.80114	59199.25
580.82422	61459.85
584.84444	64171.25
588.86181	66548.25
592.87633	67716.95
596.888	66372.95
600.89682	64048.45
604.9028	64010.15
608.90594	67128.95
612.90624	69802.55
616.90371	65731.25
620.89834	58015.55
624.89015	54713.05
628.87913	54316.05
632.86528	54317.75
636.84862	54034.15
640.82913	53180.55
644.80683	52218.85
648.78172	51701.75
652.75379	51860.15
656.72306	52383.85
660.68952	52929.15
664.65319	52548.75
668.61405	51926.45
672.57211	51895.05
676.52738	52191.95
680.47986	52084.25
684.42955	51785.95
688.37646	51603.75
692.32058	52026.95
696.26192	52869.05
700.20048	53725.05
704.13626	54069.15
708.06928	54036.15
711.99952	53770.45
715.927	53917.75
719.85171	54258.85
723.77365	54097.05
727.69284	53376.75
731.60928	52620.15
735.52295	52186.05
739.43388	51999.55
743.34206	52152.35
747.24749	52588.95
751.15017	53011.05
755.05012	53850.55
758.94733	55060.65
762.8418	57013.25
766.73354	59778.85
770.62254	62000.95
774.50882	61931.55
778.39237	59633.95
782.27321	56781.15
786.15132	54564.35
790.02671	53188.55
793.89938	52556.95
797.76935	52322.45
801.6366	52369.25
805.50115	52486.35
809.36299	52228.85
813.22213	51717.75
817.07857	51322.55
820.93231	50972.15
824.78336	50723.05
828.63172	50635.75
832.47738	50623.25
836.32036	50800.25
840.16066	50968.95
843.99827	51104.85
847.8332	50986.35
851.66546	50927.65
855.49504	50961.45
859.32195	50954.45
863.1462	50869.75
866.96777	50772.65
870.78668	50743.85
874.60293	50754.25
878.41652	50816.15
882.22745	51049.65
886.03573	51162.35
889.84136	51201.05
893.64433	51004.85
897.44466	50821.55
901.24235	50690.85
905.0374	50606.05
908.8298	50533.65
912.61957	50617.65
916.40671	51024.85
920.19121	51638.35
923.97308	52275.55
927.75233	52311.95
931.52895	51903.55
935.30295	51193.95
939.07433	50545.05
942.84309	50133.55
946.60924	49980.55
950.37278	50017.35
954.13371	49997.15
957.89203	49892.95
961.64774	49810.75
965.40086	49848.25
969.15137	49777.25
972.89929	49608.05
976.64461	49662.25
980.38733	49757.55
984.12747	49972.65
987.86502	50288.35
991.59999	50728.75
995.33237	51408.15
999.06217	52476.25
1002.78939	53871.85
1006.51404	55121.85
1010.23611	56086.65
1013.95561	56713.15
1017.67255	56545.35
1021.38692	55626.35
1025.09872	54858.25
1028.80796	54691.65
1032.51465	55431.35
1036.21877	56315.25
1039.92035	56677.35
1043.61937	56335.95
1047.31584	55631.25
1051.00976	54881.85
1054.70114	54595.45
1058.38998	54738.55
1062.07627	55340.95
1065.76003	56244.85
1069.44126	57358.25
1073.11995	58774.95
1076.79611	59948.65
1080.46974	60259.05
1084.14085	60181.75
1087.80943	60112.15
1091.47549	59911.15
1095.13903	59669.05
1098.80005	58740.85
1102.45857	57604.05
1106.11456	56647.35
1109.76805	56115.15
1113.41903	55989.65
1117.06751	55970.75
1120.71348	56135.45
1124.35696	56409.95
1127.99793	56824.75
1131.63641	57223.65
1135.2724	57399.05
1138.90589	57521.45
1142.5369	57762.45
1146.16542	58062.65
1149.79145	58347.85
1153.415	58825.95
1157.03607	59706.55
1160.65467	61581.15
1164.27079	64586.45
1167.88443	67851.15
1171.49561	70824.25
1175.10432	74139.35
1178.71056	78563.65
1182.31434	83019.45
1185.91565	85390.75
1189.51451	85029.55
1193.11091	83140.25
1196.70485	80610.95
1200.29634	78107.95
1203.88538	76637.05
1207.47197	76245.15
1211.05612	75942.95
1214.63782	74945.85
1218.21708	73173.95
1221.79391	71182.35
1225.36829	69802.05
1228.94024	68666.65
1232.50976	67676.45
1236.07685	66888.45
1239.6415	66532.75
1243.20374	66683.55
1246.76355	67263.35
1250.32093	68348.75
1253.8759	69813.75
1257.42845	71648.55
1260.97859	73690.35
1264.52631	75827.75
1268.07163	78142.75
1271.61453	80573.15
1275.15503	83012.65
1278.69312	85225.95
1282.22882	87188.05
1285.76211	89262.65
1289.29301	91792.05
1292.82151	94803.95
1296.34761	98837.75
1299.87133	104135.95
1303.39266	110005.55
1306.9116	115330.25
1310.42815	118902.35
1313.94233	120047.25
1317.45412	119089.25
1320.96354	117385.25
1324.47058	116593.25
1327.97525	116549.45
1331.47754	116818.25
1334.97747	117194.75
1338.47502	116523.25
1341.97022	114877.65
1345.46305	112168.25
1348.95352	109639.35
1352.44163	108364.65
1355.92738	109546.15
1359.41078	113010.85
1362.89183	115553.35
1366.37053	113888.55
1369.84688	106973.55
1373.32088	97332.15
1376.79254	90151.65
1380.26186	87415.95
1383.72883	87481.85
1387.19347	87602.65
1390.65578	86566.35
1394.11575	85978.35
1397.57339	86700.45
1401.0287	88737.95
1404.48168	90798.05
1407.93234	91797.65
1411.38068	91173.35
1414.82669	88922.65
1418.27039	85706.75
1421.71177	82336.25
1425.15083	79712.85
1428.58758	78684.15
1432.02203	79596.95
1435.45416	81922.05
1438.88399	84616.85
1442.31151	86679.45
1445.73673	87496.55
1449.15965	87554.25
1452.58027	86909.85
1455.9986	86059.25
1459.41463	86157.65
1462.82837	87449.35
1466.23982	89250.55
1469.64898	91023.05
1473.05586	92187.25
1476.46045	92465.45
1479.86276	91941.65
1483.26279	90930.35
1486.66054	90263.85
1490.05602	90303.15
1493.44922	90467.75
1496.84016	90311.05
1500.22882	90483.85
1503.61521	90969.85
1506.99934	91855.45
1510.38121	92456.05
1513.76081	92171.65
1517.13816	90924.65
1520.51324	89354.05
1523.88607	88648.45
1527.25665	88731.35
1530.62498	89398.85
1533.99105	89625.85
1537.35488	89054.05
1540.71647	87688.85
1544.07581	85856.35
1547.4329	83912.85
1550.78776	82103.85
1554.14038	80746.45
1557.49077	79720.95
1560.83892	78967.65
1564.18484	78447.85
1567.52853	78348.35
1570.86999	78980.45
1574.20922	80707.55
1577.54624	82867.35
1580.88103	84671.85
1584.2136	86957.35
1587.54395	90350.15
1590.87208	95102.15
1594.19801	100874.05
1597.52172	105821.15
1600.84321	106518.15
1604.16251	101277.65
1607.47959	92805.75
1610.79447	84375.55
1614.10715	76943.35
1617.41763	71224.45
1620.7259	67538.05
1624.03199	65773.05
1627.33587	66015.55
1630.63757	68156.65
1633.93707	72508.65
1637.23439	79692.45
1640.52951	89850.15
1643.82246	100681.35
1647.11321	107808.35
1650.40179	106677.25
1653.68819	97222.55
1656.97241	84202.55
1660.25446	72812.45
1663.53433	64834.35
1666.81203	59736.65
1670.08756	56636.55
1673.36092	54686.35
1676.63211	53306.25
1679.90115	52315.15
1683.16801	51560.15
1686.43272	51088.45
1689.69527	50725.15
1692.95567	50401.65
1696.2139	50225.95
1699.46999	50082.05
1702.72392	49975.85
1705.97571	49871.45
1709.22535	49807.95
1712.47284	49681.05
1715.71819	49666.95
1718.96139	49536.55
1722.20246	49373.65
1725.44139	49200.85
1728.67818	48943.85
1731.91284	48687.95
1735.14537	48486.15
1738.37576	48253.85
1741.60403	48114.75
1744.83017	47990.55
1748.05418	47902.85
1751.27607	47746.35
1754.49584	47637.95
1757.71349	47670.15
1760.92903	47577.75
1764.14244	47583.45
1767.35375	47544.75
1770.56294	47557.05
1773.77002	47496.25
1776.97499	47554.55
1780.17785	47384.35
1783.37861	47355.55
1786.57727	47279.85
1789.77382	47135.85
1792.96828	47070.85
1796.16064	47051.65
1799.3509	46964.75
1802.53907	46950.25
1805.72514	46807.45
1808.90913	46683.45
1812.09102	46607.45
1815.27083	46522.35
1818.44856	46510.25
1821.6242	46484.55
1824.79776	46474.35
1827.96924	46517.65
1831.13864	46488.85
1834.30597	46532.25
1837.47122	46639.45
1840.6344	46643.25
1843.7955	46604.45
1846.95454	46616.35
1850.11151	46636.95
1853.26642	46633.65
1856.41926	46605.75
1859.57004	46647.85
1862.71876	46506.75
1865.86542	46446.95
1869.01003	46474.15
1872.15258	46469.45
1875.29308	46415.85
1878.43152	46390.65
1881.56792	46328.35
1884.70227	46271.05
1887.83457	46295.25
1890.96482	46232.15
1894.09304	46145.65
1897.21921	46209.45
1900.34335	46119.65
1903.46544	45967.95
1906.58551	45920.05
1909.70353	45866.25
1912.81953	45768.25
1915.93349	45719.45
1919.04543	45555.65
1922.15534	45552.45
1925.26322	45383.65
1928.36908	45346.55
1931.47292	45237.95
1934.57473	45171.95
1937.67453	45049.45
1940.77232	44942.45
1943.86808	44870.45
1946.96184	44720.25
1950.05358	44618.35
1953.14331	44478.15
1956.23103	44460.05
1959.31675	44294.35
1962.40046	44225.25
1965.48217	44134.65
1968.56188	43923.55
1971.63959	43869.85
1974.7153	43691.15
1977.78901	43624.45
1980.86073	43503.05
1983.93046	43361.55
1986.99819	43254.65
1990.06394	43230.65
1993.1277	43171.15
1996.18947	42948.15
1999.24925	42850.35
2002.30706	42710.35
2005.36288	42595.05
2008.41672	42525.65
2011.46859	42429.25
2014.51848	42308.15
2017.56639	42325.75
2020.61233	42240.25
2023.6563	42141.55
2026.6983	42099.55
2029.73833	41993.75
2032.7764	41948.95
2035.8125	41865.65
2038.84664	41700.65
2041.87881	41697.55
2044.90903	41691.45
2047.93729	41541.95
2050.96359	41528.85
2053.98794	41516.95
2057.01034	41488.65
2060.03078	41473.75
2063.04927	41416.85
2066.06582	41421.55
2069.08042	41406.05
2072.09307	41424.55
2075.10378	41401.95
2078.11255	41326.85
2081.11938	41391.75
2084.12426	41326.25
2087.12722	41340.35
2090.12824	41326.35
2093.12732	41380.45
2096.12447	41325.45
2099.11969	41339.45
2102.11299	41268.05
2105.10435	41318.85
2108.09379	41434.45
2111.08131	41501.65
2114.0669	41499.55
2117.05057	41491.75
2120.03233	41468.95
2123.01216	41571.95
2125.99008	41513.65
2128.96609	41603.05
2131.94018	41625.25
2134.91236	41667.35
2137.88263	41752.95
2140.851	41722.25
2143.81746	41776.35
2146.78201	41771.75
2149.74466	41825.15
2152.7054	41847.75
2155.66425	41895.25
2158.6212	41856.45
2161.57625	41819.25
2164.52941	41890.45
2167.48067	41900.15
2170.43004	41865.35
2173.37752	41893.95
2176.32311	41854.75
2179.26681	41802.45
2182.20863	41863.05
2185.14856	41894.75
2188.08661	41913.15
2191.02278	41874.85
2193.95707	41903.05
2196.88948	41854.35
2199.82001	41871.75
2202.74867	41865.35
2205.67545	41829.55
2208.60037	41775.65
2211.52341	41705.45
2214.44458	41699.65
2217.36388	41641.05
2220.28132	41646.95
2223.1969	41552.45
2226.11061	41515.35
2229.02246	41419.75
2231.93245	41364.35
2234.84058	41274.35
2237.74686	41259.55
2240.65128	41241.25
2243.55385	41142.15
2246.45456	41096.95
2249.35343	41011.15
2252.25044	40965.25
2255.14561	40905.45
2258.03893	40804.65
2260.93041	40767.05
2263.82004	40702.55
2266.70783	40648.75
2269.59378	40544.55
2272.4779	40500.65
2275.36017	40376.35
2278.24061	40315.35
2281.11922	40261.35
2283.996	40215.45
2286.87094	40186.05
2289.74405	40114.45
2292.61534	40128.75
2295.4848	40054.65
2298.35243	40089.35
2301.21824	40053.95
2304.08223	40111.75
2306.94439	40110.35
2309.80474	40123.45
2312.66327	40137.35
2315.51999	40110.55
2318.37489	40086.15
2321.22797	40048.85
2324.07925	40035.05
2326.92871	39978.95
2329.77637	39936.55
2332.62222	39958.95
2335.46626	39915.75
2338.3085	39846.35
2341.14893	39867.25
2343.98756	39891.85
2346.8244	39852.35
2349.65943	39876.75
2352.49267	39824.15
2355.32411	39786.65
2358.15376	39784.95
2360.98161	39718.85
2363.80768	39748.35
2366.63195	39725.25
2369.45444	39665.15
2372.27514	39565.15
2375.09405	39582.35
2377.91118	39528.85
2380.72652	39491.95
2383.54009	39390.05
2386.35187	39329.85
2389.16188	39283.75
2391.97011	39259.05
2394.77657	39207.55
2397.58125	39168.45
2400.38416	39126.45
2403.18529	39076.45
2405.98466	39000.95
2408.78226	38948.85
2411.57809	38926.45
2414.37216	38820.25
2417.16446	38861.45
2419.955	38835.55
2422.74378	38806.35
2425.5308	38743.65
2428.31606	38736.55
2431.09956	38717.45
2433.88131	38732.85
2436.6613	38687.75
2439.43954	38619.15
2442.21603	38600.05
2444.99077	38613.15
2447.76377	38667.45
2450.53501	38595.65
2453.30451	38636.45
2456.07226	38612.85
2458.83827	38575.95
2461.60254	38577.45
2464.36507	38534.35
2467.12586	38532.95
2469.88492	38571.85
2472.64224	38532.35
2475.39782	38531.85
2478.15167	38609.45
2480.90379	38601.25
2483.65417	38649.15
2486.40283	38595.65
2489.14976	38614.95
2491.89497	38555.05
2494.63845	38589.45
2497.3802	38631.85
2500.12024	38625.25
2502.85855	38617.35
2505.59514	38620.05
2508.33002	38606.35
2511.06318	38593.95
2513.79462	38601.65
2516.52435	38581.55
2519.25237	38544.05
2521.97867	38527.95
2524.70327	38557.25
2527.42616	38436.65
2530.14734	38498.35
2532.86681	38423.05
2535.58458	38381.65
2538.30065	38333.05
2541.01501	38378.85
2543.72768	38392.65
2546.43864	38369.75
2549.14791	38245.95
2551.85548	38271.95
2554.56136	38190.55
2557.26554	38146.05
2559.96803	38146.95
2562.66883	38169.85
2565.36794	38160.95
2568.06536	38186.35
2570.7611	38105.15
2573.45514	38070.05
2576.14751	38088.35
2578.83819	38017.95
2581.52719	38020.65
2584.21451	37975.05
2586.90015	37926.25
2589.58411	37925.95
2592.2664	37902.25
2594.94701	37882.15
2597.62594	37878.85
2600.30321	37847.95
2602.9788	37836.25
2605.65273	37764.95
2608.32498	37776.15
2610.99557	37726.75
2613.66449	37750.55
2616.33175	37702.85
2618.99734	37701.25
2621.66128	37665.85
2624.32355	37724.95
2626.98416	37649.75
2629.64311	37614.45
2632.30041	37610.15
2634.95605	37543.15
2637.61004	37558.05
2640.26238	37493.45
2642.91306	37546.25
2645.56209	37499.25
2648.20948	37581.25
2650.85521	37464.05
2653.4993	37515.95
2656.14175	37508.95
2658.78255	37550.95
2661.42171	37529.05
2664.05923	37613.35
2666.6951	37629.65
2669.32934	37645.35
2671.96194	37659.75
2674.59291	37626.35
2677.22224	37538.25
2679.84993	37651.95
2682.476	37582.25
2685.10043	37593.05
2687.72324	37586.55
2690.34441	37613.85
2692.96396	37601.95
2695.58188	37608.95
2698.19818	37589.55
2700.81285	37601.85
2703.4259	37600.75
2706.03733	37720.85
2708.64714	37725.15
2711.25533	37783.85
2713.86191	37772.45
2716.46687	37818.95
2719.07021	37792.65
2721.67194	37821.85
2724.27206	37773.35
2726.87057	37863.35
2729.46747	37846.05
2732.06276	37910.05
2734.65644	37871.95
2737.24852	37976.65
2739.83899	37889.15
2742.42786	37890.65
2745.01513	37818.05
2747.60079	37833.55
2750.18486	37792.85
2752.76733	37818.05
2755.3482	37831.45
2757.92747	37886.95
2760.50515	37814.05
2763.08123	37786.05
2765.65573	37751.85
2768.22863	37780.95
2770.79994	37639.15
2773.36967	37668.35
2775.9378	37642.15
2778.50435	37581.15
2781.06932	37614.65
2783.6327	37648.35
2786.1945	37563.65
2788.75471	37517.35
2791.31335	37390.65
2793.87041	37387.45
2796.42589	37288.95
2798.97979	37315.35
2801.53212	37278.85
2804.08288	37273.85
2806.63206	37109.15
2809.17967	37063.45
2811.72571	36929.85
2814.27018	36965.25
2816.81308	36861.15
2819.35442	36845.85
2821.89419	36808.65
2824.43239	36780.35
2826.96904	36717.05
2829.50412	36740.35
2832.03763	36675.75
2834.56959	36647.25
2837.1	36569.35
2839.62884	36576.95
2842.15613	36477.45
2844.68186	36499.55
2847.20604	36391.75
2849.72867	36430.05
2852.24974	36369.45
2854.76927	36357.65
2857.28724	36297.45
2859.80367	36290.45
2862.31855	36175.55
2864.83189	36194.45
2867.34368	36179.95
2869.85393	36197.15
2872.36264	36146.65
2874.8698	36164.85
2877.37543	36195.95
2879.87952	36176.65
2882.38207	36205.45
2884.88308	36166.95
2887.38256	36219.25
2889.88051	36218.65
2892.37692	36196.45
2894.8718	36206.35
2897.36515	36268.55
2899.85698	36249.95
2902.34727	36323.85
2904.83604	36318.95
2907.32328	36373.15
2909.809	36404.25
2912.29319	36476.15
2914.77587	36431.55
2917.25702	36414.15
2919.73665	36388.45
2922.21476	36440.05
2924.69136	36433.05
2927.16644	36420.55
2929.64	36351.25
2932.11205	36264.35
2934.58258	36147.25
2937.05161	36295.55
2939.51912	36327.85
2941.98513	36366.95
2944.44962	36193.25
2946.91261	36061.65
2949.37409	36190.55
2951.83407	36183.95
2954.29254	36108.05
2956.74951	36012.05
2959.20498	36026.15
2961.65895	36032.15
2964.11142	36018.85
2966.56239	35925.25
2969.01186	35934.85
2971.45984	35813.35
2973.90632	35769.25
2976.35131	35710.75
2978.7948	35704.95
2981.23681	35632.35
2983.67732	35623.25
2986.11635	35503.95
2988.55388	35434.95
2990.98993	35366.25
2993.4245	35315.05
2995.85758	35198.05
2998.28917	35174.65
3000.71928	35099.55
3003.14791	34966.55
3005.57506	34952.95
3008.00073	34883.15
3010.42493	34884.25
3012.84764	34852.15
3015.26888	34806.75
3017.68865	34764.75
3020.10694	34696.55
3022.52376	34655.25
3024.9391	34644.65
3027.35298	34622.95
3029.76539	34604.15
3032.17632	34528.45
3034.5858	34520.55
3036.9938	34436.65
3039.40034	34383.35
3041.80542	34343.85
3044.20903	34264.35
3046.61118	34230.25
3049.01187	34165.45
3051.4111	34143.45
3053.80888	34103.85
3056.20519	34057.65
3058.60005	33925.65
3060.99345	33897.75
3063.3854	33802.25
3065.7759	33683.25
3068.16494	33689.15
3070.55254	33587.25
3072.93868	33523.95
3075.32338	33411.95
3077.70662	33368.55
3080.08842	33282.75
3082.46878	33291.55
3084.84769	33238.65
3087.22515	33180.55
3089.60118	33202.85
3091.97576	33204.75
3094.3489	33094.75
3096.72061	33148.55
3099.09087	33149.15
3101.4597	33083.65
3103.82709	32993.95
3106.19305	32903.85
3108.55757	32898.05
3110.92066	32809.25
3113.28232	32743.75
3115.64255	32682.05
3118.00134	32643.05
3120.35871	32625.85
3122.71466	32598.75
3125.06917	32497.55
3127.42226	32465.55
3129.77393	32452.35
3132.12417	32372.95
3134.47299	32369.65
3136.82039	32386.65
3139.16636	32399.65
3141.51092	32309.75
3143.85406	32381.95
3146.19579	32344.35
3148.53609	32299.95
3150.87499	32294.75
3153.21246	32296.65
3155.54853	32352.75
3157.88318	32235.85
3160.21642	32283.95
3162.54826	32197.65
3164.87868	32215.15
3167.2077	32159.15
3169.5353	32135.85
3171.86151	32088.15
3174.18631	32043.25
3176.5097	32009.35
3178.83169	31918.75
3181.15228	31915.45
3183.47147	31931.85
3185.78926	31922.65
3188.10565	31836.05
3190.42065	31789.45
3192.73424	31860.55
3195.04645	31834.85
3197.35725	31803.95
3199.66667	31813.55
3201.97469	31744.65
3204.28132	31707.35
3206.58656	31766.45
3208.8904	31717.55
3211.19287	31739.05
3213.49394	31666.05
3215.79363	31699.95
3218.09193	31743.25
3220.38884	31722.65
3222.68438	31775.45
3224.97853	31728.25
3227.2713	31695.65
3229.56269	31633.25
3231.8527	31606.45
3234.14133	31539.95
