Data from AgNP_FTO_APTES_CRN_1000uM_R6G_10uM_NaF_0.1M_Addition_RamanShift__14__21-06-38-281.txt Node

Date: Wed Dec 15 21:06:38 GMT 2021
User: TCL
Spectrometer: QEP01345
Trigger mode: 4
Integration Time (sec): 7.000000E0
Scans to average: 10
Electric dark correction enabled: true
Nonlinearity correction enabled: false
Boxcar width: 0
XAxis mode: Raman Shifts
Number of Pixels in Spectrum: 1044
>>>>>Begin Spectral Data<<<<<
46.04893	1.725
50.45542	-1.675
54.85868	-0.475
59.25871	-1.775
63.6555	44.825
68.04907	53.025
72.43941	52.325
76.82654	54.225
81.21044	55.725
85.59113	60.725
89.96862	62.925
94.34289	61.225
98.71396	68.125
103.08183	68.725
107.4465	73.125
111.80798	72.025
116.16626	76.525
120.52136	74.825
124.87327	76.125
129.222	79.225
133.56755	82.425
137.90993	86.925
142.24913	94.525
146.58517	107.825
150.91804	125.425
155.24774	145.025
159.57429	180.425
163.89768	228.425
168.21792	292.225
172.53501	397.825
176.84895	554.325
181.15975	775.325
185.46741	1089.325
189.77193	1507.125
194.07331	2023.325
198.37157	2631.225
202.6667	3273.425
206.9587	3893.225
211.24758	4513.725
215.53334	5138.725
219.81599	5771.025
224.09553	6463.425
228.37195	7237.125
232.64527	8096.025
236.91549	8959.425
241.18261	9872.325
245.44663	10777.525
249.70755	11532.225
253.96539	12198.725
258.22014	12721.325
262.4718	13097.525
266.72039	13332.725
270.96589	13421.225
275.20832	13466.525
279.44768	13350.025
283.68397	13215.725
287.91719	13123.825
292.14735	13018.725
296.37445	12955.325
300.59849	12886.125
304.81948	12839.025
309.03742	12742.825
313.25231	12618.725
317.46415	12405.425
321.67296	12204.025
325.87872	12008.525
330.08145	11922.225
334.28114	11972.125
338.47781	12064.025
342.67145	12149.025
346.86207	12318.925
351.04966	12437.725
355.23424	12569.025
359.4158	12687.025
363.59435	12822.325
367.76989	12892.525
371.94243	12949.225
376.11196	12994.225
380.27849	13082.125
384.44203	13140.325
388.60257	13219.325
392.76012	13351.925
396.91468	13493.125
401.06626	13657.125
405.21485	13801.925
409.36047	13870.725
413.50311	13774.425
417.64277	13729.625
421.77947	13686.425
425.9132	13738.225
430.04396	13809.525
434.17176	13893.425
438.2966	14017.225
442.41849	14161.525
446.53742	14327.925
450.6534	14475.125
454.76644	14610.525
458.87653	14742.425
462.98368	14802.825
467.08789	14806.025
471.18916	14767.725
475.2875	14747.125
479.38291	14739.025
483.4754	14670.725
487.56496	14590.225
491.6516	14521.825
495.73531	14468.825
499.81612	14411.325
503.89401	14486.325
507.96899	14488.925
512.04106	14539.525
516.11023	14566.425
520.1765	14550.125
524.23987	14521.825
528.30034	14432.925
532.35792	14385.025
536.41261	14316.225
540.46441	14254.825
544.51333	14285.225
548.55936	14401.725
552.60252	14595.225
556.64279	14791.725
560.6802	14866.625
564.71473	14961.125
568.7464	15092.125
572.7752	15330.925
576.80114	15566.025
580.82422	15751.725
584.84444	15905.425
588.86181	15905.325
592.87633	15820.325
596.888	15767.625
600.89682	15757.625
604.9028	15983.025
608.90594	16513.625
612.90624	17058.325
616.90371	16472.125
620.89834	15163.525
624.89015	14546.225
628.87913	14483.325
632.86528	14552.025
636.84862	14650.925
640.82913	14609.025
644.80683	14437.925
648.78172	14356.325
652.75379	14297.025
656.72306	14355.425
660.68952	14497.025
664.65319	14494.725
668.61405	14458.025
672.57211	14474.525
676.52738	14579.125
680.47986	14640.225
684.42955	14635.525
688.37646	14633.125
692.32058	14633.925
696.26192	14638.425
700.20048	14724.525
704.13626	14753.725
708.06928	14800.725
711.99952	14773.325
715.927	14727.825
719.85171	14674.725
723.77365	14589.525
727.69284	14481.325
731.60928	14376.225
735.52295	14284.825
739.43388	14278.625
743.34206	14287.425
747.24749	14310.025
751.15017	14349.825
755.05012	14453.025
758.94733	14682.325
762.8418	15046.425
766.73354	15661.025
770.62254	16249.725
774.50882	16336.425
778.39237	15909.625
782.27321	15304.025
786.15132	14779.125
790.02671	14430.125
793.89938	14236.725
797.76935	14112.725
801.6366	14089.725
805.50115	14045.425
809.36299	14026.825
813.22213	13963.225
817.07857	13989.725
820.93231	13989.525
824.78336	13955.425
828.63172	13983.325
832.47738	13986.525
836.32036	13957.925
840.16066	13948.625
843.99827	13921.525
847.8332	13904.825
851.66546	13919.425
855.49504	13903.425
859.32195	13928.125
863.1462	13902.025
866.96777	13910.325
870.78668	13918.125
874.60293	13945.425
878.41652	13916.225
882.22745	13989.425
886.03573	13997.025
889.84136	14028.025
893.64433	14010.025
897.44466	13986.525
901.24235	13951.225
905.0374	13934.825
908.8298	13932.625
912.61957	13941.825
916.40671	14026.725
920.19121	14133.625
923.97308	14136.725
927.75233	14128.925
931.52895	14065.025
935.30295	13971.725
939.07433	13814.525
942.84309	13695.525
946.60924	13652.225
950.37278	13594.925
954.13371	13516.025
957.89203	13493.725
961.64774	13536.925
965.40086	13501.125
969.15137	13479.125
972.89929	13416.625
976.64461	13412.725
980.38733	13374.025
984.12747	13383.725
987.86502	13388.125
991.59999	13449.725
995.33237	13463.325
999.06217	13539.525
1002.78939	13614.225
1006.51404	13685.225
1010.23611	13812.825
1013.95561	13863.425
1017.67255	13890.025
1021.38692	13858.325
1025.09872	13793.125
1028.80796	13715.125
1032.51465	13728.925
1036.21877	13721.725
1039.92035	13763.125
1043.61937	13819.925
1047.31584	13870.925
1051.00976	13956.525
1054.70114	14029.425
1058.38998	14116.925
1062.07627	14300.925
1065.76003	14488.825
1069.44126	14706.825
1073.11995	14912.325
1076.79611	15038.825
1080.46974	14996.425
1084.14085	14873.125
1087.80943	14783.825
1091.47549	14747.025
1095.13903	14735.225
1098.80005	14687.425
1102.45857	14516.425
1106.11456	14309.725
1109.76805	14171.725
1113.41903	14122.425
1117.06751	14112.225
1120.71348	14161.725
1124.35696	14289.425
1127.99793	14442.225
1131.63641	14520.325
1135.2724	14438.225
1138.90589	14348.825
1142.5369	14331.625
1146.16542	14355.725
1149.79145	14348.825
1153.415	14475.825
1157.03607	14548.925
1160.65467	14688.325
1164.27079	14951.725
1167.88443	15223.025
1171.49561	15670.825
1175.10432	16156.725
1178.71056	16846.825
1182.31434	17456.925
1185.91565	17869.325
1189.51451	18078.225
1193.11091	18056.225
1196.70485	17813.525
1200.29634	17430.025
1203.88538	17038.825
1207.47197	16663.925
1211.05612	16341.125
1214.63782	16132.025
1218.21708	15921.725
1221.79391	15698.625
1225.36829	15514.625
1228.94024	15452.925
1232.50976	15361.425
1236.07685	15351.925
1239.6415	15383.125
1243.20374	15412.725
1246.76355	15473.725
1250.32093	15570.525
1253.8759	15710.725
1257.42845	15965.325
1260.97859	16187.525
1264.52631	16352.125
1268.07163	16558.825
1271.61453	16780.925
1275.15503	16976.825
1278.69312	17113.225
1282.22882	17300.225
1285.76211	17453.625
1289.29301	17703.925
1292.82151	18027.225
1296.34761	18399.125
1299.87133	18843.325
1303.39266	19328.525
1306.9116	19751.925
1310.42815	20212.925
1313.94233	20417.525
1317.45412	20432.425
1320.96354	20351.125
1324.47058	20354.725
1327.97525	20322.225
1331.47754	20399.725
1334.97747	20508.225
1338.47502	20773.525
1341.97022	21069.925
1345.46305	21320.925
1348.95352	21487.525
1352.44163	21434.425
1355.92738	21313.825
1359.41078	21282.125
1362.89183	21307.125
1366.37053	20897.125
1369.84688	19972.025
1373.32088	18878.125
1376.79254	18081.425
1380.26186	17635.125
1383.72883	17404.125
1387.19347	17329.925
1390.65578	17181.025
1394.11575	17077.225
1397.57339	16947.225
1401.0287	16872.125
1404.48168	16792.425
1407.93234	16653.025
1411.38068	16482.325
1414.82669	16208.425
1418.27039	15903.825
1421.71177	15590.225
1425.15083	15265.725
1428.58758	15092.225
1432.02203	15047.725
1435.45416	15118.725
1438.88399	15266.225
1442.31151	15343.125
1445.73673	15449.025
1449.15965	15615.225
1452.58027	15790.225
1455.9986	15889.825
1459.41463	16044.525
1462.82837	16208.325
1466.23982	16409.725
1469.64898	16629.125
1473.05586	16732.325
1476.46045	16815.525
1479.86276	16888.225
1483.26279	16915.625
1486.66054	16979.925
1490.05602	17107.425
1493.44922	17343.325
1496.84016	17690.025
1500.22882	18226.825
1503.61521	18841.225
1506.99934	19430.525
1510.38121	19814.925
1513.76081	19816.125
1517.13816	19465.125
1520.51324	19025.925
1523.88607	18587.725
1527.25665	18282.925
1530.62498	18140.025
1533.99105	17966.925
1537.35488	17735.625
1540.71647	17492.425
1544.07581	17207.025
1547.4329	16974.925
1550.78776	16761.525
1554.14038	16598.525
1557.49077	16590.125
1560.83892	16598.425
1564.18484	16675.125
1567.52853	16805.025
1570.86999	16925.825
1574.20922	17128.225
1577.54624	17310.225
1580.88103	17329.825
1584.2136	17259.125
1587.54395	17133.825
1590.87208	17095.825
1594.19801	17222.825
1597.52172	17456.425
1600.84321	17499.825
1604.16251	17216.525
1607.47959	16723.225
1610.79447	16212.725
1614.10715	15624.025
1617.41763	15019.325
1620.7259	14570.625
1624.03199	14242.225
1627.33587	14118.525
1630.63757	14120.325
1633.93707	14390.925
1637.23439	14854.125
1640.52951	15573.425
1643.82246	16487.525
1647.11321	17403.525
1650.40179	17971.925
1653.68819	17864.125
1656.97241	17015.525
1660.25446	15873.425
1663.53433	14767.025
1666.81203	13920.225
1670.08756	13318.825
1673.36092	12890.025
1676.63211	12621.025
1679.90115	12431.225
1683.16801	12301.125
1686.43272	12170.725
1689.69527	12109.225
1692.95567	12054.325
1696.2139	12023.625
1699.46999	11971.625
1702.72392	11943.325
1705.97571	11916.525
1709.22535	11881.125
1712.47284	11877.225
1715.71819	11836.425
1718.96139	11805.925
1722.20246	11758.325
1725.44139	11730.225
1728.67818	11685.125
1731.91284	11634.225
1735.14537	11537.525
1738.37576	11567.725
1741.60403	11518.125
1744.83017	11471.625
1748.05418	11481.425
1751.27607	11462.725
1754.49584	11454.025
1757.71349	11459.825
1760.92903	11460.525
1764.14244	11455.325
1767.35375	11435.825
1770.56294	11409.525
1773.77002	11385.925
1776.97499	11316.525
1780.17785	11299.025
1783.37861	11254.825
1786.57727	11205.625
1789.77382	11173.625
1792.96828	11128.225
1796.16064	11103.725
1799.3509	11071.525
1802.53907	11067.825
1805.72514	11013.425
1808.90913	10979.925
1812.09102	10962.125
1815.27083	10938.325
1818.44856	10880.325
1821.6242	10898.025
1824.79776	10895.325
1827.96924	10855.025
1831.13864	10847.125
1834.30597	10854.625
1837.47122	10828.325
1840.6344	10808.225
1843.7955	10807.725
1846.95454	10781.925
1850.11151	10773.725
1853.26642	10770.925
1856.41926	10762.825
1859.57004	10759.425
1862.71876	10723.325
1865.86542	10711.325
1869.01003	10694.525
1872.15258	10688.325
1875.29308	10687.625
1878.43152	10663.625
1881.56792	10643.825
1884.70227	10637.325
1887.83457	10618.225
1890.96482	10610.125
1894.09304	10582.225
1897.21921	10552.825
1900.34335	10548.025
1903.46544	10510.325
1906.58551	10518.825
1909.70353	10501.325
1912.81953	10492.125
1915.93349	10444.925
1919.04543	10443.325
1922.15534	10396.725
1925.26322	10400.725
1928.36908	10423.625
1931.47292	10396.725
1934.57473	10358.725
1937.67453	10307.625
1940.77232	10276.125
1943.86808	10278.325
1946.96184	10249.925
1950.05358	10175.125
1953.14331	10171.425
1956.23103	10133.625
1959.31675	10121.125
1962.40046	10081.725
1965.48217	10073.825
1968.56188	10027.525
1971.63959	9974.825
1974.7153	9925.625
1977.78901	9930.625
1980.86073	9883.825
1983.93046	9841.825
1986.99819	9809.525
1990.06394	9774.825
1993.1277	9758.025
1996.18947	9738.725
1999.24925	9707.025
2002.30706	9661.425
2005.36288	9620.825
2008.41672	9597.925
2011.46859	9568.925
2014.51848	9567.025
2017.56639	9518.925
2020.61233	9497.725
2023.6563	9459.925
2026.6983	9452.425
2029.73833	9429.325
2032.7764	9382.325
2035.8125	9360.425
2038.84664	9325.325
2041.87881	9333.425
2044.90903	9309.125
2047.93729	9281.325
2050.96359	9284.025
2053.98794	9256.125
2057.01034	9238.825
2060.03078	9216.225
2063.04927	9209.525
2066.06582	9199.725
2069.08042	9211.025
2072.09307	9194.425
2075.10378	9171.525
2078.11255	9164.025
2081.11938	9165.225
2084.12426	9163.525
2087.12722	9165.725
2090.12824	9154.825
2093.12732	9160.525
2096.12447	9140.825
2099.11969	9136.825
2102.11299	9141.625
2105.10435	9161.225
2108.09379	9123.825
2111.08131	9150.625
2114.0669	9153.525
2117.05057	9156.325
2120.03233	9151.025
2123.01216	9166.425
2125.99008	9160.525
2128.96609	9155.825
2131.94018	9176.325
2134.91236	9179.725
2137.88263	9193.725
2140.851	9203.425
2143.81746	9196.825
2146.78201	9174.125
2149.74466	9171.625
2152.7054	9203.525
2155.66425	9190.425
2158.6212	9223.325
2161.57625	9176.825
2164.52941	9161.725
2167.48067	9146.525
2170.43004	9135.825
2173.37752	9146.725
2176.32311	9132.325
2179.26681	9129.525
2182.20863	9119.825
2185.14856	9110.325
2188.08661	9100.925
2191.02278	9105.325
2193.95707	9087.625
2196.88948	9063.825
2199.82001	9072.125
2202.74867	9055.025
2205.67545	9045.325
2208.60037	9029.725
2211.52341	9017.925
2214.44458	8979.925
2217.36388	8958.025
2220.28132	8952.725
2223.1969	8920.225
2226.11061	8927.425
2229.02246	8892.925
2231.93245	8893.125
2234.84058	8871.225
2237.74686	8836.725
2240.65128	8831.325
2243.55385	8802.225
2246.45456	8779.825
2249.35343	8802.325
2252.25044	8776.325
2255.14561	8730.625
2258.03893	8737.725
2260.93041	8726.825
2263.82004	8700.325
2266.70783	8689.325
2269.59378	8669.525
2272.4779	8638.625
2275.36017	8614.725
2278.24061	8602.425
2281.11922	8559.325
2283.996	8537.925
2286.87094	8535.025
2289.74405	8500.225
2292.61534	8500.925
2295.4848	8467.125
2298.35243	8492.125
2301.21824	8454.125
2304.08223	8430.725
2306.94439	8423.925
2309.80474	8420.625
2312.66327	8434.125
2315.51999	8396.325
2318.37489	8407.625
2321.22797	8361.625
2324.07925	8379.825
2326.92871	8378.225
2329.77637	8370.825
2332.62222	8348.925
2335.46626	8320.725
2338.3085	8307.125
2341.14893	8297.325
2343.98756	8269.825
2346.8244	8267.125
2349.65943	8258.925
2352.49267	8229.325
2355.32411	8248.825
2358.15376	8237.825
2360.98161	8203.825
2363.80768	8203.725
2366.63195	8204.525
2369.45444	8191.825
2372.27514	8175.625
2375.09405	8180.125
2377.91118	8167.025
2380.72652	8147.725
2383.54009	8145.825
2386.35187	8117.025
2389.16188	8091.125
2391.97011	8083.025
2394.77657	8039.825
2397.58125	8024.325
2400.38416	8030.825
2403.18529	8009.525
2405.98466	8016.425
2408.78226	7995.925
2411.57809	7982.325
2414.37216	7949.025
2417.16446	7952.725
2419.955	7934.225
2422.74378	7916.725
2425.5308	7891.025
2428.31606	7874.525
2431.09956	7898.025
2433.88131	7884.025
2436.6613	7872.625
2439.43954	7843.625
2442.21603	7866.625
2444.99077	7846.725
2447.76377	7849.025
2450.53501	7813.425
2453.30451	7819.125
2456.07226	7787.825
2458.83827	7787.425
2461.60254	7788.225
2464.36507	7765.425
2467.12586	7746.925
2469.88492	7739.725
2472.64224	7718.925
2475.39782	7709.125
2478.15167	7723.525
2480.90379	7719.025
2483.65417	7717.725
2486.40283	7689.525
2489.14976	7703.025
2491.89497	7675.425
2494.63845	7704.225
2497.3802	7669.625
2500.12024	7653.625
2502.85855	7642.425
2505.59514	7641.025
2508.33002	7627.925
2511.06318	7628.225
2513.79462	7602.625
2516.52435	7600.225
2519.25237	7598.325
2521.97867	7564.625
2524.70327	7580.825
2527.42616	7544.125
2530.14734	7534.325
2532.86681	7499.925
2535.58458	7505.425
2538.30065	7493.625
2541.01501	7495.625
2543.72768	7480.325
2546.43864	7450.925
2549.14791	7437.525
2551.85548	7427.325
2554.56136	7410.425
2557.26554	7388.725
2559.96803	7390.725
2562.66883	7375.925
2565.36794	7361.525
2568.06536	7337.925
2570.7611	7316.925
2573.45514	7344.325
2576.14751	7301.925
2578.83819	7285.425
2581.52719	7286.825
2584.21451	7269.225
2586.90015	7262.125
2589.58411	7251.525
2592.2664	7210.125
2594.94701	7171.125
2597.62594	7179.325
2600.30321	7157.925
2602.9788	7142.625
2605.65273	7136.825
2608.32498	7119.925
2610.99557	7126.625
2613.66449	7113.725
2616.33175	7072.425
2618.99734	7080.925
2621.66128	7061.625
2624.32355	7063.225
2626.98416	7046.925
2629.64311	7049.525
2632.30041	7030.325
2634.95605	7022.125
2637.61004	7016.725
2640.26238	6982.025
2642.91306	6986.225
2645.56209	6983.025
2648.20948	6980.725
2650.85521	6980.725
2653.4993	6963.925
2656.14175	6963.125
2658.78255	6967.125
2661.42171	6948.425
2664.05923	6963.425
2666.6951	6948.625
2669.32934	6972.125
2671.96194	6932.225
2674.59291	6937.625
2677.22224	6941.625
2679.84993	6921.325
2682.476	6936.925
2685.10043	6938.125
2687.72324	6908.225
2690.34441	6908.325
2692.96396	6917.325
2695.58188	6930.625
2698.19818	6899.925
2700.81285	6920.425
2703.4259	6926.925
2706.03733	6952.325
2708.64714	6944.625
2711.25533	6950.525
2713.86191	6917.525
2716.46687	6925.225
2719.07021	6903.125
2721.67194	6907.325
2724.27206	6886.925
2726.87057	6911.125
2729.46747	6895.625
2732.06276	6878.825
2734.65644	6861.925
2737.24852	6854.625
2739.83899	6847.025
2742.42786	6857.325
2745.01513	6850.625
2747.60079	6838.425
2750.18486	6818.125
2752.76733	6799.925
2755.3482	6816.925
2757.92747	6800.425
2760.50515	6778.025
2763.08123	6786.525
2765.65573	6752.425
2768.22863	6754.325
2770.79994	6743.525
2773.36967	6753.725
2775.9378	6735.025
2778.50435	6724.925
2781.06932	6698.525
2783.6327	6704.225
2786.1945	6685.925
2788.75471	6658.525
2791.31335	6660.025
2793.87041	6650.225
2796.42589	6598.425
2798.97979	6621.625
2801.53212	6592.925
2804.08288	6575.425
2806.63206	6565.425
2809.17967	6545.925
2811.72571	6529.625
2814.27018	6521.725
2816.81308	6524.625
2819.35442	6511.925
2821.89419	6498.825
2824.43239	6465.725
2826.96904	6469.325
2829.50412	6488.125
2832.03763	6457.925
2834.56959	6453.125
2837.1	6448.625
2839.62884	6474.225
2842.15613	6468.025
2844.68186	6496.825
2847.20604	6482.525
2849.72867	6481.325
2852.24974	6460.325
2854.76927	6461.425
2857.28724	6461.625
2859.80367	6440.925
2862.31855	6410.925
2864.83189	6417.725
2867.34368	6404.925
2869.85393	6397.925
2872.36264	6381.625
2874.8698	6376.225
2877.37543	6372.025
2879.87952	6384.025
2882.38207	6372.825
2884.88308	6368.625
2887.38256	6372.725
2889.88051	6381.025
2892.37692	6359.425
2894.8718	6346.425
2897.36515	6347.225
2899.85698	6335.025
2902.34727	6375.225
2904.83604	6376.525
2907.32328	6373.825
2909.809	6364.025
2912.29319	6379.325
2914.77587	6374.625
2917.25702	6347.925
2919.73665	6351.125
2922.21476	6359.525
2924.69136	6372.225
2927.16644	6349.425
2929.64	6363.325
2932.11205	6344.825
2934.58258	6332.125
2937.05161	6364.025
2939.51912	6358.525
2941.98513	6338.025
2944.44962	6314.025
2946.91261	6282.025
2949.37409	6299.025
2951.83407	6284.025
2954.29254	6256.525
2956.74951	6230.025
2959.20498	6240.425
2961.65895	6237.125
2964.11142	6243.425
2966.56239	6213.125
2969.01186	6197.725
2971.45984	6176.325
2973.90632	6180.825
2976.35131	6150.225
2978.7948	6133.325
2981.23681	6140.725
2983.67732	6118.625
2986.11635	6107.525
2988.55388	6090.325
2990.98993	6073.425
2993.4245	6059.725
2995.85758	6040.525
2998.28917	6022.925
3000.71928	6029.025
3003.14791	6007.125
3005.57506	6011.425
3008.00073	5982.825
3010.42493	5978.125
3012.84764	5971.525
3015.26888	5955.425
3017.68865	5939.625
3020.10694	5937.625
3022.52376	5941.525
3024.9391	5913.225
3027.35298	5917.225
3029.76539	5912.325
3032.17632	5914.325
3034.5858	5904.725
3036.9938	5872.225
3039.40034	5869.525
3041.80542	5871.425
3044.20903	5855.725
3046.61118	5860.025
3049.01187	5849.625
3051.4111	5833.225
3053.80888	5834.325
3056.20519	5828.725
3058.60005	5791.425
3060.99345	5799.425
3063.3854	5804.425
3065.7759	5777.725
3068.16494	5806.125
3070.55254	5750.525
3072.93868	5765.025
3075.32338	5750.025
3077.70662	5729.125
3080.08842	5711.325
3082.46878	5727.125
3084.84769	5715.425
3087.22515	5712.925
3089.60118	5721.925
3091.97576	5730.625
3094.3489	5723.225
3096.72061	5720.425
3099.09087	5730.225
3101.4597	5705.325
3103.82709	5717.525
3106.19305	5707.225
3108.55757	5713.125
3110.92066	5676.425
3113.28232	5677.025
3115.64255	5667.025
3118.00134	5659.925
3120.35871	5650.525
3122.71466	5650.425
3125.06917	5635.925
3127.42226	5637.025
3129.77393	5640.525
3132.12417	5646.725
3134.47299	5644.025
3136.82039	5639.425
3139.16636	5652.625
3141.51092	5655.425
3143.85406	5664.725
3146.19579	5670.025
3148.53609	5674.625
3150.87499	5666.125
3153.21246	5676.325
3155.54853	5690.925
3157.88318	5691.825
3160.21642	5703.125
3162.54826	5686.925
3164.87868	5706.425
3167.2077	5703.625
3169.5353	5716.725
3171.86151	5701.525
3174.18631	5707.625
3176.5097	5704.025
3178.83169	5676.925
3181.15228	5674.625
