Data from AgNP_FTO_APTES_CRN_500uM_R6G_10uM_NaF_0.1M_Addition_RamanShift__28__20-36-18-247.txt Node

Date: Wed Dec 15 20:36:18 GMT 2021
User: TCL
Spectrometer: QEP01345
Trigger mode: 4
Integration Time (sec): 7.000000E0
Scans to average: 10
Electric dark correction enabled: true
Nonlinearity correction enabled: false
Boxcar width: 0
XAxis mode: Raman Shifts
Number of Pixels in Spectrum: 1044
>>>>>Begin Spectral Data<<<<<
46.04893	1.575
50.45542	-1.525
54.85868	-0.925
59.25871	-0.925
63.6555	69.075
68.04907	71.775
72.43941	75.475
76.82654	80.275
81.21044	82.075
85.59113	83.175
89.96862	87.175
94.34289	86.375
98.71396	93.275
103.08183	100.275
107.4465	102.275
111.80798	104.775
116.16626	102.775
120.52136	108.375
124.87327	110.475
129.222	116.175
133.56755	118.375
137.90993	131.675
142.24913	142.675
146.58517	154.175
150.91804	176.575
155.24774	208.075
159.57429	263.475
163.89768	334.175
168.21792	438.275
172.53501	594.475
176.84895	818.375
181.15975	1156.375
185.46741	1617.075
189.77193	2231.875
194.07331	2980.175
198.37157	3839.675
202.6667	4764.375
206.9587	5669.375
211.24758	6545.375
215.53334	7432.775
219.81599	8419.375
224.09553	9451.075
228.37195	10595.975
232.64527	11847.275
236.91549	13164.075
241.18261	14479.675
245.44663	15663.975
249.70755	16744.375
253.96539	17648.775
258.22014	18454.975
262.4718	19149.975
266.72039	19629.775
270.96589	19891.275
275.20832	19920.775
279.44768	19846.575
283.68397	19621.675
287.91719	19410.975
292.14735	19380.075
296.37445	19442.575
300.59849	19642.175
304.81948	19848.175
309.03742	19912.575
313.25231	19738.475
317.46415	19179.475
321.67296	18514.275
325.87872	17947.675
330.08145	17733.975
334.28114	17746.875
338.47781	17985.875
342.67145	18292.975
346.86207	18697.075
351.04966	19278.375
355.23424	19866.575
359.4158	20394.775
363.59435	20703.375
367.76989	20850.875
371.94243	20992.075
376.11196	21094.675
380.27849	21122.475
384.44203	21129.975
388.60257	21151.675
392.76012	21220.675
396.91468	21389.975
401.06626	21683.575
405.21485	21957.875
409.36047	21847.675
413.50311	21346.275
417.64277	20940.875
421.77947	20711.675
425.9132	20687.875
430.04396	20820.375
434.17176	21002.375
438.2966	21290.775
442.41849	21740.675
446.53742	22302.875
450.6534	22785.875
454.76644	23202.075
458.87653	23357.175
462.98368	23276.575
467.08789	23031.475
471.18916	22783.975
475.2875	22596.875
479.38291	22379.875
483.4754	22187.375
487.56496	21934.375
491.6516	21693.575
495.73531	21464.675
499.81612	21394.775
503.89401	21569.175
507.96899	21678.875
512.04106	21911.475
516.11023	22112.775
520.1765	22303.275
524.23987	22350.675
528.30034	22211.175
532.35792	22003.675
536.41261	21702.775
540.46441	21473.875
544.51333	21415.175
548.55936	21523.175
552.60252	21848.175
556.64279	22229.775
560.6802	22489.475
564.71473	22695.275
568.7464	23030.175
572.7752	23328.375
576.80114	23165.975
580.82422	22857.075
584.84444	22772.775
588.86181	22958.375
592.87633	23332.175
596.888	23614.475
600.89682	23860.175
604.9028	24870.675
608.90594	27704.875
612.90624	31273.075
616.90371	30115.475
620.89834	24859.975
624.89015	22375.275
628.87913	21944.375
632.86528	22017.975
636.84862	22058.575
640.82913	21875.575
644.80683	21464.275
648.78172	21180.175
652.75379	21182.075
656.72306	21539.775
660.68952	21958.775
664.65319	21919.675
668.61405	21473.175
672.57211	21310.775
676.52738	21341.875
680.47986	21389.975
684.42955	21368.275
688.37646	21278.675
692.32058	21336.075
696.26192	21446.975
700.20048	21635.175
704.13626	21720.575
708.06928	21591.975
711.99952	21452.875
715.927	21372.375
719.85171	21318.675
723.77365	21255.375
727.69284	21076.875
731.60928	20950.175
735.52295	20904.275
739.43388	20895.475
743.34206	20928.875
747.24749	20901.475
751.15017	20973.975
755.05012	21172.475
758.94733	21679.675
762.8418	22781.075
766.73354	24542.075
770.62254	26442.275
774.50882	27247.575
778.39237	26333.875
782.27321	24206.775
786.15132	22321.375
790.02671	21240.375
793.89938	20719.175
797.76935	20518.575
801.6366	20445.575
805.50115	20397.675
809.36299	20342.975
813.22213	20290.475
817.07857	20286.475
820.93231	20284.075
824.78336	20279.275
828.63172	20312.875
832.47738	20323.675
836.32036	20354.475
840.16066	20324.775
843.99827	20310.475
847.8332	20227.675
851.66546	20182.375
855.49504	20190.575
859.32195	20209.775
863.1462	20199.275
866.96777	20158.175
870.78668	20058.175
874.60293	20056.875
878.41652	20044.275
882.22745	20071.375
886.03573	20104.175
889.84136	20087.775
893.64433	20009.875
897.44466	19957.975
901.24235	19947.875
905.0374	19916.975
908.8298	19869.175
912.61957	19873.075
916.40671	19974.375
920.19121	20084.875
923.97308	20235.675
927.75233	20317.675
931.52895	20380.575
935.30295	20248.375
939.07433	19953.875
942.84309	19671.275
946.60924	19473.475
950.37278	19375.175
954.13371	19329.475
957.89203	19246.575
961.64774	19193.275
965.40086	19175.275
969.15137	19106.875
972.89929	18986.775
976.64461	18991.775
980.38733	18959.175
984.12747	19039.375
987.86502	19141.575
991.59999	19228.375
995.33237	19418.775
999.06217	19735.175
1002.78939	20117.175
1006.51404	20366.475
1010.23611	20627.375
1013.95561	20759.975
1017.67255	20780.475
1021.38692	20580.575
1025.09872	20393.575
1028.80796	20355.275
1032.51465	20512.075
1036.21877	20715.675
1039.92035	20774.475
1043.61937	20736.375
1047.31584	20633.775
1051.00976	20499.975
1054.70114	20439.575
1058.38998	20527.275
1062.07627	20728.875
1065.76003	21066.575
1069.44126	21488.775
1073.11995	22023.675
1076.79611	22512.775
1080.46974	22693.175
1084.14085	22488.775
1087.80943	22227.875
1091.47549	21908.675
1095.13903	21481.675
1098.80005	21059.975
1102.45857	20662.375
1106.11456	20506.475
1109.76805	20491.175
1113.41903	20686.275
1117.06751	20933.275
1120.71348	21298.675
1124.35696	21686.875
1127.99793	22013.475
1131.63641	22080.775
1135.2724	21716.175
1138.90589	21333.375
1142.5369	21040.375
1146.16542	20850.375
1149.79145	20788.075
1153.415	20855.775
1157.03607	21036.675
1160.65467	21330.875
1164.27079	21860.075
1167.88443	22693.775
1171.49561	23918.275
1175.10432	25691.475
1178.71056	27904.375
1182.31434	29644.975
1185.91565	30122.375
1189.51451	29699.675
1193.11091	28568.275
1196.70485	27383.475
1200.29634	26309.475
1203.88538	25508.975
1207.47197	24762.775
1211.05612	24144.575
1214.63782	23740.275
1218.21708	23596.175
1221.79391	23536.575
1225.36829	23455.675
1228.94024	23276.475
1232.50976	23076.175
1236.07685	22972.375
1239.6415	22990.075
1243.20374	23061.875
1246.76355	23214.575
1250.32093	23416.175
1253.8759	23806.275
1257.42845	24256.475
1260.97859	24706.875
1264.52631	25096.975
1268.07163	25497.075
1271.61453	25937.775
1275.15503	26398.775
1278.69312	26674.075
1282.22882	26961.875
1285.76211	27374.675
1289.29301	28031.775
1292.82151	28870.875
1296.34761	29855.675
1299.87133	31113.875
1303.39266	32779.175
1306.9116	34911.275
1310.42815	37314.675
1313.94233	38732.475
1317.45412	38617.375
1320.96354	37477.375
1324.47058	36101.275
1327.97525	34885.175
1331.47754	34041.675
1334.97747	33789.175
1338.47502	33969.075
1341.97022	34293.775
1345.46305	34583.775
1348.95352	34795.175
1352.44163	35525.675
1355.92738	37001.175
1359.41078	39605.675
1362.89183	42130.875
1366.37053	41459.175
1369.84688	37451.375
1373.32088	33243.775
1376.79254	30422.075
1380.26186	29124.975
1383.72883	28585.775
1387.19347	28304.175
1390.65578	27963.175
1394.11575	27689.175
1397.57339	27811.675
1401.0287	28174.575
1404.48168	28618.375
1407.93234	28935.975
1411.38068	28917.475
1414.82669	28490.675
1418.27039	27784.075
1421.71177	26934.475
1425.15083	26110.375
1428.58758	25658.275
1432.02203	25622.975
1435.45416	25785.175
1438.88399	26068.175
1442.31151	26323.475
1445.73673	26497.375
1449.15965	26800.475
1452.58027	27028.075
1455.9986	27042.175
1459.41463	27143.775
1462.82837	27424.475
1466.23982	27843.175
1469.64898	28274.975
1473.05586	28516.975
1476.46045	28532.875
1479.86276	28598.875
1483.26279	28615.675
1486.66054	28674.975
1490.05602	28893.675
1493.44922	29276.075
1496.84016	29736.375
1500.22882	30582.075
1503.61521	31948.475
1506.99934	33792.375
1510.38121	35500.875
1513.76081	36339.075
1517.13816	35292.475
1520.51324	33131.575
1523.88607	30847.875
1527.25665	29323.075
1530.62498	28589.675
1533.99105	28263.975
1537.35488	28097.075
1540.71647	27938.475
1544.07581	27808.175
1547.4329	27609.075
1550.78776	27444.275
1554.14038	27219.075
1557.49077	27213.575
1560.83892	27330.775
1564.18484	27598.675
1567.52853	28008.475
1570.86999	28490.175
1574.20922	29267.975
1577.54624	29992.575
1580.88103	30075.875
1584.2136	29515.975
1587.54395	28912.875
1590.87208	28963.575
1594.19801	29733.875
1597.52172	30993.075
1600.84321	31522.975
1604.16251	30743.875
1607.47959	29006.475
1610.79447	27017.375
1614.10715	25111.175
1617.41763	23674.475
1620.7259	22715.575
1624.03199	22238.275
1627.33587	22166.175
1630.63757	22563.075
1633.93707	23392.175
1637.23439	24748.375
1640.52951	26678.675
1643.82246	28972.875
1647.11321	31166.575
1650.40179	32223.575
1653.68819	31063.275
1656.97241	27999.575
1660.25446	24795.475
1663.53433	22391.475
1666.81203	20849.275
1670.08756	19884.475
1673.36092	19287.175
1676.63211	18891.475
1679.90115	18602.875
1683.16801	18347.975
1686.43272	18256.075
1689.69527	18073.875
1692.95567	18021.775
1696.2139	17959.275
1699.46999	17942.675
1702.72392	17912.675
1705.97571	17862.375
1709.22535	17818.275
1712.47284	17807.675
1715.71819	17812.775
1718.96139	17740.975
1722.20246	17716.775
1725.44139	17672.275
1728.67818	17596.575
1731.91284	17454.375
1735.14537	17380.275
1738.37576	17372.075
1741.60403	17317.875
1744.83017	17258.075
1748.05418	17226.775
1751.27607	17182.475
1754.49584	17168.875
1757.71349	17145.675
1760.92903	17155.275
1764.14244	17165.875
1767.35375	17138.375
1770.56294	17090.675
1773.77002	17089.375
1776.97499	17024.775
1780.17785	17032.775
1783.37861	16982.275
1786.57727	16918.875
1789.77382	16914.775
1792.96828	16925.675
1796.16064	16875.075
1799.3509	16843.675
1802.53907	16832.975
1805.72514	16777.275
1808.90913	16756.275
1812.09102	16705.475
1815.27083	16665.875
1818.44856	16681.375
1821.6242	16644.075
1824.79776	16596.175
1827.96924	16596.475
1831.13864	16559.175
1834.30597	16578.575
1837.47122	16546.675
1840.6344	16533.775
1843.7955	16574.075
1846.95454	16508.475
1850.11151	16527.475
1853.26642	16517.875
1856.41926	16495.375
1859.57004	16505.275
1862.71876	16498.675
1865.86542	16456.175
1869.01003	16474.575
1872.15258	16492.875
1875.29308	16504.075
1878.43152	16437.975
1881.56792	16465.975
1884.70227	16442.775
1887.83457	16432.375
1890.96482	16450.675
1894.09304	16418.675
1897.21921	16409.475
1900.34335	16428.675
1903.46544	16391.075
1906.58551	16415.175
1909.70353	16377.175
1912.81953	16382.275
1915.93349	16342.575
1919.04543	16311.375
1922.15534	16282.675
1925.26322	16245.375
1928.36908	16244.175
1931.47292	16236.775
1934.57473	16157.375
1937.67453	16107.375
1940.77232	16063.975
1943.86808	16057.675
1946.96184	15980.575
1950.05358	15947.575
1953.14331	15902.275
1956.23103	15879.775
1959.31675	15799.175
1962.40046	15801.575
1965.48217	15730.575
1968.56188	15689.275
1971.63959	15644.975
1974.7153	15611.375
1977.78901	15569.175
1980.86073	15519.375
1983.93046	15485.575
1986.99819	15408.775
1990.06394	15350.275
1993.1277	15360.475
1996.18947	15279.575
1999.24925	15246.375
2002.30706	15203.475
2005.36288	15157.775
2008.41672	15126.375
2011.46859	15057.975
2014.51848	15054.575
2017.56639	15028.075
2020.61233	14975.675
2023.6563	14963.575
2026.6983	14925.975
2029.73833	14889.275
2032.7764	14834.475
2035.8125	14779.575
2038.84664	14783.375
2041.87881	14760.275
2044.90903	14761.575
2047.93729	14708.675
2050.96359	14700.775
2053.98794	14688.875
2057.01034	14695.875
2060.03078	14668.275
2063.04927	14652.675
2066.06582	14640.275
2069.08042	14633.975
2072.09307	14589.075
2075.10378	14588.575
2078.11255	14558.175
2081.11938	14571.875
2084.12426	14560.175
2087.12722	14581.175
2090.12824	14572.975
2093.12732	14600.075
2096.12447	14566.475
2099.11969	14549.975
2102.11299	14576.475
2105.10435	14601.475
2108.09379	14579.175
2111.08131	14591.175
2114.0669	14568.175
2117.05057	14598.175
2120.03233	14626.375
2123.01216	14631.975
2125.99008	14655.675
2128.96609	14652.975
2131.94018	14648.975
2134.91236	14644.775
2137.88263	14670.275
2140.851	14680.175
2143.81746	14683.175
2146.78201	14710.675
2149.74466	14700.775
2152.7054	14722.875
2155.66425	14719.875
2158.6212	14728.175
2161.57625	14713.375
2164.52941	14693.775
2167.48067	14707.675
2170.43004	14658.875
2173.37752	14679.075
2176.32311	14682.975
2179.26681	14676.675
2182.20863	14673.075
2185.14856	14701.275
2188.08661	14657.875
2191.02278	14654.875
2193.95707	14634.975
2196.88948	14637.975
2199.82001	14608.975
2202.74867	14621.575
2205.67545	14603.575
2208.60037	14608.475
2211.52341	14583.975
2214.44458	14550.275
2217.36388	14511.875
2220.28132	14495.175
2223.1969	14443.275
2226.11061	14432.575
2229.02246	14402.175
2231.93245	14405.875
2234.84058	14355.075
2237.74686	14349.075
2240.65128	14338.375
2243.55385	14298.375
2246.45456	14278.475
2249.35343	14259.475
2252.25044	14255.175
2255.14561	14227.475
2258.03893	14200.675
2260.93041	14209.975
2263.82004	14181.575
2266.70783	14136.175
2269.59378	14110.875
2272.4779	14079.675
2275.36017	14052.475
2278.24061	14030.575
2281.11922	13946.575
2283.996	13958.075
2286.87094	13951.475
2289.74405	13915.275
2292.61534	13922.575
2295.4848	13874.075
2298.35243	13898.675
2301.21824	13860.875
2304.08223	13872.775
2306.94439	13846.575
2309.80474	13848.475
2312.66327	13839.875
2315.51999	13809.575
2318.37489	13844.975
2321.22797	13812.575
2324.07925	13796.675
2326.92871	13786.175
2329.77637	13788.875
2332.62222	13760.375
2335.46626	13761.975
2338.3085	13743.875
2341.14893	13738.675
2343.98756	13723.275
2346.8244	13679.775
2349.65943	13705.975
2352.49267	13650.175
2355.32411	13673.475
2358.15376	13676.375
2360.98161	13650.075
2363.80768	13694.175
2366.63195	13642.275
2369.45444	13627.275
2372.27514	13611.975
2375.09405	13598.075
2377.91118	13581.475
2380.72652	13545.475
2383.54009	13513.275
2386.35187	13494.775
2389.16188	13453.275
2391.97011	13466.375
2394.77657	13417.075
2397.58125	13375.075
2400.38416	13368.675
2403.18529	13371.275
2405.98466	13330.775
2408.78226	13280.075
2411.57809	13284.175
2414.37216	13249.075
2417.16446	13254.675
2419.955	13235.675
2422.74378	13194.575
2425.5308	13203.375
2428.31606	13161.975
2431.09956	13170.375
2433.88131	13154.075
2436.6613	13182.575
2439.43954	13153.175
2442.21603	13137.275
2444.99077	13139.375
2447.76377	13130.975
2450.53501	13145.675
2453.30451	13090.175
2456.07226	13088.575
2458.83827	13086.675
2461.60254	13039.375
2464.36507	13065.775
2467.12586	13052.175
2469.88492	13023.875
2472.64224	13024.075
2475.39782	13005.175
2478.15167	13039.075
2480.90379	13018.675
2483.65417	13048.075
2486.40283	13029.775
2489.14976	13053.875
2491.89497	13036.875
2494.63845	13053.875
2497.3802	12990.775
2500.12024	13030.575
2502.85855	12999.475
2505.59514	13005.475
2508.33002	12983.475
2511.06318	12995.275
2513.79462	12962.975
2516.52435	12929.775
2519.25237	12891.075
2521.97867	12862.175
2524.70327	12888.275
2527.42616	12867.075
2530.14734	12836.675
2532.86681	12812.475
2535.58458	12824.275
2538.30065	12815.475
2541.01501	12821.975
2543.72768	12793.075
2546.43864	12785.575
2549.14791	12759.075
2551.85548	12731.375
2554.56136	12696.575
2557.26554	12664.475
2559.96803	12631.675
2562.66883	12662.175
2565.36794	12637.375
2568.06536	12633.275
2570.7611	12627.275
2573.45514	12616.575
2576.14751	12587.475
2578.83819	12577.375
2581.52719	12571.275
2584.21451	12533.975
2586.90015	12521.475
2589.58411	12510.175
2592.2664	12497.075
2594.94701	12447.175
2597.62594	12460.975
2600.30321	12452.275
2602.9788	12441.475
2605.65273	12405.275
2608.32498	12407.975
2610.99557	12352.175
2613.66449	12382.075
2616.33175	12355.575
2618.99734	12354.775
2621.66128	12362.475
2624.32355	12355.475
2626.98416	12330.475
2629.64311	12344.875
2632.30041	12327.775
2634.95605	12335.975
2637.61004	12318.675
2640.26238	12275.675
2642.91306	12294.775
2645.56209	12234.375
2648.20948	12243.475
2650.85521	12251.175
2653.4993	12241.975
2656.14175	12238.875
2658.78255	12227.375
2661.42171	12250.175
2664.05923	12241.675
2666.6951	12257.175
2669.32934	12260.875
2671.96194	12254.475
2674.59291	12258.875
2677.22224	12259.975
2679.84993	12268.575
2682.476	12244.675
2685.10043	12231.675
2687.72324	12223.775
2690.34441	12239.575
2692.96396	12241.675
2695.58188	12234.575
2698.19818	12216.475
2700.81285	12237.275
2703.4259	12252.875
2706.03733	12287.675
2708.64714	12250.875
2711.25533	12288.275
2713.86191	12259.675
2716.46687	12267.875
2719.07021	12260.175
2721.67194	12272.475
2724.27206	12249.875
2726.87057	12234.175
2729.46747	12262.175
2732.06276	12244.275
2734.65644	12227.775
2737.24852	12249.775
2739.83899	12222.075
2742.42786	12217.475
2745.01513	12184.475
2747.60079	12191.875
2750.18486	12177.775
2752.76733	12174.575
2755.3482	12164.075
2757.92747	12191.975
2760.50515	12176.375
2763.08123	12165.375
2765.65573	12127.875
2768.22863	12120.075
2770.79994	12114.875
2773.36967	12109.775
2775.9378	12083.575
2778.50435	12085.675
2781.06932	12051.575
2783.6327	12069.375
2786.1945	12043.775
2788.75471	12012.075
2791.31335	12008.775
2793.87041	12001.275
2796.42589	11931.475
2798.97979	11971.075
2801.53212	11931.575
2804.08288	11918.675
2806.63206	11872.575
2809.17967	11876.775
2811.72571	11818.175
2814.27018	11823.675
2816.81308	11809.075
2819.35442	11817.775
2821.89419	11799.175
2824.43239	11784.575
2826.96904	11785.075
2829.50412	11791.975
2832.03763	11757.275
2834.56959	11771.875
2837.1	11790.275
2839.62884	11745.075
2842.15613	11747.875
2844.68186	11777.175
2847.20604	11776.575
2849.72867	11808.075
2852.24974	11814.575
2854.76927	11813.475
2857.28724	11753.475
2859.80367	11772.375
2862.31855	11736.875
2864.83189	11723.475
2867.34368	11690.975
2869.85393	11689.675
2872.36264	11694.875
2874.8698	11682.675
2877.37543	11701.375
2879.87952	11705.875
2882.38207	11725.875
2884.88308	11700.575
2887.38256	11725.975
2889.88051	11710.675
2892.37692	11718.375
2894.8718	11697.075
2897.36515	11707.075
2899.85698	11715.075
2902.34727	11748.875
2904.83604	11754.375
2907.32328	11778.875
2909.809	11740.675
2912.29319	11741.675
2914.77587	11750.075
2917.25702	11771.175
2919.73665	11744.875
2922.21476	11749.975
2924.69136	11746.775
2927.16644	11718.975
2929.64	11719.975
2932.11205	11709.675
2934.58258	11670.475
2937.05161	11696.675
2939.51912	11689.075
2941.98513	11670.375
2944.44962	11615.075
2946.91261	11549.575
2949.37409	11586.475
2951.83407	11553.675
2954.29254	11520.775
2956.74951	11493.375
2959.20498	11468.075
2961.65895	11453.775
2964.11142	11481.575
2966.56239	11398.275
2969.01186	11409.275
2971.45984	11371.075
2973.90632	11360.575
2976.35131	11321.975
2978.7948	11308.175
2981.23681	11267.975
2983.67732	11263.575
2986.11635	11215.975
2988.55388	11183.575
2990.98993	11196.575
2993.4245	11164.275
2995.85758	11111.875
2998.28917	11110.575
3000.71928	11084.875
3003.14791	11063.175
3005.57506	11047.375
3008.00073	11059.375
3010.42493	11043.875
3012.84764	10999.575
3015.26888	10989.775
3017.68865	10979.175
3020.10694	10943.375
3022.52376	10941.475
3024.9391	10935.875
3027.35298	10899.875
3029.76539	10914.775
3032.17632	10881.575
3034.5858	10865.675
3036.9938	10844.375
3039.40034	10840.575
3041.80542	10808.975
3044.20903	10787.975
3046.61118	10799.975
3049.01187	10762.675
3051.4111	10759.175
3053.80888	10746.175
3056.20519	10714.875
3058.60005	10699.575
3060.99345	10651.975
3063.3854	10621.075
3065.7759	10629.875
3068.16494	10610.175
3070.55254	10569.075
3072.93868	10570.075
3075.32338	10524.675
3077.70662	10516.275
3080.08842	10487.775
3082.46878	10464.375
3084.84769	10459.475
3087.22515	10456.575
3089.60118	10472.975
3091.97576	10460.175
3094.3489	10483.675
3096.72061	10471.175
3099.09087	10459.175
3101.4597	10449.475
3103.82709	10418.175
3106.19305	10419.875
3108.55757	10397.275
3110.92066	10387.875
3113.28232	10347.375
3115.64255	10325.275
3118.00134	10310.175
3120.35871	10309.275
3122.71466	10274.375
3125.06917	10286.575
3127.42226	10259.575
3129.77393	10271.675
