Data from AgNP_FTO_APTES_CRN_1uM_R6G_10uM_NaF_0.1M_Addition_RamanShift__4__13-50-10-783.txt Node

Date: Wed Dec 15 13:50:10 GMT 2021
User: TCL
Spectrometer: QEP01345
Trigger mode: 4
Integration Time (sec): 7.000000E0
Scans to average: 10
Electric dark correction enabled: true
Nonlinearity correction enabled: false
Boxcar width: 0
XAxis mode: Raman Shifts
Number of Pixels in Spectrum: 1044
>>>>>Begin Spectral Data<<<<<
46.04893	-0.9
50.45542	-2.5
54.85868	-1.5
59.25871	-2.4
63.6555	168.7
68.04907	180.6
72.43941	190.7
76.82654	195.1
81.21044	206.3
85.59113	211.5
89.96862	224.8
94.34289	221.5
98.71396	234.8
103.08183	241.9
107.4465	248.3
111.80798	250
116.16626	259.8
120.52136	271.2
124.87327	276.1
129.222	288
133.56755	299.2
137.90993	320.9
142.24913	346
146.58517	380.2
150.91804	438
155.24774	520.3
159.57429	632.1
163.89768	810.2
168.21792	1047.9
172.53501	1426.9
176.84895	1969
181.15975	2744.8
185.46741	3824.9
189.77193	5246.8
194.07331	7021.1
198.37157	9016.9
202.6667	11103.9
206.9587	13200.4
211.24758	15253
215.53334	17348.9
219.81599	19528.5
224.09553	22007.9
228.37195	24658.6
232.64527	27591
236.91549	30607
241.18261	33673.3
245.44663	36496.5
249.70755	38989.2
253.96539	41213.6
258.22014	43091.1
262.4718	44691.6
266.72039	45682.8
270.96589	46116.1
275.20832	46103.1
279.44768	45811.2
283.68397	45350.4
287.91719	44903.9
292.14735	44612.2
296.37445	44482.6
300.59849	44618.8
304.81948	44809
309.03742	44923.1
313.25231	44865.4
317.46415	44500.6
321.67296	43946.5
325.87872	43462.1
330.08145	43186.1
334.28114	43224.6
338.47781	43548.5
342.67145	44031.5
346.86207	44654.1
351.04966	45517.3
355.23424	46406.6
359.4158	47236
363.59435	47895.8
367.76989	48398.2
371.94243	48701
376.11196	48933
380.27849	49117.7
384.44203	49480.9
388.60257	49921.4
392.76012	50415.8
396.91468	51093.2
401.06626	51863.9
405.21485	52517.2
409.36047	52794.2
413.50311	52803.2
417.64277	53151.4
421.77947	53577.7
425.9132	54018.1
430.04396	54320.3
434.17176	54603.7
438.2966	54764.8
442.41849	55647.4
446.53742	57297.5
450.6534	59215.4
454.76644	60609.6
458.87653	60817.1
462.98368	59950
467.08789	58628.9
471.18916	57138.9
475.2875	55423.4
479.38291	54253.1
483.4754	53529.4
487.56496	53015.4
491.6516	52685.5
495.73531	52603.9
499.81612	52688.3
503.89401	53393.7
507.96899	53775.4
512.04106	53701.2
516.11023	53364.3
520.1765	52848.6
524.23987	52604.9
528.30034	52284.9
532.35792	51828.2
536.41261	51056.3
540.46441	50290.6
544.51333	50037.1
548.55936	50375.4
552.60252	51308.4
556.64279	52413.3
560.6802	53308.3
564.71473	53762.4
568.7464	54492.8
572.7752	55888.6
576.80114	57899.9
580.82422	60499.2
584.84444	63993
588.86181	67793.5
592.87633	70448.8
596.888	69629.6
600.89682	65990
604.9028	64764.5
608.90594	67794.8
612.90624	70545.1
616.90371	66033.7
620.89834	57541.3
624.89015	53753.3
628.87913	53033.8
632.86528	52800
636.84862	52021.2
640.82913	50861.1
644.80683	49694.7
648.78172	49272.9
652.75379	49537.7
656.72306	50249.9
660.68952	50816.5
664.65319	50493.3
668.61405	49840.1
672.57211	49870.1
676.52738	50153.7
680.47986	50064.8
684.42955	49599.5
688.37646	49466.5
692.32058	50015.5
696.26192	51031
700.20048	51980.4
704.13626	52385.2
708.06928	52201.6
711.99952	51911
715.927	52172.2
719.85171	52715.4
723.77365	52515
727.69284	51551.1
731.60928	50648.3
735.52295	50276.6
739.43388	50298
743.34206	50486.1
747.24749	50811.9
751.15017	51341
755.05012	52205
758.94733	53557.6
762.8418	55591.6
766.73354	58370
770.62254	60731.9
774.50882	60538.3
778.39237	58005.7
782.27321	54944.9
786.15132	52530.2
790.02671	51191.3
793.89938	50693.3
797.76935	50608.8
801.6366	50762.8
805.50115	50755.2
809.36299	50462.2
813.22213	49912
817.07857	49452
820.93231	49184.8
824.78336	49048.3
828.63172	48855.5
832.47738	48857.6
836.32036	49071.7
840.16066	49420
843.99827	49679
847.8332	49581
851.66546	49343.7
855.49504	49233.9
859.32195	49183.9
863.1462	49035.1
866.96777	48752.7
870.78668	48668.9
874.60293	48723.6
878.41652	48766.1
882.22745	49030.1
886.03573	49193
889.84136	49176
893.64433	48926.1
897.44466	48578
901.24235	48457.7
905.0374	48439.8
908.8298	48408.4
912.61957	48592.9
916.40671	49109
920.19121	49861.1
923.97308	50761.9
927.75233	51181
931.52895	50739.1
935.30295	49894.5
939.07433	49070.1
942.84309	48574.5
946.60924	48481.5
950.37278	48560.1
954.13371	48443.4
957.89203	48229.7
961.64774	48146.2
965.40086	48128.3
969.15137	48093.6
972.89929	47905.6
976.64461	47893.7
980.38733	48061.9
984.12747	48388.9
987.86502	48902.9
991.59999	49540.8
995.33237	50665
999.06217	52366.8
1002.78939	54504
1006.51404	56349.7
1010.23611	57410.5
1013.95561	57954.1
1017.67255	57561.8
1021.38692	56597.1
1025.09872	55711.5
1028.80796	56276.6
1032.51465	58290.9
1036.21877	60357.2
1039.92035	60625
1043.61937	59760.5
1047.31584	57950.2
1051.00976	56003.8
1054.70114	54863.6
1058.38998	54590.6
1062.07627	54733.3
1065.76003	55155.1
1069.44126	56112.5
1073.11995	57576.1
1076.79611	58867.2
1080.46974	59224.5
1084.14085	59230.7
1087.80943	59204.4
1091.47549	58972.5
1095.13903	58437.6
1098.80005	57380.5
1102.45857	56116.8
1106.11456	55188.8
1109.76805	54811.3
1113.41903	54843.2
1117.06751	54936.2
1120.71348	55080.9
1124.35696	55323.4
1127.99793	55739.7
1131.63641	56268.8
1135.2724	56468.6
1138.90589	56582.3
1142.5369	56915.8
1146.16542	57280.7
1149.79145	57704.1
1153.415	58181.2
1157.03607	59195.7
1160.65467	61366.8
1164.27079	64839.4
1167.88443	68575
1171.49561	72043.9
1175.10432	76112.7
1178.71056	81672.3
1182.31434	87332.5
1185.91565	89964.7
1189.51451	89056.1
1193.11091	86022.1
1196.70485	82676.1
1200.29634	79951
1203.88538	78468.6
1207.47197	77954.7
1211.05612	77275.5
1214.63782	76100.9
1218.21708	74591.3
1221.79391	73010.3
1225.36829	71782.3
1228.94024	70584.7
1232.50976	68951.2
1236.07685	67464.2
1239.6415	66632.6
1243.20374	66582.5
1246.76355	67486.9
1250.32093	68953.7
1253.8759	70994.8
1257.42845	73169.8
1260.97859	75529.6
1264.52631	77965.2
1268.07163	80658.5
1271.61453	83457.2
1275.15503	86317.4
1278.69312	89356.2
1282.22882	92055.3
1285.76211	95072.6
1289.29301	98362.5
1292.82151	102276.1
1296.34761	107464.6
1299.87133	114552.2
1303.39266	122465.5
1306.9116	129391.4
1310.42815	134089.1
1313.94233	135665.7
1317.45412	133816.4
1320.96354	130169.8
1324.47058	127086.5
1327.97525	125248.7
1331.47754	124515.2
1334.97747	123840.5
1338.47502	122139.4
1341.97022	118368.6
1345.46305	113699.5
1348.95352	110724.4
1352.44163	111437.2
1355.92738	116501.7
1359.41078	123895.7
1362.89183	128960.1
1366.37053	127724.9
1369.84688	119051.6
1373.32088	105928.2
1376.79254	96113
1380.26186	92550.2
1383.72883	92885.4
1387.19347	92939.2
1390.65578	91245.4
1394.11575	90216.5
1397.57339	90993.6
1401.0287	93231.6
1404.48168	95733.3
1407.93234	97084
1411.38068	96765.1
1414.82669	94621.5
1418.27039	91240.1
1421.71177	87242.9
1425.15083	83773.4
1428.58758	82242.3
1432.02203	83401.7
1435.45416	86424.2
1438.88399	89929.5
1442.31151	92245.3
1445.73673	93236.6
1449.15965	93148.9
1452.58027	92131.1
1455.9986	90599.5
1459.41463	89940.9
1462.82837	91041.3
1466.23982	93575.7
1469.64898	96320.1
1473.05586	98531.8
1476.46045	99676.6
1479.86276	99595.2
1483.26279	98640.7
1486.66054	97893.5
1490.05602	97898.9
1493.44922	97717
1496.84016	96768.4
1500.22882	95816.3
1503.61521	95279.7
1506.99934	95364.8
1510.38121	95687.5
1513.76081	95193.3
1517.13816	93658.5
1520.51324	92053.7
1523.88607	91367
1527.25665	92111.7
1530.62498	93270.2
1533.99105	93982.5
1537.35488	93489.6
1540.71647	91921.2
1544.07581	89917.8
1547.4329	87578.3
1550.78776	85277.1
1554.14038	83326.8
1557.49077	81851.3
1560.83892	80618.9
1564.18484	79851.7
1567.52853	79551.1
1570.86999	80276.3
1574.20922	82071.5
1577.54624	84290.5
1580.88103	86358.8
1584.2136	89231.4
1587.54395	94003.8
1590.87208	100984.5
1594.19801	109420.4
1597.52172	116673.2
1600.84321	118242.9
1604.16251	111621.2
1607.47959	100080.9
1610.79447	88199.2
1614.10715	78456.7
1617.41763	71713.8
1620.7259	67816.2
1624.03199	66249
1627.33587	66941.8
1630.63757	69565.9
1633.93707	74661.4
1637.23439	82886.9
1640.52951	94802.7
1643.82246	108516
1647.11321	118097.7
1650.40179	116798.9
1653.68819	104566.2
1656.97241	88166.2
1660.25446	74213.5
1663.53433	65011.8
1666.81203	59465.4
1670.08756	56193.1
1673.36092	53974.6
1676.63211	52599.2
1679.90115	51624.5
1683.16801	50821.5
1686.43272	50259.1
1689.69527	49885.9
1692.95567	49614.9
1696.2139	49432.3
1699.46999	49216.5
1702.72392	49121
1705.97571	49014.1
1709.22535	48903
1712.47284	48925.5
1715.71819	48853.4
1718.96139	48730.1
1722.20246	48563.2
1725.44139	48336
1728.67818	48195.4
1731.91284	47847.8
1735.14537	47644.6
1738.37576	47410.2
1741.60403	47280.1
1744.83017	47155.9
1748.05418	46992.4
1751.27607	46934.9
1754.49584	46856.7
1757.71349	46784.4
1760.92903	46774.7
1764.14244	46784.6
1767.35375	46785.9
1770.56294	46725.4
1773.77002	46701.8
1776.97499	46666.2
1780.17785	46616
1783.37861	46592.3
1786.57727	46565.9
1789.77382	46429.5
1792.96828	46360.9
1796.16064	46294.5
1799.3509	46211.9
1802.53907	46205.8
1805.72514	46034.5
1808.90913	45953.6
1812.09102	45930.8
1815.27083	45813.7
1818.44856	45750.9
1821.6242	45751.8
1824.79776	45739.9
1827.96924	45736.3
1831.13864	45669.3
1834.30597	45755.6
1837.47122	45736.9
1840.6344	45708.8
1843.7955	45760.1
1846.95454	45682.4
1850.11151	45676.9
1853.26642	45673
1856.41926	45691.6
1859.57004	45704.2
1862.71876	45662.8
1865.86542	45681.7
1869.01003	45724.8
1872.15258	45694.9
1875.29308	45662
1878.43152	45600.7
1881.56792	45630.3
1884.70227	45612
1887.83457	45614.5
1890.96482	45647
1894.09304	45500.9
1897.21921	45456.6
1900.34335	45430.8
1903.46544	45397.5
1906.58551	45355.7
1909.70353	45333.8
1912.81953	45305.5
1915.93349	45212.5
1919.04543	45177
1922.15534	45088.2
1925.26322	44980.2
1928.36908	44901.9
1931.47292	44832.4
1934.57473	44758.8
1937.67453	44627.5
1940.77232	44537.1
1943.86808	44419
1946.96184	44294.2
1950.05358	44143.7
1953.14331	44054.6
1956.23103	43990.4
1959.31675	43946.4
1962.40046	43839.1
1965.48217	43702.1
1968.56188	43621.4
1971.63959	43471.2
1974.7153	43363.5
1977.78901	43224.5
1980.86073	43143.4
1983.93046	43021.4
1986.99819	42917.6
1990.06394	42813.7
1993.1277	42781.4
1996.18947	42641
1999.24925	42488.5
2002.30706	42400.2
2005.36288	42291.5
2008.41672	42234.1
2011.46859	42084
2014.51848	42075.7
2017.56639	41963.7
2020.61233	41874.8
2023.6563	41854.7
2026.6983	41794.1
2029.73833	41754.7
2032.7764	41742.3
2035.8125	41681.4
2038.84664	41644.6
2041.87881	41655.2
2044.90903	41510.1
2047.93729	41470.5
2050.96359	41425.8
2053.98794	41411.6
2057.01034	41344.5
2060.03078	41310.2
2063.04927	41262.9
2066.06582	41277.2
2069.08042	41287.6
2072.09307	41177.8
2075.10378	41148.5
2078.11255	41124.5
2081.11938	41169.3
2084.12426	41109.4
2087.12722	41083.5
2090.12824	41056.6
2093.12732	41066.5
2096.12447	41081.5
2099.11969	41154.9
2102.11299	41171.6
2105.10435	41217.9
2108.09379	41172.3
2111.08131	41204.9
2114.0669	41220.1
2117.05057	41274.4
2120.03233	41301.4
2123.01216	41372.4
2125.99008	41392.3
2128.96609	41452.6
2131.94018	41496.7
2134.91236	41493.5
2137.88263	41523.7
2140.851	41526.2
2143.81746	41612.6
2146.78201	41583.3
2149.74466	41636.7
2152.7054	41687.9
2155.66425	41755.6
2158.6212	41731.7
2161.57625	41760.8
2164.52941	41761.4
2167.48067	41696.4
2170.43004	41705.3
2173.37752	41610.4
2176.32311	41673
2179.26681	41674.4
2182.20863	41679.7
2185.14856	41751.4
2188.08661	41748.5
2191.02278	41826.6
2193.95707	41797.7
2196.88948	41825.3
2199.82001	41832.2
2202.74867	41790.3
2205.67545	41720.1
2208.60037	41696.1
2211.52341	41752.7
2214.44458	41710.7
2217.36388	41635.4
2220.28132	41633.9
2223.1969	41545.1
2226.11061	41536
2229.02246	41464
2231.93245	41442.4
2234.84058	41365.1
2237.74686	41269.2
2240.65128	41278.4
2243.55385	41268.2
2246.45456	41160.4
2249.35343	41101.6
2252.25044	40997.8
2255.14561	40956.3
2258.03893	40952.7
2260.93041	40885.4
2263.82004	40729
2266.70783	40661.4
2269.59378	40616
2272.4779	40538
2275.36017	40368.4
2278.24061	40316.7
2281.11922	40285.3
2283.996	40284.2
2286.87094	40262
2289.74405	40200.9
2292.61534	40227.6
2295.4848	40235.3
2298.35243	40323.1
2301.21824	40342.5
2304.08223	40346.8
2306.94439	40453.8
2309.80474	40409.9
2312.66327	40458.4
2315.51999	40407
2318.37489	40464.8
2321.22797	40487.8
2324.07925	40494.1
2326.92871	40479.4
2329.77637	40451.6
2332.62222	40428
2335.46626	40453.5
2338.3085	40481.2
2341.14893	40511.3
2343.98756	40506.8
2346.8244	40499.7
2349.65943	40496.9
2352.49267	40436.7
2355.32411	40374.4
2358.15376	40324.5
2360.98161	40267.3
2363.80768	40213.3
2366.63195	40226.9
2369.45444	40149.2
2372.27514	40078.5
2375.09405	40073.5
2377.91118	39957.4
2380.72652	39824
2383.54009	39768.1
2386.35187	39737.1
2389.16188	39728.4
2391.97011	39718.8
2394.77657	39652.4
2397.58125	39668.4
2400.38416	39601
2403.18529	39574.6
2405.98466	39520.5
2408.78226	39436.2
2411.57809	39377.3
2414.37216	39342.6
2417.16446	39353.7
2419.955	39273.4
2422.74378	39230.9
2425.5308	39191.2
2428.31606	39183.5
2431.09956	39135.1
2433.88131	39110.4
2436.6613	39154.5
2439.43954	39146.6
2442.21603	39130.6
2444.99077	39115.3
2447.76377	39125.7
2450.53501	39082.8
2453.30451	39144.4
2456.07226	39134
2458.83827	39112.7
2461.60254	39155.3
2464.36507	39151.2
2467.12586	39141.3
2469.88492	39126.4
2472.64224	39150.2
2475.39782	39257.8
2478.15167	39233.4
2480.90379	39317
2483.65417	39336.3
2486.40283	39314.4
2489.14976	39317.4
2491.89497	39297.5
2494.63845	39346.4
2497.3802	39332.3
2500.12024	39381.4
2502.85855	39392.1
2505.59514	39417.9
2508.33002	39342.7
2511.06318	39281
2513.79462	39267.3
2516.52435	39280.5
2519.25237	39309.4
2521.97867	39333
2524.70327	39321.9
2527.42616	39230.2
2530.14734	39271.3
2532.86681	39243.2
2535.58458	39212.8
2538.30065	39252.6
2541.01501	39233.3
2543.72768	39199.1
2546.43864	39145.1
2549.14791	39067
2551.85548	39176.1
2554.56136	39131.8
2557.26554	39111.4
2559.96803	39091
2562.66883	39093.7
2565.36794	39096.3
2568.06536	39080.2
2570.7611	39097.5
2573.45514	39092.5
2576.14751	39096.4
2578.83819	39013
2581.52719	39090.1
2584.21451	39064.1
2586.90015	39068.9
2589.58411	39034.1
2592.2664	39072.8
2594.94701	38971.9
2597.62594	39002.1
2600.30321	38997.8
2602.9788	38996.5
2605.65273	38962.3
2608.32498	39021.1
2610.99557	39005.3
2613.66449	39057.2
2616.33175	39048.1
2618.99734	39065.1
2621.66128	39024
2624.32355	39010.3
2626.98416	38992.6
2629.64311	38976.3
2632.30041	38974.9
2634.95605	38908.4
2637.61004	38862.7
2640.26238	38849.6
2642.91306	38836.5
2645.56209	38783.2
2648.20948	38799.6
2650.85521	38809.5
2653.4993	38844.5
2656.14175	38821.3
2658.78255	38803.7
2661.42171	38851.3
2664.05923	38890
2666.6951	38891.7
2669.32934	38996
2671.96194	39028.6
2674.59291	39079.8
2677.22224	39021.2
2679.84993	38981.5
2682.476	38948.7
2685.10043	39000.7
2687.72324	38955.5
2690.34441	38981.6
2692.96396	38924.9
2695.58188	38910.1
2698.19818	38862.6
2700.81285	38917.8
2703.4259	38900
2706.03733	39007.5
2708.64714	39014.9
2711.25533	39106.4
2713.86191	39044.4
2716.46687	39096.6
2719.07021	39085.8
2721.67194	39147.9
2724.27206	39148.2
2726.87057	39145.4
2729.46747	39162.1
2732.06276	39224.8
2734.65644	39201.5
2737.24852	39231.9
2739.83899	39257.3
2742.42786	39330.7
2745.01513	39317.6
2747.60079	39363.8
2750.18486	39326
2752.76733	39348.2
2755.3482	39300.8
2757.92747	39234.9
2760.50515	39200.5
2763.08123	39266.5
2765.65573	39226.9
2768.22863	39198.3
2770.79994	39184.5
2773.36967	39314.7
2775.9378	39263.2
2778.50435	39235.7
2781.06932	39215.7
2783.6327	39211.9
2786.1945	39181.6
2788.75471	39183.6
2791.31335	39155.1
2793.87041	39124.2
2796.42589	38960.5
2798.97979	38924.7
2801.53212	38798.1
2804.08288	38887.1
2806.63206	38744.9
2809.17967	38708.2
2811.72571	38595.4
2814.27018	38652.5
2816.81308	38601.3
2819.35442	38546
2821.89419	38440.2
2824.43239	38455.2
2826.96904	38400.8
2829.50412	38352.1
2832.03763	38299.4
2834.56959	38282.2
2837.1	38253.4
2839.62884	38268.3
2842.15613	38166.6
2844.68186	38195.5
2847.20604	38141.7
2849.72867	38139.5
2852.24974	38108.9
2854.76927	38105.8
2857.28724	38103.2
2859.80367	38100
2862.31855	37987.6
2864.83189	37953.4
2867.34368	37966.5
2869.85393	37963.4
2872.36264	37977.4
2874.8698	37929.9
2877.37543	37970.3
2879.87952	38005.4
2882.38207	37995.1
2884.88308	37991.5
2887.38256	38060.4
2889.88051	38056.1
2892.37692	38095.7
2894.8718	38172.7
2897.36515	38190.3
2899.85698	38209.3
2902.34727	38269.4
2904.83604	38280.2
2907.32328	38315.2
2909.809	38307.3
2912.29319	38340.9
2914.77587	38371.1
2917.25702	38324.8
2919.73665	38291.9
2922.21476	38386.8
2924.69136	38350.3
2927.16644	38311
2929.64	38263.1
2932.11205	38249.9
2934.58258	38133.7
2937.05161	38195.9
2939.51912	38175.2
2941.98513	38141.4
2944.44962	38088.1
2946.91261	37955
2949.37409	38088
2951.83407	37993.2
2954.29254	38014.3
2956.74951	38024.8
2959.20498	38051.9
2961.65895	37948.9
2964.11142	37954.4
2966.56239	37904.8
2969.01186	37830.2
2971.45984	37721.9
2973.90632	37694
2976.35131	37626.3
2978.7948	37553.4
2981.23681	37473.6
2983.67732	37427.1
2986.11635	37321.4
2988.55388	37192.3
2990.98993	37135.1
2993.4245	37077
2995.85758	36984.5
2998.28917	36962.1
3000.71928	36933.2
3003.14791	36859.5
3005.57506	36808.3
3008.00073	36679.1
3010.42493	36750.9
3012.84764	36653.9
3015.26888	36654.9
3017.68865	36560.4
3020.10694	36456.8
3022.52376	36386.4
3024.9391	36403.4
3027.35298	36288.9
3029.76539	36293.8
3032.17632	36236.4
3034.5858	36181.2
3036.9938	36173.5
3039.40034	36092.3
3041.80542	36129.5
3044.20903	36067.9
3046.61118	36036.6
3049.01187	35916
3051.4111	35964.7
3053.80888	35865.9
3056.20519	35875.7
3058.60005	35771.2
3060.99345	35717.8
3063.3854	35691.5
3065.7759	35538
3068.16494	35494.3
3070.55254	35372.1
3072.93868	35311.7
3075.32338	35203.7
3077.70662	35113.5
3080.08842	35029.5
3082.46878	35075.8
3084.84769	34975.4
3087.22515	35031.6
3089.60118	35006.1
3091.97576	34972.9
3094.3489	34956.6
3096.72061	34978.6
3099.09087	34930.7
3101.4597	34883.8
3103.82709	34867.2
3106.19305	34843.4
3108.55757	34835.2
3110.92066	34682.6
3113.28232	34619.8
3115.64255	34512
3118.00134	34482
3120.35871	34426
3122.71466	34361.2
3125.06917	34345.1
3127.42226	34281.2
3129.77393	34261.2
3132.12417	34199.6
3134.47299	34185.6
3136.82039	34196.5
3139.16636	34223
3141.51092	34216
3143.85406	34184.4
3146.19579	34206.5
3148.53609	34154.5
3150.87499	34166.8
3153.21246	34088.6
3155.54853	34109
3157.88318	33995.5
3160.21642	34063.3
3162.54826	34003.2
3164.87868	33970.9
3167.2077	33972.8
3169.5353	33995.3
3171.86151	33932
3174.18631	33917.4
3176.5097	33881.3
3178.83169	33878.2
3181.15228	33857.8
3183.47147	33835.2
3185.78926	33788
3188.10565	33738.5
3190.42065	33726
3192.73424	33763.7
3195.04645	33757.8
3197.35725	33736.9
3199.66667	33716
3201.97469	33715.1
3204.28132	33607.4
3206.58656	33676.5
3208.8904	33612.1
3211.19287	33621.4
3213.49394	33594.4
3215.79363	33533.7
3218.09193	33593.9
3220.38884	33607.3
3222.68438	33618.7
3224.97853	33521.3
3227.2713	33493.9
3229.56269	33505.2
3231.8527	33521.8
3234.14133	33525.7
3236.42858	33429.5
3238.71446	33428.2
3240.99896	33404.5
3243.28209	33319.5
3245.56384	33246.7
3247.84423	33293.7
3250.12324	33261.8
3252.40088	33212.1
3254.67715	33192.8
3256.95205	33124.1
3259.22558	33129.3
3261.49775	33033.9
3263.76855	33059.8
3266.03799	32996.7
3268.30606	32999
3270.57277	32921.3
3272.83812	32877.9
3275.10211	32818
3277.36474	32812
3279.62601	32812.8
3281.88593	32767.2
3284.14448	32816
3286.40168	32802.7
3288.65753	32778.4
3290.91202	32759.9
3293.16516	32594.5
3295.41695	32554
3297.66738	32380.5
3299.91647	32253.6
3302.16421	32054.2
3304.4106	31941.1
3306.65564	31763.6
3308.89933	31584.7
3311.14169	31379.9
3313.38269	31133.3
3315.62236	30963.2
3317.86068	30706.7
3320.09766	30505.4
3322.3333	30155.7
3324.5676	30144
3326.80056	29675.6
3329.03219	29530.2
3331.26248	7.3
3333.49143	0.7
3335.71905	0.1
