Data from AgNP_FTO_APTES_CRN_200uM_R6G_10uM_NaF_0.1M_Addition_RamanShift__21__19-41-28-184.txt Node

Date: Wed Dec 15 19:41:28 GMT 2021
User: TCL
Spectrometer: QEP01345
Trigger mode: 4
Integration Time (sec): 7.000000E0
Scans to average: 10
Electric dark correction enabled: true
Nonlinearity correction enabled: false
Boxcar width: 0
XAxis mode: Raman Shifts
Number of Pixels in Spectrum: 1044
>>>>>Begin Spectral Data<<<<<
46.04893	-0.2375
50.45542	-2.0375
54.85868	-0.6375
59.25871	-0.9375
63.6555	54.4625
68.04907	59.5625
72.43941	59.2625
76.82654	65.6625
81.21044	69.6625
85.59113	69.5625
89.96862	74.4625
94.34289	79.3625
98.71396	96.1625
103.08183	91.3625
107.4465	88.3625
111.80798	88.1625
116.16626	87.5625
120.52136	91.2625
124.87327	91.4625
129.222	96.9625
133.56755	99.3625
137.90993	107.2625
142.24913	114.0625
146.58517	125.7625
150.91804	144.8625
155.24774	165.1625
159.57429	205.5625
163.89768	256.1625
168.21792	333.4625
172.53501	456.3625
176.84895	627.0625
181.15975	885.6625
185.46741	1221.2625
189.77193	1691.7625
194.07331	2265.8625
198.37157	2905.5625
202.6667	3595.2625
206.9587	4270.6625
211.24758	4941.5625
215.53334	5609.5625
219.81599	6300.0625
224.09553	7032.9625
228.37195	7895.2625
232.64527	8826.9625
236.91549	9801.4625
241.18261	10759.4625
245.44663	11729.0625
249.70755	12539.2625
253.96539	13329.1625
258.22014	13951.0625
262.4718	14473.5625
266.72039	14840.2625
270.96589	15019.2625
275.20832	15086.2625
279.44768	14981.1625
283.68397	14851.5625
287.91719	14723.0625
292.14735	14641.0625
296.37445	14583.5625
300.59849	14592.7625
304.81948	14568.5625
309.03742	14506.5625
313.25231	14366.0625
317.46415	14086.8625
321.67296	13873.8625
325.87872	13637.3625
330.08145	13540.4625
334.28114	13540.4625
338.47781	13654.9625
342.67145	13789.3625
346.86207	13943.7625
351.04966	14171.2625
355.23424	14384.7625
359.4158	14576.9625
363.59435	14721.9625
367.76989	14816.7625
371.94243	14932.6625
376.11196	15007.8625
380.27849	15112.0625
384.44203	15208.4625
388.60257	15341.8625
392.76012	15515.3625
396.91468	15677.7625
401.06626	15846.9625
405.21485	15975.4625
409.36047	15940.9625
413.50311	15804.4625
417.64277	15704.2625
421.77947	15650.0625
425.9132	15723.9625
430.04396	15839.6625
434.17176	15982.7625
438.2966	16189.9625
442.41849	16471.6625
446.53742	16931.1625
450.6534	17381.2625
454.76644	17722.4625
458.87653	17855.3625
462.98368	17742.1625
467.08789	17581.9625
471.18916	17439.5625
475.2875	17385.6625
479.38291	17361.1625
483.4754	17255.4625
487.56496	17042.2625
491.6516	16745.1625
495.73531	16504.5625
499.81612	16341.4625
503.89401	16374.2625
507.96899	16461.6625
512.04106	16411.7625
516.11023	16396.5625
520.1765	16364.9625
524.23987	16376.7625
528.30034	16283.7625
532.35792	16220.1625
536.41261	16118.7625
540.46441	15976.6625
544.51333	15958.2625
548.55936	16094.2625
552.60252	16358.3625
556.64279	16747.7625
560.6802	16992.2625
564.71473	17106.5625
568.7464	17254.9625
572.7752	17488.4625
576.80114	17672.2625
580.82422	17823.1625
584.84444	18020.6625
588.86181	18433.9625
592.87633	18945.3625
596.888	19261.1625
600.89682	19058.9625
604.9028	19070.6625
608.90594	19738.5625
612.90624	20509.3625
616.90371	19469.1625
620.89834	17235.8625
624.89015	16261.2625
628.87913	16169.6625
632.86528	16244.0625
636.84862	16287.9625
640.82913	16197.5625
644.80683	15899.5625
648.78172	15668.7625
652.75379	15632.5625
656.72306	15702.5625
660.68952	15834.3625
664.65319	15776.6625
668.61405	15635.5625
672.57211	15608.6625
676.52738	15666.0625
680.47986	15709.1625
684.42955	15631.6625
688.37646	15610.0625
692.32058	15592.4625
696.26192	15694.5625
700.20048	15829.3625
704.13626	15908.9625
708.06928	15912.1625
711.99952	15849.1625
715.927	15844.2625
719.85171	15867.3625
723.77365	15786.0625
727.69284	15690.5625
731.60928	15579.1625
735.52295	15572.1625
739.43388	15561.6625
743.34206	15572.8625
747.24749	15630.2625
751.15017	15702.0625
755.05012	15877.7625
758.94733	16184.0625
762.8418	16743.7625
766.73354	17575.3625
770.62254	18454.6625
774.50882	18568.5625
778.39237	17892.7625
782.27321	16895.4625
786.15132	16095.6625
790.02671	15604.5625
793.89938	15385.0625
797.76935	15291.3625
801.6366	15277.4625
805.50115	15288.1625
809.36299	15240.0625
813.22213	15190.2625
817.07857	15202.6625
820.93231	15176.2625
824.78336	15111.3625
828.63172	15094.4625
832.47738	15058.3625
836.32036	15098.6625
840.16066	15082.4625
843.99827	15087.2625
847.8332	15029.5625
851.66546	15007.3625
855.49504	15010.8625
859.32195	15002.2625
863.1462	14995.3625
866.96777	14954.4625
870.78668	14941.3625
874.60293	14949.2625
878.41652	14955.1625
882.22745	15007.3625
886.03573	14964.7625
889.84136	15009.4625
893.64433	14966.8625
897.44466	14916.2625
901.24235	14863.4625
905.0374	14804.6625
908.8298	14804.3625
912.61957	14841.3625
916.40671	14928.3625
920.19121	15061.8625
923.97308	15144.1625
927.75233	15197.7625
931.52895	15119.4625
935.30295	14966.0625
939.07433	14771.3625
942.84309	14593.7625
946.60924	14518.3625
950.37278	14463.2625
954.13371	14464.7625
957.89203	14463.0625
961.64774	14431.7625
965.40086	14417.0625
969.15137	14329.9625
972.89929	14295.8625
976.64461	14216.5625
980.38733	14197.1625
984.12747	14232.2625
987.86502	14277.1625
991.59999	14401.6625
995.33237	14507.7625
999.06217	14757.0625
1002.78939	15014.1625
1006.51404	15198.9625
1010.23611	15349.4625
1013.95561	15444.5625
1017.67255	15482.9625
1021.38692	15329.8625
1025.09872	15193.2625
1028.80796	15102.9625
1032.51465	15178.8625
1036.21877	15337.1625
1039.92035	15384.0625
1043.61937	15370.1625
1047.31584	15294.5625
1051.00976	15257.0625
1054.70114	15263.3625
1058.38998	15392.8625
1062.07627	15573.8625
1065.76003	15833.8625
1069.44126	16126.2625
1073.11995	16475.8625
1076.79611	16742.6625
1080.46974	16723.4625
1084.14085	16489.6625
1087.80943	16264.4625
1091.47549	16163.9625
1095.13903	16049.2625
1098.80005	15890.2625
1102.45857	15597.1625
1106.11456	15372.3625
1109.76805	15339.6625
1113.41903	15337.2625
1117.06751	15461.2625
1120.71348	15566.0625
1124.35696	15729.7625
1127.99793	15849.5625
1131.63641	16007.0625
1135.2724	15949.5625
1138.90589	15839.4625
1142.5369	15789.8625
1146.16542	15823.7625
1149.79145	15926.2625
1153.415	16079.6625
1157.03607	16272.1625
1160.65467	16611.8625
1164.27079	17146.8625
1167.88443	17871.1625
1171.49561	18824.9625
1175.10432	20041.3625
1178.71056	21464.4625
1182.31434	22602.7625
1185.91565	23033.5625
1189.51451	22708.8625
1193.11091	22039.3625
1196.70485	21279.9625
1200.29634	20591.0625
1203.88538	20074.7625
1207.47197	19772.8625
1211.05612	19497.7625
1214.63782	19244.3625
1218.21708	18996.2625
1221.79391	18768.5625
1225.36829	18606.8625
1228.94024	18394.6625
1232.50976	18143.8625
1236.07685	17885.8625
1239.6415	17801.1625
1243.20374	17808.7625
1246.76355	17896.9625
1250.32093	18096.0625
1253.8759	18375.4625
1257.42845	18739.5625
1260.97859	19066.6625
1264.52631	19406.3625
1268.07163	19758.5625
1271.61453	20162.6625
1275.15503	20630.9625
1278.69312	21101.3625
1282.22882	21589.2625
1285.76211	22162.2625
1289.29301	22887.3625
1292.82151	23862.6625
1296.34761	24964.3625
1299.87133	26226.0625
1303.39266	27475.9625
1306.9116	28750.1625
1310.42815	30019.9625
1313.94233	30923.1625
1317.45412	31155.5625
1320.96354	30858.2625
1324.47058	30379.4625
1327.97525	29849.7625
1331.47754	29390.4625
1334.97747	29155.9625
1338.47502	28903.1625
1341.97022	28603.8625
1345.46305	28076.4625
1348.95352	27605.3625
1352.44163	27421.0625
1355.92738	27876.8625
1359.41078	28782.4625
1362.89183	29706.8625
1366.37053	29469.9625
1369.84688	27665.7625
1373.32088	25221.7625
1376.79254	23495.9625
1380.26186	22855.4625
1383.72883	22901.4625
1387.19347	23004.3625
1390.65578	22910.0625
1394.11575	23015.6625
1397.57339	23372.5625
1401.0287	23867.3625
1404.48168	24219.9625
1407.93234	24273.9625
1411.38068	23843.4625
1414.82669	23090.2625
1418.27039	22076.9625
1421.71177	21092.1625
1425.15083	20313.3625
1428.58758	19859.4625
1432.02203	19856.7625
1435.45416	20270.5625
1438.88399	20835.9625
1442.31151	21278.1625
1445.73673	21664.2625
1449.15965	22007.0625
1452.58027	22292.1625
1455.9986	22405.1625
1459.41463	22527.0625
1462.82837	22826.9625
1466.23982	23202.3625
1469.64898	23465.4625
1473.05586	23627.1625
1476.46045	23608.3625
1479.86276	23461.7625
1483.26279	23174.4625
1486.66054	22934.0625
1490.05602	22840.7625
1493.44922	22829.4625
1496.84016	22772.5625
1500.22882	22897.7625
1503.61521	23195.4625
1506.99934	23751.8625
1510.38121	24252.7625
1513.76081	24382.0625
1517.13816	24006.6625
1520.51324	23366.0625
1523.88607	22786.4625
1527.25665	22512.3625
1530.62498	22460.5625
1533.99105	22488.7625
1537.35488	22417.6625
1540.71647	22201.5625
1544.07581	21896.3625
1547.4329	21448.9625
1550.78776	21070.4625
1554.14038	20823.3625
1557.49077	20670.5625
1560.83892	20646.4625
1564.18484	20710.7625
1567.52853	20899.6625
1570.86999	21242.6625
1574.20922	21913.2625
1577.54624	22587.9625
1580.88103	22973.6625
1584.2136	23149.5625
1587.54395	23285.6625
1590.87208	23720.1625
1594.19801	24481.5625
1597.52172	25388.2625
1600.84321	25741.9625
1604.16251	24903.4625
1607.47959	23225.8625
1610.79447	21391.3625
1614.10715	19703.3625
1617.41763	18386.8625
1620.7259	17605.9625
1624.03199	17176.0625
1627.33587	17171.1625
1630.63757	17570.6625
1633.93707	18458.0625
1637.23439	19921.4625
1640.52951	22080.3625
1643.82246	24544.5625
1647.11321	26471.1625
1650.40179	26850.8625
1653.68819	25221.0625
1656.97241	22417.5625
1660.25446	19612.9625
1663.53433	17506.4625
1666.81203	16117.0625
1670.08756	15262.7625
1673.36092	14710.9625
1676.63211	14340.0625
1679.90115	14090.0625
1683.16801	13874.7625
1686.43272	13730.2625
1689.69527	13608.9625
1692.95567	13559.4625
1696.2139	13521.8625
1699.46999	13492.7625
1702.72392	13455.2625
1705.97571	13381.8625
1709.22535	13342.1625
1712.47284	13329.6625
1715.71819	13282.1625
1718.96139	13252.1625
1722.20246	13195.5625
1725.44139	13160.7625
1728.67818	13066.2625
1731.91284	13036.0625
1735.14537	12967.6625
1738.37576	12956.3625
1741.60403	12894.9625
1744.83017	12880.8625
1748.05418	12868.9625
1751.27607	12820.4625
1754.49584	12814.2625
1757.71349	12813.9625
1760.92903	12813.6625
1764.14244	12781.2625
1767.35375	12795.5625
1770.56294	12772.3625
1773.77002	12719.9625
1776.97499	12708.5625
1780.17785	12683.1625
1783.37861	12668.5625
1786.57727	12606.7625
1789.77382	12568.7625
1792.96828	12586.9625
1796.16064	12568.4625
1799.3509	12539.1625
1802.53907	12507.4625
1805.72514	12476.1625
1808.90913	12430.9625
1812.09102	12437.9625
1815.27083	12402.6625
1818.44856	12367.1625
1821.6242	12345.7625
1824.79776	12344.9625
1827.96924	12316.6625
1831.13864	12321.3625
1834.30597	12340.3625
1837.47122	12313.9625
1840.6344	12280.9625
1843.7955	12311.0625
1846.95454	12284.3625
1850.11151	12271.7625
1853.26642	12282.2625
1856.41926	12265.4625
1859.57004	12266.3625
1862.71876	12259.4625
1865.86542	12259.3625
1869.01003	12252.1625
1872.15258	12236.5625
1875.29308	12232.4625
1878.43152	12201.1625
1881.56792	12178.4625
1884.70227	12203.3625
1887.83457	12165.0625
1890.96482	12182.2625
1894.09304	12149.3625
1897.21921	12159.1625
1900.34335	12163.5625
1903.46544	12117.3625
1906.58551	12123.8625
1909.70353	12109.5625
1912.81953	12087.4625
1915.93349	12043.9625
1919.04543	12053.9625
1922.15534	12042.5625
1925.26322	12006.4625
1928.36908	12009.8625
1931.47292	11974.2625
1934.57473	11930.6625
1937.67453	11922.2625
1940.77232	11889.7625
1943.86808	11875.4625
1946.96184	11829.5625
1950.05358	11808.7625
1953.14331	11739.4625
1956.23103	11725.8625
1959.31675	11710.9625
1962.40046	11655.7625
1965.48217	11634.5625
1968.56188	11610.6625
1971.63959	11556.8625
1974.7153	11521.8625
1977.78901	11491.2625
1980.86073	11457.6625
1983.93046	11415.7625
1986.99819	11404.3625
1990.06394	11369.8625
1993.1277	11323.3625
1996.18947	11277.9625
1999.24925	11264.8625
2002.30706	11241.0625
2005.36288	11205.6625
2008.41672	11181.5625
2011.46859	11155.9625
2014.51848	11123.0625
2017.56639	11127.0625
2020.61233	11045.0625
2023.6563	11067.8625
2026.6983	11019.6625
2029.73833	11020.7625
2032.7764	10992.7625
2035.8125	10976.9625
2038.84664	10942.1625
2041.87881	10941.4625
2044.90903	10899.8625
2047.93729	10903.9625
2050.96359	10886.6625
2053.98794	10864.7625
2057.01034	10893.3625
2060.03078	10858.3625
2063.04927	10849.2625
2066.06582	10835.1625
2069.08042	10824.8625
2072.09307	10809.4625
2075.10378	10795.0625
2078.11255	10806.3625
2081.11938	10792.2625
2084.12426	10800.5625
2087.12722	10775.1625
2090.12824	10813.3625
2093.12732	10808.5625
2096.12447	10813.0625
2099.11969	10785.2625
2102.11299	10829.5625
2105.10435	10800.4625
2108.09379	10814.7625
2111.08131	10811.8625
2114.0669	10813.6625
2117.05057	10812.6625
2120.03233	10832.0625
2123.01216	10836.3625
2125.99008	10828.8625
2128.96609	10858.0625
2131.94018	10862.1625
2134.91236	10866.1625
2137.88263	10881.5625
2140.851	10894.4625
2143.81746	10857.5625
2146.78201	10884.6625
2149.74466	10889.3625
2152.7054	10904.6625
2155.66425	10895.0625
2158.6212	10903.6625
2161.57625	10908.9625
2164.52941	10904.8625
2167.48067	10885.2625
2170.43004	10882.0625
2173.37752	10859.2625
2176.32311	10875.3625
2179.26681	10902.9625
2182.20863	10866.4625
2185.14856	10865.1625
2188.08661	10852.4625
2191.02278	10864.9625
2193.95707	10871.7625
2196.88948	10855.1625
2199.82001	10865.0625
2202.74867	10848.5625
2205.67545	10846.9625
2208.60037	10836.1625
2211.52341	10805.6625
2214.44458	10816.6625
2217.36388	10759.9625
2220.28132	10743.6625
2223.1969	10736.0625
2226.11061	10715.3625
2229.02246	10711.5625
2231.93245	10669.7625
2234.84058	10654.2625
2237.74686	10667.6625
2240.65128	10638.7625
2243.55385	10627.5625
2246.45456	10606.9625
2249.35343	10595.6625
2252.25044	10597.3625
2255.14561	10555.8625
2258.03893	10542.1625
2260.93041	10535.2625
2263.82004	10508.4625
2266.70783	10488.1625
2269.59378	10455.9625
2272.4779	10441.1625
2275.36017	10403.3625
2278.24061	10398.5625
2281.11922	10367.6625
2283.996	10312.4625
2286.87094	10349.5625
2289.74405	10316.9625
2292.61534	10288.0625
2295.4848	10295.9625
2298.35243	10301.2625
2301.21824	10283.2625
2304.08223	10274.2625
2306.94439	10283.7625
2309.80474	10260.7625
2312.66327	10275.9625
2315.51999	10261.8625
2318.37489	10243.9625
2321.22797	10238.3625
2324.07925	10235.1625
2326.92871	10201.6625
2329.77637	10209.4625
2332.62222	10187.7625
2335.46626	10193.5625
2338.3085	10171.8625
2341.14893	10186.6625
2343.98756	10178.7625
2346.8244	10148.2625
2349.65943	10136.7625
2352.49267	10147.4625
2355.32411	10127.3625
2358.15376	10146.7625
2360.98161	10136.0625
2363.80768	10109.9625
2366.63195	10144.9625
2369.45444	10111.5625
2372.27514	10101.0625
2375.09405	10099.4625
2377.91118	10071.5625
2380.72652	10044.8625
2383.54009	10033.5625
2386.35187	10024.5625
2389.16188	9990.8625
2391.97011	9960.7625
2394.77657	9963.3625
2397.58125	9939.9625
2400.38416	9909.8625
2403.18529	9918.2625
2405.98466	9925.9625
2408.78226	9920.0625
2411.57809	9898.4625
2414.37216	9841.6625
2417.16446	9849.3625
2419.955	9853.6625
2422.74378	9846.1625
2425.5308	9814.7625
2428.31606	9787.6625
2431.09956	9796.9625
2433.88131	9800.0625
2436.6613	9798.3625
2439.43954	9797.8625
2442.21603	9778.5625
2444.99077	9766.2625
2447.76377	9779.5625
2450.53501	9739.1625
2453.30451	9763.7625
2456.07226	9751.3625
2458.83827	9725.9625
2461.60254	9718.0625
2464.36507	9729.8625
2467.12586	9713.2625
2469.88492	9708.7625
2472.64224	9685.5625
2475.39782	9722.7625
2478.15167	9700.5625
2480.90379	9737.1625
2483.65417	9726.8625
2486.40283	9718.4625
2489.14976	9739.2625
2491.89497	9715.7625
2494.63845	9735.4625
2497.3802	9700.7625
2500.12024	9699.2625
2502.85855	9698.2625
2505.59514	9704.9625
2508.33002	9658.6625
2511.06318	9678.4625
2513.79462	9680.3625
2516.52435	9639.1625
2519.25237	9645.9625
2521.97867	9607.3625
2524.70327	9622.4625
2527.42616	9614.6625
2530.14734	9599.9625
2532.86681	9602.2625
2535.58458	9590.9625
2538.30065	9585.4625
2541.01501	9576.7625
2543.72768	9562.4625
2546.43864	9577.7625
2549.14791	9541.8625
2551.85548	9516.5625
2554.56136	9523.9625
2557.26554	9503.7625
2559.96803	9478.6625
2562.66883	9479.4625
2565.36794	9492.3625
2568.06536	9471.2625
2570.7611	9492.9625
2573.45514	9448.3625
2576.14751	9444.9625
2578.83819	9453.8625
2581.52719	9415.3625
2584.21451	9398.3625
2586.90015	9410.4625
2589.58411	9406.8625
2592.2664	9416.9625
2594.94701	9377.5625
2597.62594	9395.1625
2600.30321	9361.9625
2602.9788	9354.8625
2605.65273	9339.8625
2608.32498	9335.5625
2610.99557	9291.1625
2613.66449	9306.2625
2616.33175	9320.3625
2618.99734	9289.4625
2621.66128	9275.5625
2624.32355	9298.6625
2626.98416	9251.3625
2629.64311	9279.8625
2632.30041	9274.9625
2634.95605	9282.1625
2637.61004	9261.5625
2640.26238	9240.8625
2642.91306	9258.3625
2645.56209	9221.1625
2648.20948	9216.2625
2650.85521	9221.0625
2653.4993	9228.5625
2656.14175	9218.1625
2658.78255	9251.4625
2661.42171	9225.5625
2664.05923	9257.9625
2666.6951	9232.9625
2669.32934	9256.5625
2671.96194	9234.9625
2674.59291	9229.7625
2677.22224	9250.8625
2679.84993	9227.6625
2682.476	9239.8625
2685.10043	9232.4625
2687.72324	9221.4625
2690.34441	9215.0625
2692.96396	9223.0625
2695.58188	9260.1625
2698.19818	9237.3625
2700.81285	9238.1625
2703.4259	9254.7625
2706.03733	9298.2625
2708.64714	9290.8625
2711.25533	9254.8625
2713.86191	9248.7625
2716.46687	9271.5625
2719.07021	9274.1625
2721.67194	9262.9625
2724.27206	9248.8625
2726.87057	9254.6625
2729.46747	9270.0625
2732.06276	9249.5625
2734.65644	9279.5625
2737.24852	9280.7625
2739.83899	9249.6625
2742.42786	9236.9625
2745.01513	9236.5625
2747.60079	9241.5625
2750.18486	9214.5625
2752.76733	9214.1625
2755.3482	9225.7625
2757.92747	9237.1625
2760.50515	9212.5625
2763.08123	9183.9625
2765.65573	9181.1625
2768.22863	9201.0625
2770.79994	9201.3625
2773.36967	9195.3625
2775.9378	9178.7625
2778.50435	9179.7625
2781.06932	9180.2625
2783.6327	9176.3625
2786.1945	9162.8625
2788.75471	9182.5625
2791.31335	9128.7625
2793.87041	9134.2625
2796.42589	9099.5625
2798.97979	9079.1625
2801.53212	9083.5625
2804.08288	9071.5625
2806.63206	9053.8625
2809.17967	9045.8625
2811.72571	9004.2625
2814.27018	9016.8625
2816.81308	8979.9625
2819.35442	8990.4625
2821.89419	8959.8625
2824.43239	8952.9625
2826.96904	8946.3625
2829.50412	8942.1625
2832.03763	8924.7625
2834.56959	8935.5625
2837.1	8915.3625
2839.62884	8917.6625
2842.15613	8912.9625
2844.68186	8924.6625
2847.20604	8957.5625
2849.72867	8933.1625
2852.24974	8928.8625
2854.76927	8947.9625
2857.28724	8956.9625
2859.80367	8906.6625
2862.31855	8897.8625
2864.83189	8876.6625
2867.34368	8856.0625
2869.85393	8864.1625
2872.36264	8868.1625
2874.8698	8854.1625
2877.37543	8853.7625
2879.87952	8881.8625
2882.38207	8881.5625
2884.88308	8899.0625
2887.38256	8895.8625
2889.88051	8870.5625
2892.37692	8877.3625
2894.8718	8880.6625
2897.36515	8884.9625
2899.85698	8873.4625
2902.34727	8899.1625
2904.83604	8917.9625
2907.32328	8925.0625
2909.809	8909.9625
2912.29319	8937.9625
2914.77587	8926.6625
2917.25702	8915.1625
2919.73665	8930.3625
2922.21476	8937.1625
2924.69136	8920.4625
2927.16644	8930.5625
2929.64	8898.2625
2932.11205	8898.6625
2934.58258	8886.2625
2937.05161	8912.2625
2939.51912	8904.4625
2941.98513	8907.7625
2944.44962	8856.3625
2946.91261	8841.8625
2949.37409	8841.8625
2951.83407	8833.6625
2954.29254	8809.5625
2956.74951	8799.6625
2959.20498	8806.6625
2961.65895	8795.1625
2964.11142	8807.5625
2966.56239	8781.3625
2969.01186	8782.0625
2971.45984	8732.5625
2973.90632	8718.9625
2976.35131	8695.7625
2978.7948	8675.5625
2981.23681	8663.1625
2983.67732	8628.5625
2986.11635	8646.0625
2988.55388	8594.8625
2990.98993	8587.6625
2993.4245	8567.8625
2995.85758	8565.6625
2998.28917	8545.7625
3000.71928	8541.8625
3003.14791	8506.1625
3005.57506	8511.6625
3008.00073	8490.4625
3010.42493	8484.8625
3012.84764	8462.3625
3015.26888	8458.2625
3017.68865	8458.6625
3020.10694	8462.6625
3022.52376	8407.5625
3024.9391	8405.9625
3027.35298	8390.6625
3029.76539	8406.1625
3032.17632	8379.5625
3034.5858	8359.7625
3036.9938	8370.6625
3039.40034	8352.8625
3041.80542	8379.4625
3044.20903	8345.6625
3046.61118	8345.7625
3049.01187	8326.4625
3051.4111	8313.5625
3053.80888	8290.9625
