Data from AgNP_FTO_APTES_CRN_1uM_R6G_10uM_NaF_0.1M_Addition_RamanShift__1__13-46-40-778.txt Node

Date: Wed Dec 15 13:46:40 GMT 2021
User: TCL
Spectrometer: QEP01345
Trigger mode: 4
Integration Time (sec): 7.000000E0
Scans to average: 10
Electric dark correction enabled: true
Nonlinearity correction enabled: false
Boxcar width: 0
XAxis mode: Raman Shifts
Number of Pixels in Spectrum: 1044
>>>>>Begin Spectral Data<<<<<
46.04893	0.2125
50.45542	-2.6875
54.85868	-1.6875
59.25871	-1.0875
63.6555	154.9125
68.04907	165.2125
72.43941	175.5125
76.82654	185.5125
81.21044	196.9125
85.59113	201.1125
89.96862	208.4125
94.34289	211.8125
98.71396	222.0125
103.08183	234.1125
107.4465	236.5125
111.80798	236.6125
116.16626	241.7125
120.52136	255.3125
124.87327	255.5125
129.222	268.0125
133.56755	277.4125
137.90993	294.8125
142.24913	322.5125
146.58517	355.7125
150.91804	405.6125
155.24774	473.1125
159.57429	569.1125
163.89768	718.7125
168.21792	932.8125
172.53501	1263.1125
176.84895	1742.8125
181.15975	2436.1125
185.46741	3406.8125
189.77193	4671.6125
194.07331	6231.0125
198.37157	7987.6125
202.6667	9882.8125
206.9587	11727.7125
211.24758	13582.0125
215.53334	15427.0125
219.81599	17415.0125
224.09553	19620.1125
228.37195	21985.1125
232.64527	24643.1125
236.91549	27341.3125
241.18261	30082.7125
245.44663	32577.5125
249.70755	34826.1125
253.96539	36790.5125
258.22014	38516.5125
262.4718	39892.0125
266.72039	40820.3125
270.96589	41255.6125
275.20832	41281.3125
279.44768	40973.0125
283.68397	40428.1125
287.91719	39931.0125
292.14735	39669.4125
296.37445	39626.6125
300.59849	39751.3125
304.81948	39979.3125
309.03742	40216.3125
313.25231	40247.2125
317.46415	39894.8125
321.67296	39360.1125
325.87872	38876.6125
330.08145	38767.1125
334.28114	38768.9125
338.47781	39123.3125
342.67145	39623.4125
346.86207	40277.6125
351.04966	41022.4125
355.23424	41840.0125
359.4158	42590.3125
363.59435	43168.0125
367.76989	43582.9125
371.94243	43851.1125
376.11196	44075.6125
380.27849	44202.1125
384.44203	44549.9125
388.60257	44866.6125
392.76012	45207.2125
396.91468	45721.3125
401.06626	46379.2125
405.21485	46962.6125
409.36047	47185.4125
413.50311	46953.6125
417.64277	46939.9125
421.77947	47122.8125
425.9132	47427.7125
430.04396	47629.6125
434.17176	48006.8125
438.2966	48490.0125
442.41849	49528.7125
446.53742	51429.5125
450.6534	53377.8125
454.76644	54658.6125
458.87653	54619.7125
462.98368	53750.1125
467.08789	52469.1125
471.18916	51023.4125
475.2875	49549.6125
479.38291	48345.5125
483.4754	47584.9125
487.56496	47084.3125
491.6516	46851.1125
495.73531	46766.1125
499.81612	46878.4125
503.89401	47308.2125
507.96899	47524.5125
512.04106	47352.0125
516.11023	47280.2125
520.1765	47183.0125
524.23987	47279.2125
528.30034	47371.7125
532.35792	47168.3125
536.41261	46400.0125
540.46441	45578.8125
544.51333	45201.4125
548.55936	45392.0125
552.60252	46180.2125
556.64279	47156.0125
560.6802	47941.8125
564.71473	48241.3125
568.7464	48521.4125
572.7752	49368.1125
576.80114	50547.2125
580.82422	52148.9125
584.84444	54600.5125
588.86181	57811.1125
592.87633	60805.2125
596.888	61482.7125
600.89682	58999.2125
604.9028	57972.8125
608.90594	61346.8125
612.90624	64870.3125
616.90371	61230.4125
620.89834	52896.9125
624.89015	49054.7125
628.87913	48248.8125
632.86528	47889.6125
636.84862	47182.9125
640.82913	46158.0125
644.80683	45084.8125
648.78172	44551.5125
652.75379	44700.3125
656.72306	45496.1125
660.68952	46307.6125
664.65319	46101.3125
668.61405	45440.7125
672.57211	45503.2125
676.52738	45680.5125
680.47986	45486.5125
684.42955	45126.3125
688.37646	44996.3125
692.32058	45528.2125
696.26192	46405.5125
700.20048	47242.1125
704.13626	47502.8125
708.06928	47194.8125
711.99952	46882.5125
715.927	47086.5125
719.85171	47554.9125
723.77365	47393.1125
727.69284	46615.4125
731.60928	45934.5125
735.52295	45758.5125
739.43388	45846.1125
743.34206	45989.1125
747.24749	46240.2125
751.15017	46642.2125
755.05012	47310.7125
758.94733	48356.3125
762.8418	50197.5125
766.73354	52958.9125
770.62254	55543.2125
774.50882	55939.0125
778.39237	54025.9125
782.27321	51122.8125
786.15132	48647.6125
790.02671	47178.8125
793.89938	46573.1125
797.76935	46393.5125
801.6366	46444.6125
805.50115	46331.3125
809.36299	46122.7125
813.22213	45708.9125
817.07857	45448.3125
820.93231	45265.2125
824.78336	45204.6125
828.63172	45279.2125
832.47738	45351.6125
836.32036	45501.2125
840.16066	45852.2125
843.99827	46086.2125
847.8332	45966.1125
851.66546	45780.0125
855.49504	45670.4125
859.32195	45613.0125
863.1462	45452.3125
866.96777	45174.9125
870.78668	45122.6125
874.60293	45118.2125
878.41652	45232.1125
882.22745	45459.1125
886.03573	45642.8125
889.84136	45605.2125
893.64433	45370.0125
897.44466	45018.2125
901.24235	44904.9125
905.0374	44876.0125
908.8298	44855.1125
912.61957	45033.3125
916.40671	45446.0125
920.19121	45928.8125
923.97308	46709.1125
927.75233	47173.3125
931.52895	47090.8125
935.30295	46564.8125
939.07433	45781.5125
942.84309	45284.6125
946.60924	45244.3125
950.37278	45230.9125
954.13371	45095.9125
957.89203	44877.0125
961.64774	44667.3125
965.40086	44690.9125
969.15137	44660.0125
972.89929	44634.2125
976.64461	44776.0125
980.38733	45018.7125
984.12747	45334.2125
987.86502	45838.7125
991.59999	46521.2125
995.33237	47506.9125
999.06217	49128.9125
1002.78939	50997.7125
1006.51404	52435.2125
1010.23611	53222.9125
1013.95561	53685.2125
1017.67255	53494.3125
1021.38692	52618.9125
1025.09872	51893.2125
1028.80796	52511.7125
1032.51465	54525.5125
1036.21877	56411.3125
1039.92035	56598.6125
1043.61937	55570.9125
1047.31584	53905.4125
1051.00976	52121.3125
1054.70114	51120.2125
1058.38998	50825.4125
1062.07627	50793.8125
1065.76003	51084.6125
1069.44126	51680.2125
1073.11995	52879.3125
1076.79611	53928.0125
1080.46974	54326.0125
1084.14085	54456.9125
1087.80943	54491.5125
1091.47549	54186.7125
1095.13903	53636.8125
1098.80005	52631.2125
1102.45857	51644.4125
1106.11456	51059.3125
1109.76805	50915.9125
1113.41903	51007.6125
1117.06751	51123.8125
1120.71348	51319.9125
1124.35696	51614.0125
1127.99793	52048.6125
1131.63641	52422.2125
1135.2724	52297.2125
1138.90589	52118.4125
1142.5369	52205.3125
1146.16542	52371.6125
1149.79145	52504.6125
1153.415	52800.1125
1157.03607	53319.8125
1160.65467	54647.2125
1164.27079	57036.4125
1167.88443	59941.4125
1171.49561	63153.2125
1175.10432	67209.6125
1178.71056	72644.3125
1182.31434	78024.4125
1185.91565	80376.2125
1189.51451	79367.8125
1193.11091	76317.0125
1196.70485	72964.5125
1200.29634	70184.5125
1203.88538	68424.6125
1207.47197	67375.7125
1211.05612	66269.1125
1214.63782	65371.8125
1218.21708	64750.2125
1221.79391	64434.2125
1225.36829	64181.6125
1228.94024	63463.6125
1232.50976	61956.9125
1236.07685	60424.5125
1239.6415	59597.7125
1243.20374	59611.7125
1246.76355	60269.9125
1250.32093	61550.2125
1253.8759	63140.6125
1257.42845	64993.8125
1260.97859	66971.2125
1264.52631	68997.3125
1268.07163	71080.0125
1271.61453	73277.6125
1275.15503	75617.7125
1278.69312	77891.7125
1282.22882	79837.0125
1285.76211	81986.3125
1289.29301	84392.4125
1292.82151	87185.4125
1296.34761	90925.9125
1299.87133	96197.4125
1303.39266	102422.5125
1306.9116	108779.7125
1310.42815	114007.5125
1313.94233	116595.3125
1317.45412	115570.1125
1320.96354	111749.1125
1324.47058	107621.3125
1327.97525	104431.6125
1331.47754	102413.2125
1334.97747	101371.9125
1338.47502	100081.9125
1341.97022	97571.8125
1345.46305	94432.2125
1348.95352	92987.4125
1352.44163	94821.7125
1355.92738	100323.1125
1359.41078	107742.7125
1362.89183	113017.6125
1366.37053	112149.4125
1369.84688	103854.0125
1373.32088	92082.5125
1376.79254	83393.2125
1380.26186	80142.7125
1383.72883	79938.7125
1387.19347	79576.7125
1390.65578	77766.6125
1394.11575	76666.9125
1397.57339	76810.7125
1401.0287	77983.5125
1404.48168	79475.5125
1407.93234	80416.6125
1411.38068	80544.3125
1414.82669	79665.0125
1418.27039	77672.2125
1421.71177	75041.8125
1425.15083	72466.4125
1428.58758	71402.3125
1432.02203	72295.0125
1435.45416	74569.3125
1438.88399	76989.8125
1442.31151	78602.2125
1445.73673	79167.1125
1449.15965	79143.0125
1452.58027	78315.8125
1455.9986	76992.8125
1459.41463	76305.1125
1462.82837	77195.6125
1466.23982	79333.9125
1469.64898	81872.0125
1473.05586	83759.0125
1476.46045	85039.9125
1479.86276	85481.8125
1483.26279	85143.4125
1486.66054	84751.0125
1490.05602	85155.6125
1493.44922	85218.3125
1496.84016	84598.4125
1500.22882	84032.9125
1503.61521	84147.4125
1506.99934	84993.3125
1510.38121	85962.3125
1513.76081	85969.1125
1517.13816	84259.7125
1520.51324	81545.4125
1523.88607	79428.2125
1527.25665	78708.5125
1530.62498	78923.3125
1533.99105	79082.1125
1537.35488	78739.5125
1540.71647	77703.6125
1544.07581	76455.5125
1547.4329	75165.5125
1550.78776	73769.7125
1554.14038	72404.6125
1557.49077	71328.5125
1560.83892	70484.5125
1564.18484	70088.0125
1567.52853	70101.1125
1570.86999	70800.8125
1574.20922	72128.7125
1577.54624	73607.5125
1580.88103	74711.3125
1584.2136	76051.1125
1587.54395	79058.0125
1590.87208	84085.8125
1594.19801	90707.7125
1597.52172	97186.5125
1600.84321	99500.1125
1604.16251	95254.4125
1607.47959	86505.1125
1610.79447	76868.1125
1614.10715	68754.5125
1617.41763	63190.3125
1620.7259	60102.4125
1624.03199	58929.9125
1627.33587	59402.2125
1630.63757	61401.9125
1633.93707	65227.6125
1637.23439	71235.3125
1640.52951	80187.4125
1643.82246	90869.8125
1647.11321	99002.8125
1650.40179	98825.0125
1653.68819	89742.0125
1656.97241	76826.2125
1660.25446	65587.9125
1663.53433	58252.0125
1666.81203	53974.1125
1670.08756	51406.6125
1673.36092	49791.2125
1676.63211	48724.1125
1679.90115	47922.3125
1683.16801	47340.0125
1686.43272	46900.5125
1689.69527	46629.5125
1692.95567	46410.9125
1696.2139	46297.9125
1699.46999	46143.6125
1702.72392	46034.6125
1705.97571	45992.0125
1709.22535	45984.8125
1712.47284	45953.8125
1715.71819	45918.5125
1718.96139	45869.3125
1722.20246	45752.1125
1725.44139	45593.8125
1728.67818	45443.4125
1731.91284	45208.7125
1735.14537	45021.7125
1738.37576	44897.0125
1741.60403	44733.0125
1744.83017	44626.1125
1748.05418	44516.6125
1751.27607	44439.4125
1754.49584	44425.2125
1757.71349	44338.1125
1760.92903	44314.2125
1764.14244	44400.9125
1767.35375	44416.3125
1770.56294	44395.4125
1773.77002	44296.4125
1776.97499	44303.1125
1780.17785	44251.5125
1783.37861	44253.6125
1786.57727	44203.3125
1789.77382	44116.8125
1792.96828	44128.3125
1796.16064	44038.6125
1799.3509	43981.9125
1802.53907	43935.3125
1805.72514	43822.9125
1808.90913	43675.7125
1812.09102	43688.7125
1815.27083	43601.3125
1818.44856	43508.7125
1821.6242	43474.5125
1824.79776	43480.6125
1827.96924	43445.2125
1831.13864	43395.7125
1834.30597	43485.9125
1837.47122	43482.3125
1840.6344	43418.9125
1843.7955	43472.5125
1846.95454	43425.9125
1850.11151	43394.0125
1853.26642	43384.1125
1856.41926	43383.0125
1859.57004	43391.7125
1862.71876	43411.7125
1865.86542	43427.3125
1869.01003	43446.2125
1872.15258	43467.0125
1875.29308	43433.1125
1878.43152	43390.5125
1881.56792	43396.5125
1884.70227	43339.8125
1887.83457	43409.4125
1890.96482	43418.2125
1894.09304	43288.5125
1897.21921	43253.3125
1900.34335	43250.3125
1903.46544	43237.1125
1906.58551	43177.7125
1909.70353	43201.0125
1912.81953	43194.0125
1915.93349	43111.8125
1919.04543	43086.3125
1922.15534	43063.3125
1925.26322	42963.4125
1928.36908	42945.1125
1931.47292	42851.9125
1934.57473	42767.7125
1937.67453	42635.2125
1940.77232	42523.3125
1943.86808	42471.9125
1946.96184	42376.8125
1950.05358	42247.0125
1953.14331	42140.9125
1956.23103	42106.0125
1959.31675	42072.8125
1962.40046	41989.3125
1965.48217	41846.8125
1968.56188	41706.5125
1971.63959	41615.5125
1974.7153	41528.3125
1977.78901	41452.5125
1980.86073	41315.7125
1983.93046	41261.2125
1986.99819	41086.4125
1990.06394	40993.8125
1993.1277	40944.8125
1996.18947	40849.9125
1999.24925	40738.9125
2002.30706	40600.9125
2005.36288	40464.9125
2008.41672	40438.4125
2011.46859	40378.0125
2014.51848	40306.9125
2017.56639	40173.6125
2020.61233	40087.4125
2023.6563	40055.8125
2026.6983	40022.1125
2029.73833	39990.7125
2032.7764	39984.8125
2035.8125	39895.7125
2038.84664	39870.5125
2041.87881	39880.0125
2044.90903	39835.0125
2047.93729	39761.9125
2050.96359	39777.3125
2053.98794	39662.1125
2057.01034	39689.3125
2060.03078	39654.2125
2063.04927	39628.1125
2066.06582	39551.8125
2069.08042	39522.5125
2072.09307	39546.5125
2075.10378	39503.6125
2078.11255	39450.8125
2081.11938	39499.1125
2084.12426	39466.9125
2087.12722	39423.8125
2090.12824	39416.9125
2093.12732	39437.5125
2096.12447	39489.0125
2099.11969	39515.9125
2102.11299	39531.1125
2105.10435	39543.2125
2108.09379	39567.7125
2111.08131	39626.6125
2114.0669	39606.6125
2117.05057	39627.7125
2120.03233	39689.4125
2123.01216	39757.3125
2125.99008	39753.2125
2128.96609	39824.3125
2131.94018	39886.8125
2134.91236	39906.0125
2137.88263	39934.9125
2140.851	39928.8125
2143.81746	40032.9125
2146.78201	40021.5125
2149.74466	40063.6125
2152.7054	40132.7125
2155.66425	40150.7125
2158.6212	40190.3125
2161.57625	40191.7125
2164.52941	40234.5125
2167.48067	40149.5125
2170.43004	40177.9125
2173.37752	40134.9125
2176.32311	40114.8125
2179.26681	40160.0125
2182.20863	40220.5125
2185.14856	40179.4125
2188.08661	40215.0125
2191.02278	40247.8125
2193.95707	40242.1125
2196.88948	40276.8125
2199.82001	40353.8125
2202.74867	40240.1125
2205.67545	40272.9125
2208.60037	40219.3125
2211.52341	40245.2125
2214.44458	40182.3125
2217.36388	40096.5125
2220.28132	40100.8125
2223.1969	40060.9125
2226.11061	39988.6125
2229.02246	39956.3125
2231.93245	39941.8125
2234.84058	39868.9125
2237.74686	39733.5125
2240.65128	39838.7125
2243.55385	39732.3125
2246.45456	39699.7125
2249.35343	39604.0125
2252.25044	39581.8125
2255.14561	39478.6125
2258.03893	39515.8125
2260.93041	39431.3125
2263.82004	39330.5125
2266.70783	39294.0125
2269.59378	39209.2125
2272.4779	39102.8125
2275.36017	39032.2125
2278.24061	38976.2125
2281.11922	38999.7125
2283.996	38939.5125
2286.87094	38864.0125
2289.74405	38820.7125
2292.61534	38811.9125
2295.4848	38847.0125
2298.35243	38894.8125
2301.21824	38932.0125
2304.08223	38989.4125
2306.94439	38963.9125
2309.80474	39015.2125
2312.66327	39028.9125
2315.51999	39004.1125
2318.37489	39078.4125
2321.22797	39155.9125
2324.07925	39038.1125
2326.92871	39071.0125
2329.77637	39042.5125
2332.62222	39013.7125
2335.46626	38992.0125
2338.3085	39032.0125
2341.14893	39052.7125
2343.98756	39101.3125
2346.8244	39052.0125
2349.65943	39038.3125
2352.49267	38981.2125
2355.32411	38963.7125
2358.15376	38926.6125
2360.98161	38865.1125
2363.80768	38794.2125
2366.63195	38795.9125
2369.45444	38746.5125
2372.27514	38691.5125
2375.09405	38637.0125
2377.91118	38578.6125
2380.72652	38491.0125
2383.54009	38329.8125
2386.35187	38410.4125
2389.16188	38358.4125
2391.97011	38318.1125
2394.77657	38294.1125
2397.58125	38279.8125
2400.38416	38244.3125
2403.18529	38172.3125
2405.98466	38115.0125
2408.78226	38068.4125
2411.57809	37974.9125
2414.37216	37952.7125
2417.16446	37959.5125
2419.955	37867.3125
2422.74378	37866.8125
2425.5308	37827.6125
2428.31606	37847.7125
2431.09956	37787.4125
2433.88131	37709.7125
2436.6613	37743.8125
2439.43954	37761.6125
2442.21603	37771.8125
2444.99077	37723.6125
2447.76377	37718.4125
2450.53501	37678.8125
2453.30451	37763.0125
2456.07226	37758.7125
2458.83827	37725.2125
2461.60254	37740.1125
2464.36507	37703.5125
2467.12586	37709.2125
2469.88492	37743.7125
2472.64224	37744.0125
2475.39782	37826.6125
2478.15167	37792.5125
2480.90379	37831.3125
2483.65417	37895.6125
2486.40283	37861.7125
2489.14976	37896.4125
2491.89497	37846.3125
2494.63845	37870.1125
2497.3802	37873.0125
2500.12024	37910.3125
2502.85855	37947.5125
2505.59514	37870.8125
2508.33002	37838.8125
2511.06318	37818.7125
2513.79462	37747.9125
2516.52435	37749.6125
2519.25237	37785.9125
2521.97867	37770.4125
2524.70327	37750.8125
2527.42616	37689.4125
2530.14734	37698.0125
2532.86681	37705.5125
2535.58458	37658.6125
2538.30065	37648.3125
2541.01501	37665.4125
2543.72768	37603.5125
2546.43864	37581.8125
2549.14791	37543.7125
2551.85548	37543.6125
2554.56136	37488.6125
2557.26554	37525.0125
2559.96803	37502.9125
2562.66883	37486.4125
2565.36794	37492.6125
2568.06536	37484.9125
2570.7611	37465.8125
2573.45514	37484.3125
2576.14751	37439.3125
2578.83819	37402.0125
2581.52719	37415.7125
2584.21451	37410.1125
2586.90015	37383.1125
2589.58411	37404.5125
2592.2664	37341.1125
2594.94701	37258.0125
2597.62594	37236.4125
2600.30321	37295.7125
2602.9788	37272.5125
2605.65273	37176.2125
2608.32498	37244.2125
2610.99557	37242.2125
2613.66449	37290.3125
2616.33175	37226.7125
2618.99734	37287.0125
2621.66128	37266.8125
2624.32355	37298.1125
2626.98416	37205.2125
2629.64311	37191.8125
2632.30041	37188.0125
2634.95605	37119.7125
2637.61004	37068.6125
2640.26238	37038.1125
2642.91306	37051.1125
2645.56209	36988.9125
2648.20948	37014.9125
2650.85521	36974.7125
2653.4993	36974.8125
2656.14175	36987.5125
2658.78255	37009.4125
2661.42171	36986.4125
2664.05923	37036.0125
2666.6951	37047.5125
2669.32934	37117.9125
2671.96194	37179.6125
2674.59291	37248.5125
2677.22224	37194.7125
2679.84993	37148.0125
2682.476	37087.7125
2685.10043	37184.9125
2687.72324	37093.8125
2690.34441	37081.4125
2692.96396	37092.7125
2695.58188	37065.2125
2698.19818	37019.7125
2700.81285	37064.8125
2703.4259	37040.3125
2706.03733	37105.7125
2708.64714	37192.1125
2711.25533	37219.8125
2713.86191	37162.1125
2716.46687	37234.0125
2719.07021	37259.2125
2721.67194	37304.1125
2724.27206	37209.8125
2726.87057	37285.4125
2729.46747	37312.1125
2732.06276	37291.0125
2734.65644	37232.6125
2737.24852	37281.4125
2739.83899	37255.3125
2742.42786	37388.0125
2745.01513	37359.8125
2747.60079	37407.5125
2750.18486	37378.2125
2752.76733	37376.9125
2755.3482	37355.7125
2757.92747	37275.1125
2760.50515	37224.4125
2763.08123	37250.2125
2765.65573	37221.4125
2768.22863	37278.6125
2770.79994	37240.4125
2773.36967	37268.5125
2775.9378	37253.0125
2778.50435	37208.9125
2781.06932	37142.8125
2783.6327	37157.2125
2786.1945	37156.0125
2788.75471	37161.8125
2791.31335	37095.3125
2793.87041	37121.4125
2796.42589	36939.1125
2798.97979	36939.4125
2801.53212	36800.1125
2804.08288	36813.6125
2806.63206	36699.6125
2809.17967	36681.5125
2811.72571	36581.5125
2814.27018	36648.9125
2816.81308	36568.3125
2819.35442	36542.3125
2821.89419	36486.0125
2824.43239	36434.8125
2826.96904	36405.3125
2829.50412	36418.2125
2832.03763	36306.4125
2834.56959	36313.8125
2837.1	36302.6125
2839.62884	36274.5125
2842.15613	36256.9125
2844.68186	36246.4125
2847.20604	36230.4125
2849.72867	36185.4125
2852.24974	36199.4125
2854.76927	36150.2125
2857.28724	36121.7125
2859.80367	36136.2125
2862.31855	36061.8125
2864.83189	36023.1125
2867.34368	36041.0125
2869.85393	36112.6125
2872.36264	36082.9125
2874.8698	36034.2125
2877.37543	36105.0125
2879.87952	36071.8125
2882.38207	36072.3125
2884.88308	36078.2125
2887.38256	36117.5125
2889.88051	36065.4125
2892.37692	36185.6125
2894.8718	36190.0125
2897.36515	36248.2125
2899.85698	36255.7125
2902.34727	36309.6125
2904.83604	36316.8125
2907.32328	36400.6125
2909.809	36348.2125
2912.29319	36431.3125
2914.77587	36351.1125
2917.25702	36375.0125
2919.73665	36332.9125
2922.21476	36364.8125
2924.69136	36345.5125
2927.16644	36371.8125
2929.64	36331.7125
2932.11205	36278.3125
2934.58258	36160.8125
2937.05161	36219.3125
2939.51912	36195.0125
2941.98513	36180.7125
2944.44962	36138.3125
2946.91261	36015.1125
2949.37409	36060.0125
2951.83407	36055.3125
2954.29254	36078.3125
2956.74951	36074.9125
2959.20498	36092.3125
2961.65895	36029.7125
2964.11142	36014.4125
2966.56239	35951.7125
2969.01186	35951.6125
2971.45984	35800.7125
2973.90632	35826.8125
2976.35131	35660.8125
2978.7948	35688.3125
2981.23681	35645.6125
2983.67732	35567.3125
2986.11635	35445.9125
2988.55388	35318.2125
2990.98993	35357.0125
2993.4245	35274.8125
2995.85758	35185.6125
2998.28917	35139.8125
3000.71928	35167.3125
3003.14791	35045.9125
3005.57506	35019.8125
3008.00073	34930.7125
3010.42493	34968.3125
3012.84764	34918.8125
3015.26888	34909.9125
3017.68865	34809.3125
3020.10694	34731.5125
3022.52376	34677.3125
