Data from AgNP_FTO_APTES_CRN_2uM_R6G_10uM_NaF_0.1M_Addition_RamanShift__3__14-38-29-326.txt Node

Date: Wed Dec 15 14:38:29 GMT 2021
User: TCL
Spectrometer: QEP01345
Trigger mode: 4
Integration Time (sec): 7.000000E0
Scans to average: 10
Electric dark correction enabled: true
Nonlinearity correction enabled: false
Boxcar width: 0
XAxis mode: Raman Shifts
Number of Pixels in Spectrum: 1044
>>>>>Begin Spectral Data<<<<<
46.04893	-0.825
50.45542	-2.225
54.85868	-1.325
59.25871	-0.625
63.6555	153.075
68.04907	160.875
72.43941	168.875
76.82654	175.875
81.21044	183.675
85.59113	185.975
89.96862	200.275
94.34289	197.975
98.71396	211.575
103.08183	218.575
107.4465	221.975
111.80798	225.775
116.16626	231.275
120.52136	245.675
124.87327	247.075
129.222	266.375
133.56755	278.275
137.90993	298.975
142.24913	328.075
146.58517	361.575
150.91804	421.575
155.24774	500.775
159.57429	618.375
163.89768	794.075
168.21792	1044.675
172.53501	1419.275
176.84895	1972.675
181.15975	2757.475
185.46741	3865.875
189.77193	5301.375
194.07331	7107.175
198.37157	9111.675
202.6667	11288.275
206.9587	13387.675
211.24758	15491.975
215.53334	17548.375
219.81599	19790.275
224.09553	22213.475
228.37195	24837.475
232.64527	27777.775
236.91549	30894.575
241.18261	34094.575
245.44663	37027.975
249.70755	39713.175
253.96539	42072.775
258.22014	44017.975
262.4718	45631.575
266.72039	46725.875
270.96589	47285.775
275.20832	47359.275
279.44768	47090.775
283.68397	46659.775
287.91719	46276.575
292.14735	45896.375
296.37445	45833.875
300.59849	45806.275
304.81948	45953.575
309.03742	45885.075
313.25231	45732.975
317.46415	45136.175
321.67296	44453.175
325.87872	43859.375
330.08145	43591.975
334.28114	43573.775
338.47781	43870.275
342.67145	44346.775
346.86207	44969.575
351.04966	45763.875
355.23424	46654.775
359.4158	47542.375
363.59435	48185.875
367.76989	48746.375
371.94243	49122.575
376.11196	49332.275
380.27849	49391.175
384.44203	49713.275
388.60257	50097.575
392.76012	50590.375
396.91468	51274.475
401.06626	52094.875
405.21485	52618.875
409.36047	52769.475
413.50311	52654.775
417.64277	52741.075
421.77947	53119.075
425.9132	53466.175
430.04396	53672.275
434.17176	53865.575
438.2966	53971.775
442.41849	54429.575
446.53742	55631.975
450.6534	57065.175
454.76644	58124.775
458.87653	58500.375
462.98368	58154.375
467.08789	57307.075
471.18916	56243.475
475.2875	55218.575
479.38291	54440.975
483.4754	53950.475
487.56496	53574.575
491.6516	53140.675
495.73531	52921.775
499.81612	53101.475
503.89401	53729.975
507.96899	54161.575
512.04106	54255.675
516.11023	53931.775
520.1765	53305.075
524.23987	52713.375
528.30034	52242.275
532.35792	51703.175
536.41261	51068.775
540.46441	50530.175
544.51333	50522.675
548.55936	51022.675
552.60252	51926.875
556.64279	52883.975
560.6802	53553.075
564.71473	54122.175
568.7464	54911.075
572.7752	56383.975
576.80114	58242.475
580.82422	60489.175
584.84444	63110.375
588.86181	65611.475
592.87633	66669.175
596.888	65231.175
600.89682	62880.275
604.9028	62933.475
608.90594	65938.075
612.90624	68573.175
616.90371	64354.275
620.89834	56764.675
624.89015	53462.075
628.87913	53140.875
632.86528	53137.375
636.84862	52753.075
640.82913	51895.875
644.80683	50976.775
648.78172	50438.775
652.75379	50647.075
656.72306	51213.575
660.68952	51618.475
664.65319	51255.975
668.61405	50628.575
672.57211	50687.675
676.52738	50889.175
680.47986	50812.875
684.42955	50508.775
688.37646	50360.375
692.32058	50816.475
696.26192	51597.575
700.20048	52400.975
704.13626	52808.275
708.06928	52713.975
711.99952	52542.375
715.927	52614.375
719.85171	52955.875
723.77365	52823.075
727.69284	52074.375
731.60928	51303.675
735.52295	50918.775
739.43388	50777.375
743.34206	50902.575
747.24749	51262.075
751.15017	51764.875
755.05012	52565.275
758.94733	53874.875
762.8418	55817.975
766.73354	58598.275
770.62254	60800.275
774.50882	60672.275
778.39237	58312.075
782.27321	55419.775
786.15132	53216.775
790.02671	51843.675
793.89938	51216.675
797.76935	51103.475
801.6366	51101.275
805.50115	51162.575
809.36299	50969.775
813.22213	50416.875
817.07857	50014.275
820.93231	49606.075
824.78336	49432.875
828.63172	49278.475
832.47738	49260.075
836.32036	49385.175
840.16066	49642.475
843.99827	49729.575
847.8332	49639.575
851.66546	49516.075
855.49504	49676.075
859.32195	49609.375
863.1462	49516.375
866.96777	49409.175
870.78668	49355.175
874.60293	49366.875
878.41652	49436.975
882.22745	49618.775
886.03573	49764.875
889.84136	49740.775
893.64433	49637.175
897.44466	49390.775
901.24235	49313.675
905.0374	49206.375
908.8298	49166.375
912.61957	49265.675
916.40671	49645.375
920.19121	50293.375
923.97308	50963.475
927.75233	51025.175
931.52895	50573.375
935.30295	49857.575
939.07433	49142.975
942.84309	48706.475
946.60924	48634.675
950.37278	48662.475
954.13371	48598.475
957.89203	48476.675
961.64774	48491.775
965.40086	48447.875
969.15137	48384.375
972.89929	48230.775
976.64461	48214.675
980.38733	48394.775
984.12747	48589.875
987.86502	48876.975
991.59999	49310.275
995.33237	50016.675
999.06217	51098.775
1002.78939	52591.175
1006.51404	53827.375
1010.23611	54861.075
1013.95561	55420.775
1017.67255	55201.875
1021.38692	54359.975
1025.09872	53555.275
1028.80796	53477.575
1032.51465	54313.675
1036.21877	55253.875
1039.92035	55575.775
1043.61937	55239.275
1047.31584	54506.575
1051.00976	53669.875
1054.70114	53258.775
1058.38998	53420.375
1062.07627	54021.875
1065.76003	54837.575
1069.44126	56025.775
1073.11995	57441.175
1076.79611	58558.275
1080.46974	58865.675
1084.14085	58787.475
1087.80943	58731.775
1091.47549	58524.875
1095.13903	58219.175
1098.80005	57309.875
1102.45857	56116.175
1106.11456	55241.775
1109.76805	54674.975
1113.41903	54531.675
1117.06751	54571.575
1120.71348	54690.275
1124.35696	54968.075
1127.99793	55415.975
1131.63641	55727.375
1135.2724	55951.575
1138.90589	56132.375
1142.5369	56371.575
1146.16542	56695.975
1149.79145	56978.175
1153.415	57456.975
1157.03607	58433.075
1160.65467	60388.775
1164.27079	63414.075
1167.88443	66793.575
1171.49561	69778.975
1175.10432	73133.175
1178.71056	77553.975
1182.31434	82052.775
1185.91565	84477.675
1189.51451	84159.575
1193.11091	82261.075
1196.70485	79692.775
1200.29634	77195.175
1203.88538	75676.575
1207.47197	75235.775
1211.05612	74944.175
1214.63782	73988.075
1218.21708	72218.775
1221.79391	70242.675
1225.36829	68684.275
1228.94024	67565.675
1232.50976	66522.375
1236.07685	65708.175
1239.6415	65360.275
1243.20374	65493.575
1246.76355	66065.575
1250.32093	67203.775
1253.8759	68729.975
1257.42845	70568.875
1260.97859	72553.675
1264.52631	74774.875
1268.07163	77112.775
1271.61453	79605.275
1275.15503	82085.375
1278.69312	84354.175
1282.22882	86369.575
1285.76211	88528.575
1289.29301	90986.775
1292.82151	94054.975
1296.34761	98262.075
1299.87133	103726.175
1303.39266	109799.675
1306.9116	115208.675
1310.42815	118861.275
1313.94233	119968.775
1317.45412	118906.875
1320.96354	117386.975
1324.47058	116485.675
1327.97525	116358.075
1331.47754	116803.575
1334.97747	117021.575
1338.47502	116524.575
1341.97022	114782.275
1345.46305	112084.875
1348.95352	109355.375
1352.44163	108007.675
1355.92738	109112.075
1359.41078	112523.675
1362.89183	114988.575
1366.37053	113245.775
1369.84688	106240.475
1373.32088	96615.775
1376.79254	89504.375
1380.26186	86602.875
1383.72883	86834.675
1387.19347	86994.675
1390.65578	86070.875
1394.11575	85386.575
1397.57339	86207.275
1401.0287	88214.575
1404.48168	90475.875
1407.93234	91490.175
1411.38068	90656.975
1414.82669	88431.675
1418.27039	85050.075
1421.71177	81637.675
1425.15083	78821.375
1428.58758	77760.275
1432.02203	78681.875
1435.45416	81078.975
1438.88399	83921.775
1442.31151	85957.675
1445.73673	86857.375
1449.15965	86934.775
1452.58027	86392.675
1455.9986	85529.575
1459.41463	85598.675
1462.82837	86833.575
1466.23982	88670.475
1469.64898	90513.775
1473.05586	91649.775
1476.46045	91943.475
1479.86276	91303.575
1483.26279	90276.775
1486.66054	89569.975
1490.05602	89554.875
1493.44922	89668.875
1496.84016	89471.175
1500.22882	89517.875
1503.61521	89986.175
1506.99934	90844.875
1510.38121	91424.175
1513.76081	91162.475
1517.13816	89966.475
1520.51324	88524.775
1523.88607	87809.575
1527.25665	88147.375
1530.62498	88834.275
1533.99105	89170.475
1537.35488	88575.075
1540.71647	87185.175
1544.07581	85383.375
1547.4329	83376.175
1550.78776	81432.575
1554.14038	79997.875
1557.49077	79010.775
1560.83892	78161.275
1564.18484	77676.875
1567.52853	77429.375
1570.86999	78072.575
1574.20922	79848.075
1577.54624	82064.475
1580.88103	84021.875
1584.2136	86348.675
1587.54395	89807.475
1590.87208	94712.675
1594.19801	100512.175
1597.52172	105452.975
1600.84321	106180.675
1604.16251	100790.275
1607.47959	92192.475
1610.79447	83608.075
1614.10715	76144.275
1617.41763	70323.375
1620.7259	66629.075
1624.03199	64768.875
1627.33587	65076.175
1630.63757	67125.775
1633.93707	71583.375
1637.23439	78953.275
1640.52951	89158.575
1643.82246	100148.075
1647.11321	107263.975
1650.40179	106073.775
1653.68819	96441.675
1656.97241	83346.475
1660.25446	71778.075
1663.53433	63718.575
1666.81203	58537.375
1670.08756	55394.375
1673.36092	53344.675
1676.63211	51976.775
1679.90115	50975.175
1683.16801	50204.775
1686.43272	49718.775
1689.69527	49350.175
1692.95567	49015.275
1696.2139	48856.175
1699.46999	48710.675
1702.72392	48618.975
1705.97571	48484.375
1709.22535	48365.775
1712.47284	48308.875
1715.71819	48294.475
1718.96139	48182.475
1722.20246	47948.275
1725.44139	47827.975
1728.67818	47568.775
1731.91284	47237.275
1735.14537	47053.275
1738.37576	46828.175
1741.60403	46708.775
1744.83017	46560.975
1748.05418	46490.975
1751.27607	46343.875
1754.49584	46241.175
1757.71349	46224.475
1760.92903	46206.275
1764.14244	46192.475
1767.35375	46174.875
1770.56294	46157.475
1773.77002	46135.775
1776.97499	46131.175
1780.17785	46028.875
1783.37861	45978.475
1786.57727	45851.475
1789.77382	45749.275
1792.96828	45686.775
1796.16064	45642.075
1799.3509	45548.975
1802.53907	45478.375
1805.72514	45390.975
1808.90913	45349.675
1812.09102	45221.375
1815.27083	45174.075
1818.44856	45097.275
1821.6242	45164.775
1824.79776	45068.175
1827.96924	45041.275
1831.13864	45118.375
1834.30597	45202.575
1837.47122	45259.375
1840.6344	45226.675
1843.7955	45170.375
1846.95454	45193.575
1850.11151	45269.475
1853.26642	45241.275
1856.41926	45223.975
1859.57004	45196.575
1862.71876	45122.275
1865.86542	45135.575
1869.01003	45103.275
1872.15258	45100.675
1875.29308	45032.975
1878.43152	44996.375
1881.56792	44949.475
1884.70227	44874.975
1887.83457	44863.975
1890.96482	44834.675
1894.09304	44791.275
1897.21921	44789.375
1900.34335	44715.575
1903.46544	44609.575
1906.58551	44542.575
1909.70353	44455.475
1912.81953	44383.075
1915.93349	44360.275
1919.04543	44222.175
1922.15534	44162.275
1925.26322	44093.575
1928.36908	43949.075
1931.47292	43854.575
1934.57473	43784.875
1937.67453	43659.275
1940.77232	43603.775
1943.86808	43499.675
1946.96184	43397.775
1950.05358	43235.175
1953.14331	43161.675
1956.23103	43054.875
1959.31675	42976.975
1962.40046	42887.875
1965.48217	42689.375
1968.56188	42621.975
1971.63959	42508.075
1974.7153	42355.875
1977.78901	42265.075
1980.86073	42154.675
1983.93046	42075.875
1986.99819	41943.675
1990.06394	41859.175
1993.1277	41826.775
1996.18947	41649.175
1999.24925	41538.475
2002.30706	41392.175
2005.36288	41267.375
2008.41672	41229.075
2011.46859	41118.575
2014.51848	41008.575
2017.56639	40941.275
2020.61233	40912.475
2023.6563	40855.975
2026.6983	40770.475
2029.73833	40765.475
2032.7764	40664.175
2035.8125	40534.175
2038.84664	40452.975
2041.87881	40424.575
2044.90903	40433.575
2047.93729	40311.275
2050.96359	40279.475
2053.98794	40217.875
2057.01034	40256.975
2060.03078	40180.375
2063.04927	40175.075
2066.06582	40139.975
2069.08042	40127.775
2072.09307	40195.575
2075.10378	40131.875
2078.11255	40063.875
2081.11938	40039.475
2084.12426	40008.475
2087.12722	40082.575
2090.12824	40062.475
2093.12732	40065.575
2096.12447	40052.275
2099.11969	40006.475
2102.11299	40013.575
2105.10435	40103.175
2108.09379	40113.975
2111.08131	40198.275
2114.0669	40211.675
2117.05057	40197.175
2120.03233	40228.775
2123.01216	40225.475
2125.99008	40242.075
2128.96609	40271.575
2131.94018	40387.675
2134.91236	40393.875
2137.88263	40389.375
2140.851	40424.575
2143.81746	40476.775
2146.78201	40498.475
2149.74466	40539.875
2152.7054	40508.775
2155.66425	40544.575
2158.6212	40599.675
2161.57625	40568.275
2164.52941	40577.875
2167.48067	40608.775
2170.43004	40568.575
2173.37752	40584.975
2176.32311	40588.575
2179.26681	40515.975
2182.20863	40547.275
2185.14856	40535.575
2188.08661	40535.075
2191.02278	40604.575
2193.95707	40595.675
2196.88948	40556.075
2199.82001	40522.975
2202.74867	40541.475
2205.67545	40554.175
2208.60037	40471.675
2211.52341	40387.175
2214.44458	40371.575
2217.36388	40363.175
2220.28132	40370.175
2223.1969	40276.675
2226.11061	40206.675
2229.02246	40155.375
2231.93245	40091.075
2234.84058	40011.675
2237.74686	40026.175
2240.65128	39975.775
2243.55385	39883.975
2246.45456	39852.475
2249.35343	39717.475
2252.25044	39730.675
2255.14561	39609.375
2258.03893	39566.475
2260.93041	39545.375
2263.82004	39419.975
2266.70783	39386.275
2269.59378	39277.075
2272.4779	39208.075
2275.36017	39132.975
2278.24061	39091.775
2281.11922	39003.775
2283.996	38939.375
2286.87094	38953.575
2289.74405	38901.275
2292.61534	38857.075
2295.4848	38805.975
2298.35243	38886.275
2301.21824	38871.375
2304.08223	38898.375
2306.94439	38905.675
2309.80474	38887.475
2312.66327	38907.375
2315.51999	38874.475
2318.37489	38898.275
2321.22797	38824.675
2324.07925	38816.275
2326.92871	38753.775
2329.77637	38724.175
2332.62222	38751.475
2335.46626	38705.875
2338.3085	38662.075
2341.14893	38666.175
2343.98756	38703.875
2346.8244	38688.275
2349.65943	38660.675
2352.49267	38664.675
2355.32411	38640.875
2358.15376	38563.175
2360.98161	38576.675
2363.80768	38576.075
2366.63195	38491.275
2369.45444	38447.675
2372.27514	38366.575
2375.09405	38326.075
2377.91118	38326.875
2380.72652	38335.875
2383.54009	38200.875
2386.35187	38198.175
2389.16188	38105.375
2391.97011	38091.675
2394.77657	38066.375
2397.58125	38062.575
2400.38416	37952.875
2403.18529	37891.575
2405.98466	37867.875
2408.78226	37783.875
2411.57809	37752.175
2414.37216	37681.375
2417.16446	37711.575
2419.955	37637.175
2422.74378	37670.375
2425.5308	37607.075
2428.31606	37530.475
2431.09956	37551.975
2433.88131	37526.375
2436.6613	37575.375
2439.43954	37499.475
2442.21603	37479.675
2444.99077	37485.775
2447.76377	37526.775
2450.53501	37464.175
2453.30451	37456.675
2456.07226	37450.875
2458.83827	37416.975
2461.60254	37446.875
2464.36507	37439.175
2467.12586	37394.675
2469.88492	37436.975
2472.64224	37427.275
2475.39782	37443.275
2478.15167	37539.075
2480.90379	37487.075
2483.65417	37498.875
2486.40283	37465.575
2489.14976	37534.075
2491.89497	37451.075
2494.63845	37530.875
2497.3802	37499.375
2500.12024	37548.175
2502.85855	37557.075
2505.59514	37550.675
2508.33002	37517.775
2511.06318	37516.175
2513.79462	37480.075
2516.52435	37456.275
2519.25237	37440.475
2521.97867	37455.175
2524.70327	37469.275
2527.42616	37394.375
2530.14734	37404.375
2532.86681	37335.475
2535.58458	37313.075
2538.30065	37254.875
2541.01501	37252.275
2543.72768	37300.075
2546.43864	37278.375
2549.14791	37180.475
2551.85548	37229.675
2554.56136	37136.175
2557.26554	37141.475
2559.96803	37118.775
2562.66883	37084.475
2565.36794	37106.075
2568.06536	37073.175
2570.7611	37074.875
2573.45514	36991.175
2576.14751	37012.675
2578.83819	37036.775
2581.52719	37011.075
2584.21451	36935.575
2586.90015	36969.375
2589.58411	36888.975
2592.2664	36922.775
2594.94701	36883.975
2597.62594	36847.775
2600.30321	36827.975
2602.9788	36848.475
2605.65273	36814.475
2608.32498	36827.175
2610.99557	36721.775
2613.66449	36809.375
2616.33175	36718.475
2618.99734	36730.475
2621.66128	36697.375
2624.32355	36712.975
2626.98416	36652.375
2629.64311	36669.175
2632.30041	36657.875
2634.95605	36589.775
2637.61004	36572.575
2640.26238	36591.275
2642.91306	36546.275
2645.56209	36523.075
2648.20948	36554.575
2650.85521	36529.475
2653.4993	36530.375
2656.14175	36533.175
2658.78255	36580.275
2661.42171	36644.575
2664.05923	36637.075
2666.6951	36677.875
2669.32934	36658.775
2671.96194	36692.875
2674.59291	36691.275
2677.22224	36633.375
2679.84993	36670.575
2682.476	36617.075
2685.10043	36652.075
2687.72324	36586.375
2690.34441	36641.975
2692.96396	36603.775
2695.58188	36665.475
2698.19818	36623.675
2700.81285	36666.275
2703.4259	36624.575
2706.03733	36778.775
2708.64714	36770.375
2711.25533	36775.575
2713.86191	36873.575
2716.46687	36896.875
2719.07021	36815.175
2721.67194	36872.075
2724.27206	36847.075
2726.87057	36893.975
2729.46747	36907.775
2732.06276	37000.275
2734.65644	36964.975
2737.24852	37054.775
2739.83899	36957.175
2742.42786	36982.775
2745.01513	36876.775
2747.60079	36860.575
2750.18486	36872.975
2752.76733	36904.675
2755.3482	36910.275
2757.92747	36969.175
2760.50515	36888.375
2763.08123	36920.075
2765.65573	36851.075
2768.22863	36844.375
2770.79994	36807.775
2773.36967	36785.075
2775.9378	36757.375
2778.50435	36664.175
2781.06932	36721.075
2783.6327	36731.575
2786.1945	36646.175
2788.75471	36656.375
2791.31335	36553.475
2793.87041	36510.075
2796.42589	36456.075
2798.97979	36436.875
2801.53212	36362.675
2804.08288	36344.375
2806.63206	36243.375
2809.17967	36209.575
2811.72571	36118.375
2814.27018	36085.875
2816.81308	36006.475
2819.35442	36006.475
2821.89419	35923.675
2824.43239	35961.575
2826.96904	35891.475
2829.50412	35858.775
2832.03763	35824.575
2834.56959	35867.375
2837.1	35712.975
2839.62884	35733.575
2842.15613	35617.375
2844.68186	35647.575
2847.20604	35551.275
2849.72867	35553.375
2852.24974	35533.075
2854.76927	35543.275
2857.28724	35464.575
2859.80367	35395.975
2862.31855	35401.575
2864.83189	35350.975
2867.34368	35320.875
2869.85393	35376.475
2872.36264	35311.875
2874.8698	35312.275
2877.37543	35323.975
2879.87952	35329.275
2882.38207	35367.875
2884.88308	35330.375
2887.38256	35402.175
2889.88051	35411.775
2892.37692	35411.675
2894.8718	35394.975
2897.36515	35418.375
2899.85698	35444.375
2902.34727	35537.775
2904.83604	35554.775
2907.32328	35583.975
2909.809	35602.875
2912.29319	35662.375
2914.77587	35650.375
2917.25702	35631.075
2919.73665	35584.375
2922.21476	35588.475
2924.69136	35540.675
2927.16644	35536.675
2929.64	35572.075
2932.11205	35500.775
2934.58258	35338.975
2937.05161	35501.875
2939.51912	35530.275
2941.98513	35523.675
2944.44962	35416.675
2946.91261	35264.875
2949.37409	35390.075
2951.83407	35349.075
2954.29254	35301.575
2956.74951	35226.175
2959.20498	35223.875
2961.65895	35195.275
2964.11142	35177.475
2966.56239	35092.875
2969.01186	35127.975
2971.45984	35039.075
2973.90632	35031.875
2976.35131	34937.375
2978.7948	34894.675
2981.23681	34840.475
2983.67732	34782.875
2986.11635	34696.975
2988.55388	34604.075
2990.98993	34520.475
2993.4245	34506.375
2995.85758	34458.075
2998.28917	34316.975
3000.71928	34282.175
3003.14791	34207.275
3005.57506	34172.575
3008.00073	34104.775
3010.42493	34089.375
3012.84764	34060.375
3015.26888	34022.875
3017.68865	33974.975
3020.10694	33928.775
3022.52376	33888.675
3024.9391	33852.475
3027.35298	33798.875
3029.76539	33771.875
3032.17632	33770.775
3034.5858	33714.075
3036.9938	33659.675
3039.40034	33627.275
3041.80542	33589.775
3044.20903	33485.175
3046.61118	33519.375
3049.01187	33444.875
3051.4111	33359.275
3053.80888	33319.675
3056.20519	33240.975
3058.60005	33170.775
3060.99345	33165.175
3063.3854	33052.175
3065.7759	32981.575
3068.16494	32929.675
3070.55254	32815.175
3072.93868	32786.675
3075.32338	32669.175
3077.70662	32617.775
3080.08842	32527.075
3082.46878	32526.775
3084.84769	32455.975
3087.22515	32462.075
3089.60118	32432.975
3091.97576	32428.275
3094.3489	32384.075
3096.72061	32357.375
3099.09087	32385.675
3101.4597	32296.775
3103.82709	32303.775
3106.19305	32193.175
3108.55757	32153.675
3110.92066	32069.575
3113.28232	32009.175
3115.64255	31964.275
3118.00134	31896.075
3120.35871	31877.175
3122.71466	31838.775
