Data from AgNP_FTO_APTES_CRN_200uM_R6G_10uM_NaF_0.1M_Addition_RamanShift__17__19-36-48-179.txt Node

Date: Wed Dec 15 19:36:48 GMT 2021
User: TCL
Spectrometer: QEP01345
Trigger mode: 4
Integration Time (sec): 7.000000E0
Scans to average: 10
Electric dark correction enabled: true
Nonlinearity correction enabled: false
Boxcar width: 0
XAxis mode: Raman Shifts
Number of Pixels in Spectrum: 1044
>>>>>Begin Spectral Data<<<<<
46.04893	0.525
50.45542	-2.175
54.85868	-0.575
59.25871	-1.475
63.6555	59.125
68.04907	66.025
72.43941	65.425
76.82654	71.225
81.21044	73.125
85.59113	73.825
89.96862	77.625
94.34289	76.725
98.71396	82.325
103.08183	88.425
107.4465	92.425
111.80798	89.425
116.16626	93.225
120.52136	96.625
124.87327	98.525
129.222	104.225
133.56755	102.425
137.90993	114.525
142.24913	126.425
146.58517	138.125
150.91804	154.625
155.24774	186.325
159.57429	231.225
163.89768	289.325
168.21792	377.125
172.53501	510.425
176.84895	704.925
181.15975	981.525
185.46741	1384.825
189.77193	1910.325
194.07331	2544.525
198.37157	3278.225
202.6667	4047.125
206.9587	4822.025
211.24758	5545.725
215.53334	6323.025
219.81599	7098.225
224.09553	7954.325
228.37195	8932.425
232.64527	9977.025
236.91549	11095.025
241.18261	12198.525
245.44663	13248.425
249.70755	14200.525
253.96539	15061.725
258.22014	15755.425
262.4718	16345.025
266.72039	16740.325
270.96589	16963.325
275.20832	16993.925
279.44768	16861.925
283.68397	16689.925
287.91719	16509.825
292.14735	16410.225
296.37445	16376.725
300.59849	16402.525
304.81948	16484.125
309.03742	16426.725
313.25231	16303.025
317.46415	15986.225
321.67296	15674.425
325.87872	15372.425
330.08145	15231.925
334.28114	15231.325
338.47781	15355.025
342.67145	15550.625
346.86207	15757.525
351.04966	16041.325
355.23424	16335.225
359.4158	16578.925
363.59435	16778.825
367.76989	16901.625
371.94243	16963.325
376.11196	17038.325
380.27849	17186.225
384.44203	17299.725
388.60257	17411.125
392.76012	17557.425
396.91468	17751.525
401.06626	17954.825
405.21485	18118.425
409.36047	18042.825
413.50311	17800.325
417.64277	17562.025
421.77947	17511.025
425.9132	17541.825
430.04396	17630.725
434.17176	17791.725
438.2966	18003.825
442.41849	18385.325
446.53742	18916.625
450.6534	19420.125
454.76644	19747.925
458.87653	19824.725
462.98368	19701.325
467.08789	19507.425
471.18916	19321.825
475.2875	19187.425
479.38291	19188.425
483.4754	19098.125
487.56496	18833.825
491.6516	18509.125
495.73531	18271.825
499.81612	18142.725
503.89401	18171.525
507.96899	18224.525
512.04106	18236.825
516.11023	18255.625
520.1765	18251.125
524.23987	18243.925
528.30034	18216.225
532.35792	18131.825
536.41261	17951.425
540.46441	17822.625
544.51333	17770.625
548.55936	17902.425
552.60252	18217.425
556.64279	18660.725
560.6802	18954.125
564.71473	19087.125
568.7464	19263.625
572.7752	19499.125
576.80114	19641.925
580.82422	19758.125
584.84444	19949.825
588.86181	20365.725
592.87633	21026.025
596.888	21402.625
600.89682	21177.725
604.9028	21247.925
608.90594	22397.425
612.90624	23816.125
616.90371	22674.125
620.89834	19621.625
624.89015	18275.625
628.87913	18090.225
632.86528	18200.725
636.84862	18275.525
640.82913	18132.225
644.80683	17795.125
648.78172	17518.925
652.75379	17460.225
656.72306	17573.925
660.68952	17776.725
664.65319	17735.225
668.61405	17502.825
672.57211	17441.425
676.52738	17479.225
680.47986	17505.025
684.42955	17460.625
688.37646	17383.225
692.32058	17411.325
696.26192	17530.225
700.20048	17669.625
704.13626	17798.025
708.06928	17786.225
711.99952	17765.725
715.927	17695.625
719.85171	17706.625
723.77365	17672.125
727.69284	17586.125
731.60928	17419.925
735.52295	17444.325
739.43388	17422.025
743.34206	17441.025
747.24749	17461.925
751.15017	17524.025
755.05012	17708.525
758.94733	18129.225
762.8418	18808.325
766.73354	19970.825
770.62254	21118.525
774.50882	21451.025
778.39237	20699.025
782.27321	19406.725
786.15132	18332.725
790.02671	17673.425
793.89938	17348.825
797.76935	17218.125
801.6366	17191.125
805.50115	17124.425
809.36299	17115.925
813.22213	17049.225
817.07857	17051.925
820.93231	17039.225
824.78336	17012.725
828.63172	16989.225
832.47738	17013.825
836.32036	16984.925
840.16066	17018.725
843.99827	17027.125
847.8332	16967.525
851.66546	16909.525
855.49504	16894.725
859.32195	16899.125
863.1462	16932.725
866.96777	16886.425
870.78668	16864.425
874.60293	16866.825
878.41652	16869.625
882.22745	16900.625
886.03573	16935.725
889.84136	16943.425
893.64433	16890.725
897.44466	16828.325
901.24235	16754.025
905.0374	16741.625
908.8298	16733.025
912.61957	16732.325
916.40671	16843.025
920.19121	16945.525
923.97308	17060.725
927.75233	17109.625
931.52895	17088.525
935.30295	16937.925
939.07433	16713.025
942.84309	16485.925
946.60924	16377.525
950.37278	16327.925
954.13371	16302.225
957.89203	16277.525
961.64774	16279.925
965.40086	16256.925
969.15137	16199.525
972.89929	16101.625
976.64461	16091.225
980.38733	16059.525
984.12747	16142.425
987.86502	16217.225
991.59999	16354.825
995.33237	16492.225
999.06217	16763.025
1002.78939	17062.825
1006.51404	17244.425
1010.23611	17377.125
1013.95561	17530.825
1017.67255	17546.525
1021.38692	17392.025
1025.09872	17165.325
1028.80796	17065.225
1032.51465	17168.325
1036.21877	17297.625
1039.92035	17386.825
1043.61937	17368.525
1047.31584	17307.325
1051.00976	17265.325
1054.70114	17265.425
1058.38998	17403.025
1062.07627	17623.625
1065.76003	17897.525
1069.44126	18247.925
1073.11995	18573.425
1076.79611	18784.925
1080.46974	18787.525
1084.14085	18598.625
1087.80943	18462.625
1091.47549	18370.625
1095.13903	18287.225
1098.80005	18075.125
1102.45857	17767.825
1106.11456	17520.525
1109.76805	17440.525
1113.41903	17493.125
1117.06751	17617.325
1120.71348	17771.325
1124.35696	17986.625
1127.99793	18218.325
1131.63641	18318.025
1135.2724	18216.925
1138.90589	18029.125
1142.5369	17937.825
1146.16542	17943.025
1149.79145	18003.425
1153.415	18133.025
1157.03607	18318.925
1160.65467	18642.525
1164.27079	19178.325
1167.88443	19988.225
1171.49561	21028.325
1175.10432	22441.925
1178.71056	24104.825
1182.31434	25566.725
1185.91565	26072.625
1189.51451	25673.525
1193.11091	24781.025
1196.70485	23835.125
1200.29634	22938.025
1203.88538	22323.225
1207.47197	21861.525
1211.05612	21479.925
1214.63782	21234.525
1218.21708	20973.425
1221.79391	20822.925
1225.36829	20773.825
1228.94024	20594.625
1232.50976	20288.025
1236.07685	20015.525
1239.6415	19927.125
1243.20374	19926.625
1246.76355	20059.925
1250.32093	20260.925
1253.8759	20510.025
1257.42845	20966.325
1260.97859	21284.825
1264.52631	21691.225
1268.07163	22091.525
1271.61453	22542.525
1275.15503	22998.225
1278.69312	23479.625
1282.22882	23966.225
1285.76211	24572.625
1289.29301	25355.325
1292.82151	26267.725
1296.34761	27438.225
1299.87133	28668.425
1303.39266	30079.725
1306.9116	31595.025
1310.42815	33238.525
1313.94233	34377.525
1317.45412	34663.625
1320.96354	34163.225
1324.47058	33356.725
1327.97525	32517.825
1331.47754	31798.525
1334.97747	31391.525
1338.47502	31092.625
1341.97022	30807.725
1345.46305	30449.225
1348.95352	30128.125
1352.44163	30272.325
1355.92738	31036.825
1359.41078	32505.025
1362.89183	33872.225
1366.37053	33570.825
1369.84688	31162.025
1373.32088	28206.725
1376.79254	26103.725
1380.26186	25320.125
1383.72883	25203.325
1387.19347	25217.325
1390.65578	25056.325
1394.11575	25050.825
1397.57339	25309.425
1401.0287	25716.225
1404.48168	26007.725
1407.93234	25977.225
1411.38068	25571.625
1414.82669	24802.225
1418.27039	23890.125
1421.71177	22999.725
1425.15083	22216.725
1428.58758	21809.625
1432.02203	21878.325
1435.45416	22279.025
1438.88399	22770.025
1442.31151	23219.725
1445.73673	23587.125
1449.15965	23912.125
1452.58027	24208.425
1455.9986	24305.925
1459.41463	24466.525
1462.82837	24741.425
1466.23982	25209.725
1469.64898	25606.125
1473.05586	25642.925
1476.46045	25623.325
1479.86276	25570.225
1483.26279	25337.625
1486.66054	25200.225
1490.05602	25212.125
1493.44922	25344.425
1496.84016	25521.725
1500.22882	25883.325
1503.61521	26652.825
1506.99934	27630.525
1510.38121	28499.125
1513.76081	28764.825
1517.13816	28119.225
1520.51324	26933.525
1523.88607	25823.025
1527.25665	25190.725
1530.62498	24852.425
1533.99105	24794.225
1537.35488	24627.325
1540.71647	24349.125
1544.07581	24003.725
1547.4329	23609.425
1550.78776	23273.625
1554.14038	23050.325
1557.49077	22987.325
1560.83892	23011.925
1564.18484	23143.725
1567.52853	23413.625
1570.86999	23882.525
1574.20922	24506.125
1577.54624	25127.825
1580.88103	25309.025
1584.2136	25287.425
1587.54395	25264.425
1590.87208	25605.025
1594.19801	26397.225
1597.52172	27460.825
1600.84321	27912.025
1604.16251	27109.325
1607.47959	25446.725
1610.79447	23514.425
1614.10715	21758.925
1617.41763	20421.825
1620.7259	19544.325
1624.03199	19154.425
1627.33587	19120.725
1630.63757	19476.825
1633.93707	20406.925
1637.23439	21953.625
1640.52951	24194.825
1643.82246	26875.225
1647.11321	29123.525
1650.40179	29729.725
1653.68819	28146.325
1656.97241	24995.625
1660.25446	21935.725
1663.53433	19599.025
1666.81203	18118.425
1670.08756	17200.525
1673.36092	16601.225
1676.63211	16214.625
1679.90115	15950.925
1683.16801	15708.425
1686.43272	15595.225
1689.69527	15444.525
1692.95567	15381.025
1696.2139	15348.525
1699.46999	15310.725
1702.72392	15294.925
1705.97571	15232.225
1709.22535	15175.725
1712.47284	15164.025
1715.71819	15111.525
1718.96139	15111.125
1722.20246	15048.425
1725.44139	15018.125
1728.67818	14924.925
1731.91284	14868.225
1735.14537	14798.125
1738.37576	14749.325
1741.60403	14734.625
1744.83017	14698.525
1748.05418	14694.325
1751.27607	14653.625
1754.49584	14640.625
1757.71349	14626.625
1760.92903	14632.925
1764.14244	14590.025
1767.35375	14600.425
1770.56294	14552.925
1773.77002	14574.725
1776.97499	14512.125
1780.17785	14477.525
1783.37861	14474.925
1786.57727	14421.925
1789.77382	14371.325
1792.96828	14363.925
1796.16064	14386.925
1799.3509	14316.425
1802.53907	14289.125
1805.72514	14243.525
1808.90913	14209.425
1812.09102	14179.625
1815.27083	14163.125
1818.44856	14129.725
1821.6242	14105.925
1824.79776	14115.725
1827.96924	14120.325
1831.13864	14095.925
1834.30597	14085.425
1837.47122	14059.925
1840.6344	14059.125
1843.7955	14052.525
1846.95454	14024.325
1850.11151	14000.025
1853.26642	14027.725
1856.41926	14011.625
1859.57004	13999.425
1862.71876	14028.425
1865.86542	13983.825
1869.01003	14002.325
1872.15258	13988.625
1875.29308	13980.725
1878.43152	13926.125
1881.56792	13949.025
1884.70227	13927.625
1887.83457	13931.925
1890.96482	13902.425
1894.09304	13890.825
1897.21921	13876.725
1900.34335	13878.825
1903.46544	13831.825
1906.58551	13840.125
1909.70353	13831.425
1912.81953	13820.825
1915.93349	13786.125
1919.04543	13756.425
1922.15534	13757.025
1925.26322	13728.525
1928.36908	13693.625
1931.47292	13707.825
1934.57473	13660.825
1937.67453	13630.825
1940.77232	13587.825
1943.86808	13561.625
1946.96184	13523.725
1950.05358	13497.825
1953.14331	13431.225
1956.23103	13420.325
1959.31675	13367.825
1962.40046	13331.225
1965.48217	13275.025
1968.56188	13251.825
1971.63959	13230.925
1974.7153	13181.425
1977.78901	13137.225
1980.86073	13092.825
1983.93046	13072.725
1986.99819	13023.925
1990.06394	13003.625
1993.1277	12959.525
1996.18947	12934.625
1999.24925	12879.525
2002.30706	12865.725
2005.36288	12813.825
2008.41672	12763.725
2011.46859	12728.625
2014.51848	12723.425
2017.56639	12685.525
2020.61233	12647.825
2023.6563	12634.925
2026.6983	12594.025
2029.73833	12572.325
2032.7764	12562.925
2035.8125	12541.725
2038.84664	12500.725
2041.87881	12490.625
2044.90903	12483.125
2047.93729	12445.525
2050.96359	12423.125
2053.98794	12418.525
2057.01034	12426.925
2060.03078	12380.725
2063.04927	12373.625
2066.06582	12400.125
2069.08042	12363.425
2072.09307	12343.725
2075.10378	12345.825
2078.11255	12336.525
2081.11938	12343.525
2084.12426	12324.325
2087.12722	12311.325
2090.12824	12302.325
2093.12732	12327.425
2096.12447	12341.325
2099.11969	12346.325
2102.11299	12340.025
2105.10435	12334.725
2108.09379	12326.425
2111.08131	12359.325
2114.0669	12344.125
2117.05057	12322.125
2120.03233	12358.625
2123.01216	12373.725
2125.99008	12383.825
2128.96609	12432.325
2131.94018	12424.025
2134.91236	12407.325
2137.88263	12423.725
2140.851	12412.225
2143.81746	12456.125
2146.78201	12422.825
2149.74466	12443.625
2152.7054	12448.525
2155.66425	12446.625
2158.6212	12466.725
2161.57625	12412.025
2164.52941	12452.125
2167.48067	12400.625
2170.43004	12392.425
2173.37752	12422.225
2176.32311	12420.325
2179.26681	12412.025
2182.20863	12432.125
2185.14856	12413.825
2188.08661	12376.125
2191.02278	12392.425
2193.95707	12377.225
2196.88948	12352.725
2199.82001	12366.225
2202.74867	12375.925
2205.67545	12384.225
2208.60037	12329.125
2211.52341	12337.725
2214.44458	12321.225
2217.36388	12268.825
2220.28132	12243.925
2223.1969	12243.625
2226.11061	12198.625
2229.02246	12188.825
2231.93245	12165.425
2234.84058	12166.925
2237.74686	12135.725
2240.65128	12154.825
2243.55385	12114.025
2246.45456	12109.625
2249.35343	12064.625
2252.25044	12058.225
2255.14561	12052.325
2258.03893	12033.425
2260.93041	12000.625
2263.82004	11978.425
2266.70783	11951.625
2269.59378	11905.525
2272.4779	11884.625
2275.36017	11883.225
2278.24061	11877.025
2281.11922	11794.225
2283.996	11794.725
2286.87094	11800.125
2289.74405	11759.825
2292.61534	11728.625
2295.4848	11733.825
2298.35243	11749.825
2301.21824	11728.125
2304.08223	11712.725
2306.94439	11700.725
2309.80474	11695.025
2312.66327	11689.925
2315.51999	11705.025
2318.37489	11682.425
2321.22797	11679.425
2324.07925	11662.525
2326.92871	11648.625
2329.77637	11626.125
2332.62222	11602.125
2335.46626	11600.425
2338.3085	11572.725
2341.14893	11590.625
2343.98756	11557.725
2346.8244	11584.325
2349.65943	11553.425
2352.49267	11553.425
2355.32411	11539.625
2358.15376	11543.425
2360.98161	11524.625
2363.80768	11528.225
2366.63195	11544.125
2369.45444	11500.625
2372.27514	11488.225
2375.09405	11509.025
2377.91118	11448.225
2380.72652	11434.025
2383.54009	11403.925
2386.35187	11381.625
2389.16188	11354.425
2391.97011	11334.625
2394.77657	11319.525
2397.58125	11301.325
2400.38416	11322.125
2403.18529	11283.125
2405.98466	11279.025
2408.78226	11255.725
2411.57809	11249.825
2414.37216	11217.325
2417.16446	11181.725
2419.955	11166.925
2422.74378	11154.825
2425.5308	11156.525
2428.31606	11147.625
2431.09956	11137.625
2433.88131	11114.525
2436.6613	11141.225
2439.43954	11109.525
2442.21603	11126.125
2444.99077	11109.125
2447.76377	11083.725
2450.53501	11092.525
2453.30451	11092.925
2456.07226	11083.425
2458.83827	11048.325
2461.60254	11060.525
2464.36507	11025.525
2467.12586	11040.425
2469.88492	11042.825
2472.64224	11052.525
2475.39782	11011.425
2478.15167	11053.325
2480.90379	11046.325
2483.65417	11040.825
2486.40283	11046.225
2489.14976	11053.225
2491.89497	11023.425
2494.63845	11029.325
2497.3802	11028.925
2500.12024	11019.725
2502.85855	11007.025
2505.59514	11014.725
2508.33002	10961.925
2511.06318	10968.325
2513.79462	10947.425
2516.52435	10938.325
2519.25237	10939.025
2521.97867	10933.825
2524.70327	10921.025
2527.42616	10896.525
2530.14734	10900.725
2532.86681	10870.725
2535.58458	10867.025
2538.30065	10824.325
2541.01501	10848.225
2543.72768	10834.825
2546.43864	10827.825
2549.14791	10818.225
2551.85548	10774.925
2554.56136	10760.425
2557.26554	10735.525
2559.96803	10751.825
2562.66883	10730.925
2565.36794	10706.725
2568.06536	10719.725
2570.7611	10722.225
2573.45514	10717.825
2576.14751	10675.125
2578.83819	10670.325
2581.52719	10639.225
2584.21451	10662.525
2586.90015	10650.325
2589.58411	10609.725
2592.2664	10620.125
2594.94701	10582.825
2597.62594	10591.625
2600.30321	10566.625
2602.9788	10562.825
2605.65273	10533.425
2608.32498	10538.025
2610.99557	10510.025
2613.66449	10518.925
2616.33175	10488.525
2618.99734	10497.025
2621.66128	10481.025
2624.32355	10466.825
2626.98416	10446.025
2629.64311	10474.325
2632.30041	10450.325
2634.95605	10435.325
2637.61004	10431.325
2640.26238	10426.525
2642.91306	10415.825
2645.56209	10386.625
2648.20948	10403.225
2650.85521	10397.425
2653.4993	10407.725
2656.14175	10375.425
2658.78255	10391.725
2661.42171	10397.825
2664.05923	10399.925
2666.6951	10402.925
2669.32934	10415.925
2671.96194	10403.925
2674.59291	10402.225
2677.22224	10383.525
2679.84993	10396.325
2682.476	10384.625
2685.10043	10398.825
2687.72324	10377.825
2690.34441	10374.625
2692.96396	10380.625
2695.58188	10390.325
2698.19818	10362.125
2700.81285	10381.425
2703.4259	10372.425
2706.03733	10444.825
2708.64714	10449.725
2711.25533	10439.625
2713.86191	10402.225
2716.46687	10402.325
2719.07021	10394.125
2721.67194	10418.925
2724.27206	10377.525
2726.87057	10414.125
2729.46747	10402.425
2732.06276	10411.925
2734.65644	10396.325
2737.24852	10401.925
2739.83899	10366.825
2742.42786	10381.325
2745.01513	10368.925
2747.60079	10380.525
2750.18486	10323.925
2752.76733	10360.725
2755.3482	10353.225
2757.92747	10356.125
2760.50515	10350.025
2763.08123	10330.225
2765.65573	10330.825
2768.22863	10305.825
2770.79994	10306.025
2773.36967	10295.825
2775.9378	10290.625
2778.50435	10276.025
2781.06932	10260.325
2783.6327	10255.025
2786.1945	10284.925
2788.75471	10254.525
2791.31335	10212.125
2793.87041	10235.725
2796.42589	10186.725
2798.97979	10194.525
2801.53212	10188.925
2804.08288	10156.225
2806.63206	10112.725
2809.17967	10115.225
2811.72571	10083.925
2814.27018	10086.225
2816.81308	10067.225
2819.35442	10063.525
2821.89419	10011.925
2824.43239	10014.625
2826.96904	10026.425
2829.50412	10010.025
2832.03763	10004.925
2834.56959	9993.125
2837.1	9977.225
2839.62884	9988.025
2842.15613	9973.325
2844.68186	9973.725
2847.20604	9979.825
2849.72867	9992.025
2852.24974	9966.625
2854.76927	9988.725
2857.28724	9974.425
2859.80367	9949.925
2862.31855	9946.125
2864.83189	9914.125
2867.34368	9920.825
2869.85393	9914.625
2872.36264	9907.525
2874.8698	9890.625
2877.37543	9906.425
2879.87952	9915.325
2882.38207	9905.925
2884.88308	9887.025
2887.38256	9919.225
2889.88051	9917.925
2892.37692	9922.125
2894.8718	9898.025
2897.36515	9905.325
2899.85698	9903.325
2902.34727	9921.425
2904.83604	9920.725
2907.32328	9943.425
2909.809	9944.425
2912.29319	9953.225
2914.77587	9946.325
2917.25702	9958.825
2919.73665	9957.925
2922.21476	9941.425
2924.69136	9930.425
2927.16644	9909.925
2929.64	9905.125
2932.11205	9905.225
2934.58258	9877.525
2937.05161	9907.125
2939.51912	9905.825
2941.98513	9896.525
2944.44962	9859.725
2946.91261	9852.525
2949.37409	9853.125
2951.83407	9822.025
2954.29254	9842.525
2956.74951	9813.925
2959.20498	9794.725
2961.65895	9807.525
2964.11142	9791.325
2966.56239	9772.525
2969.01186	9759.525
2971.45984	9738.825
2973.90632	9726.425
2976.35131	9699.325
2978.7948	9669.725
2981.23681	9660.325
2983.67732	9642.825
2986.11635	9628.125
2988.55388	9599.125
2990.98993	9563.525
2993.4245	9552.025
2995.85758	9548.525
2998.28917	9545.325
3000.71928	9496.025
3003.14791	9495.625
3005.57506	9489.825
3008.00073	9499.325
3010.42493	9477.625
3012.84764	9440.025
3015.26888	9468.425
3017.68865	9423.025
3020.10694	9441.325
3022.52376	9381.225
3024.9391	9371.525
3027.35298	9372.425
3029.76539	9369.725
3032.17632	9369.325
3034.5858	9334.725
3036.9938	9347.725
3039.40034	9331.025
3041.80542	9337.425
3044.20903	9318.525
3046.61118	9307.725
3049.01187	9277.225
3051.4111	9266.325
3053.80888	9259.025
3056.20519	9241.825
3058.60005	9210.125
3060.99345	9187.025
3063.3854	9184.325
3065.7759	9164.025
3068.16494	9168.525
3070.55254	9142.625
3072.93868	9115.825
3075.32338	9107.425
3077.70662	9091.525
3080.08842	9049.525
3082.46878	9060.125
3084.84769	9041.325
3087.22515	9041.425
3089.60118	9061.625
3091.97576	9079.925
3094.3489	9066.425
3096.72061	9071.225
3099.09087	9068.425
3101.4597	9042.525
3103.82709	9053.725
3106.19305	9033.925
3108.55757	9031.625
3110.92066	8985.925
3113.28232	8984.625
3115.64255	8955.725
3118.00134	8966.625
3120.35871	8955.525
3122.71466	8944.725
3125.06917	8915.225
3127.42226	8924.125
3129.77393	8924.825
3132.12417	8917.325
3134.47299	8918.625
3136.82039	8929.625
3139.16636	8930.525
3141.51092	8939.925
3143.85406	8929.825
