Data from AgNP_FTO_APTES_CRN_1uM_R6G_10uM_NaF_0.1M_Addition_RamanShift__0__13-45-30-777.txt Node

Date: Wed Dec 15 13:45:30 GMT 2021
User: TCL
Spectrometer: QEP01345
Trigger mode: 4
Integration Time (sec): 7.000000E0
Scans to average: 10
Electric dark correction enabled: true
Nonlinearity correction enabled: false
Boxcar width: 0
XAxis mode: Raman Shifts
Number of Pixels in Spectrum: 1044
>>>>>Begin Spectral Data<<<<<
46.04893	0.9375
50.45542	-3.7625
54.85868	-1.6625
59.25871	-1.5625
63.6555	130.6375
68.04907	139.7375
72.43941	146.5375
76.82654	155.8375
81.21044	161.5375
85.59113	168.6375
89.96862	177.5375
94.34289	179.9375
98.71396	190.6375
103.08183	195.6375
107.4465	200.6375
111.80798	197.8375
116.16626	205.5375
120.52136	210.2375
124.87327	213.0375
129.222	220.6375
133.56755	224.3375
137.90993	238.3375
142.24913	254.2375
146.58517	280.5375
150.91804	318.7375
155.24774	368.4375
159.57429	444.9375
163.89768	557.7375
168.21792	717.4375
172.53501	954.3375
176.84895	1312.9375
181.15975	1817.8375
185.46741	2545.3375
189.77193	3497.0375
194.07331	4671.2375
198.37157	6025.4375
202.6667	7428.4375
206.9587	8812.6375
211.24758	10203.9375
215.53334	11593.7375
219.81599	13068.3375
224.09553	14720.6375
228.37195	16547.3375
232.64527	18496.6375
236.91549	20552.3375
241.18261	22626.2375
245.44663	24510.5375
249.70755	26187.2375
253.96539	27665.3375
258.22014	28960.3375
262.4718	29999.3375
266.72039	30718.8375
270.96589	31060.9375
275.20832	31052.8375
279.44768	30757.3375
283.68397	30368.5375
287.91719	29939.6375
292.14735	29662.3375
296.37445	29675.2375
300.59849	29885.2375
304.81948	30216.0375
309.03742	30507.8375
313.25231	30507.2375
317.46415	30078.5375
321.67296	29323.0375
325.87872	28793.9375
330.08145	28580.8375
334.28114	28621.2375
338.47781	28920.2375
342.67145	29306.8375
346.86207	29827.0375
351.04966	30502.3375
355.23424	31283.0375
359.4158	31980.4375
363.59435	32422.9375
367.76989	32736.8375
371.94243	32903.4375
376.11196	33055.1375
380.27849	33169.4375
384.44203	33276.3375
388.60257	33376.0375
392.76012	33538.7375
396.91468	33882.8375
401.06626	34421.1375
405.21485	34885.0375
409.36047	34918.5375
413.50311	34484.1375
417.64277	34062.3375
421.77947	33888.6375
425.9132	33968.4375
430.04396	34105.0375
434.17176	34406.6375
438.2966	34876.5375
442.41849	35789.7375
446.53742	37049.9375
450.6534	38429.2375
454.76644	39418.6375
458.87653	39490.8375
462.98368	38917.9375
467.08789	38081.6375
471.18916	37144.8375
475.2875	36177.6375
479.38291	35487.1375
483.4754	34923.0375
487.56496	34602.4375
491.6516	34347.5375
495.73531	34224.5375
499.81612	34184.1375
503.89401	34379.3375
507.96899	34520.9375
512.04106	34533.0375
516.11023	34665.9375
520.1765	34877.3375
524.23987	35027.7375
528.30034	35199.8375
532.35792	35031.3375
536.41261	34559.5375
540.46441	33928.1375
544.51333	33644.7375
548.55936	33704.3375
552.60252	34173.9375
556.64279	34714.7375
560.6802	35105.6375
564.71473	35270.0375
568.7464	35532.3375
572.7752	35898.9375
576.80114	36117.0375
580.82422	36483.5375
584.84444	37336.4375
588.86181	38784.5375
592.87633	40609.4375
596.888	41703.4375
600.89682	41490.1375
604.9028	42204.4375
608.90594	45899.1375
612.90624	49960.8375
616.90371	47305.9375
620.89834	39903.4375
624.89015	36484.5375
628.87913	35938.0375
632.86528	35809.0375
636.84862	35399.5375
640.82913	34707.7375
644.80683	33814.6375
648.78172	33284.9375
652.75379	33413.8375
656.72306	34090.9375
660.68952	34900.9375
664.65319	34791.1375
668.61405	34205.6375
672.57211	34069.4375
676.52738	34122.2375
680.47986	33988.0375
684.42955	33744.0375
688.37646	33664.2375
692.32058	33906.0375
696.26192	34397.1375
700.20048	34893.8375
704.13626	35096.3375
708.06928	34876.3375
711.99952	34653.7375
715.927	34674.8375
719.85171	34913.7375
723.77365	34767.8375
727.69284	34376.7375
731.60928	33990.3375
735.52295	34020.5375
739.43388	34047.7375
743.34206	34204.0375
747.24749	34355.9375
751.15017	34490.6375
755.05012	34941.2375
758.94733	35692.6375
762.8418	37182.7375
766.73354	39646.6375
770.62254	42215.8375
774.50882	43166.9375
778.39237	41936.9375
782.27321	39301.8375
786.15132	36902.8375
790.02671	35427.6375
793.89938	34816.0375
797.76935	34572.1375
801.6366	34524.3375
805.50115	34402.9375
809.36299	34232.0375
813.22213	34030.2375
817.07857	33998.7375
820.93231	33933.9375
824.78336	33995.5375
828.63172	34117.2375
832.47738	34212.7375
836.32036	34359.1375
840.16066	34496.5375
843.99827	34601.9375
847.8332	34508.9375
851.66546	34332.0375
855.49504	34265.3375
859.32195	34233.7375
863.1462	34140.3375
866.96777	33923.7375
870.78668	33911.1375
874.60293	33925.8375
878.41652	33955.3375
882.22745	34153.9375
886.03573	34279.5375
889.84136	34290.3375
893.64433	34080.1375
897.44466	33891.8375
901.24235	33825.3375
905.0374	33799.1375
908.8298	33776.4375
912.61957	33831.3375
916.40671	34051.9375
920.19121	34385.1375
923.97308	34786.0375
927.75233	35124.6375
931.52895	35263.5375
935.30295	34987.6375
939.07433	34449.8375
942.84309	33983.9375
946.60924	33846.9375
950.37278	33784.4375
954.13371	33716.0375
957.89203	33490.0375
961.64774	33332.3375
965.40086	33316.7375
969.15137	33195.5375
972.89929	33235.3375
976.64461	33318.4375
980.38733	33460.2375
984.12747	33686.0375
987.86502	34073.0375
991.59999	34560.7375
995.33237	35245.1375
999.06217	36239.1375
1002.78939	37353.7375
1006.51404	38062.3375
1010.23611	38510.2375
1013.95561	38744.9375
1017.67255	38695.6375
1021.38692	38203.8375
1025.09872	37884.5375
1028.80796	38340.0375
1032.51465	39532.4375
1036.21877	40623.0375
1039.92035	40618.6375
1043.61937	40017.5375
1047.31584	38950.2375
1051.00976	37932.6375
1054.70114	37333.7375
1058.38998	37151.4375
1062.07627	37286.4375
1065.76003	37401.5375
1069.44126	37769.8375
1073.11995	38503.9375
1076.79611	39208.3375
1080.46974	39509.2375
1084.14085	39660.1375
1087.80943	39671.1375
1091.47549	39547.5375
1095.13903	39089.3375
1098.80005	38344.6375
1102.45857	37691.7375
1106.11456	37428.9375
1109.76805	37399.3375
1113.41903	37604.3375
1117.06751	37889.0375
1120.71348	38173.7375
1124.35696	38527.3375
1127.99793	38876.2375
1131.63641	39001.3375
1135.2724	38680.1375
1138.90589	38202.5375
1142.5369	37943.8375
1146.16542	37778.3375
1149.79145	37793.2375
1153.415	37815.1375
1157.03607	38050.8375
1160.65467	38586.1375
1164.27079	39715.4375
1167.88443	41328.4375
1171.49561	43575.1375
1175.10432	46624.4375
1178.71056	50618.8375
1182.31434	54380.9375
1185.91565	56115.0375
1189.51451	55577.1375
1193.11091	53418.8375
1196.70485	50702.1375
1200.29634	48374.7375
1203.88538	46744.7375
1207.47197	45462.5375
1211.05612	44421.0375
1214.63782	43914.0375
1218.21708	43959.9375
1221.79391	44316.1375
1225.36829	44570.8375
1228.94024	44276.5375
1232.50976	43404.2375
1236.07685	42532.2375
1239.6415	42150.3375
1243.20374	42158.2375
1246.76355	42471.6375
1250.32093	43167.4375
1253.8759	44067.9375
1257.42845	45239.8375
1260.97859	46396.4375
1264.52631	47461.7375
1268.07163	48582.9375
1271.61453	49786.9375
1275.15503	50979.7375
1278.69312	52206.6375
1282.22882	53274.1375
1285.76211	54332.3375
1289.29301	55528.0375
1292.82151	56942.1375
1296.34761	58765.2375
1299.87133	61423.9375
1303.39266	64892.3375
1306.9116	69111.8375
1310.42815	73444.6375
1313.94233	76227.0375
1317.45412	76022.1375
1320.96354	73398.9375
1324.47058	69925.9375
1327.97525	66884.1375
1331.47754	64774.7375
1334.97747	63853.6375
1338.47502	63377.8375
1341.97022	62684.2375
1345.46305	61910.1375
1348.95352	62050.7375
1352.44163	63959.6375
1355.92738	67691.7375
1359.41078	72892.1375
1362.89183	77327.7375
1366.37053	76901.2375
1369.84688	70628.4375
1373.32088	62459.5375
1376.79254	56707.1375
1380.26186	54255.6375
1383.72883	53566.1375
1387.19347	52915.6375
1390.65578	51598.4375
1394.11575	50597.5375
1397.57339	50419.7375
1401.0287	50848.9375
1404.48168	51560.3375
1407.93234	52084.8375
1411.38068	52262.3375
1414.82669	51917.5375
1418.27039	51043.5375
1421.71177	49688.5375
1425.15083	48425.5375
1428.58758	47805.1375
1432.02203	48225.2375
1435.45416	49329.0375
1438.88399	50281.7375
1442.31151	50914.9375
1445.73673	51268.0375
1449.15965	51338.5375
1452.58027	51112.8375
1455.9986	50377.5375
1459.41463	49981.7375
1462.82837	50436.3375
1466.23982	51621.3375
1469.64898	52964.9375
1473.05586	54022.8375
1476.46045	54841.7375
1479.86276	55445.1375
1483.26279	55667.6375
1486.66054	55817.3375
1490.05602	56196.5375
1493.44922	56558.4375
1496.84016	56763.3375
1500.22882	57166.3375
1503.61521	58343.1375
1506.99934	60206.0375
1510.38121	62000.5375
1513.76081	62682.8375
1517.13816	61448.4375
1520.51324	58645.9375
1523.88607	55782.7375
1527.25665	53977.5375
1530.62498	53124.6375
1533.99105	52736.1375
1537.35488	52420.6375
1540.71647	51906.9375
1544.07581	51376.2375
1547.4329	50828.2375
1550.78776	50105.6375
1554.14038	49422.3375
1557.49077	48951.2375
1560.83892	48717.7375
1564.18484	48749.6375
1567.52853	49030.1375
1570.86999	49624.3375
1574.20922	50513.7375
1577.54624	51242.2375
1580.88103	51421.5375
1584.2136	51365.4375
1587.54395	52123.4375
1590.87208	54102.0375
1594.19801	57455.6375
1597.52172	61283.4375
1600.84321	63199.1375
1604.16251	61341.9375
1607.47959	56857.7375
1610.79447	51586.2375
1614.10715	46976.8375
1617.41763	43822.9375
1620.7259	41962.0375
1624.03199	41210.5375
1627.33587	41462.8375
1630.63757	42512.3375
1633.93707	44563.7375
1637.23439	47690.9375
1640.52951	52222.7375
1643.82246	57791.6375
1647.11321	62401.0375
1650.40179	63167.4375
1653.68819	59040.7375
1656.97241	51994.4375
1660.25446	45468.7375
1663.53433	41044.9375
1666.81203	38425.5375
1670.08756	36850.8375
1673.36092	35934.4375
1676.63211	35260.3375
1679.90115	34855.3375
1683.16801	34489.2375
1686.43272	34185.3375
1689.69527	34059.6375
1692.95567	33912.7375
1696.2139	33858.3375
1699.46999	33810.1375
1702.72392	33735.3375
1705.97571	33708.8375
1709.22535	33656.0375
1712.47284	33648.0375
1715.71819	33718.3375
1718.96139	33630.0375
1722.20246	33597.0375
1725.44139	33534.9375
1728.67818	33410.3375
1731.91284	33279.0375
1735.14537	33122.2375
1738.37576	33031.5375
1741.60403	32928.5375
1744.83017	32871.9375
1748.05418	32803.9375
1751.27607	32693.2375
1754.49584	32696.3375
1757.71349	32662.6375
1760.92903	32697.0375
1764.14244	32717.4375
1767.35375	32730.1375
1770.56294	32655.5375
1773.77002	32664.0375
1776.97499	32661.3375
1780.17785	32597.7375
1783.37861	32640.8375
1786.57727	32599.7375
1789.77382	32536.1375
1792.96828	32491.0375
1796.16064	32505.8375
1799.3509	32451.7375
1802.53907	32442.9375
1805.72514	32374.2375
1808.90913	32262.9375
1812.09102	32223.0375
1815.27083	32185.9375
1818.44856	32084.3375
1821.6242	32135.7375
1824.79776	32047.8375
1827.96924	32066.2375
1831.13864	32013.1375
1834.30597	32013.3375
1837.47122	32059.2375
1840.6344	31980.2375
1843.7955	31988.7375
1846.95454	31939.9375
1850.11151	31924.3375
1853.26642	31949.3375
1856.41926	31914.8375
1859.57004	31965.6375
1862.71876	31932.9375
1865.86542	31959.7375
1869.01003	31993.3375
1872.15258	32027.0375
1875.29308	31997.1375
1878.43152	31905.4375
1881.56792	31882.7375
1884.70227	31935.1375
1887.83457	31923.1375
1890.96482	31920.6375
1894.09304	31831.8375
1897.21921	31825.3375
1900.34335	31815.0375
1903.46544	31788.6375
1906.58551	31828.7375
1909.70353	31800.3375
1912.81953	31842.1375
1915.93349	31753.7375
1919.04543	31752.8375
1922.15534	31755.3375
1925.26322	31674.9375
1928.36908	31631.4375
1931.47292	31598.0375
1934.57473	31531.0375
1937.67453	31475.2375
1940.77232	31388.0375
1943.86808	31299.4375
1946.96184	31258.4375
1950.05358	31153.9375
1953.14331	31062.8375
1956.23103	31017.2375
1959.31675	30985.6375
1962.40046	30934.2375
1965.48217	30859.7375
1968.56188	30798.3375
1971.63959	30663.4375
1974.7153	30606.0375
1977.78901	30550.5375
1980.86073	30489.2375
1983.93046	30399.3375
1986.99819	30286.5375
1990.06394	30234.3375
1993.1277	30181.9375
1996.18947	30127.6375
1999.24925	30060.6375
2002.30706	29934.2375
2005.36288	29877.5375
2008.41672	29816.3375
2011.46859	29709.5375
2014.51848	29680.6375
2017.56639	29642.6375
2020.61233	29527.6375
2023.6563	29480.3375
2026.6983	29508.4375
2029.73833	29429.7375
2032.7764	29382.4375
2035.8125	29372.3375
2038.84664	29345.7375
2041.87881	29350.2375
2044.90903	29263.4375
2047.93729	29273.5375
2050.96359	29218.6375
2053.98794	29174.3375
2057.01034	29171.3375
2060.03078	29119.1375
2063.04927	29103.0375
2066.06582	29065.9375
2069.08042	29102.3375
2072.09307	29090.0375
2075.10378	29052.5375
2078.11255	29045.5375
2081.11938	29070.0375
2084.12426	29011.3375
2087.12722	28985.4375
2090.12824	28990.4375
2093.12732	29033.6375
2096.12447	29069.9375
2099.11969	29066.9375
2102.11299	29067.3375
2105.10435	29084.3375
2108.09379	29077.6375
2111.08131	29125.3375
2114.0669	29134.9375
2117.05057	29160.0375
2120.03233	29182.5375
2123.01216	29231.5375
2125.99008	29286.9375
2128.96609	29268.2375
2131.94018	29301.5375
2134.91236	29363.1375
2137.88263	29354.8375
2140.851	29376.8375
2143.81746	29450.4375
2146.78201	29426.1375
2149.74466	29451.9375
2152.7054	29542.6375
2155.66425	29506.5375
2158.6212	29534.5375
2161.57625	29578.3375
2164.52941	29550.6375
2167.48067	29513.3375
2170.43004	29514.1375
2173.37752	29532.4375
2176.32311	29487.0375
2179.26681	29477.3375
2182.20863	29493.1375
2185.14856	29533.8375
2188.08661	29539.0375
2191.02278	29566.1375
2193.95707	29566.0375
2196.88948	29578.7375
2199.82001	29625.0375
2202.74867	29567.9375
2205.67545	29517.6375
2208.60037	29563.1375
2211.52341	29559.2375
2214.44458	29527.3375
2217.36388	29435.7375
2220.28132	29473.6375
2223.1969	29390.8375
2226.11061	29340.4375
2229.02246	29289.5375
2231.93245	29290.4375
2234.84058	29205.9375
2237.74686	29160.0375
2240.65128	29194.4375
2243.55385	29114.8375
2246.45456	29074.7375
2249.35343	29048.4375
2252.25044	29040.8375
2255.14561	28972.0375
2258.03893	29013.0375
2260.93041	28918.7375
2263.82004	28912.9375
2266.70783	28855.6375
2269.59378	28790.0375
2272.4779	28743.1375
2275.36017	28639.9375
2278.24061	28564.2375
2281.11922	28578.1375
2283.996	28515.6375
2286.87094	28506.5375
2289.74405	28433.6375
2292.61534	28406.0375
2295.4848	28471.6375
2298.35243	28479.9375
2301.21824	28495.7375
2304.08223	28486.4375
2306.94439	28479.0375
2309.80474	28506.8375
2312.66327	28520.4375
2315.51999	28520.6375
2318.37489	28526.5375
2321.22797	28542.7375
2324.07925	28511.3375
2326.92871	28516.1375
2329.77637	28557.6375
2332.62222	28456.1375
2335.46626	28479.9375
2338.3085	28471.4375
2341.14893	28485.5375
2343.98756	28479.5375
2346.8244	28474.4375
2349.65943	28424.9375
2352.49267	28368.2375
2355.32411	28430.6375
2358.15376	28356.0375
2360.98161	28357.6375
2363.80768	28310.3375
2366.63195	28303.9375
2369.45444	28274.5375
2372.27514	28253.7375
2375.09405	28225.2375
2377.91118	28201.3375
2380.72652	28102.3375
2383.54009	28007.4375
2386.35187	28003.8375
2389.16188	27914.1375
2391.97011	27947.8375
2394.77657	27895.5375
2397.58125	27864.3375
2400.38416	27847.9375
2403.18529	27756.6375
2405.98466	27749.4375
2408.78226	27690.6375
2411.57809	27627.8375
2414.37216	27598.1375
2417.16446	27625.7375
2419.955	27580.0375
2422.74378	27544.5375
2425.5308	27511.5375
2428.31606	27520.3375
2431.09956	27473.0375
2433.88131	27456.4375
2436.6613	27422.9375
2439.43954	27440.0375
2442.21603	27423.8375
2444.99077	27377.5375
2447.76377	27425.3375
2450.53501	27374.9375
2453.30451	27424.1375
2456.07226	27375.8375
2458.83827	27385.6375
2461.60254	27380.6375
2464.36507	27379.8375
2467.12586	27339.6375
2469.88492	27371.3375
2472.64224	27366.9375
2475.39782	27365.4375
2478.15167	27406.6375
2480.90379	27382.5375
2483.65417	27456.4375
2486.40283	27395.7375
2489.14976	27444.5375
2491.89497	27366.4375
2494.63845	27428.1375
2497.3802	27442.7375
2500.12024	27403.5375
2502.85855	27409.1375
2505.59514	27384.8375
2508.33002	27341.1375
2511.06318	27297.2375
2513.79462	27243.8375
2516.52435	27260.4375
2519.25237	27280.0375
2521.97867	27230.3375
2524.70327	27200.8375
2527.42616	27139.3375
2530.14734	27186.1375
2532.86681	27130.4375
2535.58458	27136.0375
2538.30065	27123.8375
2541.01501	27095.0375
2543.72768	27068.1375
2546.43864	27061.3375
2549.14791	27020.1375
2551.85548	27047.2375
2554.56136	26987.9375
2557.26554	26945.2375
2559.96803	26941.1375
2562.66883	26910.5375
2565.36794	26900.3375
2568.06536	26906.6375
2570.7611	26865.2375
2573.45514	26867.7375
2576.14751	26845.3375
2578.83819	26792.3375
2581.52719	26835.6375
2584.21451	26830.1375
2586.90015	26793.7375
2589.58411	26752.7375
2592.2664	26712.7375
2594.94701	26667.5375
2597.62594	26644.3375
2600.30321	26604.4375
2602.9788	26618.3375
2605.65273	26564.6375
2608.32498	26587.8375
2610.99557	26605.1375
2613.66449	26596.5375
2616.33175	26586.8375
2618.99734	26555.4375
2621.66128	26546.4375
2624.32355	26567.3375
2626.98416	26539.6375
2629.64311	26537.8375
2632.30041	26473.7375
2634.95605	26488.3375
2637.61004	26440.6375
2640.26238	26406.5375
2642.91306	26356.0375
2645.56209	26342.2375
2648.20948	26324.2375
2650.85521	26313.0375
2653.4993	26308.1375
2656.14175	26291.2375
2658.78255	26304.9375
2661.42171	26305.9375
2664.05923	26319.8375
2666.6951	26307.0375
2669.32934	26346.2375
2671.96194	26398.9375
2674.59291	26397.6375
2677.22224	26422.5375
2679.84993	26403.2375
2682.476	26374.3375
2685.10043	26410.4375
2687.72324	26390.0375
2690.34441	26353.3375
2692.96396	26312.4375
2695.58188	26365.5375
2698.19818	26316.3375
2700.81285	26314.3375
2703.4259	26329.3375
2706.03733	26370.0375
2708.64714	26374.5375
2711.25533	26438.6375
2713.86191	26360.5375
2716.46687	26434.7375
2719.07021	26432.5375
2721.67194	26447.8375
2724.27206	26437.1375
2726.87057	26411.7375
2729.46747	26447.0375
2732.06276	26444.2375
2734.65644	26407.3375
2737.24852	26404.9375
2739.83899	26399.5375
2742.42786	26470.2375
2745.01513	26467.8375
2747.60079	26456.9375
2750.18486	26403.3375
2752.76733	26402.7375
2755.3482	26366.8375
2757.92747	26358.8375
2760.50515	26317.6375
2763.08123	26265.2375
2765.65573	26274.7375
2768.22863	26311.4375
2770.79994	26219.3375
2773.36967	26298.9375
2775.9378	26277.7375
2778.50435	26253.1375
2781.06932	26274.9375
2783.6327	26180.2375
2786.1945	26173.5375
2788.75471	26190.4375
2791.31335	26132.1375
2793.87041	26106.9375
2796.42589	26008.0375
2798.97979	26015.5375
2801.53212	25903.0375
2804.08288	25944.9375
2806.63206	25834.9375
2809.17967	25815.3375
2811.72571	25812.5375
2814.27018	25802.8375
2816.81308	25765.7375
2819.35442	25742.7375
2821.89419	25694.6375
2824.43239	25683.7375
2826.96904	25648.8375
2829.50412	25691.0375
2832.03763	25567.6375
2834.56959	25589.7375
2837.1	25549.3375
2839.62884	25571.4375
2842.15613	25570.3375
2844.68186	25590.0375
2847.20604	25571.4375
2849.72867	25556.6375
2852.24974	25583.8375
2854.76927	25576.3375
2857.28724	25547.4375
2859.80367	25538.5375
2862.31855	25518.7375
2864.83189	25460.8375
2867.34368	25444.9375
2869.85393	25499.1375
2872.36264	25474.7375
2874.8698	25445.4375
2877.37543	25458.8375
2879.87952	25488.0375
2882.38207	25463.1375
2884.88308	25478.0375
2887.38256	25509.8375
2889.88051	25514.6375
2892.37692	25510.0375
2894.8718	25549.2375
2897.36515	25566.8375
2899.85698	25563.2375
2902.34727	25596.3375
2904.83604	25585.7375
2907.32328	25644.7375
2909.809	25631.0375
2912.29319	25651.2375
2914.77587	25633.8375
2917.25702	25622.1375
2919.73665	25608.5375
2922.21476	25623.7375
2924.69136	25619.2375
2927.16644	25638.7375
2929.64	25573.7375
2932.11205	25533.7375
2934.58258	25473.0375
2937.05161	25499.6375
2939.51912	25452.1375
2941.98513	25431.0375
2944.44962	25392.9375
2946.91261	25289.1375
2949.37409	25364.7375
2951.83407	25356.1375
2954.29254	25346.8375
2956.74951	25302.6375
2959.20498	25326.0375
2961.65895	25270.1375
2964.11142	25288.0375
2966.56239	25199.7375
2969.01186	25205.0375
2971.45984	25131.0375
2973.90632	25112.8375
2976.35131	25019.5375
2978.7948	24952.7375
2981.23681	24962.6375
2983.67732	24925.2375
2986.11635	24827.7375
2988.55388	24796.3375
2990.98993	24718.5375
2993.4245	24707.4375
2995.85758	24658.2375
2998.28917	24644.1375
3000.71928	24657.5375
3003.14791	24563.3375
3005.57506	24556.1375
3008.00073	24502.0375
3010.42493	24520.1375
3012.84764	24504.0375
3015.26888	24457.9375
3017.68865	24425.2375
3020.10694	24370.4375
3022.52376	24303.2375
