Data from AgNP_FTO_APTES_CRN_0uM_R6G_10uM_NaF_0.1M_Addition_RamanShift__48__12-25-42-956.txt Node

Date: Wed Dec 15 12:25:42 GMT 2021
User: TCL
Spectrometer: QEP01345
Trigger mode: 4
Integration Time (sec): 7.000000E0
Scans to average: 10
Electric dark correction enabled: true
Nonlinearity correction enabled: false
Boxcar width: 0
XAxis mode: Raman Shifts
Number of Pixels in Spectrum: 1044
>>>>>Begin Spectral Data<<<<<
46.04893	-0.125
50.45542	-2.525
54.85868	-1.525
59.25871	-1.425
63.6555	158.675
68.04907	170.275
72.43941	174.375
76.82654	182.475
81.21044	192.275
85.59113	199.475
89.96862	208.875
94.34289	209.575
98.71396	217.275
103.08183	225.375
107.4465	232.675
111.80798	237.875
116.16626	240.675
120.52136	250.975
124.87327	255.975
129.222	271.175
133.56755	286.275
137.90993	304.575
142.24913	332.475
146.58517	361.775
150.91804	423.775
155.24774	490.575
159.57429	615.075
163.89768	778.475
168.21792	1018.875
172.53501	1383.775
176.84895	1906.775
181.15975	2668.475
185.46741	3700.275
189.77193	5077.575
194.07331	6804.475
198.37157	8740.575
202.6667	10768.875
206.9587	12797.475
211.24758	14770.375
215.53334	16797.975
219.81599	18891.275
224.09553	21272.275
228.37195	23867.175
232.64527	26690.875
236.91549	29706.875
241.18261	32674.975
245.44663	35456.775
249.70755	38033.275
253.96539	40168.075
258.22014	42005.275
262.4718	43468.875
266.72039	44354.375
270.96589	44780.575
275.20832	44698.675
279.44768	44293.175
283.68397	43846.175
287.91719	43384.675
292.14735	43046.175
296.37445	42889.875
300.59849	42858.175
304.81948	43015.875
309.03742	43152.675
313.25231	43192.175
317.46415	42936.175
321.67296	42532.775
325.87872	42119.075
330.08145	41908.475
334.28114	41945.875
338.47781	42167.575
342.67145	42584.875
346.86207	43209.475
351.04966	43924.975
355.23424	44699.475
359.4158	45372.875
363.59435	45932.675
367.76989	46242.775
371.94243	46356.275
376.11196	46423.975
380.27849	46425.275
384.44203	46574.875
388.60257	46923.675
392.76012	47460.475
396.91468	48186.075
401.06626	48955.375
405.21485	49525.375
409.36047	49646.675
413.50311	49429.375
417.64277	49855.475
421.77947	50391.075
425.9132	50801.975
430.04396	50902.475
434.17176	50996.975
438.2966	51118.875
442.41849	51654.375
446.53742	52889.875
450.6534	54289.875
454.76644	55253.475
458.87653	55413.675
462.98368	54982.775
467.08789	54054.575
471.18916	52930.075
475.2875	51662.475
479.38291	50824.375
483.4754	50423.675
487.56496	50136.375
491.6516	49756.375
495.73531	49495.075
499.81612	49460.675
503.89401	50021.475
507.96899	50450.075
512.04106	50438.575
516.11023	50036.175
520.1765	49482.475
524.23987	48971.175
528.30034	48495.175
532.35792	48079.975
536.41261	47527.175
540.46441	46983.275
544.51333	46906.975
548.55936	47297.075
552.60252	48111.375
556.64279	49111.275
560.6802	50028.375
564.71473	50630.875
568.7464	51397.675
572.7752	52912.675
576.80114	55179.775
580.82422	58075.275
584.84444	61944.875
588.86181	66686.375
592.87633	70088.375
596.888	68901.775
600.89682	63952.575
604.9028	61232.375
608.90594	62537.975
612.90624	64035.775
616.90371	59871.075
620.89834	52806.275
624.89015	49736.275
628.87913	49412.075
632.86528	49670.075
636.84862	49207.575
640.82913	48103.675
644.80683	46927.375
648.78172	46445.275
652.75379	46752.275
656.72306	47438.375
660.68952	47865.275
664.65319	47379.475
668.61405	46559.275
672.57211	46595.875
676.52738	46919.075
680.47986	46861.075
684.42955	46494.875
688.37646	46277.775
692.32058	46662.475
696.26192	47575.875
700.20048	48532.675
704.13626	49054.775
708.06928	49134.575
711.99952	49112.375
715.927	49278.375
719.85171	49545.675
723.77365	49258.375
727.69284	48315.275
731.60928	47318.875
735.52295	46910.675
739.43388	46814.775
743.34206	47008.975
747.24749	47376.275
751.15017	47957.675
755.05012	48831.375
758.94733	50089.175
762.8418	52090.175
766.73354	54774.775
770.62254	56658.675
774.50882	56157.375
778.39237	53603.075
782.27321	50922.475
786.15132	48974.575
790.02671	47763.775
793.89938	47074.175
797.76935	46835.275
801.6366	46820.875
805.50115	46889.875
809.36299	46655.375
813.22213	46297.575
817.07857	46021.375
820.93231	45604.575
824.78336	45317.675
828.63172	45079.075
832.47738	45034.975
836.32036	45042.975
840.16066	45207.275
843.99827	45230.975
847.8332	45301.675
851.66546	45214.775
855.49504	45363.375
859.32195	45378.175
863.1462	45256.275
866.96777	45161.075
870.78668	45156.275
874.60293	45198.675
878.41652	45261.275
882.22745	45474.975
886.03573	45700.575
889.84136	45792.575
893.64433	45648.375
897.44466	45401.675
901.24235	45400.875
905.0374	45361.275
908.8298	45356.775
912.61957	45502.675
916.40671	46021.875
920.19121	46671.975
923.97308	47442.475
927.75233	47625.375
931.52895	47037.175
935.30295	45949.575
939.07433	45032.175
942.84309	44466.575
946.60924	44227.675
950.37278	44175.575
954.13371	44178.575
957.89203	44133.975
961.64774	44091.575
965.40086	44029.575
969.15137	43910.175
972.89929	43787.375
976.64461	43665.475
980.38733	43664.575
984.12747	43736.075
987.86502	43891.375
991.59999	44095.275
995.33237	44588.275
999.06217	45304.075
1002.78939	46389.175
1006.51404	47586.575
1010.23611	48767.575
1013.95561	49484.575
1017.67255	49345.475
1021.38692	48631.875
1025.09872	47628.975
1028.80796	47013.975
1032.51465	47096.875
1036.21877	47511.175
1039.92035	47709.175
1043.61937	47728.875
1047.31584	47580.075
1051.00976	47386.075
1054.70114	47507.575
1058.38998	47815.175
1062.07627	48468.275
1065.76003	49285.075
1069.44126	50425.975
1073.11995	51952.375
1076.79611	53092.475
1080.46974	53373.275
1084.14085	53191.475
1087.80943	53238.075
1091.47549	53325.375
1095.13903	53152.175
1098.80005	52203.475
1102.45857	50653.975
1106.11456	49511.375
1109.76805	48916.075
1113.41903	48775.575
1117.06751	48792.775
1120.71348	48998.175
1124.35696	49279.775
1127.99793	49529.975
1131.63641	49832.975
1135.2724	50053.875
1138.90589	50348.675
1142.5369	50712.675
1146.16542	51150.575
1149.79145	51584.475
1153.415	52166.275
1157.03607	53101.675
1160.65467	54921.375
1164.27079	57838.175
1167.88443	61152.275
1171.49561	63949.275
1175.10432	66856.575
1178.71056	70840.675
1182.31434	74691.275
1185.91565	76391.575
1189.51451	75547.575
1193.11091	73672.975
1196.70485	71428.875
1200.29634	69443.675
1203.88538	68262.175
1207.47197	68144.575
1211.05612	68239.875
1214.63782	67473.675
1218.21708	65685.875
1221.79391	63459.375
1225.36829	61879.375
1228.94024	60924.575
1232.50976	60063.675
1236.07685	59022.375
1239.6415	58308.375
1243.20374	58124.475
1246.76355	58552.875
1250.32093	59462.675
1253.8759	60838.075
1257.42845	62544.175
1260.97859	64509.375
1264.52631	66608.475
1268.07163	68771.775
1271.61453	71049.775
1275.15503	73195.975
1278.69312	75658.875
1282.22882	78367.475
1285.76211	81658.775
1289.29301	85169.875
1292.82151	89123.175
1296.34761	93613.175
1299.87133	99121.375
1303.39266	104772.975
1306.9116	109133.075
1310.42815	111612.575
1313.94233	112024.875
1317.45412	110852.275
1320.96354	109008.375
1324.47058	107945.075
1327.97525	107939.275
1331.47754	108117.775
1334.97747	107523.575
1338.47502	105797.975
1341.97022	103057.375
1345.46305	99842.275
1348.95352	97410.175
1352.44163	96760.675
1355.92738	99066.475
1359.41078	103743.575
1362.89183	107597.575
1366.37053	107826.775
1369.84688	102027.575
1373.32088	91612.875
1376.79254	83242.875
1380.26186	80108.675
1383.72883	80425.775
1387.19347	80809.875
1390.65578	79742.175
1394.11575	79080.475
1397.57339	79910.775
1401.0287	81925.075
1404.48168	83793.075
1407.93234	84248.175
1411.38068	82729.775
1414.82669	79964.475
1418.27039	76595.275
1421.71177	73103.675
1425.15083	70483.375
1428.58758	69568.075
1432.02203	70842.775
1435.45416	73409.575
1438.88399	76264.975
1442.31151	78012.975
1445.73673	78551.675
1449.15965	78288.675
1452.58027	77291.875
1455.9986	76280.775
1459.41463	76045.675
1462.82837	77080.875
1466.23982	79004.575
1469.64898	80730.675
1473.05586	81894.975
1476.46045	82288.275
1479.86276	82134.075
1483.26279	81407.575
1486.66054	81029.975
1490.05602	81352.075
1493.44922	81781.275
1496.84016	81841.675
1500.22882	81709.775
1503.61521	81703.675
1506.99934	81856.275
1510.38121	81888.275
1513.76081	81653.975
1517.13816	81137.475
1520.51324	80885.275
1523.88607	81364.375
1527.25665	82676.975
1530.62498	83795.975
1533.99105	83736.275
1537.35488	82303.875
1540.71647	80020.275
1544.07581	77260.875
1547.4329	74518.375
1550.78776	72423.475
1554.14038	70776.675
1557.49077	69866.575
1560.83892	69218.175
1564.18484	68764.875
1567.52853	68555.675
1570.86999	69224.875
1574.20922	70955.975
1577.54624	73228.275
1580.88103	75198.475
1584.2136	77681.575
1587.54395	81465.775
1590.87208	86697.075
1594.19801	92498.475
1597.52172	97053.375
1600.84321	96933.475
1604.16251	90858.575
1607.47959	81881.375
1610.79447	73194.475
1614.10715	66247.075
1617.41763	61090.975
1620.7259	57953.775
1624.03199	56565.175
1627.33587	56951.775
1630.63757	59049.275
1633.93707	63617.275
1637.23439	71191.275
1640.52951	82434.575
1643.82246	95791.675
1647.11321	105532.975
1650.40179	105340.175
1653.68819	94848.675
1656.97241	79998.875
1660.25446	67049.975
1663.53433	58236.175
1666.81203	52794.875
1670.08756	49494.375
1673.36092	47546.475
1676.63211	46166.075
1679.90115	45216.075
1683.16801	44459.375
1686.43272	43969.475
1689.69527	43616.075
1692.95567	43331.875
1696.2139	43080.775
1699.46999	42922.975
1702.72392	42804.975
1705.97571	42714.675
1709.22535	42618.275
1712.47284	42589.275
1715.71819	42467.975
1718.96139	42315.075
1722.20246	42212.275
1725.44139	42014.675
1728.67818	41768.275
1731.91284	41566.775
1735.14537	41326.975
1738.37576	41101.075
1741.60403	40957.075
1744.83017	40858.075
1748.05418	40732.875
1751.27607	40646.875
1754.49584	40571.775
1757.71349	40530.075
1760.92903	40508.575
1764.14244	40464.675
1767.35375	40427.975
1770.56294	40367.475
1773.77002	40305.775
1776.97499	40305.575
1780.17785	40198.075
1783.37861	40132.475
1786.57727	40105.575
1789.77382	40015.175
1792.96828	39938.475
1796.16064	39831.975
1799.3509	39833.775
1802.53907	39781.575
1805.72514	39609.075
1808.90913	39487.175
1812.09102	39479.075
1815.27083	39402.775
1818.44856	39392.375
1821.6242	39315.375
1824.79776	39366.875
1827.96924	39331.875
1831.13864	39341.975
1834.30597	39323.375
1837.47122	39332.175
1840.6344	39370.875
1843.7955	39340.375
1846.95454	39343.675
1850.11151	39308.475
1853.26642	39243.375
1856.41926	39239.275
1859.57004	39216.275
1862.71876	39172.375
1865.86542	39099.475
1869.01003	39037.075
1872.15258	39056.075
1875.29308	38993.175
1878.43152	38902.075
1881.56792	38891.475
1884.70227	38914.875
1887.83457	38888.475
1890.96482	38803.675
1894.09304	38714.975
1897.21921	38720.075
1900.34335	38659.275
1903.46544	38630.375
1906.58551	38658.775
1909.70353	38592.575
1912.81953	38541.675
1915.93349	38412.975
1919.04543	38280.675
1922.15534	38222.675
1925.26322	38160.875
1928.36908	38058.875
1931.47292	37918.975
1934.57473	37836.275
1937.67453	37729.475
1940.77232	37711.275
1943.86808	37600.975
1946.96184	37515.375
1950.05358	37406.375
1953.14331	37338.675
1956.23103	37204.975
1959.31675	37163.675
1962.40046	37048.675
1965.48217	36962.375
1968.56188	36839.275
1971.63959	36766.975
1974.7153	36648.375
1977.78901	36517.875
1980.86073	36414.075
1983.93046	36287.475
1986.99819	36196.575
1990.06394	36117.375
1993.1277	36061.075
1996.18947	35917.075
1999.24925	35858.075
2002.30706	35762.775
2005.36288	35653.575
2008.41672	35638.275
2011.46859	35479.175
2014.51848	35365.575
2017.56639	35323.975
2020.61233	35232.275
2023.6563	35141.975
2026.6983	35119.675
2029.73833	35003.975
2032.7764	34965.075
2035.8125	34892.475
2038.84664	34817.275
2041.87881	34800.275
2044.90903	34725.075
2047.93729	34666.875
2050.96359	34639.875
2053.98794	34537.175
2057.01034	34579.575
2060.03078	34556.275
2063.04927	34477.475
2066.06582	34485.975
2069.08042	34491.675
2072.09307	34517.475
2075.10378	34447.975
2078.11255	34344.375
2081.11938	34409.975
2084.12426	34428.775
2087.12722	34362.775
2090.12824	34364.475
2093.12732	34393.475
2096.12447	34357.575
2099.11969	34400.375
2102.11299	34341.075
2105.10435	34415.975
2108.09379	34408.475
2111.08131	34425.475
2114.0669	34440.075
2117.05057	34452.475
2120.03233	34407.275
2123.01216	34467.275
2125.99008	34509.775
2128.96609	34516.775
2131.94018	34504.975
2134.91236	34527.875
2137.88263	34506.975
2140.851	34598.175
2143.81746	34611.875
2146.78201	34598.475
2149.74466	34615.375
2152.7054	34603.375
2155.66425	34610.675
2158.6212	34616.775
2161.57625	34603.875
2164.52941	34642.475
2167.48067	34623.575
2170.43004	34629.775
2173.37752	34537.575
2176.32311	34531.875
2179.26681	34531.375
2182.20863	34526.775
2185.14856	34605.875
2188.08661	34584.175
2191.02278	34629.575
2193.95707	34579.775
2196.88948	34583.475
2199.82001	34568.975
2202.74867	34559.375
2205.67545	34476.075
2208.60037	34413.375
2211.52341	34392.775
2214.44458	34359.375
2217.36388	34271.775
2220.28132	34261.175
2223.1969	34180.975
2226.11061	34132.175
2229.02246	34133.875
2231.93245	34082.675
2234.84058	34043.575
2237.74686	34014.375
2240.65128	34010.975
2243.55385	33938.975
2246.45456	33854.075
2249.35343	33789.775
2252.25044	33726.075
2255.14561	33686.375
2258.03893	33635.475
2260.93041	33551.275
2263.82004	33486.375
2266.70783	33396.575
2269.59378	33339.675
2272.4779	33295.675
2275.36017	33212.675
2278.24061	33132.875
2281.11922	33048.875
2283.996	33025.075
2286.87094	32959.875
2289.74405	32920.175
2292.61534	32894.875
2295.4848	32850.375
2298.35243	32864.975
2301.21824	32870.075
2304.08223	32902.775
2306.94439	32911.575
2309.80474	32869.175
2312.66327	32826.875
2315.51999	32801.275
2318.37489	32783.475
2321.22797	32753.475
2324.07925	32707.375
2326.92871	32690.275
2329.77637	32654.275
2332.62222	32648.275
2335.46626	32582.375
2338.3085	32578.375
2341.14893	32622.775
2343.98756	32594.475
2346.8244	32549.075
2349.65943	32505.275
2352.49267	32465.575
2355.32411	32470.775
2358.15376	32412.075
2360.98161	32387.775
2363.80768	32390.075
2366.63195	32352.275
2369.45444	32329.275
2372.27514	32260.975
2375.09405	32258.275
2377.91118	32185.275
2380.72652	32138.675
2383.54009	32079.675
2386.35187	32098.675
2389.16188	32008.275
2391.97011	32013.075
2394.77657	31976.575
2397.58125	31892.475
2400.38416	31871.775
2403.18529	31793.275
2405.98466	31771.475
2408.78226	31711.675
2411.57809	31737.875
2414.37216	31676.675
2417.16446	31646.675
2419.955	31608.975
2422.74378	31561.875
2425.5308	31599.175
2428.31606	31568.875
2431.09956	31484.975
2433.88131	31416.175
2436.6613	31426.175
2439.43954	31451.875
2442.21603	31426.375
2444.99077	31385.775
2447.76377	31386.375
2450.53501	31356.275
2453.30451	31339.775
2456.07226	31330.975
2458.83827	31330.475
2461.60254	31334.675
2464.36507	31304.975
2467.12586	31335.575
2469.88492	31326.075
2472.64224	31309.275
2475.39782	31342.075
2478.15167	31336.275
2480.90379	31297.675
2483.65417	31302.375
2486.40283	31312.575
2489.14976	31309.775
2491.89497	31251.875
2494.63845	31254.275
2497.3802	31280.575
2500.12024	31306.875
2502.85855	31273.275
2505.59514	31297.475
2508.33002	31222.275
2511.06318	31196.575
2513.79462	31193.475
2516.52435	31173.875
2519.25237	31147.075
2521.97867	31136.775
2524.70327	31144.475
2527.42616	31130.575
2530.14734	31173.875
2532.86681	31117.675
2535.58458	31067.475
2538.30065	31015.475
2541.01501	31012.175
2543.72768	30988.775
2546.43864	30982.175
2549.14791	30957.775
2551.85548	30990.175
2554.56136	30961.375
2557.26554	30909.875
2559.96803	30859.675
2562.66883	30843.675
2565.36794	30832.475
2568.06536	30831.775
2570.7611	30809.975
2573.45514	30757.475
2576.14751	30783.375
2578.83819	30715.875
2581.52719	30733.275
2584.21451	30603.475
2586.90015	30603.375
2589.58411	30556.275
2592.2664	30578.575
2594.94701	30518.475
2597.62594	30508.875
2600.30321	30455.975
2602.9788	30487.375
2605.65273	30418.375
2608.32498	30477.975
2610.99557	30437.675
2613.66449	30441.575
2616.33175	30404.975
2618.99734	30389.775
2621.66128	30349.775
2624.32355	30345.575
2626.98416	30331.475
2629.64311	30308.475
2632.30041	30271.475
2634.95605	30221.075
2637.61004	30247.975
2640.26238	30227.475
2642.91306	30270.775
2645.56209	30186.475
2648.20948	30182.075
2650.85521	30197.675
2653.4993	30231.875
2656.14175	30266.675
2658.78255	30296.975
2661.42171	30303.375
2664.05923	30336.775
2666.6951	30316.775
2669.32934	30334.075
2671.96194	30292.075
2674.59291	30330.375
2677.22224	30306.975
2679.84993	30336.675
2682.476	30301.075
2685.10043	30293.375
2687.72324	30264.875
2690.34441	30316.975
2692.96396	30315.675
2695.58188	30334.575
2698.19818	30323.075
2700.81285	30312.675
2703.4259	30308.575
2706.03733	30330.675
2708.64714	30316.475
2711.25533	30357.775
2713.86191	30303.975
2716.46687	30397.075
2719.07021	30370.375
2721.67194	30391.975
2724.27206	30392.775
2726.87057	30430.675
2729.46747	30421.075
2732.06276	30501.275
2734.65644	30472.875
2737.24852	30520.275
2739.83899	30491.675
2742.42786	30494.375
2745.01513	30454.475
2747.60079	30486.575
2750.18486	30374.075
2752.76733	30380.675
2755.3482	30400.475
2757.92747	30446.075
2760.50515	30399.575
2763.08123	30363.375
2765.65573	30335.375
2768.22863	30345.075
2770.79994	30331.775
2773.36967	30300.475
2775.9378	30276.775
2778.50435	30254.075
2781.06932	30226.575
2783.6327	30215.075
2786.1945	30217.175
2788.75471	30172.475
2791.31335	30133.875
2793.87041	30118.375
2796.42589	29994.175
2798.97979	29978.375
2801.53212	29922.675
2804.08288	29890.175
2806.63206	29834.275
2809.17967	29785.675
2811.72571	29722.475
2814.27018	29655.875
2816.81308	29608.975
2819.35442	29573.275
2821.89419	29520.075
2824.43239	29490.175
2826.96904	29469.475
2829.50412	29474.975
2832.03763	29434.975
2834.56959	29456.675
2837.1	29338.275
2839.62884	29339.575
2842.15613	29284.075
2844.68186	29299.675
2847.20604	29264.975
2849.72867	29251.675
2852.24974	29206.475
2854.76927	29224.975
2857.28724	29165.175
2859.80367	29146.875
2862.31855	29126.475
2864.83189	29130.375
2867.34368	29105.975
2869.85393	29112.475
2872.36264	29048.875
2874.8698	28979.575
2877.37543	29024.975
2879.87952	29035.675
2882.38207	29065.675
2884.88308	29031.675
2887.38256	29048.775
2889.88051	29073.275
2892.37692	29141.575
2894.8718	29191.175
2897.36515	29148.075
2899.85698	29099.475
2902.34727	29204.375
2904.83604	29171.475
2907.32328	29195.075
2909.809	29158.575
2912.29319	29243.275
2914.77587	29186.475
2917.25702	29157.375
2919.73665	29175.375
2922.21476	29175.575
2924.69136	29131.875
2927.16644	29134.875
2929.64	29087.075
2932.11205	29068.475
2934.58258	29022.475
2937.05161	29063.275
2939.51912	29107.675
2941.98513	29007.175
2944.44962	28961.275
2946.91261	28870.775
2949.37409	28917.475
2951.83407	28914.375
2954.29254	28876.675
2956.74951	28897.375
2959.20498	28837.875
2961.65895	28793.075
2964.11142	28781.075
2966.56239	28696.475
2969.01186	28644.575
2971.45984	28612.275
2973.90632	28519.575
2976.35131	28513.775
2978.7948	28470.875
2981.23681	28453.975
2983.67732	28330.875
2986.11635	28258.175
2988.55388	28153.675
2990.98993	28129.175
2993.4245	28100.475
2995.85758	27988.175
2998.28917	27886.275
3000.71928	27899.775
3003.14791	27747.175
3005.57506	27729.575
3008.00073	27680.575
3010.42493	27683.375
3012.84764	27656.575
3015.26888	27611.875
3017.68865	27538.075
3020.10694	27507.175
3022.52376	27436.675
3024.9391	27401.675
3027.35298	27376.175
3029.76539	27313.075
3032.17632	27310.075
3034.5858	27293.275
3036.9938	27185.275
3039.40034	27206.075
3041.80542	27175.275
3044.20903	27159.075
3046.61118	27123.075
3049.01187	26985.775
3051.4111	27005.575
3053.80888	26895.575
3056.20519	26840.775
3058.60005	26780.475
3060.99345	26754.675
3063.3854	26708.975
3065.7759	26617.175
3068.16494	26541.975
3070.55254	26431.375
3072.93868	26410.975
3075.32338	26333.675
3077.70662	26241.875
3080.08842	26176.275
3082.46878	26183.575
3084.84769	26108.775
3087.22515	26086.675
3089.60118	26132.875
3091.97576	26144.875
3094.3489	26057.575
3096.72061	26005.675
3099.09087	26011.875
3101.4597	26003.275
3103.82709	25948.575
3106.19305	25876.875
3108.55757	25873.475
3110.92066	25805.475
3113.28232	25775.975
3115.64255	25676.675
3118.00134	25605.275
3120.35871	25558.375
3122.71466	25525.475
3125.06917	25434.375
