Data from AgNP_FTO_APTES_CRN_1uM_R6G_10uM_NaF_0.1M_Addition_RamanShift__3__13-49-00-781.txt Node

Date: Wed Dec 15 13:49:00 GMT 2021
User: TCL
Spectrometer: QEP01345
Trigger mode: 4
Integration Time (sec): 7.000000E0
Scans to average: 10
Electric dark correction enabled: true
Nonlinearity correction enabled: false
Boxcar width: 0
XAxis mode: Raman Shifts
Number of Pixels in Spectrum: 1044
>>>>>Begin Spectral Data<<<<<
46.04893	-0.2875
50.45542	-2.4875
54.85868	-2.1875
59.25871	-1.7875
63.6555	166.7125
68.04907	180.7125
72.43941	187.2125
76.82654	194.0125
81.21044	201.0125
85.59113	209.0125
89.96862	220.7125
94.34289	222.6125
98.71396	233.3125
103.08183	236.4125
107.4465	245.9125
111.80798	247.2125
116.16626	253.5125
120.52136	262.8125
124.87327	268.6125
129.222	279.7125
133.56755	298.3125
137.90993	312.5125
142.24913	336.1125
146.58517	375.9125
150.91804	431.4125
155.24774	506.7125
159.57429	620.7125
163.89768	791.0125
168.21792	1035.1125
172.53501	1394.9125
176.84895	1911.6125
181.15975	2683.5125
185.46741	3750.2125
189.77193	5147.5125
194.07331	6870.4125
198.37157	8790.7125
202.6667	10881.8125
206.9587	12902.5125
211.24758	14947.2125
215.53334	16953.5125
219.81599	19145.3125
224.09553	21539.0125
228.37195	24138.7125
232.64527	27023.9125
236.91549	29983.7125
241.18261	32986.9125
245.44663	35731.1125
249.70755	38225.5125
253.96539	40380.6125
258.22014	42252.3125
262.4718	43710.1125
266.72039	44761.8125
270.96589	45220.9125
275.20832	45218.5125
279.44768	44879.4125
283.68397	44421.4125
287.91719	43939.1125
292.14735	43634.1125
296.37445	43586.6125
300.59849	43654.0125
304.81948	43866.8125
309.03742	43968.3125
313.25231	43934.3125
317.46415	43598.7125
321.67296	43085.9125
325.87872	42585.2125
330.08145	42449.3125
334.28114	42391.9125
338.47781	42668.6125
342.67145	43165.6125
346.86207	43793.0125
351.04966	44656.8125
355.23424	45511.2125
359.4158	46324.9125
363.59435	46999.0125
367.76989	47452.5125
371.94243	47809.3125
376.11196	48089.6125
380.27849	48249.7125
384.44203	48580.4125
388.60257	49008.0125
392.76012	49458.5125
396.91468	50136.5125
401.06626	50895.5125
405.21485	51523.0125
409.36047	51762.5125
413.50311	51801.1125
417.64277	52009.7125
421.77947	52500.7125
425.9132	52888.4125
430.04396	53204.7125
434.17176	53436.7125
438.2966	53698.2125
442.41849	54651.7125
446.53742	56355.7125
450.6534	58340.3125
454.76644	59603.4125
458.87653	59773.7125
462.98368	58866.8125
467.08789	57580.2125
471.18916	55989.3125
475.2875	54355.7125
479.38291	53177.1125
483.4754	52448.3125
487.56496	52014.3125
491.6516	51654.6125
495.73531	51527.7125
499.81612	51730.2125
503.89401	52331.1125
507.96899	52677.0125
512.04106	52633.1125
516.11023	52239.8125
520.1765	51903.1125
524.23987	51670.0125
528.30034	51500.3125
532.35792	51056.9125
536.41261	50272.1125
540.46441	49460.3125
544.51333	49235.2125
548.55936	49583.3125
552.60252	50423.7125
556.64279	51447.6125
560.6802	52397.6125
564.71473	52919.9125
568.7464	53439.5125
572.7752	54758.2125
576.80114	56554.1125
580.82422	59076.6125
584.84444	62374.4125
588.86181	66154.2125
592.87633	68870.5125
596.888	68412.5125
600.89682	64893.7125
604.9028	63696.6125
608.90594	66701.2125
612.90624	69586.0125
616.90371	65219.5125
620.89834	56863.7125
624.89015	52999.2125
628.87913	52302.1125
632.86528	52014.4125
636.84862	51228.2125
640.82913	50050.6125
644.80683	48935.8125
648.78172	48427.1125
652.75379	48739.5125
656.72306	49412.6125
660.68952	50100.8125
664.65319	49800.8125
668.61405	49069.6125
672.57211	49198.2125
676.52738	49425.8125
680.47986	49310.7125
684.42955	48864.1125
688.37646	48713.2125
692.32058	49287.1125
696.26192	50300.8125
700.20048	51291.9125
704.13626	51663.4125
708.06928	51425.6125
711.99952	51088.8125
715.927	51352.8125
719.85171	51906.4125
723.77365	51733.8125
727.69284	50744.7125
731.60928	49881.9125
735.52295	49609.0125
739.43388	49546.7125
743.34206	49811.2125
747.24749	50178.9125
751.15017	50667.1125
755.05012	51393.0125
758.94733	52671.0125
762.8418	54657.5125
766.73354	57454.3125
770.62254	59836.1125
774.50882	59718.2125
778.39237	57237.9125
782.27321	54279.1125
786.15132	51955.0125
790.02671	50576.7125
793.89938	50028.2125
797.76935	49961.5125
801.6366	50077.5125
805.50115	50131.8125
809.36299	49809.0125
813.22213	49279.9125
817.07857	48907.9125
820.93231	48607.2125
824.78336	48421.2125
828.63172	48374.1125
832.47738	48379.3125
836.32036	48585.8125
840.16066	48954.3125
843.99827	49199.2125
847.8332	49099.6125
851.66546	48828.4125
855.49504	48749.6125
859.32195	48706.6125
863.1462	48517.1125
866.96777	48270.8125
870.78668	48145.1125
874.60293	48185.4125
878.41652	48281.0125
882.22745	48537.9125
886.03573	48702.0125
889.84136	48697.6125
893.64433	48354.1125
897.44466	48073.2125
901.24235	47935.2125
905.0374	47884.6125
908.8298	47858.5125
912.61957	48097.7125
916.40671	48586.8125
920.19121	49299.5125
923.97308	50174.7125
927.75233	50577.6125
931.52895	50264.1125
935.30295	49478.5125
939.07433	48652.6125
942.84309	48130.6125
946.60924	48119.6125
950.37278	48127.9125
954.13371	48055.1125
957.89203	47802.1125
961.64774	47663.0125
965.40086	47685.1125
969.15137	47645.6125
972.89929	47490.4125
976.64461	47589.2125
980.38733	47704.2125
984.12747	48049.0125
987.86502	48576.0125
991.59999	49214.7125
995.33237	50338.5125
999.06217	52136.3125
1002.78939	54288.3125
1006.51404	55957.0125
1010.23611	57045.0125
1013.95561	57487.8125
1017.67255	57147.6125
1021.38692	56147.8125
1025.09872	55319.5125
1028.80796	55971.3125
1032.51465	58077.0125
1036.21877	60090.7125
1039.92035	60464.9125
1043.61937	59377.2125
1047.31584	57631.8125
1051.00976	55623.2125
1054.70114	54462.2125
1058.38998	54153.5125
1062.07627	54292.1125
1065.76003	54655.7125
1069.44126	55567.7125
1073.11995	56967.0125
1076.79611	58168.7125
1080.46974	58592.5125
1084.14085	58580.0125
1087.80943	58491.0125
1091.47549	58288.2125
1095.13903	57758.0125
1098.80005	56727.7125
1102.45857	55491.9125
1106.11456	54684.6125
1109.76805	54325.2125
1113.41903	54368.7125
1117.06751	54476.4125
1120.71348	54666.0125
1124.35696	54883.8125
1127.99793	55326.1125
1131.63641	55772.1125
1135.2724	55872.0125
1138.90589	55973.9125
1142.5369	56254.6125
1146.16542	56635.2125
1149.79145	57030.8125
1153.415	57434.6125
1157.03607	58376.1125
1160.65467	60392.2125
1164.27079	63614.2125
1167.88443	67262.7125
1171.49561	70723.7125
1175.10432	74706.9125
1178.71056	80274.6125
1182.31434	85944.7125
1185.91565	88575.6125
1189.51451	87509.5125
1193.11091	84484.5125
1196.70485	81150.6125
1200.29634	78403.2125
1203.88538	76828.0125
1207.47197	76334.4125
1211.05612	75602.8125
1214.63782	74392.2125
1218.21708	73019.7125
1221.79391	71726.4125
1225.36829	70768.2125
1228.94024	69554.1125
1232.50976	67925.6125
1236.07685	66419.3125
1239.6415	65582.5125
1243.20374	65556.1125
1246.76355	66361.9125
1250.32093	67928.5125
1253.8759	69830.3125
1257.42845	72018.2125
1260.97859	74321.4125
1264.52631	76666.3125
1268.07163	79295.2125
1271.61453	82041.9125
1275.15503	84796.4125
1278.69312	87639.9125
1282.22882	90269.9125
1285.76211	93212.8125
1289.29301	96281.5125
1292.82151	100015.8125
1296.34761	104917.9125
1299.87133	111754.9125
1303.39266	119370.9125
1306.9116	126178.4125
1310.42815	131016.0125
1313.94233	132763.8125
1317.45412	131096.1125
1320.96354	127331.5125
1324.47058	123954.6125
1327.97525	121781.5125
1331.47754	120765.8125
1334.97747	120050.0125
1338.47502	118340.4125
1341.97022	114782.4125
1345.46305	110269.0125
1348.95352	107587.5125
1352.44163	108602.3125
1355.92738	113798.8125
1359.41078	121276.3125
1362.89183	126524.0125
1366.37053	125438.7125
1369.84688	116735.8125
1373.32088	103742.7125
1376.79254	94142.6125
1380.26186	90619.9125
1383.72883	90831.1125
1387.19347	90744.3125
1390.65578	89054.6125
1394.11575	88012.4125
1397.57339	88627.7125
1401.0287	90655.3125
1404.48168	92945.5125
1407.93234	94310.4125
1411.38068	94079.8125
1414.82669	92180.9125
1418.27039	89163.0125
1421.71177	85388.6125
1425.15083	82054.7125
1428.58758	80650.0125
1432.02203	81709.2125
1435.45416	84675.7125
1438.88399	87986.2125
1442.31151	90232.9125
1445.73673	91123.6125
1449.15965	91028.2125
1452.58027	89982.8125
1455.9986	88487.8125
1459.41463	87757.3125
1462.82837	88834.1125
1466.23982	91299.4125
1469.64898	94100.8125
1473.05586	96292.6125
1476.46045	97467.5125
1479.86276	97495.2125
1483.26279	96677.5125
1486.66054	95949.2125
1490.05602	96075.6125
1493.44922	95957.8125
1496.84016	95010.5125
1500.22882	93975.9125
1503.61521	93450.2125
1506.99934	93774.4125
1510.38121	93991.9125
1513.76081	93534.7125
1517.13816	92017.3125
1520.51324	90140.6125
1523.88607	89250.1125
1527.25665	89746.4125
1530.62498	90777.6125
1533.99105	91300.1125
1537.35488	90938.7125
1540.71647	89553.0125
1544.07581	87747.9125
1547.4329	85576.1125
1550.78776	83390.7125
1554.14038	81616.5125
1557.49077	80176.9125
1560.83892	79048.0125
1564.18484	78224.2125
1567.52853	78052.5125
1570.86999	78733.4125
1574.20922	80380.4125
1577.54624	82530.1125
1580.88103	84417.9125
1584.2136	87040.5125
1587.54395	91554.1125
1590.87208	98217.2125
1594.19801	106363.0125
1597.52172	113784.6125
1600.84321	115475.8125
1604.16251	109220.2125
1607.47959	98047.9125
1610.79447	86473.6125
1614.10715	76897.8125
1617.41763	70341.4125
1620.7259	66621.7125
1624.03199	65134.1125
1627.33587	65864.6125
1630.63757	68408.4125
1633.93707	73265.0125
1637.23439	81014.7125
1640.52951	92558.9125
1643.82246	105757.6125
1647.11321	115131.9125
1650.40179	113882.9125
1653.68819	102141.9125
1656.97241	86312.0125
1660.25446	72792.7125
1663.53433	63993.4125
1666.81203	58731.2125
1670.08756	55518.5125
1673.36092	53492.5125
1676.63211	52203.8125
1679.90115	51210.0125
1683.16801	50465.5125
1686.43272	49920.3125
1689.69527	49602.8125
1692.95567	49330.1125
1696.2139	49125.7125
1699.46999	48965.1125
1702.72392	48847.6125
1705.97571	48731.0125
1709.22535	48712.6125
1712.47284	48657.5125
1715.71819	48594.4125
1718.96139	48497.5125
1722.20246	48342.2125
1725.44139	48157.8125
1728.67818	47966.1125
1731.91284	47706.8125
1735.14537	47438.4125
1738.37576	47330.1125
1741.60403	47106.8125
1744.83017	46985.0125
1748.05418	46883.3125
1751.27607	46722.0125
1754.49584	46658.1125
1757.71349	46649.9125
1760.92903	46629.2125
1764.14244	46653.0125
1767.35375	46674.3125
1770.56294	46596.2125
1773.77002	46524.3125
1776.97499	46560.6125
1780.17785	46483.4125
1783.37861	46468.5125
1786.57727	46426.5125
1789.77382	46337.1125
1792.96828	46254.6125
1796.16064	46162.4125
1799.3509	46117.2125
1802.53907	46049.0125
1805.72514	45936.4125
1808.90913	45839.7125
1812.09102	45792.5125
1815.27083	45766.0125
1818.44856	45671.3125
1821.6242	45675.7125
1824.79776	45628.8125
1827.96924	45586.4125
1831.13864	45605.4125
1834.30597	45655.1125
1837.47122	45678.0125
1840.6344	45637.3125
1843.7955	45654.0125
1846.95454	45571.3125
1850.11151	45588.7125
1853.26642	45613.2125
1856.41926	45562.3125
1859.57004	45561.6125
1862.71876	45563.4125
1865.86542	45588.0125
1869.01003	45633.4125
1872.15258	45600.9125
1875.29308	45577.6125
1878.43152	45540.2125
1881.56792	45546.2125
1884.70227	45563.8125
1887.83457	45530.8125
1890.96482	45536.1125
1894.09304	45403.1125
1897.21921	45363.9125
1900.34335	45384.0125
1903.46544	45300.8125
1906.58551	45268.3125
1909.70353	45272.8125
1912.81953	45253.0125
1915.93349	45168.1125
1919.04543	45118.1125
1922.15534	45044.9125
1925.26322	44977.2125
1928.36908	44838.5125
1931.47292	44830.8125
1934.57473	44727.8125
1937.67453	44634.9125
1940.77232	44498.8125
1943.86808	44383.2125
1946.96184	44321.3125
1950.05358	44135.2125
1953.14331	44059.8125
1956.23103	44055.1125
1959.31675	43919.3125
1962.40046	43827.2125
1965.48217	43708.1125
1968.56188	43614.6125
1971.63959	43451.4125
1974.7153	43321.9125
1977.78901	43304.6125
1980.86073	43105.3125
1983.93046	43032.7125
1986.99819	42857.2125
1990.06394	42794.8125
1993.1277	42762.2125
1996.18947	42615.4125
1999.24925	42549.1125
2002.30706	42376.7125
2005.36288	42298.9125
2008.41672	42279.0125
2011.46859	42077.9125
2014.51848	42071.6125
2017.56639	41926.3125
2020.61233	41864.4125
2023.6563	41858.7125
2026.6983	41805.9125
2029.73833	41724.0125
2032.7764	41718.8125
2035.8125	41676.9125
2038.84664	41604.1125
2041.87881	41663.4125
2044.90903	41528.0125
2047.93729	41486.2125
2050.96359	41465.5125
2053.98794	41391.4125
2057.01034	41341.5125
2060.03078	41339.0125
2063.04927	41288.9125
2066.06582	41331.4125
2069.08042	41261.0125
2072.09307	41271.1125
2075.10378	41231.8125
2078.11255	41171.3125
2081.11938	41182.0125
2084.12426	41076.1125
2087.12722	41078.1125
2090.12824	41070.7125
2093.12732	41104.7125
2096.12447	41157.5125
2099.11969	41116.9125
2102.11299	41207.0125
2105.10435	41242.1125
2108.09379	41226.9125
2111.08131	41286.3125
2114.0669	41270.1125
2117.05057	41312.3125
2120.03233	41305.6125
2123.01216	41426.9125
2125.99008	41400.8125
2128.96609	41434.2125
2131.94018	41537.6125
2134.91236	41504.4125
2137.88263	41562.0125
2140.851	41556.1125
2143.81746	41642.7125
2146.78201	41653.9125
2149.74466	41718.7125
2152.7054	41724.1125
2155.66425	41776.9125
2158.6212	41785.1125
2161.57625	41843.1125
2164.52941	41809.2125
2167.48067	41805.9125
2170.43004	41769.7125
2173.37752	41697.3125
2176.32311	41741.1125
2179.26681	41751.6125
2182.20863	41767.9125
2185.14856	41824.5125
2188.08661	41828.7125
2191.02278	41871.2125
2193.95707	41893.0125
2196.88948	41875.8125
2199.82001	41928.3125
2202.74867	41847.2125
2205.67545	41834.3125
2208.60037	41798.4125
2211.52341	41824.9125
2214.44458	41781.0125
2217.36388	41745.2125
2220.28132	41737.2125
2223.1969	41623.5125
2226.11061	41597.8125
2229.02246	41543.4125
2231.93245	41503.1125
2234.84058	41370.2125
2237.74686	41353.6125
2240.65128	41418.0125
2243.55385	41322.8125
2246.45456	41240.0125
2249.35343	41188.7125
2252.25044	41114.8125
2255.14561	41020.7125
2258.03893	41042.4125
2260.93041	40939.4125
2263.82004	40811.5125
2266.70783	40753.4125
2269.59378	40680.1125
2272.4779	40597.3125
2275.36017	40489.1125
2278.24061	40457.9125
2281.11922	40416.0125
2283.996	40361.1125
2286.87094	40308.0125
2289.74405	40274.5125
2292.61534	40330.0125
2295.4848	40358.2125
2298.35243	40402.5125
2301.21824	40455.7125
2304.08223	40509.1125
2306.94439	40533.5125
2309.80474	40555.8125
2312.66327	40538.1125
2315.51999	40521.5125
2318.37489	40579.6125
2321.22797	40566.1125
2324.07925	40609.3125
2326.92871	40570.7125
2329.77637	40540.0125
2332.62222	40574.1125
2335.46626	40535.6125
2338.3085	40563.8125
2341.14893	40596.6125
2343.98756	40590.2125
2346.8244	40616.6125
2349.65943	40573.2125
2352.49267	40481.3125
2355.32411	40499.5125
2358.15376	40445.3125
2360.98161	40386.3125
2363.80768	40358.5125
2366.63195	40289.7125
2369.45444	40235.1125
2372.27514	40234.5125
2375.09405	40110.7125
2377.91118	40063.2125
2380.72652	39956.9125
2383.54009	39811.9125
2386.35187	39901.6125
2389.16188	39821.8125
2391.97011	39784.2125
2394.77657	39807.1125
2397.58125	39744.8125
2400.38416	39710.3125
2403.18529	39647.3125
2405.98466	39626.1125
2408.78226	39574.1125
2411.57809	39457.4125
2414.37216	39462.1125
2417.16446	39484.4125
2419.955	39329.6125
2422.74378	39359.0125
2425.5308	39308.0125
2428.31606	39296.6125
2431.09956	39258.6125
2433.88131	39247.0125
2436.6613	39269.8125
2439.43954	39207.6125
2442.21603	39251.2125
2444.99077	39242.0125
2447.76377	39186.1125
2450.53501	39143.7125
2453.30451	39246.2125
2456.07226	39259.0125
2458.83827	39281.7125
2461.60254	39247.5125
2464.36507	39258.2125
2467.12586	39266.9125
2469.88492	39279.4125
2472.64224	39338.9125
2475.39782	39312.8125
2478.15167	39377.0125
2480.90379	39445.9125
2483.65417	39440.6125
2486.40283	39462.1125
2489.14976	39470.8125
2491.89497	39421.5125
2494.63845	39473.4125
2497.3802	39475.4125
2500.12024	39520.3125
2502.85855	39505.2125
2505.59514	39492.0125
2508.33002	39455.7125
2511.06318	39410.5125
2513.79462	39400.4125
2516.52435	39414.5125
2519.25237	39488.2125
2521.97867	39461.6125
2524.70327	39409.7125
2527.42616	39311.4125
2530.14734	39416.1125
2532.86681	39347.5125
2535.58458	39364.9125
2538.30065	39284.7125
2541.01501	39336.3125
2543.72768	39269.3125
2546.43864	39222.2125
2549.14791	39256.1125
2551.85548	39245.3125
2554.56136	39278.0125
2557.26554	39201.9125
2559.96803	39245.4125
2562.66883	39220.5125
2565.36794	39207.8125
2568.06536	39226.9125
2570.7611	39201.3125
2573.45514	39205.3125
2576.14751	39213.4125
2578.83819	39149.4125
2581.52719	39163.7125
2584.21451	39172.4125
2586.90015	39205.0125
2589.58411	39139.5125
2592.2664	39154.5125
2594.94701	39077.6125
2597.62594	39052.8125
2600.30321	39071.9125
2602.9788	39093.3125
2605.65273	39025.8125
2608.32498	39091.7125
2610.99557	39140.6125
2613.66449	39128.7125
2616.33175	39093.8125
2618.99734	39140.6125
2621.66128	39108.8125
2624.32355	39140.6125
2626.98416	39079.7125
2629.64311	39024.3125
2632.30041	39023.5125
2634.95605	38981.6125
2637.61004	38968.5125
2640.26238	38903.8125
2642.91306	38928.0125
2645.56209	38857.9125
2648.20948	38890.5125
2650.85521	38861.4125
2653.4993	38902.2125
2656.14175	38876.9125
2658.78255	38936.8125
2661.42171	38932.3125
2664.05923	38972.8125
2666.6951	38970.3125
2669.32934	39094.9125
2671.96194	39078.1125
2674.59291	39146.9125
2677.22224	39103.2125
2679.84993	39125.4125
2682.476	39011.3125
2685.10043	39038.8125
2687.72324	39007.9125
2690.34441	38981.3125
2692.96396	38986.3125
2695.58188	39001.8125
2698.19818	38987.3125
2700.81285	39058.8125
2703.4259	38970.3125
2706.03733	39034.8125
2708.64714	39081.3125
2711.25533	39152.2125
2713.86191	39069.5125
2716.46687	39183.5125
2719.07021	39197.7125
2721.67194	39246.2125
2724.27206	39209.4125
2726.87057	39214.8125
2729.46747	39241.1125
2732.06276	39314.9125
2734.65644	39271.8125
2737.24852	39309.5125
2739.83899	39324.1125
2742.42786	39438.0125
2745.01513	39382.9125
2747.60079	39418.6125
2750.18486	39400.4125
2752.76733	39388.7125
2755.3482	39413.7125
2757.92747	39321.0125
2760.50515	39285.5125
2763.08123	39285.7125
2765.65573	39275.6125
2768.22863	39315.4125
2770.79994	39278.7125
2773.36967	39331.7125
2775.9378	39311.3125
2778.50435	39261.0125
2781.06932	39192.4125
2783.6327	39255.5125
2786.1945	39282.1125
2788.75471	39209.2125
2791.31335	39170.8125
2793.87041	39177.8125
2796.42589	39027.2125
2798.97979	39005.9125
2801.53212	38911.0125
2804.08288	38919.0125
2806.63206	38805.4125
2809.17967	38741.3125
2811.72571	38731.8125
2814.27018	38738.5125
2816.81308	38688.0125
2819.35442	38649.1125
2821.89419	38557.6125
2824.43239	38488.8125
2826.96904	38451.4125
2829.50412	38457.0125
2832.03763	38344.2125
2834.56959	38321.8125
2837.1	38335.5125
2839.62884	38353.8125
2842.15613	38258.5125
2844.68186	38324.9125
2847.20604	38252.3125
2849.72867	38222.8125
2852.24974	38171.0125
2854.76927	38171.9125
2857.28724	38134.6125
2859.80367	38129.6125
2862.31855	38067.6125
2864.83189	38087.7125
2867.34368	38009.2125
2869.85393	38044.4125
2872.36264	38062.1125
2874.8698	38007.7125
2877.37543	38051.2125
2879.87952	38050.4125
2882.38207	38029.9125
2884.88308	38061.6125
2887.38256	38112.4125
2889.88051	38123.4125
2892.37692	38174.4125
2894.8718	38218.0125
2897.36515	38356.9125
2899.85698	38290.7125
2902.34727	38376.2125
2904.83604	38381.1125
2907.32328	38424.5125
2909.809	38394.4125
2912.29319	38486.5125
2914.77587	38462.0125
2917.25702	38427.5125
2919.73665	38364.0125
2922.21476	38419.4125
2924.69136	38364.7125
2927.16644	38449.7125
2929.64	38317.2125
2932.11205	38307.0125
2934.58258	38208.8125
2937.05161	38245.0125
2939.51912	38271.0125
2941.98513	38219.6125
2944.44962	38159.1125
2946.91261	38090.5125
2949.37409	38142.4125
2951.83407	38157.9125
2954.29254	38163.5125
2956.74951	38116.8125
2959.20498	38157.6125
2961.65895	38028.3125
2964.11142	38065.3125
2966.56239	37968.9125
2969.01186	37986.6125
2971.45984	37824.4125
2973.90632	37808.1125
2976.35131	37672.7125
2978.7948	37625.8125
2981.23681	37553.5125
2983.67732	37530.7125
2986.11635	37389.6125
2988.55388	37344.0125
2990.98993	37271.8125
2993.4245	37189.2125
2995.85758	37175.6125
2998.28917	37045.7125
3000.71928	37043.8125
3003.14791	36967.2125
3005.57506	36924.2125
3008.00073	36819.4125
3010.42493	36810.9125
3012.84764	36819.0125
3015.26888	36793.9125
3017.68865	36715.4125
3020.10694	36639.8125
