Data from AgNP_FTO_APTES_CRN_10uM_R6G_10uM_NaF_0.1M_Addition_RamanShift__21__16-39-27-978.txt Node

Date: Wed Dec 15 16:39:27 GMT 2021
User: TCL
Spectrometer: QEP01345
Trigger mode: 4
Integration Time (sec): 7.000000E0
Scans to average: 10
Electric dark correction enabled: true
Nonlinearity correction enabled: false
Boxcar width: 0
XAxis mode: Raman Shifts
Number of Pixels in Spectrum: 1044
>>>>>Begin Spectral Data<<<<<
46.04893	0.825
50.45542	-2.475
54.85868	-0.375
59.25871	-0.575
63.6555	75.025
68.04907	83.225
72.43941	84.425
76.82654	93.325
81.21044	95.325
85.59113	99.825
89.96862	105.525
94.34289	101.725
98.71396	111.025
103.08183	115.325
107.4465	118.625
111.80798	119.925
116.16626	122.225
120.52136	128.625
124.87327	130.625
129.222	133.525
133.56755	135.825
137.90993	147.625
142.24913	162.825
146.58517	180.325
150.91804	204.225
155.24774	243.025
159.57429	298.925
163.89768	376.925
168.21792	487.025
172.53501	659.925
176.84895	915.025
181.15975	1276.125
185.46741	1780.325
189.77193	2448.425
194.07331	3270.025
198.37157	4206.325
202.6667	5194.325
206.9587	6174.325
211.24758	7133.425
215.53334	8098.225
219.81599	9135.725
224.09553	10286.525
228.37195	11497.725
232.64527	12883.025
236.91549	14365.325
241.18261	15856.725
245.44663	17234.825
249.70755	18433.325
253.96539	19471.425
258.22014	20367.725
262.4718	21104.825
266.72039	21653.525
270.96589	21939.925
275.20832	21988.425
279.44768	21857.125
283.68397	21651.525
287.91719	21504.425
292.14735	21463.625
296.37445	21499.725
300.59849	21572.225
304.81948	21661.125
309.03742	21635.425
313.25231	21423.725
317.46415	20922.625
321.67296	20280.025
325.87872	19778.525
330.08145	19471.225
334.28114	19458.625
338.47781	19590.625
342.67145	19842.125
346.86207	20229.425
351.04966	20676.325
355.23424	21163.325
359.4158	21553.525
363.59435	21809.025
367.76989	21943.625
371.94243	21976.425
376.11196	21959.425
380.27849	21953.225
384.44203	22014.425
388.60257	22112.925
392.76012	22262.925
396.91468	22549.025
401.06626	22924.025
405.21485	23113.425
409.36047	23018.725
413.50311	22603.725
417.64277	22259.725
421.77947	22150.625
425.9132	22178.225
430.04396	22368.025
434.17176	22510.625
438.2966	22687.425
442.41849	23077.625
446.53742	23674.825
450.6534	24332.325
454.76644	24879.225
458.87653	25108.825
462.98368	24991.925
467.08789	24759.525
471.18916	24436.425
475.2875	24197.125
479.38291	23982.725
483.4754	23731.725
487.56496	23373.725
491.6516	22979.525
495.73531	22653.825
499.81612	22601.225
503.89401	22713.525
507.96899	22861.825
512.04106	22892.025
516.11023	22939.725
520.1765	22974.725
524.23987	23015.625
528.30034	22863.125
532.35792	22624.325
536.41261	22202.325
540.46441	21844.325
544.51333	21719.925
548.55936	21906.425
552.60252	22308.025
556.64279	22815.725
560.6802	23129.625
564.71473	23256.925
568.7464	23502.925
572.7752	23917.225
576.80114	24259.125
580.82422	24620.225
584.84444	24952.125
588.86181	25469.725
592.87633	26044.325
596.888	26627.225
600.89682	26918.125
604.9028	27736.825
608.90594	29715.425
612.90624	31758.925
616.90371	29747.725
620.89834	24872.425
624.89015	22751.725
628.87913	22628.925
632.86528	22706.425
636.84862	22659.325
640.82913	22307.225
644.80683	21638.525
648.78172	21158.525
652.75379	20984.625
656.72306	21156.825
660.68952	21451.125
664.65319	21382.625
668.61405	21032.225
672.57211	20894.325
676.52738	20891.725
680.47986	20849.725
684.42955	20762.425
688.37646	20685.025
692.32058	20757.725
696.26192	20941.425
700.20048	21169.525
704.13626	21387.125
708.06928	21399.125
711.99952	21315.525
715.927	21296.625
719.85171	21304.825
723.77365	21159.225
727.69284	20924.525
731.60928	20697.925
735.52295	20665.325
739.43388	20643.125
743.34206	20673.725
747.24749	20785.425
751.15017	20992.325
755.05012	21328.525
758.94733	21962.825
762.8418	23189.025
766.73354	25113.325
770.62254	26940.225
774.50882	27387.625
778.39237	26107.425
782.27321	23948.825
786.15132	22238.525
790.02671	21286.725
793.89938	20797.025
797.76935	20675.825
801.6366	20664.925
805.50115	20596.425
809.36299	20462.225
813.22213	20288.325
817.07857	20214.125
820.93231	20158.025
824.78336	20078.425
828.63172	20079.125
832.47738	20134.225
836.32036	20269.325
840.16066	20399.325
843.99827	20430.325
847.8332	20314.725
851.66546	20123.725
855.49504	20051.325
859.32195	20007.725
863.1462	19959.525
866.96777	19890.825
870.78668	19789.825
874.60293	19791.425
878.41652	19798.825
882.22745	19843.025
886.03573	19942.125
889.84136	19918.925
893.64433	19851.425
897.44466	19730.825
901.24235	19650.825
905.0374	19643.125
908.8298	19617.125
912.61957	19685.825
916.40671	19880.125
920.19121	20187.425
923.97308	20439.325
927.75233	20538.225
931.52895	20520.625
935.30295	20226.325
939.07433	19810.625
942.84309	19464.825
946.60924	19295.125
950.37278	19215.825
954.13371	19171.125
957.89203	19079.225
961.64774	19003.825
965.40086	18964.225
969.15137	18888.225
972.89929	18833.025
976.64461	18770.425
980.38733	18753.125
984.12747	18876.925
987.86502	19028.525
991.59999	19283.025
995.33237	19693.725
999.06217	20365.025
1002.78939	21085.125
1006.51404	21512.125
1010.23611	21778.225
1013.95561	22036.425
1017.67255	21948.325
1021.38692	21630.525
1025.09872	21389.025
1028.80796	21602.125
1032.51465	22308.325
1036.21877	23007.525
1039.92035	23134.225
1043.61937	22804.225
1047.31584	22312.725
1051.00976	21825.925
1054.70114	21657.625
1058.38998	21841.925
1062.07627	22254.825
1065.76003	22793.625
1069.44126	23624.825
1073.11995	24575.625
1076.79611	25254.625
1080.46974	25326.825
1084.14085	24846.025
1087.80943	24305.325
1091.47549	23704.025
1095.13903	23163.125
1098.80005	22589.425
1102.45857	21915.225
1106.11456	21483.325
1109.76805	21363.225
1113.41903	21380.025
1117.06751	21565.125
1120.71348	21812.225
1124.35696	22077.125
1127.99793	22444.525
1131.63641	22640.725
1135.2724	22560.625
1138.90589	22355.325
1142.5369	22237.525
1146.16542	22153.425
1149.79145	22154.425
1153.415	22336.125
1157.03607	22690.625
1160.65467	23261.625
1164.27079	24315.125
1167.88443	25692.525
1171.49561	27547.925
1175.10432	29966.925
1178.71056	32945.525
1182.31434	35579.825
1185.91565	36783.425
1189.51451	36339.025
1193.11091	34872.325
1196.70485	33060.325
1200.29634	31339.925
1203.88538	30066.825
1207.47197	29261.625
1211.05612	28619.525
1214.63782	28152.125
1218.21708	27762.525
1221.79391	27540.325
1225.36829	27358.925
1228.94024	27107.725
1232.50976	26665.525
1236.07685	26239.925
1239.6415	26002.625
1243.20374	25958.125
1246.76355	26074.225
1250.32093	26510.025
1253.8759	27095.025
1257.42845	27918.725
1260.97859	28702.125
1264.52631	29544.925
1268.07163	30414.325
1271.61453	31418.925
1275.15503	32477.225
1278.69312	33536.225
1282.22882	34472.225
1285.76211	35356.225
1289.29301	36284.925
1292.82151	37523.525
1296.34761	39219.525
1299.87133	41438.225
1303.39266	44095.325
1306.9116	47067.925
1310.42815	49929.525
1313.94233	51680.325
1317.45412	51808.125
1320.96354	50775.125
1324.47058	49412.125
1327.97525	48226.425
1331.47754	47177.325
1334.97747	46489.825
1338.47502	46190.625
1341.97022	45904.625
1345.46305	45394.125
1348.95352	44858.025
1352.44163	44786.125
1355.92738	45826.525
1359.41078	48244.525
1362.89183	50551.925
1366.37053	49903.325
1369.84688	46040.025
1373.32088	41142.825
1376.79254	37558.125
1380.26186	36042.525
1383.72883	35639.425
1387.19347	35307.425
1390.65578	34939.925
1394.11575	34702.025
1397.57339	35030.625
1401.0287	35721.425
1404.48168	36289.425
1407.93234	36352.025
1411.38068	35751.325
1414.82669	34569.125
1418.27039	32999.125
1421.71177	31545.525
1425.15083	30398.725
1428.58758	29744.525
1432.02203	29768.925
1435.45416	30363.025
1438.88399	31175.725
1442.31151	31959.825
1445.73673	32530.025
1449.15965	33093.825
1452.58027	33572.725
1455.9986	33725.525
1459.41463	34125.825
1462.82837	34844.225
1466.23982	35698.825
1469.64898	36407.025
1473.05586	36871.525
1476.46045	36891.825
1479.86276	36623.425
1483.26279	36141.625
1486.66054	35740.825
1490.05602	35678.125
1493.44922	35831.725
1496.84016	36159.625
1500.22882	36874.025
1503.61521	38087.425
1506.99934	39655.725
1510.38121	40939.225
1513.76081	41322.225
1517.13816	40444.725
1520.51324	38730.425
1523.88607	37013.425
1527.25665	35966.925
1530.62498	35429.225
1533.99105	35233.925
1537.35488	34953.225
1540.71647	34483.525
1544.07581	33913.825
1547.4329	33303.925
1550.78776	32752.725
1554.14038	32394.525
1557.49077	32239.725
1560.83892	32215.925
1564.18484	32369.625
1567.52853	32842.325
1570.86999	33581.725
1574.20922	34915.525
1577.54624	36379.225
1580.88103	37456.625
1584.2136	37958.525
1587.54395	38041.625
1590.87208	38210.925
1594.19801	39216.025
1597.52172	40857.225
1600.84321	41253.725
1604.16251	39350.725
1607.47959	36147.025
1610.79447	32836.325
1614.10715	29967.025
1617.41763	27591.325
1620.7259	26011.125
1624.03199	25207.425
1627.33587	25232.525
1630.63757	25988.225
1633.93707	27691.725
1637.23439	30431.425
1640.52951	34164.425
1643.82246	38371.125
1647.11321	41504.225
1650.40179	42029.025
1653.68819	39260.125
1656.97241	34282.625
1660.25446	29282.325
1663.53433	25535.425
1666.81203	23047.525
1670.08756	21501.225
1673.36092	20476.825
1676.63211	19826.825
1679.90115	19337.625
1683.16801	19029.525
1686.43272	18798.425
1689.69527	18610.725
1692.95567	18458.825
1696.2139	18393.325
1699.46999	18343.325
1702.72392	18264.725
1705.97571	18242.625
1709.22535	18143.925
1712.47284	18046.625
1715.71819	18007.325
1718.96139	17976.225
1722.20246	17900.825
1725.44139	17802.425
1728.67818	17708.925
1731.91284	17628.625
1735.14537	17499.125
1738.37576	17417.825
1741.60403	17394.425
1744.83017	17350.525
1748.05418	17293.125
1751.27607	17274.425
1754.49584	17244.225
1757.71349	17270.125
1760.92903	17252.025
1764.14244	17230.325
1767.35375	17207.325
1770.56294	17177.325
1773.77002	17164.925
1776.97499	17123.325
1780.17785	17053.725
1783.37861	17008.125
1786.57727	16964.425
1789.77382	16938.725
1792.96828	16915.225
1796.16064	16894.825
1799.3509	16854.425
1802.53907	16811.625
1805.72514	16762.925
1808.90913	16708.325
1812.09102	16673.425
1815.27083	16638.425
1818.44856	16631.025
1821.6242	16604.425
1824.79776	16564.925
1827.96924	16590.425
1831.13864	16566.525
1834.30597	16584.025
1837.47122	16596.525
1840.6344	16599.025
1843.7955	16576.325
1846.95454	16548.525
1850.11151	16586.425
1853.26642	16571.025
1856.41926	16575.825
1859.57004	16579.625
1862.71876	16535.325
1865.86542	16538.425
1869.01003	16530.025
1872.15258	16510.025
1875.29308	16517.225
1878.43152	16481.025
1881.56792	16452.825
1884.70227	16470.725
1887.83457	16457.125
1890.96482	16427.425
1894.09304	16439.525
1897.21921	16467.625
1900.34335	16440.325
1903.46544	16429.825
1906.58551	16403.225
1909.70353	16403.025
1912.81953	16376.625
1915.93349	16375.825
1919.04543	16289.225
1922.15534	16293.225
1925.26322	16249.625
1928.36908	16211.125
1931.47292	16158.725
1934.57473	16093.325
1937.67453	16059.825
1940.77232	16040.925
1943.86808	16000.725
1946.96184	15928.625
1950.05358	15872.425
1953.14331	15836.125
1956.23103	15787.825
1959.31675	15763.625
1962.40046	15721.725
1965.48217	15655.725
1968.56188	15633.325
1971.63959	15555.125
1974.7153	15529.325
1977.78901	15468.825
1980.86073	15421.725
1983.93046	15409.325
1986.99819	15322.425
1990.06394	15320.125
1993.1277	15276.725
1996.18947	15203.025
1999.24925	15149.025
2002.30706	15113.125
2005.36288	15102.325
2008.41672	15048.825
2011.46859	15032.925
2014.51848	14976.325
2017.56639	14951.725
2020.61233	14878.125
2023.6563	14872.925
2026.6983	14873.225
2029.73833	14851.625
2032.7764	14818.525
2035.8125	14809.225
2038.84664	14739.325
2041.87881	14769.125
2044.90903	14757.625
2047.93729	14731.925
2050.96359	14701.525
2053.98794	14706.025
2057.01034	14688.125
2060.03078	14654.325
2063.04927	14670.925
2066.06582	14654.325
2069.08042	14634.225
2072.09307	14616.425
2075.10378	14583.825
2078.11255	14601.625
2081.11938	14612.825
2084.12426	14593.725
2087.12722	14582.125
2090.12824	14605.325
2093.12732	14587.725
2096.12447	14596.425
2099.11969	14602.325
2102.11299	14590.025
2105.10435	14623.125
2108.09379	14607.725
2111.08131	14637.425
2114.0669	14643.925
2117.05057	14635.625
2120.03233	14640.825
2123.01216	14670.625
2125.99008	14653.825
2128.96609	14667.425
2131.94018	14682.425
2134.91236	14688.725
2137.88263	14736.225
2140.851	14723.725
2143.81746	14751.625
2146.78201	14760.425
2149.74466	14755.125
2152.7054	14761.525
2155.66425	14763.825
2158.6212	14752.225
2161.57625	14786.125
2164.52941	14747.325
2167.48067	14752.925
2170.43004	14730.825
2173.37752	14721.125
2176.32311	14718.725
2179.26681	14733.225
2182.20863	14754.225
2185.14856	14748.925
2188.08661	14746.125
2191.02278	14755.325
2193.95707	14722.025
2196.88948	14726.525
2199.82001	14730.225
2202.74867	14723.325
2205.67545	14744.825
2208.60037	14746.925
2211.52341	14734.425
2214.44458	14729.725
2217.36388	14702.025
2220.28132	14707.725
2223.1969	14675.025
2226.11061	14662.825
2229.02246	14643.225
2231.93245	14592.025
2234.84058	14552.825
2237.74686	14520.825
2240.65128	14518.625
2243.55385	14469.325
2246.45456	14462.425
2249.35343	14428.425
2252.25044	14421.825
2255.14561	14392.725
2258.03893	14385.625
2260.93041	14385.625
2263.82004	14362.225
2266.70783	14310.925
2269.59378	14287.925
2272.4779	14235.925
2275.36017	14201.925
2278.24061	14173.625
2281.11922	14170.225
2283.996	14162.025
2286.87094	14133.025
2289.74405	14105.325
2292.61534	14078.625
2295.4848	14105.325
2298.35243	14133.125
2301.21824	14103.025
2304.08223	14121.825
2306.94439	14125.625
2309.80474	14147.025
2312.66327	14152.125
2315.51999	14123.625
2318.37489	14154.225
2321.22797	14144.925
2324.07925	14116.425
2326.92871	14111.825
2329.77637	14116.725
2332.62222	14117.525
2335.46626	14100.225
2338.3085	14127.725
2341.14893	14105.425
2343.98756	14169.325
2346.8244	14101.725
2349.65943	14105.425
2352.49267	14134.225
2355.32411	14143.825
2358.15376	14109.325
2360.98161	14093.225
2363.80768	14086.925
2366.63195	14054.625
2369.45444	14049.925
2372.27514	14035.125
2375.09405	14015.025
2377.91118	13957.125
2380.72652	13943.725
2383.54009	13908.725
2386.35187	13901.625
2389.16188	13855.925
2391.97011	13859.725
2394.77657	13840.925
2397.58125	13810.725
2400.38416	13822.625
2403.18529	13801.425
2405.98466	13754.025
2408.78226	13733.325
2411.57809	13705.825
2414.37216	13682.225
2417.16446	13659.025
2419.955	13645.225
2422.74378	13660.425
2425.5308	13624.725
2428.31606	13601.325
2431.09956	13607.425
2433.88131	13617.125
2436.6613	13615.625
2439.43954	13604.125
2442.21603	13592.125
2444.99077	13566.325
2447.76377	13614.425
2450.53501	13584.225
2453.30451	13563.025
2456.07226	13590.125
2458.83827	13601.525
2461.60254	13582.525
2464.36507	13563.025
2467.12586	13592.725
2469.88492	13586.725
2472.64224	13609.625
2475.39782	13611.525
2478.15167	13609.125
2480.90379	13598.125
2483.65417	13617.125
2486.40283	13625.125
2489.14976	13664.225
2491.89497	13662.625
2494.63845	13700.725
2497.3802	13681.325
2500.12024	13670.525
2502.85855	13660.625
2505.59514	13688.625
2508.33002	13655.425
2511.06318	13619.425
2513.79462	13591.125
2516.52435	13601.725
2519.25237	13600.825
2521.97867	13579.125
2524.70327	13577.325
2527.42616	13552.925
2530.14734	13569.425
2532.86681	13568.925
2535.58458	13543.025
2538.30065	13540.925
2541.01501	13554.825
2543.72768	13537.625
2546.43864	13554.125
2549.14791	13528.525
2551.85548	13494.725
2554.56136	13485.025
2557.26554	13502.425
2559.96803	13500.325
2562.66883	13466.025
2565.36794	13486.625
2568.06536	13486.425
2570.7611	13506.025
2573.45514	13482.825
2576.14751	13449.325
2578.83819	13442.625
2581.52719	13450.525
2584.21451	13457.825
2586.90015	13449.025
2589.58411	13425.925
2592.2664	13431.025
2594.94701	13395.025
2597.62594	13444.425
2600.30321	13406.725
2602.9788	13412.725
2605.65273	13420.125
2608.32498	13372.225
2610.99557	13373.125
2613.66449	13394.625
2616.33175	13384.225
2618.99734	13378.125
2621.66128	13408.225
2624.32355	13406.825
2626.98416	13400.825
2629.64311	13412.625
2632.30041	13408.625
2634.95605	13413.225
2637.61004	13381.125
2640.26238	13355.225
2642.91306	13367.425
2645.56209	13358.225
2648.20948	13340.525
2650.85521	13318.825
2653.4993	13322.925
2656.14175	13337.725
2658.78255	13324.625
2661.42171	13326.025
2664.05923	13349.025
2666.6951	13342.125
2669.32934	13361.625
2671.96194	13344.325
2674.59291	13358.025
2677.22224	13341.525
2679.84993	13343.425
2682.476	13355.625
2685.10043	13339.525
2687.72324	13306.425
2690.34441	13347.225
2692.96396	13339.425
2695.58188	13315.725
2698.19818	13293.425
2700.81285	13337.825
2703.4259	13330.725
2706.03733	13407.525
2708.64714	13376.425
2711.25533	13396.325
2713.86191	13365.325
2716.46687	13399.825
2719.07021	13394.425
2721.67194	13408.025
2724.27206	13407.125
2726.87057	13391.725
2729.46747	13380.425
2732.06276	13394.325
2734.65644	13405.725
2737.24852	13423.525
2739.83899	13395.225
2742.42786	13406.125
2745.01513	13372.525
2747.60079	13341.225
2750.18486	13350.725
2752.76733	13393.625
2755.3482	13393.125
2757.92747	13414.225
2760.50515	13384.025
2763.08123	13380.725
2765.65573	13352.425
2768.22863	13385.025
2770.79994	13357.425
2773.36967	13390.025
2775.9378	13362.025
2778.50435	13345.725
2781.06932	13329.725
2783.6327	13352.625
2786.1945	13341.625
2788.75471	13348.125
2791.31335	13315.325
2793.87041	13282.825
2796.42589	13249.925
2798.97979	13248.225
2801.53212	13241.725
2804.08288	13252.725
2806.63206	13237.725
2809.17967	13189.525
2811.72571	13140.025
2814.27018	13156.925
2816.81308	13148.025
2819.35442	13136.925
2821.89419	13101.425
2824.43239	13115.925
2826.96904	13112.225
2829.50412	13116.725
2832.03763	13061.425
2834.56959	13082.325
2837.1	13069.825
2839.62884	13055.125
2842.15613	13083.625
2844.68186	13078.025
2847.20604	13082.125
2849.72867	13114.825
2852.24974	13096.025
2854.76927	13097.225
2857.28724	13093.925
2859.80367	13084.725
2862.31855	13056.525
2864.83189	13077.925
2867.34368	13080.225
2869.85393	13063.325
2872.36264	13061.625
2874.8698	13071.025
2877.37543	13087.225
2879.87952	13076.125
2882.38207	13069.825
2884.88308	13079.525
2887.38256	13092.725
2889.88051	13094.925
2892.37692	13126.825
2894.8718	13081.125
2897.36515	13111.825
2899.85698	13122.525
2902.34727	13120.125
2904.83604	13150.425
2907.32328	13196.125
2909.809	13163.025
2912.29319	13222.025
2914.77587	13221.825
2917.25702	13194.525
2919.73665	13189.025
2922.21476	13175.625
2924.69136	13186.625
2927.16644	13169.725
2929.64	13169.625
2932.11205	13152.825
2934.58258	13141.525
2937.05161	13140.125
2939.51912	13149.025
2941.98513	13106.025
2944.44962	13064.325
2946.91261	12988.625
2949.37409	13052.625
2951.83407	13014.825
2954.29254	13060.025
2956.74951	13003.725
2959.20498	13006.325
2961.65895	12974.925
2964.11142	12989.625
2966.56239	12946.325
2969.01186	12955.725
2971.45984	12862.225
2973.90632	12871.225
2976.35131	12807.425
2978.7948	12786.425
2981.23681	12757.625
2983.67732	12785.125
2986.11635	12749.525
2988.55388	12713.225
2990.98993	12691.325
2993.4245	12647.025
2995.85758	12614.025
2998.28917	12601.725
3000.71928	12597.625
3003.14791	12580.325
3005.57506	12587.325
3008.00073	12536.925
3010.42493	12533.625
3012.84764	12505.625
3015.26888	12487.825
3017.68865	12450.725
3020.10694	12465.125
3022.52376	12425.525
3024.9391	12440.025
3027.35298	12437.025
3029.76539	12434.625
3032.17632	12450.525
3034.5858	12422.025
3036.9938	12375.325
3039.40034	12387.425
3041.80542	12363.725
3044.20903	12345.525
3046.61118	12368.825
3049.01187	12360.625
3051.4111	12357.525
3053.80888	12329.225
3056.20519	12299.725
3058.60005	12268.125
3060.99345	12250.525
3063.3854	12237.925
3065.7759	12202.325
3068.16494	12192.125
3070.55254	12142.325
3072.93868	12133.625
3075.32338	12089.925
3077.70662	12079.725
3080.08842	12036.025
3082.46878	12051.925
3084.84769	12030.525
3087.22515	11999.125
3089.60118	12019.025
3091.97576	12029.725
3094.3489	12034.925
3096.72061	12026.725
3099.09087	12014.725
3101.4597	12032.625
3103.82709	11998.925
3106.19305	11983.625
3108.55757	11979.525
3110.92066	11992.125
3113.28232	11947.125
3115.64255	11922.925
3118.00134	11916.925
3120.35871	11918.125
3122.71466	11883.225
3125.06917	11841.925
3127.42226	11860.825
