Data from AgNP_FTO_APTES_CRN_10uM_R6G_10uM_NaF_0.1M_Addition_RamanShift__36__16-56-57-999.txt Node

Date: Wed Dec 15 16:56:57 GMT 2021
User: TCL
Spectrometer: QEP01345
Trigger mode: 4
Integration Time (sec): 7.000000E0
Scans to average: 10
Electric dark correction enabled: true
Nonlinearity correction enabled: false
Boxcar width: 0
XAxis mode: Raman Shifts
Number of Pixels in Spectrum: 1044
>>>>>Begin Spectral Data<<<<<
46.04893	1.175
50.45542	-0.425
54.85868	-0.825
59.25871	-0.425
63.6555	49.075
68.04907	54.375
72.43941	58.775
76.82654	64.475
81.21044	65.075
85.59113	67.275
89.96862	70.175
94.34289	71.275
98.71396	75.975
103.08183	81.675
107.4465	84.275
111.80798	83.275
116.16626	82.775
120.52136	85.875
124.87327	85.175
129.222	85.975
133.56755	89.975
137.90993	92.875
142.24913	95.875
146.58517	105.675
150.91804	119.675
155.24774	134.175
159.57429	163.275
163.89768	198.675
168.21792	249.375
172.53501	332.575
176.84895	459.175
181.15975	628.075
185.46741	875.375
189.77193	1206.175
194.07331	1591.375
198.37157	2049.675
202.6667	2528.575
206.9587	3008.975
211.24758	3503.375
215.53334	4017.475
219.81599	4612.575
224.09553	5270.075
228.37195	6005.675
232.64527	6780.175
236.91549	7538.875
241.18261	8184.475
245.44663	8669.975
249.70755	9033.275
253.96539	9306.775
258.22014	9615.675
262.4718	9887.575
266.72039	10130.975
270.96589	10280.875
275.20832	10294.475
279.44768	10171.175
283.68397	9998.075
287.91719	9899.675
292.14735	10045.075
296.37445	10349.675
300.59849	10866.175
304.81948	11559.575
309.03742	12071.475
313.25231	12135.175
317.46415	11455.575
321.67296	10373.475
325.87872	9393.575
330.08145	8910.575
334.28114	8828.675
338.47781	9015.375
342.67145	9327.375
346.86207	9846.375
351.04966	10619.775
355.23424	11483.775
359.4158	12153.375
363.59435	12382.475
367.76989	12405.875
371.94243	12250.075
376.11196	12043.175
380.27849	11885.275
384.44203	11672.675
388.60257	11402.675
392.76012	11302.075
396.91468	11370.175
401.06626	11700.275
405.21485	11955.775
409.36047	11679.075
413.50311	10836.975
417.64277	10057.975
421.77947	9601.675
425.9132	9387.875
430.04396	9312.375
434.17176	9369.675
438.2966	9489.175
442.41849	9738.575
446.53742	10046.575
450.6534	10348.975
454.76644	10510.975
458.87653	10480.475
462.98368	10364.075
467.08789	10147.975
471.18916	9886.375
475.2875	9611.875
479.38291	9343.475
483.4754	9146.475
487.56496	8981.475
491.6516	8930.975
495.73531	8889.775
499.81612	8939.375
503.89401	9126.775
507.96899	9312.875
512.04106	9547.475
516.11023	9825.275
520.1765	10003.975
524.23987	10037.475
528.30034	9800.375
532.35792	9472.375
536.41261	9150.275
540.46441	8816.675
544.51333	8666.975
548.55936	8693.275
552.60252	8908.575
556.64279	9259.275
560.6802	9392.475
564.71473	9636.975
568.7464	10206.575
572.7752	10518.675
576.80114	10091.875
580.82422	9487.575
584.84444	9231.075
588.86181	9141.775
592.87633	9166.175
596.888	9329.775
600.89682	9799.675
604.9028	11401.575
608.90594	15628.475
612.90624	21378.975
616.90371	20762.975
620.89834	13318.275
624.89015	9677.375
628.87913	8937.375
632.86528	9017.675
636.84862	9255.975
640.82913	9154.275
644.80683	8643.675
648.78172	8276.075
652.75379	8368.675
656.72306	8892.775
660.68952	9500.775
664.65319	9390.075
668.61405	8690.275
672.57211	8340.475
676.52738	8296.575
680.47986	8283.175
684.42955	8213.875
688.37646	8150.675
692.32058	8186.475
696.26192	8281.775
700.20048	8424.775
704.13626	8533.675
708.06928	8548.575
711.99952	8439.375
715.927	8397.775
719.85171	8438.775
723.77365	8400.275
727.69284	8291.875
731.60928	8191.075
735.52295	8184.675
739.43388	8212.375
743.34206	8234.275
747.24749	8271.775
751.15017	8329.575
755.05012	8551.675
758.94733	9118.075
762.8418	10490.875
766.73354	12935.975
770.62254	15500.275
774.50882	16815.675
778.39237	16030.675
782.27321	13460.975
786.15132	10874.875
790.02671	9339.475
793.89938	8656.075
797.76935	8369.975
801.6366	8227.875
805.50115	8144.775
809.36299	8087.275
813.22213	8048.275
817.07857	8014.375
820.93231	8026.575
824.78336	8061.875
828.63172	8150.675
832.47738	8190.375
836.32036	8144.875
840.16066	8086.075
843.99827	8002.575
847.8332	7933.375
851.66546	7928.775
855.49504	7919.975
859.32195	7880.975
863.1462	7825.575
866.96777	7773.275
870.78668	7754.775
874.60293	7780.375
878.41652	7794.875
882.22745	7875.075
886.03573	7908.875
889.84136	7869.275
893.64433	7813.175
897.44466	7808.475
901.24235	7798.475
905.0374	7771.775
908.8298	7745.075
912.61957	7726.675
916.40671	7767.075
920.19121	7828.675
923.97308	7915.975
927.75233	8044.175
931.52895	8198.475
935.30295	8090.975
939.07433	7770.875
942.84309	7487.775
946.60924	7309.175
950.37278	7204.875
954.13371	7173.775
957.89203	7116.975
961.64774	7104.975
965.40086	7067.975
969.15137	7055.875
972.89929	7032.775
976.64461	6993.575
980.38733	7016.475
984.12747	7002.875
987.86502	7023.275
991.59999	7061.975
995.33237	7142.875
999.06217	7259.575
1002.78939	7462.975
1006.51404	7634.575
1010.23611	7878.075
1013.95561	8008.075
1017.67255	7977.275
1021.38692	7837.675
1025.09872	7662.575
1028.80796	7552.075
1032.51465	7578.175
1036.21877	7703.275
1039.92035	7815.475
1043.61937	7923.675
1047.31584	7944.275
1051.00976	7934.075
1054.70114	7917.375
1058.38998	7912.875
1062.07627	7976.075
1065.76003	8109.975
1069.44126	8288.875
1073.11995	8578.375
1076.79611	8864.375
1080.46974	9129.775
1084.14085	9347.075
1087.80943	9514.475
1091.47549	9455.775
1095.13903	9098.775
1098.80005	8578.975
1102.45857	8180.475
1106.11456	8019.475
1109.76805	8091.675
1113.41903	8308.875
1117.06751	8686.675
1120.71348	9188.475
1124.35696	9807.175
1127.99793	10336.175
1131.63641	10301.375
1135.2724	9633.675
1138.90589	8950.875
1142.5369	8568.675
1146.16542	8314.975
1149.79145	8139.375
1153.415	8108.575
1157.03607	8217.075
1160.65467	8438.775
1164.27079	8853.575
1167.88443	9449.575
1171.49561	10525.175
1175.10432	12352.575
1178.71056	14694.775
1182.31434	16221.475
1185.91565	16278.275
1189.51451	15424.775
1193.11091	14064.775
1196.70485	12663.475
1200.29634	11633.775
1203.88538	10945.975
1207.47197	10108.675
1211.05612	9381.175
1214.63782	8953.675
1218.21708	8830.275
1221.79391	8817.575
1225.36829	8874.375
1228.94024	8955.775
1232.50976	8968.575
1236.07685	9024.375
1239.6415	9063.175
1243.20374	9107.375
1246.76355	9191.375
1250.32093	9322.475
1253.8759	9541.375
1257.42845	9872.275
1260.97859	10267.175
1264.52631	10669.675
1268.07163	11126.575
1271.61453	11513.275
1275.15503	11737.175
1278.69312	11757.975
1282.22882	11707.775
1285.76211	11982.875
1289.29301	12412.775
1292.82151	12884.775
1296.34761	13375.975
1299.87133	14093.675
1303.39266	15410.075
1306.9116	17625.775
1310.42815	20323.875
1313.94233	22079.375
1317.45412	21625.275
1320.96354	19703.475
1324.47058	17471.075
1327.97525	15638.375
1331.47754	14504.075
1334.97747	14017.475
1338.47502	14032.775
1341.97022	14364.375
1345.46305	15144.575
1348.95352	16528.275
1352.44163	18514.975
1355.92738	21137.975
1359.41078	25101.875
1362.89183	29291.675
1366.37053	28809.575
1369.84688	23765.375
1373.32088	18570.275
1376.79254	15297.575
1380.26186	13605.475
1383.72883	12771.975
1387.19347	12095.275
1390.65578	11404.375
1394.11575	10807.175
1397.57339	10425.175
1401.0287	10344.075
1404.48168	10362.075
1407.93234	10404.375
1411.38068	10448.275
1414.82669	10461.475
1418.27039	10363.675
1421.71177	10240.075
1425.15083	10078.475
1428.58758	9916.075
1432.02203	9932.375
1435.45416	10095.475
1438.88399	10160.675
1442.31151	10138.375
1445.73673	10183.975
1449.15965	10236.675
1452.58027	10204.475
1455.9986	10080.275
1459.41463	10000.775
1462.82837	10117.575
1466.23982	10351.575
1469.64898	10666.375
1473.05586	10876.875
1476.46045	11050.975
1479.86276	11302.575
1483.26279	11631.775
1486.66054	12065.375
1490.05602	12651.075
1493.44922	13401.875
1496.84016	14654.075
1500.22882	16614.275
1503.61521	19363.075
1506.99934	22457.275
1510.38121	25499.975
1513.76081	27256.275
1517.13816	26060.575
1520.51324	22452.575
1523.88607	18444.975
1527.25665	15585.975
1530.62498	13968.975
1533.99105	13003.575
1537.35488	12389.275
1540.71647	11984.575
1544.07581	11791.775
1547.4329	11678.875
1550.78776	11648.475
1554.14038	11689.275
1557.49077	11851.875
1560.83892	12225.875
1564.18484	12804.375
1567.52853	13479.075
1570.86999	14150.175
1574.20922	14678.975
1577.54624	14842.475
1580.88103	14118.875
1584.2136	12841.175
1587.54395	11808.475
1590.87208	11445.475
1594.19801	11755.975
1597.52172	12624.575
1600.84321	12961.875
1604.16251	12432.875
1607.47959	11539.875
1610.79447	10657.175
1614.10715	9800.175
1617.41763	9112.675
1620.7259	8631.875
1624.03199	8434.675
1627.33587	8455.775
1630.63757	8657.675
1633.93707	9074.575
1637.23439	9789.275
1640.52951	10910.375
1643.82246	12615.375
1647.11321	14852.775
1650.40179	16872.975
1653.68819	16877.275
1656.97241	14585.275
1660.25446	11721.175
1663.53433	9593.775
1666.81203	8330.775
1670.08756	7631.075
1673.36092	7200.175
1676.63211	6957.275
1679.90115	6789.475
1683.16801	6662.375
1686.43272	6571.375
1689.69527	6505.475
1692.95567	6448.975
1696.2139	6450.675
1699.46999	6483.275
1702.72392	6460.475
1705.97571	6421.675
1709.22535	6370.275
1712.47284	6376.175
1715.71819	6366.475
1718.96139	6368.775
1722.20246	6345.275
1725.44139	6312.775
1728.67818	6254.675
1731.91284	6197.375
1735.14537	6121.975
1738.37576	6068.175
1741.60403	6038.575
1744.83017	6019.375
1748.05418	5994.075
1751.27607	5985.175
1754.49584	5980.275
1757.71349	5979.775
1760.92903	5964.075
1764.14244	5953.675
1767.35375	5929.475
1770.56294	5914.675
1773.77002	5886.475
1776.97499	5844.575
1780.17785	5805.075
1783.37861	5771.875
1786.57727	5748.275
1789.77382	5721.775
1792.96828	5720.875
1796.16064	5724.775
1799.3509	5689.675
1802.53907	5679.875
1805.72514	5686.975
1808.90913	5647.375
1812.09102	5620.375
1815.27083	5584.275
1818.44856	5573.275
1821.6242	5562.575
1824.79776	5554.975
1827.96924	5544.775
1831.13864	5542.375
1834.30597	5553.075
1837.47122	5540.875
1840.6344	5516.675
1843.7955	5513.675
1846.95454	5517.275
1850.11151	5508.275
1853.26642	5502.775
1856.41926	5505.875
1859.57004	5483.775
1862.71876	5491.975
1865.86542	5502.375
1869.01003	5500.075
1872.15258	5500.075
1875.29308	5483.775
1878.43152	5481.375
1881.56792	5470.975
1884.70227	5484.875
1887.83457	5471.575
1890.96482	5469.075
1894.09304	5478.375
1897.21921	5459.275
1900.34335	5473.575
1903.46544	5462.375
1906.58551	5465.575
1909.70353	5444.375
1912.81953	5446.475
1915.93349	5456.875
1919.04543	5432.275
1922.15534	5420.975
1925.26322	5404.675
1928.36908	5392.975
1931.47292	5364.675
1934.57473	5337.475
1937.67453	5316.675
1940.77232	5295.275
1943.86808	5260.675
1946.96184	5248.375
1950.05358	5230.475
1953.14331	5223.175
1956.23103	5190.175
1959.31675	5179.675
1962.40046	5154.875
1965.48217	5146.575
1968.56188	5134.575
1971.63959	5119.975
1974.7153	5106.575
1977.78901	5100.475
1980.86073	5074.275
1983.93046	5042.675
1986.99819	5025.775
1990.06394	5011.175
1993.1277	4995.775
1996.18947	4968.175
1999.24925	4948.475
2002.30706	4920.075
2005.36288	4914.475
2008.41672	4915.175
2011.46859	4882.175
2014.51848	4881.475
2017.56639	4860.975
2020.61233	4838.275
2023.6563	4817.575
2026.6983	4808.075
2029.73833	4815.675
2032.7764	4796.575
2035.8125	4774.675
2038.84664	4765.875
2041.87881	4740.375
2044.90903	4739.175
2047.93729	4732.675
2050.96359	4715.275
2053.98794	4724.375
2057.01034	4715.075
2060.03078	4710.675
2063.04927	4702.475
2066.06582	4694.375
2069.08042	4682.075
2072.09307	4679.075
2075.10378	4641.975
2078.11255	4656.875
2081.11938	4670.875
2084.12426	4661.475
2087.12722	4658.275
2090.12824	4649.075
2093.12732	4658.675
2096.12447	4657.875
2099.11969	4641.675
2102.11299	4651.575
2105.10435	4665.675
2108.09379	4648.875
2111.08131	4662.675
2114.0669	4670.275
2117.05057	4665.175
2120.03233	4663.475
2123.01216	4681.175
2125.99008	4679.575
2128.96609	4678.175
2131.94018	4672.275
2134.91236	4671.775
2137.88263	4671.775
2140.851	4683.175
2143.81746	4681.275
2146.78201	4683.975
2149.74466	4656.275
2152.7054	4668.775
2155.66425	4650.175
2158.6212	4662.375
2161.57625	4645.475
2164.52941	4635.175
2167.48067	4648.575
2170.43004	4634.875
2173.37752	4628.075
2176.32311	4634.975
2179.26681	4630.875
2182.20863	4650.175
2185.14856	4633.175
2188.08661	4630.075
2191.02278	4618.375
2193.95707	4610.775
2196.88948	4592.375
2199.82001	4601.275
2202.74867	4584.875
2205.67545	4592.375
2208.60037	4589.375
2211.52341	4580.875
2214.44458	4568.975
2217.36388	4551.775
2220.28132	4543.275
2223.1969	4540.075
2226.11061	4531.575
2229.02246	4536.975
2231.93245	4513.275
2234.84058	4486.775
2237.74686	4493.475
2240.65128	4482.675
2243.55385	4477.475
2246.45456	4463.775
2249.35343	4464.775
2252.25044	4456.975
2255.14561	4447.275
2258.03893	4470.675
2260.93041	4480.775
2263.82004	4458.775
2266.70783	4450.375
2269.59378	4432.275
2272.4779	4419.575
2275.36017	4415.875
2278.24061	4409.775
2281.11922	4380.575
2283.996	4358.475
2286.87094	4370.175
2289.74405	4334.675
2292.61534	4345.775
2295.4848	4319.775
2298.35243	4325.275
2301.21824	4301.875
2304.08223	4301.575
2306.94439	4305.875
2309.80474	4299.575
2312.66327	4301.775
2315.51999	4299.675
2318.37489	4294.575
2321.22797	4281.275
2324.07925	4277.775
2326.92871	4291.675
2329.77637	4264.275
2332.62222	4266.275
2335.46626	4261.775
2338.3085	4246.275
2341.14893	4256.575
2343.98756	4268.575
2346.8244	4260.575
2349.65943	4260.575
2352.49267	4270.275
2355.32411	4268.075
2358.15376	4290.775
2360.98161	4294.875
2363.80768	4308.975
2366.63195	4319.975
2369.45444	4308.175
2372.27514	4319.275
2375.09405	4303.775
2377.91118	4292.375
2380.72652	4265.275
2383.54009	4233.275
2386.35187	4236.475
2389.16188	4193.575
2391.97011	4188.675
2394.77657	4174.075
2397.58125	4144.275
2400.38416	4124.975
2403.18529	4143.875
2405.98466	4101.875
2408.78226	4114.175
2411.57809	4106.675
2414.37216	4098.775
2417.16446	4092.775
2419.955	4090.275
2422.74378	4067.675
2425.5308	4072.275
2428.31606	4076.375
2431.09956	4077.475
2433.88131	4065.775
2436.6613	4082.675
2439.43954	4082.475
2442.21603	4057.675
2444.99077	4060.475
2447.76377	4078.575
2450.53501	4078.475
2453.30451	4079.175
2456.07226	4080.575
2458.83827	4073.975
2461.60254	4057.875
2464.36507	4065.375
2467.12586	4066.475
2469.88492	4067.175
2472.64224	4049.975
2475.39782	4073.975
2478.15167	4063.275
2480.90379	4085.575
2483.65417	4100.775
2486.40283	4096.375
2489.14976	4126.675
2491.89497	4117.775
2494.63845	4143.175
2497.3802	4136.275
2500.12024	4116.875
2502.85855	4093.375
2505.59514	4101.775
2508.33002	4064.775
2511.06318	4033.275
2513.79462	4013.275
2516.52435	4000.275
2519.25237	3989.975
2521.97867	3956.675
2524.70327	3954.875
2527.42616	3946.375
2530.14734	3934.975
2532.86681	3920.475
2535.58458	3913.375
2538.30065	3914.275
2541.01501	3922.575
2543.72768	3935.475
2546.43864	3927.875
2549.14791	3926.975
2551.85548	3911.975
2554.56136	3915.575
2557.26554	3901.475
2559.96803	3891.075
2562.66883	3892.375
2565.36794	3893.075
2568.06536	3900.275
2570.7611	3896.175
2573.45514	3879.775
2576.14751	3880.375
2578.83819	3855.075
2581.52719	3860.675
2584.21451	3855.675
2586.90015	3835.575
2589.58411	3837.775
2592.2664	3815.475
2594.94701	3821.975
2597.62594	3816.575
2600.30321	3791.675
2602.9788	3794.475
2605.65273	3798.775
2608.32498	3781.575
2610.99557	3776.475
2613.66449	3771.075
2616.33175	3784.175
2618.99734	3785.275
2621.66128	3774.375
2624.32355	3767.875
2626.98416	3775.575
2629.64311	3751.375
2632.30041	3757.275
2634.95605	3752.175
2637.61004	3738.775
2640.26238	3718.575
2642.91306	3705.775
2645.56209	3720.575
2648.20948	3714.575
2650.85521	3696.775
2653.4993	3711.875
2656.14175	3704.275
2658.78255	3711.875
2661.42171	3713.575
2664.05923	3712.375
2666.6951	3724.675
2669.32934	3719.575
2671.96194	3739.375
2674.59291	3730.575
2677.22224	3727.275
2679.84993	3743.375
2682.476	3731.375
2685.10043	3734.875
2687.72324	3742.975
2690.34441	3744.675
2692.96396	3742.275
2695.58188	3737.675
2698.19818	3736.275
2700.81285	3749.975
2703.4259	3762.975
2706.03733	3825.875
2708.64714	3780.775
2711.25533	3764.575
2713.86191	3761.875
2716.46687	3780.575
2719.07021	3766.175
2721.67194	3760.875
2724.27206	3750.475
2726.87057	3747.975
2729.46747	3759.575
2732.06276	3748.275
2734.65644	3741.975
2737.24852	3730.175
2739.83899	3709.275
2742.42786	3723.975
2745.01513	3699.375
2747.60079	3693.475
2750.18486	3697.975
2752.76733	3701.375
2755.3482	3680.275
2757.92747	3684.975
2760.50515	3667.175
2763.08123	3660.875
2765.65573	3654.075
2768.22863	3654.975
2770.79994	3644.975
2773.36967	3634.175
2775.9378	3632.075
2778.50435	3642.875
2781.06932	3630.375
2783.6327	3615.475
2786.1945	3632.775
2788.75471	3625.875
2791.31335	3642.375
2793.87041	3629.875
2796.42589	3628.575
2798.97979	3627.875
2801.53212	3610.275
2804.08288	3619.375
2806.63206	3615.075
2809.17967	3617.775
2811.72571	3625.275
2814.27018	3621.275
2816.81308	3631.575
2819.35442	3633.775
2821.89419	3631.975
2824.43239	3659.175
2826.96904	3661.575
2829.50412	3671.075
2832.03763	3667.875
2834.56959	3680.875
2837.1	3676.575
2839.62884	3704.475
2842.15613	3729.175
2844.68186	3782.375
2847.20604	3829.875
2849.72867	3888.875
2852.24974	3914.575
2854.76927	3924.275
2857.28724	3947.175
2859.80367	3911.975
2862.31855	3887.475
2864.83189	3891.275
2867.34368	3866.775
2869.85393	3859.375
2872.36264	3858.175
2874.8698	3861.875
2877.37543	3854.275
2879.87952	3853.775
2882.38207	3844.075
2884.88308	3846.375
2887.38256	3836.575
2889.88051	3836.875
2892.37692	3840.675
2894.8718	3819.675
2897.36515	3841.675
2899.85698	3845.775
2902.34727	3850.175
2904.83604	3844.275
2907.32328	3856.975
2909.809	3850.475
2912.29319	3850.475
2914.77587	3852.575
2917.25702	3842.475
2919.73665	3834.475
2922.21476	3840.975
2924.69136	3833.075
2927.16644	3829.075
2929.64	3812.675
2932.11205	3804.075
2934.58258	3774.175
2937.05161	3788.175
2939.51912	3747.175
2941.98513	3716.875
2944.44962	3686.875
2946.91261	3638.675
2949.37409	3623.175
2951.83407	3600.275
2954.29254	3582.375
2956.74951	3554.175
2959.20498	3574.675
2961.65895	3540.475
2964.11142	3540.475
2966.56239	3529.275
2969.01186	3515.675
2971.45984	3490.175
2973.90632	3483.775
2976.35131	3459.475
2978.7948	3461.975
2981.23681	3464.175
2983.67732	3443.475
2986.11635	3440.875
2988.55388	3426.075
2990.98993	3404.075
2993.4245	3398.975
2995.85758	3388.475
2998.28917	3396.775
3000.71928	3380.375
3003.14791	3377.575
3005.57506	3381.875
3008.00073	3364.975
3010.42493	3359.175
3012.84764	3361.675
3015.26888	3354.875
3017.68865	3340.875
3020.10694	3348.575
3022.52376	3347.575
3024.9391	3343.675
3027.35298	3336.775
3029.76539	3345.875
3032.17632	3335.375
3034.5858	3323.475
3036.9938	3313.675
3039.40034	3316.675
3041.80542	3297.275
3044.20903	3301.575
3046.61118	3301.375
3049.01187	3295.075
3051.4111	3286.075
3053.80888	3286.075
3056.20519	3296.475
3058.60005	3302.375
3060.99345	3294.075
3063.3854	3289.975
3065.7759	3273.475
3068.16494	3285.275
3070.55254	3257.275
3072.93868	3273.875
3075.32338	3261.575
3077.70662	3246.375
3080.08842	3240.375
3082.46878	3245.175
3084.84769	3219.175
3087.22515	3226.875
3089.60118	3224.775
3091.97576	3216.875
3094.3489	3217.275
3096.72061	3212.775
3099.09087	3216.675
3101.4597	3227.875
3103.82709	3204.675
3106.19305	3221.775
3108.55757	3214.775
3110.92066	3208.575
3113.28232	3208.275
3115.64255	3184.575
3118.00134	3200.275
3120.35871	3202.875
3122.71466	3198.975
3125.06917	3200.475
3127.42226	3204.275
3129.77393	3219.475
3132.12417	3206.475
3134.47299	3218.975
3136.82039	3232.775
3139.16636	3231.175
3141.51092	3241.975
3143.85406	3242.575
3146.19579	3249.575
3148.53609	3266.475
3150.87499	3264.275
3153.21246	3275.275
3155.54853	3285.375
3157.88318	3273.875
3160.21642	3289.475
3162.54826	3283.675
3164.87868	3302.575
3167.2077	3303.175
3169.5353	3292.875
3171.86151	3314.675
3174.18631	3309.975
3176.5097	3312.975
3178.83169	3325.375
3181.15228	3317.075
3183.47147	3320.275
3185.78926	3321.475
3188.10565	3316.675
3190.42065	3328.375
3192.73424	3328.175
3195.04645	3336.675
3197.35725	3342.575
3199.66667	3353.875
3201.97469	3366.375
3204.28132	3357.275
3206.58656	3378.575
3208.8904	3368.975
3211.19287	3383.475
3213.49394	3378.675
3215.79363	3394.375
