Data from AgNP_FTO_APTES_CRN_20uM_R6G_10uM_NaF_0.1M_Addition_RamanShift__5__17-06-18-009.txt Node

Date: Wed Dec 15 17:06:18 GMT 2021
User: TCL
Spectrometer: QEP01345
Trigger mode: 4
Integration Time (sec): 7.000000E0
Scans to average: 10
Electric dark correction enabled: true
Nonlinearity correction enabled: false
Boxcar width: 0
XAxis mode: Raman Shifts
Number of Pixels in Spectrum: 1044
>>>>>Begin Spectral Data<<<<<
46.04893	0.3625
50.45542	-2.0375
54.85868	-1.5375
59.25871	-0.9375
63.6555	67.4625
68.04907	73.7625
72.43941	75.6625
76.82654	79.8625
81.21044	84.3625
85.59113	86.5625
89.96862	89.6625
94.34289	90.9625
98.71396	97.2625
103.08183	98.9625
107.4465	101.6625
111.80798	101.0625
116.16626	104.0625
120.52136	108.8625
124.87327	111.8625
129.222	117.6625
133.56755	120.7625
137.90993	127.9625
142.24913	141.2625
146.58517	150.3625
150.91804	177.4625
155.24774	205.4625
159.57429	256.8625
163.89768	321.3625
168.21792	413.7625
172.53501	563.3625
176.84895	772.3625
181.15975	1097.5625
185.46741	1526.1625
189.77193	2103.8625
194.07331	2800.0625
198.37157	3608.0625
202.6667	4466.6625
206.9587	5296.5625
211.24758	6133.4625
215.53334	6972.1625
219.81599	7858.7625
224.09553	8815.5625
228.37195	9866.5625
232.64527	11062.8625
236.91549	12270.1625
241.18261	13527.1625
245.44663	14715.0625
249.70755	15779.5625
253.96539	16662.9625
258.22014	17469.6625
262.4718	18094.6625
266.72039	18521.3625
270.96589	18767.3625
275.20832	18758.9625
279.44768	18614.2625
283.68397	18437.7625
287.91719	18264.9625
292.14735	18160.3625
296.37445	18146.7625
300.59849	18151.8625
304.81948	18275.8625
309.03742	18291.9625
313.25231	18217.9625
317.46415	17993.9625
321.67296	17669.2625
325.87872	17325.1625
330.08145	17135.3625
334.28114	17133.8625
338.47781	17215.9625
342.67145	17440.4625
346.86207	17730.9625
351.04966	18071.9625
355.23424	18400.9625
359.4158	18653.5625
363.59435	18837.8625
367.76989	18957.5625
371.94243	19014.1625
376.11196	19091.7625
380.27849	19173.5625
384.44203	19246.9625
388.60257	19362.6625
392.76012	19584.1625
396.91468	19795.8625
401.06626	20061.4625
405.21485	20312.0625
409.36047	20272.1625
413.50311	20128.0625
417.64277	20031.3625
421.77947	20065.0625
425.9132	20206.6625
430.04396	20291.1625
434.17176	20413.0625
438.2966	20502.6625
442.41849	20743.6625
446.53742	21276.6625
450.6534	21875.6625
454.76644	22286.8625
458.87653	22397.9625
462.98368	22207.8625
467.08789	21846.6625
471.18916	21438.8625
475.2875	21056.4625
479.38291	20784.2625
483.4754	20578.6625
487.56496	20361.3625
491.6516	20158.3625
495.73531	20003.8625
499.81612	20012.5625
503.89401	20179.8625
507.96899	20319.8625
512.04106	20320.1625
516.11023	20276.5625
520.1765	20120.5625
524.23987	19997.1625
528.30034	19905.2625
532.35792	19708.8625
536.41261	19435.3625
540.46441	19186.3625
544.51333	19163.0625
548.55936	19308.9625
552.60252	19686.2625
556.64279	20155.3625
560.6802	20489.9625
564.71473	20580.9625
568.7464	20707.2625
572.7752	21135.9625
576.80114	21665.6625
580.82422	22361.5625
584.84444	23248.4625
588.86181	24324.8625
592.87633	25062.3625
596.888	24949.2625
600.89682	23964.0625
604.9028	23633.6625
608.90594	24776.7625
612.90624	26136.6625
616.90371	24754.3625
620.89834	21404.2625
624.89015	19877.3625
628.87913	19660.5625
632.86528	19670.0625
636.84862	19614.1625
640.82913	19324.6625
644.80683	18922.4625
648.78172	18660.1625
652.75379	18702.3625
656.72306	18896.1625
660.68952	19107.7625
664.65319	18986.2625
668.61405	18706.1625
672.57211	18684.6625
676.52738	18722.4625
680.47986	18703.0625
684.42955	18603.7625
688.37646	18539.7625
692.32058	18676.8625
696.26192	18876.0625
700.20048	19196.1625
704.13626	19364.4625
708.06928	19347.4625
711.99952	19264.0625
715.927	19260.9625
719.85171	19347.4625
723.77365	19266.7625
727.69284	18997.1625
731.60928	18727.6625
735.52295	18650.0625
739.43388	18680.8625
743.34206	18708.8625
747.24749	18800.7625
751.15017	18984.1625
755.05012	19255.2625
758.94733	19771.8625
762.8418	20627.4625
766.73354	21877.8625
770.62254	23062.1625
774.50882	23223.8625
778.39237	22257.2625
782.27321	20950.0625
786.15132	19852.3625
790.02671	19190.0625
793.89938	18838.0625
797.76935	18724.6625
801.6366	18727.9625
805.50115	18677.7625
809.36299	18586.0625
813.22213	18423.5625
817.07857	18309.5625
820.93231	18236.8625
824.78336	18166.7625
828.63172	18163.9625
832.47738	18131.4625
836.32036	18166.3625
840.16066	18284.8625
843.99827	18308.1625
847.8332	18273.0625
851.66546	18193.6625
855.49504	18152.9625
859.32195	18145.4625
863.1462	18099.7625
866.96777	18064.0625
870.78668	18011.3625
874.60293	18046.5625
878.41652	18030.5625
882.22745	18121.9625
886.03573	18153.5625
889.84136	18184.1625
893.64433	18094.3625
897.44466	18023.0625
901.24235	17932.3625
905.0374	17865.6625
908.8298	17863.2625
912.61957	17899.7625
916.40671	18038.2625
920.19121	18282.7625
923.97308	18418.9625
927.75233	18509.4625
931.52895	18460.5625
935.30295	18194.6625
939.07433	17899.4625
942.84309	17688.9625
946.60924	17609.6625
950.37278	17585.7625
954.13371	17521.6625
957.89203	17492.8625
961.64774	17464.3625
965.40086	17440.5625
969.15137	17424.6625
972.89929	17361.0625
976.64461	17323.0625
980.38733	17361.6625
984.12747	17440.6625
987.86502	17509.8625
991.59999	17691.0625
995.33237	17910.7625
999.06217	18361.5625
1002.78939	18812.8625
1006.51404	19174.7625
1010.23611	19504.3625
1013.95561	19702.7625
1017.67255	19764.1625
1021.38692	19521.3625
1025.09872	19234.8625
1028.80796	19180.0625
1032.51465	19426.7625
1036.21877	19836.4625
1039.92035	19985.7625
1043.61937	19879.7625
1047.31584	19595.5625
1051.00976	19301.3625
1054.70114	19159.3625
1058.38998	19246.6625
1062.07627	19480.9625
1065.76003	19809.0625
1069.44126	20256.3625
1073.11995	20716.7625
1076.79611	21076.6625
1080.46974	21112.7625
1084.14085	20971.2625
1087.80943	20851.4625
1091.47549	20727.5625
1095.13903	20596.3625
1098.80005	20261.5625
1102.45857	19791.1625
1106.11456	19450.7625
1109.76805	19313.2625
1113.41903	19313.0625
1117.06751	19368.8625
1120.71348	19507.2625
1124.35696	19709.6625
1127.99793	19939.3625
1131.63641	20026.0625
1135.2724	19959.3625
1138.90589	19901.5625
1142.5369	19878.2625
1146.16542	19950.5625
1149.79145	20059.6625
1153.415	20193.4625
1157.03607	20433.1625
1160.65467	20969.0625
1164.27079	21872.3625
1167.88443	23025.5625
1171.49561	24290.9625
1175.10432	25880.5625
1178.71056	27856.1625
1182.31434	29800.3625
1185.91565	30710.5625
1189.51451	30344.8625
1193.11091	29419.6625
1196.70485	28241.9625
1200.29634	27136.8625
1203.88538	26367.9625
1207.47197	25991.8625
1211.05612	25628.2625
1214.63782	25194.7625
1218.21708	24711.2625
1221.79391	24197.2625
1225.36829	23881.8625
1228.94024	23589.4625
1232.50976	23231.2625
1236.07685	22822.2625
1239.6415	22566.9625
1243.20374	22564.9625
1246.76355	22705.5625
1250.32093	23128.8625
1253.8759	23579.4625
1257.42845	24221.8625
1260.97859	24883.3625
1264.52631	25587.6625
1268.07163	26332.7625
1271.61453	27074.2625
1275.15503	27870.1625
1278.69312	28619.8625
1282.22882	29248.5625
1285.76211	29994.4625
1289.29301	30915.1625
1292.82151	32134.3625
1296.34761	33694.0625
1299.87133	35656.6625
1303.39266	37857.9625
1306.9116	40034.1625
1310.42815	41805.2625
1313.94233	42776.2625
1317.45412	42482.0625
1320.96354	41446.1625
1324.47058	40459.0625
1327.97525	39744.2625
1331.47754	39284.0625
1334.97747	38923.8625
1338.47502	38598.5625
1341.97022	38120.9625
1345.46305	37541.8625
1348.95352	37086.4625
1352.44163	37304.7625
1355.92738	38312.9625
1359.41078	40068.5625
1362.89183	41406.9625
1366.37053	40725.1625
1369.84688	37721.6625
1373.32088	33844.8625
1376.79254	31034.5625
1380.26186	29949.4625
1383.72883	29862.2625
1387.19347	29803.1625
1390.65578	29408.3625
1394.11575	29201.0625
1397.57339	29469.8625
1401.0287	29966.7625
1404.48168	30378.7625
1407.93234	30497.2625
1411.38068	30105.0625
1414.82669	29342.6625
1418.27039	28319.2625
1421.71177	27158.8625
1425.15083	26192.8625
1428.58758	25749.8625
1432.02203	25980.3625
1435.45416	26716.5625
1438.88399	27533.5625
1442.31151	28198.2625
1445.73673	28508.6625
1449.15965	28637.2625
1452.58027	28575.1625
1455.9986	28452.6625
1459.41463	28484.7625
1462.82837	28934.3625
1466.23982	29612.0625
1469.64898	30147.6625
1473.05586	30558.6625
1476.46045	30733.8625
1479.86276	30569.0625
1483.26279	30255.6625
1486.66054	30136.1625
1490.05602	30207.5625
1493.44922	30487.4625
1496.84016	30688.9625
1500.22882	31062.7625
1503.61521	31654.1625
1506.99934	32488.0625
1510.38121	33062.0625
1513.76081	33104.4625
1517.13816	32400.9625
1520.51324	31319.3625
1523.88607	30505.9625
1527.25665	30135.3625
1530.62498	30178.0625
1533.99105	30196.1625
1537.35488	30065.1625
1540.71647	29616.6625
1544.07581	28931.4625
1547.4329	28235.0625
1550.78776	27563.6625
1554.14038	27074.6625
1557.49077	26728.7625
1560.83892	26559.8625
1564.18484	26574.6625
1567.52853	26733.6625
1570.86999	27209.6625
1574.20922	27862.6625
1577.54624	28651.0625
1580.88103	29115.1625
1584.2136	29454.0625
1587.54395	29983.3625
1590.87208	31006.9625
1594.19801	32653.2625
1597.52172	34479.8625
1600.84321	35084.8625
1604.16251	33733.4625
1607.47959	31079.6625
1610.79447	28189.6625
1614.10715	25671.5625
1617.41763	23638.6625
1620.7259	22387.3625
1624.03199	21752.9625
1627.33587	21761.5625
1630.63757	22404.5625
1633.93707	23728.5625
1637.23439	25983.3625
1640.52951	29281.7625
1643.82246	33159.9625
1647.11321	36221.2625
1650.40179	36548.5625
1653.68819	33786.8625
1656.97241	29292.5625
1660.25446	25209.8625
1663.53433	22195.7625
1666.81203	20269.3625
1670.08756	19084.1625
1673.36092	18327.5625
1676.63211	17828.5625
1679.90115	17473.0625
1683.16801	17222.5625
1686.43272	17004.0625
1689.69527	16892.6625
1692.95567	16802.1625
1696.2139	16744.0625
1699.46999	16700.4625
1702.72392	16634.7625
1705.97571	16633.7625
1709.22535	16565.6625
1712.47284	16525.0625
1715.71819	16500.9625
1718.96139	16474.3625
1722.20246	16455.9625
1725.44139	16346.5625
1728.67818	16277.2625
1731.91284	16175.0625
1735.14537	16102.7625
1738.37576	16002.5625
1741.60403	15985.2625
1744.83017	15925.2625
1748.05418	15923.1625
1751.27607	15893.8625
1754.49584	15846.5625
1757.71349	15847.2625
1760.92903	15853.3625
1764.14244	15849.7625
1767.35375	15828.2625
1770.56294	15815.3625
1773.77002	15796.9625
1776.97499	15781.8625
1780.17785	15735.2625
1783.37861	15706.8625
1786.57727	15672.6625
1789.77382	15627.3625
1792.96828	15579.2625
1796.16064	15565.7625
1799.3509	15533.3625
1802.53907	15516.3625
1805.72514	15449.8625
1808.90913	15453.7625
1812.09102	15419.2625
1815.27083	15388.7625
1818.44856	15384.0625
1821.6242	15324.7625
1824.79776	15327.1625
1827.96924	15369.2625
1831.13864	15340.3625
1834.30597	15353.6625
1837.47122	15370.5625
1840.6344	15334.8625
1843.7955	15365.6625
1846.95454	15366.2625
1850.11151	15308.0625
1853.26642	15340.0625
1856.41926	15287.8625
1859.57004	15289.9625
1862.71876	15299.9625
1865.86542	15286.6625
1869.01003	15261.1625
1872.15258	15267.0625
1875.29308	15204.0625
1878.43152	15195.7625
1881.56792	15174.1625
1884.70227	15145.1625
1887.83457	15167.0625
1890.96482	15129.7625
1894.09304	15106.7625
1897.21921	15116.9625
1900.34335	15100.3625
1903.46544	15079.3625
1906.58551	15072.6625
1909.70353	15044.2625
1912.81953	15006.3625
1915.93349	14996.5625
1919.04543	14967.4625
1922.15534	14931.2625
1925.26322	14912.6625
1928.36908	14865.2625
1931.47292	14859.6625
1934.57473	14814.8625
1937.67453	14812.8625
1940.77232	14749.2625
1943.86808	14721.8625
1946.96184	14691.7625
1950.05358	14637.5625
1953.14331	14627.4625
1956.23103	14571.7625
1959.31675	14560.8625
1962.40046	14503.9625
1965.48217	14484.6625
1968.56188	14425.8625
1971.63959	14386.4625
1974.7153	14350.6625
1977.78901	14314.4625
1980.86073	14262.4625
1983.93046	14242.3625
1986.99819	14188.5625
1990.06394	14153.0625
1993.1277	14110.7625
1996.18947	14082.0625
1999.24925	14044.7625
2002.30706	13990.3625
2005.36288	13958.8625
2008.41672	13959.7625
2011.46859	13870.7625
2014.51848	13868.5625
2017.56639	13821.9625
2020.61233	13800.7625
2023.6563	13768.9625
2026.6983	13747.9625
2029.73833	13737.2625
2032.7764	13728.8625
2035.8125	13692.3625
2038.84664	13628.5625
2041.87881	13644.0625
2044.90903	13602.1625
2047.93729	13578.4625
2050.96359	13582.1625
2053.98794	13583.0625
2057.01034	13543.1625
2060.03078	13542.9625
2063.04927	13542.9625
2066.06582	13545.4625
2069.08042	13527.5625
2072.09307	13513.6625
2075.10378	13460.9625
2078.11255	13473.9625
2081.11938	13476.3625
2084.12426	13470.6625
2087.12722	13473.3625
2090.12824	13473.4625
2093.12732	13486.7625
2096.12447	13497.1625
2099.11969	13519.8625
2102.11299	13497.3625
2105.10435	13491.6625
2108.09379	13539.0625
2111.08131	13529.7625
2114.0669	13533.6625
2117.05057	13547.8625
2120.03233	13563.6625
2123.01216	13551.7625
2125.99008	13556.9625
2128.96609	13562.9625
2131.94018	13602.0625
2134.91236	13618.1625
2137.88263	13624.6625
2140.851	13608.3625
2143.81746	13644.3625
2146.78201	13642.8625
2149.74466	13663.0625
2152.7054	13649.8625
2155.66425	13657.0625
2158.6212	13676.6625
2161.57625	13651.9625
2164.52941	13660.1625
2167.48067	13634.9625
2170.43004	13642.4625
2173.37752	13641.7625
2176.32311	13620.9625
2179.26681	13638.8625
2182.20863	13638.8625
2185.14856	13633.9625
2188.08661	13636.5625
2191.02278	13667.4625
2193.95707	13635.1625
2196.88948	13619.0625
2199.82001	13633.9625
2202.74867	13601.1625
2205.67545	13590.5625
2208.60037	13615.1625
2211.52341	13584.5625
2214.44458	13566.5625
2217.36388	13557.7625
2220.28132	13541.0625
2223.1969	13485.8625
2226.11061	13539.1625
2229.02246	13509.9625
2231.93245	13474.3625
2234.84058	13448.6625
2237.74686	13430.1625
2240.65128	13447.0625
2243.55385	13387.6625
2246.45456	13387.1625
2249.35343	13361.7625
2252.25044	13313.4625
2255.14561	13315.7625
2258.03893	13268.7625
2260.93041	13288.4625
2263.82004	13256.3625
2266.70783	13224.9625
2269.59378	13198.1625
2272.4779	13159.4625
2275.36017	13166.7625
2278.24061	13113.7625
2281.11922	13091.3625
2283.996	13058.1625
2286.87094	13050.7625
2289.74405	13047.9625
2292.61534	13036.4625
2295.4848	13034.0625
2298.35243	13047.3625
2301.21824	13032.1625
2304.08223	13043.3625
2306.94439	13049.3625
2309.80474	13023.2625
2312.66327	13043.3625
2315.51999	13036.5625
2318.37489	13010.9625
2321.22797	13012.9625
2324.07925	12963.4625
2326.92871	12989.1625
2329.77637	12970.0625
2332.62222	12983.2625
2335.46626	12949.2625
2338.3085	12952.0625
2341.14893	12976.8625
2343.98756	12954.3625
2346.8244	12928.7625
2349.65943	12942.9625
2352.49267	12902.4625
2355.32411	12940.8625
2358.15376	12920.0625
2360.98161	12901.8625
2363.80768	12918.5625
2366.63195	12907.5625
2369.45444	12886.7625
2372.27514	12862.7625
2375.09405	12852.2625
2377.91118	12824.4625
2380.72652	12776.8625
2383.54009	12751.6625
2386.35187	12745.0625
2389.16188	12759.1625
2391.97011	12726.6625
2394.77657	12731.3625
2397.58125	12720.9625
2400.38416	12701.3625
2403.18529	12668.6625
2405.98466	12632.2625
2408.78226	12659.9625
2411.57809	12647.2625
2414.37216	12609.7625
2417.16446	12610.5625
2419.955	12588.3625
2422.74378	12564.9625
2425.5308	12543.3625
2428.31606	12521.6625
2431.09956	12528.4625
2433.88131	12524.5625
2436.6613	12495.8625
2439.43954	12506.4625
2442.21603	12507.5625
2444.99077	12485.4625
2447.76377	12499.9625
2450.53501	12495.3625
2453.30451	12511.0625
2456.07226	12472.3625
2458.83827	12465.5625
2461.60254	12462.1625
2464.36507	12463.4625
2467.12586	12467.5625
2469.88492	12469.8625
2472.64224	12465.1625
2475.39782	12486.7625
2478.15167	12503.3625
2480.90379	12489.3625
2483.65417	12479.1625
2486.40283	12518.7625
2489.14976	12501.6625
2491.89497	12509.8625
2494.63845	12512.4625
2497.3802	12507.6625
2500.12024	12505.3625
2502.85855	12478.9625
2505.59514	12491.7625
2508.33002	12449.9625
2511.06318	12477.7625
2513.79462	12455.6625
2516.52435	12450.5625
2519.25237	12451.4625
2521.97867	12399.4625
2524.70327	12428.2625
2527.42616	12405.6625
2530.14734	12399.9625
2532.86681	12390.5625
2535.58458	12377.1625
2538.30065	12369.1625
2541.01501	12376.1625
2543.72768	12346.4625
2546.43864	12369.8625
2549.14791	12341.5625
2551.85548	12328.7625
2554.56136	12323.4625
2557.26554	12314.8625
2559.96803	12336.1625
2562.66883	12294.1625
2565.36794	12313.1625
2568.06536	12319.1625
2570.7611	12313.8625
2573.45514	12315.4625
2576.14751	12272.3625
2578.83819	12249.3625
2581.52719	12263.3625
2584.21451	12242.5625
2586.90015	12253.2625
2589.58411	12256.3625
2592.2664	12216.1625
2594.94701	12190.6625
2597.62594	12193.7625
2600.30321	12181.7625
2602.9788	12177.0625
2605.65273	12136.5625
2608.32498	12165.0625
2610.99557	12157.7625
2613.66449	12154.8625
2616.33175	12168.4625
2618.99734	12159.6625
2621.66128	12125.6625
2624.32355	12133.0625
2626.98416	12128.4625
2629.64311	12135.3625
2632.30041	12128.3625
2634.95605	12127.0625
2637.61004	12095.2625
2640.26238	12078.4625
2642.91306	12077.5625
2645.56209	12097.0625
2648.20948	12079.8625
2650.85521	12074.6625
2653.4993	12081.1625
2656.14175	12084.2625
2658.78255	12102.3625
2661.42171	12090.7625
2664.05923	12103.0625
2666.6951	12094.9625
2669.32934	12103.5625
2671.96194	12099.9625
2674.59291	12085.4625
2677.22224	12100.8625
2679.84993	12119.0625
2682.476	12103.4625
2685.10043	12105.6625
2687.72324	12110.8625
2690.34441	12103.6625
2692.96396	12106.3625
2695.58188	12104.2625
2698.19818	12095.5625
2700.81285	12138.1625
2703.4259	12120.6625
2706.03733	12174.3625
2708.64714	12164.6625
2711.25533	12177.3625
2713.86191	12184.1625
2716.46687	12180.3625
2719.07021	12149.0625
2721.67194	12188.2625
2724.27206	12169.1625
2726.87057	12153.7625
2729.46747	12141.7625
2732.06276	12194.9625
2734.65644	12175.0625
2737.24852	12205.2625
2739.83899	12186.0625
2742.42786	12176.7625
2745.01513	12160.6625
2747.60079	12133.3625
2750.18486	12121.6625
2752.76733	12148.2625
2755.3482	12151.3625
2757.92747	12125.1625
2760.50515	12141.0625
2763.08123	12150.6625
2765.65573	12108.3625
2768.22863	12116.9625
2770.79994	12101.6625
2773.36967	12127.4625
2775.9378	12106.7625
2778.50435	12086.6625
2781.06932	12085.3625
2783.6327	12080.0625
2786.1945	12072.4625
2788.75471	12078.6625
2791.31335	12058.7625
2793.87041	12013.6625
2796.42589	12014.3625
2798.97979	11991.5625
2801.53212	12001.8625
2804.08288	11977.3625
2806.63206	11939.7625
2809.17967	11914.3625
2811.72571	11899.9625
2814.27018	11880.6625
2816.81308	11883.2625
2819.35442	11842.2625
2821.89419	11848.5625
2824.43239	11825.4625
2826.96904	11851.1625
2829.50412	11830.1625
2832.03763	11801.2625
2834.56959	11808.9625
2837.1	11789.0625
2839.62884	11799.0625
2842.15613	11792.5625
2844.68186	11791.7625
2847.20604	11752.3625
2849.72867	11751.1625
2852.24974	11770.0625
2854.76927	11784.5625
2857.28724	11769.2625
2859.80367	11796.5625
2862.31855	11737.4625
2864.83189	11751.8625
2867.34368	11733.2625
2869.85393	11720.0625
2872.36264	11740.1625
2874.8698	11695.5625
2877.37543	11723.9625
2879.87952	11730.8625
2882.38207	11735.5625
2884.88308	11745.0625
2887.38256	11769.9625
2889.88051	11731.4625
2892.37692	11762.1625
2894.8718	11739.4625
2897.36515	11772.3625
2899.85698	11773.6625
2902.34727	11798.2625
2904.83604	11763.9625
2907.32328	11823.7625
2909.809	11807.0625
2912.29319	11823.7625
2914.77587	11808.3625
2917.25702	11803.9625
2919.73665	11785.0625
2922.21476	11810.6625
2924.69136	11797.6625
2927.16644	11831.3625
2929.64	11799.9625
2932.11205	11778.9625
2934.58258	11742.7625
2937.05161	11775.0625
2939.51912	11783.1625
2941.98513	11774.5625
2944.44962	11728.1625
2946.91261	11728.9625
2949.37409	11742.5625
2951.83407	11720.8625
2954.29254	11731.4625
2956.74951	11709.2625
2959.20498	11695.9625
2961.65895	11674.8625
2964.11142	11720.9625
2966.56239	11661.8625
2969.01186	11644.7625
2971.45984	11605.2625
2973.90632	11614.5625
2976.35131	11564.7625
2978.7948	11569.9625
2981.23681	11554.1625
2983.67732	11540.4625
2986.11635	11531.4625
2988.55388	11496.0625
2990.98993	11438.7625
2993.4245	11455.6625
2995.85758	11431.5625
2998.28917	11406.5625
3000.71928	11397.7625
3003.14791	11346.4625
3005.57506	11355.7625
3008.00073	11354.3625
3010.42493	11348.4625
3012.84764	11330.2625
3015.26888	11291.4625
3017.68865	11289.4625
3020.10694	11262.1625
3022.52376	11242.9625
3024.9391	11245.2625
