Data from AgNP_FTO_APTES_CRN_200uM_R6G_10uM_NaF_0.1M_Addition_RamanShift__22__19-42-38-186.txt Node

Date: Wed Dec 15 19:42:38 GMT 2021
User: TCL
Spectrometer: QEP01345
Trigger mode: 4
Integration Time (sec): 7.000000E0
Scans to average: 10
Electric dark correction enabled: true
Nonlinearity correction enabled: false
Boxcar width: 0
XAxis mode: Raman Shifts
Number of Pixels in Spectrum: 1044
>>>>>Begin Spectral Data<<<<<
46.04893	0.825
50.45542	-1.575
54.85868	-0.575
59.25871	-0.075
63.6555	59.825
68.04907	67.225
72.43941	70.125
76.82654	73.525
81.21044	77.625
85.59113	77.025
89.96862	81.925
94.34289	79.125
98.71396	85.725
103.08183	93.925
107.4465	90.625
111.80798	95.625
116.16626	95.825
120.52136	103.725
124.87327	101.425
129.222	106.925
133.56755	110.125
137.90993	120.025
142.24913	129.625
146.58517	141.525
150.91804	165.025
155.24774	193.125
159.57429	232.925
163.89768	302.925
168.21792	391.525
172.53501	531.925
176.84895	736.425
181.15975	1034.225
185.46741	1435.525
189.77193	1991.225
194.07331	2658.325
198.37157	3421.225
202.6667	4224.525
206.9587	5032.425
211.24758	5805.425
215.53334	6600.325
219.81599	7409.925
224.09553	8324.625
228.37195	9291.025
232.64527	10370.425
236.91549	11547.525
241.18261	12729.725
245.44663	13845.725
249.70755	14868.025
253.96539	15792.425
258.22014	16530.125
262.4718	17175.125
266.72039	17598.325
270.96589	17878.825
275.20832	17910.325
279.44768	17820.725
283.68397	17624.925
287.91719	17493.325
292.14735	17401.125
296.37445	17335.225
300.59849	17371.025
304.81948	17337.525
309.03742	17255.025
313.25231	17077.725
317.46415	16779.525
321.67296	16439.225
325.87872	16170.025
330.08145	16018.525
334.28114	16033.025
338.47781	16160.425
342.67145	16335.625
346.86207	16603.625
351.04966	16856.425
355.23424	17183.525
359.4158	17463.625
363.59435	17654.625
367.76989	17794.625
371.94243	17924.925
376.11196	18028.825
380.27849	18170.425
384.44203	18313.525
388.60257	18429.225
392.76012	18582.625
396.91468	18730.225
401.06626	18976.425
405.21485	19148.725
409.36047	19098.725
413.50311	18931.025
417.64277	18736.625
421.77947	18636.325
425.9132	18709.225
430.04396	18868.125
434.17176	19016.725
438.2966	19270.125
442.41849	19642.225
446.53742	20105.025
450.6534	20632.925
454.76644	21061.825
458.87653	21146.725
462.98368	21039.425
467.08789	20823.025
471.18916	20684.825
475.2875	20553.725
479.38291	20547.325
483.4754	20383.625
487.56496	20180.125
491.6516	19841.025
495.73531	19605.125
499.81612	19477.325
503.89401	19527.725
507.96899	19523.825
512.04106	19556.025
516.11023	19577.325
520.1765	19617.725
524.23987	19593.925
528.30034	19560.925
532.35792	19489.225
536.41261	19309.625
540.46441	19123.625
544.51333	19100.125
548.55936	19278.125
552.60252	19590.525
556.64279	19960.325
560.6802	20226.725
564.71473	20334.525
568.7464	20476.425
572.7752	20728.525
576.80114	20834.225
580.82422	20886.725
584.84444	21066.125
588.86181	21395.325
592.87633	21976.525
596.888	22356.725
600.89682	22348.925
604.9028	22531.725
608.90594	23619.725
612.90624	24953.125
616.90371	23826.325
620.89834	20953.625
624.89015	19649.125
628.87913	19500.925
632.86528	19604.125
636.84862	19669.325
640.82913	19496.425
644.80683	19196.625
648.78172	18903.125
652.75379	18862.925
656.72306	18942.925
660.68952	19149.625
664.65319	19131.825
668.61405	18913.625
672.57211	18836.325
676.52738	18888.325
680.47986	18955.325
684.42955	18902.325
688.37646	18821.525
692.32058	18864.925
696.26192	18959.125
700.20048	19124.425
704.13626	19210.625
708.06928	19198.825
711.99952	19110.225
715.927	19049.225
719.85171	19067.025
723.77365	19021.925
727.69284	18902.925
731.60928	18782.325
735.52295	18792.125
739.43388	18760.125
743.34206	18798.425
747.24749	18849.525
751.15017	18903.725
755.05012	19074.625
758.94733	19491.925
762.8418	20163.925
766.73354	21199.025
770.62254	22294.025
774.50882	22622.425
778.39237	21893.725
782.27321	20565.425
786.15132	19492.925
790.02671	18876.325
793.89938	18601.025
797.76935	18513.025
801.6366	18513.525
805.50115	18465.525
809.36299	18429.125
813.22213	18368.525
817.07857	18365.025
820.93231	18360.425
824.78336	18318.525
828.63172	18281.625
832.47738	18298.725
836.32036	18328.325
840.16066	18339.225
843.99827	18318.625
847.8332	18298.325
851.66546	18217.525
855.49504	18231.025
859.32195	18207.325
863.1462	18217.425
866.96777	18166.225
870.78668	18138.825
874.60293	18154.425
878.41652	18153.425
882.22745	18183.225
886.03573	18211.925
889.84136	18216.525
893.64433	18159.225
897.44466	18116.325
901.24235	18056.625
905.0374	18001.625
908.8298	17961.125
912.61957	18016.225
916.40671	18091.025
920.19121	18239.825
923.97308	18318.225
927.75233	18374.125
931.52895	18313.125
935.30295	18168.025
939.07433	17988.225
942.84309	17773.925
946.60924	17654.925
950.37278	17571.125
954.13371	17595.325
957.89203	17552.325
961.64774	17510.125
965.40086	17466.925
969.15137	17426.825
972.89929	17336.325
976.64461	17297.725
980.38733	17269.225
984.12747	17304.025
987.86502	17419.625
991.59999	17535.025
995.33237	17714.225
999.06217	17988.725
1002.78939	18321.625
1006.51404	18528.525
1010.23611	18657.425
1013.95561	18808.425
1017.67255	18793.225
1021.38692	18686.525
1025.09872	18490.625
1028.80796	18439.925
1032.51465	18565.125
1036.21877	18742.125
1039.92035	18787.825
1043.61937	18806.425
1047.31584	18643.325
1051.00976	18552.925
1054.70114	18515.725
1058.38998	18615.625
1062.07627	18822.125
1065.76003	19115.025
1069.44126	19440.425
1073.11995	19822.725
1076.79611	20147.625
1080.46974	20152.425
1084.14085	19927.225
1087.80943	19721.725
1091.47549	19548.825
1095.13903	19381.125
1098.80005	19150.725
1102.45857	18839.325
1106.11456	18670.525
1109.76805	18583.225
1113.41903	18668.325
1117.06751	18821.725
1120.71348	18958.425
1124.35696	19150.425
1127.99793	19345.325
1131.63641	19472.225
1135.2724	19337.825
1138.90589	19153.025
1142.5369	19062.725
1146.16542	19035.125
1149.79145	19067.925
1153.415	19195.225
1157.03607	19377.525
1160.65467	19678.425
1164.27079	20204.625
1167.88443	21041.925
1171.49561	22059.825
1175.10432	23447.225
1178.71056	25079.025
1182.31434	26470.725
1185.91565	27034.125
1189.51451	26747.925
1193.11091	25983.425
1196.70485	25139.725
1200.29634	24272.125
1203.88538	23619.225
1207.47197	23183.525
1211.05612	22801.925
1214.63782	22522.925
1218.21708	22301.625
1221.79391	22120.225
1225.36829	21996.225
1228.94024	21775.325
1232.50976	21456.025
1236.07685	21228.725
1239.6415	21195.725
1243.20374	21220.725
1246.76355	21336.225
1250.32093	21527.725
1253.8759	21829.525
1257.42845	22251.325
1260.97859	22645.125
1264.52631	22973.125
1268.07163	23392.625
1271.61453	23879.725
1275.15503	24297.425
1278.69312	24837.525
1282.22882	25286.925
1285.76211	25801.725
1289.29301	26508.925
1292.82151	27468.725
1296.34761	28585.125
1299.87133	29923.125
1303.39266	31298.225
1306.9116	32862.525
1310.42815	34483.525
1313.94233	35528.125
1317.45412	35732.925
1320.96354	35321.925
1324.47058	34595.625
1327.97525	33910.925
1331.47754	33322.925
1334.97747	33096.425
1338.47502	33053.225
1341.97022	32969.525
1345.46305	32631.725
1348.95352	32118.025
1352.44163	32051.925
1355.92738	32560.925
1359.41078	33812.725
1362.89183	35088.725
1366.37053	34709.825
1369.84688	32382.025
1373.32088	29505.425
1376.79254	27425.125
1380.26186	26602.925
1383.72883	26456.725
1387.19347	26489.525
1390.65578	26406.925
1394.11575	26483.725
1397.57339	26843.025
1401.0287	27426.925
1404.48168	27927.925
1407.93234	28101.825
1411.38068	27849.825
1414.82669	27121.025
1418.27039	26099.125
1421.71177	25054.625
1425.15083	24074.125
1428.58758	23596.825
1432.02203	23571.225
1435.45416	23911.625
1438.88399	24425.025
1442.31151	24853.625
1445.73673	25226.325
1449.15965	25593.725
1452.58027	25911.525
1455.9986	26102.225
1459.41463	26239.525
1462.82837	26556.825
1466.23982	27010.825
1469.64898	27356.925
1473.05586	27528.125
1476.46045	27508.025
1479.86276	27402.225
1483.26279	27121.325
1486.66054	26982.425
1490.05602	26928.925
1493.44922	26991.625
1496.84016	26952.125
1500.22882	27131.625
1503.61521	27626.925
1506.99934	28375.425
1510.38121	29098.525
1513.76081	29388.025
1517.13816	28876.225
1520.51324	27878.925
1523.88607	26960.025
1527.25665	26443.025
1530.62498	26218.625
1533.99105	26207.925
1537.35488	26141.725
1540.71647	26028.725
1544.07581	25759.825
1547.4329	25363.425
1550.78776	25056.725
1554.14038	24768.125
1557.49077	24648.325
1560.83892	24630.725
1564.18484	24682.425
1567.52853	24942.825
1570.86999	25253.925
1574.20922	25885.325
1577.54624	26568.425
1580.88103	26918.925
1584.2136	26998.825
1587.54395	27096.025
1590.87208	27455.725
1594.19801	28364.425
1597.52172	29465.425
1600.84321	29943.825
1604.16251	29120.125
1607.47959	27368.125
1610.79447	25346.725
1614.10715	23436.325
1617.41763	21955.525
1620.7259	20998.825
1624.03199	20517.225
1627.33587	20434.625
1630.63757	20855.325
1633.93707	21777.325
1637.23439	23274.325
1640.52951	25357.025
1643.82246	27841.725
1647.11321	29895.125
1650.40179	30412.525
1653.68819	28931.525
1656.97241	26057.425
1660.25446	23049.125
1663.53433	20807.425
1666.81203	19328.525
1670.08756	18334.125
1673.36092	17745.325
1676.63211	17333.625
1679.90115	17051.825
1683.16801	16817.325
1686.43272	16676.825
1689.69527	16592.725
1692.95567	16484.825
1696.2139	16444.625
1699.46999	16413.125
1702.72392	16372.025
1705.97571	16290.525
1709.22535	16272.125
1712.47284	16219.825
1715.71819	16218.325
1718.96139	16160.925
1722.20246	16130.025
1725.44139	16079.025
1728.67818	15997.425
1731.91284	15920.425
1735.14537	15864.925
1738.37576	15784.725
1741.60403	15775.725
1744.83017	15767.525
1748.05418	15740.125
1751.27607	15730.325
1754.49584	15714.125
1757.71349	15703.625
1760.92903	15696.125
1764.14244	15671.525
1767.35375	15645.825
1770.56294	15623.725
1773.77002	15625.725
1776.97499	15609.525
1780.17785	15545.425
1783.37861	15556.625
1786.57727	15516.725
1789.77382	15466.925
1792.96828	15463.925
1796.16064	15443.925
1799.3509	15389.425
1802.53907	15391.525
1805.72514	15334.625
1808.90913	15307.425
1812.09102	15263.225
1815.27083	15270.825
1818.44856	15227.325
1821.6242	15216.825
1824.79776	15166.025
1827.96924	15181.225
1831.13864	15154.325
1834.30597	15150.225
1837.47122	15131.125
1840.6344	15111.325
1843.7955	15132.725
1846.95454	15138.425
1850.11151	15094.725
1853.26642	15080.825
1856.41926	15102.225
1859.57004	15118.525
1862.71876	15094.425
1865.86542	15092.125
1869.01003	15101.725
1872.15258	15093.225
1875.29308	15112.825
1878.43152	15040.325
1881.56792	15027.025
1884.70227	15018.125
1887.83457	15024.725
1890.96482	15017.725
1894.09304	15003.625
1897.21921	15031.725
1900.34335	14983.925
1903.46544	14951.625
1906.58551	14975.825
1909.70353	14916.425
1912.81953	14939.325
1915.93349	14910.425
1919.04543	14860.325
1922.15534	14849.425
1925.26322	14866.225
1928.36908	14820.625
1931.47292	14792.125
1934.57473	14751.025
1937.67453	14732.825
1940.77232	14717.225
1943.86808	14649.125
1946.96184	14626.525
1950.05358	14594.325
1953.14331	14533.825
1956.23103	14479.425
1959.31675	14457.225
1962.40046	14422.725
1965.48217	14372.725
1968.56188	14337.825
1971.63959	14306.025
1974.7153	14257.725
1977.78901	14215.125
1980.86073	14152.125
1983.93046	14103.125
1986.99819	14082.725
1990.06394	14045.125
1993.1277	14013.625
1996.18947	13941.125
1999.24925	13906.625
2002.30706	13892.025
2005.36288	13830.425
2008.41672	13810.125
2011.46859	13798.225
2014.51848	13772.125
2017.56639	13715.325
2020.61233	13687.925
2023.6563	13679.625
2026.6983	13648.425
2029.73833	13623.025
2032.7764	13590.025
2035.8125	13583.625
2038.84664	13535.125
2041.87881	13517.025
2044.90903	13475.325
2047.93729	13488.425
2050.96359	13471.125
2053.98794	13457.825
2057.01034	13429.225
2060.03078	13435.725
2063.04927	13414.225
2066.06582	13405.025
2069.08042	13398.425
2072.09307	13381.925
2075.10378	13372.025
2078.11255	13355.525
2081.11938	13385.725
2084.12426	13352.425
2087.12722	13355.425
2090.12824	13355.225
2093.12732	13369.525
2096.12447	13348.825
2099.11969	13374.125
2102.11299	13361.625
2105.10435	13374.925
2108.09379	13360.725
2111.08131	13372.225
2114.0669	13361.425
2117.05057	13376.025
2120.03233	13393.425
2123.01216	13403.625
2125.99008	13419.625
2128.96609	13414.625
2131.94018	13458.325
2134.91236	13448.125
2137.88263	13426.325
2140.851	13438.925
2143.81746	13471.225
2146.78201	13464.225
2149.74466	13482.325
2152.7054	13513.525
2155.66425	13494.425
2158.6212	13487.825
2161.57625	13516.725
2164.52941	13493.625
2167.48067	13470.125
2170.43004	13442.625
2173.37752	13475.825
2176.32311	13477.425
2179.26681	13490.625
2182.20863	13453.125
2185.14856	13443.825
2188.08661	13428.625
2191.02278	13467.925
2193.95707	13442.625
2196.88948	13436.525
2199.82001	13440.925
2202.74867	13426.925
2205.67545	13416.225
2208.60037	13422.025
2211.52341	13412.625
2214.44458	13363.825
2217.36388	13313.025
2220.28132	13318.925
2223.1969	13296.325
2226.11061	13270.725
2229.02246	13259.525
2231.93245	13207.925
2234.84058	13198.525
2237.74686	13206.725
2240.65128	13173.525
2243.55385	13151.625
2246.45456	13156.725
2249.35343	13124.525
2252.25044	13087.625
2255.14561	13076.425
2258.03893	13064.225
2260.93041	13026.125
2263.82004	13017.425
2266.70783	13000.525
2269.59378	12954.725
2272.4779	12932.225
2275.36017	12906.125
2278.24061	12897.725
2281.11922	12842.225
2283.996	12824.225
2286.87094	12838.725
2289.74405	12801.725
2292.61534	12766.725
2295.4848	12760.825
2298.35243	12791.425
2301.21824	12755.225
2304.08223	12773.325
2306.94439	12754.125
2309.80474	12762.125
2312.66327	12781.325
2315.51999	12751.825
2318.37489	12738.225
2321.22797	12704.025
2324.07925	12723.725
2326.92871	12696.625
2329.77637	12695.425
2332.62222	12670.825
2335.46626	12632.425
2338.3085	12596.725
2341.14893	12626.525
2343.98756	12600.125
2346.8244	12598.525
2349.65943	12602.725
2352.49267	12586.125
2355.32411	12595.625
2358.15376	12564.725
2360.98161	12573.225
2363.80768	12548.125
2366.63195	12579.625
2369.45444	12535.625
2372.27514	12556.825
2375.09405	12519.125
2377.91118	12511.525
2380.72652	12474.525
2383.54009	12473.425
2386.35187	12454.425
2389.16188	12378.725
2391.97011	12357.625
2394.77657	12337.225
2397.58125	12340.025
2400.38416	12320.425
2403.18529	12320.925
2405.98466	12306.725
2408.78226	12281.525
2411.57809	12254.625
2414.37216	12225.825
2417.16446	12219.225
2419.955	12209.725
2422.74378	12213.925
2425.5308	12144.225
2428.31606	12158.725
2431.09956	12129.425
2433.88131	12136.525
2436.6613	12136.625
2439.43954	12146.225
2442.21603	12110.125
2444.99077	12109.825
2447.76377	12107.925
2450.53501	12136.325
2453.30451	12098.125
2456.07226	12083.525
2458.83827	12085.425
2461.60254	12065.025
2464.36507	12032.925
2467.12586	12043.725
2469.88492	12067.125
2472.64224	12037.825
2475.39782	12047.325
2478.15167	12042.225
2480.90379	12064.425
2483.65417	12049.625
2486.40283	12060.325
2489.14976	12069.325
2491.89497	12043.225
2494.63845	12044.725
2497.3802	12034.025
2500.12024	12011.825
2502.85855	12015.525
2505.59514	12017.925
2508.33002	12017.025
2511.06318	11992.325
2513.79462	11979.725
2516.52435	11982.125
2519.25237	11952.225
2521.97867	11911.625
2524.70327	11948.025
2527.42616	11927.225
2530.14734	11893.425
2532.86681	11872.525
2535.58458	11882.625
2538.30065	11872.925
2541.01501	11866.725
2543.72768	11844.825
2546.43864	11816.425
2549.14791	11831.425
2551.85548	11825.925
2554.56136	11781.925
2557.26554	11745.525
2559.96803	11730.125
2562.66883	11749.525
2565.36794	11700.225
2568.06536	11723.825
2570.7611	11729.625
2573.45514	11725.425
2576.14751	11681.525
2578.83819	11682.125
2581.52719	11666.125
2584.21451	11666.025
2586.90015	11646.425
2589.58411	11650.725
2592.2664	11610.925
2594.94701	11598.525
2597.62594	11612.725
2600.30321	11567.425
2602.9788	11582.225
2605.65273	11532.125
2608.32498	11524.625
2610.99557	11553.025
2613.66449	11529.625
2616.33175	11511.525
2618.99734	11523.225
2621.66128	11512.725
2624.32355	11493.625
2626.98416	11494.825
2629.64311	11474.525
2632.30041	11474.025
2634.95605	11469.025
2637.61004	11456.225
2640.26238	11440.725
2642.91306	11441.025
2645.56209	11429.725
2648.20948	11387.025
2650.85521	11428.725
2653.4993	11401.925
2656.14175	11422.125
2658.78255	11423.525
2661.42171	11402.525
2664.05923	11437.825
2666.6951	11425.425
2669.32934	11438.025
2671.96194	11394.225
2674.59291	11423.925
2677.22224	11431.025
2679.84993	11433.125
2682.476	11421.425
2685.10043	11407.625
2687.72324	11419.825
2690.34441	11412.325
2692.96396	11425.925
2695.58188	11397.825
2698.19818	11415.025
2700.81285	11400.725
2703.4259	11432.525
2706.03733	11475.825
2708.64714	11489.025
2711.25533	11475.525
2713.86191	11443.925
2716.46687	11449.925
2719.07021	11414.825
2721.67194	11431.325
2724.27206	11431.825
2726.87057	11430.325
2729.46747	11449.325
2732.06276	11443.725
2734.65644	11418.925
2737.24852	11434.725
2739.83899	11411.125
2742.42786	11414.325
2745.01513	11420.925
2747.60079	11402.625
2750.18486	11397.425
2752.76733	11398.025
2755.3482	11369.925
2757.92747	11395.225
2760.50515	11378.825
2763.08123	11389.425
2765.65573	11381.525
2768.22863	11401.925
2770.79994	11347.625
2773.36967	11349.925
2775.9378	11372.825
2778.50435	11321.025
2781.06932	11322.925
2783.6327	11337.625
2786.1945	11326.725
2788.75471	11262.725
2791.31335	11264.425
2793.87041	11280.825
2796.42589	11225.225
2798.97979	11224.925
2801.53212	11197.325
2804.08288	11198.225
2806.63206	11163.825
2809.17967	11122.425
2811.72571	11090.725
2814.27018	11104.525
2816.81308	11101.825
2819.35442	11075.425
2821.89419	11051.325
2824.43239	11029.325
2826.96904	11045.025
2829.50412	11041.625
2832.03763	11002.425
2834.56959	11008.925
2837.1	11004.425
2839.62884	11006.125
2842.15613	10987.625
2844.68186	11003.225
2847.20604	11024.225
2849.72867	11007.925
2852.24974	10984.625
2854.76927	10980.825
2857.28724	10987.625
2859.80367	10961.025
2862.31855	10959.425
2864.83189	10917.325
2867.34368	10923.725
2869.85393	10905.125
2872.36264	10878.325
2874.8698	10924.225
2877.37543	10938.425
2879.87952	10927.125
2882.38207	10936.325
2884.88308	10939.625
2887.38256	10944.525
2889.88051	10957.025
2892.37692	10958.425
2894.8718	10921.625
2897.36515	10929.125
2899.85698	10938.725
2902.34727	10958.125
2904.83604	10947.125
2907.32328	10987.925
2909.809	10968.225
2912.29319	10989.925
2914.77587	10975.725
2917.25702	10971.925
2919.73665	10947.225
2922.21476	10976.625
2924.69136	10966.625
2927.16644	10949.125
2929.64	10938.825
2932.11205	10933.025
2934.58258	10918.425
2937.05161	10942.825
2939.51912	10937.425
2941.98513	10948.225
2944.44962	10914.325
2946.91261	10877.225
2949.37409	10899.725
2951.83407	10863.625
2954.29254	10850.925
2956.74951	10835.525
2959.20498	10836.425
2961.65895	10796.625
2964.11142	10816.425
2966.56239	10792.225
2969.01186	10755.925
2971.45984	10736.425
2973.90632	10735.125
2976.35131	10667.225
2978.7948	10675.925
2981.23681	10643.525
2983.67732	10621.725
2986.11635	10620.925
2988.55388	10579.225
2990.98993	10557.925
2993.4245	10564.125
2995.85758	10533.225
2998.28917	10505.225
3000.71928	10484.625
3003.14791	10468.725
3005.57506	10465.225
3008.00073	10482.225
3010.42493	10469.925
3012.84764	10422.725
3015.26888	10409.925
3017.68865	10401.725
3020.10694	10381.025
3022.52376	10362.025
3024.9391	10327.625
3027.35298	10308.125
3029.76539	10323.825
3032.17632	10324.025
3034.5858	10293.825
3036.9938	10283.625
3039.40034	10268.625
3041.80542	10278.325
3044.20903	10275.725
3046.61118	10250.425
3049.01187	10246.125
3051.4111	10208.525
3053.80888	10173.525
3056.20519	10181.725
3058.60005	10169.525
3060.99345	10137.325
3063.3854	10117.225
3065.7759	10107.525
3068.16494	10080.325
3070.55254	10053.925
3072.93868	10070.925
3075.32338	10040.325
3077.70662	10011.625
3080.08842	9968.125
3082.46878	9989.525
3084.84769	9962.925
3087.22515	9969.325
3089.60118	9989.525
3091.97576	10007.625
3094.3489	9978.725
3096.72061	9965.825
3099.09087	9987.525
3101.4597	9950.825
3103.82709	9959.625
3106.19305	9929.625
3108.55757	9937.625
3110.92066	9897.825
3113.28232	9909.825
3115.64255	9860.825
3118.00134	9850.225
3120.35871	9865.625
3122.71466	9853.525
3125.06917	9810.225
3127.42226	9801.725
3129.77393	9817.225
3132.12417	9825.925
