Data from AgNP_FTO_APTES_CRN_0uM_R6G_10uM_NaF_0.1M_Addition_RamanShift__68__12-49-02-982.txt Node

Date: Wed Dec 15 12:49:02 GMT 2021
User: TCL
Spectrometer: QEP01345
Trigger mode: 4
Integration Time (sec): 7.000000E0
Scans to average: 10
Electric dark correction enabled: true
Nonlinearity correction enabled: false
Boxcar width: 0
XAxis mode: Raman Shifts
Number of Pixels in Spectrum: 1044
>>>>>Begin Spectral Data<<<<<
46.04893	0.55
50.45542	-2.25
54.85868	-1.35
59.25871	-1.55
63.6555	150.95
68.04907	162.85
72.43941	167.55
76.82654	177.25
81.21044	183.35
85.59113	192.05
89.96862	197.95
94.34289	202.55
98.71396	211.95
103.08183	220.55
107.4465	223.05
111.80798	227.95
116.16626	234.95
120.52136	240.65
124.87327	244.15
129.222	257.35
133.56755	271.55
137.90993	289.15
142.24913	312.25
146.58517	339.35
150.91804	385.25
155.24774	455.95
159.57429	556.25
163.89768	700.85
168.21792	916.85
172.53501	1244.65
176.84895	1717.25
181.15975	2394.85
185.46741	3330.45
189.77193	4599.95
194.07331	6144.85
198.37157	7934.25
202.6667	9750.85
206.9587	11606.45
211.24758	13409.25
215.53334	15265.05
219.81599	17210.45
224.09553	19413.75
228.37195	21890.95
232.64527	24600.05
236.91549	27414.95
241.18261	30127.85
245.44663	32523.65
249.70755	34718.95
253.96539	36612.05
258.22014	38256.95
262.4718	39695.05
266.72039	40754.95
270.96589	41368.05
275.20832	41478.75
279.44768	41327.75
283.68397	40917.45
287.91719	40544.85
292.14735	40344.65
296.37445	40406.85
300.59849	40896.65
304.81948	41520.75
309.03742	42013.85
313.25231	41847.35
317.46415	40786.15
321.67296	39238.65
325.87872	37831.75
330.08145	37289.65
334.28114	37345.25
338.47781	37849.85
342.67145	38489.05
346.86207	39509.25
351.04966	40936.65
355.23424	42467.45
359.4158	43778.65
363.59435	44572.15
367.76989	44911.65
371.94243	45084.85
376.11196	45123.65
380.27849	45271.65
384.44203	45269.55
388.60257	45253.55
392.76012	45446.85
396.91468	46081.35
401.06626	47106.75
405.21485	47935.55
409.36047	47849.65
413.50311	46879.45
417.64277	45984.85
421.77947	45615.15
425.9132	45674.35
430.04396	45889.25
434.17176	46265.15
438.2966	46804.95
442.41849	47758.05
446.53742	49117.85
450.6534	50607.95
454.76644	51889.85
458.87653	52368.45
462.98368	52204.65
467.08789	51278.45
471.18916	50005.55
475.2875	48766.85
479.38291	47869.55
483.4754	47240.15
487.56496	46751.05
491.6516	46224.45
495.73531	45863.25
499.81612	45800.55
503.89401	46043.35
507.96899	46313.85
512.04106	46429.25
516.11023	46688.45
520.1765	46890.85
524.23987	46910.65
528.30034	46474.85
532.35792	45896.85
536.41261	45189.45
540.46441	44584.55
544.51333	44353.05
548.55936	44580.15
552.60252	45353.35
556.64279	46063.85
560.6802	46431.25
564.71473	46791.75
568.7464	47734.75
572.7752	48704.95
576.80114	48776.55
580.82422	48856.55
584.84444	49202.95
588.86181	49673.15
592.87633	50446.15
596.888	51413.75
600.89682	52693.75
604.9028	55954.65
608.90594	63591.25
612.90624	71888.75
616.90371	68295.75
620.89834	55351.15
624.89015	49549.85
628.87913	48680.05
632.86528	48377.95
636.84862	47852.55
640.82913	46901.05
644.80683	45490.75
648.78172	44584.35
652.75379	44670.75
656.72306	45738.25
660.68952	47099.05
664.65319	46984.95
668.61405	45843.95
672.57211	45367.65
676.52738	45258.25
680.47986	45261.25
684.42955	45166.85
688.37646	45061.15
692.32058	45279.55
696.26192	45674.85
700.20048	46160.25
704.13626	46518.15
708.06928	46292.05
711.99952	45943.35
715.927	45875.65
719.85171	45875.75
723.77365	45599.25
727.69284	45099.85
731.60928	44712.05
735.52295	44765.85
739.43388	44868.85
743.34206	45281.75
747.24749	45655.75
751.15017	46168.95
755.05012	46968.65
758.94733	48442.25
762.8418	51240.05
766.73354	55834.15
770.62254	60316.45
774.50882	61928.85
778.39237	59264.45
782.27321	54313.75
786.15132	49899.25
790.02671	47326.55
793.89938	46144.95
797.76935	45731.65
801.6366	45581.25
805.50115	45300.65
809.36299	45034.95
813.22213	44803.55
817.07857	44850.75
820.93231	44889.35
824.78336	44983.25
828.63172	45112.95
832.47738	45305.65
836.32036	45480.05
840.16066	45684.75
843.99827	45796.85
847.8332	45667.15
851.66546	45341.75
855.49504	45241.95
859.32195	45101.05
863.1462	44886.65
866.96777	44612.45
870.78668	44528.15
874.60293	44584.05
878.41652	44607.05
882.22745	44838.55
886.03573	44994.95
889.84136	44847.75
893.64433	44663.75
897.44466	44548.45
901.24235	44533.75
905.0374	44498.45
908.8298	44508.15
912.61957	44577.65
916.40671	44970.35
920.19121	45572.95
923.97308	46206.35
927.75233	46732.75
931.52895	46828.95
935.30295	46251.85
939.07433	45376.65
942.84309	44719.35
946.60924	44461.05
950.37278	44241.85
954.13371	43883.55
957.89203	43521.85
961.64774	43310.35
965.40086	43185.95
969.15137	43025.05
972.89929	42873.05
976.64461	42932.35
980.38733	43064.55
984.12747	43324.45
987.86502	43760.35
991.59999	44392.05
995.33237	45399.85
999.06217	47049.45
1002.78939	49140.35
1006.51404	50561.15
1010.23611	51383.65
1013.95561	51970.75
1017.67255	51930.95
1021.38692	51245.95
1025.09872	50974.15
1028.80796	51863.75
1032.51465	53902.95
1036.21877	55690.55
1039.92035	55767.25
1043.61937	54539.05
1047.31584	52419.95
1051.00976	50298.55
1054.70114	49019.55
1058.38998	48603.95
1062.07627	48681.85
1065.76003	48916.15
1069.44126	49360.65
1073.11995	50284.05
1076.79611	50943.75
1080.46974	51327.55
1084.14085	51632.05
1087.80943	51941.95
1091.47549	51716.85
1095.13903	50897.05
1098.80005	49769.95
1102.45857	48691.65
1106.11456	48157.75
1109.76805	48257.25
1113.41903	48715.95
1117.06751	49279.95
1120.71348	50022.05
1124.35696	50791.55
1127.99793	51539.05
1131.63641	51680.35
1135.2724	50957.05
1138.90589	50156.85
1142.5369	49532.55
1146.16542	48979.75
1149.79145	48800.75
1153.415	48983.75
1157.03607	49460.05
1160.65467	50319.75
1164.27079	51715.05
1167.88443	53870.35
1171.49561	57132.15
1175.10432	61999.25
1178.71056	68182.15
1182.31434	73642.15
1185.91565	76356.15
1189.51451	76176.75
1193.11091	73161.15
1196.70485	68863.75
1200.29634	65164.55
1203.88538	62402.45
1207.47197	60042.45
1211.05612	58246.35
1214.63782	57406.35
1218.21708	57468.65
1221.79391	57954.45
1225.36829	58498.45
1228.94024	58469.15
1232.50976	58042.95
1236.07685	57577.05
1239.6415	57307.75
1243.20374	57242.15
1246.76355	57460.45
1250.32093	58222.35
1253.8759	59608.35
1257.42845	61529.55
1260.97859	63077.15
1264.52631	64315.65
1268.07163	65508.65
1271.61453	67065.75
1275.15503	68886.55
1278.69312	70870.35
1282.22882	72544.35
1285.76211	74195.15
1289.29301	75722.85
1292.82151	77307.35
1296.34761	79217.75
1299.87133	82213.35
1303.39266	86875.15
1306.9116	93283.65
1310.42815	100370.25
1313.94233	105238.15
1317.45412	105317.55
1320.96354	101860.45
1324.47058	97416.65
1327.97525	93547.35
1331.47754	91137.15
1334.97747	90557.55
1338.47502	91123.55
1341.97022	91987.85
1345.46305	92220.15
1348.95352	92022.75
1352.44163	92644.55
1355.92738	95653.65
1359.41078	102332.85
1362.89183	109083.95
1366.37053	107755.55
1369.84688	97629.25
1373.32088	86231.65
1376.79254	78341.55
1380.26186	74348.65
1383.72883	72583.35
1387.19347	71208.05
1390.65578	69840.05
1394.11575	69118.45
1397.57339	69383.75
1401.0287	70508.55
1404.48168	72084.35
1407.93234	73748.35
1411.38068	75189.45
1414.82669	75102.95
1418.27039	73359.45
1421.71177	70903.95
1425.15083	68764.05
1428.58758	67654.55
1432.02203	67658.25
1435.45416	68022.35
1438.88399	68557.95
1442.31151	68903.25
1445.73673	69369.35
1449.15965	69726.25
1452.58027	69669.75
1455.9986	69213.05
1459.41463	69013.15
1462.82837	69424.05
1466.23982	70466.45
1469.64898	71791.45
1473.05586	72626.25
1476.46045	73247.25
1479.86276	74167.25
1483.26279	75089.15
1486.66054	76264.35
1490.05602	77587.75
1493.44922	79205.85
1496.84016	80737.95
1500.22882	82483.55
1503.61521	85052.35
1506.99934	88576.55
1510.38121	92472.05
1513.76081	94752.75
1517.13816	93268.05
1520.51324	88297.45
1523.88607	82746.85
1527.25665	78653.85
1530.62498	76105.05
1533.99105	74507.65
1537.35488	73571.95
1540.71647	72990.65
1544.07581	72516.25
1547.4329	71907.95
1550.78776	71041.35
1554.14038	70305.15
1557.49077	70027.15
1560.83892	70141.75
1564.18484	70353.65
1567.52853	70426.35
1570.86999	70524.95
1574.20922	71133.65
1577.54624	71704.35
1580.88103	71491.75
1584.2136	71059.85
1587.54395	71681.05
1590.87208	74505.75
1594.19801	79305.75
1597.52172	84827.95
1600.84321	87314.25
1604.16251	84635.75
1607.47959	78451.95
1610.79447	71435.75
1614.10715	65332.55
1617.41763	60818.55
1620.7259	57961.45
1624.03199	56782.75
1627.33587	57053.05
1630.63757	58703.45
1633.93707	61742.25
1637.23439	65995.95
1640.52951	70843.65
1643.82246	76032.25
1647.11321	80012.75
1650.40179	81149.25
1653.68819	77529.65
1656.97241	69545.05
1660.25446	61156.05
1663.53433	54935.15
1666.81203	50997.65
1670.08756	48603.35
1673.36092	47108.85
1676.63211	46134.45
1679.90115	45430.45
1683.16801	44865.75
1686.43272	44577.25
1689.69527	44264.35
1692.95567	44107.05
1696.2139	43933.25
1699.46999	43913.85
1702.72392	43817.25
1705.97571	43759.95
1709.22535	43770.15
1712.47284	43763.65
1715.71819	43781.95
1718.96139	43723.35
1722.20246	43639.55
1725.44139	43499.75
1728.67818	43287.35
1731.91284	43108.45
1735.14537	42832.55
1738.37576	42715.65
1741.60403	42580.55
1744.83017	42544.65
1748.05418	42374.65
1751.27607	42316.45
1754.49584	42331.55
1757.71349	42248.05
1760.92903	42200.35
1764.14244	42196.65
1767.35375	42156.75
1770.56294	42126.55
1773.77002	42155.45
1776.97499	42178.75
1780.17785	42112.25
1783.37861	42068.85
1786.57727	42079.95
1789.77382	42048.95
1792.96828	41991.05
1796.16064	41936.65
1799.3509	41929.45
1802.53907	41887.95
1805.72514	41781.05
1808.90913	41675.05
1812.09102	41643.45
1815.27083	41570.25
1818.44856	41541.65
1821.6242	41462.05
1824.79776	41432.65
1827.96924	41451.65
1831.13864	41397.55
1834.30597	41429.75
1837.47122	41413.75
1840.6344	41409.75
1843.7955	41441.55
1846.95454	41395.45
1850.11151	41462.85
1853.26642	41477.15
1856.41926	41452.15
1859.57004	41502.35
1862.71876	41492.25
1865.86542	41456.35
1869.01003	41461.45
1872.15258	41507.35
1875.29308	41564.05
1878.43152	41532.45
1881.56792	41538.25
1884.70227	41593.55
1887.83457	41595.55
1890.96482	41622.95
1894.09304	41583.55
1897.21921	41613.45
1900.34335	41597.55
1903.46544	41592.25
1906.58551	41653.05
1909.70353	41672.05
1912.81953	41615.75
1915.93349	41566.25
1919.04543	41517.55
1922.15534	41459.25
1925.26322	41393.35
1928.36908	41289.45
1931.47292	41178.35
1934.57473	41084.65
1937.67453	40941.25
1940.77232	40818.55
1943.86808	40656.95
1946.96184	40520.45
1950.05358	40306.15
1953.14331	40225.45
1956.23103	40094.75
1959.31675	40034.95
1962.40046	39852.55
1965.48217	39752.55
1968.56188	39705.15
1971.63959	39544.55
1974.7153	39441.35
1977.78901	39370.15
1980.86073	39189.05
1983.93046	39081.45
1986.99819	38904.45
1990.06394	38817.35
1993.1277	38700.25
1996.18947	38647.35
1999.24925	38526.95
2002.30706	38391.75
2005.36288	38340.75
2008.41672	38305.35
2011.46859	38119.45
2014.51848	38058.45
2017.56639	37983.45
2020.61233	37827.25
2023.6563	37765.95
2026.6983	37706.85
2029.73833	37686.45
2032.7764	37572.75
2035.8125	37540.45
2038.84664	37495.25
2041.87881	37433.85
2044.90903	37416.45
2047.93729	37356.95
2050.96359	37293.95
2053.98794	37226.55
2057.01034	37209.35
2060.03078	37163.55
2063.04927	37124.05
2066.06582	37112.85
2069.08042	37127.85
2072.09307	37106.05
2075.10378	37023.05
2078.11255	36963.45
2081.11938	36963.95
2084.12426	36932.25
2087.12722	36881.65
2090.12824	36854.65
2093.12732	36861.45
2096.12447	36843.25
2099.11969	36841.65
2102.11299	36855.45
2105.10435	36878.25
2108.09379	36871.35
2111.08131	36891.75
2114.0669	36916.95
2117.05057	36909.85
2120.03233	36921.35
2123.01216	36937.35
2125.99008	36988.55
2128.96609	36968.25
2131.94018	37035.75
2134.91236	37018.85
2137.88263	37086.55
2140.851	37070.85
2143.81746	37144.65
2146.78201	37150.45
2149.74466	37155.65
2152.7054	37173.45
2155.66425	37160.95
2158.6212	37122.85
2161.57625	37121.25
2164.52941	37127.65
2167.48067	37128.95
2170.43004	37102.55
2173.37752	37086.45
2176.32311	37052.15
2179.26681	37068.35
2182.20863	37107.35
2185.14856	37163.85
2188.08661	37102.55
2191.02278	37136.85
2193.95707	37152.45
2196.88948	37157.65
2199.82001	37176.85
2202.74867	37181.85
2205.67545	37163.85
2208.60037	37122.45
2211.52341	37137.05
2214.44458	37088.55
2217.36388	37096.65
2220.28132	37024.65
2223.1969	36971.45
2226.11061	36964.15
2229.02246	36798.35
2231.93245	36741.45
2234.84058	36644.05
2237.74686	36562.25
2240.65128	36583.55
2243.55385	36521.55
2246.45456	36452.25
2249.35343	36428.85
2252.25044	36366.85
2255.14561	36330.95
2258.03893	36330.05
2260.93041	36296.85
2263.82004	36224.25
2266.70783	36104.35
2269.59378	36012.75
2272.4779	35918.45
2275.36017	35825.55
2278.24061	35784.75
2281.11922	35734.35
2283.996	35629.95
2286.87094	35633.45
2289.74405	35565.85
2292.61534	35486.75
2295.4848	35506.35
2298.35243	35508.65
2301.21824	35481.95
2304.08223	35581.15
2306.94439	35644.55
2309.80474	35613.85
2312.66327	35666.75
2315.51999	35671.35
2318.37489	35666.75
2321.22797	35599.15
2324.07925	35623.35
2326.92871	35573.95
2329.77637	35581.75
2332.62222	35574.65
2335.46626	35567.65
2338.3085	35575.35
2341.14893	35620.25
2343.98756	35645.75
2346.8244	35649.85
2349.65943	35647.35
2352.49267	35584.35
2355.32411	35599.85
2358.15376	35537.35
2360.98161	35512.65
2363.80768	35436.65
2366.63195	35420.95
2369.45444	35364.25
2372.27514	35236.85
2375.09405	35153.35
2377.91118	35076.15
2380.72652	34993.95
2383.54009	34883.95
2386.35187	34883.25
2389.16188	34829.45
2391.97011	34748.75
2394.77657	34783.75
2397.58125	34701.15
2400.38416	34618.05
2403.18529	34557.45
2405.98466	34492.35
2408.78226	34370.25
2411.57809	34339.25
2414.37216	34183.85
2417.16446	34223.55
2419.955	34123.95
2422.74378	34082.15
2425.5308	34046.25
2428.31606	34017.65
2431.09956	33935.65
2433.88131	33932.45
2436.6613	33921.65
2439.43954	33895.95
2442.21603	33919.65
2444.99077	33815.55
2447.76377	33828.45
2450.53501	33780.15
2453.30451	33772.05
2456.07226	33794.45
2458.83827	33799.05
2461.60254	33774.95
2464.36507	33756.75
2467.12586	33749.05
2469.88492	33740.95
2472.64224	33746.45
2475.39782	33772.05
2478.15167	33806.45
2480.90379	33819.25
2483.65417	33812.65
2486.40283	33806.95
2489.14976	33929.85
2491.89497	33879.15
2494.63845	33867.25
2497.3802	33915.05
2500.12024	33953.25
2502.85855	33917.35
2505.59514	33902.25
2508.33002	33822.15
2511.06318	33771.55
2513.79462	33739.75
2516.52435	33690.85
2519.25237	33602.65
2521.97867	33554.55
2524.70327	33554.35
2527.42616	33594.15
2530.14734	33560.55
2532.86681	33535.25
2535.58458	33506.65
2538.30065	33435.85
2541.01501	33430.05
2543.72768	33414.95
2546.43864	33443.95
2549.14791	33420.85
2551.85548	33356.55
2554.56136	33297.75
2557.26554	33272.65
2559.96803	33244.45
2562.66883	33243.35
2565.36794	33187.45
2568.06536	33207.05
2570.7611	33139.05
2573.45514	33117.45
2576.14751	33176.35
2578.83819	33095.85
2581.52719	33061.55
2584.21451	33021.55
2586.90015	33045.45
2589.58411	33054.95
2592.2664	33017.65
2594.94701	32991.45
2597.62594	32970.65
2600.30321	32932.45
2602.9788	32973.45
2605.65273	32957.55
2608.32498	32943.45
2610.99557	32909.95
2613.66449	32951.75
2616.33175	32928.65
2618.99734	32945.05
2621.66128	32918.85
2624.32355	32972.25
2626.98416	33000.85
2629.64311	32982.85
2632.30041	32974.05
2634.95605	32972.15
2637.61004	32924.85
2640.26238	32824.95
2642.91306	32793.65
2645.56209	32743.15
2648.20948	32684.85
2650.85521	32659.55
2653.4993	32614.75
2656.14175	32620.75
2658.78255	32678.75
2661.42171	32632.25
2664.05923	32712.05
2666.6951	32725.35
2669.32934	32786.85
2671.96194	32789.35
2674.59291	32741.05
2677.22224	32751.65
2679.84993	32758.95
2682.476	32730.05
2685.10043	32731.25
2687.72324	32711.55
2690.34441	32707.95
2692.96396	32671.95
2695.58188	32689.95
2698.19818	32640.95
2700.81285	32639.75
2703.4259	32624.45
2706.03733	32608.05
2708.64714	32622.05
2711.25533	32618.75
2713.86191	32614.85
2716.46687	32618.75
2719.07021	32591.55
2721.67194	32615.35
2724.27206	32562.85
2726.87057	32585.25
2729.46747	32637.35
2732.06276	32703.35
2734.65644	32641.85
2737.24852	32628.85
2739.83899	32652.85
2742.42786	32622.45
2745.01513	32618.85
2747.60079	32612.95
2750.18486	32560.55
2752.76733	32563.85
2755.3482	32645.85
2757.92747	32632.45
2760.50515	32586.45
2763.08123	32529.55
2765.65573	32525.65
2768.22863	32521.45
2770.79994	32476.75
2773.36967	32453.55
2775.9378	32423.75
2778.50435	32405.35
2781.06932	32373.55
2783.6327	32373.05
2786.1945	32349.65
2788.75471	32336.95
2791.31335	32289.85
2793.87041	32256.25
2796.42589	32127.05
2798.97979	32136.35
2801.53212	32067.75
2804.08288	32009.55
2806.63206	31924.05
2809.17967	31894.35
2811.72571	31821.35
2814.27018	31838.05
2816.81308	31798.25
2819.35442	31815.95
2821.89419	31787.75
2824.43239	31812.05
2826.96904	31781.35
2829.50412	31829.55
2832.03763	31771.65
2834.56959	31759.65
2837.1	31751.75
2839.62884	31730.25
2842.15613	31639.45
2844.68186	31663.95
2847.20604	31694.65
2849.72867	31670.25
2852.24974	31669.55
2854.76927	31596.45
2857.28724	31564.55
2859.80367	31543.15
2862.31855	31494.75
2864.83189	31512.35
2867.34368	31474.75
2869.85393	31438.75
2872.36264	31379.05
2874.8698	31397.65
2877.37543	31412.55
2879.87952	31423.15
2882.38207	31434.55
2884.88308	31405.45
2887.38256	31430.75
2889.88051	31403.25
2892.37692	31453.85
2894.8718	31447.05
2897.36515	31445.15
2899.85698	31450.95
2902.34727	31497.25
2904.83604	31500.85
2907.32328	31530.45
2909.809	31505.15
2912.29319	31514.65
2914.77587	31466.15
2917.25702	31453.15
2919.73665	31457.75
2922.21476	31463.15
2924.69136	31440.95
2927.16644	31380.05
2929.64	31340.25
2932.11205	31298.45
2934.58258	31210.35
2937.05161	31237.45
2939.51912	31263.85
2941.98513	31205.05
2944.44962	31129.55
2946.91261	31006.25
2949.37409	31044.55
2951.83407	31042.55
2954.29254	30997.85
2956.74951	30966.95
2959.20498	30969.95
2961.65895	30928.55
2964.11142	30907.65
2966.56239	30778.65
2969.01186	30783.25
2971.45984	30636.55
2973.90632	30577.35
2976.35131	30542.25
2978.7948	30498.05
2981.23681	30399.55
2983.67732	30311.55
2986.11635	30251.95
2988.55388	30198.15
2990.98993	30129.45
2993.4245	30077.15
2995.85758	29996.65
2998.28917	29922.15
3000.71928	29875.25
3003.14791	29811.75
3005.57506	29803.25
3008.00073	29683.75
3010.42493	29702.75
3012.84764	29730.05
3015.26888	29656.65
3017.68865	29582.95
3020.10694	29526.45
3022.52376	29447.95
3024.9391	29391.85
3027.35298	29324.25
3029.76539	29352.85
3032.17632	29280.15
3034.5858	29206.45
3036.9938	29186.45
3039.40034	29185.15
3041.80542	29150.25
3044.20903	29045.25
3046.61118	29073.65
3049.01187	28930.15
3051.4111	28888.15
3053.80888	28831.55
3056.20519	28760.65
3058.60005	28704.25
3060.99345	28662.75
3063.3854	28597.05
3065.7759	28486.95
3068.16494	28440.45
3070.55254	28350.05
3072.93868	28297.55
3075.32338	28166.55
3077.70662	28093.15
3080.08842	27988.35
3082.46878	27991.25
3084.84769	27935.55
3087.22515	27909.15
3089.60118	27945.75
3091.97576	27925.45
3094.3489	27869.45
3096.72061	27864.75
3099.09087	27828.75
3101.4597	27783.35
3103.82709	27723.15
3106.19305	27724.25
3108.55757	27689.05
3110.92066	27670.45
3113.28232	27569.45
3115.64255	27454.75
3118.00134	27395.35
3120.35871	27359.85
3122.71466	27292.55
3125.06917	27269.05
3127.42226	27262.15
3129.77393	27276.85
3132.12417	27218.95
3134.47299	27197.65
3136.82039	27181.95
3139.16636	27199.15
3141.51092	27143.15
3143.85406	27163.45
3146.19579	27149.45
3148.53609	27110.65
3150.87499	27139.05
3153.21246	27086.45
3155.54853	27136.45
3157.88318	27087.35
3160.21642	27072.55
3162.54826	27008.25
3164.87868	26982.65
3167.2077	26954.15
3169.5353	26950.25
3171.86151	26930.45
3174.18631	26872.55
3176.5097	26874.65
3178.83169	26800.95
3181.15228	26808.35
3183.47147	26745.15
3185.78926	26749.45
3188.10565	26736.45
3190.42065	26729.85
3192.73424	26713.25
3195.04645	26683.15
3197.35725	26734.05
3199.66667	26692.05
3201.97469	26720.15
3204.28132	26684.05
3206.58656	26680.65
3208.8904	26664.85
3211.19287	26686.25
3213.49394	26667.85
3215.79363	26689.55
3218.09193	26664.35
3220.38884	26671.95
3222.68438	26682.75
3224.97853	26603.75
3227.2713	26577.35
3229.56269	26535.45
3231.8527	26564.95
3234.14133	26490.25
3236.42858	26400.35
