Data from AgNP_FTO_APTES_CRN_0uM_R6G_10uM_NaF_0.1M_Addition_RamanShift__45__12-22-12-952.txt Node

Date: Wed Dec 15 12:22:12 GMT 2021
User: TCL
Spectrometer: QEP01345
Trigger mode: 4
Integration Time (sec): 7.000000E0
Scans to average: 10
Electric dark correction enabled: true
Nonlinearity correction enabled: false
Boxcar width: 0
XAxis mode: Raman Shifts
Number of Pixels in Spectrum: 1044
>>>>>Begin Spectral Data<<<<<
46.04893	0.1
50.45542	-1.9
54.85868	-1.2
59.25871	-1.2
63.6555	156.6
68.04907	164.8
72.43941	171.7
76.82654	179.1
81.21044	184.2
85.59113	194.8
89.96862	202.7
94.34289	205.7
98.71396	215.6
103.08183	223.3
107.4465	231.6
111.80798	236.9
116.16626	234.1
120.52136	238.9
124.87327	246.8
129.222	257.4
133.56755	274
137.90993	298.4
142.24913	316.1
146.58517	349.9
150.91804	397.9
155.24774	468.2
159.57429	581.3
163.89768	737.2
168.21792	956.9
172.53501	1291.7
176.84895	1780.7
181.15975	2481
185.46741	3465.1
189.77193	4761.5
194.07331	6344
198.37157	8181.4
202.6667	10080.5
206.9587	11958
211.24758	13868.9
215.53334	15770.1
219.81599	17807
224.09553	20026.3
228.37195	22498.8
232.64527	25194.2
236.91549	27989
241.18261	30720.4
245.44663	33281.6
249.70755	35621.4
253.96539	37563.5
258.22014	39219
262.4718	40582
266.72039	41479.4
270.96589	41853.4
275.20832	41792.4
279.44768	41402.3
283.68397	40957.2
287.91719	40474.7
292.14735	40266.7
296.37445	40171.5
300.59849	40182
304.81948	40376.2
309.03742	40549.3
313.25231	40562.3
317.46415	40320.9
321.67296	39848.5
325.87872	39465.9
330.08145	39318
334.28114	39363.9
338.47781	39615.4
342.67145	40057
346.86207	40621.2
351.04966	41380.2
355.23424	42224.1
359.4158	42907.3
363.59435	43495.7
367.76989	43848.2
371.94243	44056.4
376.11196	44153.5
380.27849	44336.7
384.44203	44565.4
388.60257	44960.4
392.76012	45341.1
396.91468	45820.7
401.06626	46563.7
405.21485	47119.5
409.36047	47341.6
413.50311	47340.5
417.64277	47636.8
421.77947	48101.6
425.9132	48388.7
430.04396	48657.3
434.17176	48822.6
438.2966	49040.1
442.41849	49923.6
446.53742	51390.9
450.6534	53064.4
454.76644	54161.8
458.87653	54259.8
462.98368	53567.7
467.08789	52350.6
471.18916	50916
475.2875	49501.4
479.38291	48564.4
483.4754	48017.3
487.56496	47767.1
491.6516	47512.9
495.73531	47384.7
499.81612	47549.3
503.89401	48075.7
507.96899	48337.8
512.04106	48236
516.11023	47875.1
520.1765	47526.3
524.23987	47279.8
528.30034	47109.3
532.35792	46794.5
536.41261	46176.7
540.46441	45483.2
544.51333	45171.2
548.55936	45407.5
552.60252	46228.3
556.64279	47308
560.6802	48198.1
564.71473	48633.1
568.7464	49076.8
572.7752	50258.1
576.80114	52000
580.82422	54289.4
584.84444	57427.9
588.86181	60994.4
592.87633	63487
596.888	62987.9
600.89682	59437.6
604.9028	58046.9
608.90594	60509.6
612.90624	62857.5
616.90371	59006.1
620.89834	51551
624.89015	48110.4
628.87913	47421.3
632.86528	47224.7
636.84862	46578.9
640.82913	45552.4
644.80683	44561.9
648.78172	44124.2
652.75379	44440.2
656.72306	45119
660.68952	45611.5
664.65319	45246.1
668.61405	44574.4
672.57211	44626.9
676.52738	44953.4
680.47986	44860.7
684.42955	44466
688.37646	44329.7
692.32058	44800.5
696.26192	45709.9
700.20048	46619.7
704.13626	47037.9
708.06928	46838
711.99952	46593.9
715.927	46865.6
719.85171	47395.4
723.77365	47186.9
727.69284	46314.7
731.60928	45463.5
735.52295	45193.3
739.43388	45222.6
743.34206	45417.1
747.24749	45723.9
751.15017	46169.3
755.05012	46846.2
758.94733	47986.9
762.8418	49827.6
766.73354	52401.4
770.62254	54361.9
774.50882	54158.2
778.39237	51941.3
782.27321	49256.4
786.15132	47281.9
790.02671	46053.6
793.89938	45473.3
797.76935	45382.5
801.6366	45521.8
805.50115	45587.4
809.36299	45309.7
813.22213	44867.3
817.07857	44484.9
820.93231	44116.5
824.78336	43890
828.63172	43719.1
832.47738	43805.4
836.32036	43896.3
840.16066	44185.8
843.99827	44372.8
847.8332	44258.8
851.66546	44064.3
855.49504	44065.9
859.32195	44030.6
863.1462	43873.5
866.96777	43680.3
870.78668	43641.5
874.60293	43714.2
878.41652	43827.5
882.22745	44070.2
886.03573	44296.5
889.84136	44318.8
893.64433	44127
897.44466	43867.1
901.24235	43776.9
905.0374	43668.1
908.8298	43678.6
912.61957	43842.1
916.40671	44263.1
920.19121	44945.1
923.97308	45683
927.75233	46048.7
931.52895	45641.5
935.30295	44756.6
939.07433	43946.2
942.84309	43511
946.60924	43402
950.37278	43362.6
954.13371	43264.7
957.89203	43114.5
961.64774	42945
965.40086	42869.7
969.15137	42767.5
972.89929	42587.1
976.64461	42556.5
980.38733	42706.6
984.12747	42903.4
987.86502	43235.6
991.59999	43735.6
995.33237	44530.4
999.06217	45749.5
1002.78939	47416.2
1006.51404	48801.6
1010.23611	49791.8
1013.95561	50296.1
1017.67255	50180.8
1021.38692	49336.2
1025.09872	48504.4
1028.80796	48679
1032.51465	49962.1
1036.21877	51299.2
1039.92035	51651.1
1043.61937	51041.5
1047.31584	49860.6
1051.00976	48599.1
1054.70114	47901.2
1058.38998	47821.5
1062.07627	48080
1065.76003	48619.1
1069.44126	49490
1073.11995	50846.3
1076.79611	51974.9
1080.46974	52304.4
1084.14085	52237
1087.80943	52235.3
1091.47549	51979.9
1095.13903	51450.5
1098.80005	50405.3
1102.45857	49154.2
1106.11456	48277
1109.76805	47958
1113.41903	47969.6
1117.06751	48042.2
1120.71348	48190.8
1124.35696	48405.1
1127.99793	48709.7
1131.63641	48991.4
1135.2724	49144.5
1138.90589	49322.3
1142.5369	49499.6
1146.16542	49742.6
1149.79145	50067.4
1153.415	50356
1157.03607	51233.1
1160.65467	53034.9
1164.27079	56024.7
1167.88443	59222.9
1171.49561	62312
1175.10432	65848.1
1178.71056	70688
1182.31434	75492.1
1185.91565	77565.2
1189.51451	76401.8
1193.11091	73696.6
1196.70485	70805.7
1200.29634	68329.4
1203.88538	66889.6
1207.47197	66308.6
1211.05612	65790.7
1214.63782	64704.5
1218.21708	63336.4
1221.79391	62089.9
1225.36829	61162.2
1228.94024	60323.6
1232.50976	59065.8
1236.07685	57627.5
1239.6415	56829.6
1243.20374	56657.2
1246.76355	57164.1
1250.32093	58278.3
1253.8759	59757.3
1257.42845	61581.8
1260.97859	63485.1
1264.52631	65510.9
1268.07163	67752.1
1271.61453	70126.2
1275.15503	72493.4
1278.69312	74977.9
1282.22882	77417.6
1285.76211	80149.6
1289.29301	83197.8
1292.82151	86610.2
1296.34761	90901.5
1299.87133	96663.9
1303.39266	103244.3
1306.9116	109067.6
1310.42815	112886.4
1313.94233	114333.9
1317.45412	112933.3
1320.96354	110058.6
1324.47058	107600.2
1327.97525	106165.7
1331.47754	105406.8
1334.97747	104509.3
1338.47502	102580.5
1341.97022	99160.4
1345.46305	95445.5
1348.95352	92976
1352.44163	93583.3
1355.92738	97840.4
1359.41078	104373.9
1362.89183	109211.6
1366.37053	109216.2
1369.84688	102102.3
1373.32088	90710.5
1376.79254	81929
1380.26186	78586.1
1383.72883	78754.4
1387.19347	78791.8
1390.65578	77269.9
1394.11575	76321.7
1397.57339	77038.7
1401.0287	78846.2
1404.48168	80924.5
1407.93234	81984.6
1411.38068	81514.8
1414.82669	79478.1
1418.27039	76654.6
1421.71177	73267.9
1425.15083	70329.2
1428.58758	69164.8
1432.02203	70094.5
1435.45416	72686.4
1438.88399	75532.8
1442.31151	77370.6
1445.73673	78055.3
1449.15965	78065.8
1452.58027	77099.9
1455.9986	75489.5
1459.41463	74681.9
1462.82837	75474.7
1466.23982	77632.7
1469.64898	79961.7
1473.05586	81720.9
1476.46045	82713
1479.86276	82870.4
1483.26279	82267.4
1486.66054	81936.8
1490.05602	82217.5
1493.44922	82350.8
1496.84016	81491.5
1500.22882	80552.7
1503.61521	80044.9
1506.99934	80148.9
1510.38121	80160.7
1513.76081	79674.9
1517.13816	78642
1520.51324	77402
1523.88607	77012.3
1527.25665	77700.8
1530.62498	78806.3
1533.99105	79278.1
1537.35488	78800.5
1540.71647	77306.8
1544.07581	75366.4
1547.4329	73185.3
1550.78776	71051
1554.14038	69366.6
1557.49077	68161.8
1560.83892	67262.3
1564.18484	66704.6
1567.52853	66584.8
1570.86999	67215.7
1574.20922	68850.9
1577.54624	70991.9
1580.88103	72887.9
1584.2136	75162.5
1587.54395	78889.9
1590.87208	84489.8
1594.19801	91053.3
1597.52172	96838.8
1600.84321	98024.6
1604.16251	92525.1
1607.47959	83074
1610.79447	73366.5
1614.10715	65535.4
1617.41763	60024
1620.7259	56885.8
1624.03199	55637.9
1627.33587	56107.3
1630.63757	58259.1
1633.93707	62417.1
1637.23439	69442.1
1640.52951	79592.6
1643.82246	91735.5
1647.11321	100436.4
1650.40179	99886.7
1653.68819	89844.4
1656.97241	75827.7
1660.25446	63871.2
1663.53433	55898.5
1666.81203	51118.5
1670.08756	48266.8
1673.36092	46466.5
1676.63211	45325.6
1679.90115	44435.7
1683.16801	43792.1
1686.43272	43330.5
1689.69527	43067
1692.95567	42809.2
1696.2139	42635.5
1699.46999	42492.9
1702.72392	42328.2
1705.97571	42314.5
1709.22535	42225.4
1712.47284	42214.8
1715.71819	42177.4
1718.96139	42102.1
1722.20246	41958.4
1725.44139	41768.3
1728.67818	41564.5
1731.91284	41292.6
1735.14537	41062
1738.37576	40927.6
1741.60403	40834.7
1744.83017	40693.1
1748.05418	40604.7
1751.27607	40554.6
1754.49584	40468
1757.71349	40403.2
1760.92903	40387
1764.14244	40331.6
1767.35375	40394.1
1770.56294	40283.5
1773.77002	40288.1
1776.97499	40285.6
1780.17785	40239.1
1783.37861	40209.8
1786.57727	40123.7
1789.77382	40038.8
1792.96828	40005.7
1796.16064	39911.8
1799.3509	39867.2
1802.53907	39833.3
1805.72514	39677.7
1808.90913	39657.9
1812.09102	39590.6
1815.27083	39537.5
1818.44856	39525.4
1821.6242	39471
1824.79776	39432.6
1827.96924	39488
1831.13864	39459.9
1834.30597	39470.5
1837.47122	39482.8
1840.6344	39437.5
1843.7955	39491.9
1846.95454	39461.2
1850.11151	39477.8
1853.26642	39441.9
1856.41926	39442
1859.57004	39420.8
1862.71876	39391.5
1865.86542	39337.4
1869.01003	39310.6
1872.15258	39331.3
1875.29308	39321.5
1878.43152	39229.1
1881.56792	39279.5
1884.70227	39322.1
1887.83457	39287.8
1890.96482	39221.4
1894.09304	39229.3
1897.21921	39174.3
1900.34335	39122.6
1903.46544	39080
1906.58551	39104.3
1909.70353	39069.2
1912.81953	38979.8
1915.93349	38918.8
1919.04543	38724.5
1922.15534	38682.3
1925.26322	38630.5
1928.36908	38513.8
1931.47292	38414.6
1934.57473	38371.5
1937.67453	38261.5
1940.77232	38208.8
1943.86808	38099.4
1946.96184	38055.4
1950.05358	37924.5
1953.14331	37856.8
1956.23103	37744.4
1959.31675	37653.6
1962.40046	37553.8
1965.48217	37506.3
1968.56188	37415.2
1971.63959	37309.6
1974.7153	37249.5
1977.78901	37122.3
1980.86073	36980.1
1983.93046	36930.8
1986.99819	36777.1
1990.06394	36650.7
1993.1277	36633.5
1996.18947	36565.7
1999.24925	36482.6
2002.30706	36326.4
2005.36288	36286.2
2008.41672	36205.1
2011.46859	36108.9
2014.51848	36022.8
2017.56639	35995.3
2020.61233	35953.4
2023.6563	35827.9
2026.6983	35777
2029.73833	35709.4
2032.7764	35695.1
2035.8125	35647.8
2038.84664	35614
2041.87881	35572.7
2044.90903	35465.7
2047.93729	35420
2050.96359	35436.3
2053.98794	35364.7
2057.01034	35417.5
2060.03078	35365
2063.04927	35296.6
2066.06582	35340.9
2069.08042	35365.6
2072.09307	35289.6
2075.10378	35222
2078.11255	35233.1
2081.11938	35225.4
2084.12426	35189.8
2087.12722	35175.8
2090.12824	35158.1
2093.12732	35167.6
2096.12447	35176.5
2099.11969	35189.4
2102.11299	35189.8
2105.10435	35190.1
2108.09379	35273.6
2111.08131	35272.3
2114.0669	35240.6
2117.05057	35267.4
2120.03233	35270.5
2123.01216	35312.1
2125.99008	35332
2128.96609	35360.5
2131.94018	35392.1
2134.91236	35447.8
2137.88263	35498.6
2140.851	35506
2143.81746	35548
2146.78201	35559.7
2149.74466	35581.8
2152.7054	35570.8
2155.66425	35578.4
2158.6212	35573
2161.57625	35572.8
2164.52941	35581
2167.48067	35612.1
2170.43004	35601.3
2173.37752	35539
2176.32311	35481.2
2179.26681	35517.1
2182.20863	35518.1
2185.14856	35612.3
2188.08661	35603.4
2191.02278	35639.9
2193.95707	35598.4
2196.88948	35645.1
2199.82001	35663.6
2202.74867	35668.8
2205.67545	35622
2208.60037	35566.6
2211.52341	35545
2214.44458	35527.9
2217.36388	35484.3
2220.28132	35439.1
2223.1969	35409
2226.11061	35402.8
2229.02246	35261.7
2231.93245	35244
2234.84058	35240.1
2237.74686	35153
2240.65128	35207.6
2243.55385	35153
2246.45456	35036.5
2249.35343	34980.2
2252.25044	34926.4
2255.14561	34856.2
2258.03893	34849.2
2260.93041	34794.8
2263.82004	34730.5
2266.70783	34610.4
2269.59378	34552.3
2272.4779	34505.9
2275.36017	34445.4
2278.24061	34348.3
2281.11922	34324.4
2283.996	34279.3
2286.87094	34228
2289.74405	34200
2292.61534	34159.9
2295.4848	34154.8
2298.35243	34213.2
2301.21824	34214.9
2304.08223	34304.8
2306.94439	34340.5
2309.80474	34320.1
2312.66327	34254.3
2315.51999	34290.1
2318.37489	34311.5
2321.22797	34288
2324.07925	34248.6
2326.92871	34233.8
2329.77637	34214
2332.62222	34196.3
2335.46626	34159
2338.3085	34178.4
2341.14893	34185.6
2343.98756	34246.3
2346.8244	34204.6
2349.65943	34153.8
2352.49267	34105.5
2355.32411	34096.6
2358.15376	34053
2360.98161	34001.4
2363.80768	33933.2
2366.63195	33928.1
2369.45444	33942.4
2372.27514	33791.4
2375.09405	33805.9
2377.91118	33741.4
2380.72652	33657.6
2383.54009	33608.4
2386.35187	33608.3
2389.16188	33578.1
2391.97011	33560.6
2394.77657	33545.3
2397.58125	33461.6
2400.38416	33422.1
2403.18529	33374.5
2405.98466	33349.3
2408.78226	33315.9
2411.57809	33266.4
2414.37216	33212.2
2417.16446	33161.3
2419.955	33106.9
2422.74378	33122.2
2425.5308	33101
2428.31606	33072.3
2431.09956	33021.3
2433.88131	32970.9
2436.6613	33019
2439.43954	32996.9
2442.21603	32971.2
2444.99077	32943.2
2447.76377	32924.5
2450.53501	32917.5
2453.30451	32895.6
2456.07226	32908.8
2458.83827	32941.4
2461.60254	32947.2
2464.36507	32924.7
2467.12586	32947.9
2469.88492	32979.5
2472.64224	32960.9
2475.39782	32992
2478.15167	32953.4
2480.90379	32988.9
2483.65417	33014.6
2486.40283	32965.1
2489.14976	33049.9
2491.89497	33019.2
2494.63845	33009.2
2497.3802	32992.5
2500.12024	33065.9
2502.85855	33082.2
2505.59514	33045.5
2508.33002	32953.2
2511.06318	32937.4
2513.79462	32941.2
2516.52435	32894.6
2519.25237	32905
2521.97867	32909.2
2524.70327	32917.4
2527.42616	32916.2
2530.14734	32937.1
2532.86681	32886.8
2535.58458	32883.7
2538.30065	32804.1
2541.01501	32819.1
2543.72768	32807.4
2546.43864	32785.1
2549.14791	32787.6
2551.85548	32822.5
2554.56136	32801.4
2557.26554	32799.9
2559.96803	32729.9
2562.66883	32735.8
2565.36794	32661.2
2568.06536	32697.6
2570.7611	32657
2573.45514	32636.3
2576.14751	32693.8
2578.83819	32670.3
2581.52719	32608.6
2584.21451	32568.8
2586.90015	32570.2
2589.58411	32562.5
2592.2664	32528
2594.94701	32473.7
2597.62594	32479.6
2600.30321	32417.2
2602.9788	32434.7
2605.65273	32442.5
2608.32498	32449.3
2610.99557	32412.1
2613.66449	32463.6
2616.33175	32459.5
2618.99734	32420.1
2621.66128	32412.6
2624.32355	32387.2
2626.98416	32375.8
2629.64311	32382.1
2632.30041	32382.7
2634.95605	32312.6
2637.61004	32326.5
2640.26238	32295.6
2642.91306	32297.5
2645.56209	32232.7
2648.20948	32252.4
2650.85521	32210.3
2653.4993	32190.5
2656.14175	32282.4
2658.78255	32325.7
2661.42171	32307
2664.05923	32363.1
2666.6951	32319.2
2669.32934	32389.8
2671.96194	32385.5
2674.59291	32418.2
2677.22224	32278.5
2679.84993	32357.2
2682.476	32314.7
2685.10043	32340
2687.72324	32283.3
2690.34441	32291.8
2692.96396	32328.3
2695.58188	32347.2
2698.19818	32346.2
2700.81285	32320
2703.4259	32331.6
2706.03733	32363.4
2708.64714	32286.6
2711.25533	32367.9
2713.86191	32342
2716.46687	32415.7
2719.07021	32465.7
2721.67194	32429.2
2724.27206	32429.7
2726.87057	32469.8
2729.46747	32478.1
2732.06276	32514.2
2734.65644	32530
2737.24852	32559.3
2739.83899	32513.1
2742.42786	32524.6
2745.01513	32520.5
2747.60079	32488.2
2750.18486	32475.1
2752.76733	32456.7
2755.3482	32548.9
2757.92747	32531
2760.50515	32472
2763.08123	32509.1
2765.65573	32520.6
2768.22863	32530.7
2770.79994	32479.5
2773.36967	32469.5
2775.9378	32454.7
2778.50435	32429.6
2781.06932	32426
2783.6327	32441.6
2786.1945	32363.1
2788.75471	32338.5
2791.31335	32319.1
2793.87041	32260.6
2796.42589	32208.3
2798.97979	32189.4
2801.53212	32140.5
2804.08288	32104.5
2806.63206	32025.3
2809.17967	31997.5
2811.72571	31911.4
2814.27018	31902.9
2816.81308	31841.1
2819.35442	31815.6
2821.89419	31765.3
2824.43239	31756.5
2826.96904	31704.1
2829.50412	31782.5
2832.03763	31676.6
2834.56959	31658.1
2837.1	31631.8
2839.62884	31623
2842.15613	31548.8
2844.68186	31573.2
2847.20604	31569
2849.72867	31560
2852.24974	31514.6
2854.76927	31550.9
2857.28724	31506.3
2859.80367	31483.9
2862.31855	31490.9
2864.83189	31439.2
2867.34368	31469.1
2869.85393	31424.3
2872.36264	31408.3
2874.8698	31370.7
2877.37543	31446
2879.87952	31483.3
2882.38207	31518.3
2884.88308	31508.6
2887.38256	31598.2
2889.88051	31587.3
2892.37692	31629.3
2894.8718	31696.5
2897.36515	31710
2899.85698	31666.1
2902.34727	31735.8
2904.83604	31725.3
2907.32328	31776.8
2909.809	31787
2912.29319	31767.4
2914.77587	31709.7
2917.25702	31742
2919.73665	31702.8
2922.21476	31738.5
2924.69136	31712.4
2927.16644	31687.7
2929.64	31602.2
2932.11205	31613.5
2934.58258	31607.8
2937.05161	31594.8
2939.51912	31610.2
2941.98513	31630
2944.44962	31489.5
2946.91261	31375.4
2949.37409	31440.3
2951.83407	31448.6
2954.29254	31477.9
2956.74951	31428.1
2959.20498	31413.7
2961.65895	31398.6
2964.11142	31322.6
2966.56239	31287.9
2969.01186	31227.5
2971.45984	31100.2
2973.90632	31121.8
2976.35131	31052.1
2978.7948	31025.7
2981.23681	31007.5
2983.67732	30870.8
2986.11635	30812.9
2988.55388	30730.7
2990.98993	30695.2
2993.4245	30647.1
2995.85758	30578.6
2998.28917	30498.6
3000.71928	30434.2
3003.14791	30335
3005.57506	30303.1
3008.00073	30245.2
3010.42493	30243.7
3012.84764	30243.7
3015.26888	30242.5
3017.68865	30180
3020.10694	30134.1
3022.52376	30036.3
3024.9391	30000.5
3027.35298	29980.2
3029.76539	29920.8
3032.17632	29858.2
3034.5858	29869.2
3036.9938	29873.4
3039.40034	29835.8
3041.80542	29815.1
3044.20903	29763.4
3046.61118	29773.5
3049.01187	29659.6
3051.4111	29589.4
3053.80888	29622.3
3056.20519	29535.9
3058.60005	29436.5
3060.99345	29443.3
3063.3854	29402.9
3065.7759	29275.9
3068.16494	29272.6
3070.55254	29178.6
3072.93868	29176.8
3075.32338	29041.2
3077.70662	28968.1
3080.08842	28914.3
3082.46878	28898
3084.84769	28883.9
3087.22515	28881.9
3089.60118	28921.6
3091.97576	28904
3094.3489	28824.6
3096.72061	28843
3099.09087	28783.7
3101.4597	28752.9
3103.82709	28735.1
3106.19305	28726.1
3108.55757	28695.6
3110.92066	28620.4
3113.28232	28548.6
3115.64255	28497.9
3118.00134	28428.3
3120.35871	28395.2
3122.71466	28336.9
3125.06917	28270.2
3127.42226	28255.7
3129.77393	28271.8
3132.12417	28233.7
3134.47299	28245.6
3136.82039	28235.3
3139.16636	28259.3
3141.51092	28230.4
3143.85406	28227.7
3146.19579	28179.5
3148.53609	28157.3
3150.87499	28195.4
3153.21246	28190.1
3155.54853	28198.3
3157.88318	28136.8
3160.21642	28206.5
3162.54826	28090.5
3164.87868	28075.6
3167.2077	28060
3169.5353	28068.7
3171.86151	28050
3174.18631	28011.4
3176.5097	28000.6
3178.83169	27991.9
3181.15228	28017.3
3183.47147	27898.3
3185.78926	27914.2
3188.10565	27935.7
3190.42065	27919.7
3192.73424	27895.5
3195.04645	27861.2
3197.35725	27880.5
3199.66667	27834.7
3201.97469	27824.3
3204.28132	27788.6
3206.58656	27823.7
3208.8904	27792.8
3211.19287	27778.1
3213.49394	27767.1
3215.79363	27794.3
3218.09193	27808.5
3220.38884	27776.6
3222.68438	27790.2
3224.97853	27733.9
3227.2713	27722.4
3229.56269	27746.2
3231.8527	27708.3
3234.14133	27658
3236.42858	27608.6
3238.71446	27609.6
3240.99896	27516.2
3243.28209	27518.2
3245.56384	27496.5
3247.84423	27600.7
3250.12324	27532
3252.40088	27532.6
3254.67715	27494.4
3256.95205	27417.1
3259.22558	27392
3261.49775	27281.8
3263.76855	27266.5
3266.03799	27190.8
3268.30606	27198.2
3270.57277	27184.8
3272.83812	27119
3275.10211	27094.4
3277.36474	27072.5
3279.62601	27146.9
3281.88593	27080.4
3284.14448	27100.1
3286.40168	27104.9
3288.65753	27056.7
3290.91202	27027.4
3293.16516	26931.6
3295.41695	26866.3
3297.66738	26743.3
3299.91647	26646.5
3302.16421	26450.1
3304.4106	26386.7
3306.65564	26262.7
3308.89933	26087.9
3311.14169	25921.9
3313.38269	25716
3315.62236	25567.6
3317.86068	25361.2
3320.09766	25109
3322.3333	24911.3
3324.5676	24895.5
3326.80056	24524.5
3329.03219	24380.5
3331.26248	5
3333.49143	0.2
3335.71905	-0
