Data from AgNP_FTO_APTES_CRN_0uM_R6G_10uM_NaF_0.1M_Addition_RamanShift__30__12-04-42-932.txt Node

Date: Wed Dec 15 12:04:42 GMT 2021
User: TCL
Spectrometer: QEP01345
Trigger mode: 4
Integration Time (sec): 7.000000E0
Scans to average: 10
Electric dark correction enabled: true
Nonlinearity correction enabled: false
Boxcar width: 0
XAxis mode: Raman Shifts
Number of Pixels in Spectrum: 1044
>>>>>Begin Spectral Data<<<<<
46.04893	1.825
50.45542	-1.875
54.85868	-0.875
59.25871	-0.175
63.6555	63.625
68.04907	66.925
72.43941	77.925
76.82654	84.025
81.21044	86.925
85.59113	95.725
89.96862	98.925
94.34289	97.725
98.71396	104.025
103.08183	107.025
107.4465	107.225
111.80798	108.325
116.16626	111.725
120.52136	106.625
124.87327	107.425
129.222	108.725
133.56755	109.525
137.90993	112.725
142.24913	108.925
146.58517	117.325
150.91804	120.225
155.24774	129.125
159.57429	149.725
163.89768	169.225
168.21792	194.225
172.53501	243.225
176.84895	313.525
181.15975	417.825
185.46741	556.525
189.77193	747.825
194.07331	969.925
198.37157	1229.025
202.6667	1499.825
206.9587	1777.325
211.24758	2032.125
215.53334	2293.825
219.81599	2582.325
224.09553	2886.325
228.37195	3235.525
232.64527	3625.225
236.91549	4009.425
241.18261	4383.325
245.44663	4705.125
249.70755	4949.025
253.96539	5167.225
258.22014	5334.125
262.4718	5465.325
266.72039	5582.925
270.96589	5595.725
275.20832	5568.825
279.44768	5468.325
283.68397	5336.425
287.91719	5249.625
292.14735	5204.525
296.37445	5242.925
300.59849	5347.325
304.81948	5516.425
309.03742	5623.425
313.25231	5598.325
317.46415	5414.525
321.67296	5113.325
325.87872	4883.225
330.08145	4786.825
334.28114	4776.825
338.47781	4827.125
342.67145	4905.025
346.86207	5040.325
351.04966	5274.125
355.23424	5534.925
359.4158	5750.225
363.59435	5891.725
367.76989	5957.725
371.94243	5981.325
376.11196	5975.825
380.27849	5969.925
384.44203	5930.825
388.60257	5865.225
392.76012	5815.325
396.91468	5834.725
401.06626	5935.525
405.21485	6014.925
409.36047	5926.025
413.50311	5678.525
417.64277	5462.625
421.77947	5337.025
425.9132	5289.025
430.04396	5296.225
434.17176	5379.625
438.2966	5482.125
442.41849	5677.425
446.53742	5916.225
450.6534	6094.325
454.76644	6175.625
458.87653	6131.225
462.98368	6025.025
467.08789	5881.025
471.18916	5735.325
475.2875	5586.825
479.38291	5486.025
483.4754	5380.625
487.56496	5306.725
491.6516	5238.825
495.73531	5251.925
499.81612	5264.825
503.89401	5318.425
507.96899	5416.225
512.04106	5503.025
516.11023	5647.725
520.1765	5755.425
524.23987	5812.125
528.30034	5752.325
532.35792	5668.225
536.41261	5555.725
540.46441	5392.125
544.51333	5319.425
548.55936	5301.625
552.60252	5383.425
556.64279	5528.825
560.6802	5591.625
564.71473	5606.125
568.7464	5698.425
572.7752	5749.025
576.80114	5607.525
580.82422	5426.425
584.84444	5406.325
588.86181	5542.025
592.87633	5798.425
596.888	6008.325
600.89682	6061.725
604.9028	6358.425
608.90594	7550.725
612.90624	9263.925
616.90371	8998.025
620.89834	6636.525
624.89015	5425.825
628.87913	5171.625
632.86528	5136.325
636.84862	5177.025
640.82913	5128.025
644.80683	4956.225
648.78172	4863.625
652.75379	4903.425
656.72306	5103.025
660.68952	5327.825
664.65319	5274.425
668.61405	5002.525
672.57211	4879.725
676.52738	4872.925
680.47986	4885.225
684.42955	4857.725
688.37646	4835.325
692.32058	4887.125
696.26192	4920.025
700.20048	5034.025
704.13626	5083.125
708.06928	5089.825
711.99952	5051.725
715.927	5031.525
719.85171	5043.225
723.77365	5022.725
727.69284	4972.525
731.60928	4933.125
735.52295	4942.125
739.43388	4966.225
743.34206	5014.925
747.24749	5031.925
751.15017	5037.925
755.05012	5094.225
758.94733	5254.025
762.8418	5660.125
766.73354	6410.225
770.62254	7311.125
774.50882	7892.125
778.39237	7669.425
782.27321	6740.625
786.15132	5844.225
790.02671	5311.025
793.89938	5060.325
797.76935	4946.225
801.6366	4882.625
805.50115	4846.525
809.36299	4792.025
813.22213	4759.325
817.07857	4754.025
820.93231	4757.125
824.78336	4755.425
828.63172	4786.825
832.47738	4819.125
836.32036	4829.325
840.16066	4826.125
843.99827	4815.225
847.8332	4783.125
851.66546	4790.425
855.49504	4795.525
859.32195	4754.025
863.1462	4733.625
866.96777	4689.625
870.78668	4681.425
874.60293	4683.825
878.41652	4671.625
882.22745	4711.825
886.03573	4735.325
889.84136	4734.225
893.64433	4751.125
897.44466	4750.625
901.24235	4786.925
905.0374	4801.825
908.8298	4851.325
912.61957	4876.625
916.40671	4951.325
920.19121	5016.925
923.97308	5090.425
927.75233	5158.025
931.52895	5206.425
935.30295	5145.725
939.07433	5028.825
942.84309	4904.025
946.60924	4806.025
950.37278	4742.225
954.13371	4705.825
957.89203	4645.325
961.64774	4606.125
965.40086	4577.825
969.15137	4547.425
972.89929	4537.525
976.64461	4541.625
980.38733	4525.625
984.12747	4543.925
987.86502	4543.625
991.59999	4577.125
995.33237	4627.125
999.06217	4704.225
1002.78939	4803.425
1006.51404	4880.925
1010.23611	4945.925
1013.95561	4994.225
1017.67255	4948.125
1021.38692	4845.925
1025.09872	4749.425
1028.80796	4671.825
1032.51465	4700.225
1036.21877	4770.525
1039.92035	4872.725
1043.61937	4942.425
1047.31584	4952.225
1051.00976	4959.425
1054.70114	4925.825
1058.38998	4921.825
1062.07627	4929.825
1065.76003	4939.925
1069.44126	4997.725
1073.11995	5104.225
1076.79611	5245.825
1080.46974	5346.125
1084.14085	5363.825
1087.80943	5320.025
1091.47549	5239.425
1095.13903	5058.425
1098.80005	4850.325
1102.45857	4661.425
1106.11456	4596.125
1109.76805	4610.225
1113.41903	4708.725
1117.06751	4844.125
1120.71348	5012.625
1124.35696	5170.125
1127.99793	5302.625
1131.63641	5331.225
1135.2724	5111.525
1138.90589	4853.225
1142.5369	4708.225
1146.16542	4608.625
1149.79145	4545.625
1153.415	4536.225
1157.03607	4566.925
1160.65467	4659.525
1164.27079	4842.125
1167.88443	5146.525
1171.49561	5634.925
1175.10432	6373.425
1178.71056	7360.825
1182.31434	8155.325
1185.91565	8400.125
1189.51451	8158.925
1193.11091	7630.025
1196.70485	7047.125
1200.29634	6473.925
1203.88538	6017.825
1207.47197	5541.625
1211.05612	5186.625
1214.63782	5052.725
1218.21708	5062.425
1221.79391	5137.425
1225.36829	5175.725
1228.94024	5164.225
1232.50976	5091.825
1236.07685	4995.225
1239.6415	4963.125
1243.20374	4942.125
1246.76355	4942.825
1250.32093	4972.325
1253.8759	5073.025
1257.42845	5187.125
1260.97859	5346.125
1264.52631	5546.825
1268.07163	5718.325
1271.61453	5861.225
1275.15503	5973.725
1278.69312	6060.625
1282.22882	6115.825
1285.76211	6295.925
1289.29301	6575.225
1292.82151	6857.925
1296.34761	7175.525
1299.87133	7538.725
1303.39266	8073.525
1306.9116	8893.725
1310.42815	9831.725
1313.94233	10482.925
1317.45412	10347.625
1320.96354	9523.825
1324.47058	8611.425
1327.97525	7815.325
1331.47754	7357.925
1334.97747	7210.925
1338.47502	7268.025
1341.97022	7361.825
1345.46305	7571.525
1348.95352	8058.925
1352.44163	8913.625
1355.92738	10082.225
1359.41078	11572.025
1362.89183	12869.825
1366.37053	12862.225
1369.84688	11193.425
1373.32088	9300.825
1376.79254	7956.325
1380.26186	7225.325
1383.72883	6809.325
1387.19347	6517.925
1390.65578	6225.125
1394.11575	6022.525
1397.57339	5916.325
1401.0287	5882.325
1404.48168	5893.825
1407.93234	5907.725
1411.38068	5881.925
1414.82669	5832.625
1418.27039	5721.825
1421.71177	5627.425
1425.15083	5529.125
1428.58758	5527.125
1432.02203	5597.425
1435.45416	5687.025
1438.88399	5761.125
1442.31151	5757.825
1445.73673	5734.725
1449.15965	5718.325
1452.58027	5635.725
1455.9986	5506.625
1459.41463	5444.525
1462.82837	5479.225
1466.23982	5593.425
1469.64898	5749.725
1473.05586	5844.625
1476.46045	5889.325
1479.86276	5952.025
1483.26279	5981.425
1486.66054	6027.925
1490.05602	6137.025
1493.44922	6248.725
1496.84016	6492.925
1500.22882	6997.225
1503.61521	7778.125
1506.99934	8729.325
1510.38121	9661.725
1513.76081	10124.825
1517.13816	9731.225
1520.51324	8595.425
1523.88607	7438.425
1527.25665	6712.725
1530.62498	6341.625
1533.99105	6180.525
1537.35488	6071.225
1540.71647	5930.025
1544.07581	5881.725
1547.4329	5780.425
1550.78776	5706.225
1554.14038	5636.525
1557.49077	5596.925
1560.83892	5646.425
1564.18484	5782.225
1567.52853	5992.325
1570.86999	6298.025
1574.20922	6628.125
1577.54624	6842.625
1580.88103	6709.825
1584.2136	6261.325
1587.54395	5872.525
1590.87208	5764.425
1594.19801	6036.925
1597.52172	6484.225
1600.84321	6800.625
1604.16251	6639.925
1607.47959	6117.025
1610.79447	5538.725
1614.10715	4999.725
1617.41763	4602.025
1620.7259	4378.725
1624.03199	4255.925
1627.33587	4272.425
1630.63757	4336.525
1633.93707	4521.025
1637.23439	4909.025
1640.52951	5478.125
1643.82246	6276.625
1647.11321	7136.725
1650.40179	7650.125
1653.68819	7353.925
1656.97241	6340.025
1660.25446	5226.925
1663.53433	4433.825
1666.81203	3987.725
1670.08756	3735.525
1673.36092	3557.725
1676.63211	3458.625
1679.90115	3402.125
1683.16801	3334.725
1686.43272	3305.425
1689.69527	3258.625
1692.95567	3253.225
1696.2139	3228.425
1699.46999	3195.125
1702.72392	3194.125
1705.97571	3174.725
1709.22535	3169.025
1712.47284	3156.025
1715.71819	3168.825
1718.96139	3162.725
1722.20246	3149.225
1725.44139	3131.725
1728.67818	3088.925
1731.91284	3062.925
1735.14537	3016.825
1738.37576	2998.225
1741.60403	2969.325
1744.83017	2970.025
1748.05418	2947.425
1751.27607	2939.725
1754.49584	2914.025
1757.71349	2907.625
1760.92903	2889.225
1764.14244	2898.525
1767.35375	2890.025
1770.56294	2867.225
1773.77002	2857.725
1776.97499	2842.225
1780.17785	2859.125
1783.37861	2845.925
1786.57727	2839.225
1789.77382	2827.025
1792.96828	2828.625
1796.16064	2821.525
1799.3509	2808.725
1802.53907	2793.725
1805.72514	2782.925
1808.90913	2785.425
1812.09102	2763.725
1815.27083	2755.225
1818.44856	2748.925
1821.6242	2749.025
1824.79776	2739.525
1827.96924	2731.725
1831.13864	2732.825
1834.30597	2720.925
1837.47122	2724.625
1840.6344	2716.025
1843.7955	2712.225
1846.95454	2703.425
1850.11151	2699.525
1853.26642	2691.025
1856.41926	2684.625
1859.57004	2683.725
1862.71876	2692.025
1865.86542	2674.425
1869.01003	2670.925
1872.15258	2677.125
1875.29308	2686.125
1878.43152	2672.725
1881.56792	2665.525
1884.70227	2667.025
1887.83457	2669.025
1890.96482	2669.625
1894.09304	2676.725
1897.21921	2679.425
1900.34335	2667.125
1903.46544	2668.725
1906.58551	2671.325
1909.70353	2663.025
1912.81953	2678.625
1915.93349	2672.025
1919.04543	2653.225
1922.15534	2650.925
1925.26322	2635.625
1928.36908	2629.325
1931.47292	2631.025
1934.57473	2609.425
1937.67453	2600.825
1940.77232	2582.025
1943.86808	2570.225
1946.96184	2559.825
1950.05358	2554.025
1953.14331	2542.925
1956.23103	2522.525
1959.31675	2527.025
1962.40046	2521.925
1965.48217	2504.725
1968.56188	2490.225
1971.63959	2491.725
1974.7153	2481.525
1977.78901	2463.825
1980.86073	2470.525
1983.93046	2441.025
1986.99819	2440.425
1990.06394	2431.325
1993.1277	2416.625
1996.18947	2414.625
1999.24925	2410.125
2002.30706	2396.825
2005.36288	2387.425
2008.41672	2379.625
2011.46859	2374.525
2014.51848	2375.625
2017.56639	2368.325
2020.61233	2344.225
2023.6563	2342.425
2026.6983	2339.525
2029.73833	2333.125
2032.7764	2326.125
2035.8125	2325.525
2038.84664	2303.125
2041.87881	2301.625
2044.90903	2292.525
2047.93729	2295.725
2050.96359	2279.325
2053.98794	2289.325
2057.01034	2285.225
2060.03078	2275.825
2063.04927	2275.825
2066.06582	2288.325
2069.08042	2272.925
2072.09307	2270.725
2075.10378	2260.625
2078.11255	2265.625
2081.11938	2262.025
2084.12426	2261.925
2087.12722	2254.725
2090.12824	2265.425
2093.12732	2265.125
2096.12447	2262.225
2099.11969	2259.025
2102.11299	2255.225
2105.10435	2261.125
2108.09379	2257.525
2111.08131	2257.025
2114.0669	2261.425
2117.05057	2247.525
2120.03233	2255.025
2123.01216	2262.125
2125.99008	2257.625
2128.96609	2260.925
2131.94018	2256.625
2134.91236	2255.125
2137.88263	2254.525
2140.851	2250.825
2143.81746	2260.425
2146.78201	2254.625
2149.74466	2267.625
2152.7054	2248.225
2155.66425	2255.825
2158.6212	2248.025
2161.57625	2241.725
2164.52941	2237.725
2167.48067	2238.525
2170.43004	2237.925
2173.37752	2235.925
2176.32311	2233.825
2179.26681	2235.225
2182.20863	2236.525
2185.14856	2234.625
2188.08661	2227.725
2191.02278	2235.425
2193.95707	2236.825
2196.88948	2235.925
2199.82001	2230.425
2202.74867	2227.825
2205.67545	2216.925
2208.60037	2207.525
2211.52341	2211.525
2214.44458	2195.825
2217.36388	2195.825
2220.28132	2198.225
2223.1969	2182.925
2226.11061	2179.025
2229.02246	2181.525
2231.93245	2161.925
2234.84058	2160.125
2237.74686	2145.625
2240.65128	2161.125
2243.55385	2157.625
2246.45456	2149.725
2249.35343	2144.025
2252.25044	2134.125
2255.14561	2142.525
2258.03893	2147.425
2260.93041	2131.925
2263.82004	2125.325
2266.70783	2127.725
2269.59378	2116.425
2272.4779	2113.425
2275.36017	2096.625
2278.24061	2109.725
2281.11922	2089.125
2283.996	2089.725
2286.87094	2084.325
2289.74405	2074.825
2292.61534	2055.825
2295.4848	2061.325
2298.35243	2075.025
2301.21824	2050.625
2304.08223	2050.225
2306.94439	2054.625
2309.80474	2049.225
2312.66327	2046.125
2315.51999	2037.925
2318.37489	2036.125
2321.22797	2039.625
2324.07925	2029.925
2326.92871	2037.725
2329.77637	2031.725
2332.62222	2031.225
2335.46626	2031.325
2338.3085	2027.725
2341.14893	2020.525
2343.98756	2012.225
2346.8244	2014.725
2349.65943	2017.925
2352.49267	2009.125
2355.32411	2023.125
2358.15376	2023.525
2360.98161	2021.625
2363.80768	2018.525
2366.63195	2032.125
2369.45444	2022.525
2372.27514	2021.525
2375.09405	2026.825
2377.91118	2014.425
2380.72652	2004.925
2383.54009	1999.225
2386.35187	1993.025
2389.16188	1997.925
2391.97011	1983.025
2394.77657	1974.525
2397.58125	1963.125
2400.38416	1959.125
2403.18529	1959.825
2405.98466	1950.625
2408.78226	1951.625
2411.57809	1937.225
2414.37216	1932.025
2417.16446	1929.625
2419.955	1933.825
2422.74378	1939.025
2425.5308	1925.425
2428.31606	1932.725
2431.09956	1928.025
2433.88131	1922.825
2436.6613	1922.625
2439.43954	1924.225
2442.21603	1919.725
2444.99077	1912.025
2447.76377	1910.325
2450.53501	1921.025
2453.30451	1911.225
2456.07226	1919.125
2458.83827	1919.425
2461.60254	1916.925
2464.36507	1913.925
2467.12586	1902.025
2469.88492	1901.825
2472.64224	1898.025
2475.39782	1901.325
2478.15167	1905.025
2480.90379	1906.925
2483.65417	1918.725
2486.40283	1912.625
2489.14976	1915.125
2491.89497	1915.325
2494.63845	1924.525
2497.3802	1916.325
2500.12024	1915.125
2502.85855	1907.025
2505.59514	1908.625
2508.33002	1900.325
2511.06318	1887.825
2513.79462	1880.925
2516.52435	1868.625
2519.25237	1872.325
2521.97867	1863.925
2524.70327	1859.425
2527.42616	1856.525
2530.14734	1851.725
2532.86681	1859.825
2535.58458	1845.125
2538.30065	1855.925
2541.01501	1855.825
2543.72768	1860.525
2546.43864	1852.125
2549.14791	1857.925
2551.85548	1859.325
2554.56136	1845.625
2557.26554	1839.225
2559.96803	1844.925
2562.66883	1840.325
2565.36794	1836.125
2568.06536	1848.125
2570.7611	1830.325
2573.45514	1839.125
2576.14751	1836.325
2578.83819	1822.925
2581.52719	1832.225
2584.21451	1823.725
2586.90015	1826.625
2589.58411	1821.125
2592.2664	1818.325
2594.94701	1815.225
2597.62594	1813.625
2600.30321	1806.525
2602.9788	1823.625
2605.65273	1803.925
2608.32498	1804.425
2610.99557	1796.825
2613.66449	1805.225
2616.33175	1808.425
2618.99734	1803.125
2621.66128	1798.425
2624.32355	1805.125
2626.98416	1794.925
2629.64311	1804.125
2632.30041	1791.425
2634.95605	1802.925
2637.61004	1798.025
2640.26238	1791.325
2642.91306	1802.725
2645.56209	1800.025
2648.20948	1783.125
2650.85521	1796.925
2653.4993	1794.225
2656.14175	1812.125
2658.78255	1805.725
2661.42171	1817.725
2664.05923	1818.025
2666.6951	1826.425
2669.32934	1827.725
2671.96194	1831.025
2674.59291	1832.525
2677.22224	1825.725
2679.84993	1834.925
2682.476	1834.825
2685.10043	1826.125
2687.72324	1835.525
2690.34441	1834.725
2692.96396	1843.925
2695.58188	1849.825
2698.19818	1848.425
2700.81285	1859.825
2703.4259	1864.725
2706.03733	1860.525
2708.64714	1864.425
2711.25533	1889.525
2713.86191	1887.525
2716.46687	1906.125
2719.07021	1921.725
2721.67194	1919.925
2724.27206	1929.025
2726.87057	1943.025
2729.46747	1942.025
2732.06276	1967.625
2734.65644	1976.025
2737.24852	1981.225
2739.83899	1989.125
2742.42786	1997.325
2745.01513	2020.325
2747.60079	2039.425
2750.18486	2036.625
2752.76733	2062.725
2755.3482	2065.425
2757.92747	2075.325
2760.50515	2085.925
2763.08123	2097.425
2765.65573	2101.125
2768.22863	2124.625
2770.79994	2132.625
2773.36967	2150.125
2775.9378	2166.825
2778.50435	2165.725
2781.06932	2185.125
2783.6327	2196.425
2786.1945	2207.525
2788.75471	2237.625
2791.31335	2238.125
2793.87041	2256.925
2796.42589	2265.125
2798.97979	2290.525
2801.53212	2320.925
2804.08288	2338.725
2806.63206	2348.125
2809.17967	2368.825
2811.72571	2377.425
2814.27018	2402.625
2816.81308	2420.825
2819.35442	2429.325
2821.89419	2434.025
2824.43239	2441.525
2826.96904	2447.925
2829.50412	2456.725
2832.03763	2452.825
2834.56959	2466.425
2837.1	2459.625
2839.62884	2500.525
2842.15613	2535.825
2844.68186	2587.925
2847.20604	2649.225
2849.72867	2721.225
2852.24974	2723.725
2854.76927	2749.625
2857.28724	2746.125
2859.80367	2747.325
2862.31855	2748.825
2864.83189	2748.825
2867.34368	2733.225
2869.85393	2725.325
2872.36264	2716.825
2874.8698	2713.625
2877.37543	2716.325
2879.87952	2702.325
2882.38207	2686.925
2884.88308	2690.025
2887.38256	2699.325
2889.88051	2683.225
2892.37692	2681.825
2894.8718	2676.225
2897.36515	2660.725
2899.85698	2660.925
2902.34727	2652.325
2904.83604	2633.125
2907.32328	2645.125
2909.809	2635.325
2912.29319	2642.425
2914.77587	2620.725
2917.25702	2612.225
2919.73665	2604.025
2922.21476	2597.125
2924.69136	2607.025
2927.16644	2585.525
2929.64	2567.125
2932.11205	2544.925
2934.58258	2510.625
2937.05161	2496.425
2939.51912	2445.825
2941.98513	2388.025
2944.44962	2334.025
2946.91261	2272.525
2949.37409	2220.325
2951.83407	2175.225
2954.29254	2128.525
2956.74951	2085.425
2959.20498	2051.025
2961.65895	2022.225
2964.11142	2005.825
2966.56239	1958.525
2969.01186	1940.125
2971.45984	1913.525
2973.90632	1899.725
2976.35131	1855.025
2978.7948	1850.525
2981.23681	1823.525
2983.67732	1807.525
2986.11635	1792.125
2988.55388	1769.425
2990.98993	1743.825
2993.4245	1736.025
2995.85758	1735.125
2998.28917	1720.925
3000.71928	1706.525
3003.14791	1698.325
3005.57506	1689.525
3008.00073	1690.425
3010.42493	1677.825
3012.84764	1678.425
3015.26888	1676.225
3017.68865	1668.825
3020.10694	1674.725
3022.52376	1664.725
3024.9391	1666.525
3027.35298	1658.125
3029.76539	1660.025
3032.17632	1658.125
3034.5858	1651.725
3036.9938	1648.525
3039.40034	1649.825
3041.80542	1648.325
3044.20903	1647.225
3046.61118	1652.025
3049.01187	1648.325
3051.4111	1645.725
3053.80888	1641.725
3056.20519	1649.225
3058.60005	1638.025
3060.99345	1647.425
3063.3854	1654.325
3065.7759	1654.725
3068.16494	1652.225
3070.55254	1656.425
3072.93868	1654.725
3075.32338	1652.925
3077.70662	1657.425
3080.08842	1628.625
3082.46878	1649.825
3084.84769	1643.925
3087.22515	1645.725
3089.60118	1656.725
3091.97576	1649.225
3094.3489	1648.325
3096.72061	1652.925
3099.09087	1655.325
3101.4597	1652.325
3103.82709	1676.025
3106.19305	1664.425
3108.55757	1666.625
3110.92066	1664.725
3113.28232	1660.225
3115.64255	1665.925
3118.00134	1675.725
3120.35871	1671.225
3122.71466	1674.425
3125.06917	1687.925
3127.42226	1689.425
3129.77393	1698.625
3132.12417	1706.125
3134.47299	1716.125
3136.82039	1723.125
3139.16636	1726.925
3141.51092	1737.125
3143.85406	1743.225
3146.19579	1747.025
3148.53609	1761.325
3150.87499	1776.925
3153.21246	1777.025
3155.54853	1777.225
3157.88318	1788.625
3160.21642	1797.125
3162.54826	1809.525
3164.87868	1805.025
3167.2077	1812.025
3169.5353	1816.625
3171.86151	1827.025
3174.18631	1832.825
3176.5097	1833.225
3178.83169	1831.825
3181.15228	1843.125
3183.47147	1850.025
3185.78926	1856.225
3188.10565	1862.425
3190.42065	1869.525
3192.73424	1877.125
3195.04645	1885.125
3197.35725	1885.925
3199.66667	1886.625
3201.97469	1889.125
3204.28132	1886.325
3206.58656	1909.525
3208.8904	1903.025
3211.19287	1915.725
3213.49394	1924.725
3215.79363	1922.325
3218.09193	1927.125
3220.38884	1926.825
3222.68438	1935.125
3224.97853	1930.225
3227.2713	1941.625
3229.56269	1941.725
3231.8527	1954.525
3234.14133	1942.025
