Data from AgNP_FTO_APTES_CRN_500uM_R6G_10uM_NaF_0.1M_Addition_RamanShift__15__20-21-08-229.txt Node

Date: Wed Dec 15 20:21:08 GMT 2021
User: TCL
Spectrometer: QEP01345
Trigger mode: 4
Integration Time (sec): 7.000000E0
Scans to average: 10
Electric dark correction enabled: true
Nonlinearity correction enabled: false
Boxcar width: 0
XAxis mode: Raman Shifts
Number of Pixels in Spectrum: 1044
>>>>>Begin Spectral Data<<<<<
46.04893	0.0125
50.45542	-2.1875
54.85868	0.0125
59.25871	-0.7875
63.6555	51.3125
68.04907	57.5125
72.43941	58.4125
76.82654	59.4125
81.21044	62.9125
85.59113	66.5125
89.96862	72.8125
94.34289	69.1125
98.71396	77.5125
103.08183	82.0125
107.4465	83.4125
111.80798	81.5125
116.16626	81.4125
120.52136	85.8125
124.87327	84.4125
129.222	88.9125
133.56755	89.7125
137.90993	97.9125
142.24913	107.0125
146.58517	117.9125
150.91804	128.6125
155.24774	153.1125
159.57429	186.9125
163.89768	235.7125
168.21792	300.3125
172.53501	410.9125
176.84895	568.5125
181.15975	798.4125
185.46741	1114.4125
189.77193	1541.2125
194.07331	2075.1125
198.37157	2668.6125
202.6667	3313.3125
206.9587	3954.8125
211.24758	4586.8125
215.53334	5200.3125
219.81599	5829.0125
224.09553	6534.9125
228.37195	7280.9125
232.64527	8142.9125
236.91549	9038.5125
241.18261	9980.1125
245.44663	10873.3125
249.70755	11697.9125
253.96539	12401.1125
258.22014	13011.8125
262.4718	13460.7125
266.72039	13783.1125
270.96589	13943.1125
275.20832	13940.2125
279.44768	13919.7125
283.68397	13784.7125
287.91719	13680.5125
292.14735	13576.6125
296.37445	13533.5125
300.59849	13446.3125
304.81948	13376.4125
309.03742	13308.2125
313.25231	13186.7125
317.46415	13002.1125
321.67296	12828.2125
325.87872	12666.6125
330.08145	12602.6125
334.28114	12640.2125
338.47781	12767.1125
342.67145	12848.0125
346.86207	13033.8125
351.04966	13174.2125
355.23424	13337.7125
359.4158	13449.9125
363.59435	13606.4125
367.76989	13675.6125
371.94243	13790.5125
376.11196	13857.2125
380.27849	13918.9125
384.44203	14007.0125
388.60257	14122.8125
392.76012	14213.4125
396.91468	14393.1125
401.06626	14525.0125
405.21485	14714.4125
409.36047	14759.9125
413.50311	14706.8125
417.64277	14624.8125
421.77947	14625.6125
425.9132	14689.1125
430.04396	14789.7125
434.17176	14856.8125
438.2966	15002.0125
442.41849	15134.0125
446.53742	15277.5125
450.6534	15460.2125
454.76644	15607.7125
458.87653	15747.9125
462.98368	15790.6125
467.08789	15792.7125
471.18916	15811.3125
475.2875	15771.9125
479.38291	15738.9125
483.4754	15698.3125
487.56496	15652.5125
491.6516	15613.9125
495.73531	15542.0125
499.81612	15467.4125
503.89401	15547.1125
507.96899	15610.6125
512.04106	15622.4125
516.11023	15664.7125
520.1765	15593.1125
524.23987	15621.8125
528.30034	15571.3125
532.35792	15539.1125
536.41261	15476.5125
540.46441	15422.2125
544.51333	15483.2125
548.55936	15571.0125
552.60252	15734.3125
556.64279	15921.7125
560.6802	16017.4125
564.71473	16088.0125
568.7464	16203.7125
572.7752	16389.4125
576.80114	16593.2125
580.82422	16774.6125
584.84444	16920.0125
588.86181	16930.9125
592.87633	16890.9125
596.888	16830.8125
600.89682	16877.2125
604.9028	17082.8125
608.90594	17642.3125
612.90624	18205.6125
616.90371	17641.5125
620.89834	16399.8125
624.89015	15864.7125
628.87913	15771.8125
632.86528	15862.8125
636.84862	15964.0125
640.82913	15919.3125
644.80683	15749.6125
648.78172	15692.2125
652.75379	15630.9125
656.72306	15695.3125
660.68952	15811.3125
664.65319	15861.7125
668.61405	15811.3125
672.57211	15807.8125
676.52738	15837.6125
680.47986	15923.6125
684.42955	15902.9125
688.37646	15915.6125
692.32058	15905.9125
696.26192	15955.9125
700.20048	16015.8125
704.13626	16088.7125
708.06928	16162.8125
711.99952	16150.2125
715.927	16120.2125
719.85171	16086.8125
723.77365	16015.5125
727.69284	15946.6125
731.60928	15864.2125
735.52295	15774.6125
739.43388	15772.1125
743.34206	15791.6125
747.24749	15799.0125
751.15017	15853.5125
755.05012	15941.5125
758.94733	16146.1125
762.8418	16531.2125
766.73354	17120.3125
770.62254	17661.5125
774.50882	17744.8125
778.39237	17344.7125
782.27321	16822.3125
786.15132	16321.4125
790.02671	15997.0125
793.89938	15801.1125
797.76935	15729.1125
801.6366	15673.5125
805.50115	15677.8125
809.36299	15618.9125
813.22213	15609.4125
817.07857	15597.6125
820.93231	15621.1125
824.78336	15630.5125
828.63172	15640.3125
832.47738	15616.4125
836.32036	15604.1125
840.16066	15627.6125
843.99827	15583.7125
847.8332	15601.9125
851.66546	15595.6125
855.49504	15599.5125
859.32195	15609.9125
863.1462	15658.0125
866.96777	15613.4125
870.78668	15615.3125
874.60293	15645.0125
878.41652	15644.1125
882.22745	15678.8125
886.03573	15697.1125
889.84136	15733.7125
893.64433	15722.6125
897.44466	15709.7125
901.24235	15667.3125
905.0374	15647.2125
908.8298	15654.9125
912.61957	15685.7125
916.40671	15749.8125
920.19121	15816.0125
923.97308	15852.3125
927.75233	15828.3125
931.52895	15758.5125
935.30295	15689.9125
939.07433	15544.2125
942.84309	15453.6125
946.60924	15378.4125
950.37278	15319.8125
954.13371	15299.6125
957.89203	15262.6125
961.64774	15250.1125
965.40086	15249.1125
969.15137	15205.5125
972.89929	15158.9125
976.64461	15171.0125
980.38733	15115.9125
984.12747	15134.9125
987.86502	15151.1125
991.59999	15197.6125
995.33237	15202.0125
999.06217	15286.3125
1002.78939	15373.1125
1006.51404	15487.3125
1010.23611	15566.0125
1013.95561	15638.6125
1017.67255	15646.6125
1021.38692	15638.5125
1025.09872	15575.4125
1028.80796	15533.0125
1032.51465	15464.7125
1036.21877	15485.2125
1039.92035	15514.8125
1043.61937	15580.9125
1047.31584	15634.1125
1051.00976	15681.4125
1054.70114	15789.2125
1058.38998	15870.5125
1062.07627	16034.7125
1065.76003	16225.2125
1069.44126	16410.3125
1073.11995	16561.6125
1076.79611	16658.0125
1080.46974	16669.1125
1084.14085	16553.4125
1087.80943	16472.0125
1091.47549	16467.9125
1095.13903	16446.8125
1098.80005	16406.9125
1102.45857	16252.1125
1106.11456	16068.2125
1109.76805	15926.4125
1113.41903	15880.6125
1117.06751	15875.9125
1120.71348	15946.9125
1124.35696	16042.6125
1127.99793	16182.7125
1131.63641	16271.2125
1135.2724	16175.5125
1138.90589	16098.4125
1142.5369	16086.2125
1146.16542	16044.4125
1149.79145	16109.0125
1153.415	16163.4125
1157.03607	16238.7125
1160.65467	16326.4125
1164.27079	16542.9125
1167.88443	16864.5125
1171.49561	17244.8125
1175.10432	17701.1125
1178.71056	18326.5125
1182.31434	18912.0125
1185.91565	19348.4125
1189.51451	19492.3125
1193.11091	19482.1125
1196.70485	19265.2125
1200.29634	18927.9125
1203.88538	18497.8125
1207.47197	18157.7125
1211.05612	17921.0125
1214.63782	17696.9125
1218.21708	17494.3125
1221.79391	17270.0125
1225.36829	17098.3125
1228.94024	17028.8125
1232.50976	16989.3125
1236.07685	16973.0125
1239.6415	17003.6125
1243.20374	17021.2125
1246.76355	17077.5125
1250.32093	17185.0125
1253.8759	17299.6125
1257.42845	17540.7125
1260.97859	17725.8125
1264.52631	17892.7125
1268.07163	18042.7125
1271.61453	18195.0125
1275.15503	18403.1125
1278.69312	18584.6125
1282.22882	18707.6125
1285.76211	18846.1125
1289.29301	19131.8125
1292.82151	19395.3125
1296.34761	19763.4125
1299.87133	20140.7125
1303.39266	20559.3125
1306.9116	20948.5125
1310.42815	21348.5125
1313.94233	21530.2125
1317.45412	21528.7125
1320.96354	21454.7125
1324.47058	21449.1125
1327.97525	21398.8125
1331.47754	21458.9125
1334.97747	21557.1125
1338.47502	21815.4125
1341.97022	22103.5125
1345.46305	22410.9125
1348.95352	22639.1125
1352.44163	22628.0125
1355.92738	22519.0125
1359.41078	22510.3125
1362.89183	22537.4125
1366.37053	22114.8125
1369.84688	21186.8125
1373.32088	20132.3125
1376.79254	19335.1125
1380.26186	18943.4125
1383.72883	18735.3125
1387.19347	18591.0125
1390.65578	18452.0125
1394.11575	18350.8125
1397.57339	18180.2125
1401.0287	18103.4125
1404.48168	18019.7125
1407.93234	17952.9125
1411.38068	17785.2125
1414.82669	17567.5125
1418.27039	17256.1125
1421.71177	16965.7125
1425.15083	16655.5125
1428.58758	16529.9125
1432.02203	16460.7125
1435.45416	16527.5125
1438.88399	16609.6125
1442.31151	16689.4125
1445.73673	16802.4125
1449.15965	16902.3125
1452.58027	17058.8125
1455.9986	17186.9125
1459.41463	17302.3125
1462.82837	17469.3125
1466.23982	17684.1125
1469.64898	17857.5125
1473.05586	18022.2125
1476.46045	18131.5125
1479.86276	18153.7125
1483.26279	18151.9125
1486.66054	18213.4125
1490.05602	18331.6125
1493.44922	18550.5125
1496.84016	18883.3125
1500.22882	19342.5125
1503.61521	19944.8125
1506.99934	20509.9125
1510.38121	20887.2125
1513.76081	20864.3125
1517.13816	20582.4125
1520.51324	20123.7125
1523.88607	19765.9125
1527.25665	19510.5125
1530.62498	19350.8125
1533.99105	19209.1125
1537.35488	19024.5125
1540.71647	18807.2125
1544.07581	18574.5125
1547.4329	18317.5125
1550.78776	18134.9125
1554.14038	18018.8125
1557.49077	17961.5125
1560.83892	18005.9125
1564.18484	18065.8125
1567.52853	18180.3125
1570.86999	18311.8125
1574.20922	18445.3125
1577.54624	18589.7125
1580.88103	18626.0125
1584.2136	18517.4125
1587.54395	18407.1125
1590.87208	18387.6125
1594.19801	18478.7125
1597.52172	18704.8125
1600.84321	18734.9125
1604.16251	18498.5125
1607.47959	18136.8125
1610.79447	17651.1125
1614.10715	17103.8125
1617.41763	16577.9125
1620.7259	16135.4125
1624.03199	15831.6125
1627.33587	15692.1125
1630.63757	15707.0125
1633.93707	15903.3125
1637.23439	16311.7125
1640.52951	16984.5125
1643.82246	17810.0125
1647.11321	18688.4125
1650.40179	19213.1125
1653.68819	19095.0125
1656.97241	18277.9125
1660.25446	17217.0125
1663.53433	16242.2125
1666.81203	15487.0125
1670.08756	14931.1125
1673.36092	14534.0125
1676.63211	14294.6125
1679.90115	14112.1125
1683.16801	13981.7125
1686.43272	13908.9125
1689.69527	13796.6125
1692.95567	13724.3125
1696.2139	13728.7125
1699.46999	13688.1125
1702.72392	13674.5125
1705.97571	13637.1125
1709.22535	13599.0125
1712.47284	13575.9125
1715.71819	13598.9125
1718.96139	13549.3125
1722.20246	13501.4125
1725.44139	13481.6125
1728.67818	13458.5125
1731.91284	13356.3125
1735.14537	13329.8125
1738.37576	13290.5125
1741.60403	13273.0125
1744.83017	13247.3125
1748.05418	13227.2125
1751.27607	13190.2125
1754.49584	13185.2125
1757.71349	13187.3125
1760.92903	13213.8125
1764.14244	13146.4125
1767.35375	13163.8125
1770.56294	13140.1125
1773.77002	13135.5125
1776.97499	13098.7125
1780.17785	13034.5125
1783.37861	13028.9125
1786.57727	12988.0125
1789.77382	12961.3125
1792.96828	12928.5125
1796.16064	12884.0125
1799.3509	12868.7125
1802.53907	12832.8125
1805.72514	12786.7125
1808.90913	12775.2125
1812.09102	12763.8125
1815.27083	12717.1125
1818.44856	12716.0125
1821.6242	12707.1125
1824.79776	12668.9125
1827.96924	12656.2125
1831.13864	12658.1125
1834.30597	12630.4125
1837.47122	12635.4125
1840.6344	12603.2125
1843.7955	12588.0125
1846.95454	12597.0125
1850.11151	12565.8125
1853.26642	12545.2125
1856.41926	12550.5125
1859.57004	12543.1125
1862.71876	12527.9125
1865.86542	12512.2125
1869.01003	12531.6125
1872.15258	12470.3125
1875.29308	12490.4125
1878.43152	12423.8125
1881.56792	12403.6125
1884.70227	12399.0125
1887.83457	12403.0125
1890.96482	12365.8125
1894.09304	12371.9125
1897.21921	12341.3125
1900.34335	12329.0125
1903.46544	12294.1125
1906.58551	12285.0125
1909.70353	12271.3125
1912.81953	12237.9125
1915.93349	12222.8125
1919.04543	12203.2125
1922.15534	12159.3125
1925.26322	12157.0125
1928.36908	12153.0125
1931.47292	12112.5125
1934.57473	12113.0125
1937.67453	12053.0125
1940.77232	12043.1125
1943.86808	12004.9125
1946.96184	11967.2125
1950.05358	11939.4125
1953.14331	11889.2125
1956.23103	11851.3125
1959.31675	11837.8125
1962.40046	11802.9125
1965.48217	11773.0125
1968.56188	11726.4125
1971.63959	11685.5125
1974.7153	11649.1125
1977.78901	11616.2125
1980.86073	11562.2125
1983.93046	11541.8125
1986.99819	11514.6125
1990.06394	11495.5125
1993.1277	11431.2125
1996.18947	11426.2125
1999.24925	11362.4125
2002.30706	11327.9125
2005.36288	11308.8125
2008.41672	11242.0125
2011.46859	11217.5125
2014.51848	11202.5125
2017.56639	11175.9125
2020.61233	11141.7125
2023.6563	11141.5125
2026.6983	11091.9125
2029.73833	11050.6125
2032.7764	11031.0125
2035.8125	11021.3125
2038.84664	10949.1125
2041.87881	10937.9125
2044.90903	10883.5125
2047.93729	10871.9125
2050.96359	10880.1125
2053.98794	10849.3125
2057.01034	10824.9125
2060.03078	10836.8125
2063.04927	10807.9125
2066.06582	10829.4125
2069.08042	10817.0125
2072.09307	10807.0125
2075.10378	10775.7125
2078.11255	10765.5125
2081.11938	10764.3125
2084.12426	10757.5125
2087.12722	10778.8125
2090.12824	10750.5125
2093.12732	10751.9125
2096.12447	10755.7125
2099.11969	10735.0125
2102.11299	10751.7125
2105.10435	10756.9125
2108.09379	10772.0125
2111.08131	10767.1125
2114.0669	10775.1125
2117.05057	10760.1125
2120.03233	10779.2125
2123.01216	10774.6125
2125.99008	10774.6125
2128.96609	10800.1125
2131.94018	10776.7125
2134.91236	10783.8125
2137.88263	10803.2125
2140.851	10790.5125
2143.81746	10804.5125
2146.78201	10816.0125
2149.74466	10813.4125
2152.7054	10813.6125
2155.66425	10825.4125
2158.6212	10849.1125
2161.57625	10830.5125
2164.52941	10790.9125
2167.48067	10793.9125
2170.43004	10796.2125
2173.37752	10762.0125
2176.32311	10778.5125
2179.26681	10753.2125
2182.20863	10755.3125
2185.14856	10761.3125
2188.08661	10722.8125
2191.02278	10698.0125
2193.95707	10695.8125
2196.88948	10684.2125
2199.82001	10675.1125
2202.74867	10706.8125
2205.67545	10695.9125
2208.60037	10677.1125
2211.52341	10644.4125
2214.44458	10624.4125
2217.36388	10575.9125
2220.28132	10576.3125
2223.1969	10538.7125
2226.11061	10505.1125
2229.02246	10502.3125
2231.93245	10488.2125
2234.84058	10456.7125
2237.74686	10435.6125
2240.65128	10416.4125
2243.55385	10401.2125
2246.45456	10400.9125
2249.35343	10391.9125
2252.25044	10367.5125
2255.14561	10325.4125
2258.03893	10313.9125
2260.93041	10308.9125
2263.82004	10305.0125
2266.70783	10264.3125
2269.59378	10216.6125
2272.4779	10207.6125
2275.36017	10177.2125
2278.24061	10147.9125
2281.11922	10100.6125
2283.996	10090.4125
2286.87094	10087.3125
2289.74405	10067.4125
2292.61534	10058.5125
2295.4848	10020.5125
2298.35243	10034.8125
2301.21824	9997.6125
2304.08223	9980.6125
2306.94439	9957.3125
2309.80474	9961.7125
2312.66327	9967.7125
2315.51999	9939.0125
2318.37489	9930.8125
2321.22797	9914.1125
2324.07925	9906.3125
2326.92871	9888.9125
2329.77637	9882.6125
2332.62222	9850.6125
2335.46626	9831.6125
2338.3085	9812.3125
2341.14893	9821.0125
2343.98756	9799.9125
2346.8244	9780.6125
2349.65943	9762.9125
2352.49267	9755.1125
2355.32411	9742.7125
2358.15376	9721.4125
2360.98161	9737.5125
2363.80768	9711.0125
2366.63195	9731.1125
2369.45444	9688.9125
2372.27514	9690.5125
2375.09405	9677.6125
2377.91118	9673.2125
2380.72652	9620.1125
2383.54009	9618.2125
2386.35187	9610.2125
2389.16188	9556.6125
2391.97011	9530.7125
2394.77657	9521.1125
2397.58125	9506.9125
2400.38416	9481.7125
2403.18529	9455.7125
2405.98466	9467.0125
2408.78226	9451.8125
2411.57809	9431.5125
2414.37216	9398.8125
2417.16446	9392.4125
2419.955	9384.9125
2422.74378	9357.4125
2425.5308	9319.8125
2428.31606	9332.4125
2431.09956	9321.5125
2433.88131	9331.5125
2436.6613	9319.7125
2439.43954	9306.7125
2442.21603	9278.3125
2444.99077	9278.1125
2447.76377	9274.0125
2450.53501	9254.0125
2453.30451	9236.1125
2456.07226	9213.0125
2458.83827	9193.9125
2461.60254	9197.4125
2464.36507	9178.6125
2467.12586	9177.7125
2469.88492	9157.3125
2472.64224	9139.6125
2475.39782	9105.8125
2478.15167	9142.1125
2480.90379	9095.7125
2483.65417	9112.2125
2486.40283	9103.8125
2489.14976	9101.8125
2491.89497	9077.4125
2494.63845	9093.9125
2497.3802	9051.5125
2500.12024	9041.9125
2502.85855	9040.3125
2505.59514	9036.2125
2508.33002	9031.9125
2511.06318	9014.3125
2513.79462	9001.3125
2516.52435	8992.2125
2519.25237	8988.2125
2521.97867	8950.8125
2524.70327	8950.0125
2527.42616	8938.1125
2530.14734	8919.6125
2532.86681	8904.5125
2535.58458	8880.9125
2538.30065	8862.5125
2541.01501	8855.1125
2543.72768	8837.5125
2546.43864	8829.5125
2549.14791	8800.8125
2551.85548	8786.0125
2554.56136	8765.5125
2557.26554	8740.8125
2559.96803	8709.5125
2562.66883	8709.3125
2565.36794	8687.2125
2568.06536	8682.2125
2570.7611	8674.3125
2573.45514	8654.5125
2576.14751	8649.6125
2578.83819	8615.7125
2581.52719	8589.5125
2584.21451	8563.1125
2586.90015	8541.1125
2589.58411	8540.5125
2592.2664	8502.5125
2594.94701	8478.5125
2597.62594	8499.0125
2600.30321	8464.2125
2602.9788	8432.6125
2605.65273	8418.2125
2608.32498	8420.1125
2610.99557	8397.4125
2613.66449	8402.1125
2616.33175	8358.8125
2618.99734	8364.3125
2621.66128	8332.0125
2624.32355	8336.1125
2626.98416	8322.6125
2629.64311	8317.9125
2632.30041	8283.7125
2634.95605	8275.5125
2637.61004	8279.3125
2640.26238	8261.3125
2642.91306	8254.8125
2645.56209	8238.6125
2648.20948	8234.9125
2650.85521	8222.3125
2653.4993	8211.9125
2656.14175	8219.4125
2658.78255	8200.9125
2661.42171	8184.6125
2664.05923	8194.0125
2666.6951	8192.7125
2669.32934	8206.5125
2671.96194	8176.1125
2674.59291	8184.9125
2677.22224	8185.8125
2679.84993	8192.4125
2682.476	8185.5125
2685.10043	8164.3125
2687.72324	8166.8125
2690.34441	8147.2125
2692.96396	8160.1125
2695.58188	8161.4125
2698.19818	8165.2125
2700.81285	8154.0125
2703.4259	8148.5125
2706.03733	8183.7125
2708.64714	8155.3125
2711.25533	8164.2125
2713.86191	8134.5125
2716.46687	8126.8125
2719.07021	8144.7125
2721.67194	8129.6125
2724.27206	8096.7125
2726.87057	8114.5125
2729.46747	8113.6125
2732.06276	8093.0125
2734.65644	8080.3125
2737.24852	8096.1125
2739.83899	8065.9125
2742.42786	8063.7125
2745.01513	8038.6125
2747.60079	8023.6125
2750.18486	8027.0125
2752.76733	8030.1125
2755.3482	8021.9125
2757.92747	8010.9125
2760.50515	7988.3125
2763.08123	7977.4125
2765.65573	7971.5125
2768.22863	7967.6125
2770.79994	7945.8125
2773.36967	7934.7125
2775.9378	7911.7125
2778.50435	7905.3125
2781.06932	7879.4125
2783.6327	7865.1125
2786.1945	7855.6125
2788.75471	7847.1125
2791.31335	7834.2125
2793.87041	7793.5125
2796.42589	7780.3125
2798.97979	7786.2125
2801.53212	7762.8125
2804.08288	7722.7125
2806.63206	7719.7125
2809.17967	7699.5125
2811.72571	7679.1125
2814.27018	7686.6125
2816.81308	7641.1125
2819.35442	7652.2125
2821.89419	7621.0125
2824.43239	7614.6125
2826.96904	7585.9125
2829.50412	7603.9125
2832.03763	7588.9125
2834.56959	7579.7125
2837.1	7551.6125
2839.62884	7556.8125
2842.15613	7562.6125
2844.68186	7582.3125
2847.20604	7570.1125
2849.72867	7561.3125
2852.24974	7551.4125
2854.76927	7542.6125
2857.28724	7541.4125
2859.80367	7518.0125
2862.31855	7508.0125
2864.83189	7477.9125
2867.34368	7492.3125
2869.85393	7476.7125
2872.36264	7449.8125
2874.8698	7461.8125
2877.37543	7449.7125
2879.87952	7465.6125
2882.38207	7424.6125
2884.88308	7469.8125
2887.38256	7443.7125
2889.88051	7445.8125
2892.37692	7412.7125
2894.8718	7440.5125
2897.36515	7444.5125
2899.85698	7416.5125
2902.34727	7436.1125
2904.83604	7434.0125
2907.32328	7427.3125
2909.809	7414.7125
2912.29319	7424.9125
2914.77587	7427.7125
2917.25702	7422.9125
2919.73665	7402.8125
2922.21476	7419.1125
2924.69136	7411.6125
2927.16644	7410.2125
2929.64	7392.9125
2932.11205	7392.2125
2934.58258	7362.1125
2937.05161	7377.7125
2939.51912	7377.5125
2941.98513	7363.9125
2944.44962	7353.1125
2946.91261	7327.3125
2949.37409	7307.9125
2951.83407	7302.5125
2954.29254	7301.7125
2956.74951	7288.0125
2959.20498	7295.9125
2961.65895	7269.9125
2964.11142	7275.4125
2966.56239	7249.7125
2969.01186	7236.3125
2971.45984	7215.1125
2973.90632	7216.1125
2976.35131	7200.6125
2978.7948	7182.5125
2981.23681	7174.7125
2983.67732	7139.2125
2986.11635	7157.1125
2988.55388	7128.8125
2990.98993	7113.6125
2993.4245	7102.5125
2995.85758	7087.4125
2998.28917	7070.6125
3000.71928	7045.9125
3003.14791	7043.2125
3005.57506	7005.1125
3008.00073	7024.1125
3010.42493	7024.8125
3012.84764	6979.6125
3015.26888	6979.6125
3017.68865	6980.9125
3020.10694	6975.6125
3022.52376	6948.1125
3024.9391	6933.7125
3027.35298	6934.0125
3029.76539	6931.4125
3032.17632	6917.3125
3034.5858	6898.2125
3036.9938	6912.8125
3039.40034	6875.1125
3041.80542	6880.1125
3044.20903	6848.0125
3046.61118	6867.6125
3049.01187	6831.6125
3051.4111	6847.6125
3053.80888	6825.7125
3056.20519	6809.5125
3058.60005	6789.3125
