Data from AgNP_FTO_APTES_CRN_100uM_R6G_10uM_NaF_0.1M_Addition_RamanShift__33__19-09-58-149.txt Node

Date: Wed Dec 15 19:09:58 GMT 2021
User: TCL
Spectrometer: QEP01345
Trigger mode: 4
Integration Time (sec): 7.000000E0
Scans to average: 10
Electric dark correction enabled: true
Nonlinearity correction enabled: false
Boxcar width: 0
XAxis mode: Raman Shifts
Number of Pixels in Spectrum: 1044
>>>>>Begin Spectral Data<<<<<
46.04893	1.075
50.45542	-1.425
54.85868	-0.125
59.25871	-1.225
63.6555	42.375
68.04907	47.475
72.43941	47.675
76.82654	55.575
81.21044	54.975
85.59113	60.175
89.96862	60.275
94.34289	59.475
98.71396	65.875
103.08183	67.975
107.4465	72.075
111.80798	72.675
116.16626	72.975
120.52136	75.575
124.87327	73.175
129.222	76.475
133.56755	72.575
137.90993	83.775
142.24913	89.075
146.58517	91.375
150.91804	108.575
155.24774	119.175
159.57429	146.275
163.89768	181.375
168.21792	233.275
172.53501	310.475
176.84895	420.175
181.15975	581.875
185.46741	814.875
189.77193	1108.575
194.07331	1491.675
198.37157	1908.075
202.6667	2359.375
206.9587	2818.875
211.24758	3247.575
215.53334	3694.875
219.81599	4197.475
224.09553	4761.875
228.37195	5393.375
232.64527	6072.075
236.91549	6746.675
241.18261	7363.775
245.44663	7915.075
249.70755	8362.375
253.96539	8731.775
258.22014	9080.075
262.4718	9343.775
266.72039	9593.375
270.96589	9697.375
275.20832	9703.475
279.44768	9634.675
283.68397	9504.775
287.91719	9435.475
292.14735	9477.475
296.37445	9600.775
300.59849	9865.975
304.81948	10168.675
309.03742	10411.275
313.25231	10412.475
317.46415	10018.875
321.67296	9391.075
325.87872	8874.175
330.08145	8603.575
334.28114	8601.875
338.47781	8710.475
342.67145	8958.175
346.86207	9279.875
351.04966	9756.075
355.23424	10280.575
359.4158	10692.575
363.59435	10881.275
367.76989	10944.875
371.94243	10935.375
376.11196	10892.575
380.27849	10852.775
384.44203	10758.875
388.60257	10650.475
392.76012	10627.575
396.91468	10730.575
401.06626	10970.975
405.21485	11185.775
409.36047	11053.475
413.50311	10603.875
417.64277	10180.775
421.77947	9915.775
425.9132	9871.075
430.04396	9873.375
434.17176	9917.575
438.2966	10070.575
442.41849	10310.475
446.53742	10618.475
450.6534	10923.875
454.76644	11088.675
458.87653	11139.975
462.98368	11041.775
467.08789	10883.075
471.18916	10686.875
475.2875	10475.275
479.38291	10311.175
483.4754	10114.875
487.56496	9988.175
491.6516	9899.875
495.73531	9888.375
499.81612	9890.075
503.89401	9997.575
507.96899	10104.875
512.04106	10263.575
516.11023	10433.375
520.1765	10586.075
524.23987	10607.975
528.30034	10465.975
532.35792	10298.075
536.41261	10086.675
540.46441	9845.775
544.51333	9786.275
548.55936	9835.375
552.60252	9991.975
556.64279	10211.275
560.6802	10328.775
564.71473	10480.475
568.7464	10777.075
572.7752	10992.275
576.80114	10725.475
580.82422	10477.975
584.84444	10353.575
588.86181	10379.475
592.87633	10506.575
596.888	10682.975
600.89682	10938.175
604.9028	11840.275
608.90594	14404.675
612.90624	17705.975
616.90371	17072.675
620.89834	12664.775
624.89015	10598.775
628.87913	10188.775
632.86528	10194.775
636.84862	10304.575
640.82913	10219.575
644.80683	9905.375
648.78172	9731.375
652.75379	9790.375
656.72306	10103.875
660.68952	10480.875
664.65319	10426.075
668.61405	10045.175
672.57211	9844.075
676.52738	9876.575
680.47986	9870.375
684.42955	9814.775
688.37646	9814.275
692.32058	9854.775
696.26192	9951.575
700.20048	10026.875
704.13626	10132.075
708.06928	10083.575
711.99952	10052.075
715.927	9964.375
719.85171	9991.275
723.77365	9962.675
727.69284	9858.775
731.60928	9782.175
735.52295	9775.175
739.43388	9786.775
743.34206	9820.975
747.24749	9873.375
751.15017	9906.375
755.05012	10086.775
758.94733	10477.475
762.8418	11366.275
766.73354	12876.375
770.62254	14421.075
774.50882	15187.675
778.39237	14634.675
782.27321	12977.775
786.15132	11341.975
790.02671	10455.675
793.89938	10015.875
797.76935	9826.975
801.6366	9752.675
805.50115	9685.975
809.36299	9687.875
813.22213	9624.475
817.07857	9637.275
820.93231	9637.075
824.78336	9699.475
828.63172	9753.675
832.47738	9765.075
836.32036	9761.475
840.16066	9724.275
843.99827	9652.075
847.8332	9640.575
851.66546	9614.175
855.49504	9597.375
859.32195	9594.775
863.1462	9579.175
866.96777	9553.375
870.78668	9488.575
874.60293	9528.975
878.41652	9538.475
882.22745	9582.675
886.03573	9604.375
889.84136	9608.175
893.64433	9554.875
897.44466	9525.475
901.24235	9547.575
905.0374	9529.575
908.8298	9479.375
912.61957	9489.875
916.40671	9526.875
920.19121	9595.575
923.97308	9659.575
927.75233	9718.475
931.52895	9775.975
935.30295	9715.975
939.07433	9489.375
942.84309	9306.775
946.60924	9186.775
950.37278	9096.475
954.13371	9080.675
957.89203	9041.975
961.64774	9024.875
965.40086	8993.175
969.15137	8974.475
972.89929	8945.275
976.64461	8926.375
980.38733	8943.675
984.12747	8942.175
987.86502	8986.775
991.59999	9018.275
995.33237	9085.975
999.06217	9239.775
1002.78939	9392.775
1006.51404	9578.275
1010.23611	9734.275
1013.95561	9862.975
1017.67255	9804.775
1021.38692	9701.575
1025.09872	9554.275
1028.80796	9500.875
1032.51465	9542.575
1036.21877	9629.175
1039.92035	9723.675
1043.61937	9760.775
1047.31584	9779.375
1051.00976	9746.575
1054.70114	9754.775
1058.38998	9765.275
1062.07627	9853.275
1065.76003	9964.975
1069.44126	10127.575
1073.11995	10335.775
1076.79611	10543.975
1080.46974	10722.175
1084.14085	10815.675
1087.80943	10854.975
1091.47549	10769.575
1095.13903	10504.775
1098.80005	10169.975
1102.45857	9913.475
1106.11456	9782.175
1109.76805	9838.775
1113.41903	9997.975
1117.06751	10234.975
1120.71348	10558.375
1124.35696	10930.275
1127.99793	11246.375
1131.63641	11178.675
1135.2724	10787.775
1138.90589	10386.475
1142.5369	10168.575
1146.16542	9985.575
1149.79145	9911.375
1153.415	9932.675
1157.03607	10010.575
1160.65467	10153.475
1164.27079	10440.875
1167.88443	10874.475
1171.49561	11603.875
1175.10432	12844.075
1178.71056	14373.575
1182.31434	15386.875
1185.91565	15479.975
1189.51451	15025.675
1193.11091	14280.075
1196.70485	13419.575
1200.29634	12726.775
1203.88538	12216.875
1207.47197	11620.475
1211.05612	11109.575
1214.63782	10856.375
1218.21708	10799.275
1221.79391	10783.575
1225.36829	10804.075
1228.94024	10840.775
1232.50976	10853.275
1236.07685	10901.275
1239.6415	10972.475
1243.20374	11004.375
1246.76355	11083.875
1250.32093	11218.775
1253.8759	11420.175
1257.42845	11686.175
1260.97859	11917.875
1264.52631	12196.075
1268.07163	12425.475
1271.61453	12683.575
1275.15503	12847.675
1278.69312	12911.675
1282.22882	12971.775
1285.76211	13211.975
1289.29301	13542.175
1292.82151	13947.575
1296.34761	14315.475
1299.87133	14877.575
1303.39266	15798.475
1306.9116	17210.375
1310.42815	18886.475
1313.94233	19798.575
1317.45412	19545.175
1320.96354	18432.975
1324.47058	17107.175
1327.97525	16055.275
1331.47754	15472.175
1334.97747	15343.175
1338.47502	15557.975
1341.97022	15911.175
1345.46305	16364.375
1348.95352	17065.675
1352.44163	18111.275
1355.92738	19654.875
1359.41078	21963.375
1362.89183	24044.075
1366.37053	23444.275
1369.84688	20428.675
1373.32088	17354.475
1376.79254	15379.875
1380.26186	14348.075
1383.72883	13805.075
1387.19347	13350.775
1390.65578	12894.175
1394.11575	12532.575
1397.57339	12356.475
1401.0287	12348.675
1404.48168	12483.775
1407.93234	12614.275
1411.38068	12724.575
1414.82669	12706.875
1418.27039	12519.875
1421.71177	12259.375
1425.15083	12042.175
1428.58758	11927.575
1432.02203	11989.575
1435.45416	12034.175
1438.88399	12114.675
1442.31151	12110.275
1445.73673	12123.175
1449.15965	12177.875
1452.58027	12125.675
1455.9986	12027.975
1459.41463	12006.375
1462.82837	12108.375
1466.23982	12328.975
1469.64898	12605.475
1473.05586	12773.775
1476.46045	12943.575
1479.86276	13152.075
1483.26279	13393.175
1486.66054	13703.675
1490.05602	14089.875
1493.44922	14601.375
1496.84016	15315.875
1500.22882	16418.475
1503.61521	17828.575
1506.99934	19455.375
1510.38121	20998.375
1513.76081	21747.375
1517.13816	20865.875
1520.51324	18753.275
1523.88607	16616.175
1527.25665	15121.275
1530.62498	14346.475
1533.99105	13890.475
1537.35488	13624.875
1540.71647	13432.775
1544.07581	13353.875
1547.4329	13287.475
1550.78776	13209.875
1554.14038	13131.275
1557.49077	13157.075
1560.83892	13313.375
1564.18484	13596.975
1567.52853	13980.675
1570.86999	14322.675
1574.20922	14663.175
1577.54624	14782.175
1580.88103	14375.775
1584.2136	13647.475
1587.54395	13117.475
1590.87208	13040.375
1594.19801	13449.575
1597.52172	14182.975
1600.84321	14547.875
1604.16251	14225.975
1607.47959	13476.275
1610.79447	12572.575
1614.10715	11718.675
1617.41763	11078.575
1620.7259	10671.975
1624.03199	10497.875
1627.33587	10478.175
1630.63757	10619.575
1633.93707	10969.275
1637.23439	11571.675
1640.52951	12456.275
1643.82246	13648.375
1647.11321	15002.275
1650.40179	16016.475
1653.68819	15668.075
1656.97241	14036.775
1660.25446	12165.875
1663.53433	10821.275
1666.81203	9991.775
1670.08756	9514.875
1673.36092	9218.575
1676.63211	9016.775
1679.90115	8880.075
1683.16801	8783.475
1686.43272	8677.075
1689.69527	8663.075
1692.95567	8600.775
1696.2139	8597.275
1699.46999	8600.575
1702.72392	8568.075
1705.97571	8553.575
1709.22535	8514.775
1712.47284	8505.475
1715.71819	8507.575
1718.96139	8520.575
1722.20246	8511.475
1725.44139	8494.275
1728.67818	8445.375
1731.91284	8390.375
1735.14537	8329.075
1738.37576	8301.075
1741.60403	8275.375
1744.83017	8246.775
1748.05418	8221.975
1751.27607	8227.275
1754.49584	8197.875
1757.71349	8210.475
1760.92903	8189.975
1764.14244	8183.175
1767.35375	8177.975
1770.56294	8145.475
1773.77002	8147.875
1776.97499	8122.275
1780.17785	8082.275
1783.37861	8078.775
1786.57727	8068.475
1789.77382	8033.275
1792.96828	8019.975
1796.16064	8019.275
1799.3509	8001.275
1802.53907	7982.875
1805.72514	7983.975
1808.90913	7938.375
1812.09102	7933.175
1815.27083	7924.875
1818.44856	7901.775
1821.6242	7892.875
1824.79776	7857.075
1827.96924	7851.075
1831.13864	7874.675
1834.30597	7857.575
1837.47122	7854.775
1840.6344	7839.575
1843.7955	7829.875
1846.95454	7827.675
1850.11151	7816.975
1853.26642	7822.175
1856.41926	7807.075
1859.57004	7804.175
1862.71876	7806.975
1865.86542	7805.275
1869.01003	7804.375
1872.15258	7817.575
1875.29308	7788.675
1878.43152	7782.375
1881.56792	7770.175
1884.70227	7755.175
1887.83457	7779.175
1890.96482	7774.675
1894.09304	7769.975
1897.21921	7761.575
1900.34335	7752.375
1903.46544	7732.175
1906.58551	7747.975
1909.70353	7744.075
1912.81953	7730.975
1915.93349	7711.975
1919.04543	7713.975
1922.15534	7700.175
1925.26322	7693.775
1928.36908	7681.075
1931.47292	7638.575
1934.57473	7632.075
1937.67453	7602.775
1940.77232	7583.375
1943.86808	7549.875
1946.96184	7544.075
1950.05358	7518.775
1953.14331	7506.875
1956.23103	7466.775
1959.31675	7464.875
1962.40046	7438.475
1965.48217	7415.775
1968.56188	7410.275
1971.63959	7383.675
1974.7153	7353.775
1977.78901	7334.775
1980.86073	7287.075
1983.93046	7275.875
1986.99819	7247.875
1990.06394	7231.175
1993.1277	7223.275
1996.18947	7191.675
1999.24925	7166.275
2002.30706	7153.975
2005.36288	7128.775
2008.41672	7111.775
2011.46859	7088.275
2014.51848	7075.375
2017.56639	7033.575
2020.61233	7019.275
2023.6563	7015.275
2026.6983	6994.275
2029.73833	6968.375
2032.7764	6954.275
2035.8125	6942.975
2038.84664	6913.275
2041.87881	6895.375
2044.90903	6897.175
2047.93729	6889.675
2050.96359	6876.275
2053.98794	6877.775
2057.01034	6859.975
2060.03078	6860.075
2063.04927	6858.375
2066.06582	6843.675
2069.08042	6828.675
2072.09307	6838.775
2075.10378	6796.475
2078.11255	6824.275
2081.11938	6809.875
2084.12426	6816.175
2087.12722	6800.475
2090.12824	6802.275
2093.12732	6803.275
2096.12447	6826.575
2099.11969	6795.975
2102.11299	6814.575
2105.10435	6809.775
2108.09379	6805.275
2111.08131	6812.175
2114.0669	6814.375
2117.05057	6809.675
2120.03233	6820.275
2123.01216	6820.075
2125.99008	6822.275
2128.96609	6842.375
2131.94018	6833.575
2134.91236	6839.575
2137.88263	6849.175
2140.851	6853.575
2143.81746	6861.475
2146.78201	6839.875
2149.74466	6847.875
2152.7054	6835.475
2155.66425	6852.975
2158.6212	6852.375
2161.57625	6824.075
2164.52941	6845.375
2167.48067	6830.075
2170.43004	6828.175
2173.37752	6833.875
2176.32311	6816.575
2179.26681	6824.575
2182.20863	6821.175
2185.14856	6806.875
2188.08661	6811.875
2191.02278	6800.775
2193.95707	6808.475
2196.88948	6795.975
2199.82001	6768.875
2202.74867	6776.075
2205.67545	6789.375
2208.60037	6771.175
2211.52341	6756.875
2214.44458	6761.275
2217.36388	6726.975
2220.28132	6711.475
2223.1969	6709.075
2226.11061	6703.275
2229.02246	6674.275
2231.93245	6663.775
2234.84058	6645.975
2237.74686	6629.775
2240.65128	6634.975
2243.55385	6598.275
2246.45456	6603.475
2249.35343	6601.775
2252.25044	6591.375
2255.14561	6583.775
2258.03893	6590.575
2260.93041	6600.975
2263.82004	6565.275
2266.70783	6556.075
2269.59378	6529.075
2272.4779	6525.875
2275.36017	6494.975
2278.24061	6484.875
2281.11922	6475.775
2283.996	6436.375
2286.87094	6435.175
2289.74405	6421.675
2292.61534	6422.775
2295.4848	6396.275
2298.35243	6410.975
2301.21824	6380.575
2304.08223	6383.675
2306.94439	6370.475
2309.80474	6363.675
2312.66327	6348.275
2315.51999	6360.175
2318.37489	6353.475
2321.22797	6351.875
2324.07925	6337.875
2326.92871	6335.275
2329.77637	6333.275
2332.62222	6321.575
2335.46626	6295.475
2338.3085	6284.975
2341.14893	6292.875
2343.98756	6298.875
2346.8244	6273.975
2349.65943	6286.375
2352.49267	6277.675
2355.32411	6286.375
2358.15376	6292.275
2360.98161	6288.575
2363.80768	6281.675
2366.63195	6281.875
2369.45444	6291.475
2372.27514	6265.975
2375.09405	6266.275
2377.91118	6264.675
2380.72652	6247.075
2383.54009	6216.775
2386.35187	6196.675
2389.16188	6165.275
2391.97011	6161.275
2394.77657	6137.575
2397.58125	6130.475
2400.38416	6106.875
2403.18529	6096.175
2405.98466	6089.175
2408.78226	6081.475
2411.57809	6075.375
2414.37216	6069.875
2417.16446	6047.575
2419.955	6050.075
2422.74378	6022.075
2425.5308	6042.575
2428.31606	6012.675
2431.09956	6024.475
2433.88131	6002.675
2436.6613	6000.675
2439.43954	6014.275
2442.21603	6013.975
2444.99077	5982.275
2447.76377	5994.475
2450.53501	5994.475
2453.30451	5990.175
2456.07226	5981.775
2458.83827	5958.075
2461.60254	5956.175
2464.36507	5957.475
2467.12586	5944.975
2469.88492	5966.475
2472.64224	5943.675
2475.39782	5942.475
2478.15167	5957.375
2480.90379	5960.575
2483.65417	5953.175
2486.40283	5961.875
2489.14976	5959.775
2491.89497	5979.975
2494.63845	5975.175
2497.3802	5955.675
2500.12024	5950.775
2502.85855	5930.775
2505.59514	5943.975
2508.33002	5908.275
2511.06318	5904.475
2513.79462	5868.775
2516.52435	5857.275
2519.25237	5852.275
2521.97867	5826.675
2524.70327	5839.275
2527.42616	5819.775
2530.14734	5792.175
2532.86681	5806.275
2535.58458	5780.875
2538.30065	5788.475
2541.01501	5782.075
2543.72768	5768.975
2546.43864	5761.475
2549.14791	5744.875
2551.85548	5742.875
2554.56136	5754.575
2557.26554	5720.875
2559.96803	5728.975
2562.66883	5720.375
2565.36794	5716.275
2568.06536	5706.675
2570.7611	5700.775
2573.45514	5688.875
2576.14751	5676.375
2578.83819	5649.175
2581.52719	5678.175
2584.21451	5640.875
2586.90015	5643.975
2589.58411	5622.175
2592.2664	5612.775
2594.94701	5605.475
2597.62594	5586.275
2600.30321	5588.375
2602.9788	5570.975
2605.65273	5569.575
2608.32498	5574.575
2610.99557	5563.375
2613.66449	5553.075
2616.33175	5535.975
2618.99734	5544.375
2621.66128	5533.375
2624.32355	5531.575
2626.98416	5532.075
2629.64311	5518.475
2632.30041	5513.175
2634.95605	5513.175
2637.61004	5501.475
2640.26238	5479.375
2642.91306	5478.975
2645.56209	5463.075
2648.20948	5461.575
2650.85521	5455.975
2653.4993	5465.075
2656.14175	5455.775
2658.78255	5474.575
2661.42171	5463.275
2664.05923	5453.175
2666.6951	5462.775
2669.32934	5475.875
2671.96194	5468.375
2674.59291	5470.875
2677.22224	5463.475
2679.84993	5465.575
2682.476	5473.675
2685.10043	5477.175
2687.72324	5465.875
2690.34441	5466.675
2692.96396	5455.475
2695.58188	5453.375
2698.19818	5454.475
2700.81285	5460.375
2703.4259	5465.675
2706.03733	5514.675
2708.64714	5487.975
2711.25533	5487.175
2713.86191	5466.975
2716.46687	5503.475
2719.07021	5492.575
2721.67194	5491.375
2724.27206	5465.075
2726.87057	5473.675
2729.46747	5461.175
2732.06276	5484.375
2734.65644	5461.475
2737.24852	5450.475
2739.83899	5441.075
2742.42786	5433.275
2745.01513	5429.775
2747.60079	5432.175
2750.18486	5401.775
2752.76733	5425.075
2755.3482	5399.075
2757.92747	5405.775
2760.50515	5394.475
2763.08123	5377.175
2765.65573	5371.775
2768.22863	5370.075
2770.79994	5377.975
2773.36967	5350.175
2775.9378	5350.475
2778.50435	5347.975
2781.06932	5336.075
2783.6327	5333.075
2786.1945	5345.575
2788.75471	5329.075
2791.31335	5312.075
2793.87041	5307.675
2796.42589	5301.475
2798.97979	5291.875
2801.53212	5290.575
2804.08288	5286.675
2806.63206	5290.475
2809.17967	5272.275
2811.72571	5260.275
2814.27018	5267.975
2816.81308	5260.075
2819.35442	5250.075
2821.89419	5261.775
2824.43239	5260.675
2826.96904	5259.175
2829.50412	5261.475
2832.03763	5256.575
2834.56959	5273.275
2837.1	5258.475
2839.62884	5298.775
2842.15613	5300.975
2844.68186	5333.075
2847.20604	5389.375
2849.72867	5403.075
2852.24974	5428.875
2854.76927	5431.875
2857.28724	5418.075
2859.80367	5411.375
2862.31855	5399.575
2864.83189	5375.975
2867.34368	5367.575
2869.85393	5353.075
2872.36264	5351.875
2874.8698	5332.475
2877.37543	5343.575
2879.87952	5337.775
2882.38207	5337.075
2884.88308	5330.175
2887.38256	5318.375
2889.88051	5339.475
2892.37692	5340.175
2894.8718	5330.475
2897.36515	5312.375
2899.85698	5357.975
2902.34727	5346.575
2904.83604	5346.375
2907.32328	5362.475
2909.809	5368.875
2912.29319	5353.975
2914.77587	5344.075
2917.25702	5323.675
2919.73665	5323.275
2922.21476	5320.575
2924.69136	5323.875
2927.16644	5325.175
2929.64	5310.275
2932.11205	5286.375
2934.58258	5251.075
2937.05161	5265.875
2939.51912	5251.375
2941.98513	5233.675
2944.44962	5192.275
2946.91261	5157.375
2949.37409	5142.475
2951.83407	5130.475
2954.29254	5120.575
2956.74951	5089.175
2959.20498	5100.775
2961.65895	5085.875
2964.11142	5080.275
2966.56239	5056.675
2969.01186	5040.075
2971.45984	5022.775
2973.90632	5017.375
2976.35131	4998.675
2978.7948	4956.075
2981.23681	4981.475
2983.67732	4960.875
2986.11635	4937.475
2988.55388	4933.375
2990.98993	4931.375
2993.4245	4908.175
2995.85758	4893.875
2998.28917	4884.475
3000.71928	4875.675
3003.14791	4862.475
3005.57506	4859.575
3008.00073	4862.975
3010.42493	4848.775
3012.84764	4836.175
3015.26888	4828.575
3017.68865	4821.275
3020.10694	4829.875
3022.52376	4814.075
3024.9391	4808.275
3027.35298	4810.975
3029.76539	4793.775
3032.17632	4790.075
3034.5858	4781.175
3036.9938	4789.275
3039.40034	4772.475
3041.80542	4750.175
3044.20903	4738.675
3046.61118	4755.075
3049.01187	4734.475
3051.4111	4729.275
3053.80888	4741.075
3056.20519	4718.075
3058.60005	4731.675
3060.99345	4706.875
3063.3854	4694.975
3065.7759	4691.375
3068.16494	4680.275
3070.55254	4669.475
3072.93868	4661.275
3075.32338	4641.275
3077.70662	4661.075
3080.08842	4629.175
3082.46878	4633.075
3084.84769	4604.175
3087.22515	4614.775
3089.60118	4607.975
3091.97576	4615.775
3094.3489	4611.575
3096.72061	4599.075
3099.09087	4617.075
3101.4597	4606.575
3103.82709	4590.075
3106.19305	4581.675
3108.55757	4595.975
3110.92066	4581.875
3113.28232	4583.875
3115.64255	4556.675
3118.00134	4561.875
3120.35871	4558.275
3122.71466	4556.675
3125.06917	4547.375
3127.42226	4544.375
3129.77393	4569.175
3132.12417	4552.575
3134.47299	4560.675
3136.82039	4565.075
3139.16636	4572.975
3141.51092	4570.675
3143.85406	4581.175
3146.19579	4591.675
3148.53609	4586.675
3150.87499	4584.475
3153.21246	4597.975
3155.54853	4605.175
3157.88318	4592.775
3160.21642	4601.775
3162.54826	4603.175
3164.87868	4600.175
3167.2077	4611.375
3169.5353	4594.875
3171.86151	4600.475
3174.18631	4610.275
3176.5097	4606.675
3178.83169	4579.775
3181.15228	4599.575
3183.47147	4610.575
3185.78926	4596.675
3188.10565	4601.975
3190.42065	4607.575
3192.73424	4603.875
3195.04645	4601.775
3197.35725	4598.475
3199.66667	4597.575
3201.97469	4618.975
3204.28132	4620.575
3206.58656	4629.675
3208.8904	4642.675
