Data from AgNP_FTO_APTES_CRN_0uM_R6G_10uM_NaF_0.1M_Addition_RamanShift__73__12-54-52-989.txt Node

Date: Wed Dec 15 12:54:52 GMT 2021
User: TCL
Spectrometer: QEP01345
Trigger mode: 4
Integration Time (sec): 7.000000E0
Scans to average: 10
Electric dark correction enabled: true
Nonlinearity correction enabled: false
Boxcar width: 0
XAxis mode: Raman Shifts
Number of Pixels in Spectrum: 1044
>>>>>Begin Spectral Data<<<<<
46.04893	0.3125
50.45542	-1.0875
54.85868	-1.2875
59.25871	0.8125
63.6555	96.1125
68.04907	106.1125
72.43941	110.4125
76.82654	120.4125
81.21044	124.8125
85.59113	128.9125
89.96862	137.6125
94.34289	135.9125
98.71396	146.2125
103.08183	150.8125
107.4465	154.5125
111.80798	149.7125
116.16626	154.1125
120.52136	155.2125
124.87327	157.9125
129.222	162.2125
133.56755	170.9125
137.90993	177.5125
142.24913	186.7125
146.58517	195.2125
150.91804	216.6125
155.24774	245.7125
159.57429	294.6125
163.89768	357.8125
168.21792	455.8125
172.53501	603.1125
176.84895	812.6125
181.15975	1123.9125
185.46741	1533.2125
189.77193	2120.0125
194.07331	2822.4125
198.37157	3618.6125
202.6667	4457.8125
206.9587	5279.5125
211.24758	6092.6125
215.53334	6934.4125
219.81599	7843.9125
224.09553	8865.6125
228.37195	10008.1125
232.64527	11235.2125
236.91549	12499.6125
241.18261	13700.5125
245.44663	14741.4125
249.70755	15662.2125
253.96539	16460.4125
258.22014	17135.8125
262.4718	17755.3125
266.72039	18246.2125
270.96589	18526.3125
275.20832	18590.9125
279.44768	18465.0125
283.68397	18284.5125
287.91719	18134.1125
292.14735	18119.7125
296.37445	18218.2125
300.59849	18518.5125
304.81948	18996.5125
309.03742	19346.4125
313.25231	19305.2125
317.46415	18678.1125
321.67296	17707.1125
325.87872	16933.9125
330.08145	16605.4125
334.28114	16659.3125
338.47781	16860.2125
342.67145	17204.0125
346.86207	17782.3125
351.04966	18522.7125
355.23424	19465.4125
359.4158	20163.7125
363.59435	20550.3125
367.76989	20636.4125
371.94243	20660.3125
376.11196	20603.7125
380.27849	20582.3125
384.44203	20537.1125
388.60257	20427.9125
392.76012	20440.3125
396.91468	20773.8125
401.06626	21317.2125
405.21485	21746.0125
409.36047	21671.4125
413.50311	21072.9125
417.64277	20537.7125
421.77947	20285.2125
425.9132	20216.9125
430.04396	20269.1125
434.17176	20431.9125
438.2966	20722.7125
442.41849	21177.0125
446.53742	21802.8125
450.6534	22527.6125
454.76644	23024.8125
458.87653	23182.7125
462.98368	23020.5125
467.08789	22590.3125
471.18916	22022.7125
475.2875	21430.1125
479.38291	20992.4125
483.4754	20707.5125
487.56496	20466.1125
491.6516	20258.8125
495.73531	20132.4125
499.81612	20149.6125
503.89401	20290.1125
507.96899	20420.7125
512.04106	20550.4125
516.11023	20735.7125
520.1765	20850.2125
524.23987	20831.0125
528.30034	20578.1125
532.35792	20329.7125
536.41261	19980.9125
540.46441	19601.5125
544.51333	19485.4125
548.55936	19609.6125
552.60252	19921.6125
556.64279	20234.9125
560.6802	20383.1125
564.71473	20564.0125
568.7464	21062.4125
572.7752	21585.1125
576.80114	21555.7125
580.82422	21483.5125
584.84444	21580.4125
588.86181	21670.2125
592.87633	21904.2125
596.888	22274.1125
600.89682	22950.8125
604.9028	24698.0125
608.90594	28931.1125
612.90624	33733.0125
616.90371	32130.9125
620.89834	24959.7125
624.89015	21633.7125
628.87913	20960.1125
632.86528	20929.6125
636.84862	20961.9125
640.82913	20606.6125
644.80683	19972.2125
648.78172	19578.9125
652.75379	19691.1125
656.72306	20367.6125
660.68952	21087.1125
664.65319	20967.0125
668.61405	20299.9125
672.57211	19969.8125
676.52738	19887.1125
680.47986	19914.0125
684.42955	19824.9125
688.37646	19779.2125
692.32058	19849.5125
696.26192	20047.3125
700.20048	20316.9125
704.13626	20533.8125
708.06928	20480.7125
711.99952	20299.9125
715.927	20162.8125
719.85171	20120.9125
723.77365	19992.4125
727.69284	19805.1125
731.60928	19607.0125
735.52295	19650.5125
739.43388	19771.8125
743.34206	19926.3125
747.24749	20167.7125
751.15017	20390.2125
755.05012	20807.6125
758.94733	21566.3125
762.8418	23122.4125
766.73354	25573.5125
770.62254	28019.3125
774.50882	29024.8125
778.39237	27870.1125
782.27321	25149.0125
786.15132	22599.1125
790.02671	21141.9125
793.89938	20409.4125
797.76935	20127.3125
801.6366	20019.9125
805.50115	19900.8125
809.36299	19799.5125
813.22213	19742.0125
817.07857	19717.5125
820.93231	19763.5125
824.78336	19801.4125
828.63172	19890.5125
832.47738	19967.5125
836.32036	20014.6125
840.16066	19989.9125
843.99827	19941.0125
847.8332	19876.0125
851.66546	19801.5125
855.49504	19789.9125
859.32195	19718.6125
863.1462	19653.3125
866.96777	19535.5125
870.78668	19482.4125
874.60293	19544.5125
878.41652	19563.7125
882.22745	19689.2125
886.03573	19722.4125
889.84136	19730.4125
893.64433	19610.9125
897.44466	19586.8125
901.24235	19611.2125
905.0374	19592.8125
908.8298	19574.2125
912.61957	19566.4125
916.40671	19745.4125
920.19121	19973.8125
923.97308	20252.6125
927.75233	20421.9125
931.52895	20437.2125
935.30295	20185.9125
939.07433	19774.4125
942.84309	19470.1125
946.60924	19341.6125
950.37278	19218.0125
954.13371	19102.5125
957.89203	18983.0125
961.64774	18925.2125
965.40086	18827.8125
969.15137	18788.9125
972.89929	18724.0125
976.64461	18732.4125
980.38733	18755.0125
984.12747	18828.9125
987.86502	18917.1125
991.59999	19104.5125
995.33237	19431.4125
999.06217	19996.7125
1002.78939	20745.5125
1006.51404	21381.1125
1010.23611	21920.2125
1013.95561	22214.4125
1017.67255	22151.4125
1021.38692	21787.0125
1025.09872	21501.9125
1028.80796	21525.2125
1032.51465	22006.7125
1036.21877	22462.0125
1039.92035	22590.5125
1043.61937	22385.8125
1047.31584	21871.7125
1051.00976	21377.8125
1054.70114	21065.8125
1058.38998	20978.3125
1062.07627	21129.0125
1065.76003	21269.7125
1069.44126	21592.0125
1073.11995	21985.4125
1076.79611	22310.6125
1080.46974	22487.3125
1084.14085	22641.2125
1087.80943	22777.8125
1091.47549	22719.8125
1095.13903	22347.9125
1098.80005	21719.5125
1102.45857	21163.3125
1106.11456	20854.1125
1109.76805	20830.4125
1113.41903	21078.0125
1117.06751	21402.7125
1120.71348	21869.0125
1124.35696	22466.3125
1127.99793	22919.9125
1131.63641	22951.8125
1135.2724	22454.7125
1138.90589	21950.2125
1142.5369	21571.8125
1146.16542	21320.9125
1149.79145	21187.2125
1153.415	21277.2125
1157.03607	21471.0125
1160.65467	21902.3125
1164.27079	22477.5125
1167.88443	23407.0125
1171.49561	24903.0125
1175.10432	27228.6125
1178.71056	30249.3125
1182.31434	32632.5125
1185.91565	33688.8125
1189.51451	33472.7125
1193.11091	32137.7125
1196.70485	30127.8125
1200.29634	28489.6125
1203.88538	27111.0125
1207.47197	25836.9125
1211.05612	24890.6125
1214.63782	24438.8125
1218.21708	24350.4125
1221.79391	24537.0125
1225.36829	24765.7125
1228.94024	25021.3125
1232.50976	25142.2125
1236.07685	25203.7125
1239.6415	25244.5125
1243.20374	25221.3125
1246.76355	25241.0125
1250.32093	25505.2125
1253.8759	26018.8125
1257.42845	26712.2125
1260.97859	27471.1125
1264.52631	27986.3125
1268.07163	28541.6125
1271.61453	29146.0125
1275.15503	29772.1125
1278.69312	30329.4125
1282.22882	30875.2125
1285.76211	31648.8125
1289.29301	32543.4125
1292.82151	33372.4125
1296.34761	34177.0125
1299.87133	35316.9125
1303.39266	37156.9125
1306.9116	39922.5125
1310.42815	43015.7125
1313.94233	45127.0125
1317.45412	45131.3125
1320.96354	43600.9125
1324.47058	41651.5125
1327.97525	40138.2125
1331.47754	39376.9125
1334.97747	39384.3125
1338.47502	39825.8125
1341.97022	40309.0125
1345.46305	40619.4125
1348.95352	41007.9125
1352.44163	41875.7125
1355.92738	43718.7125
1359.41078	47094.5125
1362.89183	50339.6125
1366.37053	49480.5125
1369.84688	44477.8125
1373.32088	39052.1125
1376.79254	35260.4125
1380.26186	33178.7125
1383.72883	32220.4125
1387.19347	31431.5125
1390.65578	30637.0125
1394.11575	30053.8125
1397.57339	29924.9125
1401.0287	30253.4125
1404.48168	31012.4125
1407.93234	31905.1125
1411.38068	32665.5125
1414.82669	32731.4125
1418.27039	31947.5125
1421.71177	30887.3125
1425.15083	29984.9125
1428.58758	29651.6125
1432.02203	29701.9125
1435.45416	29866.5125
1438.88399	29971.3125
1442.31151	30014.4125
1445.73673	30088.9125
1449.15965	30217.8125
1452.58027	30094.9125
1455.9986	29759.1125
1459.41463	29628.7125
1462.82837	29819.7125
1466.23982	30298.4125
1469.64898	30802.1125
1473.05586	31209.6125
1476.46045	31545.6125
1479.86276	31996.3125
1483.26279	32566.8125
1486.66054	33225.0125
1490.05602	34160.8125
1493.44922	35195.5125
1496.84016	36350.1125
1500.22882	37923.3125
1503.61521	39879.1125
1506.99934	42099.7125
1510.38121	44278.9125
1513.76081	45284.2125
1517.13816	44067.9125
1520.51324	40954.3125
1523.88607	37690.1125
1527.25665	35345.9125
1530.62498	34032.8125
1533.99105	33229.0125
1537.35488	32696.5125
1540.71647	32383.4125
1544.07581	32139.3125
1547.4329	31841.2125
1550.78776	31435.3125
1554.14038	31016.9125
1557.49077	30851.1125
1560.83892	30933.8125
1564.18484	31245.5125
1567.52853	31533.4125
1570.86999	31850.8125
1574.20922	32208.2125
1577.54624	32365.5125
1580.88103	31881.0125
1584.2136	31071.2125
1587.54395	30984.4125
1590.87208	31983.4125
1594.19801	33973.2125
1597.52172	36341.2125
1600.84321	37524.1125
1604.16251	36495.9125
1607.47959	34031.2125
1610.79447	31018.9125
1614.10715	28337.1125
1617.41763	26404.9125
1620.7259	25166.1125
1624.03199	24674.8125
1627.33587	24715.3125
1630.63757	25371.7125
1633.93707	26599.8125
1637.23439	28480.1125
1640.52951	30722.8125
1643.82246	33163.6125
1647.11321	35198.8125
1650.40179	35920.2125
1653.68819	34428.8125
1656.97241	30722.7125
1660.25446	26827.0125
1663.53433	23884.9125
1666.81203	22168.3125
1670.08756	21031.4125
1673.36092	20358.0125
1676.63211	19910.1125
1679.90115	19609.7125
1683.16801	19385.7125
1686.43272	19245.1125
1689.69527	19115.6125
1692.95567	19035.2125
1696.2139	18983.7125
1699.46999	18912.9125
1702.72392	18844.9125
1705.97571	18830.7125
1709.22535	18846.5125
1712.47284	18841.5125
1715.71819	18857.7125
1718.96139	18813.8125
1722.20246	18786.8125
1725.44139	18729.8125
1728.67818	18654.6125
1731.91284	18490.8125
1735.14537	18410.8125
1738.37576	18315.8125
1741.60403	18260.8125
1744.83017	18183.3125
1748.05418	18155.5125
1751.27607	18145.0125
1754.49584	18108.0125
1757.71349	18085.7125
1760.92903	18047.2125
1764.14244	18064.4125
1767.35375	18048.6125
1770.56294	18013.3125
1773.77002	17989.2125
1776.97499	18002.9125
1780.17785	17984.7125
1783.37861	17960.8125
1786.57727	17932.0125
1789.77382	17918.2125
1792.96828	17899.5125
1796.16064	17887.3125
1799.3509	17858.7125
1802.53907	17856.0125
1805.72514	17798.2125
1808.90913	17777.3125
1812.09102	17727.1125
1815.27083	17690.6125
1818.44856	17662.8125
1821.6242	17655.1125
1824.79776	17664.1125
1827.96924	17662.1125
1831.13864	17610.8125
1834.30597	17611.5125
1837.47122	17620.6125
1840.6344	17611.8125
1843.7955	17617.5125
1846.95454	17611.0125
1850.11151	17607.9125
1853.26642	17614.0125
1856.41926	17620.9125
1859.57004	17606.0125
1862.71876	17633.5125
1865.86542	17636.3125
1869.01003	17652.6125
1872.15258	17653.6125
1875.29308	17675.8125
1878.43152	17683.3125
1881.56792	17710.1125
1884.70227	17672.4125
1887.83457	17704.8125
1890.96482	17695.2125
1894.09304	17677.1125
1897.21921	17723.8125
1900.34335	17691.7125
1903.46544	17725.0125
1906.58551	17695.3125
1909.70353	17742.4125
1912.81953	17711.7125
1915.93349	17671.0125
1919.04543	17638.9125
1922.15534	17637.5125
1925.26322	17580.8125
1928.36908	17560.6125
1931.47292	17521.4125
1934.57473	17451.9125
1937.67453	17382.7125
1940.77232	17301.8125
1943.86808	17236.0125
1946.96184	17162.1125
1950.05358	17064.3125
1953.14331	17006.5125
1956.23103	16952.8125
1959.31675	16900.6125
1962.40046	16856.8125
1965.48217	16794.0125
1968.56188	16747.3125
1971.63959	16725.7125
1974.7153	16641.0125
1977.78901	16600.9125
1980.86073	16535.4125
1983.93046	16498.4125
1986.99819	16399.3125
1990.06394	16368.6125
1993.1277	16345.0125
1996.18947	16300.5125
1999.24925	16267.0125
2002.30706	16188.3125
2005.36288	16155.0125
2008.41672	16142.8125
2011.46859	16082.6125
2014.51848	16037.4125
2017.56639	15994.4125
2020.61233	15923.6125
2023.6563	15901.1125
2026.6983	15855.9125
2029.73833	15827.3125
2032.7764	15821.3125
2035.8125	15738.6125
2038.84664	15748.7125
2041.87881	15728.0125
2044.90903	15668.9125
2047.93729	15642.0125
2050.96359	15651.7125
2053.98794	15604.8125
2057.01034	15604.7125
2060.03078	15588.2125
2063.04927	15549.2125
2066.06582	15563.2125
2069.08042	15535.8125
2072.09307	15517.1125
2075.10378	15498.4125
2078.11255	15493.5125
2081.11938	15498.5125
2084.12426	15477.1125
2087.12722	15478.6125
2090.12824	15414.3125
2093.12732	15446.9125
2096.12447	15435.1125
2099.11969	15415.5125
2102.11299	15426.4125
2105.10435	15446.7125
2108.09379	15440.7125
2111.08131	15412.0125
2114.0669	15430.7125
2117.05057	15430.2125
2120.03233	15429.2125
2123.01216	15428.8125
2125.99008	15464.0125
2128.96609	15469.8125
2131.94018	15480.5125
2134.91236	15460.5125
2137.88263	15480.8125
2140.851	15456.9125
2143.81746	15500.6125
2146.78201	15486.3125
2149.74466	15500.7125
2152.7054	15480.0125
2155.66425	15473.6125
2158.6212	15430.7125
2161.57625	15482.3125
2164.52941	15437.0125
2167.48067	15456.9125
2170.43004	15481.4125
2173.37752	15444.9125
2176.32311	15417.0125
2179.26681	15440.6125
2182.20863	15421.9125
2185.14856	15418.4125
2188.08661	15440.6125
2191.02278	15430.8125
2193.95707	15429.7125
2196.88948	15428.2125
2199.82001	15435.7125
2202.74867	15418.1125
2205.67545	15389.5125
2208.60037	15353.3125
2211.52341	15357.5125
2214.44458	15314.6125
2217.36388	15297.3125
2220.28132	15279.0125
2223.1969	15214.2125
2226.11061	15217.3125
2229.02246	15195.7125
2231.93245	15169.6125
2234.84058	15083.0125
2237.74686	15095.7125
2240.65128	15094.8125
2243.55385	15067.1125
2246.45456	15004.5125
2249.35343	14986.6125
2252.25044	14991.8125
2255.14561	14988.6125
2258.03893	14981.4125
2260.93041	14947.9125
2263.82004	14900.3125
2266.70783	14866.6125
2269.59378	14834.6125
2272.4779	14800.2125
2275.36017	14771.2125
2278.24061	14755.6125
2281.11922	14720.1125
2283.996	14682.4125
2286.87094	14675.1125
2289.74405	14584.2125
2292.61534	14603.3125
2295.4848	14584.3125
2298.35243	14571.4125
2301.21824	14564.1125
2304.08223	14603.0125
2306.94439	14570.6125
2309.80474	14535.6125
2312.66327	14554.1125
2315.51999	14532.6125
2318.37489	14536.6125
2321.22797	14530.8125
2324.07925	14515.2125
2326.92871	14496.2125
2329.77637	14498.8125
2332.62222	14455.9125
2335.46626	14481.6125
2338.3085	14454.7125
2341.14893	14482.7125
2343.98756	14479.2125
2346.8244	14479.2125
2349.65943	14448.8125
2352.49267	14433.2125
2355.32411	14445.6125
2358.15376	14439.7125
2360.98161	14444.1125
2363.80768	14423.2125
2366.63195	14390.5125
2369.45444	14373.4125
2372.27514	14356.8125
2375.09405	14304.7125
2377.91118	14269.9125
2380.72652	14237.9125
2383.54009	14184.5125
2386.35187	14179.2125
2389.16188	14151.4125
2391.97011	14125.1125
2394.77657	14095.3125
2397.58125	14057.4125
2400.38416	14050.0125
2403.18529	13999.7125
2405.98466	13997.0125
2408.78226	13937.9125
2411.57809	13914.9125
2414.37216	13900.3125
2417.16446	13873.5125
2419.955	13825.5125
2422.74378	13809.7125
2425.5308	13814.4125
2428.31606	13794.1125
2431.09956	13785.0125
2433.88131	13742.8125
2436.6613	13764.2125
2439.43954	13742.1125
2442.21603	13751.9125
2444.99077	13689.6125
2447.76377	13720.2125
2450.53501	13685.1125
2453.30451	13688.7125
2456.07226	13671.5125
2458.83827	13670.1125
2461.60254	13656.9125
2464.36507	13660.9125
2467.12586	13658.6125
2469.88492	13633.0125
2472.64224	13665.1125
2475.39782	13655.1125
2478.15167	13651.0125
2480.90379	13660.8125
2483.65417	13666.5125
2486.40283	13653.2125
2489.14976	13681.6125
2491.89497	13655.2125
2494.63845	13679.0125
2497.3802	13689.0125
2500.12024	13710.3125
2502.85855	13674.9125
2505.59514	13656.2125
2508.33002	13625.5125
2511.06318	13624.7125
2513.79462	13594.7125
2516.52435	13546.0125
2519.25237	13543.4125
2521.97867	13503.9125
2524.70327	13510.5125
2527.42616	13489.2125
2530.14734	13465.4125
2532.86681	13466.1125
2535.58458	13452.5125
2538.30065	13410.9125
2541.01501	13411.9125
2543.72768	13388.9125
2546.43864	13381.5125
2549.14791	13373.5125
2551.85548	13405.3125
2554.56136	13349.2125
2557.26554	13333.3125
2559.96803	13337.4125
2562.66883	13306.5125
2565.36794	13275.2125
2568.06536	13284.3125
2570.7611	13264.8125
2573.45514	13260.7125
2576.14751	13256.6125
2578.83819	13208.9125
2581.52719	13220.2125
2584.21451	13193.6125
2586.90015	13210.5125
2589.58411	13162.5125
2592.2664	13161.6125
2594.94701	13158.0125
2597.62594	13146.8125
2600.30321	13124.4125
2602.9788	13120.7125
2605.65273	13112.7125
2608.32498	13114.4125
2610.99557	13089.0125
2613.66449	13074.4125
2616.33175	13095.4125
2618.99734	13070.6125
2621.66128	13101.9125
2624.32355	13093.4125
2626.98416	13087.5125
2629.64311	13058.7125
2632.30041	13073.2125
2634.95605	13069.1125
2637.61004	13048.2125
2640.26238	13006.4125
2642.91306	13020.6125
2645.56209	12966.7125
2648.20948	12957.2125
2650.85521	12948.5125
2653.4993	12952.6125
2656.14175	12971.7125
2658.78255	12945.8125
2661.42171	12969.4125
2664.05923	12967.2125
2666.6951	12979.5125
2669.32934	13011.4125
2671.96194	13000.4125
2674.59291	13022.5125
2677.22224	13030.4125
2679.84993	13048.0125
2682.476	13010.6125
2685.10043	13035.6125
2687.72324	13020.8125
2690.34441	13014.1125
2692.96396	13012.6125
2695.58188	13036.2125
2698.19818	13004.0125
2700.81285	13014.4125
2703.4259	13015.5125
2706.03733	13015.0125
2708.64714	12997.9125
2711.25533	13014.1125
2713.86191	13013.2125
2716.46687	13010.0125
2719.07021	12998.0125
2721.67194	13032.4125
2724.27206	13012.7125
2726.87057	13031.3125
2729.46747	13010.6125
2732.06276	13049.0125
2734.65644	13046.5125
2737.24852	13027.4125
2739.83899	13006.9125
2742.42786	13013.6125
2745.01513	13003.8125
2747.60079	12995.6125
2750.18486	12971.1125
2752.76733	12996.2125
2755.3482	12969.3125
2757.92747	12982.9125
2760.50515	12967.3125
2763.08123	12959.3125
2765.65573	12921.1125
2768.22863	12956.6125
2770.79994	12939.3125
2773.36967	12917.5125
2775.9378	12905.2125
2778.50435	12909.3125
2781.06932	12878.8125
2783.6327	12893.0125
2786.1945	12897.1125
2788.75471	12884.9125
2791.31335	12861.4125
2793.87041	12846.4125
2796.42589	12822.7125
2798.97979	12830.3125
2801.53212	12819.3125
2804.08288	12813.2125
2806.63206	12776.8125
2809.17967	12798.5125
2811.72571	12754.6125
2814.27018	12797.0125
2816.81308	12780.6125
2819.35442	12776.8125
2821.89419	12775.7125
2824.43239	12809.6125
2826.96904	12804.4125
2829.50412	12793.9125
2832.03763	12792.5125
2834.56959	12809.3125
2837.1	12795.9125
2839.62884	12807.6125
2842.15613	12793.8125
2844.68186	12851.3125
2847.20604	12890.9125
2849.72867	12906.7125
2852.24974	12926.7125
2854.76927	12912.2125
2857.28724	12850.4125
2859.80367	12860.8125
2862.31855	12807.4125
2864.83189	12791.7125
2867.34368	12772.8125
2869.85393	12751.2125
2872.36264	12725.3125
2874.8698	12701.6125
2877.37543	12729.1125
2879.87952	12726.6125
2882.38207	12696.3125
2884.88308	12700.7125
2887.38256	12702.9125
2889.88051	12675.8125
2892.37692	12654.5125
2894.8718	12698.8125
2897.36515	12660.1125
2899.85698	12658.8125
2902.34727	12678.3125
2904.83604	12675.0125
2907.32328	12651.8125
2909.809	12673.7125
2912.29319	12642.9125
2914.77587	12639.2125
2917.25702	12625.7125
2919.73665	12620.8125
2922.21476	12614.5125
2924.69136	12580.1125
2927.16644	12560.3125
2929.64	12530.3125
2932.11205	12529.6125
2934.58258	12492.0125
2937.05161	12494.6125
2939.51912	12480.3125
2941.98513	12407.1125
2944.44962	12374.0125
2946.91261	12285.7125
2949.37409	12281.7125
2951.83407	12241.1125
2954.29254	12222.6125
2956.74951	12162.4125
2959.20498	12151.2125
2961.65895	12107.2125
2964.11142	12124.9125
2966.56239	12055.6125
2969.01186	12028.4125
2971.45984	11964.3125
2973.90632	11949.9125
2976.35131	11903.9125
2978.7948	11912.1125
2981.23681	11872.1125
2983.67732	11838.4125
2986.11635	11779.5125
2988.55388	11760.5125
2990.98993	11714.5125
2993.4245	11708.9125
2995.85758	11661.8125
2998.28917	11637.3125
3000.71928	11588.9125
3003.14791	11564.2125
3005.57506	11540.9125
3008.00073	11521.9125
3010.42493	11501.2125
3012.84764	11470.3125
3015.26888	11463.1125
3017.68865	11421.6125
3020.10694	11425.8125
3022.52376	11386.8125
3024.9391	11375.7125
