Data from AgNP_FTO_APTES_CRN_200uM_R6G_10uM_NaF_0.1M_Addition_RamanShift__8__19-26-18-167.txt Node

Date: Wed Dec 15 19:26:18 GMT 2021
User: TCL
Spectrometer: QEP01345
Trigger mode: 4
Integration Time (sec): 7.000000E0
Scans to average: 10
Electric dark correction enabled: true
Nonlinearity correction enabled: false
Boxcar width: 0
XAxis mode: Raman Shifts
Number of Pixels in Spectrum: 1044
>>>>>Begin Spectral Data<<<<<
46.04893	0.8625
50.45542	-1.0375
54.85868	-0.9375
59.25871	-1.3375
63.6555	53.4625
68.04907	60.0625
72.43941	60.8625
76.82654	66.4625
81.21044	69.4625
85.59113	73.8625
89.96862	75.8625
94.34289	72.2625
98.71396	78.2625
103.08183	83.7625
107.4465	86.6625
111.80798	84.3625
116.16626	91.4625
120.52136	91.2625
124.87327	90.0625
129.222	95.0625
133.56755	94.5625
137.90993	99.6625
142.24913	111.6625
146.58517	121.3625
150.91804	140.2625
155.24774	160.5625
159.57429	198.2625
163.89768	248.9625
168.21792	323.2625
172.53501	431.2625
176.84895	601.4625
181.15975	840.8625
185.46741	1175.5625
189.77193	1617.9625
194.07331	2164.6625
198.37157	2774.1625
202.6667	3441.8625
206.9587	4078.7625
211.24758	4720.6625
215.53334	5359.3625
219.81599	6003.3625
224.09553	6734.7625
228.37195	7514.9625
232.64527	8427.6625
236.91549	9334.9625
241.18261	10296.0625
245.44663	11237.7625
249.70755	12093.6625
253.96539	12842.1625
258.22014	13463.4625
262.4718	13967.6625
266.72039	14275.3625
270.96589	14474.1625
275.20832	14512.1625
279.44768	14452.4625
283.68397	14297.7625
287.91719	14206.5625
292.14735	14118.3625
296.37445	14107.7625
300.59849	14060.8625
304.81948	14057.3625
309.03742	13995.2625
313.25231	13865.3625
317.46415	13671.0625
321.67296	13389.7625
325.87872	13163.1625
330.08145	13034.8625
334.28114	13022.1625
338.47781	13096.6625
342.67145	13252.6625
346.86207	13387.0625
351.04966	13590.8625
355.23424	13768.5625
359.4158	13909.7625
363.59435	14011.6625
367.76989	14111.6625
371.94243	14142.0625
376.11196	14165.7625
380.27849	14201.4625
384.44203	14276.3625
388.60257	14395.5625
392.76012	14552.7625
396.91468	14735.1625
401.06626	14934.0625
405.21485	15111.9625
409.36047	15119.5625
413.50311	15042.0625
417.64277	14928.5625
421.77947	14978.9625
425.9132	14999.8625
430.04396	15109.6625
434.17176	15172.0625
438.2966	15218.9625
442.41849	15347.1625
446.53742	15609.6625
450.6534	15818.2625
454.76644	16044.2625
458.87653	16155.1625
462.98368	16161.8625
467.08789	16146.5625
471.18916	16103.6625
475.2875	16083.5625
479.38291	16056.3625
483.4754	15972.3625
487.56496	15799.9625
491.6516	15604.1625
495.73531	15441.3625
499.81612	15352.6625
503.89401	15461.3625
507.96899	15554.9625
512.04106	15534.0625
516.11023	15565.4625
520.1765	15478.2625
524.23987	15372.0625
528.30034	15267.2625
532.35792	15165.9625
536.41261	15029.2625
540.46441	14949.3625
544.51333	14968.3625
548.55936	15122.7625
552.60252	15400.9625
556.64279	15659.2625
560.6802	15805.3625
564.71473	15935.4625
568.7464	16081.1625
572.7752	16401.1625
576.80114	16735.7625
580.82422	17156.2625
584.84444	17571.6625
588.86181	17890.8625
592.87633	18107.3625
596.888	17960.4625
600.89682	17542.6625
604.9028	17402.7625
608.90594	17926.1625
612.90624	18508.0625
616.90371	17655.3625
620.89834	15884.4625
624.89015	15118.7625
628.87913	15047.6625
632.86528	15171.6625
636.84862	15217.9625
640.82913	15145.7625
644.80683	14888.6625
648.78172	14761.8625
652.75379	14771.0625
656.72306	14809.3625
660.68952	14937.5625
664.65319	14884.9625
668.61405	14806.6625
672.57211	14798.1625
676.52738	14800.0625
680.47986	14893.7625
684.42955	14838.9625
688.37646	14760.7625
692.32058	14796.2625
696.26192	14897.5625
700.20048	15034.2625
704.13626	15133.2625
708.06928	15224.6625
711.99952	15225.3625
715.927	15222.7625
719.85171	15182.8625
723.77365	15068.8625
727.69284	14953.7625
731.60928	14791.3625
735.52295	14784.5625
739.43388	14747.9625
743.34206	14776.1625
747.24749	14800.9625
751.15017	14929.2625
755.05012	15087.4625
758.94733	15393.1625
762.8418	15896.6625
766.73354	16666.3625
770.62254	17336.6625
774.50882	17426.1625
778.39237	16809.6625
782.27321	16011.1625
786.15132	15407.0625
790.02671	14982.8625
793.89938	14751.1625
797.76935	14691.8625
801.6366	14638.4625
805.50115	14617.1625
809.36299	14595.9625
813.22213	14542.3625
817.07857	14515.2625
820.93231	14512.2625
824.78336	14454.4625
828.63172	14444.3625
832.47738	14454.7625
836.32036	14446.4625
840.16066	14466.7625
843.99827	14419.3625
847.8332	14389.4625
851.66546	14357.4625
855.49504	14361.2625
859.32195	14318.7625
863.1462	14345.6625
866.96777	14336.1625
870.78668	14312.3625
874.60293	14356.3625
878.41652	14344.8625
882.22745	14393.4625
886.03573	14423.8625
889.84136	14436.2625
893.64433	14402.4625
897.44466	14397.2625
901.24235	14349.0625
905.0374	14314.5625
908.8298	14314.9625
912.61957	14343.7625
916.40671	14453.0625
920.19121	14568.3625
923.97308	14651.2625
927.75233	14632.6625
931.52895	14555.9625
935.30295	14370.1625
939.07433	14175.6625
942.84309	14018.4625
946.60924	13927.0625
950.37278	13895.5625
954.13371	13871.3625
957.89203	13888.0625
961.64774	13884.1625
965.40086	13846.3625
969.15137	13838.2625
972.89929	13749.0625
976.64461	13713.6625
980.38733	13657.0625
984.12747	13655.6625
987.86502	13688.2625
991.59999	13731.6625
995.33237	13816.9625
999.06217	13929.1625
1002.78939	14040.0625
1006.51404	14201.2625
1010.23611	14390.6625
1013.95561	14538.6625
1017.67255	14548.6625
1021.38692	14481.9625
1025.09872	14340.3625
1028.80796	14217.3625
1032.51465	14180.6625
1036.21877	14180.3625
1039.92035	14245.7625
1043.61937	14342.2625
1047.31584	14410.8625
1051.00976	14520.1625
1054.70114	14641.9625
1058.38998	14863.9625
1062.07627	15133.5625
1065.76003	15554.2625
1069.44126	15918.7625
1073.11995	16259.1625
1076.79611	16385.7625
1080.46974	16178.1625
1084.14085	15872.1625
1087.80943	15641.8625
1091.47549	15510.1625
1095.13903	15501.9625
1098.80005	15362.5625
1102.45857	15067.6625
1106.11456	14807.9625
1109.76805	14628.4625
1113.41903	14584.9625
1117.06751	14646.2625
1120.71348	14732.8625
1124.35696	14876.0625
1127.99793	15066.4625
1131.63641	15235.5625
1135.2724	15168.5625
1138.90589	15111.6625
1142.5369	15079.3625
1146.16542	15127.5625
1149.79145	15214.1625
1153.415	15320.3625
1157.03607	15438.8625
1160.65467	15724.6625
1164.27079	16204.1625
1167.88443	16828.6625
1171.49561	17543.7625
1175.10432	18388.1625
1178.71056	19431.3625
1182.31434	20348.4625
1185.91565	20808.4625
1189.51451	20791.3625
1193.11091	20430.0625
1196.70485	19855.5625
1200.29634	19235.2625
1203.88538	18748.8625
1207.47197	18543.7625
1211.05612	18334.5625
1214.63782	18071.3625
1218.21708	17700.4625
1221.79391	17250.2625
1225.36829	16941.6625
1228.94024	16746.5625
1232.50976	16649.6625
1236.07685	16545.5625
1239.6415	16541.0625
1243.20374	16547.0625
1246.76355	16607.2625
1250.32093	16754.0625
1253.8759	17011.4625
1257.42845	17297.6625
1260.97859	17690.2625
1264.52631	18004.2625
1268.07163	18312.4625
1271.61453	18627.9625
1275.15503	18979.6625
1278.69312	19337.4625
1282.22882	19768.4625
1285.76211	20289.0625
1289.29301	20882.8625
1292.82151	21657.8625
1296.34761	22502.0625
1299.87133	23442.4625
1303.39266	24339.6625
1306.9116	25033.7625
1310.42815	25669.5625
1313.94233	25991.8625
1317.45412	25992.4625
1320.96354	25796.2625
1324.47058	25654.3625
1327.97525	25608.7625
1331.47754	25555.4625
1334.97747	25528.0625
1338.47502	25473.2625
1341.97022	25451.7625
1345.46305	25379.2625
1348.95352	25278.5625
1352.44163	25225.6625
1355.92738	25381.9625
1359.41078	25790.8625
1362.89183	26177.4625
1366.37053	25806.2625
1369.84688	24407.6625
1373.32088	22550.6625
1376.79254	21198.9625
1380.26186	20589.6625
1383.72883	20499.2625
1387.19347	20401.6625
1390.65578	20257.3625
1394.11575	20169.6625
1397.57339	20211.5625
1401.0287	20334.7625
1404.48168	20392.1625
1407.93234	20245.4625
1411.38068	19853.7625
1414.82669	19267.8625
1418.27039	18594.0625
1421.71177	17992.2625
1425.15083	17445.7625
1428.58758	17214.1625
1432.02203	17256.7625
1435.45416	17561.5625
1438.88399	17882.5625
1442.31151	18113.9625
1445.73673	18344.8625
1449.15965	18514.0625
1452.58027	18664.2625
1455.9986	18764.9625
1459.41463	18996.3625
1462.82837	19209.5625
1466.23982	19517.3625
1469.64898	19751.3625
1473.05586	19956.5625
1476.46045	19989.1625
1479.86276	19946.1625
1483.26279	19841.1625
1486.66054	19854.9625
1490.05602	19961.0625
1493.44922	20154.5625
1496.84016	20486.3625
1500.22882	20985.4625
1503.61521	21588.9625
1506.99934	22220.2625
1510.38121	22624.5625
1513.76081	22642.7625
1517.13816	22303.7625
1520.51324	21764.2625
1523.88607	21392.6625
1527.25665	21213.0625
1530.62498	21133.1625
1533.99105	20996.6625
1537.35488	20760.8625
1540.71647	20377.2625
1544.07581	19936.1625
1547.4329	19440.9625
1550.78776	19077.2625
1554.14038	18790.6625
1557.49077	18642.5625
1560.83892	18624.8625
1564.18484	18722.4625
1567.52853	18907.5625
1570.86999	19318.5625
1574.20922	19868.6625
1577.54624	20486.8625
1580.88103	20773.7625
1584.2136	20810.4625
1587.54395	20669.6625
1590.87208	20712.0625
1594.19801	21048.3625
1597.52172	21554.5625
1600.84321	21705.4625
1604.16251	21091.3625
1607.47959	19977.6625
1610.79447	18787.0625
1614.10715	17679.6625
1617.41763	16681.3625
1620.7259	15941.6625
1624.03199	15568.0625
1627.33587	15456.3625
1630.63757	15682.8625
1633.93707	16302.5625
1637.23439	17393.3625
1640.52951	19047.4625
1643.82246	20907.7625
1647.11321	22614.9625
1650.40179	23156.2625
1653.68819	22102.8625
1656.97241	20106.2625
1660.25446	17942.1625
1663.53433	16224.0625
1666.81203	15040.3625
1670.08756	14230.0625
1673.36092	13711.0625
1676.63211	13378.8625
1679.90115	13134.2625
1683.16801	12949.6625
1686.43272	12811.3625
1689.69527	12746.3625
1692.95567	12665.8625
1696.2139	12651.3625
1699.46999	12598.9625
1702.72392	12564.3625
1705.97571	12519.3625
1709.22535	12481.8625
1712.47284	12454.3625
1715.71819	12437.9625
1718.96139	12407.1625
1722.20246	12371.4625
1725.44139	12310.4625
1728.67818	12261.7625
1731.91284	12184.5625
1735.14537	12138.0625
1738.37576	12132.2625
1741.60403	12093.5625
1744.83017	12077.0625
1748.05418	12069.7625
1751.27607	12014.5625
1754.49584	12010.7625
1757.71349	12034.0625
1760.92903	12038.3625
1764.14244	12020.0625
1767.35375	12002.0625
1770.56294	11998.2625
1773.77002	11965.4625
1776.97499	11945.1625
1780.17785	11901.5625
1783.37861	11858.2625
1786.57727	11839.5625
1789.77382	11797.6625
1792.96828	11787.0625
1796.16064	11786.8625
1799.3509	11743.8625
1802.53907	11723.5625
1805.72514	11683.3625
1808.90913	11645.6625
1812.09102	11630.9625
1815.27083	11613.6625
1818.44856	11603.7625
1821.6242	11581.7625
1824.79776	11579.0625
1827.96924	11537.1625
1831.13864	11570.9625
1834.30597	11577.9625
1837.47122	11543.7625
1840.6344	11540.6625
1843.7955	11561.0625
1846.95454	11526.3625
1850.11151	11508.8625
1853.26642	11500.6625
1856.41926	11481.7625
1859.57004	11477.2625
1862.71876	11464.6625
1865.86542	11445.7625
1869.01003	11445.7625
1872.15258	11422.0625
1875.29308	11402.6625
1878.43152	11368.2625
1881.56792	11353.7625
1884.70227	11363.7625
1887.83457	11345.7625
1890.96482	11322.2625
1894.09304	11287.3625
1897.21921	11280.8625
1900.34335	11302.7625
1903.46544	11253.0625
1906.58551	11288.4625
1909.70353	11227.3625
1912.81953	11224.3625
1915.93349	11197.8625
1919.04543	11180.8625
1922.15534	11154.1625
1925.26322	11133.0625
1928.36908	11110.3625
1931.47292	11101.5625
1934.57473	11080.1625
1937.67453	11036.4625
1940.77232	11014.1625
1943.86808	10982.6625
1946.96184	10949.0625
1950.05358	10948.5625
1953.14331	10905.8625
1956.23103	10864.6625
1959.31675	10850.1625
1962.40046	10814.9625
1965.48217	10770.1625
1968.56188	10747.4625
1971.63959	10701.2625
1974.7153	10677.1625
1977.78901	10648.7625
1980.86073	10626.9625
1983.93046	10584.4625
1986.99819	10548.6625
1990.06394	10522.1625
1993.1277	10484.5625
1996.18947	10444.8625
1999.24925	10434.8625
2002.30706	10407.5625
2005.36288	10369.9625
2008.41672	10342.4625
2011.46859	10294.6625
2014.51848	10287.9625
2017.56639	10254.0625
2020.61233	10240.1625
2023.6563	10216.2625
2026.6983	10188.4625
2029.73833	10181.4625
2032.7764	10147.7625
2035.8125	10108.2625
2038.84664	10088.3625
2041.87881	10078.1625
2044.90903	10047.6625
2047.93729	10030.2625
2050.96359	10034.4625
2053.98794	9993.3625
2057.01034	10011.2625
2060.03078	9976.3625
2063.04927	10002.0625
2066.06582	9982.9625
2069.08042	9958.5625
2072.09307	9977.7625
2075.10378	9941.1625
2078.11255	9917.7625
2081.11938	9928.5625
2084.12426	9927.3625
2087.12722	9935.8625
2090.12824	9912.3625
2093.12732	9949.4625
2096.12447	9948.7625
2099.11969	9939.9625
2102.11299	9941.8625
2105.10435	9945.8625
2108.09379	9947.3625
2111.08131	9958.7625
2114.0669	9945.0625
2117.05057	9959.7625
2120.03233	9950.5625
2123.01216	9987.0625
2125.99008	9957.7625
2128.96609	9983.3625
2131.94018	9997.9625
2134.91236	9978.2625
2137.88263	9994.7625
2140.851	10013.0625
2143.81746	9993.7625
2146.78201	9994.9625
2149.74466	10006.4625
2152.7054	10007.7625
2155.66425	10005.3625
2158.6212	10021.9625
2161.57625	10020.3625
2164.52941	9981.7625
2167.48067	9992.0625
2170.43004	9962.9625
2173.37752	9955.0625
2176.32311	9988.9625
2179.26681	9969.2625
2182.20863	9964.7625
2185.14856	9959.8625
2188.08661	9947.5625
2191.02278	9944.6625
2193.95707	9929.7625
2196.88948	9924.2625
2199.82001	9916.9625
2202.74867	9918.6625
2205.67545	9890.6625
2208.60037	9919.9625
2211.52341	9873.3625
2214.44458	9863.7625
2217.36388	9818.4625
2220.28132	9817.3625
2223.1969	9765.4625
2226.11061	9772.7625
2229.02246	9738.3625
2231.93245	9750.1625
2234.84058	9719.6625
2237.74686	9741.2625
2240.65128	9710.0625
2243.55385	9686.5625
2246.45456	9678.4625
2249.35343	9647.0625
2252.25044	9637.7625
2255.14561	9622.8625
2258.03893	9613.6625
2260.93041	9604.3625
2263.82004	9566.7625
2266.70783	9552.0625
2269.59378	9510.9625
2272.4779	9490.2625
2275.36017	9474.7625
2278.24061	9446.3625
2281.11922	9431.5625
2283.996	9405.2625
2286.87094	9414.9625
2289.74405	9356.2625
2292.61534	9339.2625
2295.4848	9355.7625
2298.35243	9350.6625
2301.21824	9325.7625
2304.08223	9326.5625
2306.94439	9314.4625
2309.80474	9331.4625
2312.66327	9303.8625
2315.51999	9305.0625
2318.37489	9294.8625
2321.22797	9268.0625
2324.07925	9280.1625
2326.92871	9244.5625
2329.77637	9260.0625
2332.62222	9239.8625
2335.46626	9194.0625
2338.3085	9186.6625
2341.14893	9177.9625
2343.98756	9194.2625
2346.8244	9170.7625
2349.65943	9140.5625
2352.49267	9147.4625
2355.32411	9166.7625
2358.15376	9145.5625
2360.98161	9138.7625
2363.80768	9147.0625
2366.63195	9112.3625
2369.45444	9119.1625
2372.27514	9110.1625
2375.09405	9115.6625
2377.91118	9073.6625
2380.72652	9055.7625
2383.54009	9027.7625
2386.35187	9035.0625
2389.16188	8975.4625
2391.97011	8987.1625
2394.77657	8956.0625
2397.58125	8947.7625
2400.38416	8947.4625
2403.18529	8938.2625
2405.98466	8906.1625
2408.78226	8905.8625
2411.57809	8902.4625
2414.37216	8884.6625
2417.16446	8879.6625
2419.955	8843.3625
2422.74378	8851.5625
2425.5308	8808.8625
2428.31606	8816.2625
2431.09956	8822.2625
2433.88131	8811.5625
2436.6613	8809.9625
2439.43954	8801.2625
2442.21603	8775.4625
2444.99077	8773.5625
2447.76377	8766.2625
2450.53501	8781.3625
2453.30451	8756.1625
2456.07226	8769.0625
2458.83827	8754.8625
2461.60254	8726.2625
2464.36507	8714.8625
2467.12586	8694.4625
2469.88492	8723.1625
2472.64224	8687.9625
2475.39782	8688.9625
2478.15167	8694.6625
2480.90379	8688.8625
2483.65417	8677.2625
2486.40283	8679.5625
2489.14976	8667.6625
2491.89497	8652.1625
2494.63845	8661.6625
2497.3802	8656.9625
2500.12024	8657.5625
2502.85855	8637.5625
2505.59514	8621.2625
2508.33002	8614.8625
2511.06318	8607.6625
2513.79462	8599.0625
2516.52435	8600.7625
2519.25237	8581.1625
2521.97867	8573.4625
2524.70327	8568.6625
2527.42616	8554.8625
2530.14734	8509.8625
2532.86681	8523.7625
2535.58458	8502.0625
2538.30065	8515.8625
2541.01501	8507.7625
2543.72768	8483.1625
2546.43864	8475.0625
2549.14791	8444.6625
2551.85548	8425.7625
2554.56136	8441.7625
2557.26554	8400.9625
2559.96803	8404.6625
2562.66883	8398.0625
2565.36794	8377.4625
2568.06536	8372.6625
2570.7611	8370.4625
2573.45514	8350.4625
2576.14751	8329.6625
2578.83819	8311.7625
2581.52719	8308.4625
2584.21451	8287.3625
2586.90015	8297.7625
2589.58411	8261.6625
2592.2664	8248.0625
2594.94701	8217.9625
2597.62594	8232.7625
2600.30321	8215.9625
2602.9788	8205.8625
2605.65273	8181.8625
2608.32498	8179.0625
2610.99557	8152.3625
2613.66449	8171.6625
2616.33175	8144.7625
2618.99734	8131.9625
2621.66128	8119.5625
2624.32355	8109.0625
2626.98416	8119.0625
2629.64311	8101.1625
2632.30041	8095.2625
2634.95605	8075.2625
2637.61004	8065.2625
2640.26238	8054.8625
2642.91306	8063.9625
2645.56209	8042.4625
2648.20948	8051.7625
2650.85521	8040.1625
2653.4993	8030.0625
2656.14175	8033.0625
2658.78255	8029.3625
2661.42171	8037.7625
2664.05923	8043.7625
2666.6951	8036.8625
2669.32934	8036.8625
2671.96194	8025.2625
2674.59291	8021.6625
2677.22224	8028.2625
2679.84993	8033.2625
2682.476	8016.7625
2685.10043	8021.5625
2687.72324	8015.5625
2690.34441	8023.6625
2692.96396	8012.1625
2695.58188	8030.1625
2698.19818	8000.0625
2700.81285	8029.8625
2703.4259	8031.2625
2706.03733	8077.9625
2708.64714	8051.0625
2711.25533	8052.6625
2713.86191	8029.2625
2716.46687	8026.4625
2719.07021	8037.7625
2721.67194	8035.6625
2724.27206	8010.7625
2726.87057	8028.6625
2729.46747	7989.1625
2732.06276	8028.7625
2734.65644	8001.7625
2737.24852	7987.4625
2739.83899	7993.6625
2742.42786	7979.4625
2745.01513	7989.4625
2747.60079	7977.4625
2750.18486	7958.3625
2752.76733	7941.1625
2755.3482	7943.3625
2757.92747	7937.1625
2760.50515	7920.0625
2763.08123	7901.3625
2765.65573	7905.4625
2768.22863	7897.3625
2770.79994	7904.8625
2773.36967	7875.8625
2775.9378	7876.3625
2778.50435	7866.8625
2781.06932	7848.0625
2783.6327	7862.9625
2786.1945	7847.5625
2788.75471	7835.2625
2791.31335	7829.2625
2793.87041	7826.1625
2796.42589	7787.4625
2798.97979	7797.3625
2801.53212	7773.1625
2804.08288	7767.5625
2806.63206	7733.1625
2809.17967	7698.8625
2811.72571	7695.1625
2814.27018	7685.8625
2816.81308	7677.0625
2819.35442	7665.5625
2821.89419	7663.5625
2824.43239	7643.6625
2826.96904	7625.3625
2829.50412	7622.5625
2832.03763	7625.6625
2834.56959	7629.5625
2837.1	7601.2625
2839.62884	7619.9625
2842.15613	7634.8625
2844.68186	7668.9625
2847.20604	7665.2625
2849.72867	7674.5625
2852.24974	7658.4625
2854.76927	7647.4625
2857.28724	7656.2625
2859.80367	7616.0625
2862.31855	7615.7625
2864.83189	7608.1625
2867.34368	7577.7625
2869.85393	7583.3625
2872.36264	7567.7625
2874.8698	7569.0625
2877.37543	7581.9625
2879.87952	7597.5625
2882.38207	7574.5625
2884.88308	7561.4625
2887.38256	7567.4625
2889.88051	7563.3625
2892.37692	7563.4625
2894.8718	7566.9625
2897.36515	7557.4625
2899.85698	7552.3625
2902.34727	7572.3625
2904.83604	7583.2625
2907.32328	7595.4625
2909.809	7564.9625
2912.29319	7600.4625
2914.77587	7587.5625
2917.25702	7556.4625
2919.73665	7567.7625
2922.21476	7558.5625
2924.69136	7562.2625
2927.16644	7567.5625
2929.64	7565.6625
2932.11205	7547.6625
2934.58258	7551.3625
2937.05161	7555.6625
2939.51912	7536.9625
2941.98513	7535.5625
2944.44962	7491.5625
2946.91261	7472.0625
2949.37409	7484.6625
2951.83407	7457.1625
2954.29254	7442.7625
2956.74951	7450.5625
2959.20498	7424.1625
2961.65895	7418.7625
2964.11142	7424.1625
2966.56239	7416.7625
2969.01186	7399.4625
2971.45984	7362.5625
2973.90632	7369.8625
2976.35131	7335.6625
2978.7948	7318.8625
2981.23681	7324.2625
2983.67732	7318.9625
2986.11635	7289.3625
2988.55388	7272.2625
2990.98993	7240.6625
2993.4245	7237.8625
2995.85758	7212.2625
2998.28917	7183.0625
3000.71928	7183.2625
3003.14791	7204.5625
3005.57506	7184.8625
3008.00073	7149.7625
3010.42493	7157.3625
3012.84764	7142.6625
3015.26888	7112.2625
3017.68865	7129.0625
3020.10694	7118.3625
3022.52376	7101.0625
3024.9391	7092.3625
3027.35298	7069.3625
3029.76539	7065.5625
3032.17632	7076.3625
3034.5858	7052.5625
3036.9938	7051.4625
3039.40034	7030.1625
3041.80542	7037.3625
3044.20903	7013.7625
3046.61118	7009.4625
3049.01187	7023.6625
3051.4111	6993.2625
3053.80888	6993.4625
3056.20519	6970.0625
3058.60005	6966.1625
3060.99345	6931.9625
3063.3854	6939.8625
3065.7759	6915.5625
3068.16494	6919.1625
