Data from AgNP_FTO_APTES_CRN_500uM_R6G_10uM_NaF_0.1M_Addition_RamanShift__13__20-18-48-227.txt Node

Date: Wed Dec 15 20:18:48 GMT 2021
User: TCL
Spectrometer: QEP01345
Trigger mode: 4
Integration Time (sec): 7.000000E0
Scans to average: 10
Electric dark correction enabled: true
Nonlinearity correction enabled: false
Boxcar width: 0
XAxis mode: Raman Shifts
Number of Pixels in Spectrum: 1044
>>>>>Begin Spectral Data<<<<<
46.04893	2.175
50.45542	-2.225
54.85868	-1.325
59.25871	0.575
63.6555	53.475
68.04907	61.575
72.43941	60.375
76.82654	65.775
81.21044	68.675
85.59113	72.075
89.96862	72.775
94.34289	74.275
98.71396	76.075
103.08183	83.875
107.4465	83.875
111.80798	85.975
116.16626	84.275
120.52136	89.575
124.87327	89.275
129.222	92.375
133.56755	94.375
137.90993	108.775
142.24913	112.675
146.58517	122.675
150.91804	138.675
155.24774	164.675
159.57429	203.775
163.89768	255.175
168.21792	328.875
172.53501	449.575
176.84895	619.975
181.15975	865.975
185.46741	1211.575
189.77193	1680.375
194.07331	2251.975
198.37157	2903.275
202.6667	3616.675
206.9587	4279.175
211.24758	4952.575
215.53334	5624.975
219.81599	6319.975
224.09553	7043.875
228.37195	7862.275
232.64527	8761.275
236.91549	9734.875
241.18261	10741.275
245.44663	11718.875
249.70755	12588.575
253.96539	13404.075
258.22014	14064.175
262.4718	14589.475
266.72039	14936.375
270.96589	15079.475
275.20832	15162.575
279.44768	15107.975
283.68397	14999.175
287.91719	14953.575
292.14735	14799.975
296.37445	14755.075
300.59849	14715.375
304.81948	14644.875
309.03742	14577.975
313.25231	14446.275
317.46415	14281.075
321.67296	14044.075
325.87872	13842.575
330.08145	13752.075
334.28114	13822.475
338.47781	13922.475
342.67145	14022.775
346.86207	14187.975
351.04966	14367.775
355.23424	14540.275
359.4158	14673.075
363.59435	14804.675
367.76989	14895.175
371.94243	14964.075
376.11196	15038.475
380.27849	15133.675
384.44203	15211.675
388.60257	15286.975
392.76012	15418.775
396.91468	15613.775
401.06626	15801.375
405.21485	15967.975
409.36047	16011.975
413.50311	15970.575
417.64277	15881.275
421.77947	15937.475
425.9132	15996.175
430.04396	16077.775
434.17176	16202.975
438.2966	16307.475
442.41849	16470.175
446.53742	16694.875
450.6534	16874.375
454.76644	17080.975
458.87653	17168.775
462.98368	17234.675
467.08789	17216.975
471.18916	17218.175
475.2875	17150.275
479.38291	17134.575
483.4754	17063.275
487.56496	16973.875
491.6516	16867.975
495.73531	16746.175
499.81612	16666.475
503.89401	16721.075
507.96899	16802.175
512.04106	16822.175
516.11023	16828.675
520.1765	16787.975
524.23987	16722.775
528.30034	16635.875
532.35792	16543.375
536.41261	16471.175
540.46441	16414.475
544.51333	16451.475
548.55936	16615.475
552.60252	16810.975
556.64279	17039.675
560.6802	17134.975
564.71473	17244.575
568.7464	17408.975
572.7752	17736.575
576.80114	18086.475
580.82422	18374.175
584.84444	18595.775
588.86181	18735.175
592.87633	18786.475
596.888	18723.775
600.89682	18631.675
604.9028	18676.775
608.90594	19169.875
612.90624	19645.875
616.90371	18946.675
620.89834	17497.575
624.89015	16841.175
628.87913	16811.775
632.86528	16924.475
636.84862	16977.575
640.82913	16903.475
644.80683	16710.075
648.78172	16569.075
652.75379	16543.075
656.72306	16651.375
660.68952	16738.175
664.65319	16728.775
668.61405	16640.675
672.57211	16697.475
676.52738	16715.775
680.47986	16778.775
684.42955	16738.275
688.37646	16729.575
692.32058	16753.475
696.26192	16834.375
700.20048	16922.375
704.13626	16993.075
708.06928	17071.975
711.99952	17070.575
715.927	17049.175
719.85171	17008.475
723.77365	16927.575
727.69284	16815.375
731.60928	16642.375
735.52295	16614.875
739.43388	16619.975
743.34206	16593.775
747.24749	16681.975
751.15017	16750.375
755.05012	16910.875
758.94733	17125.875
762.8418	17607.075
766.73354	18266.475
770.62254	18883.575
774.50882	18964.275
778.39237	18482.575
782.27321	17799.275
786.15132	17225.675
790.02671	16830.875
793.89938	16599.475
797.76935	16509.775
801.6366	16500.475
805.50115	16477.875
809.36299	16401.275
813.22213	16347.575
817.07857	16364.675
820.93231	16394.275
824.78336	16373.375
828.63172	16355.675
832.47738	16328.975
836.32036	16327.275
840.16066	16336.675
843.99827	16316.175
847.8332	16314.275
851.66546	16319.375
855.49504	16279.075
859.32195	16328.275
863.1462	16345.075
866.96777	16300.975
870.78668	16323.975
874.60293	16310.575
878.41652	16332.475
882.22745	16352.475
886.03573	16381.175
889.84136	16416.275
893.64433	16411.175
897.44466	16396.275
901.24235	16323.075
905.0374	16317.175
908.8298	16298.075
912.61957	16340.275
916.40671	16470.975
920.19121	16580.975
923.97308	16609.175
927.75233	16582.375
931.52895	16465.575
935.30295	16374.375
939.07433	16196.875
942.84309	16064.275
946.60924	15982.075
950.37278	15882.075
954.13371	15885.575
957.89203	15857.675
961.64774	15851.675
965.40086	15847.275
969.15137	15820.875
972.89929	15753.175
976.64461	15722.475
980.38733	15673.675
984.12747	15687.575
987.86502	15716.475
991.59999	15747.975
995.33237	15789.575
999.06217	15837.675
1002.78939	15989.375
1006.51404	16095.875
1010.23611	16270.875
1013.95561	16370.375
1017.67255	16363.675
1021.38692	16292.975
1025.09872	16223.475
1028.80796	16172.775
1032.51465	16112.975
1036.21877	16106.475
1039.92035	16142.975
1043.61937	16192.375
1047.31584	16302.175
1051.00976	16383.775
1054.70114	16469.175
1058.38998	16590.475
1062.07627	16800.775
1065.76003	17041.175
1069.44126	17305.475
1073.11995	17527.675
1076.79611	17699.375
1080.46974	17612.275
1084.14085	17455.375
1087.80943	17337.475
1091.47549	17330.575
1095.13903	17310.575
1098.80005	17228.775
1102.45857	17041.475
1106.11456	16767.475
1109.76805	16639.575
1113.41903	16595.375
1117.06751	16621.575
1120.71348	16669.275
1124.35696	16799.875
1127.99793	16970.275
1131.63641	17056.675
1135.2724	16997.075
1138.90589	16937.175
1142.5369	16872.175
1146.16542	16934.875
1149.79145	16977.275
1153.415	17083.375
1157.03607	17143.775
1160.65467	17376.775
1164.27079	17696.475
1167.88443	18136.375
1171.49561	18675.575
1175.10432	19322.875
1178.71056	20032.775
1182.31434	20805.075
1185.91565	21296.775
1189.51451	21479.775
1193.11091	21409.475
1196.70485	21150.775
1200.29634	20707.475
1203.88538	20271.675
1207.47197	19977.175
1211.05612	19703.275
1214.63782	19458.975
1218.21708	19174.775
1221.79391	18823.675
1225.36829	18523.775
1228.94024	18356.675
1232.50976	18287.675
1236.07685	18230.375
1239.6415	18217.775
1243.20374	18246.875
1246.76355	18314.475
1250.32093	18409.375
1253.8759	18592.475
1257.42845	18883.275
1260.97859	19146.475
1264.52631	19393.975
1268.07163	19669.675
1271.61453	19935.175
1275.15503	20218.675
1278.69312	20457.375
1282.22882	20720.775
1285.76211	21040.875
1289.29301	21399.475
1292.82151	21897.375
1296.34761	22465.975
1299.87133	23131.875
1303.39266	23783.575
1306.9116	24335.875
1310.42815	24824.875
1313.94233	25033.875
1317.45412	24985.775
1320.96354	24928.575
1324.47058	24884.375
1327.97525	24868.575
1331.47754	24946.375
1334.97747	25057.775
1338.47502	25213.575
1341.97022	25463.475
1345.46305	25704.975
1348.95352	25792.775
1352.44163	25699.175
1355.92738	25572.875
1359.41078	25600.775
1362.89183	25566.375
1366.37053	25150.775
1369.84688	23953.875
1373.32088	22654.375
1376.79254	21659.275
1380.26186	21121.775
1383.72883	21016.075
1387.19347	20932.175
1390.65578	20778.875
1394.11575	20664.975
1397.57339	20645.775
1401.0287	20636.275
1404.48168	20620.475
1407.93234	20468.575
1411.38068	20194.675
1414.82669	19768.775
1418.27039	19270.875
1421.71177	18813.275
1425.15083	18398.875
1428.58758	18148.275
1432.02203	18149.475
1435.45416	18275.675
1438.88399	18460.575
1442.31151	18664.675
1445.73673	18803.075
1449.15965	18977.075
1452.58027	19186.075
1455.9986	19309.675
1459.41463	19475.575
1462.82837	19666.775
1466.23982	19926.675
1469.64898	20129.475
1473.05586	20295.375
1476.46045	20356.575
1479.86276	20388.375
1483.26279	20326.675
1486.66054	20354.375
1490.05602	20437.575
1493.44922	20686.675
1496.84016	20995.175
1500.22882	21508.775
1503.61521	22076.475
1506.99934	22632.975
1510.38121	22972.575
1513.76081	22990.775
1517.13816	22727.075
1520.51324	22340.975
1523.88607	22066.075
1527.25665	21896.875
1530.62498	21778.775
1533.99105	21651.175
1537.35488	21476.475
1540.71647	21108.575
1544.07581	20795.975
1547.4329	20396.875
1550.78776	20091.575
1554.14038	19872.975
1557.49077	19745.775
1560.83892	19728.175
1564.18484	19749.975
1567.52853	19873.775
1570.86999	20064.775
1574.20922	20378.975
1577.54624	20682.275
1580.88103	20858.275
1584.2136	20854.975
1587.54395	20825.375
1590.87208	20864.575
1594.19801	21096.975
1597.52172	21480.375
1600.84321	21516.075
1604.16251	21102.975
1607.47959	20383.075
1610.79447	19621.175
1614.10715	18789.275
1617.41763	18034.275
1620.7259	17423.875
1624.03199	17034.975
1627.33587	16868.175
1630.63757	16938.375
1633.93707	17324.075
1637.23439	18054.075
1640.52951	19172.775
1643.82246	20541.375
1647.11321	21758.575
1650.40179	22384.075
1653.68819	21961.575
1656.97241	20644.775
1660.25446	19075.975
1663.53433	17620.575
1666.81203	16580.775
1670.08756	15828.775
1673.36092	15312.975
1676.63211	14997.175
1679.90115	14759.075
1683.16801	14590.875
1686.43272	14465.575
1689.69527	14339.375
1692.95567	14304.575
1696.2139	14255.175
1699.46999	14227.975
1702.72392	14179.775
1705.97571	14165.275
1709.22535	14132.975
1712.47284	14081.775
1715.71819	14072.675
1718.96139	14048.875
1722.20246	13995.575
1725.44139	13956.975
1728.67818	13913.575
1731.91284	13825.575
1735.14537	13757.475
1738.37576	13710.975
1741.60403	13683.875
1744.83017	13668.375
1748.05418	13630.375
1751.27607	13610.375
1754.49584	13596.375
1757.71349	13596.075
1760.92903	13630.975
1764.14244	13611.675
1767.35375	13586.575
1770.56294	13556.575
1773.77002	13545.375
1776.97499	13486.875
1780.17785	13443.075
1783.37861	13432.075
1786.57727	13397.075
1789.77382	13372.875
1792.96828	13336.875
1796.16064	13305.775
1799.3509	13286.475
1802.53907	13260.975
1805.72514	13194.475
1808.90913	13176.175
1812.09102	13163.975
1815.27083	13139.975
1818.44856	13107.875
1821.6242	13078.775
1824.79776	13083.975
1827.96924	13057.275
1831.13864	13053.275
1834.30597	13048.475
1837.47122	13020.875
1840.6344	13023.375
1843.7955	12994.275
1846.95454	12993.375
1850.11151	12955.675
1853.26642	12953.275
1856.41926	12945.175
1859.57004	12924.375
1862.71876	12911.875
1865.86542	12903.175
1869.01003	12884.575
1872.15258	12869.975
1875.29308	12844.775
1878.43152	12831.975
1881.56792	12795.675
1884.70227	12787.475
1887.83457	12793.075
1890.96482	12756.475
1894.09304	12748.075
1897.21921	12693.375
1900.34335	12722.275
1903.46544	12677.075
1906.58551	12668.075
1909.70353	12617.675
1912.81953	12615.875
1915.93349	12607.375
1919.04543	12537.175
1922.15534	12555.875
1925.26322	12527.575
1928.36908	12505.275
1931.47292	12473.875
1934.57473	12453.075
1937.67453	12397.675
1940.77232	12414.675
1943.86808	12359.975
1946.96184	12333.475
1950.05358	12286.975
1953.14331	12232.275
1956.23103	12213.675
1959.31675	12178.875
1962.40046	12147.875
1965.48217	12143.575
1968.56188	12107.275
1971.63959	12027.775
1974.7153	11989.775
1977.78901	11973.575
1980.86073	11900.175
1983.93046	11870.875
1986.99819	11872.575
1990.06394	11817.475
1993.1277	11777.275
1996.18947	11732.475
1999.24925	11713.775
2002.30706	11668.075
2005.36288	11628.075
2008.41672	11578.675
2011.46859	11532.675
2014.51848	11530.775
2017.56639	11496.775
2020.61233	11465.275
2023.6563	11446.475
2026.6983	11407.475
2029.73833	11369.375
2032.7764	11353.175
2035.8125	11316.275
2038.84664	11284.875
2041.87881	11272.575
2044.90903	11232.075
2047.93729	11212.175
2050.96359	11221.375
2053.98794	11181.175
2057.01034	11151.375
2060.03078	11162.675
2063.04927	11158.275
2066.06582	11139.875
2069.08042	11139.175
2072.09307	11132.575
2075.10378	11110.175
2078.11255	11078.075
2081.11938	11104.375
2084.12426	11096.075
2087.12722	11084.375
2090.12824	11077.875
2093.12732	11071.675
2096.12447	11090.075
2099.11969	11061.375
2102.11299	11071.675
2105.10435	11095.275
2108.09379	11093.575
2111.08131	11075.775
2114.0669	11079.975
2117.05057	11073.075
2120.03233	11086.275
2123.01216	11099.975
2125.99008	11113.975
2128.96609	11106.875
2131.94018	11102.475
2134.91236	11101.775
2137.88263	11126.975
2140.851	11097.275
2143.81746	11137.175
2146.78201	11098.475
2149.74466	11098.975
2152.7054	11118.575
2155.66425	11127.275
2158.6212	11148.075
2161.57625	11108.175
2164.52941	11107.375
2167.48067	11116.775
2170.43004	11078.475
2173.37752	11074.675
2176.32311	11050.075
2179.26681	11048.875
2182.20863	11063.975
2185.14856	11050.775
2188.08661	11035.075
2191.02278	11023.475
2193.95707	11007.775
2196.88948	10999.075
2199.82001	10968.475
2202.74867	10967.975
2205.67545	10965.675
2208.60037	10956.975
2211.52341	10950.575
2214.44458	10912.775
2217.36388	10877.175
2220.28132	10872.975
2223.1969	10822.375
2226.11061	10807.775
2229.02246	10801.275
2231.93245	10772.075
2234.84058	10759.775
2237.74686	10737.975
2240.65128	10717.675
2243.55385	10678.075
2246.45456	10675.575
2249.35343	10651.975
2252.25044	10640.175
2255.14561	10624.375
2258.03893	10603.975
2260.93041	10604.575
2263.82004	10569.775
2266.70783	10552.575
2269.59378	10485.875
2272.4779	10478.075
2275.36017	10464.575
2278.24061	10430.775
2281.11922	10395.875
2283.996	10356.575
2286.87094	10340.375
2289.74405	10340.375
2292.61534	10312.875
2295.4848	10304.275
2298.35243	10300.775
2301.21824	10289.775
2304.08223	10260.975
2306.94439	10241.775
2309.80474	10214.975
2312.66327	10232.875
2315.51999	10202.175
2318.37489	10205.675
2321.22797	10183.675
2324.07925	10196.375
2326.92871	10174.575
2329.77637	10155.775
2332.62222	10119.275
2335.46626	10101.375
2338.3085	10100.375
2341.14893	10074.175
2343.98756	10047.175
2346.8244	10025.175
2349.65943	10024.875
2352.49267	10007.375
2355.32411	10008.175
2358.15376	10012.975
2360.98161	9982.075
2363.80768	9994.775
2366.63195	9988.575
2369.45444	9966.075
2372.27514	9944.675
2375.09405	9945.875
2377.91118	9923.075
2380.72652	9907.475
2383.54009	9860.775
2386.35187	9839.075
2389.16188	9834.075
2391.97011	9796.575
2394.77657	9791.375
2397.58125	9777.175
2400.38416	9770.775
2403.18529	9738.575
2405.98466	9727.275
2408.78226	9709.875
2411.57809	9690.375
2414.37216	9674.675
2417.16446	9662.775
2419.955	9644.775
2422.74378	9635.275
2425.5308	9627.575
2428.31606	9611.275
2431.09956	9585.475
2433.88131	9580.275
2436.6613	9579.275
2439.43954	9570.375
2442.21603	9560.275
2444.99077	9533.475
2447.76377	9515.975
2450.53501	9523.375
2453.30451	9488.075
2456.07226	9476.975
2458.83827	9462.375
2461.60254	9460.075
2464.36507	9460.075
2467.12586	9436.075
2469.88492	9440.175
2472.64224	9410.675
2475.39782	9407.475
2478.15167	9408.175
2480.90379	9373.575
2483.65417	9378.575
2486.40283	9351.175
2489.14976	9363.075
2491.89497	9343.875
2494.63845	9343.975
2497.3802	9349.075
2500.12024	9332.975
2502.85855	9320.975
2505.59514	9304.875
2508.33002	9302.975
2511.06318	9282.875
2513.79462	9262.275
2516.52435	9258.575
2519.25237	9249.475
2521.97867	9239.075
2524.70327	9241.975
2527.42616	9208.475
2530.14734	9206.875
2532.86681	9156.275
2535.58458	9151.875
2538.30065	9148.075
2541.01501	9129.675
2543.72768	9123.775
2546.43864	9097.175
2549.14791	9059.175
2551.85548	9060.275
2554.56136	9050.875
2557.26554	9001.675
2559.96803	9016.575
2562.66883	8974.775
2565.36794	8982.175
2568.06536	8957.275
2570.7611	8962.275
2573.45514	8958.075
2576.14751	8925.775
2578.83819	8891.675
2581.52719	8886.975
2584.21451	8849.675
2586.90015	8868.375
2589.58411	8816.275
2592.2664	8810.275
2594.94701	8779.475
2597.62594	8767.575
2600.30321	8740.375
2602.9788	8747.175
2605.65273	8706.875
2608.32498	8713.775
2610.99557	8688.275
2613.66449	8693.175
2616.33175	8649.275
2618.99734	8639.675
2621.66128	8633.275
2624.32355	8625.875
2626.98416	8614.775
2629.64311	8623.975
2632.30041	8611.575
2634.95605	8568.875
2637.61004	8578.275
2640.26238	8560.975
2642.91306	8549.275
2645.56209	8534.175
2648.20948	8532.775
2650.85521	8532.675
2653.4993	8527.675
2656.14175	8518.375
2658.78255	8513.975
2661.42171	8503.475
2664.05923	8494.275
2666.6951	8506.475
2669.32934	8509.075
2671.96194	8480.675
2674.59291	8500.875
2677.22224	8493.675
2679.84993	8492.375
2682.476	8477.475
2685.10043	8473.875
2687.72324	8441.875
2690.34441	8495.075
2692.96396	8481.975
2695.58188	8461.475
2698.19818	8442.875
2700.81285	8470.175
2703.4259	8464.875
2706.03733	8480.975
2708.64714	8484.175
2711.25533	8498.475
2713.86191	8451.575
2716.46687	8478.075
2719.07021	8440.575
2721.67194	8437.275
2724.27206	8423.475
2726.87057	8436.475
2729.46747	8446.275
2732.06276	8419.275
2734.65644	8405.975
2737.24852	8400.075
2739.83899	8371.675
2742.42786	8379.575
2745.01513	8365.275
2747.60079	8349.375
2750.18486	8351.475
2752.76733	8326.575
2755.3482	8324.175
2757.92747	8323.075
2760.50515	8296.675
2763.08123	8297.875
2765.65573	8271.375
2768.22863	8278.675
2770.79994	8276.075
2773.36967	8265.475
2775.9378	8237.075
2778.50435	8221.775
2781.06932	8205.075
2783.6327	8181.075
2786.1945	8189.075
2788.75471	8168.175
2791.31335	8143.675
2793.87041	8099.275
2796.42589	8109.275
2798.97979	8100.475
2801.53212	8085.175
2804.08288	8078.775
2806.63206	8029.075
2809.17967	8017.275
2811.72571	7988.075
2814.27018	7996.075
2816.81308	7984.275
2819.35442	7960.275
2821.89419	7955.675
2824.43239	7936.575
2826.96904	7926.875
2829.50412	7939.375
2832.03763	7900.475
2834.56959	7912.075
2837.1	7882.875
2839.62884	7900.875
2842.15613	7890.275
2844.68186	7903.375
2847.20604	7911.175
2849.72867	7931.375
2852.24974	7886.175
2854.76927	7890.075
2857.28724	7874.675
2859.80367	7870.375
2862.31855	7832.475
2864.83189	7833.175
2867.34368	7817.475
2869.85393	7825.775
2872.36264	7798.675
2874.8698	7776.675
2877.37543	7813.375
2879.87952	7802.975
2882.38207	7785.475
2884.88308	7794.075
2887.38256	7778.575
2889.88051	7796.075
2892.37692	7759.975
2894.8718	7756.275
2897.36515	7769.775
2899.85698	7754.875
2902.34727	7780.075
2904.83604	7759.375
2907.32328	7769.175
2909.809	7765.875
2912.29319	7763.975
2914.77587	7751.375
2917.25702	7738.175
2919.73665	7747.175
2922.21476	7747.475
2924.69136	7764.675
2927.16644	7743.975
2929.64	7721.475
2932.11205	7714.675
2934.58258	7691.475
2937.05161	7733.875
2939.51912	7711.875
2941.98513	7700.175
2944.44962	7678.875
2946.91261	7652.375
2949.37409	7671.175
2951.83407	7625.575
2954.29254	7655.575
2956.74951	7597.075
2959.20498	7610.475
2961.65895	7595.775
2964.11142	7603.275
2966.56239	7582.375
2969.01186	7573.475
2971.45984	7534.275
2973.90632	7528.475
2976.35131	7488.275
2978.7948	7483.475
2981.23681	7481.475
2983.67732	7461.475
2986.11635	7463.675
2988.55388	7424.875
2990.98993	7445.575
2993.4245	7414.175
2995.85758	7387.375
2998.28917	7364.575
3000.71928	7363.775
3003.14791	7337.375
3005.57506	7337.675
3008.00073	7321.575
3010.42493	7307.575
3012.84764	7291.675
3015.26888	7279.075
3017.68865	7287.175
3020.10694	7272.875
3022.52376	7256.275
3024.9391	7222.875
3027.35298	7232.575
3029.76539	7224.775
3032.17632	7203.975
3034.5858	7194.775
3036.9938	7178.875
3039.40034	7181.475
3041.80542	7165.375
3044.20903	7147.175
3046.61118	7154.575
3049.01187	7139.275
3051.4111	7122.475
3053.80888	7130.075
3056.20519	7100.375
3058.60005	7077.375
3060.99345	7064.075
3063.3854	7055.675
3065.7759	7052.075
3068.16494	7035.375
3070.55254	7008.075
3072.93868	7001.475
3075.32338	6972.775
3077.70662	6972.275
3080.08842	6936.875
3082.46878	6967.875
3084.84769	6931.575
3087.22515	6944.675
3089.60118	6964.875
3091.97576	6971.075
3094.3489	6956.475
3096.72061	6965.175
3099.09087	6955.675
3101.4597	6948.875
3103.82709	6926.275
3106.19305	6927.675
3108.55757	6913.675
3110.92066	6905.475
3113.28232	6858.875
3115.64255	6881.075
3118.00134	6865.375
3120.35871	6853.775
3122.71466	6831.075
3125.06917	6829.375
3127.42226	6825.475
3129.77393	6841.975
3132.12417	6828.675
3134.47299	6840.875
3136.82039	6842.475
3139.16636	6853.475
3141.51092	6831.275
3143.85406	6851.875
3146.19579	6858.275
3148.53609	6855.475
3150.87499	6871.275
3153.21246	6859.975
3155.54853	6875.075
3157.88318	6865.875
3160.21642	6865.975
3162.54826	6858.075
3164.87868	6870.975
