Data from AgNP_FTO_APTES_CRN_0uM_R6G_10uM_NaF_0.1M_Addition_RamanShift__42__12-18-42-948.txt Node

Date: Wed Dec 15 12:18:42 GMT 2021
User: TCL
Spectrometer: QEP01345
Trigger mode: 4
Integration Time (sec): 7.000000E0
Scans to average: 10
Electric dark correction enabled: true
Nonlinearity correction enabled: false
Boxcar width: 0
XAxis mode: Raman Shifts
Number of Pixels in Spectrum: 1044
>>>>>Begin Spectral Data<<<<<
46.04893	-0.0875
50.45542	-2.3875
54.85868	-1.3875
59.25871	-1.2875
63.6555	154.0125
68.04907	165.9125
72.43941	173.1125
76.82654	177.7125
81.21044	184.9125
85.59113	191.8125
89.96862	200.2125
94.34289	205.3125
98.71396	216.6125
103.08183	218.3125
107.4465	229.3125
111.80798	233.1125
116.16626	239.4125
120.52136	247.3125
124.87327	249.9125
129.222	262.6125
133.56755	274.4125
137.90993	287.6125
142.24913	313.1125
146.58517	345.5125
150.91804	396.7125
155.24774	462.0125
159.57429	564.6125
163.89768	711.1125
168.21792	925.8125
172.53501	1251.6125
176.84895	1721.9125
181.15975	2409.5125
185.46741	3359.0125
189.77193	4600.3125
194.07331	6155.4125
198.37157	7901.2125
202.6667	9754.2125
206.9587	11584.4125
211.24758	13395.9125
215.53334	15241.8125
219.81599	17231.9125
224.09553	19384.2125
228.37195	21777.9125
232.64527	24363.7125
236.91549	27106.4125
241.18261	29766.3125
245.44663	32249.0125
249.70755	34448.7125
253.96539	36371.1125
258.22014	37929.1125
262.4718	39267.4125
266.72039	40143.1125
270.96589	40530.9125
275.20832	40417.1125
279.44768	40099.7125
283.68397	39564.5125
287.91719	39183.8125
292.14735	38916.2125
296.37445	38783.3125
300.59849	38846.7125
304.81948	39070.9125
309.03742	39229.8125
313.25231	39261.2125
317.46415	39062.1125
321.67296	38711.8125
325.87872	38358.1125
330.08145	38208.1125
334.28114	38322.6125
338.47781	38546.7125
342.67145	38976.1125
346.86207	39588.2125
351.04966	40234.8125
355.23424	41002.7125
359.4158	41703.2125
363.59435	42297.7125
367.76989	42558.1125
371.94243	42754.1125
376.11196	42905.2125
380.27849	43025.7125
384.44203	43300.5125
388.60257	43716.5125
392.76012	44084.7125
396.91468	44597.4125
401.06626	45219.2125
405.21485	45812.3125
409.36047	45941.9125
413.50311	45940.0125
417.64277	46224.2125
421.77947	46626.8125
425.9132	46938.8125
430.04396	47175.2125
434.17176	47371.9125
438.2966	47672.5125
442.41849	48537.7125
446.53742	50124.8125
450.6534	51808.7125
454.76644	52871.9125
458.87653	52911.7125
462.98368	52043.0125
467.08789	50797.6125
471.18916	49396.1125
475.2875	47965.1125
479.38291	46885.6125
483.4754	46347.8125
487.56496	46089.7125
491.6516	45850.0125
495.73531	45760.6125
499.81612	45991.3125
503.89401	46535.7125
507.96899	46770.0125
512.04106	46672.7125
516.11023	46350.0125
520.1765	45997.9125
524.23987	45896.5125
528.30034	45856.5125
532.35792	45596.6125
536.41261	45002.2125
540.46441	44290.6125
544.51333	43877.3125
548.55936	44115.0125
552.60252	44919.8125
556.64279	45928.2125
560.6802	46900.4125
564.71473	47233.0125
568.7464	47599.2125
572.7752	48639.3125
576.80114	50138.5125
580.82422	52293.2125
584.84444	55329.3125
588.86181	58900.9125
592.87633	61736.2125
596.888	61539.0125
600.89682	58090.6125
604.9028	56402.8125
608.90594	58719.4125
612.90624	61234.5125
616.90371	57718.9125
620.89834	50302.9125
624.89015	46939.9125
628.87913	46234.7125
632.86528	45975.7125
636.84862	45342.2125
640.82913	44369.6125
644.80683	43395.3125
648.78172	43037.5125
652.75379	43259.6125
656.72306	43902.4125
660.68952	44477.0125
664.65319	44161.3125
668.61405	43529.2125
672.57211	43549.0125
676.52738	43825.7125
680.47986	43700.3125
684.42955	43306.6125
688.37646	43199.2125
692.32058	43720.2125
696.26192	44551.3125
700.20048	45434.1125
704.13626	45812.9125
708.06928	45594.7125
711.99952	45441.0125
715.927	45696.8125
719.85171	46180.2125
723.77365	46000.4125
727.69284	45231.0125
731.60928	44479.8125
735.52295	44187.5125
739.43388	44253.3125
743.34206	44377.6125
747.24749	44673.1125
751.15017	45021.8125
755.05012	45718.3125
758.94733	46743.2125
762.8418	48485.0125
766.73354	50908.6125
770.62254	52987.3125
774.50882	52943.9125
778.39237	50913.5125
782.27321	48391.4125
786.15132	46402.9125
790.02671	45131.9125
793.89938	44525.8125
797.76935	44446.7125
801.6366	44545.8125
805.50115	44565.2125
809.36299	44336.1125
813.22213	43870.6125
817.07857	43516.1125
820.93231	43150.9125
824.78336	42997.9125
828.63172	42902.2125
832.47738	42877.7125
836.32036	43087.8125
840.16066	43359.7125
843.99827	43472.0125
847.8332	43422.2125
851.66546	43199.0125
855.49504	43227.7125
859.32195	43204.7125
863.1462	43027.9125
866.96777	42906.4125
870.78668	42841.2125
874.60293	42942.6125
878.41652	43003.3125
882.22745	43296.3125
886.03573	43501.4125
889.84136	43502.0125
893.64433	43369.4125
897.44466	43101.4125
901.24235	43025.4125
905.0374	42909.3125
908.8298	42948.0125
912.61957	43045.6125
916.40671	43364.5125
920.19121	44042.2125
923.97308	44701.7125
927.75233	45078.6125
931.52895	44794.1125
935.30295	43983.1125
939.07433	43256.3125
942.84309	42769.8125
946.60924	42663.1125
950.37278	42644.6125
954.13371	42567.6125
957.89203	42368.1125
961.64774	42241.7125
965.40086	42202.7125
969.15137	42103.0125
972.89929	41965.0125
976.64461	41954.0125
980.38733	42065.9125
984.12747	42274.0125
987.86502	42633.9125
991.59999	43118.5125
995.33237	43887.5125
999.06217	45052.5125
1002.78939	46647.9125
1006.51404	47933.6125
1010.23611	48955.4125
1013.95561	49402.4125
1017.67255	49291.2125
1021.38692	48508.7125
1025.09872	47626.0125
1028.80796	47754.1125
1032.51465	48944.7125
1036.21877	50192.9125
1039.92035	50461.2125
1043.61937	49909.1125
1047.31584	48821.9125
1051.00976	47682.8125
1054.70114	47076.2125
1058.38998	46904.1125
1062.07627	47110.8125
1065.76003	47544.7125
1069.44126	48284.1125
1073.11995	49538.3125
1076.79611	50568.5125
1080.46974	50909.0125
1084.14085	50943.1125
1087.80943	50945.9125
1091.47549	50785.7125
1095.13903	50291.5125
1098.80005	49371.7125
1102.45857	48138.6125
1106.11456	47477.3125
1109.76805	47166.7125
1113.41903	47203.1125
1117.06751	47285.5125
1120.71348	47405.7125
1124.35696	47663.7125
1127.99793	47975.3125
1131.63641	48158.1125
1135.2724	48322.2125
1138.90589	48364.8125
1142.5369	48567.0125
1146.16542	48742.5125
1149.79145	48942.5125
1153.415	49311.0125
1157.03607	49990.9125
1160.65467	51665.7125
1164.27079	54387.4125
1167.88443	57467.7125
1171.49561	60445.2125
1175.10432	64014.2125
1178.71056	68774.4125
1182.31434	73516.1125
1185.91565	75402.9125
1189.51451	74116.9125
1193.11091	71339.0125
1196.70485	68546.5125
1200.29634	66109.0125
1203.88538	64678.4125
1207.47197	63964.4125
1211.05612	63299.8125
1214.63782	62252.0125
1218.21708	61151.4125
1221.79391	60163.2125
1225.36829	59607.0125
1228.94024	58859.5125
1232.50976	57630.9125
1236.07685	56152.4125
1239.6415	55298.9125
1243.20374	55159.1125
1246.76355	55581.4125
1250.32093	56576.9125
1253.8759	58048.1125
1257.42845	59724.5125
1260.97859	61591.4125
1264.52631	63543.1125
1268.07163	65650.6125
1271.61453	67805.1125
1275.15503	70143.7125
1278.69312	72397.7125
1282.22882	74621.0125
1285.76211	77173.0125
1289.29301	79975.1125
1292.82151	83190.6125
1296.34761	87285.5125
1299.87133	92590.1125
1303.39266	98624.7125
1306.9116	104289.7125
1310.42815	108324.9125
1313.94233	110103.5125
1317.45412	108965.2125
1320.96354	105939.4125
1324.47058	103095.7125
1327.97525	101162.4125
1331.47754	100137.7125
1334.97747	99130.4125
1338.47502	97191.9125
1341.97022	94010.8125
1345.46305	90471.3125
1348.95352	88530.3125
1352.44163	89583.4125
1355.92738	94287.6125
1359.41078	100941.3125
1362.89183	105917.0125
1366.37053	105911.8125
1369.84688	98844.4125
1373.32088	87485.3125
1376.79254	78841.7125
1380.26186	75596.1125
1383.72883	75705.2125
1387.19347	75622.9125
1390.65578	74139.6125
1394.11575	73058.0125
1397.57339	73708.0125
1401.0287	75411.8125
1404.48168	77352.7125
1407.93234	78259.1125
1411.38068	77953.6125
1414.82669	76428.7125
1418.27039	73987.1125
1421.71177	70849.4125
1425.15083	68228.3125
1428.58758	67090.1125
1432.02203	68138.0125
1435.45416	70534.0125
1438.88399	73246.0125
1442.31151	74829.8125
1445.73673	75421.5125
1449.15965	75278.4125
1452.58027	74253.1125
1455.9986	72611.9125
1459.41463	71799.8125
1462.82837	72493.8125
1466.23982	74545.1125
1469.64898	76880.5125
1473.05586	78652.0125
1476.46045	79797.8125
1479.86276	80105.8125
1483.26279	79620.0125
1486.66054	79428.3125
1490.05602	79722.8125
1493.44922	79841.8125
1496.84016	78981.9125
1500.22882	78015.2125
1503.61521	77579.3125
1506.99934	77680.4125
1510.38121	77811.2125
1513.76081	77506.4125
1517.13816	76327.7125
1520.51324	74840.2125
1523.88607	74093.5125
1527.25665	74400.9125
1530.62498	75314.7125
1533.99105	75633.6125
1537.35488	75121.5125
1540.71647	73847.8125
1544.07581	72062.1125
1547.4329	70246.5125
1550.78776	68387.7125
1554.14038	66824.0125
1557.49077	65624.2125
1560.83892	64853.5125
1564.18484	64363.9125
1567.52853	64250.2125
1570.86999	64892.3125
1574.20922	66386.3125
1577.54624	68090.4125
1580.88103	69694.1125
1584.2136	71530.9125
1587.54395	74800.2125
1590.87208	80246.9125
1594.19801	86821.9125
1597.52172	92704.9125
1600.84321	94254.7125
1604.16251	89357.6125
1607.47959	80416.3125
1610.79447	70988.5125
1614.10715	63363.5125
1617.41763	58125.1125
1620.7259	55203.5125
1624.03199	54026.6125
1627.33587	54538.8125
1630.63757	56573.2125
1633.93707	60512.2125
1637.23439	67003.2125
1640.52951	76752.5125
1643.82246	88478.2125
1647.11321	96969.1125
1650.40179	96492.5125
1653.68819	86719.8125
1656.97241	73251.1125
1660.25446	61891.5125
1663.53433	54393.6125
1666.81203	49910.4125
1670.08756	47285.8125
1673.36092	45676.3125
1676.63211	44617.6125
1679.90115	43789.8125
1683.16801	43221.5125
1686.43272	42762.7125
1689.69527	42509.5125
1692.95567	42316.9125
1696.2139	42146.7125
1699.46999	42032.7125
1702.72392	41957.5125
1705.97571	41878.6125
1709.22535	41804.0125
1712.47284	41783.7125
1715.71819	41782.5125
1718.96139	41636.9125
1722.20246	41502.5125
1725.44139	41325.0125
1728.67818	41195.7125
1731.91284	40934.3125
1735.14537	40771.5125
1738.37576	40587.4125
1741.60403	40434.2125
1744.83017	40361.2125
1748.05418	40327.8125
1751.27607	40195.4125
1754.49584	40136.4125
1757.71349	40087.0125
1760.92903	40051.1125
1764.14244	39997.3125
1767.35375	40020.0125
1770.56294	40001.3125
1773.77002	39951.5125
1776.97499	39952.9125
1780.17785	39903.7125
1783.37861	39884.4125
1786.57727	39898.9125
1789.77382	39724.2125
1792.96828	39683.5125
1796.16064	39625.6125
1799.3509	39556.2125
1802.53907	39569.5125
1805.72514	39405.3125
1808.90913	39335.9125
1812.09102	39301.3125
1815.27083	39149.8125
1818.44856	39266.6125
1821.6242	39201.5125
1824.79776	39181.0125
1827.96924	39199.6125
1831.13864	39159.3125
1834.30597	39171.4125
1837.47122	39192.0125
1840.6344	39163.8125
1843.7955	39197.9125
1846.95454	39189.7125
1850.11151	39178.5125
1853.26642	39166.9125
1856.41926	39120.7125
1859.57004	39079.5125
1862.71876	39109.6125
1865.86542	39034.4125
1869.01003	39027.2125
1872.15258	39054.7125
1875.29308	39073.8125
1878.43152	39014.2125
1881.56792	39031.2125
1884.70227	38971.6125
1887.83457	39034.6125
1890.96482	38972.3125
1894.09304	38899.6125
1897.21921	38939.2125
1900.34335	38850.6125
1903.46544	38879.7125
1906.58551	38861.1125
1909.70353	38820.9125
1912.81953	38746.6125
1915.93349	38607.4125
1919.04543	38522.9125
1922.15534	38489.7125
1925.26322	38419.5125
1928.36908	38313.5125
1931.47292	38224.6125
1934.57473	38166.7125
1937.67453	38046.4125
1940.77232	38061.9125
1943.86808	37860.3125
1946.96184	37817.0125
1950.05358	37729.1125
1953.14331	37652.7125
1956.23103	37562.9125
1959.31675	37477.7125
1962.40046	37410.8125
1965.48217	37315.1125
1968.56188	37239.7125
1971.63959	37109.1125
1974.7153	37018.6125
1977.78901	36908.4125
1980.86073	36862.3125
1983.93046	36730.0125
1986.99819	36588.2125
1990.06394	36549.5125
1993.1277	36485.2125
1996.18947	36401.5125
1999.24925	36258.1125
2002.30706	36196.9125
2005.36288	36100.0125
2008.41672	36046.2125
2011.46859	35931.4125
2014.51848	35869.4125
2017.56639	35800.2125
2020.61233	35758.5125
2023.6563	35729.7125
2026.6983	35602.0125
2029.73833	35539.7125
2032.7764	35544.0125
2035.8125	35482.5125
2038.84664	35405.5125
2041.87881	35371.9125
2044.90903	35389.6125
2047.93729	35249.1125
2050.96359	35277.2125
2053.98794	35217.8125
2057.01034	35197.6125
2060.03078	35197.3125
2063.04927	35130.2125
2066.06582	35179.8125
2069.08042	35185.6125
2072.09307	35124.5125
2075.10378	35090.6125
2078.11255	34998.8125
2081.11938	35066.4125
2084.12426	35052.0125
2087.12722	35041.6125
2090.12824	35004.8125
2093.12732	35028.4125
2096.12447	35073.0125
2099.11969	35022.5125
2102.11299	35088.2125
2105.10435	35066.0125
2108.09379	35156.6125
2111.08131	35149.9125
2114.0669	35140.9125
2117.05057	35174.5125
2120.03233	35073.4125
2123.01216	35106.6125
2125.99008	35176.8125
2128.96609	35257.7125
2131.94018	35280.2125
2134.91236	35309.8125
2137.88263	35357.8125
2140.851	35369.0125
2143.81746	35425.6125
2146.78201	35434.4125
2149.74466	35457.9125
2152.7054	35448.5125
2155.66425	35415.0125
2158.6212	35408.0125
2161.57625	35484.4125
2164.52941	35505.4125
2167.48067	35478.5125
2170.43004	35478.1125
2173.37752	35401.8125
2176.32311	35402.1125
2179.26681	35404.1125
2182.20863	35449.4125
2185.14856	35503.0125
2188.08661	35513.7125
2191.02278	35532.3125
2193.95707	35492.6125
2196.88948	35527.5125
2199.82001	35586.9125
2202.74867	35514.4125
2205.67545	35520.3125
2208.60037	35455.4125
2211.52341	35420.8125
2214.44458	35408.7125
2217.36388	35376.6125
2220.28132	35364.3125
2223.1969	35330.4125
2226.11061	35255.5125
2229.02246	35154.1125
2231.93245	35120.3125
2234.84058	35072.1125
2237.74686	35061.7125
2240.65128	35068.3125
2243.55385	35030.9125
2246.45456	34917.5125
2249.35343	34855.2125
2252.25044	34785.2125
2255.14561	34756.2125
2258.03893	34750.6125
2260.93041	34707.6125
2263.82004	34631.0125
2266.70783	34500.9125
2269.59378	34450.5125
2272.4779	34398.7125
2275.36017	34278.3125
2278.24061	34277.8125
2281.11922	34180.2125
2283.996	34176.0125
2286.87094	34160.7125
2289.74405	34145.4125
2292.61534	34103.6125
2295.4848	34082.0125
2298.35243	34101.5125
2301.21824	34157.7125
2304.08223	34220.8125
2306.94439	34188.2125
2309.80474	34209.7125
2312.66327	34169.3125
2315.51999	34170.5125
2318.37489	34211.3125
2321.22797	34189.7125
2324.07925	34183.3125
2326.92871	34067.5125
2329.77637	34109.6125
2332.62222	34068.5125
2335.46626	34033.9125
2338.3085	34085.3125
2341.14893	34098.0125
2343.98756	34070.1125
2346.8244	34075.4125
2349.65943	33967.2125
2352.49267	33943.0125
2355.32411	33968.0125
2358.15376	33900.7125
2360.98161	33829.1125
2363.80768	33813.5125
2366.63195	33800.7125
2369.45444	33773.6125
2372.27514	33726.2125
2375.09405	33653.8125
2377.91118	33612.3125
2380.72652	33571.5125
2383.54009	33523.3125
2386.35187	33507.8125
2389.16188	33480.3125
2391.97011	33438.7125
2394.77657	33426.5125
2397.58125	33390.9125
2400.38416	33303.5125
2403.18529	33276.0125
2405.98466	33217.2125
2408.78226	33156.5125
2411.57809	33136.7125
2414.37216	33059.2125
2417.16446	33084.7125
2419.955	32996.0125
2422.74378	33003.8125
2425.5308	32940.1125
2428.31606	32962.7125
2431.09956	32877.5125
2433.88131	32879.3125
2436.6613	32888.2125
2439.43954	32887.2125
2442.21603	32850.5125
2444.99077	32853.5125
2447.76377	32841.0125
2450.53501	32777.9125
2453.30451	32836.2125
2456.07226	32810.4125
2458.83827	32843.4125
2461.60254	32811.3125
2464.36507	32833.9125
2467.12586	32815.7125
2469.88492	32805.3125
2472.64224	32842.5125
2475.39782	32872.4125
2478.15167	32905.4125
2480.90379	32863.1125
2483.65417	32850.7125
2486.40283	32848.6125
2489.14976	32918.2125
2491.89497	32835.3125
2494.63845	32899.4125
2497.3802	32889.5125
2500.12024	32892.3125
2502.85855	32946.0125
2505.59514	32882.6125
2508.33002	32835.8125
2511.06318	32795.1125
2513.79462	32767.6125
2516.52435	32773.4125
2519.25237	32767.7125
2521.97867	32733.2125
2524.70327	32740.5125
2527.42616	32757.3125
2530.14734	32786.8125
2532.86681	32717.1125
2535.58458	32721.0125
2538.30065	32642.4125
2541.01501	32625.6125
2543.72768	32677.6125
2546.43864	32652.8125
2549.14791	32582.6125
2551.85548	32587.7125
2554.56136	32585.7125
2557.26554	32522.5125
2559.96803	32538.3125
2562.66883	32496.1125
2565.36794	32480.7125
2568.06536	32490.9125
2570.7611	32506.1125
2573.45514	32498.2125
2576.14751	32478.2125
2578.83819	32492.1125
2581.52719	32432.8125
2584.21451	32370.7125
2586.90015	32402.1125
2589.58411	32362.1125
2592.2664	32356.3125
2594.94701	32279.1125
2597.62594	32273.1125
2600.30321	32258.8125
2602.9788	32204.9125
2605.65273	32222.4125
2608.32498	32199.3125
2610.99557	32179.1125
2613.66449	32234.8125
2616.33175	32221.5125
2618.99734	32189.0125
2621.66128	32152.7125
2624.32355	32169.4125
2626.98416	32151.7125
2629.64311	32136.6125
2632.30041	32115.2125
2634.95605	32096.1125
2637.61004	32076.4125
2640.26238	32032.9125
2642.91306	32036.8125
2645.56209	32006.4125
2648.20948	32028.8125
2650.85521	31958.2125
2653.4993	32003.8125
2656.14175	32013.9125
2658.78255	32051.6125
2661.42171	32052.4125
2664.05923	32078.7125
2666.6951	32090.7125
2669.32934	32159.1125
2671.96194	32107.4125
2674.59291	32139.4125
2677.22224	32074.9125
2679.84993	32103.0125
2682.476	32050.3125
2685.10043	32087.7125
2687.72324	32058.7125
2690.34441	32058.0125
2692.96396	32076.1125
2695.58188	32113.2125
2698.19818	32050.6125
2700.81285	32103.2125
2703.4259	32070.3125
2706.03733	32130.1125
2708.64714	32097.7125
2711.25533	32141.9125
2713.86191	32113.0125
2716.46687	32194.2125
2719.07021	32190.4125
2721.67194	32195.0125
2724.27206	32191.5125
2726.87057	32222.2125
2729.46747	32199.2125
2732.06276	32271.3125
2734.65644	32305.6125
2737.24852	32338.4125
2739.83899	32233.7125
2742.42786	32279.9125
2745.01513	32290.0125
2747.60079	32236.0125
2750.18486	32227.8125
2752.76733	32263.6125
2755.3482	32243.3125
2757.92747	32267.4125
2760.50515	32258.4125
2763.08123	32260.2125
2765.65573	32229.5125
2768.22863	32228.7125
2770.79994	32234.9125
2773.36967	32200.7125
2775.9378	32182.7125
2778.50435	32145.9125
2781.06932	32167.7125
2783.6327	32152.7125
2786.1945	32104.4125
2788.75471	32088.4125
2791.31335	32047.0125
2793.87041	32019.2125
2796.42589	31904.8125
2798.97979	31920.2125
2801.53212	31820.8125
2804.08288	31802.1125
2806.63206	31763.0125
2809.17967	31671.5125
2811.72571	31618.9125
2814.27018	31639.9125
2816.81308	31603.8125
2819.35442	31527.1125
2821.89419	31498.9125
2824.43239	31487.8125
2826.96904	31459.8125
2829.50412	31496.2125
2832.03763	31420.7125
2834.56959	31457.5125
2837.1	31375.9125
2839.62884	31390.0125
2842.15613	31292.6125
2844.68186	31324.4125
2847.20604	31313.6125
2849.72867	31262.4125
2852.24974	31266.9125
2854.76927	31293.8125
2857.28724	31245.8125
2859.80367	31224.5125
2862.31855	31245.9125
2864.83189	31216.9125
2867.34368	31233.3125
2869.85393	31198.1125
2872.36264	31123.5125
2874.8698	31182.6125
2877.37543	31202.4125
2879.87952	31243.0125
2882.38207	31246.8125
2884.88308	31240.7125
2887.38256	31267.5125
2889.88051	31282.3125
2892.37692	31369.0125
2894.8718	31373.6125
2897.36515	31412.7125
2899.85698	31354.1125
2902.34727	31472.7125
2904.83604	31420.6125
2907.32328	31480.1125
2909.809	31469.1125
2912.29319	31513.4125
2914.77587	31452.3125
2917.25702	31434.6125
2919.73665	31475.8125
2922.21476	31477.5125
2924.69136	31406.9125
2927.16644	31409.6125
2929.64	31388.0125
2932.11205	31352.7125
2934.58258	31309.8125
2937.05161	31296.5125
2939.51912	31323.8125
2941.98513	31309.7125
2944.44962	31223.4125
2946.91261	31108.0125
2949.37409	31193.1125
2951.83407	31172.3125
2954.29254	31187.1125
2956.74951	31157.2125
2959.20498	31110.1125
2961.65895	31074.5125
2964.11142	31071.6125
2966.56239	31019.5125
2969.01186	31002.1125
2971.45984	30883.3125
2973.90632	30826.8125
2976.35131	30735.9125
2978.7948	30735.7125
2981.23681	30686.6125
2983.67732	30575.7125
2986.11635	30490.5125
2988.55388	30456.1125
2990.98993	30409.4125
2993.4245	30377.4125
2995.85758	30285.1125
2998.28917	30210.1125
3000.71928	30155.2125
3003.14791	30104.8125
3005.57506	30024.9125
3008.00073	29997.4125
3010.42493	30000.0125
3012.84764	29972.3125
3015.26888	29980.9125
3017.68865	29919.7125
3020.10694	29879.6125
3022.52376	29827.6125
