Data from AgNP_FTO_APTES_CRN_2uM_R6G_10uM_NaF_0.1M_Addition_RamanShift__10__14-46-39-336.txt Node

Date: Wed Dec 15 14:46:39 GMT 2021
User: TCL
Spectrometer: QEP01345
Trigger mode: 4
Integration Time (sec): 7.000000E0
Scans to average: 10
Electric dark correction enabled: true
Nonlinearity correction enabled: false
Boxcar width: 0
XAxis mode: Raman Shifts
Number of Pixels in Spectrum: 1044
>>>>>Begin Spectral Data<<<<<
46.04893	-0.7625
50.45542	-2.2625
54.85868	-0.9625
59.25871	-1.5625
63.6555	142.5375
68.04907	151.0375
72.43941	155.6375
76.82654	162.7375
81.21044	167.4375
85.59113	175.0375
89.96862	185.1375
94.34289	184.0375
98.71396	194.5375
103.08183	200.0375
107.4465	206.5375
111.80798	209.9375
116.16626	212.8375
120.52136	226.3375
124.87327	233.6375
129.222	246.6375
133.56755	260.8375
137.90993	282.9375
142.24913	306.5375
146.58517	347.2375
150.91804	399.2375
155.24774	473.2375
159.57429	592.7375
163.89768	761.4375
168.21792	993.5375
172.53501	1342.0375
176.84895	1870.5375
181.15975	2614.2375
185.46741	3655.6375
189.77193	5035.4375
194.07331	6727.3375
198.37157	8666.5375
202.6667	10721.7375
206.9587	12713.8375
211.24758	14677.4375
215.53334	16591.3375
219.81599	18687.6375
224.09553	20922.8375
228.37195	23444.2375
232.64527	26208.7375
236.91549	29110.2375
241.18261	32102.5375
245.44663	34941.3375
249.70755	37525.0375
253.96539	39773.4375
258.22014	41685.0375
262.4718	43157.8375
266.72039	44143.0375
270.96589	44734.2375
275.20832	44790.2375
279.44768	44594.8375
283.68397	44254.5375
287.91719	43930.8375
292.14735	43620.6375
296.37445	43540.3375
300.59849	43593.2375
304.81948	43672.9375
309.03742	43674.4375
313.25231	43480.8375
317.46415	42958.2375
321.67296	42329.4375
325.87872	41683.7375
330.08145	41368.7375
334.28114	41479.2375
338.47781	41731.3375
342.67145	42189.1375
346.86207	42830.6375
351.04966	43460.2375
355.23424	44150.4375
359.4158	44824.4375
363.59435	45382.1375
367.76989	45801.9375
371.94243	46115.7375
376.11196	46274.2375
380.27849	46245.6375
384.44203	46385.8375
388.60257	46738.9375
392.76012	47268.9375
396.91468	47955.3375
401.06626	48742.7375
405.21485	49234.6375
409.36047	49281.3375
413.50311	49092.4375
417.64277	49239.6375
421.77947	49622.5375
425.9132	50102.8375
430.04396	50342.9375
434.17176	50398.0375
438.2966	50413.1375
442.41849	50663.0375
446.53742	51604.3375
450.6534	52779.2375
454.76644	53675.0375
458.87653	54037.3375
462.98368	53906.8375
467.08789	53334.1375
471.18916	52657.8375
475.2875	51764.0375
479.38291	51178.4375
483.4754	50853.0375
487.56496	50485.2375
491.6516	49968.4375
495.73531	49605.5375
499.81612	49603.4375
503.89401	50119.7375
507.96899	50580.7375
512.04106	50852.2375
516.11023	50673.2375
520.1765	50045.3375
524.23987	49372.8375
528.30034	48815.5375
532.35792	48247.3375
536.41261	47718.5375
540.46441	47444.5375
544.51333	47397.8375
548.55936	47888.4375
552.60252	48756.9375
556.64279	49598.2375
560.6802	50260.4375
564.71473	50875.1375
568.7464	51673.8375
572.7752	53170.0375
576.80114	55233.6375
580.82422	57651.6375
584.84444	60333.5375
588.86181	63167.2375
592.87633	64664.3375
596.888	63198.9375
600.89682	60166.7375
604.9028	59219.9375
608.90594	61176.4375
612.90624	62866.1375
616.90371	58936.3375
620.89834	52498.2375
624.89015	49775.3375
628.87913	49681.1375
632.86528	50011.7375
636.84862	49918.6375
640.82913	49077.6375
644.80683	48078.0375
648.78172	47482.7375
652.75379	47614.3375
656.72306	48135.2375
660.68952	48552.5375
664.65319	48226.6375
668.61405	47698.2375
672.57211	47704.2375
676.52738	47872.8375
680.47986	47793.1375
684.42955	47485.2375
688.37646	47356.7375
692.32058	47687.2375
696.26192	48361.7375
700.20048	49121.1375
704.13626	49529.7375
708.06928	49627.7375
711.99952	49564.6375
715.927	49550.9375
719.85171	49675.9375
723.77365	49461.4375
727.69284	48694.8375
731.60928	47936.5375
735.52295	47519.0375
739.43388	47351.9375
743.34206	47514.7375
747.24749	47842.1375
751.15017	48434.8375
755.05012	49259.1375
758.94733	50481.6375
762.8418	52405.9375
766.73354	55098.2375
770.62254	57118.5375
774.50882	56908.6375
778.39237	54618.4375
782.27321	51990.5375
786.15132	49920.9375
790.02671	48673.9375
793.89938	47929.7375
797.76935	47670.5375
801.6366	47641.7375
805.50115	47628.0375
809.36299	47448.3375
813.22213	47010.6375
817.07857	46696.2375
820.93231	46475.1375
824.78336	46272.8375
828.63172	46061.5375
832.47738	46001.4375
836.32036	45960.0375
840.16066	46014.8375
843.99827	45997.2375
847.8332	46004.5375
851.66546	46145.7375
855.49504	46195.0375
859.32195	46251.5375
863.1462	46182.1375
866.96777	46081.5375
870.78668	45995.0375
874.60293	46086.9375
878.41652	46106.0375
882.22745	46231.9375
886.03573	46374.9375
889.84136	46434.1375
893.64433	46306.8375
897.44466	46199.1375
901.24235	46118.2375
905.0374	46050.7375
908.8298	46045.4375
912.61957	46180.2375
916.40671	46559.5375
920.19121	47234.7375
923.97308	47784.4375
927.75233	47683.8375
931.52895	47032.1375
935.30295	46264.9375
939.07433	45592.0375
942.84309	45184.0375
946.60924	44972.9375
950.37278	44931.0375
954.13371	44977.2375
957.89203	44985.6375
961.64774	44986.0375
965.40086	44958.3375
969.15137	44873.7375
972.89929	44752.5375
976.64461	44699.4375
980.38733	44629.0375
984.12747	44663.3375
987.86502	44824.9375
991.59999	44998.8375
995.33237	45419.6375
999.06217	45989.9375
1002.78939	46939.5375
1006.51404	47925.1375
1010.23611	48958.3375
1013.95561	49595.3375
1017.67255	49521.2375
1021.38692	48858.5375
1025.09872	48078.0375
1028.80796	47483.8375
1032.51465	47410.5375
1036.21877	47581.8375
1039.92035	47845.1375
1043.61937	47945.0375
1047.31584	47966.1375
1051.00976	47999.8375
1054.70114	48190.2375
1058.38998	48631.9375
1062.07627	49470.5375
1065.76003	50513.1375
1069.44126	51712.4375
1073.11995	53062.3375
1076.79611	54074.4375
1080.46974	54213.2375
1084.14085	54023.1375
1087.80943	53898.0375
1091.47549	53939.2375
1095.13903	53817.4375
1098.80005	53114.1375
1102.45857	51892.7375
1106.11456	50814.2375
1109.76805	50158.3375
1113.41903	49937.5375
1117.06751	49987.1375
1120.71348	50201.3375
1124.35696	50523.7375
1127.99793	50899.9375
1131.63641	51336.4375
1135.2724	51529.5375
1138.90589	51706.1375
1142.5369	51984.5375
1146.16542	52367.1375
1149.79145	52689.9375
1153.415	53291.8375
1157.03607	54090.4375
1160.65467	55796.1375
1164.27079	58422.9375
1167.88443	61296.1375
1171.49561	63972.8375
1175.10432	66713.4375
1178.71056	70244.7375
1182.31434	73834.1375
1185.91565	76099.8375
1189.51451	76386.9375
1193.11091	75462.0375
1196.70485	73599.9375
1200.29634	71357.1375
1203.88538	69822.7375
1207.47197	69501.4375
1211.05612	69547.2375
1214.63782	68674.2375
1218.21708	66818.1375
1221.79391	64529.3375
1225.36829	62608.4375
1228.94024	61470.9375
1232.50976	60774.6375
1236.07685	60287.7375
1239.6415	60044.6375
1243.20374	60168.0375
1246.76355	60505.4375
1250.32093	61393.6375
1253.8759	62633.7375
1257.42845	64265.7375
1260.97859	66130.5375
1264.52631	68116.0375
1268.07163	70035.4375
1271.61453	71916.8375
1275.15503	73834.8375
1278.69312	75764.6375
1282.22882	77719.1375
1285.76211	79856.2375
1289.29301	82438.9375
1292.82151	85542.2375
1296.34761	89410.1375
1299.87133	94119.3375
1303.39266	98808.0375
1306.9116	102699.9375
1310.42815	104996.0375
1313.94233	105674.9375
1317.45412	105088.2375
1320.96354	104388.6375
1324.47058	104633.8375
1327.97525	105377.5375
1331.47754	106370.6375
1334.97747	106844.5375
1338.47502	106870.5375
1341.97022	106333.5375
1345.46305	105115.5375
1348.95352	103345.6375
1352.44163	101649.7375
1355.92738	101041.7375
1359.41078	101937.8375
1362.89183	102774.4375
1366.37053	100947.4375
1369.84688	95379.7375
1373.32088	87648.5375
1376.79254	81701.2375
1380.26186	79340.1375
1383.72883	79508.3375
1387.19347	79989.7375
1390.65578	79480.7375
1394.11575	79166.6375
1397.57339	79876.9375
1401.0287	81582.4375
1404.48168	83133.7375
1407.93234	83367.1375
1411.38068	81964.7375
1414.82669	79374.4375
1418.27039	76023.7375
1421.71177	72953.2375
1425.15083	70614.3375
1428.58758	69780.4375
1432.02203	70667.6375
1435.45416	72715.7375
1438.88399	75274.1375
1442.31151	77102.4375
1445.73673	77779.0375
1449.15965	77970.8375
1452.58027	77589.4375
1455.9986	77264.4375
1459.41463	77666.7375
1462.82837	78762.9375
1466.23982	80162.6375
1469.64898	81233.5375
1473.05586	81681.9375
1476.46045	81578.4375
1479.86276	80866.0375
1483.26279	80027.4375
1486.66054	79471.7375
1490.05602	79418.4375
1493.44922	79762.1375
1496.84016	80233.3375
1500.22882	80899.1375
1503.61521	81943.6375
1506.99934	83166.5375
1510.38121	83970.7375
1513.76081	83991.8375
1517.13816	83369.1375
1520.51324	82792.5375
1523.88607	82893.8375
1527.25665	83586.7375
1530.62498	84237.0375
1533.99105	84162.5375
1537.35488	83191.3375
1540.71647	81370.0375
1544.07581	79193.1375
1547.4329	77053.5375
1550.78776	75183.3375
1554.14038	73788.5375
1557.49077	72865.3375
1560.83892	72152.8375
1564.18484	71673.6375
1567.52853	71470.6375
1570.86999	72120.9375
1574.20922	73895.3375
1577.54624	76064.3375
1580.88103	77826.4375
1584.2136	79904.7375
1587.54395	82591.6375
1590.87208	86233.3375
1594.19801	90299.4375
1597.52172	93593.6375
1600.84321	93556.2375
1604.16251	88903.5375
1607.47959	82336.0375
1610.79447	75818.0375
1614.10715	69737.8375
1617.41763	64721.4375
1620.7259	61067.3375
1624.03199	59205.3375
1627.33587	59196.1375
1630.63757	60930.0375
1633.93707	64825.2375
1637.23439	71555.7375
1640.52951	81009.0375
1643.82246	91323.3375
1647.11321	98187.9375
1650.40179	97723.0375
1653.68819	89447.3375
1656.97241	77607.1375
1660.25446	66785.2375
1663.53433	59004.0375
1666.81203	53991.4375
1670.08756	50737.0375
1673.36092	48758.4375
1676.63211	47395.1375
1679.90115	46458.3375
1683.16801	45698.4375
1686.43272	45155.8375
1689.69527	44768.9375
1692.95567	44447.7375
1696.2139	44239.6375
1699.46999	44101.1375
1702.72392	43963.9375
1705.97571	43866.0375
1709.22535	43705.9375
1712.47284	43606.8375
1715.71819	43595.0375
1718.96139	43408.5375
1722.20246	43264.2375
1725.44139	43089.3375
1728.67818	42800.0375
1731.91284	42596.8375
1735.14537	42354.2375
1738.37576	42128.8375
1741.60403	41961.8375
1744.83017	41897.9375
1748.05418	41752.0375
1751.27607	41662.9375
1754.49584	41565.1375
1757.71349	41504.7375
1760.92903	41516.6375
1764.14244	41421.1375
1767.35375	41445.0375
1770.56294	41400.2375
1773.77002	41336.3375
1776.97499	41350.4375
1780.17785	41261.1375
1783.37861	41201.9375
1786.57727	41043.3375
1789.77382	40949.7375
1792.96828	40866.4375
1796.16064	40822.8375
1799.3509	40704.5375
1802.53907	40704.7375
1805.72514	40576.6375
1808.90913	40520.1375
1812.09102	40454.1375
1815.27083	40386.7375
1818.44856	40288.5375
1821.6242	40264.5375
1824.79776	40283.0375
1827.96924	40297.3375
1831.13864	40325.3375
1834.30597	40369.2375
1837.47122	40418.0375
1840.6344	40422.3375
1843.7955	40396.0375
1846.95454	40393.2375
1850.11151	40369.6375
1853.26642	40370.6375
1856.41926	40326.2375
1859.57004	40298.4375
1862.71876	40250.6375
1865.86542	40155.8375
1869.01003	40104.2375
1872.15258	40049.2375
1875.29308	39990.0375
1878.43152	39881.8375
1881.56792	39858.7375
1884.70227	39766.3375
1887.83457	39773.7375
1890.96482	39749.9375
1894.09304	39664.3375
1897.21921	39671.5375
1900.34335	39573.2375
1903.46544	39489.2375
1906.58551	39445.9375
1909.70353	39371.1375
1912.81953	39314.7375
1915.93349	39192.5375
1919.04543	39104.1375
1922.15534	39069.7375
1925.26322	38935.2375
1928.36908	38851.0375
1931.47292	38799.8375
1934.57473	38708.2375
1937.67453	38587.2375
1940.77232	38475.7375
1943.86808	38373.5375
1946.96184	38333.1375
1950.05358	38170.2375
1953.14331	38097.4375
1956.23103	38054.0375
1959.31675	37912.7375
1962.40046	37858.1375
1965.48217	37709.2375
1968.56188	37521.6375
1971.63959	37449.7375
1974.7153	37370.8375
1977.78901	37254.8375
1980.86073	37123.5375
1983.93046	37049.3375
1986.99819	36946.8375
1990.06394	36859.3375
1993.1277	36810.0375
1996.18947	36714.2375
1999.24925	36530.0375
2002.30706	36442.5375
2005.36288	36318.7375
2008.41672	36215.4375
2011.46859	36133.5375
2014.51848	36024.4375
2017.56639	36002.6375
2020.61233	35922.8375
2023.6563	35832.0375
2026.6983	35808.7375
2029.73833	35693.2375
2032.7764	35666.4375
2035.8125	35498.6375
2038.84664	35426.4375
2041.87881	35428.5375
2044.90903	35368.6375
2047.93729	35254.8375
2050.96359	35229.8375
2053.98794	35199.2375
2057.01034	35147.0375
2060.03078	35128.5375
2063.04927	35074.6375
2066.06582	35104.0375
2069.08042	35089.2375
2072.09307	35041.5375
2075.10378	35038.3375
2078.11255	34961.9375
2081.11938	34978.4375
2084.12426	34942.8375
2087.12722	34978.4375
2090.12824	34976.7375
2093.12732	34940.9375
2096.12447	34947.8375
2099.11969	34917.5375
2102.11299	34903.3375
2105.10435	34966.8375
2108.09379	34988.1375
2111.08131	35064.5375
2114.0669	35033.0375
2117.05057	35013.3375
2120.03233	35040.2375
2123.01216	35108.9375
2125.99008	35020.8375
2128.96609	35123.3375
2131.94018	35075.3375
2134.91236	35129.0375
2137.88263	35210.7375
2140.851	35144.9375
2143.81746	35133.5375
2146.78201	35143.7375
2149.74466	35167.3375
2152.7054	35219.3375
2155.66425	35169.2375
2158.6212	35216.5375
2161.57625	35203.7375
2164.52941	35191.9375
2167.48067	35192.0375
2170.43004	35171.4375
2173.37752	35174.8375
2176.32311	35130.5375
2179.26681	35101.0375
2182.20863	35081.5375
2185.14856	35152.9375
2188.08661	35100.9375
2191.02278	35113.0375
2193.95707	35090.0375
2196.88948	35073.4375
2199.82001	35053.5375
2202.74867	34996.0375
2205.67545	34935.5375
2208.60037	34933.2375
2211.52341	34840.1375
2214.44458	34804.3375
2217.36388	34760.7375
2220.28132	34681.3375
2223.1969	34689.8375
2226.11061	34630.4375
2229.02246	34616.0375
2231.93245	34478.6375
2234.84058	34440.5375
2237.74686	34392.2375
2240.65128	34404.1375
2243.55385	34299.1375
2246.45456	34257.9375
2249.35343	34176.5375
2252.25044	34160.4375
2255.14561	34030.2375
2258.03893	34011.2375
2260.93041	33898.3375
2263.82004	33862.5375
2266.70783	33806.6375
2269.59378	33713.6375
2272.4779	33634.6375
2275.36017	33539.1375
2278.24061	33479.2375
2281.11922	33430.2375
2283.996	33365.3375
2286.87094	33361.9375
2289.74405	33255.1375
2292.61534	33281.1375
2295.4848	33195.2375
2298.35243	33205.6375
2301.21824	33159.7375
2304.08223	33204.9375
2306.94439	33150.1375
2309.80474	33133.0375
2312.66327	33115.2375
2315.51999	33073.5375
2318.37489	33068.7375
2321.22797	32987.7375
2324.07925	33033.9375
2326.92871	32892.2375
2329.77637	32839.9375
2332.62222	32865.6375
2335.46626	32827.6375
2338.3085	32737.2375
2341.14893	32794.7375
2343.98756	32805.3375
2346.8244	32757.1375
2349.65943	32733.1375
2352.49267	32694.9375
2355.32411	32683.9375
2358.15376	32690.2375
2360.98161	32649.7375
2363.80768	32644.6375
2366.63195	32595.8375
2369.45444	32573.3375
2372.27514	32556.6375
2375.09405	32508.8375
2377.91118	32473.0375
2380.72652	32438.8375
2383.54009	32412.1375
2386.35187	32330.1375
2389.16188	32222.2375
2391.97011	32183.2375
2394.77657	32193.5375
2397.58125	32104.8375
2400.38416	32066.4375
2403.18529	32029.9375
2405.98466	31974.9375
2408.78226	31926.7375
2411.57809	31889.4375
2414.37216	31850.0375
2417.16446	31853.7375
2419.955	31832.7375
2422.74378	31856.2375
2425.5308	31739.4375
2428.31606	31728.0375
2431.09956	31713.4375
2433.88131	31700.8375
2436.6613	31674.9375
2439.43954	31651.3375
2442.21603	31589.2375
2444.99077	31591.4375
2447.76377	31576.4375
2450.53501	31591.7375
2453.30451	31589.7375
2456.07226	31527.2375
2458.83827	31549.3375
2461.60254	31502.8375
2464.36507	31528.8375
2467.12586	31477.1375
2469.88492	31437.5375
2472.64224	31459.3375
2475.39782	31433.9375
2478.15167	31450.2375
2480.90379	31470.0375
2483.65417	31424.5375
2486.40283	31392.4375
2489.14976	31411.3375
2491.89497	31366.6375
2494.63845	31390.8375
2497.3802	31383.7375
2500.12024	31426.3375
2502.85855	31447.4375
2505.59514	31409.8375
2508.33002	31440.9375
2511.06318	31360.8375
2513.79462	31357.9375
2516.52435	31308.9375
2519.25237	31333.8375
2521.97867	31283.5375
2524.70327	31296.2375
2527.42616	31263.0375
2530.14734	31208.5375
2532.86681	31175.9375
2535.58458	31170.7375
2538.30065	31076.9375
2541.01501	31064.8375
2543.72768	31149.8375
2546.43864	31074.5375
2549.14791	31012.2375
2551.85548	31000.5375
2554.56136	30952.8375
2557.26554	30912.2375
2559.96803	30853.6375
2562.66883	30843.0375
2565.36794	30856.5375
2568.06536	30864.8375
2570.7611	30795.9375
2573.45514	30718.9375
2576.14751	30689.5375
2578.83819	30706.6375
2581.52719	30716.9375
2584.21451	30613.9375
2586.90015	30573.0375
2589.58411	30532.5375
2592.2664	30512.1375
2594.94701	30538.4375
2597.62594	30549.4375
2600.30321	30455.7375
2602.9788	30436.1375
2605.65273	30373.3375
2608.32498	30424.1375
2610.99557	30385.6375
2613.66449	30396.4375
2616.33175	30354.1375
2618.99734	30332.7375
2621.66128	30293.6375
2624.32355	30305.8375
2626.98416	30255.5375
2629.64311	30252.4375
2632.30041	30183.8375
2634.95605	30171.9375
2637.61004	30172.0375
2640.26238	30146.0375
2642.91306	30126.1375
2645.56209	30142.4375
2648.20948	30135.6375
2650.85521	30118.4375
2653.4993	30098.2375
2656.14175	30139.7375
2658.78255	30147.5375
2661.42171	30149.2375
2664.05923	30218.1375
2666.6951	30181.0375
2669.32934	30206.2375
2671.96194	30238.1375
2674.59291	30165.4375
2677.22224	30171.5375
2679.84993	30206.1375
2682.476	30130.2375
2685.10043	30143.9375
2687.72324	30139.0375
2690.34441	30149.0375
2692.96396	30159.2375
2695.58188	30167.4375
2698.19818	30128.2375
2700.81285	30183.7375
2703.4259	30133.7375
2706.03733	30229.0375
2708.64714	30222.7375
2711.25533	30256.8375
2713.86191	30284.5375
2716.46687	30277.1375
2719.07021	30270.3375
2721.67194	30259.2375
2724.27206	30266.6375
2726.87057	30279.4375
2729.46747	30325.7375
2732.06276	30342.1375
2734.65644	30377.9375
2737.24852	30367.0375
2739.83899	30337.0375
2742.42786	30333.5375
2745.01513	30246.3375
2747.60079	30227.7375
2750.18486	30218.7375
2752.76733	30266.8375
2755.3482	30278.8375
2757.92747	30301.9375
2760.50515	30214.5375
2763.08123	30196.4375
2765.65573	30181.3375
2768.22863	30124.2375
2770.79994	30049.5375
2773.36967	30071.1375
2775.9378	30046.6375
2778.50435	29958.5375
2781.06932	29996.2375
2783.6327	29993.3375
2786.1945	29998.0375
2788.75471	29879.9375
2791.31335	29820.9375
2793.87041	29831.2375
2796.42589	29709.4375
2798.97979	29690.5375
2801.53212	29659.9375
2804.08288	29644.6375
2806.63206	29553.0375
2809.17967	29479.6375
2811.72571	29399.5375
2814.27018	29394.5375
2816.81308	29308.6375
2819.35442	29292.2375
2821.89419	29204.5375
2824.43239	29222.9375
2826.96904	29193.3375
2829.50412	29121.0375
2832.03763	29093.4375
2834.56959	29136.7375
2837.1	29028.8375
2839.62884	29000.3375
2842.15613	28956.8375
2844.68186	28915.7375
2847.20604	28868.9375
2849.72867	28911.7375
2852.24974	28816.4375
2854.76927	28825.5375
2857.28724	28772.8375
2859.80367	28695.6375
2862.31855	28671.2375
2864.83189	28683.1375
2867.34368	28642.5375
2869.85393	28617.6375
2872.36264	28547.1375
2874.8698	28614.6375
2877.37543	28643.0375
2879.87952	28563.3375
2882.38207	28555.6375
2884.88308	28577.4375
2887.38256	28542.1375
2889.88051	28557.4375
2892.37692	28521.3375
2894.8718	28538.7375
2897.36515	28584.2375
2899.85698	28572.6375
2902.34727	28630.7375
2904.83604	28619.1375
2907.32328	28679.5375
2909.809	28695.7375
2912.29319	28678.4375
2914.77587	28688.5375
2917.25702	28637.2375
2919.73665	28638.6375
2922.21476	28670.5375
2924.69136	28638.1375
2927.16644	28616.0375
2929.64	28589.2375
2932.11205	28495.0375
2934.58258	28412.1375
2937.05161	28499.3375
2939.51912	28588.9375
2941.98513	28547.4375
2944.44962	28422.6375
2946.91261	28318.0375
2949.37409	28419.0375
2951.83407	28408.4375
2954.29254	28354.7375
2956.74951	28217.3375
2959.20498	28244.7375
2961.65895	28237.4375
2964.11142	28202.2375
2966.56239	28135.8375
2969.01186	28128.1375
2971.45984	28043.3375
2973.90632	28014.3375
2976.35131	27988.9375
2978.7948	27922.7375
2981.23681	27885.5375
2983.67732	27891.0375
2986.11635	27774.2375
2988.55388	27690.2375
2990.98993	27652.9375
2993.4245	27558.3375
2995.85758	27502.1375
2998.28917	27433.0375
3000.71928	27350.1375
3003.14791	27292.9375
3005.57506	27264.4375
3008.00073	27171.1375
3010.42493	27197.1375
3012.84764	27125.1375
3015.26888	27169.9375
3017.68865	27057.1375
3020.10694	27008.2375
