Data from AgNP_FTO_APTES_CRN_50uM_R6G_10uM_NaF_0.1M_Addition_RamanShift__27__18-17-28-089.txt Node

Date: Wed Dec 15 18:17:28 GMT 2021
User: TCL
Spectrometer: QEP01345
Trigger mode: 4
Integration Time (sec): 7.000000E0
Scans to average: 10
Electric dark correction enabled: true
Nonlinearity correction enabled: false
Boxcar width: 0
XAxis mode: Raman Shifts
Number of Pixels in Spectrum: 1044
>>>>>Begin Spectral Data<<<<<
46.04893	0.125
50.45542	-1.775
54.85868	-0.775
59.25871	-0.175
63.6555	62.025
68.04907	66.125
72.43941	69.925
76.82654	74.025
81.21044	74.525
85.59113	77.625
89.96862	81.925
94.34289	82.725
98.71396	88.025
103.08183	90.925
107.4465	91.025
111.80798	93.925
116.16626	96.925
120.52136	104.125
124.87327	100.525
129.222	101.325
133.56755	108.925
137.90993	113.625
142.24913	127.725
146.58517	140.725
150.91804	158.425
155.24774	190.025
159.57429	226.825
163.89768	291.425
168.21792	379.325
172.53501	505.525
176.84895	706.825
181.15975	993.525
185.46741	1389.725
189.77193	1904.225
194.07331	2556.425
198.37157	3304.625
202.6667	4076.325
206.9587	4841.325
211.24758	5597.125
215.53334	6344.525
219.81599	7141.425
224.09553	8021.325
228.37195	8981.625
232.64527	10057.425
236.91549	11183.425
241.18261	12336.825
245.44663	13415.025
249.70755	14415.425
253.96539	15330.325
258.22014	16031.525
262.4718	16661.425
266.72039	17085.125
270.96589	17366.725
275.20832	17450.525
279.44768	17313.125
283.68397	17208.625
287.91719	17007.525
292.14735	16903.225
296.37445	16925.325
300.59849	16951.125
304.81948	16952.225
309.03742	16888.525
313.25231	16704.225
317.46415	16359.425
321.67296	15979.325
325.87872	15669.025
330.08145	15541.125
334.28114	15550.425
338.47781	15721.125
342.67145	15941.825
346.86207	16177.025
351.04966	16527.825
355.23424	16916.525
359.4158	17186.525
363.59435	17436.925
367.76989	17574.225
371.94243	17684.025
376.11196	17772.225
380.27849	17847.125
384.44203	17936.225
388.60257	18043.925
392.76012	18193.825
396.91468	18398.125
401.06626	18665.325
405.21485	18870.325
409.36047	18859.525
413.50311	18596.525
417.64277	18393.325
421.77947	18333.225
425.9132	18338.925
430.04396	18471.525
434.17176	18573.725
438.2966	18764.225
442.41849	19056.625
446.53742	19468.225
450.6534	19910.125
454.76644	20266.925
458.87653	20453.525
462.98368	20391.625
467.08789	20234.025
471.18916	20074.025
475.2875	19896.625
479.38291	19770.425
483.4754	19646.025
487.56496	19453.425
491.6516	19190.225
495.73531	19018.725
499.81612	18935.225
503.89401	18968.925
507.96899	19018.225
512.04106	19074.125
516.11023	19089.125
520.1765	19121.025
524.23987	19163.625
528.30034	19051.725
532.35792	18908.825
536.41261	18758.725
540.46441	18551.925
544.51333	18509.925
548.55936	18655.825
552.60252	18879.825
556.64279	19164.825
560.6802	19306.425
564.71473	19402.325
568.7464	19588.925
572.7752	19755.825
576.80114	19896.025
580.82422	19936.725
584.84444	20129.525
588.86181	20377.825
592.87633	20706.825
596.888	21036.125
600.89682	21259.125
604.9028	21830.225
608.90594	23300.825
612.90624	24985.525
616.90371	23908.825
620.89834	20783.225
624.89015	19404.225
628.87913	19237.725
632.86528	19289.525
636.84862	19307.925
640.82913	19107.425
644.80683	18733.725
648.78172	18453.825
652.75379	18433.625
656.72306	18610.725
660.68952	18843.625
664.65319	18792.425
668.61405	18558.625
672.57211	18467.325
676.52738	18455.925
680.47986	18503.925
684.42955	18481.525
688.37646	18431.225
692.32058	18541.925
696.26192	18653.925
700.20048	18811.125
704.13626	18912.925
708.06928	18899.225
711.99952	18778.725
715.927	18754.825
719.85171	18697.725
723.77365	18706.025
727.69284	18592.025
731.60928	18494.925
735.52295	18455.125
739.43388	18422.625
743.34206	18485.325
747.24749	18592.425
751.15017	18674.025
755.05012	18880.525
758.94733	19258.725
762.8418	19955.825
766.73354	21129.425
770.62254	22339.325
774.50882	22678.625
778.39237	21929.225
782.27321	20531.825
786.15132	19433.325
790.02671	18773.125
793.89938	18463.525
797.76935	18355.625
801.6366	18319.625
805.50115	18324.825
809.36299	18280.625
813.22213	18205.925
817.07857	18241.425
820.93231	18222.925
824.78336	18215.825
828.63172	18243.525
832.47738	18267.725
836.32036	18327.025
840.16066	18319.825
843.99827	18329.025
847.8332	18311.025
851.66546	18254.825
855.49504	18226.225
859.32195	18195.725
863.1462	18184.425
866.96777	18165.725
870.78668	18082.525
874.60293	18117.025
878.41652	18114.025
882.22745	18142.725
886.03573	18164.525
889.84136	18159.625
893.64433	18114.725
897.44466	18027.925
901.24235	17995.825
905.0374	17997.625
908.8298	17976.325
912.61957	17989.525
916.40671	18109.125
920.19121	18242.225
923.97308	18336.225
927.75233	18401.625
931.52895	18382.525
935.30295	18276.825
939.07433	18056.025
942.84309	17838.925
946.60924	17761.525
950.37278	17665.525
954.13371	17607.025
957.89203	17543.125
961.64774	17520.125
965.40086	17432.525
969.15137	17424.525
972.89929	17363.925
976.64461	17319.525
980.38733	17354.225
984.12747	17408.825
987.86502	17507.725
991.59999	17669.625
995.33237	17933.525
999.06217	18278.225
1002.78939	18677.825
1006.51404	18918.025
1010.23611	19057.925
1013.95561	19222.425
1017.67255	19177.625
1021.38692	19007.025
1025.09872	18922.025
1028.80796	19032.025
1032.51465	19386.325
1036.21877	19679.225
1039.92035	19752.525
1043.61937	19567.525
1047.31584	19310.725
1051.00976	19001.125
1054.70114	18860.725
1058.38998	18923.125
1062.07627	19090.125
1065.76003	19314.025
1069.44126	19684.125
1073.11995	20095.225
1076.79611	20399.025
1080.46974	20426.625
1084.14085	20291.325
1087.80943	20096.325
1091.47549	19883.325
1095.13903	19672.925
1098.80005	19347.825
1102.45857	19070.825
1106.11456	18882.125
1109.76805	18823.925
1113.41903	18920.125
1117.06751	19053.925
1120.71348	19239.125
1124.35696	19413.825
1127.99793	19600.125
1131.63641	19683.325
1135.2724	19538.825
1138.90589	19314.625
1142.5369	19154.425
1146.16542	19108.025
1149.79145	19083.725
1153.415	19179.625
1157.03607	19326.725
1160.65467	19619.125
1164.27079	20077.725
1167.88443	20823.925
1171.49561	21754.025
1175.10432	23127.625
1178.71056	24741.525
1182.31434	26168.525
1185.91565	26760.425
1189.51451	26520.625
1193.11091	25695.925
1196.70485	24670.525
1200.29634	23780.025
1203.88538	23168.325
1207.47197	22663.225
1211.05612	22265.225
1214.63782	21994.325
1218.21708	21820.125
1221.79391	21712.425
1225.36829	21672.425
1228.94024	21574.825
1232.50976	21360.625
1236.07685	21202.525
1239.6415	21156.025
1243.20374	21212.025
1246.76355	21333.925
1250.32093	21588.925
1253.8759	21928.725
1257.42845	22385.425
1260.97859	22773.825
1264.52631	23077.425
1268.07163	23438.925
1271.61453	23880.225
1275.15503	24368.525
1278.69312	24873.125
1282.22882	25293.425
1285.76211	25772.425
1289.29301	26291.125
1292.82151	26979.425
1296.34761	27886.025
1299.87133	28977.625
1303.39266	30326.225
1306.9116	31881.725
1310.42815	33447.325
1313.94233	34474.125
1317.45412	34525.225
1320.96354	34006.025
1324.47058	33180.325
1327.97525	32416.725
1331.47754	31882.425
1334.97747	31662.025
1338.47502	31750.825
1341.97022	31867.125
1345.46305	31769.225
1348.95352	31505.425
1352.44163	31539.525
1355.92738	32136.425
1359.41078	33602.525
1362.89183	35111.425
1366.37053	34736.225
1369.84688	32262.425
1373.32088	29304.225
1376.79254	27282.925
1380.26186	26323.725
1383.72883	25982.225
1387.19347	25789.525
1390.65578	25560.725
1394.11575	25491.825
1397.57339	25628.325
1401.0287	26073.025
1404.48168	26457.925
1407.93234	26748.425
1411.38068	26679.925
1414.82669	26276.925
1418.27039	25466.625
1421.71177	24603.125
1425.15083	23864.925
1428.58758	23427.425
1432.02203	23364.425
1435.45416	23614.325
1438.88399	23976.525
1442.31151	24278.825
1445.73673	24547.025
1449.15965	24822.425
1452.58027	24989.325
1455.9986	25043.525
1459.41463	25188.825
1462.82837	25497.025
1466.23982	25898.625
1469.64898	26316.525
1473.05586	26538.225
1476.46045	26656.425
1479.86276	26718.125
1483.26279	26602.825
1486.66054	26655.225
1490.05602	26749.425
1493.44922	26932.725
1496.84016	27117.725
1500.22882	27464.525
1503.61521	28124.225
1506.99934	29001.625
1510.38121	29892.225
1513.76081	30250.825
1517.13816	29752.325
1520.51324	28566.025
1523.88607	27388.925
1527.25665	26539.525
1530.62498	26127.525
1533.99105	25965.025
1537.35488	25851.425
1540.71647	25709.525
1544.07581	25450.225
1547.4329	25204.325
1550.78776	24954.525
1554.14038	24740.625
1557.49077	24647.725
1560.83892	24703.625
1564.18484	24820.025
1567.52853	24999.325
1570.86999	25283.025
1574.20922	25820.925
1577.54624	26372.925
1580.88103	26641.725
1584.2136	26616.825
1587.54395	26518.525
1590.87208	26837.925
1594.19801	27720.225
1597.52172	28879.725
1600.84321	29304.025
1604.16251	28486.925
1607.47959	26864.325
1610.79447	25085.125
1614.10715	23387.425
1617.41763	22066.825
1620.7259	21174.325
1624.03199	20780.825
1627.33587	20762.825
1630.63757	21138.825
1633.93707	21950.625
1637.23439	23211.725
1640.52951	24924.825
1643.82246	26899.525
1647.11321	28534.825
1650.40179	29105.525
1653.68819	27828.725
1656.97241	25343.325
1660.25446	22690.725
1663.53433	20684.725
1666.81203	19366.525
1670.08756	18514.925
1673.36092	17982.425
1676.63211	17621.925
1679.90115	17349.125
1683.16801	17164.625
1686.43272	17028.325
1689.69527	16931.825
1692.95567	16863.625
1696.2139	16828.525
1699.46999	16800.125
1702.72392	16745.625
1705.97571	16709.725
1709.22535	16684.125
1712.47284	16660.525
1715.71819	16650.125
1718.96139	16596.025
1722.20246	16590.325
1725.44139	16519.525
1728.67818	16486.925
1731.91284	16430.125
1735.14537	16337.725
1738.37576	16255.525
1741.60403	16274.925
1744.83017	16242.625
1748.05418	16209.525
1751.27607	16180.525
1754.49584	16165.525
1757.71349	16157.625
1760.92903	16164.525
1764.14244	16138.625
1767.35375	16166.525
1770.56294	16120.825
1773.77002	16103.325
1776.97499	16100.025
1780.17785	16069.625
1783.37861	16018.325
1786.57727	16010.325
1789.77382	16012.325
1792.96828	15959.225
1796.16064	15936.525
1799.3509	15923.925
1802.53907	15885.525
1805.72514	15869.525
1808.90913	15836.925
1812.09102	15792.725
1815.27083	15800.825
1818.44856	15794.025
1821.6242	15746.425
1824.79776	15711.625
1827.96924	15696.325
1831.13864	15737.725
1834.30597	15720.025
1837.47122	15708.725
1840.6344	15688.325
1843.7955	15678.725
1846.95454	15694.425
1850.11151	15694.925
1853.26642	15684.225
1856.41926	15681.325
1859.57004	15678.825
1862.71876	15673.225
1865.86542	15675.925
1869.01003	15651.525
1872.15258	15654.225
1875.29308	15631.825
1878.43152	15628.725
1881.56792	15609.625
1884.70227	15620.125
1887.83457	15566.825
1890.96482	15585.825
1894.09304	15572.925
1897.21921	15590.125
1900.34335	15573.125
1903.46544	15554.225
1906.58551	15547.025
1909.70353	15524.725
1912.81953	15511.825
1915.93349	15491.525
1919.04543	15463.125
1922.15534	15443.725
1925.26322	15441.125
1928.36908	15404.925
1931.47292	15373.725
1934.57473	15347.025
1937.67453	15290.525
1940.77232	15287.925
1943.86808	15247.725
1946.96184	15217.825
1950.05358	15183.925
1953.14331	15153.225
1956.23103	15110.625
1959.31675	15074.125
1962.40046	15051.025
1965.48217	14957.825
1968.56188	14923.225
1971.63959	14904.325
1974.7153	14838.725
1977.78901	14834.825
1980.86073	14768.325
1983.93046	14754.625
1986.99819	14691.225
1990.06394	14656.425
1993.1277	14613.125
1996.18947	14536.925
1999.24925	14490.625
2002.30706	14477.125
2005.36288	14435.625
2008.41672	14430.425
2011.46859	14361.625
2014.51848	14346.225
2017.56639	14333.925
2020.61233	14277.825
2023.6563	14233.325
2026.6983	14212.625
2029.73833	14224.425
2032.7764	14200.725
2035.8125	14163.225
2038.84664	14114.025
2041.87881	14119.225
2044.90903	14090.725
2047.93729	14037.225
2050.96359	14061.625
2053.98794	14018.625
2057.01034	14033.025
2060.03078	14009.125
2063.04927	14026.525
2066.06582	13993.825
2069.08042	13969.725
2072.09307	13977.425
2075.10378	13958.125
2078.11255	13944.125
2081.11938	13953.525
2084.12426	13930.725
2087.12722	13941.825
2090.12824	13941.025
2093.12732	13934.225
2096.12447	13967.525
2099.11969	13934.125
2102.11299	13948.025
2105.10435	13952.925
2108.09379	13969.125
2111.08131	14021.225
2114.0669	14003.325
2117.05057	13982.725
2120.03233	13978.425
2123.01216	14002.725
2125.99008	14002.725
2128.96609	14038.725
2131.94018	14042.225
2134.91236	14052.225
2137.88263	14061.825
2140.851	14082.325
2143.81746	14087.125
2146.78201	14082.025
2149.74466	14134.225
2152.7054	14092.525
2155.66425	14120.225
2158.6212	14139.425
2161.57625	14103.025
2164.52941	14108.225
2167.48067	14137.625
2170.43004	14113.425
2173.37752	14101.425
2176.32311	14105.825
2179.26681	14117.125
2182.20863	14080.225
2185.14856	14103.525
2188.08661	14099.725
2191.02278	14112.625
2193.95707	14091.425
2196.88948	14085.925
2199.82001	14047.925
2202.74867	14021.825
2205.67545	14050.625
2208.60037	14070.325
2211.52341	14039.525
2214.44458	14037.325
2217.36388	14016.425
2220.28132	14004.125
2223.1969	13967.925
2226.11061	13959.325
2229.02246	13930.825
2231.93245	13921.525
2234.84058	13889.225
2237.74686	13867.025
2240.65128	13856.625
2243.55385	13845.325
2246.45456	13806.725
2249.35343	13789.625
2252.25044	13770.525
2255.14561	13765.025
2258.03893	13761.525
2260.93041	13721.725
2263.82004	13703.625
2266.70783	13685.725
2269.59378	13646.325
2272.4779	13615.325
2275.36017	13585.025
2278.24061	13558.625
2281.11922	13527.725
2283.996	13520.325
2286.87094	13515.825
2289.74405	13466.425
2292.61534	13490.825
2295.4848	13464.325
2298.35243	13461.825
2301.21824	13439.025
2304.08223	13429.525
2306.94439	13464.625
2309.80474	13428.525
2312.66327	13430.525
2315.51999	13421.625
2318.37489	13421.225
2321.22797	13400.825
2324.07925	13404.225
2326.92871	13396.125
2329.77637	13426.425
2332.62222	13376.025
2335.46626	13344.225
2338.3085	13351.725
2341.14893	13369.725
2343.98756	13359.025
2346.8244	13344.025
2349.65943	13327.625
2352.49267	13354.725
2355.32411	13324.025
2358.15376	13302.825
2360.98161	13314.725
2363.80768	13319.025
2366.63195	13285.125
2369.45444	13261.025
2372.27514	13267.225
2375.09405	13217.825
2377.91118	13203.425
2380.72652	13179.825
2383.54009	13165.125
2386.35187	13159.025
2389.16188	13104.925
2391.97011	13112.925
2394.77657	13080.725
2397.58125	13058.025
2400.38416	13055.925
2403.18529	13026.425
2405.98466	13011.925
2408.78226	12966.725
2411.57809	12973.025
2414.37216	12920.625
2417.16446	12925.925
2419.955	12905.525
2422.74378	12884.125
2425.5308	12848.725
2428.31606	12859.025
2431.09956	12855.325
2433.88131	12836.525
2436.6613	12817.525
2439.43954	12812.525
2442.21603	12791.625
2444.99077	12781.725
2447.76377	12803.625
2450.53501	12791.825
2453.30451	12781.425
2456.07226	12749.725
2458.83827	12777.125
2461.60254	12754.825
2464.36507	12732.925
2467.12586	12748.425
2469.88492	12738.325
2472.64224	12749.625
2475.39782	12739.125
2478.15167	12748.125
2480.90379	12727.525
2483.65417	12762.225
2486.40283	12749.525
2489.14976	12794.425
2491.89497	12754.925
2494.63845	12768.625
2497.3802	12759.325
2500.12024	12766.025
2502.85855	12751.925
2505.59514	12715.025
2508.33002	12684.625
2511.06318	12697.325
2513.79462	12677.125
2516.52435	12662.625
2519.25237	12672.825
2521.97867	12653.525
2524.70327	12660.925
2527.42616	12625.625
2530.14734	12614.825
2532.86681	12593.825
2535.58458	12590.125
2538.30065	12558.225
2541.01501	12572.925
2543.72768	12572.225
2546.43864	12570.725
2549.14791	12529.025
2551.85548	12519.425
2554.56136	12505.325
2557.26554	12518.825
2559.96803	12486.225
2562.66883	12468.225
2565.36794	12466.725
2568.06536	12466.325
2570.7611	12457.925
2573.45514	12429.225
2576.14751	12412.225
2578.83819	12400.625
2581.52719	12388.825
2584.21451	12388.825
2586.90015	12376.925
2589.58411	12359.225
2592.2664	12315.625
2594.94701	12300.125
2597.62594	12309.625
2600.30321	12301.925
2602.9788	12287.425
2605.65273	12283.725
2608.32498	12253.825
2610.99557	12284.525
2613.66449	12280.625
2616.33175	12239.825
2618.99734	12250.225
2621.66128	12226.125
2624.32355	12253.025
2626.98416	12274.825
2629.64311	12217.025
2632.30041	12243.525
2634.95605	12216.525
2637.61004	12213.625
2640.26238	12182.925
2642.91306	12194.225
2645.56209	12183.725
2648.20948	12197.425
2650.85521	12167.925
2653.4993	12150.825
2656.14175	12124.525
2658.78255	12135.425
2661.42171	12120.025
2664.05923	12162.425
2666.6951	12169.425
2669.32934	12165.825
2671.96194	12157.225
2674.59291	12155.125
2677.22224	12122.725
2679.84993	12171.925
2682.476	12158.925
2685.10043	12165.125
2687.72324	12152.925
2690.34441	12162.225
2692.96396	12163.625
2695.58188	12156.025
2698.19818	12135.325
2700.81285	12143.325
2703.4259	12145.725
2706.03733	12226.725
2708.64714	12188.025
2711.25533	12182.925
2713.86191	12177.025
2716.46687	12205.025
2719.07021	12151.125
2721.67194	12196.625
2724.27206	12161.725
2726.87057	12183.325
2729.46747	12166.625
2732.06276	12188.125
2734.65644	12173.325
2737.24852	12173.925
2739.83899	12172.125
2742.42786	12141.525
2745.01513	12131.625
2747.60079	12129.325
2750.18486	12152.825
2752.76733	12168.325
2755.3482	12160.325
2757.92747	12142.225
2760.50515	12133.125
2763.08123	12107.925
2765.65573	12115.225
2768.22863	12079.625
2770.79994	12082.825
2773.36967	12090.625
2775.9378	12065.825
2778.50435	12027.125
2781.06932	12029.325
2783.6327	12036.025
2786.1945	12011.325
2788.75471	12013.825
2791.31335	11996.725
2793.87041	11972.125
2796.42589	11928.825
2798.97979	11936.125
2801.53212	11899.825
2804.08288	11903.825
2806.63206	11879.825
2809.17967	11861.925
2811.72571	11840.425
2814.27018	11815.425
2816.81308	11817.725
2819.35442	11813.325
2821.89419	11774.325
2824.43239	11762.925
2826.96904	11773.725
2829.50412	11769.825
2832.03763	11724.625
2834.56959	11748.725
2837.1	11705.325
2839.62884	11717.425
2842.15613	11700.925
2844.68186	11732.125
2847.20604	11732.425
2849.72867	11699.325
2852.24974	11684.025
2854.76927	11685.125
2857.28724	11699.125
2859.80367	11672.425
2862.31855	11645.525
2864.83189	11655.325
2867.34368	11614.925
2869.85393	11639.225
2872.36264	11638.825
2874.8698	11632.925
2877.37543	11610.525
2879.87952	11616.025
2882.38207	11626.325
2884.88308	11649.925
2887.38256	11636.425
2889.88051	11644.625
2892.37692	11643.925
2894.8718	11596.025
2897.36515	11629.425
2899.85698	11641.925
2902.34727	11661.325
2904.83604	11652.125
2907.32328	11684.525
2909.809	11654.925
2912.29319	11699.325
2914.77587	11673.825
2917.25702	11654.525
2919.73665	11663.725
2922.21476	11685.325
2924.69136	11673.825
2927.16644	11658.525
2929.64	11659.325
2932.11205	11622.825
2934.58258	11582.425
2937.05161	11658.925
2939.51912	11651.125
2941.98513	11630.825
2944.44962	11603.825
2946.91261	11563.225
2949.37409	11552.225
2951.83407	11573.625
2954.29254	11576.025
2956.74951	11530.725
2959.20498	11526.325
2961.65895	11517.225
2964.11142	11548.225
2966.56239	11481.125
2969.01186	11507.025
2971.45984	11478.225
2973.90632	11432.525
2976.35131	11388.325
2978.7948	11406.925
2981.23681	11362.025
2983.67732	11365.625
2986.11635	11345.925
2988.55388	11333.825
2990.98993	11294.225
2993.4245	11292.525
2995.85758	11258.125
2998.28917	11237.525
3000.71928	11227.925
3003.14791	11210.125
3005.57506	11201.025
3008.00073	11180.025
3010.42493	11156.625
3012.84764	11142.725
3015.26888	11151.925
3017.68865	11087.625
3020.10694	11111.025
3022.52376	11090.925
3024.9391	11067.625
3027.35298	11054.225
3029.76539	11057.325
3032.17632	11060.725
3034.5858	11018.125
3036.9938	11026.425
3039.40034	11009.125
3041.80542	11001.125
3044.20903	10972.125
3046.61118	10980.825
3049.01187	10979.425
3051.4111	10931.425
3053.80888	10941.625
3056.20519	10931.625
3058.60005	10881.525
3060.99345	10849.225
3063.3854	10836.625
3065.7759	10794.725
3068.16494	10811.525
3070.55254	10766.025
3072.93868	10739.925
3075.32338	10716.325
3077.70662	10659.425
3080.08842	10667.825
3082.46878	10674.425
3084.84769	10664.725
3087.22515	10668.325
3089.60118	10649.825
3091.97576	10644.025
3094.3489	10653.225
3096.72061	10646.325
3099.09087	10641.825
3101.4597	10632.625
3103.82709	10634.225
3106.19305	10608.425
3108.55757	10600.025
3110.92066	10568.825
3113.28232	10568.325
3115.64255	10550.225
3118.00134	10534.925
3120.35871	10499.125
3122.71466	10492.225
3125.06917	10476.125
3127.42226	10465.725
3129.77393	10489.425
