Data from AgNP_FTO_APTES_CRN_20uM_R6G_10uM_NaF_0.1M_Addition_RamanShift__26__17-30-48-037.txt Node

Date: Wed Dec 15 17:30:48 GMT 2021
User: TCL
Spectrometer: QEP01345
Trigger mode: 4
Integration Time (sec): 7.000000E0
Scans to average: 10
Electric dark correction enabled: true
Nonlinearity correction enabled: false
Boxcar width: 0
XAxis mode: Raman Shifts
Number of Pixels in Spectrum: 1044
>>>>>Begin Spectral Data<<<<<
46.04893	1.6
50.45542	-1.8
54.85868	-0.6
59.25871	-0.7
63.6555	62
68.04907	70.9
72.43941	70.1
76.82654	73.3
81.21044	80.5
85.59113	81
89.96862	83.7
94.34289	85.3
98.71396	88.8
103.08183	95.7
107.4465	93.9
111.80798	94.1
116.16626	98.4
120.52136	102.6
124.87327	105.3
129.222	109.5
133.56755	111.5
137.90993	120.6
142.24913	132.7
146.58517	140.6
150.91804	165.2
155.24774	192.4
159.57429	234.5
163.89768	298.8
168.21792	387.8
172.53501	529
176.84895	724.7
181.15975	1023.9
185.46741	1419.4
189.77193	1972.7
194.07331	2625.1
198.37157	3387.4
202.6667	4175.9
206.9587	4970.2
211.24758	5787.7
215.53334	6536.6
219.81599	7357.4
224.09553	8264.9
228.37195	9253.3
232.64527	10402.3
236.91549	11580.8
241.18261	12767.3
245.44663	13896.8
249.70755	14919.6
253.96539	15768.3
258.22014	16534.6
262.4718	17156
266.72039	17627.2
270.96589	17899.2
275.20832	17953.4
279.44768	17858.7
283.68397	17702
287.91719	17539.8
292.14735	17487.9
296.37445	17432.4
300.59849	17543.2
304.81948	17603.3
309.03742	17615.6
313.25231	17417.1
317.46415	17058.4
321.67296	16537.6
325.87872	16147.5
330.08145	15954.4
334.28114	15978.6
338.47781	16101.6
342.67145	16326.9
346.86207	16627.9
351.04966	17015.7
355.23424	17461.4
359.4158	17824.8
363.59435	18056.9
367.76989	18190.2
371.94243	18282.3
376.11196	18346
380.27849	18416.8
384.44203	18445.3
388.60257	18482.5
392.76012	18647.9
396.91468	18827.3
401.06626	19150.2
405.21485	19395.4
409.36047	19340.7
413.50311	19033.4
417.64277	18782.6
421.77947	18651.3
425.9132	18669.4
430.04396	18766.7
434.17176	18872.3
438.2966	19067.7
442.41849	19338.5
446.53742	19785.4
450.6534	20259.4
454.76644	20681.6
458.87653	20858.4
462.98368	20809.1
467.08789	20625
471.18916	20363.5
475.2875	20083.5
479.38291	19931.7
483.4754	19730.5
487.56496	19516.7
491.6516	19257.7
495.73531	19069.5
499.81612	18997.6
503.89401	19125.6
507.96899	19162
512.04106	19209.9
516.11023	19276.5
520.1765	19293.3
524.23987	19279.6
528.30034	19165.7
532.35792	18982.1
536.41261	18771.1
540.46441	18518.7
544.51333	18441.3
548.55936	18557.1
552.60252	18843.5
556.64279	19154.5
560.6802	19321.7
564.71473	19403.9
568.7464	19591.6
572.7752	19836.8
576.80114	19960.1
580.82422	20081.6
584.84444	20239.8
588.86181	20459.7
592.87633	20757.8
596.888	21127.6
600.89682	21427.9
604.9028	22171.2
608.90594	23982
612.90624	26108.6
616.90371	25014.1
620.89834	21197
624.89015	19457.3
628.87913	19249.7
632.86528	19289.2
636.84862	19269.1
640.82913	19027.3
644.80683	18561.7
648.78172	18224.5
652.75379	18178.8
656.72306	18366.2
660.68952	18638.5
664.65319	18637.5
668.61405	18336.1
672.57211	18217.5
676.52738	18202.7
680.47986	18236.9
684.42955	18175.8
688.37646	18158.2
692.32058	18234.8
696.26192	18325.8
700.20048	18499.6
704.13626	18634
708.06928	18607.7
711.99952	18500.2
715.927	18438.8
719.85171	18420.8
723.77365	18368.6
727.69284	18233.1
731.60928	18131.4
735.52295	18107.6
739.43388	18110.4
743.34206	18135.4
747.24749	18225.4
751.15017	18350.2
755.05012	18597.2
758.94733	19022.2
762.8418	19884.5
766.73354	21218.9
770.62254	22624.1
774.50882	23064.9
778.39237	22211.6
782.27321	20645.4
786.15132	19319.3
790.02671	18540.1
793.89938	18163.2
797.76935	18079.8
801.6366	18033.8
805.50115	17970.5
809.36299	17932.8
813.22213	17841
817.07857	17809.9
820.93231	17811.4
824.78336	17802.6
828.63172	17822.9
832.47738	17889.7
836.32036	17920.2
840.16066	17973.2
843.99827	17950.3
847.8332	17938.7
851.66546	17830.8
855.49504	17814.1
859.32195	17768
863.1462	17730
866.96777	17664.8
870.78668	17630.7
874.60293	17593.9
878.41652	17607.9
882.22745	17667.6
886.03573	17714.9
889.84136	17662.1
893.64433	17618.6
897.44466	17542.3
901.24235	17512.1
905.0374	17488.3
908.8298	17479.3
912.61957	17478.3
916.40671	17633.7
920.19121	17785.3
923.97308	17936.5
927.75233	18018.6
931.52895	18001.6
935.30295	17852.2
939.07433	17565.1
942.84309	17372.7
946.60924	17265.6
950.37278	17226
954.13371	17126.6
957.89203	17037.7
961.64774	16998.4
965.40086	16961
969.15137	16883
972.89929	16834.1
976.64461	16783.9
980.38733	16807.2
984.12747	16895.7
987.86502	17023.2
991.59999	17188.9
995.33237	17483.2
999.06217	17922.5
1002.78939	18436.1
1006.51404	18758.2
1010.23611	18961.7
1013.95561	19106.9
1017.67255	19085.3
1021.38692	18881.3
1025.09872	18772.5
1028.80796	18929.9
1032.51465	19407.4
1036.21877	19855.8
1039.92035	19977.2
1043.61937	19704.6
1047.31584	19289.6
1051.00976	18876.2
1054.70114	18667.9
1058.38998	18654.1
1062.07627	18862.6
1065.76003	19129.5
1069.44126	19469.6
1073.11995	19921.4
1076.79611	20308
1080.46974	20392.5
1084.14085	20294.6
1087.80943	20076.2
1091.47549	19819.7
1095.13903	19517.7
1098.80005	19146.2
1102.45857	18751.6
1106.11456	18522.5
1109.76805	18529.2
1113.41903	18608.8
1117.06751	18807.5
1120.71348	18997.2
1124.35696	19207.7
1127.99793	19454.4
1131.63641	19522.4
1135.2724	19348.5
1138.90589	19106.6
1142.5369	18958
1146.16542	18807.2
1149.79145	18787.9
1153.415	18868.9
1157.03607	19033.4
1160.65467	19370.1
1164.27079	19933.9
1167.88443	20706.6
1171.49561	21833.8
1175.10432	23448.6
1178.71056	25372.5
1182.31434	27070.8
1185.91565	27895.2
1189.51451	27682.1
1193.11091	26723.3
1196.70485	25461.7
1200.29634	24327.6
1203.88538	23500.5
1207.47197	22892.7
1211.05612	22402.9
1214.63782	22048.3
1218.21708	21892.8
1221.79391	21811.2
1225.36829	21788.5
1228.94024	21743.6
1232.50976	21469.4
1236.07685	21324.4
1239.6415	21271
1243.20374	21288.9
1246.76355	21406.1
1250.32093	21636.1
1253.8759	22069.2
1257.42845	22606.4
1260.97859	23060.3
1264.52631	23440.5
1268.07163	23911.9
1271.61453	24469.2
1275.15503	25076.7
1278.69312	25669.8
1282.22882	26173.3
1285.76211	26633.4
1289.29301	27196.3
1292.82151	27928.2
1296.34761	28796.7
1299.87133	30058.5
1303.39266	31594.7
1306.9116	33487
1310.42815	35378.1
1313.94233	36643.1
1317.45412	36740.6
1320.96354	35949.3
1324.47058	34972.9
1327.97525	34042.5
1331.47754	33427.2
1334.97747	33132.2
1338.47502	33232
1341.97022	33391
1345.46305	33316.8
1348.95352	33070.8
1352.44163	33090.1
1355.92738	33849.9
1359.41078	35609.4
1362.89183	37414.6
1366.37053	37064.4
1369.84688	34109.2
1373.32088	30647.6
1376.79254	28263.6
1380.26186	27064.5
1383.72883	26690.5
1387.19347	26412.8
1390.65578	26070.3
1394.11575	25894.9
1397.57339	26024.1
1401.0287	26460.2
1404.48168	26902.6
1407.93234	27210.6
1411.38068	27226.2
1414.82669	26765.3
1418.27039	25978.7
1421.71177	25038.7
1425.15083	24206.4
1428.58758	23757.5
1432.02203	23705.7
1435.45416	23966.9
1438.88399	24336.5
1442.31151	24725.3
1445.73673	25047.1
1449.15965	25297.5
1452.58027	25518.4
1455.9986	25596.2
1459.41463	25725.2
1462.82837	26078.4
1466.23982	26589.3
1469.64898	27048.3
1473.05586	27351.9
1476.46045	27495.2
1479.86276	27477.8
1483.26279	27382.4
1486.66054	27379.8
1490.05602	27552.7
1493.44922	27771.9
1496.84016	28044.6
1500.22882	28488.2
1503.61521	29291.5
1506.99934	30368.3
1510.38121	31482.5
1513.76081	31995.2
1517.13816	31378.6
1520.51324	30005.4
1523.88607	28499.5
1527.25665	27524.2
1530.62498	26987.2
1533.99105	26672.9
1537.35488	26532
1540.71647	26321.5
1544.07581	26050
1547.4329	25763.6
1550.78776	25498.2
1554.14038	25249.9
1557.49077	25214.8
1560.83892	25242
1564.18484	25345.2
1567.52853	25531.7
1570.86999	25876.1
1574.20922	26401.8
1577.54624	27031.7
1580.88103	27415.9
1584.2136	27472.2
1587.54395	27456.4
1590.87208	27797.7
1594.19801	28684
1597.52172	29927.5
1600.84321	30410
1604.16251	29444.4
1607.47959	27595.9
1610.79447	25566.5
1614.10715	23756.8
1617.41763	22269.9
1620.7259	21257.5
1624.03199	20733.8
1627.33587	20750.3
1630.63757	21190
1633.93707	22117.2
1637.23439	23547.6
1640.52951	25520.9
1643.82246	27661.4
1647.11321	29473.4
1650.40179	30076.4
1653.68819	28722.5
1656.97241	25853.4
1660.25446	22846
1663.53433	20550.3
1666.81203	19070.5
1670.08756	18152.9
1673.36092	17537.6
1676.63211	17142.6
1679.90115	16875.3
1683.16801	16666.4
1686.43272	16501.7
1689.69527	16379.5
1692.95567	16305.9
1696.2139	16260.6
1699.46999	16241.5
1702.72392	16221.1
1705.97571	16156.4
1709.22535	16130.7
1712.47284	16062
1715.71819	16079.1
1718.96139	16049.5
1722.20246	15992.5
1725.44139	15944.3
1728.67818	15890.2
1731.91284	15826.1
1735.14537	15721.2
1738.37576	15667.2
1741.60403	15655.3
1744.83017	15604.7
1748.05418	15577.9
1751.27607	15568.1
1754.49584	15545.3
1757.71349	15553.3
1760.92903	15536.3
1764.14244	15524.1
1767.35375	15535
1770.56294	15502.3
1773.77002	15500.3
1776.97499	15485.1
1780.17785	15428.5
1783.37861	15423.5
1786.57727	15390.7
1789.77382	15349
1792.96828	15378.4
1796.16064	15332.2
1799.3509	15328
1802.53907	15289.2
1805.72514	15228.5
1808.90913	15214.5
1812.09102	15178
1815.27083	15161.2
1818.44856	15128.4
1821.6242	15108
1824.79776	15090.4
1827.96924	15084.2
1831.13864	15094.9
1834.30597	15099.7
1837.47122	15099.8
1840.6344	15072.5
1843.7955	15088.3
1846.95454	15066.3
1850.11151	15068
1853.26642	15062.7
1856.41926	15060.9
1859.57004	15062.3
1862.71876	15034.8
1865.86542	15051.3
1869.01003	15034.7
1872.15258	15062
1875.29308	15030.8
1878.43152	14983.5
1881.56792	15010.9
1884.70227	15003.7
1887.83457	14981.7
1890.96482	14966.2
1894.09304	14987.8
1897.21921	14964.5
1900.34335	14992.6
1903.46544	14937.5
1906.58551	14948.6
1909.70353	14917.8
1912.81953	14922.7
1915.93349	14905.4
1919.04543	14881.7
1922.15534	14858
1925.26322	14868.5
1928.36908	14797.8
1931.47292	14765.9
1934.57473	14761.2
1937.67453	14692.2
1940.77232	14686.6
1943.86808	14602.6
1946.96184	14602.1
1950.05358	14559.8
1953.14331	14516.8
1956.23103	14453.2
1959.31675	14476.4
1962.40046	14390.3
1965.48217	14362.5
1968.56188	14330.9
1971.63959	14297.4
1974.7153	14233.9
1977.78901	14190.9
1980.86073	14118
1983.93046	14116.4
1986.99819	14087.9
1990.06394	14032.2
1993.1277	13975.7
1996.18947	13930
1999.24925	13887.8
2002.30706	13858.9
2005.36288	13835.8
2008.41672	13800.6
2011.46859	13763.3
2014.51848	13731.6
2017.56639	13706.8
2020.61233	13679
2023.6563	13628.6
2026.6983	13601.3
2029.73833	13622.7
2032.7764	13588.3
2035.8125	13539.9
2038.84664	13529.5
2041.87881	13523.6
2044.90903	13510.4
2047.93729	13465.4
2050.96359	13475.6
2053.98794	13428.6
2057.01034	13442.5
2060.03078	13438.5
2063.04927	13404
2066.06582	13388.5
2069.08042	13368.6
2072.09307	13386.1
2075.10378	13350.3
2078.11255	13308.2
2081.11938	13345.6
2084.12426	13340
2087.12722	13352.9
2090.12824	13306.5
2093.12732	13347.6
2096.12447	13350.4
2099.11969	13336.4
2102.11299	13343.7
2105.10435	13334.7
2108.09379	13365.2
2111.08131	13386.5
2114.0669	13364
2117.05057	13379
2120.03233	13379.1
2123.01216	13386.3
2125.99008	13373.3
2128.96609	13387.9
2131.94018	13427.8
2134.91236	13433.3
2137.88263	13429.4
2140.851	13454.6
2143.81746	13458.7
2146.78201	13468.4
2149.74466	13488.8
2152.7054	13496.7
2155.66425	13507
2158.6212	13525.9
2161.57625	13503.5
2164.52941	13503.8
2167.48067	13509.3
2170.43004	13459.8
2173.37752	13474
2176.32311	13478.1
2179.26681	13467.7
2182.20863	13488.1
2185.14856	13475
2188.08661	13457
2191.02278	13485.8
2193.95707	13466.1
2196.88948	13466.9
2199.82001	13451.7
2202.74867	13454.8
2205.67545	13458.3
2208.60037	13448.7
2211.52341	13432.7
2214.44458	13437.5
2217.36388	13406.5
2220.28132	13377.4
2223.1969	13356.9
2226.11061	13362.7
2229.02246	13379
2231.93245	13325.1
2234.84058	13276.8
2237.74686	13289.9
2240.65128	13289.7
2243.55385	13234.1
2246.45456	13219.6
2249.35343	13164.3
2252.25044	13181.5
2255.14561	13140.2
2258.03893	13152
2260.93041	13146.3
2263.82004	13102.7
2266.70783	13074.6
2269.59378	13036.3
2272.4779	13045
2275.36017	12990.3
2278.24061	12950.9
2281.11922	12920.1
2283.996	12909.8
2286.87094	12899
2289.74405	12878.2
2292.61534	12883.7
2295.4848	12871
2298.35243	12899.6
2301.21824	12868.7
2304.08223	12875.9
2306.94439	12877.4
2309.80474	12865.3
2312.66327	12895.9
2315.51999	12864.8
2318.37489	12868.7
2321.22797	12873.5
2324.07925	12843.9
2326.92871	12832.5
2329.77637	12863.9
2332.62222	12828.7
2335.46626	12798.9
2338.3085	12825.6
2341.14893	12835.1
2343.98756	12808.7
2346.8244	12806.3
2349.65943	12795.3
2352.49267	12812.1
2355.32411	12824.6
2358.15376	12793.2
2360.98161	12758.5
2363.80768	12795.8
2366.63195	12767.3
2369.45444	12721.2
2372.27514	12735.9
2375.09405	12701.9
2377.91118	12668.2
2380.72652	12610.4
2383.54009	12609.3
2386.35187	12611.8
2389.16188	12566.5
2391.97011	12557.7
2394.77657	12554.1
2397.58125	12527
2400.38416	12506.1
2403.18529	12483.9
2405.98466	12473.6
2408.78226	12456.9
2411.57809	12422
2414.37216	12399
2417.16446	12376.7
2419.955	12373.1
2422.74378	12344.6
2425.5308	12328.5
2428.31606	12326
2431.09956	12326.9
2433.88131	12333.6
2436.6613	12331
2439.43954	12295.7
2442.21603	12278.7
2444.99077	12259.5
2447.76377	12284.2
2450.53501	12261.3
2453.30451	12237.8
2456.07226	12248.5
2458.83827	12256.8
2461.60254	12218.6
2464.36507	12241.9
2467.12586	12201.8
2469.88492	12241.3
2472.64224	12244.8
2475.39782	12225.5
2478.15167	12264.3
2480.90379	12236.8
2483.65417	12285.5
2486.40283	12260.5
2489.14976	12299
2491.89497	12286.3
2494.63845	12295.8
2497.3802	12275.2
2500.12024	12260.9
2502.85855	12284.2
2505.59514	12255
2508.33002	12241.3
2511.06318	12202.6
2513.79462	12196
2516.52435	12216.4
2519.25237	12194.3
2521.97867	12175.7
2524.70327	12175.8
2527.42616	12143.4
2530.14734	12151
2532.86681	12131.5
2535.58458	12119.1
2538.30065	12149.7
2541.01501	12117.3
2543.72768	12095.9
2546.43864	12110.1
2549.14791	12057.6
2551.85548	12057.3
2554.56136	12042.7
2557.26554	12032.5
2559.96803	12017
2562.66883	12032.4
2565.36794	12017.5
2568.06536	12044.2
2570.7611	12013.5
2573.45514	12016.5
2576.14751	11989.6
2578.83819	11935.6
2581.52719	11959.1
2584.21451	11947.4
2586.90015	11968.5
2589.58411	11962.4
2592.2664	11920.8
2594.94701	11912.4
2597.62594	11909.4
2600.30321	11890.4
2602.9788	11899.8
2605.65273	11877.4
2608.32498	11856.5
2610.99557	11853.3
2613.66449	11874.5
2616.33175	11876.8
2618.99734	11863
2621.66128	11854.1
2624.32355	11874.6
2626.98416	11868.8
2629.64311	11866.4
2632.30041	11831.4
2634.95605	11879.5
2637.61004	11839.5
2640.26238	11810
2642.91306	11827.7
2645.56209	11800
2648.20948	11797.1
2650.85521	11796.9
2653.4993	11759.9
2656.14175	11775.1
2658.78255	11771.2
2661.42171	11779.8
2664.05923	11810
2666.6951	11792.2
2669.32934	11779.6
2671.96194	11764.1
2674.59291	11795
2677.22224	11798.7
2679.84993	11816.8
2682.476	11777
2685.10043	11796.8
2687.72324	11787.7
2690.34441	11794.7
2692.96396	11815.8
2695.58188	11771.7
2698.19818	11760.6
2700.81285	11774.9
2703.4259	11796.5
2706.03733	11852.4
2708.64714	11792.1
2711.25533	11814.1
2713.86191	11814.3
2716.46687	11820.9
2719.07021	11816.2
2721.67194	11811.1
2724.27206	11804.4
2726.87057	11798.1
2729.46747	11807.1
2732.06276	11806.7
2734.65644	11806.9
2737.24852	11819.1
2739.83899	11793.4
2742.42786	11794.4
2745.01513	11785.8
2747.60079	11772.3
2750.18486	11747.5
2752.76733	11772.4
2755.3482	11791.9
2757.92747	11769.3
2760.50515	11769
2763.08123	11764.8
2765.65573	11729.4
2768.22863	11742.7
2770.79994	11725.9
2773.36967	11716.2
2775.9378	11721.9
2778.50435	11707.5
2781.06932	11710.1
2783.6327	11685
2786.1945	11673.8
2788.75471	11665.8
2791.31335	11649.4
2793.87041	11640.5
2796.42589	11598
2798.97979	11599.9
2801.53212	11573.3
2804.08288	11601.8
2806.63206	11555.5
2809.17967	11529.8
2811.72571	11493.1
2814.27018	11500.3
2816.81308	11501.9
2819.35442	11485.7
2821.89419	11483.8
2824.43239	11480.7
2826.96904	11448.1
2829.50412	11445.1
2832.03763	11416.4
2834.56959	11432.6
2837.1	11406.4
2839.62884	11405
2842.15613	11399.2
2844.68186	11416.7
2847.20604	11405.2
2849.72867	11401.7
2852.24974	11404.5
2854.76927	11376.1
2857.28724	11390.4
2859.80367	11351
2862.31855	11373.2
2864.83189	11350.2
2867.34368	11326.2
2869.85393	11342.4
2872.36264	11321.5
2874.8698	11306.1
2877.37543	11342.8
2879.87952	11328.8
2882.38207	11325.8
2884.88308	11309.6
2887.38256	11343.7
2889.88051	11345.8
2892.37692	11355.8
2894.8718	11345.5
2897.36515	11364.1
2899.85698	11352
2902.34727	11351.5
2904.83604	11382.1
2907.32328	11388.4
2909.809	11385.9
2912.29319	11379.1
2914.77587	11381.7
2917.25702	11385
2919.73665	11357.8
2922.21476	11376.8
2924.69136	11366.9
2927.16644	11359.2
2929.64	11348.9
2932.11205	11355.5
2934.58258	11305.1
2937.05161	11357.4
2939.51912	11341
2941.98513	11348.4
2944.44962	11311.4
2946.91261	11260.4
2949.37409	11294.5
2951.83407	11286.6
2954.29254	11264
2956.74951	11252.8
2959.20498	11253.6
2961.65895	11256.8
2964.11142	11240.5
2966.56239	11208.4
2969.01186	11212.6
2971.45984	11166.9
2973.90632	11160.9
2976.35131	11106
2978.7948	11123
2981.23681	11080.8
2983.67732	11062.8
2986.11635	11062.3
2988.55388	11002.6
2990.98993	11009
2993.4245	10982
2995.85758	10973.6
2998.28917	10967.9
3000.71928	10969.3
3003.14791	10946.4
3005.57506	10901.9
3008.00073	10877.3
3010.42493	10876.9
3012.84764	10840.7
3015.26888	10842.7
3017.68865	10800.1
3020.10694	10807.6
3022.52376	10813.3
3024.9391	10794
3027.35298	10794.6
3029.76539	10796.2
3032.17632	10788.4
3034.5858	10764.4
3036.9938	10736.2
3039.40034	10747
3041.80542	10716
3044.20903	10714.5
3046.61118	10710
3049.01187	10667.5
3051.4111	10678.2
3053.80888	10659.2
3056.20519	10648.5
3058.60005	10593.8
3060.99345	10591.4
3063.3854	10559
3065.7759	10540.8
3068.16494	10530.4
3070.55254	10502.9
3072.93868	10480.2
3075.32338	10467
3077.70662	10418.3
3080.08842	10424.4
3082.46878	10420.1
3084.84769	10405.9
3087.22515	10393.2
3089.60118	10395.2
3091.97576	10401.7
3094.3489	10385.1
3096.72061	10384.3
3099.09087	10383.8
3101.4597	10371.2
3103.82709	10378.9
3106.19305	10356.8
3108.55757	10348
3110.92066	10318.9
3113.28232	10338.4
3115.64255	10266.4
3118.00134	10262.5
3120.35871	10261.6
3122.71466	10227
3125.06917	10223
3127.42226	10221.8
3129.77393	10246.6
3132.12417	10225.8
3134.47299	10232.4
3136.82039	10234.3
3139.16636	10230.4
3141.51092	10216.6
3143.85406	10241.7
3146.19579	10238
3148.53609	10233.8
3150.87499	10221.2
3153.21246	10237.1
3155.54853	10254.1
3157.88318	10212.7
3160.21642	10219.5
3162.54826	10216.2
3164.87868	10236.1
3167.2077	10215.3
3169.5353	10231.1
3171.86151	10242.7
3174.18631	10217.1
3176.5097	10225.9
3178.83169	10193.4
3181.15228	10201.3
3183.47147	10182.6
3185.78926	10197.3
3188.10565	10193.7
3190.42065	10171.6
3192.73424	10184
3195.04645	10173.7
3197.35725	10178.1
3199.66667	10194.3
3201.97469	10202.2
3204.28132	10204.5
3206.58656	10215.4
3208.8904	10200.7
3211.19287	10237.3
3213.49394	10212.2
3215.79363	10218.5
3218.09193	10218.5
3220.38884	10229
3222.68438	10223.9
3224.97853	10207.8
3227.2713	10199.2
3229.56269	10175.1
3231.8527	10199.2
3234.14133	10144.2
3236.42858	10143.8
3238.71446	10134.1
3240.99896	10122.8
3243.28209	10132.7
3245.56384	10102.3
3247.84423	10110.9
3250.12324	10102.2
3252.40088	10106.7
3254.67715	10079.2
3256.95205	10088.6
3259.22558	10089.1
3261.49775	10083.9
3263.76855	10085.1
3266.03799	10053.9
3268.30606	10037.6
3270.57277	10008.1
3272.83812	10007.8
3275.10211	9966.3
3277.36474	9967.4
3279.62601	9975.2
3281.88593	9960.9
3284.14448	9964.6
3286.40168	9963.5
3288.65753	9973.8
3290.91202	9921.3
3293.16516	9917.3
3295.41695	9897.8
3297.66738	9842
3299.91647	9798.7
3302.16421	9739.4
3304.4106	9690.4
3306.65564	9677.4
3308.89933	9616.6
3311.14169	9555
3313.38269	9488.9
3315.62236	9427.5
3317.86068	9356.3
3320.09766	9248.9
3322.3333	9200.5
3324.5676	9182.6
3326.80056	9066.9
3329.03219	9006.5
3331.26248	4
3333.49143	-0.2
3335.71905	-1.3
