Data from AgNP_FTO_APTES_CRN_200uM_R6G_10uM_NaF_0.1M_Addition_RamanShift__36__19-58-58-204.txt Node

Date: Wed Dec 15 19:58:58 GMT 2021
User: TCL
Spectrometer: QEP01345
Trigger mode: 4
Integration Time (sec): 7.000000E0
Scans to average: 10
Electric dark correction enabled: true
Nonlinearity correction enabled: false
Boxcar width: 0
XAxis mode: Raman Shifts
Number of Pixels in Spectrum: 1044
>>>>>Begin Spectral Data<<<<<
46.04893	1.925
50.45542	-1.875
54.85868	0.225
59.25871	-1.075
63.6555	39.225
68.04907	45.525
72.43941	45.225
76.82654	46.925
81.21044	49.325
85.59113	50.525
89.96862	57.825
94.34289	53.825
98.71396	59.025
103.08183	64.325
107.4465	64.525
111.80798	61.125
116.16626	63.925
120.52136	69.625
124.87327	67.225
129.222	64.625
133.56755	68.825
137.90993	70.825
142.24913	80.725
146.58517	83.725
150.91804	88.925
155.24774	102.425
159.57429	124.325
163.89768	153.325
168.21792	201.325
172.53501	264.325
176.84895	357.825
181.15975	498.125
185.46741	691.125
189.77193	939.825
194.07331	1248.525
198.37157	1616.525
202.6667	1973.925
206.9587	2352.425
211.24758	2723.425
215.53334	3123.425
219.81599	3536.725
224.09553	4045.225
228.37195	4576.425
232.64527	5172.125
236.91549	5755.625
241.18261	6259.225
245.44663	6651.025
249.70755	6965.725
253.96539	7219.325
258.22014	7438.425
262.4718	7661.125
266.72039	7818.625
270.96589	7903.125
275.20832	7893.125
279.44768	7821.325
283.68397	7680.325
287.91719	7602.625
292.14735	7651.425
296.37445	7811.525
300.59849	8155.625
304.81948	8556.425
309.03742	8867.925
313.25231	8891.725
317.46415	8465.925
321.67296	7777.825
325.87872	7202.925
330.08145	6884.225
334.28114	6873.525
338.47781	6993.525
342.67145	7216.125
346.86207	7546.725
351.04966	8057.325
355.23424	8649.525
359.4158	9070.625
363.59435	9259.325
367.76989	9286.525
371.94243	9239.425
376.11196	9151.325
380.27849	9052.625
384.44203	8941.525
388.60257	8767.725
392.76012	8686.725
396.91468	8741.325
401.06626	8983.625
405.21485	9179.925
409.36047	8989.825
413.50311	8458.025
417.64277	7954.925
421.77947	7678.925
425.9132	7554.425
430.04396	7548.925
434.17176	7607.525
438.2966	7736.425
442.41849	7937.725
446.53742	8232.625
450.6534	8468.625
454.76644	8615.025
458.87653	8609.725
462.98368	8509.225
467.08789	8328.525
471.18916	8155.625
475.2875	7914.125
479.38291	7737.525
483.4754	7596.925
487.56496	7477.825
491.6516	7382.125
495.73531	7367.425
499.81612	7383.725
503.89401	7506.425
507.96899	7647.325
512.04106	7807.525
516.11023	8010.525
520.1765	8185.025
524.23987	8199.125
528.30034	8021.725
532.35792	7836.125
536.41261	7613.225
540.46441	7397.025
544.51333	7283.925
548.55936	7315.925
552.60252	7468.025
556.64279	7693.225
560.6802	7809.525
564.71473	7985.725
568.7464	8321.125
572.7752	8517.625
576.80114	8180.025
580.82422	7791.625
584.84444	7609.125
588.86181	7615.225
592.87633	7734.725
596.888	7877.425
600.89682	8149.925
604.9028	9183.825
608.90594	11995.825
612.90624	15733.225
616.90371	15178.125
620.89834	10309.025
624.89015	7961.325
628.87913	7517.125
632.86528	7546.825
636.84862	7678.625
640.82913	7595.825
644.80683	7298.425
648.78172	7087.725
652.75379	7170.125
656.72306	7535.825
660.68952	7906.925
664.65319	7841.225
668.61405	7381.225
672.57211	7193.925
676.52738	7187.325
680.47986	7187.925
684.42955	7150.625
688.37646	7107.025
692.32058	7113.625
696.26192	7204.825
700.20048	7291.825
704.13626	7345.425
708.06928	7310.225
711.99952	7215.925
715.927	7158.025
719.85171	7172.925
723.77365	7132.625
727.69284	7040.025
731.60928	6969.225
735.52295	6963.225
739.43388	6973.325
743.34206	6982.425
747.24749	7004.025
751.15017	7022.125
755.05012	7155.325
758.94733	7549.125
762.8418	8476.025
766.73354	10065.825
770.62254	11742.025
774.50882	12639.225
778.39237	12133.825
782.27321	10381.925
786.15132	8634.325
790.02671	7603.725
793.89938	7170.425
797.76935	6997.725
801.6366	6891.225
805.50115	6838.825
809.36299	6791.025
813.22213	6778.925
817.07857	6757.125
820.93231	6757.025
824.78336	6796.725
828.63172	6843.025
832.47738	6879.625
836.32036	6855.725
840.16066	6803.825
843.99827	6719.425
847.8332	6688.825
851.66546	6689.625
855.49504	6672.025
859.32195	6658.625
863.1462	6630.525
866.96777	6572.025
870.78668	6572.925
874.60293	6556.325
878.41652	6576.725
882.22745	6616.225
886.03573	6641.025
889.84136	6619.225
893.64433	6581.025
897.44466	6562.225
901.24235	6572.325
905.0374	6531.625
908.8298	6524.025
912.61957	6505.125
916.40671	6516.925
920.19121	6591.225
923.97308	6649.425
927.75233	6713.325
931.52895	6804.625
935.30295	6750.425
939.07433	6538.525
942.84309	6322.525
946.60924	6195.125
950.37278	6125.825
954.13371	6074.925
957.89203	6039.325
961.64774	6035.625
965.40086	5994.625
969.15137	5991.225
972.89929	5958.925
976.64461	5977.125
980.38733	5948.825
984.12747	5964.225
987.86502	5996.825
991.59999	6013.625
995.33237	6042.525
999.06217	6157.525
1002.78939	6283.525
1006.51404	6415.225
1010.23611	6541.725
1013.95561	6658.725
1017.67255	6612.525
1021.38692	6520.925
1025.09872	6388.225
1028.80796	6321.125
1032.51465	6318.125
1036.21877	6394.125
1039.92035	6491.225
1043.61937	6566.625
1047.31584	6584.725
1051.00976	6575.425
1054.70114	6562.425
1058.38998	6561.425
1062.07627	6613.225
1065.76003	6698.825
1069.44126	6823.725
1073.11995	7029.325
1076.79611	7217.225
1080.46974	7397.725
1084.14085	7523.625
1087.80943	7599.425
1091.47549	7556.425
1095.13903	7324.225
1098.80005	6978.425
1102.45857	6737.725
1106.11456	6658.925
1109.76805	6705.925
1113.41903	6861.625
1117.06751	7164.325
1120.71348	7534.125
1124.35696	7927.225
1127.99793	8255.825
1131.63641	8184.025
1135.2724	7724.925
1138.90589	7289.525
1142.5369	7044.225
1146.16542	6855.325
1149.79145	6755.725
1153.415	6755.725
1157.03607	6816.825
1160.65467	6961.525
1164.27079	7226.525
1167.88443	7691.125
1171.49561	8447.425
1175.10432	9698.625
1178.71056	11266.725
1182.31434	12240.425
1185.91565	12287.325
1189.51451	11744.025
1193.11091	10915.325
1196.70485	9984.325
1200.29634	9307.825
1203.88538	8797.125
1207.47197	8224.725
1211.05612	7740.925
1214.63782	7473.325
1218.21708	7407.325
1221.79391	7432.125
1225.36829	7432.825
1228.94024	7439.825
1232.50976	7455.525
1236.07685	7462.025
1239.6415	7523.225
1243.20374	7559.125
1246.76355	7637.125
1250.32093	7730.825
1253.8759	7874.525
1257.42845	8095.125
1260.97859	8373.525
1264.52631	8658.925
1268.07163	8932.625
1271.61453	9145.425
1275.15503	9285.425
1278.69312	9298.625
1282.22882	9288.725
1285.76211	9482.525
1289.29301	9801.125
1292.82151	10178.725
1296.34761	10533.825
1299.87133	11087.225
1303.39266	12044.725
1306.9116	13569.825
1310.42815	15275.925
1313.94233	16311.725
1317.45412	15928.525
1320.96354	14604.525
1324.47058	13175.825
1327.97525	11957.425
1331.47754	11236.525
1334.97747	10987.125
1338.47502	11054.425
1341.97022	11361.425
1345.46305	11932.725
1348.95352	12858.825
1352.44163	14171.125
1355.92738	16025.325
1359.41078	18715.425
1362.89183	21150.825
1366.37053	20529.725
1369.84688	17158.425
1373.32088	13820.225
1376.79254	11743.225
1380.26186	10652.925
1383.72883	10070.225
1387.19347	9612.125
1390.65578	9121.125
1394.11575	8708.225
1397.57339	8499.725
1401.0287	8472.825
1404.48168	8507.425
1407.93234	8584.925
1411.38068	8622.325
1414.82669	8594.725
1418.27039	8495.225
1421.71177	8365.925
1425.15083	8222.125
1428.58758	8152.725
1432.02203	8216.925
1435.45416	8310.125
1438.88399	8367.525
1442.31151	8363.125
1445.73673	8379.225
1449.15965	8407.125
1452.58027	8371.625
1455.9986	8259.025
1459.41463	8223.625
1462.82837	8322.125
1466.23982	8499.525
1469.64898	8737.725
1473.05586	8906.825
1476.46045	9043.725
1479.86276	9212.025
1483.26279	9462.125
1486.66054	9715.325
1490.05602	10060.725
1493.44922	10557.425
1496.84016	11322.025
1500.22882	12577.925
1503.61521	14287.525
1506.99934	16232.925
1510.38121	18074.825
1513.76081	19014.125
1517.13816	18048.825
1520.51324	15617.025
1523.88607	13148.525
1527.25665	11453.025
1530.62498	10548.625
1533.99105	10062.325
1537.35488	9723.525
1540.71647	9523.125
1544.07581	9437.025
1547.4329	9379.525
1550.78776	9339.425
1554.14038	9298.925
1557.49077	9357.025
1560.83892	9539.925
1564.18484	9883.025
1567.52853	10301.925
1570.86999	10748.325
1574.20922	11112.225
1577.54624	11203.525
1580.88103	10695.925
1584.2136	9848.325
1587.54395	9182.625
1590.87208	9022.125
1594.19801	9338.025
1597.52172	9979.325
1600.84321	10305.325
1604.16251	10011.325
1607.47959	9362.225
1610.79447	8626.425
1614.10715	7927.425
1617.41763	7382.625
1620.7259	7046.625
1624.03199	6918.925
1627.33587	6901.625
1630.63757	7021.525
1633.93707	7306.825
1637.23439	7830.425
1640.52951	8625.925
1643.82246	9791.825
1647.11321	11311.425
1650.40179	12480.425
1653.68819	12306.525
1656.97241	10674.525
1660.25446	8811.425
1663.53433	7451.725
1666.81203	6680.125
1670.08756	6213.825
1673.36092	5954.825
1676.63211	5778.225
1679.90115	5660.325
1683.16801	5560.125
1686.43272	5509.325
1689.69527	5464.625
1692.95567	5442.125
1696.2139	5418.225
1699.46999	5405.825
1702.72392	5399.725
1705.97571	5364.925
1709.22535	5337.225
1712.47284	5315.325
1715.71819	5333.025
1718.96139	5313.725
1722.20246	5320.725
1725.44139	5297.125
1728.67818	5255.525
1731.91284	5198.925
1735.14537	5151.225
1738.37576	5124.125
1741.60403	5097.525
1744.83017	5079.625
1748.05418	5041.025
1751.27607	5049.925
1754.49584	5038.525
1757.71349	5033.325
1760.92903	5033.625
1764.14244	5022.725
1767.35375	5009.625
1770.56294	4977.825
1773.77002	4972.425
1776.97499	4954.125
1780.17785	4895.225
1783.37861	4889.225
1786.57727	4899.625
1789.77382	4861.525
1792.96828	4859.825
1796.16064	4852.925
1799.3509	4829.625
1802.53907	4818.525
1805.72514	4800.125
1808.90913	4783.525
1812.09102	4770.325
1815.27083	4754.625
1818.44856	4733.825
1821.6242	4724.925
1824.79776	4729.625
1827.96924	4723.825
1831.13864	4707.125
1834.30597	4695.125
1837.47122	4691.425
1840.6344	4671.225
1843.7955	4684.525
1846.95454	4674.025
1850.11151	4670.425
1853.26642	4660.525
1856.41926	4647.825
1859.57004	4649.425
1862.71876	4636.125
1865.86542	4633.325
1869.01003	4652.925
1872.15258	4647.325
1875.29308	4626.825
1878.43152	4624.825
1881.56792	4617.325
1884.70227	4616.425
1887.83457	4612.825
1890.96482	4610.225
1894.09304	4613.525
1897.21921	4607.125
1900.34335	4608.125
1903.46544	4596.725
1906.58551	4587.425
1909.70353	4597.725
1912.81953	4594.025
1915.93349	4589.425
1919.04543	4576.525
1922.15534	4571.725
1925.26322	4575.125
1928.36908	4543.425
1931.47292	4548.025
1934.57473	4528.725
1937.67453	4508.525
1940.77232	4493.025
1943.86808	4473.825
1946.96184	4454.125
1950.05358	4438.525
1953.14331	4429.425
1956.23103	4406.925
1959.31675	4414.425
1962.40046	4389.725
1965.48217	4381.125
1968.56188	4371.525
1971.63959	4351.425
1974.7153	4334.925
1977.78901	4324.525
1980.86073	4298.625
1983.93046	4288.625
1986.99819	4270.525
1990.06394	4271.925
1993.1277	4247.325
1996.18947	4218.225
1999.24925	4207.225
2002.30706	4195.425
2005.36288	4187.625
2008.41672	4171.325
2011.46859	4165.325
2014.51848	4142.925
2017.56639	4151.725
2020.61233	4112.025
2023.6563	4110.125
2026.6983	4088.925
2029.73833	4082.925
2032.7764	4090.725
2035.8125	4072.925
2038.84664	4066.925
2041.87881	4058.425
2044.90903	4044.425
2047.93729	4029.225
2050.96359	4041.725
2053.98794	4036.325
2057.01034	4018.125
2060.03078	4002.925
2063.04927	4014.325
2066.06582	4000.025
2069.08042	4004.825
2072.09307	3991.125
2075.10378	3966.225
2078.11255	3969.225
2081.11938	3979.225
2084.12426	3986.625
2087.12722	3969.225
2090.12824	3965.925
2093.12732	3974.025
2096.12447	3977.525
2099.11969	3974.025
2102.11299	3977.125
2105.10435	3958.525
2108.09379	3976.325
2111.08131	3969.925
2114.0669	3976.525
2117.05057	3969.825
2120.03233	3969.325
2123.01216	3982.925
2125.99008	3975.125
2128.96609	3984.925
2131.94018	3984.925
2134.91236	3978.025
2137.88263	3982.325
2140.851	3977.825
2143.81746	3984.325
2146.78201	3979.125
2149.74466	3971.825
2152.7054	3969.725
2155.66425	3968.025
2158.6212	3960.125
2161.57625	3972.225
2164.52941	3957.425
2167.48067	3969.725
2170.43004	3950.825
2173.37752	3945.325
2176.32311	3943.025
2179.26681	3931.725
2182.20863	3947.825
2185.14856	3947.025
2188.08661	3926.625
2191.02278	3939.825
2193.95707	3924.825
2196.88948	3912.825
2199.82001	3906.525
2202.74867	3925.725
2205.67545	3904.025
2208.60037	3894.525
2211.52341	3906.425
2214.44458	3886.025
2217.36388	3876.225
2220.28132	3865.425
2223.1969	3837.825
2226.11061	3856.725
2229.02246	3831.725
2231.93245	3818.925
2234.84058	3831.525
2237.74686	3815.025
2240.65128	3811.125
2243.55385	3809.025
2246.45456	3798.325
2249.35343	3782.025
2252.25044	3786.825
2255.14561	3799.525
2258.03893	3792.025
2260.93041	3801.225
2263.82004	3781.625
2266.70783	3768.525
2269.59378	3755.225
2272.4779	3754.625
2275.36017	3736.925
2278.24061	3724.225
2281.11922	3709.025
2283.996	3706.625
2286.87094	3706.925
2289.74405	3684.925
2292.61534	3682.625
2295.4848	3652.625
2298.35243	3666.425
2301.21824	3658.325
2304.08223	3652.725
2306.94439	3663.725
2309.80474	3649.025
2312.66327	3652.025
2315.51999	3640.625
2318.37489	3641.525
2321.22797	3624.325
2324.07925	3629.525
2326.92871	3615.925
2329.77637	3622.325
2332.62222	3626.225
2335.46626	3608.225
2338.3085	3600.025
2341.14893	3591.925
2343.98756	3608.725
2346.8244	3593.125
2349.65943	3596.425
2352.49267	3594.325
2355.32411	3602.825
2358.15376	3611.825
2360.98161	3616.225
2363.80768	3625.025
2366.63195	3635.625
2369.45444	3629.725
2372.27514	3637.025
2375.09405	3628.325
2377.91118	3616.325
2380.72652	3589.525
2383.54009	3567.225
2386.35187	3547.425
2389.16188	3529.225
2391.97011	3517.625
2394.77657	3512.025
2397.58125	3503.425
2400.38416	3498.725
2403.18529	3500.425
2405.98466	3484.025
2408.78226	3476.925
2411.57809	3481.225
2414.37216	3444.225
2417.16446	3444.925
2419.955	3456.025
2422.74378	3444.325
2425.5308	3433.725
2428.31606	3445.225
2431.09956	3436.025
2433.88131	3430.825
2436.6613	3437.525
2439.43954	3422.325
2442.21603	3438.325
2444.99077	3424.325
2447.76377	3430.425
2450.53501	3437.225
2453.30451	3431.725
2456.07226	3418.025
2458.83827	3425.325
2461.60254	3421.925
2464.36507	3416.625
2467.12586	3398.925
2469.88492	3399.125
2472.64224	3414.525
2475.39782	3404.725
2478.15167	3418.825
2480.90379	3411.625
2483.65417	3418.425
2486.40283	3425.925
2489.14976	3433.025
2491.89497	3443.525
2494.63845	3437.525
2497.3802	3443.925
2500.12024	3425.225
2502.85855	3420.925
2505.59514	3411.525
2508.33002	3392.425
2511.06318	3369.425
2513.79462	3360.325
2516.52435	3332.825
2519.25237	3326.925
2521.97867	3318.125
2524.70327	3314.525
2527.42616	3311.525
2530.14734	3291.825
2532.86681	3297.325
2535.58458	3292.625
2538.30065	3282.425
2541.01501	3288.025
2543.72768	3279.925
2546.43864	3303.525
2549.14791	3292.025
2551.85548	3270.125
2554.56136	3272.925
2557.26554	3267.925
2559.96803	3254.925
2562.66883	3258.425
2565.36794	3246.725
2568.06536	3250.925
2570.7611	3240.625
2573.45514	3244.025
2576.14751	3228.425
2578.83819	3221.725
2581.52719	3217.325
2584.21451	3201.325
2586.90015	3208.525
2589.58411	3201.325
2592.2664	3191.725
2594.94701	3186.825
2597.62594	3180.225
2600.30321	3168.025
2602.9788	3164.625
2605.65273	3165.625
2608.32498	3165.825
2610.99557	3163.225
2613.66449	3161.925
2616.33175	3152.825
2618.99734	3147.025
2621.66128	3152.025
2624.32355	3142.525
2626.98416	3131.225
2629.64311	3126.625
2632.30041	3116.525
2634.95605	3119.925
2637.61004	3124.025
2640.26238	3104.625
2642.91306	3107.725
2645.56209	3096.925
2648.20948	3098.425
2650.85521	3098.725
2653.4993	3094.225
2656.14175	3094.525
2658.78255	3102.825
2661.42171	3114.325
2664.05923	3104.525
2666.6951	3106.725
2669.32934	3116.625
2671.96194	3101.425
2674.59291	3109.425
2677.22224	3099.325
2679.84993	3109.225
2682.476	3107.025
2685.10043	3109.225
2687.72324	3104.925
2690.34441	3103.325
2692.96396	3118.225
2695.58188	3119.525
2698.19818	3103.225
2700.81285	3123.325
2703.4259	3125.525
2706.03733	3189.425
2708.64714	3161.525
2711.25533	3140.725
2713.86191	3153.425
2716.46687	3141.725
2719.07021	3143.125
2721.67194	3149.825
2724.27206	3130.125
2726.87057	3121.925
2729.46747	3135.125
2732.06276	3125.025
2734.65644	3119.225
2737.24852	3115.625
2739.83899	3094.025
2742.42786	3103.825
2745.01513	3104.325
2747.60079	3089.225
2750.18486	3083.625
2752.76733	3067.725
2755.3482	3068.025
2757.92747	3084.025
2760.50515	3065.025
2763.08123	3056.225
2765.65573	3059.825
2768.22863	3056.925
2770.79994	3036.225
2773.36967	3054.025
2775.9378	3052.025
2778.50435	3042.325
2781.06932	3037.825
2783.6327	3033.525
2786.1945	3053.825
2788.75471	3037.125
2791.31335	3036.325
2793.87041	3034.025
2796.42589	3034.025
2798.97979	3024.525
2801.53212	3033.825
2804.08288	3041.325
2806.63206	3031.325
2809.17967	3026.125
2811.72571	3028.925
2814.27018	3042.425
2816.81308	3037.425
2819.35442	3040.725
2821.89419	3046.925
2824.43239	3051.725
2826.96904	3057.525
2829.50412	3063.225
2832.03763	3062.925
2834.56959	3076.525
2837.1	3085.325
2839.62884	3096.725
2842.15613	3131.525
2844.68186	3175.525
2847.20604	3233.625
2849.72867	3289.425
2852.24974	3310.525
2854.76927	3314.125
2857.28724	3306.125
2859.80367	3302.525
2862.31855	3272.825
2864.83189	3261.125
2867.34368	3242.025
2869.85393	3249.625
2872.36264	3231.025
2874.8698	3230.325
2877.37543	3227.025
2879.87952	3234.625
2882.38207	3240.225
2884.88308	3215.325
2887.38256	3231.925
2889.88051	3229.325
2892.37692	3232.625
2894.8718	3233.925
2897.36515	3245.125
2899.85698	3250.125
2902.34727	3256.025
2904.83604	3248.125
2907.32328	3258.825
2909.809	3247.725
2912.29319	3248.025
2914.77587	3235.825
2917.25702	3235.325
2919.73665	3223.925
2922.21476	3231.025
2924.69136	3213.025
2927.16644	3204.425
2929.64	3209.125
2932.11205	3186.425
2934.58258	3168.125
2937.05161	3171.625
2939.51912	3141.025
2941.98513	3119.325
2944.44962	3083.625
2946.91261	3054.525
2949.37409	3028.625
2951.83407	3006.725
2954.29254	3008.125
2956.74951	2971.525
2959.20498	2966.125
2961.65895	2956.625
2964.11142	2949.625
2966.56239	2930.425
2969.01186	2926.525
2971.45984	2915.625
2973.90632	2892.925
2976.35131	2899.325
2978.7948	2872.025
2981.23681	2868.025
2983.67732	2871.625
2986.11635	2857.525
2988.55388	2835.525
2990.98993	2828.025
2993.4245	2819.225
2995.85758	2835.525
2998.28917	2812.725
3000.71928	2807.125
3003.14791	2803.825
3005.57506	2792.725
3008.00073	2801.025
3010.42493	2791.025
3012.84764	2784.225
3015.26888	2790.225
3017.68865	2786.225
3020.10694	2788.925
3022.52376	2773.725
3024.9391	2764.425
3027.35298	2766.625
3029.76539	2763.025
3032.17632	2772.025
3034.5858	2766.425
3036.9938	2748.825
3039.40034	2751.025
3041.80542	2753.825
3044.20903	2743.125
3046.61118	2749.025
3049.01187	2742.125
3051.4111	2733.325
3053.80888	2738.325
3056.20519	2737.025
3058.60005	2741.725
3060.99345	2731.825
3063.3854	2730.625
3065.7759	2732.325
3068.16494	2730.725
3070.55254	2723.025
3072.93868	2724.525
3075.32338	2720.925
3077.70662	2709.125
3080.08842	2703.625
3082.46878	2701.325
3084.84769	2705.525
3087.22515	2694.325
3089.60118	2695.525
3091.97576	2696.325
3094.3489	2683.025
3096.72061	2696.825
3099.09087	2693.825
3101.4597	2692.225
3103.82709	2686.225
3106.19305	2684.825
3108.55757	2694.525
3110.92066	2682.025
3113.28232	2680.925
3115.64255	2680.425
3118.00134	2686.225
3120.35871	2681.525
3122.71466	2684.825
3125.06917	2686.025
3127.42226	2678.425
3129.77393	2694.125
3132.12417	2697.425
3134.47299	2699.825
3136.82039	2709.125
3139.16636	2723.425
3141.51092	2728.325
3143.85406	2732.825
3146.19579	2739.025
3148.53609	2744.925
3150.87499	2738.325
3153.21246	2747.725
3155.54853	2757.725
3157.88318	2757.025
3160.21642	2760.825
3162.54826	2774.725
3164.87868	2768.625
3167.2077	2769.625
3169.5353	2786.425
3171.86151	2788.625
3174.18631	2784.925
3176.5097	2799.125
3178.83169	2785.525
3181.15228	2794.625
3183.47147	2789.925
3185.78926	2808.525
3188.10565	2796.125
3190.42065	2809.725
3192.73424	2815.625
3195.04645	2816.925
3197.35725	2817.625
3199.66667	2819.325
3201.97469	2849.225
3204.28132	2843.425
3206.58656	2839.025
3208.8904	2842.025
3211.19287	2848.625
3213.49394	2862.625
3215.79363	2854.125
3218.09193	2868.525
3220.38884	2879.525
3222.68438	2899.725
3224.97853	2886.225
3227.2713	2866.125
3229.56269	2863.125
