Data from AgNP_FTO_APTES_CRN_100uM_R6G_10uM_NaF_0.1M_Addition_RamanShift__27__19-02-58-141.txt Node

Date: Wed Dec 15 19:02:58 GMT 2021
User: TCL
Spectrometer: QEP01345
Trigger mode: 4
Integration Time (sec): 7.000000E0
Scans to average: 10
Electric dark correction enabled: true
Nonlinearity correction enabled: false
Boxcar width: 0
XAxis mode: Raman Shifts
Number of Pixels in Spectrum: 1044
>>>>>Begin Spectral Data<<<<<
46.04893	0.8625
50.45542	-1.9375
54.85868	-0.9375
59.25871	-0.2375
63.6555	62.7625
68.04907	64.2625
72.43941	71.5625
76.82654	72.5625
81.21044	74.8625
85.59113	78.9625
89.96862	84.2625
94.34289	82.4625
98.71396	90.0625
103.08183	93.1625
107.4465	95.8625
111.80798	93.8625
116.16626	97.5625
120.52136	101.6625
124.87327	101.5625
129.222	108.4625
133.56755	112.6625
137.90993	119.8625
142.24913	129.8625
146.58517	145.9625
150.91804	163.1625
155.24774	195.6625
159.57429	238.0625
163.89768	305.8625
168.21792	399.9625
172.53501	540.4625
176.84895	743.2625
181.15975	1047.5625
185.46741	1458.2625
189.77193	2017.9625
194.07331	2692.6625
198.37157	3471.8625
202.6667	4301.4625
206.9587	5118.5625
211.24758	5934.1625
215.53334	6744.2625
219.81599	7574.9625
224.09553	8547.2625
228.37195	9565.2625
232.64527	10719.2625
236.91549	11917.5625
241.18261	13136.0625
245.44663	14246.4625
249.70755	15255.8625
253.96539	16165.9625
258.22014	16896.9625
262.4718	17519.9625
266.72039	17976.9625
270.96589	18262.4625
275.20832	18310.1625
279.44768	18243.7625
283.68397	18037.6625
287.91719	17908.1625
292.14735	17821.2625
296.37445	17866.4625
300.59849	17973.1625
304.81948	18069.4625
309.03742	18097.1625
313.25231	17947.9625
317.46415	17505.2625
321.67296	16904.1625
325.87872	16483.3625
330.08145	16274.9625
334.28114	16288.3625
338.47781	16462.7625
342.67145	16735.2625
346.86207	17056.9625
351.04966	17479.5625
355.23424	17979.8625
359.4158	18369.8625
363.59435	18644.0625
367.76989	18783.5625
371.94243	18876.0625
376.11196	18967.9625
380.27849	19059.1625
384.44203	19083.3625
388.60257	19124.3625
392.76012	19239.2625
396.91468	19441.2625
401.06626	19709.4625
405.21485	19918.9625
409.36047	19872.1625
413.50311	19508.1625
417.64277	19176.3625
421.77947	18984.9625
425.9132	18975.0625
430.04396	19085.1625
434.17176	19197.6625
438.2966	19455.7625
442.41849	19833.0625
446.53742	20289.8625
450.6534	20758.4625
454.76644	21148.7625
458.87653	21306.8625
462.98368	21215.4625
467.08789	21028.8625
471.18916	20826.6625
475.2875	20611.6625
479.38291	20473.5625
483.4754	20331.0625
487.56496	20037.7625
491.6516	19844.8625
495.73531	19639.8625
499.81612	19564.9625
503.89401	19619.9625
507.96899	19696.9625
512.04106	19820.0625
516.11023	19886.7625
520.1765	19994.5625
524.23987	20018.1625
528.30034	19933.0625
532.35792	19763.1625
536.41261	19541.8625
540.46441	19340.6625
544.51333	19272.6625
548.55936	19365.2625
552.60252	19720.6625
556.64279	20036.6625
560.6802	20268.8625
564.71473	20366.6625
568.7464	20625.1625
572.7752	20889.6625
576.80114	20808.6625
580.82422	20734.0625
584.84444	20734.6625
588.86181	20981.7625
592.87633	21363.6625
596.888	21717.8625
600.89682	21917.3625
604.9028	22642.7625
608.90594	24758.8625
612.90624	27377.3625
616.90371	26304.9625
620.89834	22080.7625
624.89015	20180.4625
628.87913	19896.2625
632.86528	19909.0625
636.84862	19955.5625
640.82913	19795.8625
644.80683	19384.0625
648.78172	19077.0625
652.75379	19061.7625
656.72306	19270.5625
660.68952	19633.2625
664.65319	19600.2625
668.61405	19244.3625
672.57211	19099.5625
676.52738	19112.8625
680.47986	19109.9625
684.42955	19071.6625
688.37646	19092.1625
692.32058	19162.2625
696.26192	19277.9625
700.20048	19403.9625
704.13626	19483.2625
708.06928	19471.7625
711.99952	19375.0625
715.927	19320.6625
719.85171	19325.9625
723.77365	19311.4625
727.69284	19182.8625
731.60928	19073.0625
735.52295	19041.4625
739.43388	19055.0625
743.34206	19057.0625
747.24749	19162.2625
751.15017	19249.4625
755.05012	19467.8625
758.94733	19911.0625
762.8418	20835.8625
766.73354	22318.4625
770.62254	23866.9625
774.50882	24444.3625
778.39237	23633.5625
782.27321	21875.2625
786.15132	20364.7625
790.02671	19451.0625
793.89938	19089.1625
797.76935	18914.2625
801.6366	18896.9625
805.50115	18807.2625
809.36299	18814.9625
813.22213	18732.3625
817.07857	18733.0625
820.93231	18722.0625
824.78336	18724.5625
828.63172	18769.8625
832.47738	18798.9625
836.32036	18847.8625
840.16066	18812.8625
843.99827	18805.8625
847.8332	18782.5625
851.66546	18701.8625
855.49504	18689.1625
859.32195	18688.7625
863.1462	18665.3625
866.96777	18628.8625
870.78668	18530.4625
874.60293	18568.4625
878.41652	18586.3625
882.22745	18605.6625
886.03573	18669.2625
889.84136	18652.2625
893.64433	18590.3625
897.44466	18526.1625
901.24235	18466.7625
905.0374	18409.4625
908.8298	18433.6625
912.61957	18468.0625
916.40671	18540.8625
920.19121	18679.2625
923.97308	18766.4625
927.75233	18806.7625
931.52895	18873.3625
935.30295	18726.2625
939.07433	18509.2625
942.84309	18212.0625
946.60924	18100.0625
950.37278	18044.5625
954.13371	17943.6625
957.89203	17912.3625
961.64774	17867.6625
965.40086	17838.1625
969.15137	17770.4625
972.89929	17726.5625
976.64461	17680.5625
980.38733	17657.6625
984.12747	17691.0625
987.86502	17804.0625
991.59999	17946.3625
995.33237	18151.0625
999.06217	18499.0625
1002.78939	18861.3625
1006.51404	19091.9625
1010.23611	19268.9625
1013.95561	19417.6625
1017.67255	19408.5625
1021.38692	19215.9625
1025.09872	19074.0625
1028.80796	19095.4625
1032.51465	19312.9625
1036.21877	19554.7625
1039.92035	19622.3625
1043.61937	19533.6625
1047.31584	19358.2625
1051.00976	19182.4625
1054.70114	19075.4625
1058.38998	19157.4625
1062.07627	19340.8625
1065.76003	19564.2625
1069.44126	19871.1625
1073.11995	20271.9625
1076.79611	20618.6625
1080.46974	20722.5625
1084.14085	20616.6625
1087.80943	20445.8625
1091.47549	20270.5625
1095.13903	19981.4625
1098.80005	19621.3625
1102.45857	19256.8625
1106.11456	19076.7625
1109.76805	19050.4625
1113.41903	19222.9625
1117.06751	19419.2625
1120.71348	19692.3625
1124.35696	19961.2625
1127.99793	20253.3625
1131.63641	20331.5625
1135.2724	20022.9625
1138.90589	19690.1625
1142.5369	19516.1625
1146.16542	19395.6625
1149.79145	19362.9625
1153.415	19437.7625
1157.03607	19558.1625
1160.65467	19848.7625
1164.27079	20348.1625
1167.88443	21086.7625
1171.49561	22222.1625
1175.10432	23721.8625
1178.71056	25654.9625
1182.31434	27249.3625
1185.91565	27807.8625
1189.51451	27386.6625
1193.11091	26453.1625
1196.70485	25251.5625
1200.29634	24276.1625
1203.88538	23599.8625
1207.47197	22962.1625
1211.05612	22450.5625
1214.63782	22079.1625
1218.21708	21967.8625
1221.79391	21892.6625
1225.36829	21818.7625
1228.94024	21706.7625
1232.50976	21516.0625
1236.07685	21393.6625
1239.6415	21401.6625
1243.20374	21414.0625
1246.76355	21567.5625
1250.32093	21764.5625
1253.8759	22122.2625
1257.42845	22555.0625
1260.97859	22990.8625
1264.52631	23323.9625
1268.07163	23763.9625
1271.61453	24136.6625
1275.15503	24641.8625
1278.69312	25023.3625
1282.22882	25343.3625
1285.76211	25817.2625
1289.29301	26419.1625
1292.82151	27151.2625
1296.34761	28111.7625
1299.87133	29305.5625
1303.39266	30720.3625
1306.9116	32558.1625
1310.42815	34566.6625
1313.94233	35880.5625
1317.45412	35891.9625
1320.96354	34964.7625
1324.47058	33791.3625
1327.97525	32773.7625
1331.47754	32057.2625
1334.97747	31743.6625
1338.47502	31897.7625
1341.97022	32075.7625
1345.46305	32115.8625
1348.95352	32074.4625
1352.44163	32454.3625
1355.92738	33470.6625
1359.41078	35613.0625
1362.89183	37711.6625
1366.37053	37297.3625
1369.84688	34092.5625
1373.32088	30431.6625
1376.79254	27981.7625
1380.26186	26812.8625
1383.72883	26365.2625
1387.19347	26110.7625
1390.65578	25836.4625
1394.11575	25701.5625
1397.57339	25831.4625
1401.0287	26246.8625
1404.48168	26689.5625
1407.93234	26942.3625
1411.38068	26898.4625
1414.82669	26444.2625
1418.27039	25692.4625
1421.71177	24808.2625
1425.15083	24093.1625
1428.58758	23640.7625
1432.02203	23649.1625
1435.45416	23815.2625
1438.88399	24110.6625
1442.31151	24350.3625
1445.73673	24594.7625
1449.15965	24880.6625
1452.58027	25067.8625
1455.9986	25093.1625
1459.41463	25188.3625
1462.82837	25465.3625
1466.23982	25918.6625
1469.64898	26356.9625
1473.05586	26571.5625
1476.46045	26711.0625
1479.86276	26788.3625
1483.26279	26763.9625
1486.66054	26849.9625
1490.05602	26993.4625
1493.44922	27312.1625
1496.84016	27661.7625
1500.22882	28270.2625
1503.61521	29270.5625
1506.99934	30682.5625
1510.38121	31994.3625
1513.76081	32624.1625
1517.13816	31929.8625
1520.51324	30226.7625
1523.88607	28419.3625
1527.25665	27186.9625
1530.62498	26556.2625
1533.99105	26292.1625
1537.35488	26130.3625
1540.71647	25964.7625
1544.07581	25781.2625
1547.4329	25502.7625
1550.78776	25272.6625
1554.14038	25080.5625
1557.49077	25097.4625
1560.83892	25141.3625
1564.18484	25337.9625
1567.52853	25620.0625
1570.86999	25954.3625
1574.20922	26517.0625
1577.54624	27100.1625
1580.88103	27140.8625
1584.2136	26921.4625
1587.54395	26713.6625
1590.87208	26921.8625
1594.19801	27763.1625
1597.52172	28962.9625
1600.84321	29430.0625
1604.16251	28672.6625
1607.47959	27030.0625
1610.79447	25192.1625
1614.10715	23485.0625
1617.41763	22115.4625
1620.7259	21257.7625
1624.03199	20785.5625
1627.33587	20769.0625
1630.63757	21135.3625
1633.93707	21921.2625
1637.23439	23224.4625
1640.52951	24961.9625
1643.82246	27136.0625
1647.11321	29105.5625
1650.40179	29973.5625
1653.68819	28872.1625
1656.97241	26135.8625
1660.25446	23225.2625
1663.53433	21024.1625
1666.81203	19622.7625
1670.08756	18706.3625
1673.36092	18136.2625
1676.63211	17799.2625
1679.90115	17483.2625
1683.16801	17302.7625
1686.43272	17145.3625
1689.69527	17027.5625
1692.95567	16970.6625
1696.2139	16923.3625
1699.46999	16884.3625
1702.72392	16876.7625
1705.97571	16846.7625
1709.22535	16779.1625
1712.47284	16782.6625
1715.71819	16775.8625
1718.96139	16736.2625
1722.20246	16697.3625
1725.44139	16661.4625
1728.67818	16595.3625
1731.91284	16531.3625
1735.14537	16483.9625
1738.37576	16408.9625
1741.60403	16393.0625
1744.83017	16345.9625
1748.05418	16316.5625
1751.27607	16279.1625
1754.49584	16246.1625
1757.71349	16277.0625
1760.92903	16246.5625
1764.14244	16243.2625
1767.35375	16220.7625
1770.56294	16217.3625
1773.77002	16203.3625
1776.97499	16156.1625
1780.17785	16155.7625
1783.37861	16142.4625
1786.57727	16088.0625
1789.77382	16065.6625
1792.96828	16025.7625
1796.16064	16038.9625
1799.3509	16002.5625
1802.53907	15979.0625
1805.72514	15959.1625
1808.90913	15911.0625
1812.09102	15879.2625
1815.27083	15843.2625
1818.44856	15859.9625
1821.6242	15806.2625
1824.79776	15812.8625
1827.96924	15806.5625
1831.13864	15776.9625
1834.30597	15797.3625
1837.47122	15761.9625
1840.6344	15772.9625
1843.7955	15754.0625
1846.95454	15772.9625
1850.11151	15743.1625
1853.26642	15717.3625
1856.41926	15730.8625
1859.57004	15753.7625
1862.71876	15726.0625
1865.86542	15749.4625
1869.01003	15692.6625
1872.15258	15719.0625
1875.29308	15734.1625
1878.43152	15673.7625
1881.56792	15684.8625
1884.70227	15665.0625
1887.83457	15665.1625
1890.96482	15633.3625
1894.09304	15651.3625
1897.21921	15644.3625
1900.34335	15683.4625
1903.46544	15618.2625
1906.58551	15608.7625
1909.70353	15623.4625
1912.81953	15573.4625
1915.93349	15566.8625
1919.04543	15534.0625
1922.15534	15542.9625
1925.26322	15528.0625
1928.36908	15462.1625
1931.47292	15459.6625
1934.57473	15397.0625
1937.67453	15394.4625
1940.77232	15340.7625
1943.86808	15288.5625
1946.96184	15272.3625
1950.05358	15230.3625
1953.14331	15197.0625
1956.23103	15154.9625
1959.31675	15109.3625
1962.40046	15057.4625
1965.48217	15034.5625
1968.56188	14998.9625
1971.63959	14959.4625
1974.7153	14905.9625
1977.78901	14857.4625
1980.86073	14807.5625
1983.93046	14769.2625
1986.99819	14729.4625
1990.06394	14673.8625
1993.1277	14644.0625
1996.18947	14599.7625
1999.24925	14561.3625
2002.30706	14539.1625
2005.36288	14497.4625
2008.41672	14439.6625
2011.46859	14418.7625
2014.51848	14392.8625
2017.56639	14354.2625
2020.61233	14297.6625
2023.6563	14301.4625
2026.6983	14240.2625
2029.73833	14234.1625
2032.7764	14219.1625
2035.8125	14171.7625
2038.84664	14129.4625
2041.87881	14163.8625
2044.90903	14069.4625
2047.93729	14072.3625
2050.96359	14066.8625
2053.98794	14059.4625
2057.01034	14053.3625
2060.03078	14049.1625
2063.04927	14022.0625
2066.06582	14014.9625
2069.08042	14025.6625
2072.09307	14007.6625
2075.10378	13984.3625
2078.11255	13960.1625
2081.11938	13972.0625
2084.12426	13981.6625
2087.12722	13949.3625
2090.12824	13942.5625
2093.12732	13987.1625
2096.12447	13941.1625
2099.11969	13966.8625
2102.11299	13960.3625
2105.10435	13965.5625
2108.09379	13983.1625
2111.08131	14006.1625
2114.0669	14010.0625
2117.05057	14021.2625
2120.03233	14018.1625
2123.01216	14020.7625
2125.99008	14029.7625
2128.96609	14060.6625
2131.94018	14064.6625
2134.91236	14077.4625
2137.88263	14074.5625
2140.851	14081.4625
2143.81746	14082.2625
2146.78201	14092.3625
2149.74466	14106.6625
2152.7054	14129.3625
2155.66425	14133.0625
2158.6212	14138.7625
2161.57625	14115.4625
2164.52941	14120.2625
2167.48067	14133.8625
2170.43004	14103.3625
2173.37752	14100.3625
2176.32311	14089.0625
2179.26681	14085.7625
2182.20863	14107.3625
2185.14856	14112.8625
2188.08661	14105.5625
2191.02278	14106.2625
2193.95707	14072.3625
2196.88948	14071.8625
2199.82001	14069.9625
2202.74867	14051.6625
2205.67545	14046.9625
2208.60037	14073.3625
2211.52341	14044.0625
2214.44458	14034.7625
2217.36388	14015.4625
2220.28132	13957.2625
2223.1969	13933.5625
2226.11061	13931.9625
2229.02246	13917.8625
2231.93245	13906.6625
2234.84058	13856.0625
2237.74686	13845.9625
2240.65128	13854.0625
2243.55385	13789.5625
2246.45456	13777.0625
2249.35343	13764.7625
2252.25044	13749.5625
2255.14561	13720.0625
2258.03893	13733.8625
2260.93041	13738.2625
2263.82004	13696.1625
2266.70783	13674.9625
2269.59378	13635.0625
2272.4779	13610.4625
2275.36017	13578.1625
2278.24061	13503.0625
2281.11922	13473.6625
2283.996	13489.9625
2286.87094	13472.3625
2289.74405	13431.5625
2292.61534	13449.1625
2295.4848	13419.7625
2298.35243	13427.4625
2301.21824	13397.7625
2304.08223	13398.3625
2306.94439	13390.4625
2309.80474	13381.7625
2312.66327	13375.4625
2315.51999	13382.0625
2318.37489	13352.3625
2321.22797	13341.4625
2324.07925	13347.1625
2326.92871	13354.1625
2329.77637	13360.2625
2332.62222	13320.9625
2335.46626	13301.4625
2338.3085	13298.4625
2341.14893	13285.0625
2343.98756	13273.6625
2346.8244	13275.3625
2349.65943	13273.6625
2352.49267	13257.4625
2355.32411	13254.3625
2358.15376	13244.0625
2360.98161	13251.1625
2363.80768	13234.7625
2366.63195	13241.8625
2369.45444	13214.6625
2372.27514	13209.1625
2375.09405	13186.5625
2377.91118	13169.0625
2380.72652	13131.0625
2383.54009	13111.0625
2386.35187	13100.4625
2389.16188	13044.3625
2391.97011	13021.8625
2394.77657	13005.5625
2397.58125	13001.8625
2400.38416	12947.1625
2403.18529	12968.3625
2405.98466	12945.5625
2408.78226	12908.5625
2411.57809	12896.0625
2414.37216	12867.4625
2417.16446	12845.0625
2419.955	12829.9625
2422.74378	12815.0625
2425.5308	12824.3625
2428.31606	12769.3625
2431.09956	12773.4625
2433.88131	12773.0625
2436.6613	12783.3625
2439.43954	12788.1625
2442.21603	12759.3625
2444.99077	12739.0625
2447.76377	12751.2625
2450.53501	12740.2625
2453.30451	12716.6625
2456.07226	12700.2625
2458.83827	12690.3625
2461.60254	12712.8625
2464.36507	12690.3625
2467.12586	12685.5625
2469.88492	12688.7625
2472.64224	12670.4625
2475.39782	12684.7625
2478.15167	12670.0625
2480.90379	12693.3625
2483.65417	12716.9625
2486.40283	12698.4625
2489.14976	12726.8625
2491.89497	12692.0625
2494.63845	12734.1625
2497.3802	12704.0625
2500.12024	12646.9625
2502.85855	12700.2625
2505.59514	12679.1625
2508.33002	12622.3625
2511.06318	12645.9625
2513.79462	12609.5625
2516.52435	12594.2625
2519.25237	12579.2625
2521.97867	12568.8625
2524.70327	12569.2625
2527.42616	12538.1625
2530.14734	12506.4625
2532.86681	12517.5625
2535.58458	12475.3625
2538.30065	12476.7625
2541.01501	12482.4625
2543.72768	12482.9625
2546.43864	12477.3625
2549.14791	12446.7625
2551.85548	12424.7625
2554.56136	12393.7625
2557.26554	12399.8625
2559.96803	12365.2625
2562.66883	12380.3625
2565.36794	12351.9625
2568.06536	12352.6625
2570.7611	12347.3625
2573.45514	12316.5625
2576.14751	12266.0625
2578.83819	12278.2625
2581.52719	12279.3625
2584.21451	12267.6625
2586.90015	12282.0625
2589.58411	12258.4625
2592.2664	12214.9625
2594.94701	12226.5625
2597.62594	12194.5625
2600.30321	12186.9625
2602.9788	12162.3625
2605.65273	12151.6625
2608.32498	12142.1625
2610.99557	12123.6625
2613.66449	12141.6625
2616.33175	12132.5625
2618.99734	12119.6625
2621.66128	12119.0625
2624.32355	12112.3625
2626.98416	12107.7625
2629.64311	12120.1625
2632.30041	12104.9625
2634.95605	12089.7625
2637.61004	12082.8625
2640.26238	12067.3625
2642.91306	12060.4625
2645.56209	12055.7625
2648.20948	12022.4625
2650.85521	12026.9625
2653.4993	12024.7625
2656.14175	12020.6625
2658.78255	12023.3625
2661.42171	12012.1625
2664.05923	12036.3625
2666.6951	12021.5625
2669.32934	12028.5625
2671.96194	12005.8625
2674.59291	12018.2625
2677.22224	12001.4625
2679.84993	12030.6625
2682.476	11995.3625
2685.10043	12027.7625
2687.72324	12016.3625
2690.34441	12022.3625
2692.96396	12023.3625
2695.58188	12012.0625
2698.19818	12005.9625
2700.81285	12000.9625
2703.4259	12026.6625
2706.03733	12080.5625
2708.64714	12047.6625
2711.25533	12054.7625
2713.86191	12074.4625
2716.46687	12053.2625
2719.07021	12034.7625
2721.67194	12042.7625
2724.27206	12046.0625
2726.87057	12030.6625
2729.46747	12027.7625
2732.06276	12071.9625
2734.65644	12045.9625
2737.24852	12041.8625
2739.83899	11999.4625
2742.42786	12040.6625
2745.01513	11997.8625
2747.60079	11994.6625
2750.18486	11999.8625
2752.76733	12009.2625
2755.3482	11992.5625
2757.92747	12019.0625
2760.50515	11981.0625
2763.08123	11947.5625
2765.65573	11939.6625
2768.22863	11950.5625
2770.79994	11928.7625
2773.36967	11939.3625
2775.9378	11920.8625
2778.50435	11901.9625
2781.06932	11884.6625
2783.6327	11903.5625
2786.1945	11889.1625
2788.75471	11841.6625
2791.31335	11821.5625
2793.87041	11815.9625
2796.42589	11787.5625
2798.97979	11782.4625
2801.53212	11780.6625
2804.08288	11771.9625
2806.63206	11735.2625
2809.17967	11703.4625
2811.72571	11687.0625
2814.27018	11656.8625
2816.81308	11666.0625
2819.35442	11663.8625
2821.89419	11608.3625
2824.43239	11636.1625
2826.96904	11628.2625
2829.50412	11614.8625
2832.03763	11598.6625
2834.56959	11571.0625
2837.1	11554.7625
2839.62884	11552.6625
2842.15613	11582.9625
2844.68186	11605.1625
2847.20604	11594.3625
2849.72867	11600.9625
2852.24974	11570.9625
2854.76927	11585.9625
2857.28724	11563.5625
2859.80367	11562.5625
2862.31855	11537.6625
2864.83189	11516.7625
2867.34368	11515.4625
2869.85393	11502.7625
2872.36264	11475.2625
2874.8698	11494.6625
2877.37543	11496.0625
2879.87952	11501.0625
2882.38207	11479.8625
2884.88308	11515.3625
2887.38256	11508.7625
2889.88051	11510.8625
2892.37692	11504.2625
2894.8718	11479.1625
2897.36515	11511.7625
2899.85698	11489.4625
2902.34727	11528.0625
2904.83604	11526.4625
2907.32328	11563.6625
2909.809	11546.6625
2912.29319	11548.0625
2914.77587	11549.5625
2917.25702	11546.2625
2919.73665	11509.6625
2922.21476	11538.0625
2924.69136	11535.5625
2927.16644	11515.6625
2929.64	11509.3625
2932.11205	11499.6625
2934.58258	11457.5625
2937.05161	11481.3625
2939.51912	11508.8625
2941.98513	11485.4625
2944.44962	11420.5625
2946.91261	11385.2625
2949.37409	11396.8625
2951.83407	11396.2625
2954.29254	11370.6625
2956.74951	11358.4625
2959.20498	11352.5625
2961.65895	11354.8625
2964.11142	11356.4625
2966.56239	11335.0625
2969.01186	11292.4625
2971.45984	11263.4625
2973.90632	11242.8625
2976.35131	11185.3625
2978.7948	11194.5625
2981.23681	11176.0625
2983.67732	11177.1625
2986.11635	11139.1625
2988.55388	11126.3625
2990.98993	11105.4625
2993.4245	11080.3625
2995.85758	11079.1625
2998.28917	11038.9625
3000.71928	11010.6625
3003.14791	11014.4625
3005.57506	10990.8625
3008.00073	11014.7625
3010.42493	10984.8625
3012.84764	10931.0625
3015.26888	10927.3625
3017.68865	10911.4625
3020.10694	10899.7625
3022.52376	10851.0625
3024.9391	10876.8625
