Data from AgNP_FTO_APTES_CRN_5uM_R6G_10uM_NaF_0.1M_Addition_RamanShift__32__16-03-17-936.txt Node

Date: Wed Dec 15 16:03:17 GMT 2021
User: TCL
Spectrometer: QEP01345
Trigger mode: 4
Integration Time (sec): 7.000000E0
Scans to average: 10
Electric dark correction enabled: true
Nonlinearity correction enabled: false
Boxcar width: 0
XAxis mode: Raman Shifts
Number of Pixels in Spectrum: 1044
>>>>>Begin Spectral Data<<<<<
46.04893	0.4125
50.45542	-1.3875
54.85868	0.0125
59.25871	0.2125
63.6555	83.0125
68.04907	89.5125
72.43941	91.7125
76.82654	98.2125
81.21044	99.7125
85.59113	110.1125
89.96862	109.9125
94.34289	108.3125
98.71396	118.9125
103.08183	122.8125
107.4465	121.4125
111.80798	128.7125
116.16626	129.1125
120.52136	136.4125
124.87327	140.7125
129.222	146.4125
133.56755	147.1125
137.90993	161.4125
142.24913	172.1125
146.58517	191.5125
150.91804	220.7125
155.24774	254.8125
159.57429	314.3125
163.89768	397.8125
168.21792	520.3125
172.53501	698.1125
176.84895	972.8125
181.15975	1346.5125
185.46741	1887.9125
189.77193	2593.3125
194.07331	3458.6125
198.37157	4443.2125
202.6667	5479.6125
206.9587	6524.2125
211.24758	7540.2125
215.53334	8602.4125
219.81599	9733.9125
224.09553	11018.0125
228.37195	12420.7125
232.64527	14008.9125
236.91549	15608.2125
241.18261	17158.5125
245.44663	18500.5125
249.70755	19630.1125
253.96539	20589.6125
258.22014	21507.5125
262.4718	22283.5125
266.72039	22894.1125
270.96589	23228.7125
275.20832	23358.7125
279.44768	23270.8125
283.68397	23060.4125
287.91719	22957.9125
292.14735	22946.9125
296.37445	23187.9125
300.59849	23602.4125
304.81948	24126.5125
309.03742	24492.6125
313.25231	24323.1125
317.46415	23508.4125
321.67296	22308.4125
325.87872	21338.5125
330.08145	20858.9125
334.28114	20851.0125
338.47781	21092.5125
342.67145	21561.1125
346.86207	22197.0125
351.04966	23106.3125
355.23424	24130.7125
359.4158	24929.2125
363.59435	25357.3125
367.76989	25551.8125
371.94243	25570.6125
376.11196	25515.1125
380.27849	25443.1125
384.44203	25347.9125
388.60257	25223.1125
392.76012	25288.1125
396.91468	25644.0125
401.06626	26226.5125
405.21485	26663.3125
409.36047	26418.6125
413.50311	25552.7125
417.64277	24851.8125
421.77947	24476.1125
425.9132	24385.3125
430.04396	24473.5125
434.17176	24676.4125
438.2966	24930.1125
442.41849	25310.4125
446.53742	25970.1125
450.6534	26667.0125
454.76644	27205.9125
458.87653	27416.3125
462.98368	27317.1125
467.08789	26961.6125
471.18916	26462.1125
475.2875	25846.5125
479.38291	25338.3125
483.4754	24995.2125
487.56496	24678.4125
491.6516	24478.6125
495.73531	24349.5125
499.81612	24405.8125
503.89401	24631.3125
507.96899	24785.7125
512.04106	24984.2125
516.11023	25218.7125
520.1765	25394.7125
524.23987	25279.5125
528.30034	24952.4125
532.35792	24602.5125
536.41261	24190.8125
540.46441	23786.7125
544.51333	23655.5125
548.55936	23850.6125
552.60252	24328.2125
556.64279	24822.7125
560.6802	25024.9125
564.71473	25269.6125
568.7464	25890.7125
572.7752	26403.3125
576.80114	26315.5125
580.82422	26138.6125
584.84444	26090.8125
588.86181	26036.2125
592.87633	26202.5125
596.888	26540.3125
600.89682	27393.9125
604.9028	29694.5125
608.90594	35149.0125
612.90624	41290.6125
616.90371	38986.2125
620.89834	30010.9125
624.89015	25970.3125
628.87913	25269.0125
632.86528	25297.7125
636.84862	25335.1125
640.82913	24959.3125
644.80683	24136.7125
648.78172	23588.0125
652.75379	23680.2125
656.72306	24415.1125
660.68952	25187.6125
664.65319	25064.5125
668.61405	24247.9125
672.57211	23947.1125
676.52738	23869.6125
680.47986	23858.1125
684.42955	23773.5125
688.37646	23748.3125
692.32058	23853.7125
696.26192	24052.2125
700.20048	24348.6125
704.13626	24548.8125
708.06928	24570.3125
711.99952	24368.1125
715.927	24267.3125
719.85171	24225.3125
723.77365	24146.6125
727.69284	23924.0125
731.60928	23695.5125
735.52295	23687.8125
739.43388	23753.1125
743.34206	23904.7125
747.24749	24098.3125
751.15017	24370.1125
755.05012	24875.7125
758.94733	25835.2125
762.8418	27793.7125
766.73354	31037.3125
770.62254	34211.5125
774.50882	35349.9125
778.39237	33501.3125
782.27321	29999.8125
786.15132	26932.6125
790.02671	25209.2125
793.89938	24428.3125
797.76935	24074.8125
801.6366	23926.7125
805.50115	23817.3125
809.36299	23717.9125
813.22213	23589.8125
817.07857	23575.8125
820.93231	23537.4125
824.78336	23571.0125
828.63172	23686.3125
832.47738	23762.1125
836.32036	23859.3125
840.16066	23821.8125
843.99827	23816.0125
847.8332	23751.3125
851.66546	23660.4125
855.49504	23609.4125
859.32195	23564.9125
863.1462	23403.8125
866.96777	23339.9125
870.78668	23297.1125
874.60293	23297.2125
878.41652	23339.8125
882.22745	23428.3125
886.03573	23535.7125
889.84136	23504.6125
893.64433	23353.9125
897.44466	23330.5125
901.24235	23342.9125
905.0374	23316.5125
908.8298	23281.6125
912.61957	23315.8125
916.40671	23545.5125
920.19121	23826.6125
923.97308	24132.8125
927.75233	24282.9125
931.52895	24313.8125
935.30295	24023.4125
939.07433	23545.7125
942.84309	23125.9125
946.60924	22959.6125
950.37278	22850.2125
954.13371	22685.9125
957.89203	22536.4125
961.64774	22482.3125
965.40086	22401.9125
969.15137	22331.2125
972.89929	22286.2125
976.64461	22229.1125
980.38733	22289.9125
984.12747	22396.0125
987.86502	22571.7125
991.59999	22798.0125
995.33237	23182.3125
999.06217	23883.1125
1002.78939	24765.3125
1006.51404	25445.7125
1010.23611	25964.2125
1013.95561	26262.5125
1017.67255	26182.2125
1021.38692	25861.0125
1025.09872	25651.3125
1028.80796	25946.3125
1032.51465	26676.1125
1036.21877	27312.2125
1039.92035	27391.7125
1043.61937	27055.9125
1047.31584	26390.0125
1051.00976	25665.3125
1054.70114	25287.7125
1058.38998	25211.6125
1062.07627	25342.9125
1065.76003	25586.4125
1069.44126	25962.2125
1073.11995	26410.9125
1076.79611	26884.8125
1080.46974	27151.5125
1084.14085	27390.2125
1087.80943	27580.5125
1091.47549	27492.0125
1095.13903	26972.2125
1098.80005	26232.0125
1102.45857	25600.4125
1106.11456	25235.5125
1109.76805	25271.7125
1113.41903	25561.4125
1117.06751	25978.4125
1120.71348	26486.7125
1124.35696	27099.1125
1127.99793	27640.7125
1131.63641	27741.8125
1135.2724	27112.7125
1138.90589	26567.4125
1142.5369	26157.6125
1146.16542	25817.2125
1149.79145	25668.0125
1153.415	25806.3125
1157.03607	26071.8125
1160.65467	26599.3125
1164.27079	27404.9125
1167.88443	28633.1125
1171.49561	30498.2125
1175.10432	33371.8125
1178.71056	37127.7125
1182.31434	40164.6125
1185.91565	41413.3125
1189.51451	40993.1125
1193.11091	39053.6125
1196.70485	36543.3125
1200.29634	34488.4125
1203.88538	32954.2125
1207.47197	31525.6125
1211.05612	30409.7125
1214.63782	29783.8125
1218.21708	29688.0125
1221.79391	29782.9125
1225.36829	29984.3125
1228.94024	30067.5125
1232.50976	30028.0125
1236.07685	29992.6125
1239.6415	30004.0125
1243.20374	30011.7125
1246.76355	30187.0125
1250.32093	30576.0125
1253.8759	31351.1125
1257.42845	32248.1125
1260.97859	33146.5125
1264.52631	33857.3125
1268.07163	34533.3125
1271.61453	35337.0125
1275.15503	36195.2125
1278.69312	36960.4125
1282.22882	37595.9125
1285.76211	38300.1125
1289.29301	39063.8125
1292.82151	39921.6125
1296.34761	40866.3125
1299.87133	42461.6125
1303.39266	44918.9125
1306.9116	48530.4125
1310.42815	52608.0125
1313.94233	55263.4125
1317.45412	55321.3125
1320.96354	53283.7125
1324.47058	50848.6125
1327.97525	48717.8125
1331.47754	47320.1125
1334.97747	46993.9125
1338.47502	47418.9125
1341.97022	48090.4125
1345.46305	48556.4125
1348.95352	49140.4125
1352.44163	50152.3125
1355.92738	52514.9125
1359.41078	57121.5125
1362.89183	61819.9125
1366.37053	60909.9125
1369.84688	54123.0125
1373.32088	46866.9125
1376.79254	42080.7125
1380.26186	39729.3125
1383.72883	38541.2125
1387.19347	37686.7125
1390.65578	36764.8125
1394.11575	36106.0125
1397.57339	35906.4125
1401.0287	36261.9125
1404.48168	36934.8125
1407.93234	37780.2125
1411.38068	38442.1125
1414.82669	38411.7125
1418.27039	37624.9125
1421.71177	36489.9125
1425.15083	35360.6125
1428.58758	34747.3125
1432.02203	34631.4125
1435.45416	34827.0125
1438.88399	35045.0125
1442.31151	35257.9125
1445.73673	35583.7125
1449.15965	35889.8125
1452.58027	35932.4125
1455.9986	35729.2125
1459.41463	35672.3125
1462.82837	35970.1125
1466.23982	36604.3125
1469.64898	37385.5125
1473.05586	37969.6125
1476.46045	38458.1125
1479.86276	38968.4125
1483.26279	39558.1125
1486.66054	40180.4125
1490.05602	40984.3125
1493.44922	41994.1125
1496.84016	43209.5125
1500.22882	45066.6125
1503.61521	47609.8125
1506.99934	50874.4125
1510.38121	54116.3125
1513.76081	55745.9125
1517.13816	54376.2125
1520.51324	50512.1125
1523.88607	46286.8125
1527.25665	43204.7125
1530.62498	41248.3125
1533.99105	40121.3125
1537.35488	39346.8125
1540.71647	38897.3125
1544.07581	38567.5125
1547.4329	38244.3125
1550.78776	37879.4125
1554.14038	37670.0125
1557.49077	37753.1125
1560.83892	38074.2125
1564.18484	38531.4125
1567.52853	38887.0125
1570.86999	39221.2125
1574.20922	39726.1125
1577.54624	40046.1125
1580.88103	39557.5125
1584.2136	38674.9125
1587.54395	38344.3125
1590.87208	39219.6125
1594.19801	41163.7125
1597.52172	43588.4125
1600.84321	44512.6125
1604.16251	43017.3125
1607.47959	40199.6125
1610.79447	37193.3125
1614.10715	34430.4125
1617.41763	32228.3125
1620.7259	30755.9125
1624.03199	30070.0125
1627.33587	30130.8125
1630.63757	30886.0125
1633.93707	32275.4125
1637.23439	34357.7125
1640.52951	36996.3125
1643.82246	39904.6125
1647.11321	42750.8125
1650.40179	44394.3125
1653.68819	42961.2125
1656.97241	38481.1125
1660.25446	33551.8125
1663.53433	29815.8125
1666.81203	27459.8125
1670.08756	25995.9125
1673.36092	25092.9125
1676.63211	24492.8125
1679.90115	24057.1125
1683.16801	23715.5125
1686.43272	23513.5125
1689.69527	23348.1125
1692.95567	23218.0125
1696.2139	23154.4125
1699.46999	23149.2125
1702.72392	23063.5125
1705.97571	23021.9125
1709.22535	22982.4125
1712.47284	22970.1125
1715.71819	22971.3125
1718.96139	22948.2125
1722.20246	22893.4125
1725.44139	22820.2125
1728.67818	22706.5125
1731.91284	22572.6125
1735.14537	22452.0125
1738.37576	22353.2125
1741.60403	22274.5125
1744.83017	22250.5125
1748.05418	22198.5125
1751.27607	22166.3125
1754.49584	22073.1125
1757.71349	22096.9125
1760.92903	22072.3125
1764.14244	22082.5125
1767.35375	22087.6125
1770.56294	22057.4125
1773.77002	22012.3125
1776.97499	22010.1125
1780.17785	21962.1125
1783.37861	21948.1125
1786.57727	21862.2125
1789.77382	21842.6125
1792.96828	21822.5125
1796.16064	21825.4125
1799.3509	21822.3125
1802.53907	21801.0125
1805.72514	21733.0125
1808.90913	21676.5125
1812.09102	21627.1125
1815.27083	21613.9125
1818.44856	21562.1125
1821.6242	21585.4125
1824.79776	21546.7125
1827.96924	21516.2125
1831.13864	21509.8125
1834.30597	21544.9125
1837.47122	21499.4125
1840.6344	21520.4125
1843.7955	21511.6125
1846.95454	21495.4125
1850.11151	21519.5125
1853.26642	21540.0125
1856.41926	21550.7125
1859.57004	21578.3125
1862.71876	21562.0125
1865.86542	21549.4125
1869.01003	21567.3125
1872.15258	21619.3125
1875.29308	21626.0125
1878.43152	21588.4125
1881.56792	21618.7125
1884.70227	21597.5125
1887.83457	21616.6125
1890.96482	21608.9125
1894.09304	21641.4125
1897.21921	21648.1125
1900.34335	21631.7125
1903.46544	21585.2125
1906.58551	21615.6125
1909.70353	21564.1125
1912.81953	21601.4125
1915.93349	21575.5125
1919.04543	21518.7125
1922.15534	21522.9125
1925.26322	21500.3125
1928.36908	21396.9125
1931.47292	21371.8125
1934.57473	21298.7125
1937.67453	21233.6125
1940.77232	21132.9125
1943.86808	21035.8125
1946.96184	20970.0125
1950.05358	20930.2125
1953.14331	20852.7125
1956.23103	20779.6125
1959.31675	20754.3125
1962.40046	20653.7125
1965.48217	20616.5125
1968.56188	20543.0125
1971.63959	20458.9125
1974.7153	20427.6125
1977.78901	20357.1125
1980.86073	20319.3125
1983.93046	20217.0125
1986.99819	20184.2125
1990.06394	20155.2125
1993.1277	20069.9125
1996.18947	19982.5125
1999.24925	19960.7125
2002.30706	19869.2125
2005.36288	19829.6125
2008.41672	19785.9125
2011.46859	19736.9125
2014.51848	19678.9125
2017.56639	19661.9125
2020.61233	19609.0125
2023.6563	19574.8125
2026.6983	19514.2125
2029.73833	19530.7125
2032.7764	19434.2125
2035.8125	19383.4125
2038.84664	19347.2125
2041.87881	19361.0125
2044.90903	19318.9125
2047.93729	19325.2125
2050.96359	19272.5125
2053.98794	19279.2125
2057.01034	19282.6125
2060.03078	19217.9125
2063.04927	19164.2125
2066.06582	19223.5125
2069.08042	19196.6125
2072.09307	19170.0125
2075.10378	19115.1125
2078.11255	19072.3125
2081.11938	19094.8125
2084.12426	19081.2125
2087.12722	19060.3125
2090.12824	19061.3125
2093.12732	19081.0125
2096.12447	19049.8125
2099.11969	19056.9125
2102.11299	19052.7125
2105.10435	19076.2125
2108.09379	19119.0125
2111.08131	19131.2125
2114.0669	19156.3125
2117.05057	19106.1125
2120.03233	19121.1125
2123.01216	19116.1125
2125.99008	19131.6125
2128.96609	19145.3125
2131.94018	19146.7125
2134.91236	19175.7125
2137.88263	19195.0125
2140.851	19210.5125
2143.81746	19222.2125
2146.78201	19227.9125
2149.74466	19224.4125
2152.7054	19247.2125
2155.66425	19216.0125
2158.6212	19232.7125
2161.57625	19236.7125
2164.52941	19214.4125
2167.48067	19219.4125
2170.43004	19207.2125
2173.37752	19202.4125
2176.32311	19214.6125
2179.26681	19188.3125
2182.20863	19215.5125
2185.14856	19220.3125
2188.08661	19173.4125
2191.02278	19207.2125
2193.95707	19202.7125
2196.88948	19184.7125
2199.82001	19211.0125
2202.74867	19144.2125
2205.67545	19146.3125
2208.60037	19138.4125
2211.52341	19161.7125
2214.44458	19139.2125
2217.36388	19094.1125
2220.28132	19085.8125
2223.1969	19062.1125
2226.11061	19044.6125
2229.02246	18996.9125
2231.93245	18931.6125
2234.84058	18897.3125
2237.74686	18841.5125
2240.65128	18846.4125
2243.55385	18811.7125
2246.45456	18823.8125
2249.35343	18786.8125
2252.25044	18779.4125
2255.14561	18703.5125
2258.03893	18732.3125
2260.93041	18762.2125
2263.82004	18679.6125
2266.70783	18651.5125
2269.59378	18578.1125
2272.4779	18543.6125
2275.36017	18479.6125
2278.24061	18432.8125
2281.11922	18420.1125
2283.996	18384.0125
2286.87094	18364.4125
2289.74405	18331.5125
2292.61534	18359.7125
2295.4848	18294.4125
2298.35243	18316.8125
2301.21824	18274.8125
2304.08223	18300.3125
2306.94439	18312.1125
2309.80474	18328.5125
2312.66327	18348.0125
2315.51999	18339.4125
2318.37489	18340.9125
2321.22797	18325.6125
2324.07925	18285.3125
2326.92871	18285.4125
2329.77637	18255.9125
2332.62222	18269.7125
2335.46626	18289.2125
2338.3085	18278.4125
2341.14893	18284.7125
2343.98756	18284.4125
2346.8244	18266.8125
2349.65943	18269.3125
2352.49267	18294.3125
2355.32411	18292.3125
2358.15376	18268.9125
2360.98161	18232.5125
2363.80768	18239.3125
2366.63195	18261.6125
2369.45444	18250.7125
2372.27514	18193.8125
2375.09405	18154.5125
2377.91118	18107.0125
2380.72652	18039.9125
2383.54009	17996.7125
2386.35187	17982.9125
2389.16188	17945.8125
2391.97011	17888.5125
2394.77657	17906.6125
2397.58125	17847.6125
2400.38416	17823.7125
2403.18529	17806.5125
2405.98466	17728.6125
2408.78226	17693.0125
2411.57809	17665.4125
2414.37216	17623.7125
2417.16446	17609.9125
2419.955	17612.5125
2422.74378	17606.7125
2425.5308	17548.4125
2428.31606	17552.5125
2431.09956	17530.3125
2433.88131	17511.0125
2436.6613	17530.1125
2439.43954	17502.4125
2442.21603	17468.2125
2444.99077	17474.1125
2447.76377	17498.9125
2450.53501	17463.2125
2453.30451	17447.7125
2456.07226	17439.9125
2458.83827	17453.9125
2461.60254	17435.6125
2464.36507	17423.8125
2467.12586	17433.4125
2469.88492	17391.3125
2472.64224	17403.3125
2475.39782	17430.5125
2478.15167	17450.0125
2480.90379	17480.6125
2483.65417	17458.2125
2486.40283	17492.1125
2489.14976	17475.0125
2491.89497	17505.3125
2494.63845	17532.4125
2497.3802	17517.0125
2500.12024	17527.9125
2502.85855	17506.6125
2505.59514	17504.6125
2508.33002	17494.1125
2511.06318	17452.6125
2513.79462	17404.3125
2516.52435	17374.7125
2519.25237	17335.4125
2521.97867	17325.0125
2524.70327	17309.2125
2527.42616	17299.4125
2530.14734	17261.5125
2532.86681	17254.2125
2535.58458	17253.9125
2538.30065	17225.2125
2541.01501	17231.0125
2543.72768	17205.0125
2546.43864	17209.5125
2549.14791	17170.4125
2551.85548	17181.1125
2554.56136	17169.5125
2557.26554	17126.6125
2559.96803	17124.1125
2562.66883	17087.3125
2565.36794	17104.8125
2568.06536	17087.9125
2570.7611	17068.0125
2573.45514	17043.5125
2576.14751	17029.2125
2578.83819	17014.3125
2581.52719	17045.6125
2584.21451	16986.1125
2586.90015	16984.6125
2589.58411	16981.6125
2592.2664	16969.4125
2594.94701	16964.7125
2597.62594	16973.2125
2600.30321	16914.6125
2602.9788	16914.8125
2605.65273	16918.4125
2608.32498	16905.8125
2610.99557	16885.1125
2613.66449	16926.6125
2616.33175	16912.2125
2618.99734	16897.4125
2621.66128	16895.0125
2624.32355	16895.1125
2626.98416	16914.5125
2629.64311	16903.8125
2632.30041	16906.5125
2634.95605	16847.0125
2637.61004	16870.9125
2640.26238	16838.2125
2642.91306	16840.2125
2645.56209	16788.6125
2648.20948	16754.3125
2650.85521	16715.4125
2653.4993	16749.4125
2656.14175	16733.9125
2658.78255	16747.5125
2661.42171	16691.3125
2664.05923	16777.2125
2666.6951	16772.2125
2669.32934	16761.2125
2671.96194	16798.0125
2674.59291	16832.0125
2677.22224	16801.9125
2679.84993	16825.1125
2682.476	16794.1125
2685.10043	16823.6125
2687.72324	16740.2125
2690.34441	16815.3125
2692.96396	16771.8125
2695.58188	16789.5125
2698.19818	16769.3125
2700.81285	16743.4125
2703.4259	16755.5125
2706.03733	16812.6125
2708.64714	16781.0125
2711.25533	16776.0125
2713.86191	16789.9125
2716.46687	16812.7125
2719.07021	16760.2125
2721.67194	16795.0125
2724.27206	16751.6125
2726.87057	16800.5125
2729.46747	16782.7125
2732.06276	16797.5125
2734.65644	16804.2125
2737.24852	16785.0125
2739.83899	16792.6125
2742.42786	16801.9125
2745.01513	16754.8125
2747.60079	16747.9125
2750.18486	16720.4125
2752.76733	16733.5125
2755.3482	16762.3125
2757.92747	16758.4125
2760.50515	16701.7125
2763.08123	16707.4125
2765.65573	16664.9125
2768.22863	16630.7125
2770.79994	16605.5125
2773.36967	16627.5125
2775.9378	16597.8125
2778.50435	16594.2125
2781.06932	16562.1125
2783.6327	16590.5125
2786.1945	16570.8125
2788.75471	16567.6125
2791.31335	16545.1125
2793.87041	16527.9125
2796.42589	16476.8125
2798.97979	16471.7125
2801.53212	16439.5125
2804.08288	16424.1125
2806.63206	16402.1125
2809.17967	16358.5125
2811.72571	16333.3125
2814.27018	16344.0125
2816.81308	16318.8125
2819.35442	16359.1125
2821.89419	16306.6125
2824.43239	16309.2125
2826.96904	16295.0125
2829.50412	16285.8125
2832.03763	16296.6125
2834.56959	16289.0125
2837.1	16250.4125
2839.62884	16253.3125
2842.15613	16238.7125
2844.68186	16255.7125
2847.20604	16217.6125
2849.72867	16251.1125
2852.24974	16248.8125
2854.76927	16257.3125
2857.28724	16212.1125
2859.80367	16210.1125
2862.31855	16166.6125
2864.83189	16160.8125
2867.34368	16122.2125
2869.85393	16129.0125
2872.36264	16121.2125
2874.8698	16101.4125
2877.37543	16137.8125
2879.87952	16133.3125
2882.38207	16145.0125
2884.88308	16111.6125
2887.38256	16096.9125
2889.88051	16120.8125
2892.37692	16111.9125
2894.8718	16124.5125
2897.36515	16117.6125
2899.85698	16108.6125
2902.34727	16149.2125
2904.83604	16114.4125
2907.32328	16168.1125
2909.809	16181.6125
2912.29319	16220.1125
2914.77587	16210.0125
2917.25702	16204.6125
2919.73665	16174.7125
2922.21476	16194.7125
2924.69136	16116.1125
2927.16644	16134.8125
2929.64	16103.6125
2932.11205	16073.3125
2934.58258	15994.6125
2937.05161	16063.5125
2939.51912	16043.2125
2941.98513	16046.6125
2944.44962	15977.2125
2946.91261	15886.5125
2949.37409	15971.2125
2951.83407	15936.8125
2954.29254	15881.8125
2956.74951	15884.5125
2959.20498	15850.4125
2961.65895	15829.6125
2964.11142	15862.9125
2966.56239	15798.6125
2969.01186	15796.9125
2971.45984	15723.4125
2973.90632	15685.0125
2976.35131	15650.2125
2978.7948	15611.2125
2981.23681	15584.7125
2983.67732	15581.4125
2986.11635	15546.8125
2988.55388	15507.4125
2990.98993	15512.1125
2993.4245	15457.8125
2995.85758	15406.5125
2998.28917	15376.9125
3000.71928	15369.4125
3003.14791	15356.2125
3005.57506	15322.9125
3008.00073	15276.2125
3010.42493	15269.3125
3012.84764	15253.3125
3015.26888	15259.8125
3017.68865	15222.2125
3020.10694	15174.3125
3022.52376	15160.2125
3024.9391	15133.8125
