Data from AgNP_FTO_APTES_CRN_10uM_R6G_10uM_NaF_0.1M_Addition_RamanShift__17__16-34-47-974.txt Node

Date: Wed Dec 15 16:34:47 GMT 2021
User: TCL
Spectrometer: QEP01345
Trigger mode: 4
Integration Time (sec): 7.000000E0
Scans to average: 10
Electric dark correction enabled: true
Nonlinearity correction enabled: false
Boxcar width: 0
XAxis mode: Raman Shifts
Number of Pixels in Spectrum: 1044
>>>>>Begin Spectral Data<<<<<
46.04893	0.775
50.45542	-3.025
54.85868	-1.225
59.25871	-1.525
63.6555	80.575
68.04907	91.375
72.43941	91.775
76.82654	98.275
81.21044	101.875
85.59113	104.675
89.96862	113.175
94.34289	109.775
98.71396	118.875
103.08183	122.275
107.4465	126.475
111.80798	127.075
116.16626	131.775
120.52136	133.775
124.87327	139.375
129.222	145.875
133.56755	149.375
137.90993	164.575
142.24913	181.675
146.58517	195.775
150.91804	224.775
155.24774	272.075
159.57429	332.875
163.89768	425.875
168.21792	551.175
172.53501	744.475
176.84895	1050.375
181.15975	1458.275
185.46741	2051.175
189.77193	2812.475
194.07331	3756.575
198.37157	4864.275
202.6667	6031.275
206.9587	7161.275
211.24758	8306.875
215.53334	9439.775
219.81599	10643.075
224.09553	11967.975
228.37195	13429.375
232.64527	15034.375
236.91549	16696.675
241.18261	18424.575
245.44663	20068.075
249.70755	21541.875
253.96539	22820.675
258.22014	23869.675
262.4718	24753.875
266.72039	25367.675
270.96589	25677.475
275.20832	25726.175
279.44768	25571.975
283.68397	25282.375
287.91719	25103.575
292.14735	24976.075
296.37445	24937.075
300.59849	24953.675
304.81948	25044.575
309.03742	24987.275
313.25231	24715.275
317.46415	24227.975
321.67296	23520.175
325.87872	23004.675
330.08145	22726.575
334.28114	22713.375
338.47781	22947.875
342.67145	23197.575
346.86207	23598.975
351.04966	24131.975
355.23424	24687.675
359.4158	25144.075
363.59435	25418.675
367.76989	25606.275
371.94243	25702.575
376.11196	25768.875
380.27849	25865.075
384.44203	25873.375
388.60257	26004.775
392.76012	26217.075
396.91468	26476.775
401.06626	26880.175
405.21485	27174.875
409.36047	27140.875
413.50311	26724.575
417.64277	26322.775
421.77947	26182.375
425.9132	26194.275
430.04396	26308.375
434.17176	26423.975
438.2966	26642.475
442.41849	26972.875
446.53742	27543.275
450.6534	28111.375
454.76644	28629.075
458.87653	28802.575
462.98368	28758.775
467.08789	28589.175
471.18916	28354.675
475.2875	28133.275
479.38291	27994.575
483.4754	27794.575
487.56496	27523.375
491.6516	27229.675
495.73531	27021.375
499.81612	26924.475
503.89401	27057.175
507.96899	27176.675
512.04106	27224.575
516.11023	27247.675
520.1765	27282.375
524.23987	27204.675
528.30034	27088.975
532.35792	26819.275
536.41261	26484.475
540.46441	26168.775
544.51333	26153.075
548.55936	26344.575
552.60252	26791.575
556.64279	27284.775
560.6802	27570.775
564.71473	27746.475
568.7464	28077.475
572.7752	28502.075
576.80114	28831.775
580.82422	29197.475
584.84444	29503.875
588.86181	29872.775
592.87633	30119.975
596.888	30319.375
600.89682	30575.675
604.9028	31401.275
608.90594	33753.775
612.90624	36310.875
616.90371	34584.375
620.89834	29493.775
624.89015	27227.275
628.87913	26945.075
632.86528	27076.475
636.84862	27120.975
640.82913	26931.275
644.80683	26320.575
648.78172	25885.975
652.75379	25774.275
656.72306	25996.775
660.68952	26369.075
664.65319	26369.775
668.61405	25956.975
672.57211	25785.075
676.52738	25815.275
680.47986	25850.975
684.42955	25692.375
688.37646	25672.175
692.32058	25736.075
696.26192	25977.375
700.20048	26203.575
704.13626	26478.575
708.06928	26535.075
711.99952	26479.375
715.927	26427.275
719.85171	26410.075
723.77365	26308.175
727.69284	26074.775
731.60928	25876.775
735.52295	25799.175
739.43388	25777.875
743.34206	25829.475
747.24749	25959.075
751.15017	26129.875
755.05012	26465.975
758.94733	27112.375
762.8418	28347.475
766.73354	30224.275
770.62254	32138.475
774.50882	32719.075
778.39237	31510.775
782.27321	29430.975
786.15132	27637.275
790.02671	26539.775
793.89938	25979.375
797.76935	25860.975
801.6366	25735.875
805.50115	25673.875
809.36299	25612.775
813.22213	25484.675
817.07857	25464.275
820.93231	25398.775
824.78336	25360.575
828.63172	25397.775
832.47738	25419.975
836.32036	25514.375
840.16066	25593.075
843.99827	25602.175
847.8332	25524.375
851.66546	25416.375
855.49504	25384.275
859.32195	25377.075
863.1462	25347.075
866.96777	25293.675
870.78668	25255.675
874.60293	25269.875
878.41652	25248.975
882.22745	25330.375
886.03573	25415.875
889.84136	25420.375
893.64433	25343.175
897.44466	25309.675
901.24235	25234.075
905.0374	25207.775
908.8298	25182.475
912.61957	25221.475
916.40671	25422.175
920.19121	25642.175
923.97308	25801.775
927.75233	25892.675
931.52895	25863.975
935.30295	25643.075
939.07433	25289.475
942.84309	24945.075
946.60924	24750.075
950.37278	24682.875
954.13371	24619.475
957.89203	24518.375
961.64774	24531.375
965.40086	24464.075
969.15137	24414.875
972.89929	24330.075
976.64461	24256.775
980.38733	24274.975
984.12747	24411.375
987.86502	24569.575
991.59999	24800.075
995.33237	25072.475
999.06217	25517.675
1002.78939	25995.975
1006.51404	26322.975
1010.23611	26662.075
1013.95561	26919.975
1017.67255	26870.275
1021.38692	26554.375
1025.09872	26282.275
1028.80796	26265.975
1032.51465	26625.275
1036.21877	27015.275
1039.92035	27160.975
1043.61937	27088.075
1047.31584	26882.675
1051.00976	26720.075
1054.70114	26744.075
1058.38998	26966.275
1062.07627	27383.175
1065.76003	27935.975
1069.44126	28711.775
1073.11995	29478.175
1076.79611	29988.675
1080.46974	30021.475
1084.14085	29660.475
1087.80943	29338.775
1091.47549	29019.775
1095.13903	28687.475
1098.80005	28227.575
1102.45857	27659.075
1106.11456	27216.175
1109.76805	27016.675
1113.41903	27035.575
1117.06751	27144.175
1120.71348	27402.875
1124.35696	27705.875
1127.99793	28082.575
1131.63641	28231.575
1135.2724	28064.075
1138.90589	27824.475
1142.5369	27665.275
1146.16542	27539.775
1149.79145	27539.675
1153.415	27682.575
1157.03607	27977.075
1160.65467	28475.775
1164.27079	29374.275
1167.88443	30584.675
1171.49561	32157.375
1175.10432	34309.975
1178.71056	37001.775
1182.31434	39341.075
1185.91565	40388.875
1189.51451	40015.175
1193.11091	38844.175
1196.70485	37212.475
1200.29634	35616.675
1203.88538	34480.675
1207.47197	33677.775
1211.05612	33000.075
1214.63782	32534.675
1218.21708	32132.975
1221.79391	31781.575
1225.36829	31576.675
1228.94024	31377.175
1232.50976	31133.975
1236.07685	30874.375
1239.6415	30789.375
1243.20374	30846.275
1246.76355	30993.375
1250.32093	31390.475
1253.8759	31883.875
1257.42845	32559.475
1260.97859	33286.775
1264.52631	34004.375
1268.07163	34691.275
1271.61453	35465.475
1275.15503	36293.675
1278.69312	37084.275
1282.22882	37747.675
1285.76211	38545.175
1289.29301	39474.475
1292.82151	40586.975
1296.34761	41994.175
1299.87133	43699.575
1303.39266	45820.175
1306.9116	48222.075
1310.42815	50588.175
1313.94233	52146.275
1317.45412	52247.875
1320.96354	51500.875
1324.47058	50511.275
1327.97525	49643.875
1331.47754	48980.775
1334.97747	48636.375
1338.47502	48532.675
1341.97022	48407.575
1345.46305	48237.875
1348.95352	47915.875
1352.44163	47973.575
1355.92738	48878.175
1359.41078	50957.675
1362.89183	52990.275
1366.37053	52378.575
1369.84688	48645.375
1373.32088	44095.675
1376.79254	40855.575
1380.26186	39255.775
1383.72883	38763.975
1387.19347	38329.975
1390.65578	37860.775
1394.11575	37545.075
1397.57339	37609.075
1401.0287	37993.775
1404.48168	38344.775
1407.93234	38385.975
1411.38068	37943.675
1414.82669	37067.575
1418.27039	35904.375
1421.71177	34718.175
1425.15083	33711.775
1428.58758	33132.775
1432.02203	33177.975
1435.45416	33602.675
1438.88399	34256.075
1442.31151	34874.675
1445.73673	35323.975
1449.15965	35833.975
1452.58027	36199.575
1455.9986	36397.875
1459.41463	36697.775
1462.82837	37281.275
1466.23982	37991.075
1469.64898	38659.575
1473.05586	39056.875
1476.46045	39081.175
1479.86276	39018.675
1483.26279	38878.275
1486.66054	38740.475
1490.05602	38973.775
1493.44922	39363.375
1496.84016	40030.075
1500.22882	41089.175
1503.61521	42724.875
1506.99934	44672.675
1510.38121	46199.075
1513.76081	46637.675
1517.13816	45505.575
1520.51324	43436.275
1523.88607	41453.175
1527.25665	40052.175
1530.62498	39324.975
1533.99105	38928.475
1537.35488	38453.775
1540.71647	37976.475
1544.07581	37422.375
1547.4329	36900.075
1550.78776	36393.975
1554.14038	36209.875
1557.49077	36161.075
1560.83892	36204.675
1564.18484	36479.675
1567.52853	36955.875
1570.86999	37690.175
1574.20922	38696.175
1577.54624	39726.975
1580.88103	40356.675
1584.2136	40288.675
1587.54395	40072.475
1590.87208	40082.275
1594.19801	40878.575
1597.52172	42251.675
1600.84321	42686.075
1604.16251	41282.775
1607.47959	38813.275
1610.79447	36161.575
1614.10715	33753.975
1617.41763	31746.475
1620.7259	30342.575
1624.03199	29631.375
1627.33587	29578.175
1630.63757	30137.075
1633.93707	31419.975
1637.23439	33571.275
1640.52951	36717.675
1643.82246	40377.075
1647.11321	43363.075
1650.40179	44414.375
1653.68819	42422.275
1656.97241	38176.075
1660.25446	33718.975
1663.53433	30284.075
1666.81203	27968.775
1670.08756	26484.475
1673.36092	25556.875
1676.63211	24908.475
1679.90115	24499.175
1683.16801	24180.275
1686.43272	23978.275
1689.69527	23790.975
1692.95567	23640.475
1696.2139	23612.975
1699.46999	23557.675
1702.72392	23489.475
1705.97571	23500.175
1709.22535	23391.275
1712.47284	23319.575
1715.71819	23292.875
1718.96139	23245.475
1722.20246	23126.475
1725.44139	23117.475
1728.67818	22996.075
1731.91284	22834.675
1735.14537	22783.675
1738.37576	22676.275
1741.60403	22608.475
1744.83017	22585.175
1748.05418	22533.375
1751.27607	22504.375
1754.49584	22491.275
1757.71349	22476.775
1760.92903	22473.375
1764.14244	22468.875
1767.35375	22422.575
1770.56294	22392.475
1773.77002	22374.175
1776.97499	22340.075
1780.17785	22294.775
1783.37861	22244.975
1786.57727	22199.175
1789.77382	22158.675
1792.96828	22140.575
1796.16064	22095.375
1799.3509	22048.275
1802.53907	21987.775
1805.72514	21948.875
1808.90913	21886.775
1812.09102	21848.575
1815.27083	21819.875
1818.44856	21782.975
1821.6242	21773.775
1824.79776	21753.375
1827.96924	21712.975
1831.13864	21743.875
1834.30597	21728.175
1837.47122	21741.875
1840.6344	21707.675
1843.7955	21704.975
1846.95454	21744.775
1850.11151	21702.375
1853.26642	21676.575
1856.41926	21740.075
1859.57004	21660.675
1862.71876	21687.475
1865.86542	21625.775
1869.01003	21615.775
1872.15258	21645.875
1875.29308	21588.175
1878.43152	21520.675
1881.56792	21531.775
1884.70227	21518.675
1887.83457	21469.975
1890.96482	21466.175
1894.09304	21441.875
1897.21921	21467.375
1900.34335	21449.175
1903.46544	21406.475
1906.58551	21377.375
1909.70353	21369.475
1912.81953	21316.275
1915.93349	21278.575
1919.04543	21236.675
1922.15534	21220.175
1925.26322	21176.675
1928.36908	21144.075
1931.47292	21109.275
1934.57473	21039.275
1937.67453	21025.675
1940.77232	20946.175
1943.86808	20918.675
1946.96184	20810.475
1950.05358	20773.475
1953.14331	20710.375
1956.23103	20672.975
1959.31675	20623.475
1962.40046	20577.475
1965.48217	20505.275
1968.56188	20425.475
1971.63959	20396.175
1974.7153	20313.975
1977.78901	20241.175
1980.86073	20172.775
1983.93046	20132.175
1986.99819	20076.075
1990.06394	20022.275
1993.1277	20002.475
1996.18947	19867.175
1999.24925	19843.975
2002.30706	19756.975
2005.36288	19713.175
2008.41672	19730.675
2011.46859	19657.675
2014.51848	19566.875
2017.56639	19525.175
2020.61233	19458.575
2023.6563	19429.775
2026.6983	19389.775
2029.73833	19374.075
2032.7764	19316.275
2035.8125	19289.975
2038.84664	19238.175
2041.87881	19233.075
2044.90903	19174.275
2047.93729	19150.175
2050.96359	19146.875
2053.98794	19112.275
2057.01034	19110.975
2060.03078	19065.975
2063.04927	19069.175
2066.06582	19042.675
2069.08042	19022.675
2072.09307	19000.275
2075.10378	18977.375
2078.11255	18982.475
2081.11938	18992.375
2084.12426	18972.575
2087.12722	19001.075
2090.12824	18966.775
2093.12732	18971.975
2096.12447	18996.575
2099.11969	18968.775
2102.11299	18973.275
2105.10435	19027.175
2108.09379	19017.775
2111.08131	19026.475
2114.0669	19072.775
2117.05057	19056.275
2120.03233	19104.875
2123.01216	19075.575
2125.99008	19093.575
2128.96609	19097.975
2131.94018	19130.175
2134.91236	19140.575
2137.88263	19160.475
2140.851	19158.075
2143.81746	19167.375
2146.78201	19168.175
2149.74466	19172.275
2152.7054	19198.575
2155.66425	19186.175
2158.6212	19169.675
2161.57625	19152.275
2164.52941	19165.375
2167.48067	19152.975
2170.43004	19144.375
2173.37752	19150.775
2176.32311	19169.875
2179.26681	19148.775
2182.20863	19138.975
2185.14856	19176.775
2188.08661	19164.075
2191.02278	19138.675
2193.95707	19150.275
2196.88948	19105.875
2199.82001	19109.175
2202.74867	19067.675
2205.67545	19085.975
2208.60037	19093.975
2211.52341	19064.675
2214.44458	19048.575
2217.36388	19021.075
2220.28132	18976.775
2223.1969	18931.975
2226.11061	18937.875
2229.02246	18903.475
2231.93245	18836.075
2234.84058	18830.475
2237.74686	18783.275
2240.65128	18756.175
2243.55385	18697.475
2246.45456	18674.175
2249.35343	18680.175
2252.25044	18605.475
2255.14561	18583.575
2258.03893	18618.975
2260.93041	18609.175
2263.82004	18545.575
2266.70783	18515.375
2269.59378	18412.075
2272.4779	18418.775
2275.36017	18338.375
2278.24061	18337.675
2281.11922	18305.675
2283.996	18247.475
2286.87094	18214.575
2289.74405	18192.475
2292.61534	18169.875
2295.4848	18180.075
2298.35243	18185.575
2301.21824	18154.275
2304.08223	18148.475
2306.94439	18132.675
2309.80474	18147.675
2312.66327	18096.975
2315.51999	18100.075
2318.37489	18107.775
2321.22797	18086.975
2324.07925	18047.875
2326.92871	18046.775
2329.77637	18048.375
2332.62222	18018.675
2335.46626	18018.375
2338.3085	17997.975
2341.14893	17968.475
2343.98756	17969.175
2346.8244	17933.875
2349.65943	17937.975
2352.49267	17961.975
2355.32411	17947.175
2358.15376	17934.575
2360.98161	17898.575
2363.80768	17899.275
2366.63195	17877.775
2369.45444	17844.775
2372.27514	17846.475
2375.09405	17826.975
2377.91118	17777.775
2380.72652	17733.775
2383.54009	17711.675
2386.35187	17714.075
2389.16188	17638.875
2391.97011	17610.175
2394.77657	17573.375
2397.58125	17540.875
2400.38416	17537.275
2403.18529	17487.975
2405.98466	17486.675
2408.78226	17443.475
2411.57809	17423.575
2414.37216	17413.075
2417.16446	17365.175
2419.955	17363.775
2422.74378	17343.075
2425.5308	17333.775
2428.31606	17297.175
2431.09956	17265.975
2433.88131	17269.175
2436.6613	17267.075
2439.43954	17239.875
2442.21603	17217.775
2444.99077	17197.375
2447.76377	17229.475
2450.53501	17203.375
2453.30451	17228.675
2456.07226	17165.075
2458.83827	17180.375
2461.60254	17167.075
2464.36507	17136.775
2467.12586	17129.675
2469.88492	17151.375
2472.64224	17138.775
2475.39782	17097.575
2478.15167	17138.075
2480.90379	17124.175
2483.65417	17148.875
2486.40283	17131.375
2489.14976	17188.875
2491.89497	17142.375
2494.63845	17156.975
2497.3802	17131.275
2500.12024	17101.175
2502.85855	17113.675
2505.59514	17106.075
2508.33002	17078.375
2511.06318	16999.975
2513.79462	17014.175
2516.52435	17008.975
2519.25237	16991.575
2521.97867	16953.075
2524.70327	16936.475
2527.42616	16925.975
2530.14734	16929.675
2532.86681	16875.275
2535.58458	16900.575
2538.30065	16853.675
2541.01501	16848.475
2543.72768	16835.775
2546.43864	16821.375
2549.14791	16808.775
2551.85548	16788.475
2554.56136	16706.275
2557.26554	16746.375
2559.96803	16724.375
2562.66883	16750.975
2565.36794	16705.375
2568.06536	16696.475
2570.7611	16698.775
2573.45514	16665.375
2576.14751	16621.275
2578.83819	16604.375
2581.52719	16580.475
2584.21451	16563.875
2586.90015	16555.775
2589.58411	16509.075
2592.2664	16499.175
2594.94701	16467.775
2597.62594	16449.075
2600.30321	16457.675
2602.9788	16440.275
2605.65273	16407.475
2608.32498	16405.975
2610.99557	16363.375
2613.66449	16378.075
2616.33175	16338.975
2618.99734	16352.675
2621.66128	16336.175
2624.32355	16333.275
2626.98416	16316.775
2629.64311	16303.875
2632.30041	16314.175
2634.95605	16287.375
2637.61004	16280.775
2640.26238	16223.875
2642.91306	16220.275
2645.56209	16244.175
2648.20948	16212.775
2650.85521	16188.375
2653.4993	16205.375
2656.14175	16163.275
2658.78255	16176.675
2661.42171	16180.075
2664.05923	16186.075
2666.6951	16194.475
2669.32934	16192.375
2671.96194	16187.775
2674.59291	16180.875
2677.22224	16156.975
2679.84993	16174.875
2682.476	16139.775
2685.10043	16168.375
2687.72324	16136.175
2690.34441	16152.075
2692.96396	16154.375
2695.58188	16177.875
2698.19818	16152.875
2700.81285	16166.875
2703.4259	16174.975
2706.03733	16266.775
2708.64714	16223.175
2711.25533	16188.075
2713.86191	16182.675
2716.46687	16188.075
2719.07021	16230.275
2721.67194	16183.275
2724.27206	16178.275
2726.87057	16179.375
2729.46747	16220.775
2732.06276	16197.675
2734.65644	16173.775
2737.24852	16201.375
2739.83899	16146.875
2742.42786	16147.575
2745.01513	16122.075
2747.60079	16090.875
2750.18486	16083.475
2752.76733	16120.875
2755.3482	16106.075
2757.92747	16123.575
2760.50515	16059.975
2763.08123	16090.275
2765.65573	16072.375
2768.22863	16025.975
2770.79994	15992.675
2773.36967	16020.775
2775.9378	15993.675
2778.50435	15965.975
2781.06932	15951.175
2783.6327	15946.575
2786.1945	15939.575
2788.75471	15929.075
2791.31335	15899.175
2793.87041	15863.475
2796.42589	15795.875
2798.97979	15817.575
2801.53212	15771.975
2804.08288	15781.675
2806.63206	15739.675
2809.17967	15700.775
2811.72571	15640.275
2814.27018	15670.375
2816.81308	15620.975
2819.35442	15624.975
2821.89419	15580.575
2824.43239	15591.775
2826.96904	15560.175
2829.50412	15576.075
2832.03763	15501.775
2834.56959	15530.475
2837.1	15475.875
2839.62884	15489.975
2842.15613	15494.875
2844.68186	15509.875
2847.20604	15531.275
2849.72867	15525.775
2852.24974	15501.475
2854.76927	15499.375
2857.28724	15495.675
2859.80367	15488.275
2862.31855	15445.775
2864.83189	15432.175
2867.34368	15416.275
2869.85393	15418.675
2872.36264	15412.275
2874.8698	15418.675
2877.37543	15420.175
2879.87952	15389.875
2882.38207	15374.975
2884.88308	15399.275
2887.38256	15406.875
2889.88051	15432.375
2892.37692	15422.475
2894.8718	15389.275
2897.36515	15389.275
2899.85698	15407.375
2902.34727	15443.875
2904.83604	15452.475
2907.32328	15416.975
2909.809	15431.475
2912.29319	15429.675
2914.77587	15459.875
2917.25702	15424.275
2919.73665	15440.775
2922.21476	15429.775
2924.69136	15392.375
2927.16644	15421.475
2929.64	15387.575
2932.11205	15376.175
2934.58258	15370.175
2937.05161	15387.975
2939.51912	15377.175
2941.98513	15347.075
2944.44962	15287.575
2946.91261	15261.975
2949.37409	15281.375
2951.83407	15252.575
2954.29254	15272.875
2956.74951	15226.775
2959.20498	15202.275
2961.65895	15195.875
2964.11142	15199.075
2966.56239	15157.275
2969.01186	15162.775
2971.45984	15067.675
2973.90632	15050.575
2976.35131	15032.075
2978.7948	15002.375
2981.23681	14962.675
2983.67732	14964.575
2986.11635	14939.775
2988.55388	14901.775
2990.98993	14887.975
2993.4245	14830.875
2995.85758	14789.875
2998.28917	14776.075
3000.71928	14776.075
3003.14791	14738.875
3005.57506	14731.875
3008.00073	14695.275
3010.42493	14684.775
3012.84764	14611.775
3015.26888	14631.475
3017.68865	14592.575
3020.10694	14590.275
3022.52376	14570.775
3024.9391	14546.975
3027.35298	14546.275
3029.76539	14556.475
3032.17632	14550.075
3034.5858	14505.375
3036.9938	14485.275
3039.40034	14473.875
3041.80542	14443.375
3044.20903	14406.475
3046.61118	14420.275
3049.01187	14371.675
3051.4111	14393.175
3053.80888	14371.375
3056.20519	14305.775
3058.60005	14294.075
3060.99345	14280.075
3063.3854	14236.175
3065.7759	14198.075
3068.16494	14160.675
3070.55254	14152.875
3072.93868	14148.475
3075.32338	14102.575
3077.70662	14058.575
3080.08842	14025.275
3082.46878	14029.575
3084.84769	14004.275
3087.22515	13956.675
3089.60118	13966.675
3091.97576	13984.475
3094.3489	13969.375
3096.72061	13986.375
3099.09087	13963.275
3101.4597	13966.175
3103.82709	13937.675
3106.19305	13888.575
3108.55757	13925.375
3110.92066	13858.275
3113.28232	13841.475
3115.64255	13787.375
3118.00134	13801.375
3120.35871	13787.375
3122.71466	13775.475
3125.06917	13730.475
3127.42226	13720.775
