Data from AgNP_FTO_APTES_CRN_5uM_R6G_10uM_NaF_0.1M_Addition_RamanShift__6__15-32-57-903.txt Node

Date: Wed Dec 15 15:32:57 GMT 2021
User: TCL
Spectrometer: QEP01345
Trigger mode: 4
Integration Time (sec): 7.000000E0
Scans to average: 10
Electric dark correction enabled: true
Nonlinearity correction enabled: false
Boxcar width: 0
XAxis mode: Raman Shifts
Number of Pixels in Spectrum: 1044
>>>>>Begin Spectral Data<<<<<
46.04893	0.7
50.45542	-2
54.85868	-2
59.25871	-1.4
63.6555	129.8
68.04907	143.4
72.43941	146.2
76.82654	154
81.21044	158
85.59113	167.3
89.96862	171.4
94.34289	171.2
98.71396	183.9
103.08183	190.2
107.4465	191.8
111.80798	194.5
116.16626	204.2
120.52136	212.5
124.87327	217.4
129.222	230.8
133.56755	245
137.90993	264.2
142.24913	293
146.58517	331.1
150.91804	380
155.24774	449.6
159.57429	558
163.89768	713.1
168.21792	938
172.53501	1285.7
176.84895	1781.5
181.15975	2497
185.46741	3498
189.77193	4831.6
194.07331	6430.6
198.37157	8283.3
202.6667	10215.9
206.9587	12134.5
211.24758	14000.6
215.53334	15881
219.81599	17876.8
224.09553	20039.4
228.37195	22454.8
232.64527	25132.7
236.91549	27933.1
241.18261	30750.2
245.44663	33416.4
249.70755	35864
253.96539	38033.1
258.22014	39852.8
262.4718	41281.1
266.72039	42285.1
270.96589	42776.1
275.20832	42807.4
279.44768	42608.4
283.68397	42231
287.91719	41845.9
292.14735	41582.5
296.37445	41419.3
300.59849	41395.4
304.81948	41503.2
309.03742	41512.1
313.25231	41303.8
317.46415	40822.6
321.67296	40229.6
325.87872	39714.5
330.08145	39530.8
334.28114	39563.9
338.47781	39893
342.67145	40347.6
346.86207	40873.8
351.04966	41514
355.23424	42258.1
359.4158	42962.4
363.59435	43490.7
367.76989	43933.1
371.94243	44211
376.11196	44436.5
380.27849	44516.3
384.44203	44667.3
388.60257	45062.6
392.76012	45552.3
396.91468	46190.5
401.06626	46868.4
405.21485	47424.2
409.36047	47434.1
413.50311	47348.8
417.64277	47462.2
421.77947	47939
425.9132	48289
430.04396	48528.7
434.17176	48634.3
438.2966	48689.2
442.41849	49092.9
446.53742	50198.2
450.6534	51423.6
454.76644	52381.7
458.87653	52746.7
462.98368	52539.2
467.08789	51789.3
471.18916	50840.5
475.2875	49884.6
479.38291	49138
483.4754	48661.4
487.56496	48260.6
491.6516	47818
495.73531	47602.8
499.81612	47715.4
503.89401	48299.5
507.96899	48763.4
512.04106	48941.4
516.11023	48648.7
520.1765	48109.8
524.23987	47568.4
528.30034	47157.9
532.35792	46664.7
536.41261	46078.9
540.46441	45681.6
544.51333	45636.1
548.55936	46066.4
552.60252	46852.5
556.64279	47734.3
560.6802	48321.2
564.71473	48819.6
568.7464	49480
572.7752	50712.7
576.80114	52505.4
580.82422	54686.1
584.84444	57210
588.86181	59937.3
592.87633	61366.8
596.888	60062.7
600.89682	57440.4
604.9028	56878.2
608.90594	58996.4
612.90624	60783.9
616.90371	57079.5
620.89834	50764.8
624.89015	48094.6
628.87913	47871.5
632.86528	47958.8
636.84862	47675.9
640.82913	46939.5
644.80683	46054.2
648.78172	45606.6
652.75379	45770.5
656.72306	46283.6
660.68952	46629.6
664.65319	46263.1
668.61405	45788.7
672.57211	45852.2
676.52738	46033.5
680.47986	45909.3
684.42955	45664.6
688.37646	45589.1
692.32058	45941.9
696.26192	46613.3
700.20048	47285.7
704.13626	47642.4
708.06928	47634.6
711.99952	47509.8
715.927	47580.4
719.85171	47764.8
723.77365	47616.5
727.69284	46891.9
731.60928	46265.8
735.52295	45820.6
739.43388	45746.6
743.34206	45864.3
747.24749	46228
751.15017	46676.7
755.05012	47476.6
758.94733	48575.9
762.8418	50384
766.73354	52759.6
770.62254	54736.4
774.50882	54444.5
778.39237	52340
782.27321	49927.3
786.15132	47910.5
790.02671	46751.3
793.89938	46188.8
797.76935	45985.4
801.6366	46029.2
805.50115	46041.4
809.36299	45837.5
813.22213	45363
817.07857	45034
820.93231	44711.2
824.78336	44550.1
828.63172	44413.1
832.47738	44416.7
836.32036	44480
840.16066	44635.1
843.99827	44720.5
847.8332	44706.6
851.66546	44651.3
855.49504	44689.4
859.32195	44743
863.1462	44624.9
866.96777	44542
870.78668	44539.6
874.60293	44514.2
878.41652	44544.4
882.22745	44679.6
886.03573	44872.5
889.84136	44831.5
893.64433	44659.3
897.44466	44493.8
901.24235	44435.8
905.0374	44393.9
908.8298	44311
912.61957	44445.6
916.40671	44815.9
920.19121	45449.3
923.97308	45971.7
927.75233	45925.8
931.52895	45461.2
935.30295	44834.3
939.07433	44267.1
942.84309	43837
946.60924	43749.3
950.37278	43785.9
954.13371	43723
957.89203	43616.3
961.64774	43623.2
965.40086	43593.5
969.15137	43538.1
972.89929	43422.8
976.64461	43373.7
980.38733	43476.8
984.12747	43626.4
987.86502	43794.9
991.59999	44144.2
995.33237	44616.5
999.06217	45567.4
1002.78939	46680.8
1006.51404	47793.7
1010.23611	48681.8
1013.95561	49195.3
1017.67255	49129
1021.38692	48446.7
1025.09872	47724.5
1028.80796	47476.7
1032.51465	47962.4
1036.21877	48523.3
1039.92035	48808.8
1043.61937	48601.9
1047.31584	48144
1051.00976	47680.2
1054.70114	47503.7
1058.38998	47702.4
1062.07627	48217.5
1065.76003	49162.7
1069.44126	50172.6
1073.11995	51412.4
1076.79611	52383.9
1080.46974	52577.8
1084.14085	52447.8
1087.80943	52350.7
1091.47549	52222.7
1095.13903	51946.4
1098.80005	51161.5
1102.45857	50096.1
1106.11456	49290.3
1109.76805	48837
1113.41903	48689.8
1117.06751	48711.4
1120.71348	48973.9
1124.35696	49231.9
1127.99793	49591
1131.63641	49955.3
1135.2724	50103.2
1138.90589	50279.2
1142.5369	50501.5
1146.16542	50863.8
1149.79145	51176.9
1153.415	51592.3
1157.03607	52483.2
1160.65467	54159.5
1164.27079	56785
1167.88443	59678.6
1171.49561	62323.5
1175.10432	65098.5
1178.71056	68721.7
1182.31434	72486.4
1185.91565	74714.6
1189.51451	74675.9
1193.11091	73281.7
1196.70485	71266.6
1200.29634	69083
1203.88538	67777.9
1207.47197	67446.1
1211.05612	67192
1214.63782	66304.9
1218.21708	64672.2
1221.79391	62755.7
1225.36829	61289.1
1228.94024	60350.6
1232.50976	59523.1
1236.07685	58837.5
1239.6415	58505
1243.20374	58572.6
1246.76355	58926.7
1250.32093	59879.6
1253.8759	61130.8
1257.42845	62825.6
1260.97859	64615.5
1264.52631	66464.9
1268.07163	68455.2
1271.61453	70467.1
1275.15503	72494.6
1278.69312	74434.6
1282.22882	76289.3
1285.76211	78215.6
1289.29301	80478
1292.82151	83404.5
1296.34761	87094.5
1299.87133	91885.5
1303.39266	96951
1306.9116	101398.4
1310.42815	104378.6
1313.94233	105285.1
1317.45412	104584.7
1320.96354	103369.2
1324.47058	102902.2
1327.97525	103144
1331.47754	103622.2
1334.97747	103776.1
1338.47502	103484.3
1341.97022	102376.1
1345.46305	100476.5
1348.95352	98390.4
1352.44163	97043.8
1355.92738	97439.3
1359.41078	99718.2
1362.89183	101250.9
1366.37053	99570.6
1369.84688	93511.2
1373.32088	85445.9
1376.79254	79391.4
1380.26186	77111.6
1383.72883	77293
1387.19347	77604.7
1390.65578	76971.5
1394.11575	76555
1397.57339	77348.9
1401.0287	79091.6
1404.48168	80996.3
1407.93234	81666
1411.38068	80862.9
1414.82669	78685.2
1418.27039	75545
1421.71177	72498.2
1425.15083	70066
1428.58758	69115.7
1432.02203	69909.9
1435.45416	71972.5
1438.88399	74528.2
1442.31151	76247.5
1445.73673	77097.8
1449.15965	77180.9
1452.58027	76743.7
1455.9986	76161.1
1459.41463	76393.4
1462.82837	77498.5
1466.23982	79036
1469.64898	80358.5
1473.05586	81244.8
1476.46045	81345.7
1479.86276	80760.9
1483.26279	79815.4
1486.66054	79132.9
1490.05602	79090
1493.44922	79212.4
1496.84016	79223.1
1500.22882	79334.4
1503.61521	79845.4
1506.99934	80569.5
1510.38121	81026.8
1513.76081	80854.5
1517.13816	79986.1
1520.51324	79068.2
1523.88607	78868.6
1527.25665	79320
1530.62498	80092.8
1533.99105	80321.8
1537.35488	79731.3
1540.71647	78413.6
1544.07581	76636.8
1547.4329	74729.9
1550.78776	73026.9
1554.14038	71674.1
1557.49077	70728.5
1560.83892	69979.8
1564.18484	69492.2
1567.52853	69279.5
1570.86999	69846.7
1574.20922	71519.6
1577.54624	73429.4
1580.88103	75249.4
1584.2136	77284.3
1587.54395	80309.3
1590.87208	84245
1594.19801	89037.3
1597.52172	93126.6
1600.84321	93568.6
1604.16251	89071.5
1607.47959	81983.6
1610.79447	74810.7
1614.10715	68444.9
1617.41763	63354.5
1620.7259	59883.9
1624.03199	58144.8
1627.33587	58357.9
1630.63757	60134
1633.93707	63985.6
1637.23439	70483.8
1640.52951	79599.1
1643.82246	89348.5
1647.11321	95856.4
1650.40179	94929.8
1653.68819	86539.9
1656.97241	74817.7
1660.25446	64516.8
1663.53433	57241.8
1666.81203	52588.1
1670.08756	49684.8
1673.36092	47913
1676.63211	46665.2
1679.90115	45759.3
1683.16801	45080.5
1686.43272	44623.1
1689.69527	44215.5
1692.95567	43935.4
1696.2139	43825.8
1699.46999	43685
1702.72392	43508.1
1705.97571	43391.5
1709.22535	43308.1
1712.47284	43233
1715.71819	43170
1718.96139	43036.1
1722.20246	42917.4
1725.44139	42738.4
1728.67818	42462.7
1731.91284	42276.9
1735.14537	42052.7
1738.37576	41885
1741.60403	41756.3
1744.83017	41585.3
1748.05418	41563.1
1751.27607	41426.3
1754.49584	41397.2
1757.71349	41352.5
1760.92903	41379.3
1764.14244	41330.1
1767.35375	41302.9
1770.56294	41261.9
1773.77002	41196.6
1776.97499	41208.1
1780.17785	41139.4
1783.37861	41097.6
1786.57727	40946.4
1789.77382	40861.1
1792.96828	40825
1796.16064	40723.8
1799.3509	40749.4
1802.53907	40652.7
1805.72514	40536.8
1808.90913	40446.7
1812.09102	40373.8
1815.27083	40352.2
1818.44856	40278.2
1821.6242	40288.9
1824.79776	40235.6
1827.96924	40226.3
1831.13864	40264.9
1834.30597	40297.7
1837.47122	40347.7
1840.6344	40378.8
1843.7955	40356.7
1846.95454	40377.7
1850.11151	40391.3
1853.26642	40335.9
1856.41926	40327
1859.57004	40301.3
1862.71876	40282.8
1865.86542	40198.5
1869.01003	40155.3
1872.15258	40179.4
1875.29308	40161.6
1878.43152	40060.7
1881.56792	40005.9
1884.70227	40005.5
1887.83457	39954.5
1890.96482	39925.6
1894.09304	39893.9
1897.21921	39830.7
1900.34335	39749.8
1903.46544	39650.7
1906.58551	39612.2
1909.70353	39573.1
1912.81953	39541.2
1915.93349	39433.4
1919.04543	39342.6
1922.15534	39303.2
1925.26322	39251
1928.36908	39165.4
1931.47292	39068.4
1934.57473	38966.9
1937.67453	38831.4
1940.77232	38801.8
1943.86808	38725.5
1946.96184	38598.5
1950.05358	38519.7
1953.14331	38449.4
1956.23103	38354.5
1959.31675	38273.2
1962.40046	38125.2
1965.48217	38012.2
1968.56188	37908
1971.63959	37816.6
1974.7153	37719.6
1977.78901	37617.9
1980.86073	37495.2
1983.93046	37414.5
1986.99819	37298.5
1990.06394	37299.3
1993.1277	37188.9
1996.18947	37083.4
1999.24925	36954.1
2002.30706	36822.7
2005.36288	36710.2
2008.41672	36662.6
2011.46859	36583.6
2014.51848	36490.2
2017.56639	36481.6
2020.61233	36396.1
2023.6563	36289.9
2026.6983	36290.4
2029.73833	36164.2
2032.7764	36086.8
2035.8125	36021.3
2038.84664	35936.6
2041.87881	35926
2044.90903	35936.5
2047.93729	35812.6
2050.96359	35776
2053.98794	35765.2
2057.01034	35746.6
2060.03078	35646.6
2063.04927	35668.8
2066.06582	35689.3
2069.08042	35608.1
2072.09307	35592.1
2075.10378	35550.1
2078.11255	35543.7
2081.11938	35630.5
2084.12426	35557.8
2087.12722	35551
2090.12824	35527
2093.12732	35613.6
2096.12447	35567.7
2099.11969	35495.8
2102.11299	35541
2105.10435	35591.6
2108.09379	35652.4
2111.08131	35674.3
2114.0669	35713.5
2117.05057	35682.8
2120.03233	35677.2
2123.01216	35730.3
2125.99008	35717.6
2128.96609	35734.9
2131.94018	35745.6
2134.91236	35792.7
2137.88263	35811.7
2140.851	35804.9
2143.81746	35846
2146.78201	35875
2149.74466	35913.2
2152.7054	35913.7
2155.66425	35898.4
2158.6212	35957.5
2161.57625	35902.5
2164.52941	35946.1
2167.48067	35958
2170.43004	35960.3
2173.37752	35935.1
2176.32311	35872
2179.26681	35878.2
2182.20863	35903.3
2185.14856	35931.5
2188.08661	35922.4
2191.02278	35966
2193.95707	35922
2196.88948	35862.2
2199.82001	35899.5
2202.74867	35866.5
2205.67545	35806.4
2208.60037	35798.7
2211.52341	35766.4
2214.44458	35728.6
2217.36388	35672.3
2220.28132	35644.8
2223.1969	35588.9
2226.11061	35571.2
2229.02246	35487.4
2231.93245	35447.9
2234.84058	35345.2
2237.74686	35293.4
2240.65128	35312.4
2243.55385	35209.1
2246.45456	35190.2
2249.35343	35106.4
2252.25044	35056.9
2255.14561	34984.3
2258.03893	34961.1
2260.93041	34933.1
2263.82004	34862.7
2266.70783	34820.5
2269.59378	34666.7
2272.4779	34619.8
2275.36017	34542
2278.24061	34494.3
2281.11922	34423.3
2283.996	34383.5
2286.87094	34356.4
2289.74405	34327.5
2292.61534	34296.6
2295.4848	34254.1
2298.35243	34278.1
2301.21824	34223.3
2304.08223	34280.2
2306.94439	34283.6
2309.80474	34296.5
2312.66327	34249.7
2315.51999	34237.9
2318.37489	34233
2321.22797	34189
2324.07925	34170
2326.92871	34113.3
2329.77637	34071.9
2332.62222	34099
2335.46626	34059.8
2338.3085	34044.9
2341.14893	34077.1
2343.98756	34043.2
2346.8244	34005.3
2349.65943	34018.1
2352.49267	33953.4
2355.32411	33944.5
2358.15376	33899.9
2360.98161	33934.4
2363.80768	33901.4
2366.63195	33930.7
2369.45444	33799.4
2372.27514	33776.2
2375.09405	33721.5
2377.91118	33724.8
2380.72652	33640.6
2383.54009	33612.2
2386.35187	33614.1
2389.16188	33527.3
2391.97011	33453.3
2394.77657	33468.2
2397.58125	33428.2
2400.38416	33391.4
2403.18529	33323.2
2405.98466	33276.1
2408.78226	33238.2
2411.57809	33217.5
2414.37216	33112.2
2417.16446	33134.6
2419.955	33065.7
2422.74378	33113.6
2425.5308	33050.1
2428.31606	33065.4
2431.09956	33025
2433.88131	32998.5
2436.6613	33013.2
2439.43954	32981.1
2442.21603	32911.6
2444.99077	32935.8
2447.76377	32920
2450.53501	32925.9
2453.30451	32930.5
2456.07226	32882
2458.83827	32887.5
2461.60254	32921.5
2464.36507	32891
2467.12586	32865.9
2469.88492	32849.5
2472.64224	32852.5
2475.39782	32867.8
2478.15167	32932.1
2480.90379	32878.1
2483.65417	32890.6
2486.40283	32908.1
2489.14976	32895.5
2491.89497	32830.6
2494.63845	32896
2497.3802	32923.6
2500.12024	32929.7
2502.85855	32932
2505.59514	32956.6
2508.33002	32930.1
2511.06318	32908.8
2513.79462	32889.6
2516.52435	32880.6
2519.25237	32850
2521.97867	32822.9
2524.70327	32773.1
2527.42616	32791.7
2530.14734	32807.2
2532.86681	32698.9
2535.58458	32737
2538.30065	32682.4
2541.01501	32670.9
2543.72768	32673.9
2546.43864	32617.3
2549.14791	32626
2551.85548	32623.6
2554.56136	32533
2557.26554	32529.1
2559.96803	32491.3
2562.66883	32505.2
2565.36794	32502.7
2568.06536	32541.4
2570.7611	32465.9
2573.45514	32448.7
2576.14751	32429.5
2578.83819	32409.6
2581.52719	32405.2
2584.21451	32352.3
2586.90015	32320.9
2589.58411	32292.9
2592.2664	32240.6
2594.94701	32287.4
2597.62594	32271.5
2600.30321	32199.2
2602.9788	32169
2605.65273	32183.8
2608.32498	32186
2610.99557	32157.7
2613.66449	32150.3
2616.33175	32133.4
2618.99734	32095.4
2621.66128	32097.5
2624.32355	32111.8
2626.98416	32074.5
2629.64311	32045.8
2632.30041	32064.1
2634.95605	31986.8
2637.61004	32001.4
2640.26238	31977.4
2642.91306	31955.6
2645.56209	31989.8
2648.20948	31989.9
2650.85521	31944.8
2653.4993	31992.5
2656.14175	32002.6
2658.78255	32000.6
2661.42171	32001
2664.05923	32062.8
2666.6951	32085.4
2669.32934	32058.8
2671.96194	32062.6
2674.59291	32091.1
2677.22224	32068
2679.84993	32081.6
2682.476	32000.4
2685.10043	32070.8
2687.72324	32008.9
2690.34441	32051.7
2692.96396	32077.3
2695.58188	32119.2
2698.19818	32038.7
2700.81285	32010.9
2703.4259	32036.2
2706.03733	32186.5
2708.64714	32176.2
2711.25533	32221.8
2713.86191	32214.7
2716.46687	32261.3
2719.07021	32187.4
2721.67194	32237.1
2724.27206	32196.9
2726.87057	32233
2729.46747	32268.3
2732.06276	32355.3
2734.65644	32338.4
2737.24852	32306.7
2739.83899	32306.7
2742.42786	32320.6
2745.01513	32265.2
2747.60079	32272.4
2750.18486	32284.2
2752.76733	32274.7
2755.3482	32260.3
2757.92747	32332.4
2760.50515	32282.4
2763.08123	32274.1
2765.65573	32207.3
2768.22863	32172.7
2770.79994	32138.9
2773.36967	32152.3
2775.9378	32134.6
2778.50435	32090.9
2781.06932	32059.7
2783.6327	32091.1
2786.1945	32111
2788.75471	32009.3
2791.31335	31943.5
2793.87041	31927.7
2796.42589	31816.5
2798.97979	31795.5
2801.53212	31794.5
2804.08288	31783.3
2806.63206	31691.1
2809.17967	31635.1
2811.72571	31530.7
2814.27018	31563.1
2816.81308	31435
2819.35442	31448.5
2821.89419	31362.8
2824.43239	31366.6
2826.96904	31301.3
2829.50412	31299
2832.03763	31248.6
2834.56959	31275.4
2837.1	31169.5
2839.62884	31178.9
2842.15613	31103.2
2844.68186	31107.6
2847.20604	31030.7
2849.72867	31035.9
2852.24974	31017.6
2854.76927	31018.2
2857.28724	30968.6
2859.80367	30965.3
2862.31855	30906.4
2864.83189	30916.5
2867.34368	30863.8
2869.85393	30879.4
2872.36264	30786.2
2874.8698	30833.5
2877.37543	30819.7
2879.87952	30835.9
2882.38207	30826.5
2884.88308	30820.2
2887.38256	30843.9
2889.88051	30868.9
2892.37692	30865.3
2894.8718	30860.4
2897.36515	30837.6
2899.85698	30904
2902.34727	30965
2904.83604	30973.7
2907.32328	31047.7
2909.809	31024.5
2912.29319	31070.7
2914.77587	31038.9
2917.25702	31016.1
2919.73665	31023.6
2922.21476	31045.4
2924.69136	31037.6
2927.16644	31011.5
2929.64	30947.6
2932.11205	30913
2934.58258	30783.6
2937.05161	30914.9
2939.51912	30918
2941.98513	30925.1
2944.44962	30827
2946.91261	30745.8
2949.37409	30802.6
2951.83407	30844.1
2954.29254	30764.7
2956.74951	30693.1
2959.20498	30705.7
2961.65895	30664.5
2964.11142	30660.2
2966.56239	30599.9
2969.01186	30606.2
2971.45984	30540.8
2973.90632	30533.1
2976.35131	30461
2978.7948	30405.3
2981.23681	30363.3
2983.67732	30341
2986.11635	30280.2
2988.55388	30178.4
2990.98993	30151.3
2993.4245	30064.7
2995.85758	29954.2
2998.28917	29917.3
3000.71928	29896.9
3003.14791	29804.2
3005.57506	29779.3
3008.00073	29726.6
3010.42493	29709.9
3012.84764	29659.1
3015.26888	29613.5
3017.68865	29557.3
3020.10694	29553.9
3022.52376	29467.9
3024.9391	29460.4
3027.35298	29485.4
3029.76539	29412
3032.17632	29362.5
3034.5858	29346.7
3036.9938	29335.3
3039.40034	29289.1
3041.80542	29253.6
3044.20903	29133.5
3046.61118	29141
3049.01187	29042.5
3051.4111	29045.2
3053.80888	28934
3056.20519	28970.3
3058.60005	28839.9
3060.99345	28831.3
3063.3854	28761.8
3065.7759	28640.3
3068.16494	28655.1
3070.55254	28583.6
3072.93868	28525.8
3075.32338	28410.8
3077.70662	28359.8
3080.08842	28287.9
3082.46878	28270.7
3084.84769	28230.2
3087.22515	28187.9
3089.60118	28175.8
3091.97576	28168.1
3094.3489	28158.7
3096.72061	28149.5
3099.09087	28108.9
3101.4597	28075.7
3103.82709	28037.9
3106.19305	27972.8
3108.55757	27973.5
3110.92066	27863.3
3113.28232	27832
3115.64255	27735
3118.00134	27707
3120.35871	27706.8
3122.71466	27684.3
3125.06917	27645.5
3127.42226	27561.4
3129.77393	27556.9
3132.12417	27531.7
3134.47299	27493.5
3136.82039	27502.6
3139.16636	27501.5
3141.51092	27454.6
3143.85406	27487.9
3146.19579	27461.2
3148.53609	27434
3150.87499	27472.2
3153.21246	27483
3155.54853	27507.3
3157.88318	27421.7
3160.21642	27421.6
3162.54826	27382.6
3164.87868	27363.4
3167.2077	27289
3169.5353	27316.9
3171.86151	27319.5
3174.18631	27241.3
3176.5097	27202.6
3178.83169	27141.2
3181.15228	27139.1
3183.47147	27145.1
3185.78926	27132
3188.10565	27105
3190.42065	27061.9
3192.73424	27046.8
3195.04645	27014.1
3197.35725	27034.4
3199.66667	26987.2
3201.97469	27024.3
3204.28132	26946.8
3206.58656	26966.9
3208.8904	26932.3
3211.19287	26957.1
3213.49394	26918.8
3215.79363	26888.5
3218.09193	26954
3220.38884	26969.1
3222.68438	26973.5
3224.97853	26933.2
3227.2713	26920.8
3229.56269	26873.5
3231.8527	26846.2
3234.14133	26791.3
3236.42858	26728
3238.71446	26665.8
3240.99896	26642
3243.28209	26606.1
3245.56384	26597.3
3247.84423	26608.7
3250.12324	26535.2
3252.40088	26539.6
3254.67715	26480.2
3256.95205	26436.3
3259.22558	26398.4
3261.49775	26325.2
3263.76855	26325.6
3266.03799	26251.8
3268.30606	26254.5
3270.57277	26189.4
3272.83812	26124.1
3275.10211	26120.9
3277.36474	26084.4
3279.62601	26150.3
3281.88593	26109.6
3284.14448	26060.6
3286.40168	26036.6
3288.65753	26062.3
3290.91202	25984.6
3293.16516	25959.3
3295.41695	25871.1
3297.66738	25708.7
3299.91647	25566.7
3302.16421	25418.1
3304.4106	25339.5
3306.65564	25210.4
3308.89933	25045.4
3311.14169	24873.7
3313.38269	24676
3315.62236	24526
3317.86068	24306.1
3320.09766	24076.5
3322.3333	23851
3324.5676	23886.5
3326.80056	23519
3329.03219	23385
3331.26248	6.9
3333.49143	-0.8
3335.71905	-0
