Data from AgNP_FTO_APTES_CRN_200uM_R6G_10uM_NaF_0.1M_Addition_RamanShift__10__19-28-38-170.txt Node

Date: Wed Dec 15 19:28:38 GMT 2021
User: TCL
Spectrometer: QEP01345
Trigger mode: 4
Integration Time (sec): 7.000000E0
Scans to average: 10
Electric dark correction enabled: true
Nonlinearity correction enabled: false
Boxcar width: 0
XAxis mode: Raman Shifts
Number of Pixels in Spectrum: 1044
>>>>>Begin Spectral Data<<<<<
46.04893	0.3875
50.45542	-1.3125
54.85868	-0.1125
59.25871	-0.8125
63.6555	49.5875
68.04907	59.2875
72.43941	56.7875
76.82654	62.0875
81.21044	65.3875
85.59113	67.1875
89.96862	73.5875
94.34289	71.2875
98.71396	77.0875
103.08183	80.3875
107.4465	83.4875
111.80798	83.0875
116.16626	83.3875
120.52136	89.1875
124.87327	84.8875
129.222	89.2875
133.56755	95.5875
137.90993	106.5875
142.24913	106.4875
146.58517	118.5875
150.91804	136.7875
155.24774	155.7875
159.57429	191.5875
163.89768	240.8875
168.21792	307.6875
172.53501	414.4875
176.84895	584.3875
181.15975	810.1875
185.46741	1128.2875
189.77193	1558.1875
194.07331	2092.2875
198.37157	2694.7875
202.6667	3321.0875
206.9587	3952.0875
211.24758	4554.0875
215.53334	5184.3875
219.81599	5808.8875
224.09553	6515.8875
228.37195	7281.1875
232.64527	8151.7875
236.91549	9043.9875
241.18261	9965.0875
245.44663	10860.0875
249.70755	11667.1875
253.96539	12399.7875
258.22014	13016.6875
262.4718	13487.0875
266.72039	13829.7875
270.96589	13978.0875
275.20832	14023.1875
279.44768	13953.1875
283.68397	13845.6875
287.91719	13767.6875
292.14735	13706.2875
296.37445	13688.7875
300.59849	13669.4875
304.81948	13656.2875
309.03742	13554.7875
313.25231	13432.1875
317.46415	13235.8875
321.67296	12935.3875
325.87872	12684.3875
330.08145	12542.4875
334.28114	12560.1875
338.47781	12627.9875
342.67145	12779.8875
346.86207	12943.2875
351.04966	13131.0875
355.23424	13290.6875
359.4158	13406.4875
363.59435	13492.1875
367.76989	13595.2875
371.94243	13634.4875
376.11196	13666.5875
380.27849	13679.2875
384.44203	13744.0875
388.60257	13845.7875
392.76012	13978.7875
396.91468	14178.5875
401.06626	14376.8875
405.21485	14494.0875
409.36047	14509.7875
413.50311	14402.9875
417.64277	14315.4875
421.77947	14300.4875
425.9132	14364.2875
430.04396	14383.7875
434.17176	14480.3875
438.2966	14550.9875
442.41849	14640.9875
446.53742	14813.0875
450.6534	15070.3875
454.76644	15252.1875
458.87653	15356.0875
462.98368	15354.7875
467.08789	15374.6875
471.18916	15366.9875
475.2875	15370.5875
479.38291	15356.4875
483.4754	15276.2875
487.56496	15081.7875
491.6516	14888.8875
495.73531	14767.3875
499.81612	14688.8875
503.89401	14783.3875
507.96899	14869.9875
512.04106	14888.4875
516.11023	14912.7875
520.1765	14876.6875
524.23987	14791.0875
528.30034	14679.2875
532.35792	14546.7875
536.41261	14457.4875
540.46441	14376.8875
544.51333	14405.1875
548.55936	14570.1875
552.60252	14805.8875
556.64279	15047.0875
560.6802	15155.0875
564.71473	15230.9875
568.7464	15405.1875
572.7752	15717.3875
576.80114	16058.7875
580.82422	16408.0875
584.84444	16680.9875
588.86181	16863.7875
592.87633	16892.3875
596.888	16768.8875
600.89682	16512.8875
604.9028	16514.5875
608.90594	17113.0875
612.90624	17817.3875
616.90371	16996.9875
620.89834	15300.0875
624.89015	14510.4875
628.87913	14424.9875
632.86528	14529.6875
636.84862	14588.3875
640.82913	14546.8875
644.80683	14351.3875
648.78172	14214.0875
652.75379	14147.9875
656.72306	14249.5875
660.68952	14333.2875
664.65319	14336.8875
668.61405	14243.6875
672.57211	14256.1875
676.52738	14271.8875
680.47986	14308.7875
684.42955	14272.6875
688.37646	14211.5875
692.32058	14232.7875
696.26192	14312.3875
700.20048	14431.2875
704.13626	14549.2875
708.06928	14630.3875
711.99952	14595.5875
715.927	14620.3875
719.85171	14549.6875
723.77365	14462.3875
727.69284	14328.1875
731.60928	14174.0875
735.52295	14130.8875
739.43388	14142.4875
743.34206	14177.1875
747.24749	14189.0875
751.15017	14252.1875
755.05012	14456.9875
758.94733	14733.1875
762.8418	15226.0875
766.73354	16012.5875
770.62254	16713.3875
774.50882	16820.9875
778.39237	16232.2875
782.27321	15418.3875
786.15132	14765.5875
790.02671	14359.2875
793.89938	14144.6875
797.76935	14078.6875
801.6366	14041.8875
805.50115	14040.1875
809.36299	13941.1875
813.22213	13910.9875
817.07857	13921.9875
820.93231	13897.7875
824.78336	13906.3875
828.63172	13870.5875
832.47738	13856.6875
836.32036	13857.2875
840.16066	13858.9875
843.99827	13840.7875
847.8332	13787.2875
851.66546	13759.4875
855.49504	13761.7875
859.32195	13766.9875
863.1462	13767.1875
866.96777	13752.0875
870.78668	13755.2875
874.60293	13750.0875
878.41652	13740.0875
882.22745	13805.9875
886.03573	13830.2875
889.84136	13841.1875
893.64433	13832.9875
897.44466	13826.2875
901.24235	13787.2875
905.0374	13761.5875
908.8298	13735.6875
912.61957	13758.6875
916.40671	13886.8875
920.19121	13986.7875
923.97308	14054.1875
927.75233	14002.7875
931.52895	13928.5875
935.30295	13765.7875
939.07433	13592.0875
942.84309	13443.3875
946.60924	13379.5875
950.37278	13304.7875
954.13371	13283.4875
957.89203	13242.5875
961.64774	13282.4875
965.40086	13254.7875
969.15137	13227.4875
972.89929	13174.3875
976.64461	13118.5875
980.38733	13104.6875
984.12747	13096.1875
987.86502	13108.9875
991.59999	13150.1875
995.33237	13201.6875
999.06217	13285.3875
1002.78939	13417.8875
1006.51404	13539.1875
1010.23611	13732.6875
1013.95561	13859.3875
1017.67255	13857.5875
1021.38692	13822.4875
1025.09872	13667.2875
1028.80796	13610.0875
1032.51465	13522.0875
1036.21877	13556.7875
1039.92035	13629.1875
1043.61937	13715.5875
1047.31584	13805.6875
1051.00976	13907.9875
1054.70114	14058.2875
1058.38998	14227.8875
1062.07627	14502.5875
1065.76003	14937.7875
1069.44126	15296.7875
1073.11995	15639.7875
1076.79611	15728.6875
1080.46974	15517.8875
1084.14085	15214.1875
1087.80943	14966.4875
1091.47549	14853.7875
1095.13903	14813.2875
1098.80005	14710.9875
1102.45857	14428.6875
1106.11456	14171.0875
1109.76805	13996.2875
1113.41903	13935.3875
1117.06751	13981.4875
1120.71348	14074.6875
1124.35696	14220.2875
1127.99793	14410.5875
1131.63641	14585.7875
1135.2724	14536.2875
1138.90589	14423.7875
1142.5369	14394.0875
1146.16542	14384.4875
1149.79145	14448.6875
1153.415	14555.8875
1157.03607	14659.9875
1160.65467	14899.6875
1164.27079	15307.4875
1167.88443	15827.8875
1171.49561	16484.9875
1175.10432	17319.1875
1178.71056	18266.2875
1182.31434	19181.7875
1185.91565	19608.1875
1189.51451	19701.8875
1193.11091	19419.3875
1196.70485	18848.3875
1200.29634	18215.4875
1203.88538	17732.4875
1207.47197	17447.3875
1211.05612	17187.8875
1214.63782	16913.1875
1218.21708	16565.7875
1221.79391	16164.2875
1225.36829	15879.0875
1228.94024	15746.2875
1232.50976	15671.8875
1236.07685	15647.4875
1239.6415	15627.3875
1243.20374	15629.1875
1246.76355	15689.8875
1250.32093	15844.6875
1253.8759	16053.6875
1257.42845	16348.3875
1260.97859	16638.2875
1264.52631	16950.5875
1268.07163	17244.0875
1271.61453	17514.0875
1275.15503	17847.0875
1278.69312	18261.0875
1282.22882	18523.7875
1285.76211	18848.3875
1289.29301	19381.6875
1292.82151	20006.9875
1296.34761	20737.8875
1299.87133	21510.8875
1303.39266	22220.1875
1306.9116	22915.5875
1310.42815	23485.2875
1313.94233	23785.2875
1317.45412	23784.5875
1320.96354	23631.5875
1324.47058	23565.0875
1327.97525	23545.6875
1331.47754	23545.9875
1334.97747	23576.2875
1338.47502	23605.8875
1341.97022	23732.6875
1345.46305	23827.5875
1348.95352	23786.5875
1352.44163	23744.9875
1355.92738	23809.8875
1359.41078	24104.5875
1362.89183	24377.0875
1366.37053	24009.9875
1369.84688	22726.2875
1373.32088	21050.4875
1376.79254	19832.3875
1380.26186	19254.1875
1383.72883	19089.7875
1387.19347	18970.7875
1390.65578	18819.8875
1394.11575	18728.7875
1397.57339	18644.7875
1401.0287	18648.7875
1404.48168	18626.8875
1407.93234	18477.4875
1411.38068	18137.2875
1414.82669	17692.4875
1418.27039	17078.5875
1421.71177	16571.8875
1425.15083	16129.0875
1428.58758	15923.9875
1432.02203	15964.3875
1435.45416	16185.8875
1438.88399	16406.6875
1442.31151	16657.5875
1445.73673	16782.2875
1449.15965	16955.3875
1452.58027	17140.9875
1455.9986	17257.2875
1459.41463	17476.7875
1462.82837	17696.4875
1466.23982	17979.3875
1469.64898	18195.3875
1473.05586	18302.3875
1476.46045	18411.7875
1479.86276	18435.7875
1483.26279	18351.6875
1486.66054	18371.2875
1490.05602	18475.4875
1493.44922	18745.9875
1496.84016	19164.9875
1500.22882	19702.5875
1503.61521	20442.0875
1506.99934	21158.5875
1510.38121	21617.4875
1513.76081	21677.8875
1517.13816	21272.9875
1520.51324	20653.4875
1523.88607	20200.8875
1527.25665	19927.9875
1530.62498	19784.1875
1533.99105	19641.1875
1537.35488	19378.0875
1540.71647	19049.1875
1544.07581	18598.5875
1547.4329	18226.2875
1550.78776	17861.4875
1554.14038	17661.2875
1557.49077	17510.6875
1560.83892	17527.8875
1564.18484	17615.5875
1567.52853	17841.3875
1570.86999	18186.8875
1574.20922	18700.3875
1577.54624	19249.6875
1580.88103	19538.7875
1584.2136	19466.6875
1587.54395	19242.6875
1590.87208	19073.4875
1594.19801	19259.4875
1597.52172	19610.0875
1600.84321	19723.0875
1604.16251	19163.6875
1607.47959	18321.3875
1610.79447	17345.0875
1614.10715	16415.1875
1617.41763	15557.8875
1620.7259	14922.3875
1624.03199	14529.3875
1627.33587	14425.2875
1630.63757	14582.3875
1633.93707	15065.1875
1637.23439	15951.0875
1640.52951	17292.3875
1643.82246	18917.6875
1647.11321	20373.7875
1650.40179	20967.5875
1653.68819	20254.6875
1656.97241	18634.5875
1660.25446	16704.5875
1663.53433	15203.2875
1666.81203	14071.5875
1670.08756	13329.9875
1673.36092	12860.6875
1676.63211	12510.7875
1679.90115	12329.0875
1683.16801	12136.0875
1686.43272	12040.0875
1689.69527	11949.7875
1692.95567	11884.5875
1696.2139	11836.7875
1699.46999	11855.2875
1702.72392	11799.6875
1705.97571	11759.6875
1709.22535	11717.4875
1712.47284	11682.0875
1715.71819	11643.3875
1718.96139	11591.2875
1722.20246	11594.7875
1725.44139	11548.1875
1728.67818	11481.3875
1731.91284	11441.5875
1735.14537	11417.9875
1738.37576	11363.5875
1741.60403	11336.6875
1744.83017	11335.0875
1748.05418	11315.7875
1751.27607	11284.4875
1754.49584	11269.6875
1757.71349	11285.8875
1760.92903	11281.4875
1764.14244	11237.4875
1767.35375	11248.7875
1770.56294	11233.7875
1773.77002	11168.0875
1776.97499	11167.2875
1780.17785	11125.8875
1783.37861	11123.8875
1786.57727	11063.2875
1789.77382	11046.3875
1792.96828	11016.0875
1796.16064	11013.0875
1799.3509	10985.0875
1802.53907	10944.7875
1805.72514	10933.1875
1808.90913	10869.9875
1812.09102	10868.4875
1815.27083	10864.2875
1818.44856	10854.8875
1821.6242	10816.1875
1824.79776	10804.1875
1827.96924	10801.7875
1831.13864	10777.7875
1834.30597	10782.8875
1837.47122	10781.8875
1840.6344	10787.0875
1843.7955	10781.7875
1846.95454	10760.8875
1850.11151	10749.3875
1853.26642	10737.9875
1856.41926	10744.1875
1859.57004	10716.5875
1862.71876	10720.4875
1865.86542	10707.1875
1869.01003	10685.2875
1872.15258	10662.7875
1875.29308	10658.2875
1878.43152	10620.4875
1881.56792	10615.8875
1884.70227	10608.9875
1887.83457	10571.1875
1890.96482	10556.2875
1894.09304	10524.1875
1897.21921	10551.0875
1900.34335	10532.8875
1903.46544	10481.7875
1906.58551	10464.0875
1909.70353	10465.9875
1912.81953	10443.8875
1915.93349	10436.2875
1919.04543	10413.4875
1922.15534	10383.5875
1925.26322	10353.4875
1928.36908	10353.1875
1931.47292	10346.4875
1934.57473	10285.0875
1937.67453	10280.3875
1940.77232	10263.1875
1943.86808	10236.7875
1946.96184	10206.4875
1950.05358	10177.5875
1953.14331	10142.1875
1956.23103	10114.7875
1959.31675	10094.3875
1962.40046	10049.8875
1965.48217	10036.1875
1968.56188	10029.8875
1971.63959	9958.4875
1974.7153	9943.1875
1977.78901	9898.1875
1980.86073	9866.4875
1983.93046	9838.9875
1986.99819	9823.6875
1990.06394	9780.7875
1993.1277	9756.0875
1996.18947	9728.8875
1999.24925	9698.1875
2002.30706	9671.6875
2005.36288	9631.6875
2008.41672	9614.6875
2011.46859	9578.6875
2014.51848	9559.6875
2017.56639	9538.9875
2020.61233	9500.1875
2023.6563	9487.9875
2026.6983	9472.0875
2029.73833	9408.8875
2032.7764	9425.9875
2035.8125	9364.7875
2038.84664	9354.2875
2041.87881	9363.0875
2044.90903	9349.4875
2047.93729	9324.9875
2050.96359	9282.5875
2053.98794	9296.4875
2057.01034	9284.0875
2060.03078	9265.4875
2063.04927	9256.9875
2066.06582	9229.8875
2069.08042	9254.5875
2072.09307	9235.3875
2075.10378	9239.4875
2078.11255	9217.0875
2081.11938	9216.3875
2084.12426	9211.2875
2087.12722	9216.2875
2090.12824	9208.1875
2093.12732	9198.8875
2096.12447	9215.8875
2099.11969	9217.3875
2102.11299	9207.4875
2105.10435	9213.9875
2108.09379	9194.4875
2111.08131	9216.7875
2114.0669	9200.9875
2117.05057	9205.6875
2120.03233	9234.3875
2123.01216	9231.3875
2125.99008	9245.3875
2128.96609	9243.9875
2131.94018	9250.2875
2134.91236	9254.2875
2137.88263	9243.4875
2140.851	9264.0875
2143.81746	9262.8875
2146.78201	9267.7875
2149.74466	9249.8875
2152.7054	9263.1875
2155.66425	9271.7875
2158.6212	9265.2875
2161.57625	9272.1875
2164.52941	9261.9875
2167.48067	9240.5875
2170.43004	9232.5875
2173.37752	9249.9875
2176.32311	9238.0875
2179.26681	9237.7875
2182.20863	9224.6875
2185.14856	9213.2875
2188.08661	9190.3875
2191.02278	9214.8875
2193.95707	9181.7875
2196.88948	9200.6875
2199.82001	9178.3875
2202.74867	9176.0875
2205.67545	9173.1875
2208.60037	9173.9875
2211.52341	9134.6875
2214.44458	9117.9875
2217.36388	9080.7875
2220.28132	9084.0875
2223.1969	9050.1875
2226.11061	9039.5875
2229.02246	9024.3875
2231.93245	9001.2875
2234.84058	8989.0875
2237.74686	8990.5875
2240.65128	8978.4875
2243.55385	8969.1875
2246.45456	8915.3875
2249.35343	8925.2875
2252.25044	8905.1875
2255.14561	8897.0875
2258.03893	8896.9875
2260.93041	8862.3875
2263.82004	8834.8875
2266.70783	8831.5875
2269.59378	8812.5875
2272.4779	8785.4875
2275.36017	8750.6875
2278.24061	8749.8875
2281.11922	8706.0875
2283.996	8696.8875
2286.87094	8691.3875
2289.74405	8670.2875
2292.61534	8642.9875
2295.4848	8654.0875
2298.35243	8637.4875
2301.21824	8623.9875
2304.08223	8610.2875
2306.94439	8621.7875
2309.80474	8611.1875
2312.66327	8608.3875
2315.51999	8583.7875
2318.37489	8594.9875
2321.22797	8566.6875
2324.07925	8566.6875
2326.92871	8535.1875
2329.77637	8509.7875
2332.62222	8529.6875
2335.46626	8485.2875
2338.3085	8495.6875
2341.14893	8475.0875
2343.98756	8453.1875
2346.8244	8477.4875
2349.65943	8428.2875
2352.49267	8432.0875
2355.32411	8458.9875
2358.15376	8417.0875
2360.98161	8402.3875
2363.80768	8414.0875
2366.63195	8427.3875
2369.45444	8401.6875
2372.27514	8400.6875
2375.09405	8405.7875
2377.91118	8387.9875
2380.72652	8369.2875
2383.54009	8347.3875
2386.35187	8332.9875
2389.16188	8288.1875
2391.97011	8277.1875
2394.77657	8277.8875
2397.58125	8249.5875
2400.38416	8245.7875
2403.18529	8218.8875
2405.98466	8237.4875
2408.78226	8216.5875
2411.57809	8199.4875
2414.37216	8182.1875
2417.16446	8168.4875
2419.955	8129.9875
2422.74378	8141.1875
2425.5308	8142.1875
2428.31606	8127.3875
2431.09956	8118.4875
2433.88131	8103.0875
2436.6613	8092.0875
2439.43954	8099.8875
2442.21603	8095.7875
2444.99077	8077.5875
2447.76377	8067.1875
2450.53501	8078.4875
2453.30451	8061.6875
2456.07226	8047.1875
2458.83827	8047.8875
2461.60254	8016.6875
2464.36507	7988.8875
2467.12586	8019.6875
2469.88492	8026.9875
2472.64224	7994.5875
2475.39782	8000.3875
2478.15167	7991.8875
2480.90379	7962.0875
2483.65417	7984.4875
2486.40283	7954.0875
2489.14976	7967.0875
2491.89497	7960.1875
2494.63845	7968.7875
2497.3802	7954.8875
2500.12024	7946.3875
2502.85855	7943.2875
2505.59514	7939.7875
2508.33002	7921.3875
2511.06318	7903.1875
2513.79462	7888.8875
2516.52435	7892.2875
2519.25237	7889.7875
2521.97867	7895.5875
2524.70327	7849.0875
2527.42616	7860.3875
2530.14734	7847.2875
2532.86681	7828.6875
2535.58458	7803.8875
2538.30065	7793.5875
2541.01501	7814.9875
2543.72768	7777.3875
2546.43864	7781.4875
2549.14791	7747.6875
2551.85548	7746.3875
2554.56136	7708.9875
2557.26554	7719.0875
2559.96803	7702.8875
2562.66883	7677.9875
2565.36794	7670.5875
2568.06536	7660.2875
2570.7611	7661.7875
2573.45514	7649.3875
2576.14751	7651.8875
2578.83819	7609.1875
2581.52719	7609.7875
2584.21451	7595.1875
2586.90015	7590.5875
2589.58411	7582.1875
2592.2664	7537.1875
2594.94701	7537.4875
2597.62594	7534.0875
2600.30321	7503.7875
2602.9788	7504.1875
2605.65273	7482.6875
2608.32498	7473.5875
2610.99557	7463.2875
2613.66449	7465.7875
2616.33175	7447.2875
2618.99734	7423.6875
2621.66128	7416.5875
2624.32355	7432.5875
2626.98416	7406.7875
2629.64311	7407.0875
2632.30041	7403.3875
2634.95605	7390.6875
2637.61004	7378.2875
2640.26238	7352.0875
2642.91306	7365.8875
2645.56209	7335.5875
2648.20948	7335.8875
2650.85521	7338.1875
2653.4993	7319.4875
2656.14175	7345.0875
2658.78255	7340.9875
2661.42171	7334.6875
2664.05923	7342.8875
2666.6951	7335.9875
2669.32934	7327.4875
2671.96194	7324.9875
2674.59291	7305.1875
2677.22224	7305.0875
2679.84993	7336.7875
2682.476	7312.8875
2685.10043	7309.7875
2687.72324	7308.4875
2690.34441	7311.0875
2692.96396	7326.9875
2695.58188	7310.3875
2698.19818	7297.1875
2700.81285	7319.1875
2703.4259	7325.1875
2706.03733	7390.6875
2708.64714	7345.4875
2711.25533	7341.2875
2713.86191	7310.3875
2716.46687	7317.4875
2719.07021	7312.0875
2721.67194	7310.4875
2724.27206	7306.2875
2726.87057	7316.8875
2729.46747	7309.1875
2732.06276	7306.5875
2734.65644	7297.9875
2737.24852	7293.6875
2739.83899	7269.3875
2742.42786	7272.1875
2745.01513	7254.9875
2747.60079	7271.3875
2750.18486	7228.0875
2752.76733	7228.7875
2755.3482	7216.1875
2757.92747	7216.6875
2760.50515	7220.7875
2763.08123	7211.3875
2765.65573	7198.9875
2768.22863	7198.0875
2770.79994	7188.8875
2773.36967	7183.7875
2775.9378	7159.2875
2778.50435	7139.4875
2781.06932	7122.7875
2783.6327	7155.3875
2786.1945	7120.4875
2788.75471	7117.9875
2791.31335	7117.5875
2793.87041	7101.5875
2796.42589	7087.8875
2798.97979	7058.4875
2801.53212	7061.7875
2804.08288	7048.6875
2806.63206	7019.3875
2809.17967	7011.0875
2811.72571	6980.9875
2814.27018	6996.6875
2816.81308	6974.4875
2819.35442	6975.1875
2821.89419	6937.5875
2824.43239	6946.2875
2826.96904	6924.6875
2829.50412	6929.0875
2832.03763	6939.0875
2834.56959	6918.4875
2837.1	6930.1875
2839.62884	6927.0875
2842.15613	6936.4875
2844.68186	6958.0875
2847.20604	6973.7875
2849.72867	6966.2875
2852.24974	6975.9875
2854.76927	6968.2875
2857.28724	6971.5875
2859.80367	6939.7875
2862.31855	6934.9875
2864.83189	6907.4875
2867.34368	6901.8875
2869.85393	6892.5875
2872.36264	6889.9875
2874.8698	6885.3875
2877.37543	6902.7875
2879.87952	6898.0875
2882.38207	6893.4875
2884.88308	6872.7875
2887.38256	6868.0875
2889.88051	6862.2875
2892.37692	6874.0875
2894.8718	6857.4875
2897.36515	6872.7875
2899.85698	6863.8875
2902.34727	6886.5875
2904.83604	6885.1875
2907.32328	6897.9875
2909.809	6885.4875
2912.29319	6883.3875
2914.77587	6876.6875
2917.25702	6873.7875
2919.73665	6863.0875
2922.21476	6876.3875
2924.69136	6865.3875
2927.16644	6848.3875
2929.64	6852.9875
2932.11205	6868.5875
2934.58258	6838.2875
2937.05161	6852.0875
2939.51912	6842.8875
2941.98513	6819.4875
2944.44962	6820.8875
2946.91261	6781.0875
2949.37409	6782.8875
2951.83407	6771.2875
2954.29254	6756.8875
2956.74951	6762.9875
2959.20498	6743.0875
2961.65895	6716.9875
2964.11142	6726.7875
2966.56239	6705.3875
2969.01186	6696.8875
2971.45984	6677.9875
2973.90632	6671.7875
2976.35131	6638.1875
2978.7948	6635.2875
2981.23681	6630.0875
2983.67732	6600.2875
2986.11635	6603.5875
2988.55388	6569.0875
2990.98993	6559.0875
2993.4245	6539.5875
2995.85758	6540.2875
2998.28917	6536.0875
3000.71928	6508.8875
3003.14791	6507.7875
3005.57506	6511.4875
3008.00073	6479.7875
3010.42493	6483.2875
3012.84764	6478.8875
3015.26888	6448.2875
3017.68865	6450.6875
3020.10694	6453.0875
3022.52376	6416.2875
3024.9391	6418.3875
3027.35298	6398.5875
3029.76539	6409.3875
3032.17632	6403.4875
3034.5858	6385.8875
3036.9938	6397.6875
3039.40034	6378.1875
3041.80542	6376.3875
3044.20903	6369.9875
3046.61118	6364.5875
3049.01187	6343.5875
3051.4111	6341.0875
3053.80888	6344.9875
3056.20519	6337.7875
3058.60005	6306.7875
3060.99345	6304.0875
3063.3854	6314.9875
3065.7759	6264.2875
3068.16494	6276.7875
3070.55254	6262.7875
