Data from AgNP_FTO_APTES_CRN_0uM_R6G_10uM_NaF_0.1M_Addition_RamanShift__70__12-51-22-985.txt Node

Date: Wed Dec 15 12:51:22 GMT 2021
User: TCL
Spectrometer: QEP01345
Trigger mode: 4
Integration Time (sec): 7.000000E0
Scans to average: 10
Electric dark correction enabled: true
Nonlinearity correction enabled: false
Boxcar width: 0
XAxis mode: Raman Shifts
Number of Pixels in Spectrum: 1044
>>>>>Begin Spectral Data<<<<<
46.04893	-0.625
50.45542	-1.025
54.85868	-1.325
59.25871	-1.225
63.6555	134.375
68.04907	145.375
72.43941	148.475
76.82654	159.675
81.21044	165.075
85.59113	173.275
89.96862	178.175
94.34289	180.875
98.71396	188.975
103.08183	195.875
107.4465	202.675
111.80798	202.075
116.16626	209.175
120.52136	211.875
124.87327	217.475
129.222	229.175
133.56755	239.975
137.90993	252.575
142.24913	273.375
146.58517	298.075
150.91804	335.575
155.24774	395.575
159.57429	479.475
163.89768	602.775
168.21792	789.175
172.53501	1048.875
176.84895	1454.375
181.15975	2012.975
185.46741	2804.775
189.77193	3849.275
194.07331	5152.475
198.37157	6607.975
202.6667	8177.775
206.9587	9711.975
211.24758	11217.175
215.53334	12787.475
219.81599	14445.475
224.09553	16355.575
228.37195	18464.375
232.64527	20761.475
236.91549	23116.175
241.18261	25390.475
245.44663	27374.575
249.70755	29136.975
253.96539	30604.975
258.22014	31864.275
262.4718	33002.075
266.72039	33955.875
270.96589	34469.575
275.20832	34580.875
279.44768	34358.675
283.68397	33978.775
287.91719	33711.775
292.14735	33588.975
296.37445	33717.575
300.59849	34281.075
304.81948	35009.675
309.03742	35586.575
313.25231	35504.475
317.46415	34452.775
321.67296	32765.375
325.87872	31403.275
330.08145	30825.375
334.28114	30816.375
338.47781	31237.175
342.67145	31884.975
346.86207	32852.575
351.04966	34150.175
355.23424	35669.475
359.4158	36959.375
363.59435	37643.175
367.76989	37936.675
371.94243	38006.475
376.11196	37982.675
380.27849	37965.975
384.44203	37911.475
388.60257	37794.275
392.76012	37895.175
396.91468	38356.475
401.06626	39248.775
405.21485	40070.675
409.36047	39904.875
413.50311	38818.475
417.64277	37858.275
421.77947	37416.975
425.9132	37408.375
430.04396	37519.075
434.17176	37797.575
438.2966	38262.475
442.41849	39104.075
446.53742	40282.975
450.6534	41564.775
454.76644	42622.775
458.87653	43018.275
462.98368	42808.875
467.08789	42071.775
471.18916	41032.575
475.2875	39907.875
479.38291	39027.775
483.4754	38471.575
487.56496	38018.075
491.6516	37548.175
495.73531	37250.175
499.81612	37215.675
503.89401	37457.675
507.96899	37626.175
512.04106	37907.075
516.11023	38130.975
520.1765	38365.775
524.23987	38301.775
528.30034	37953.475
532.35792	37401.175
536.41261	36804.475
540.46441	36188.175
544.51333	35935.575
548.55936	36149.075
552.60252	36806.275
556.64279	37476.975
560.6802	37837.475
564.71473	38156.575
568.7464	39102.675
572.7752	40022.075
576.80114	39988.875
580.82422	39804.775
584.84444	39948.275
588.86181	40241.075
592.87633	40787.775
596.888	41637.575
600.89682	42829.675
604.9028	46012.075
608.90594	53573.675
612.90624	61967.075
616.90371	58782.075
620.89834	46068.075
624.89015	40219.975
628.87913	39192.775
632.86528	39003.675
636.84862	38817.275
640.82913	37991.075
644.80683	36739.075
648.78172	35956.775
652.75379	36048.775
656.72306	37067.075
660.68952	38341.175
664.65319	38184.175
668.61405	37114.075
672.57211	36508.775
676.52738	36476.975
680.47986	36465.675
684.42955	36323.175
688.37646	36231.075
692.32058	36426.275
696.26192	36705.475
700.20048	37135.975
704.13626	37444.975
708.06928	37285.175
711.99952	36992.075
715.927	36852.375
719.85171	36910.375
723.77365	36664.275
727.69284	36298.275
731.60928	35961.075
735.52295	36001.875
739.43388	36191.975
743.34206	36415.675
747.24749	36739.875
751.15017	37184.975
755.05012	37926.975
758.94733	39250.975
762.8418	41943.775
766.73354	46317.075
770.62254	50712.675
774.50882	52380.175
778.39237	50043.775
782.27321	45237.875
786.15132	40905.475
790.02671	38380.075
793.89938	37189.775
797.76935	36774.975
801.6366	36581.775
805.50115	36416.675
809.36299	36120.475
813.22213	36003.275
817.07857	35963.375
820.93231	35993.875
824.78336	36087.275
828.63172	36255.475
832.47738	36417.475
836.32036	36468.375
840.16066	36607.775
843.99827	36635.675
847.8332	36510.075
851.66546	36330.975
855.49504	36229.475
859.32195	36140.075
863.1462	35917.275
866.96777	35668.175
870.78668	35632.375
874.60293	35653.775
878.41652	35712.675
882.22745	35902.875
886.03573	36064.575
889.84136	36020.975
893.64433	35785.475
897.44466	35657.575
901.24235	35691.975
905.0374	35629.975
908.8298	35614.775
912.61957	35677.375
916.40671	36002.275
920.19121	36446.475
923.97308	36980.575
927.75233	37456.675
931.52895	37538.775
935.30295	37039.975
939.07433	36293.175
942.84309	35688.475
946.60924	35415.275
950.37278	35242.075
954.13371	34936.275
957.89203	34690.075
961.64774	34501.875
965.40086	34418.875
969.15137	34275.975
972.89929	34146.875
976.64461	34185.675
980.38733	34294.775
984.12747	34476.775
987.86502	34828.875
991.59999	35287.275
995.33237	36072.375
999.06217	37380.975
1002.78939	38987.475
1006.51404	40298.675
1010.23611	41116.175
1013.95561	41616.875
1017.67255	41500.775
1021.38692	40924.075
1025.09872	40591.475
1028.80796	41155.175
1032.51465	42636.275
1036.21877	43905.375
1039.92035	44044.375
1043.61937	43146.175
1047.31584	41553.375
1051.00976	40064.675
1054.70114	39021.875
1058.38998	38713.875
1062.07627	38762.075
1065.76003	39007.375
1069.44126	39420.575
1073.11995	40063.575
1076.79611	40659.975
1080.46974	41044.675
1084.14085	41354.875
1087.80943	41723.475
1091.47549	41591.175
1095.13903	40889.775
1098.80005	39897.475
1102.45857	38963.475
1106.11456	38505.575
1109.76805	38516.975
1113.41903	38977.675
1117.06751	39531.875
1120.71348	40299.275
1124.35696	41127.075
1127.99793	41886.875
1131.63641	41978.275
1135.2724	41271.175
1138.90589	40363.275
1142.5369	39710.975
1146.16542	39294.975
1149.79145	39053.575
1153.415	39189.575
1157.03607	39637.975
1160.65467	40308.775
1164.27079	41513.575
1167.88443	43439.075
1171.49561	46220.275
1175.10432	50655.475
1178.71056	56279.075
1182.31434	61092.975
1185.91565	63430.875
1189.51451	63016.075
1193.11091	60330.475
1196.70485	56470.575
1200.29634	53135.675
1203.88538	50708.675
1207.47197	48543.275
1211.05612	46857.075
1214.63782	46070.475
1218.21708	46095.575
1221.79391	46479.775
1225.36829	46830.975
1228.94024	46870.475
1232.50976	46586.075
1236.07685	46339.175
1239.6415	46196.475
1243.20374	46172.975
1246.76355	46265.675
1250.32093	46928.575
1253.8759	48114.275
1257.42845	49631.375
1260.97859	50998.775
1264.52631	52109.575
1268.07163	53219.775
1271.61453	54535.875
1275.15503	55938.075
1278.69312	57371.175
1282.22882	58596.375
1285.76211	60036.575
1289.29301	61422.575
1292.82151	62911.075
1296.34761	64587.175
1299.87133	67080.875
1303.39266	70912.075
1306.9116	76531.175
1310.42815	82908.275
1313.94233	87290.875
1317.45412	87393.675
1320.96354	84252.875
1324.47058	80203.275
1327.97525	76793.475
1331.47754	74717.075
1334.97747	74159.275
1338.47502	74623.775
1341.97022	75374.775
1345.46305	75790.175
1348.95352	76020.375
1352.44163	77106.775
1355.92738	80273.375
1359.41078	86671.275
1362.89183	93369.875
1366.37053	92313.175
1369.84688	82724.675
1373.32088	72055.875
1376.79254	64801.175
1380.26186	61137.775
1383.72883	59440.575
1387.19347	58208.975
1390.65578	56932.275
1394.11575	56193.275
1397.57339	56371.175
1401.0287	57220.575
1404.48168	58549.275
1407.93234	60093.075
1411.38068	61306.675
1414.82669	61408.875
1418.27039	59859.975
1421.71177	57773.975
1425.15083	55945.375
1428.58758	55027.375
1432.02203	54961.975
1435.45416	55370.375
1438.88399	55767.575
1442.31151	56048.675
1445.73673	56366.875
1449.15965	56828.675
1452.58027	56693.575
1455.9986	56241.975
1459.41463	56007.375
1462.82837	56344.075
1466.23982	57304.475
1469.64898	58402.275
1473.05586	59144.875
1476.46045	59678.075
1479.86276	60498.675
1483.26279	61389.075
1486.66054	62437.875
1490.05602	63715.875
1493.44922	65216.475
1496.84016	66788.075
1500.22882	68729.175
1503.61521	71564.775
1506.99934	75242.875
1510.38121	79401.775
1513.76081	81781.475
1517.13816	80439.175
1520.51324	75343.375
1523.88607	69622.075
1527.25665	65390.275
1530.62498	62784.575
1533.99105	61163.375
1537.35488	60143.075
1540.71647	59566.875
1544.07581	59151.675
1547.4329	58522.075
1550.78776	57796.375
1554.14038	57217.375
1557.49077	57158.475
1560.83892	57324.175
1564.18484	57688.475
1567.52853	57865.475
1570.86999	58177.775
1574.20922	58722.075
1577.54624	59152.175
1580.88103	58671.375
1584.2136	57834.475
1587.54395	58139.575
1590.87208	60346.375
1594.19801	64307.175
1597.52172	69039.075
1600.84321	71211.775
1604.16251	68970.775
1607.47959	63854.775
1610.79447	57916.075
1614.10715	52771.275
1617.41763	48910.875
1620.7259	46584.875
1624.03199	45546.775
1627.33587	45796.375
1630.63757	47153.375
1633.93707	49682.075
1637.23439	53288.275
1640.52951	57578.775
1643.82246	62161.675
1647.11321	66051.775
1650.40179	67620.575
1653.68819	64786.875
1656.97241	57732.375
1660.25446	50139.975
1663.53433	44468.075
1666.81203	40967.175
1670.08756	38850.175
1673.36092	37543.575
1676.63211	36673.975
1679.90115	36064.175
1683.16801	35592.975
1686.43272	35281.475
1689.69527	35096.475
1692.95567	34935.475
1696.2139	34817.075
1699.46999	34701.975
1702.72392	34700.575
1705.97571	34656.475
1709.22535	34672.275
1712.47284	34638.175
1715.71819	34637.475
1718.96139	34625.875
1722.20246	34529.675
1725.44139	34462.975
1728.67818	34255.075
1731.91284	34057.075
1735.14537	33861.575
1738.37576	33734.575
1741.60403	33632.675
1744.83017	33535.375
1748.05418	33461.775
1751.27607	33412.175
1754.49584	33349.375
1757.71349	33330.875
1760.92903	33338.275
1764.14244	33279.175
1767.35375	33241.175
1770.56294	33220.375
1773.77002	33226.375
1776.97499	33226.175
1780.17785	33168.475
1783.37861	33163.875
1786.57727	33103.075
1789.77382	33061.475
1792.96828	33065.275
1796.16064	33046.275
1799.3509	33001.975
1802.53907	32994.575
1805.72514	32922.475
1808.90913	32823.675
1812.09102	32778.875
1815.27083	32738.775
1818.44856	32690.675
1821.6242	32630.075
1824.79776	32602.775
1827.96924	32611.475
1831.13864	32573.975
1834.30597	32575.675
1837.47122	32606.375
1840.6344	32586.275
1843.7955	32595.575
1846.95454	32589.975
1850.11151	32601.075
1853.26642	32582.675
1856.41926	32640.375
1859.57004	32661.075
1862.71876	32590.575
1865.86542	32630.875
1869.01003	32634.175
1872.15258	32697.475
1875.29308	32688.875
1878.43152	32739.375
1881.56792	32699.375
1884.70227	32739.275
1887.83457	32773.175
1890.96482	32766.075
1894.09304	32737.375
1897.21921	32694.175
1900.34335	32764.775
1903.46544	32737.675
1906.58551	32773.975
1909.70353	32751.375
1912.81953	32760.075
1915.93349	32702.275
1919.04543	32645.475
1922.15534	32667.175
1925.26322	32581.875
1928.36908	32473.475
1931.47292	32416.575
1934.57473	32296.875
1937.67453	32214.775
1940.77232	32093.175
1943.86808	31966.975
1946.96184	31797.575
1950.05358	31692.075
1953.14331	31578.875
1956.23103	31459.675
1959.31675	31410.275
1962.40046	31358.475
1965.48217	31287.375
1968.56188	31148.375
1971.63959	31070.575
1974.7153	31003.675
1977.78901	30851.375
1980.86073	30759.975
1983.93046	30632.975
1986.99819	30558.275
1990.06394	30474.675
1993.1277	30391.175
1996.18947	30296.575
1999.24925	30231.875
2002.30706	30114.475
2005.36288	30094.575
2008.41672	30002.375
2011.46859	29926.075
2014.51848	29872.875
2017.56639	29762.575
2020.61233	29677.375
2023.6563	29606.675
2026.6983	29534.275
2029.73833	29499.275
2032.7764	29469.375
2035.8125	29404.075
2038.84664	29369.775
2041.87881	29351.375
2044.90903	29318.675
2047.93729	29260.075
2050.96359	29199.775
2053.98794	29163.775
2057.01034	29137.875
2060.03078	29104.275
2063.04927	29020.675
2066.06582	29064.875
2069.08042	29024.175
2072.09307	29029.275
2075.10378	28934.075
2078.11255	28922.075
2081.11938	28951.275
2084.12426	28896.775
2087.12722	28853.575
2090.12824	28822.475
2093.12732	28851.875
2096.12447	28803.975
2099.11969	28822.975
2102.11299	28811.875
2105.10435	28785.875
2108.09379	28854.175
2111.08131	28862.875
2114.0669	28856.575
2117.05057	28876.275
2120.03233	28833.775
2123.01216	28859.175
2125.99008	28900.975
2128.96609	28909.575
2131.94018	28874.075
2134.91236	28938.775
2137.88263	28938.275
2140.851	28995.675
2143.81746	28998.575
2146.78201	28976.875
2149.74466	29016.775
2152.7054	28999.875
2155.66425	28991.475
2158.6212	29015.675
2161.57625	29013.375
2164.52941	28979.875
2167.48067	28977.775
2170.43004	28958.775
2173.37752	28867.875
2176.32311	28895.275
2179.26681	28930.075
2182.20863	28940.575
2185.14856	28965.175
2188.08661	28972.875
2191.02278	28976.075
2193.95707	28990.775
2196.88948	28989.075
2199.82001	29012.675
2202.74867	28987.175
2205.67545	28999.475
2208.60037	28960.075
2211.52341	28949.975
2214.44458	28930.275
2217.36388	28856.275
2220.28132	28848.775
2223.1969	28763.775
2226.11061	28783.675
2229.02246	28630.975
2231.93245	28612.975
2234.84058	28540.275
2237.74686	28488.175
2240.65128	28487.575
2243.55385	28451.175
2246.45456	28388.375
2249.35343	28363.575
2252.25044	28363.975
2255.14561	28295.575
2258.03893	28279.675
2260.93041	28261.875
2263.82004	28196.575
2266.70783	28140.275
2269.59378	28009.875
2272.4779	27973.575
2275.36017	27873.375
2278.24061	27840.075
2281.11922	27758.675
2283.996	27764.075
2286.87094	27722.675
2289.74405	27668.375
2292.61534	27592.775
2295.4848	27585.275
2298.35243	27616.275
2301.21824	27599.975
2304.08223	27676.275
2306.94439	27699.475
2309.80474	27681.175
2312.66327	27703.875
2315.51999	27707.175
2318.37489	27709.675
2321.22797	27653.975
2324.07925	27689.775
2326.92871	27657.975
2329.77637	27646.575
2332.62222	27642.075
2335.46626	27610.375
2338.3085	27649.175
2341.14893	27673.875
2343.98756	27655.075
2346.8244	27691.875
2349.65943	27646.675
2352.49267	27654.175
2355.32411	27660.975
2358.15376	27617.775
2360.98161	27583.275
2363.80768	27527.975
2366.63195	27515.975
2369.45444	27462.075
2372.27514	27389.675
2375.09405	27316.775
2377.91118	27267.175
2380.72652	27153.975
2383.54009	27110.775
2386.35187	27094.775
2389.16188	27020.975
2391.97011	26983.275
2394.77657	26963.675
2397.58125	26937.775
2400.38416	26864.375
2403.18529	26845.475
2405.98466	26728.175
2408.78226	26670.775
2411.57809	26644.975
2414.37216	26538.175
2417.16446	26504.375
2419.955	26440.275
2422.74378	26457.375
2425.5308	26392.075
2428.31606	26383.375
2431.09956	26369.975
2433.88131	26304.375
2436.6613	26341.075
2439.43954	26311.675
2442.21603	26283.775
2444.99077	26263.875
2447.76377	26261.075
2450.53501	26196.875
2453.30451	26218.875
2456.07226	26228.675
2458.83827	26201.575
2461.60254	26175.875
2464.36507	26189.975
2467.12586	26170.875
2469.88492	26153.875
2472.64224	26203.975
2475.39782	26200.575
2478.15167	26197.975
2480.90379	26236.275
2483.65417	26244.775
2486.40283	26248.275
2489.14976	26313.875
2491.89497	26267.075
2494.63845	26317.475
2497.3802	26319.075
2500.12024	26337.675
2502.85855	26338.375
2505.59514	26310.475
2508.33002	26254.175
2511.06318	26192.175
2513.79462	26158.475
2516.52435	26084.175
2519.25237	26046.875
2521.97867	25996.475
2524.70327	26011.875
2527.42616	26004.375
2530.14734	26017.975
2532.86681	25940.475
2535.58458	25956.675
2538.30065	25897.175
2541.01501	25898.975
2543.72768	25894.875
2546.43864	25869.875
2549.14791	25860.175
2551.85548	25852.875
2554.56136	25808.375
2557.26554	25758.775
2559.96803	25736.075
2562.66883	25731.275
2565.36794	25716.675
2568.06536	25711.375
2570.7611	25707.775
2573.45514	25644.375
2576.14751	25669.375
2578.83819	25612.875
2581.52719	25618.575
2584.21451	25624.075
2586.90015	25621.275
2589.58411	25545.275
2592.2664	25578.075
2594.94701	25554.475
2597.62594	25488.575
2600.30321	25472.575
2602.9788	25524.575
2605.65273	25469.775
2608.32498	25518.475
2610.99557	25474.475
2613.66449	25490.775
2616.33175	25527.675
2618.99734	25487.475
2621.66128	25493.075
2624.32355	25506.175
2626.98416	25485.975
2629.64311	25509.575
2632.30041	25501.875
2634.95605	25472.575
2637.61004	25454.475
2640.26238	25385.075
2642.91306	25387.275
2645.56209	25337.375
2648.20948	25282.975
2650.85521	25231.975
2653.4993	25246.775
2656.14175	25244.975
2658.78255	25262.575
2661.42171	25255.275
2664.05923	25295.975
2666.6951	25293.275
2669.32934	25357.175
2671.96194	25338.575
2674.59291	25372.075
2677.22224	25345.475
2679.84993	25363.675
2682.476	25331.975
2685.10043	25308.075
2687.72324	25325.075
2690.34441	25274.275
2692.96396	25295.575
2695.58188	25348.375
2698.19818	25257.075
2700.81285	25266.275
2703.4259	25248.475
2706.03733	25260.275
2708.64714	25230.775
2711.25533	25246.975
2713.86191	25234.975
2716.46687	25255.275
2719.07021	25268.875
2721.67194	25230.075
2724.27206	25219.875
2726.87057	25237.575
2729.46747	25273.175
2732.06276	25276.375
2734.65644	25265.975
2737.24852	25284.075
2739.83899	25243.775
2742.42786	25248.975
2745.01513	25235.775
2747.60079	25225.775
2750.18486	25172.575
2752.76733	25202.075
2755.3482	25203.375
2757.92747	25227.875
2760.50515	25161.475
2763.08123	25200.575
2765.65573	25155.875
2768.22863	25193.575
2770.79994	25104.975
2773.36967	25114.875
2775.9378	25049.675
2778.50435	25089.775
2781.06932	25046.875
2783.6327	25064.675
2786.1945	25065.175
2788.75471	25032.375
2791.31335	24957.075
2793.87041	24973.475
2796.42589	24906.475
2798.97979	24867.775
2801.53212	24814.175
2804.08288	24759.975
2806.63206	24708.075
2809.17967	24750.475
2811.72571	24720.975
2814.27018	24688.775
2816.81308	24647.475
2819.35442	24640.075
2821.89419	24632.175
2824.43239	24622.075
2826.96904	24650.575
2829.50412	24687.175
2832.03763	24627.975
2834.56959	24641.275
2837.1	24590.675
2839.62884	24626.775
2842.15613	24584.575
2844.68186	24605.075
2847.20604	24615.175
2849.72867	24607.975
2852.24974	24586.475
2854.76927	24565.075
2857.28724	24558.575
2859.80367	24514.775
2862.31855	24469.075
2864.83189	24437.875
2867.34368	24455.375
2869.85393	24438.575
2872.36264	24382.475
2874.8698	24391.775
2877.37543	24421.575
2879.87952	24395.775
2882.38207	24389.675
2884.88308	24375.975
2887.38256	24377.475
2889.88051	24372.975
2892.37692	24364.675
2894.8718	24389.475
2897.36515	24395.775
2899.85698	24394.575
2902.34727	24455.475
2904.83604	24424.275
2907.32328	24432.375
2909.809	24435.575
2912.29319	24468.975
2914.77587	24413.075
2917.25702	24397.175
2919.73665	24360.775
2922.21476	24415.975
2924.69136	24350.375
2927.16644	24337.375
2929.64	24279.675
2932.11205	24221.775
2934.58258	24192.875
2937.05161	24213.175
2939.51912	24211.775
2941.98513	24139.675
2944.44962	24099.375
2946.91261	23972.275
2949.37409	24024.375
2951.83407	24004.275
2954.29254	23976.075
2956.74951	23914.375
2959.20498	23924.275
2961.65895	23909.875
2964.11142	23835.275
2966.56239	23758.275
2969.01186	23737.875
2971.45984	23610.475
2973.90632	23564.475
2976.35131	23536.175
2978.7948	23499.275
2981.23681	23441.575
2983.67732	23353.875
2986.11635	23316.075
2988.55388	23219.675
2990.98993	23184.775
2993.4245	23169.475
2995.85758	23100.475
2998.28917	23033.375
3000.71928	23017.375
3003.14791	22918.375
3005.57506	22912.575
3008.00073	22851.175
3010.42493	22842.775
3012.84764	22821.575
3015.26888	22795.475
3017.68865	22757.975
3020.10694	22727.475
3022.52376	22617.075
3024.9391	22595.675
3027.35298	22576.675
3029.76539	22500.175
3032.17632	22500.475
3034.5858	22411.775
3036.9938	22403.575
3039.40034	22394.475
3041.80542	22375.675
3044.20903	22340.675
3046.61118	22276.175
3049.01187	22206.275
3051.4111	22174.075
3053.80888	22124.775
3056.20519	22096.175
3058.60005	21985.975
3060.99345	21979.875
3063.3854	21924.975
3065.7759	21833.675
3068.16494	21808.275
3070.55254	21715.375
3072.93868	21673.875
3075.32338	21587.875
3077.70662	21492.975
3080.08842	21468.275
3082.46878	21447.475
3084.84769	21366.175
3087.22515	21388.375
3089.60118	21366.875
3091.97576	21379.675
3094.3489	21340.475
3096.72061	21321.375
3099.09087	21284.075
3101.4597	21268.775
3103.82709	21233.975
3106.19305	21195.875
3108.55757	21153.075
3110.92066	21095.575
3113.28232	21052.675
3115.64255	21002.975
3118.00134	20977.875
3120.35871	20910.575
3122.71466	20874.275
3125.06917	20831.175
3127.42226	20797.975
