Data from AgNP_FTO_APTES_CRN_500uM_R6G_10uM_NaF_0.1M_Addition_RamanShift__22__20-29-18-238.txt Node

Date: Wed Dec 15 20:29:18 GMT 2021
User: TCL
Spectrometer: QEP01345
Trigger mode: 4
Integration Time (sec): 7.000000E0
Scans to average: 10
Electric dark correction enabled: true
Nonlinearity correction enabled: false
Boxcar width: 0
XAxis mode: Raman Shifts
Number of Pixels in Spectrum: 1044
>>>>>Begin Spectral Data<<<<<
46.04893	1.375
50.45542	-2.725
54.85868	-0.025
59.25871	-1.025
63.6555	56.075
68.04907	64.575
72.43941	62.275
76.82654	67.875
81.21044	70.375
85.59113	73.975
89.96862	77.075
94.34289	72.975
98.71396	81.575
103.08183	88.475
107.4465	87.375
111.80798	88.175
116.16626	92.375
120.52136	93.975
124.87327	95.575
129.222	101.375
133.56755	104.975
137.90993	109.675
142.24913	121.075
146.58517	136.275
150.91804	152.175
155.24774	177.975
159.57429	219.775
163.89768	280.375
168.21792	366.175
172.53501	488.675
176.84895	671.775
181.15975	946.375
185.46741	1311.675
189.77193	1819.675
194.07331	2439.075
198.37157	3137.775
202.6667	3871.375
206.9587	4608.275
211.24758	5330.075
215.53334	6060.975
219.81599	6804.875
224.09553	7633.575
228.37195	8528.575
232.64527	9502.375
236.91549	10514.675
241.18261	11576.375
245.44663	12582.775
249.70755	13429.475
253.96539	14252.575
258.22014	14902.375
262.4718	15463.775
266.72039	15839.375
270.96589	16019.575
275.20832	16078.675
279.44768	15982.275
283.68397	15809.975
287.91719	15648.775
292.14735	15548.875
296.37445	15490.475
300.59849	15480.975
304.81948	15439.475
309.03742	15364.075
313.25231	15199.375
317.46415	14996.975
321.67296	14754.575
325.87872	14550.375
330.08145	14497.375
334.28114	14547.675
338.47781	14634.675
342.67145	14818.875
346.86207	15000.475
351.04966	15225.775
355.23424	15442.575
359.4158	15695.475
363.59435	15834.175
367.76989	15969.975
371.94243	16090.175
376.11196	16143.275
380.27849	16236.775
384.44203	16403.975
388.60257	16547.775
392.76012	16656.175
396.91468	16802.075
401.06626	16991.875
405.21485	17129.275
409.36047	17155.475
413.50311	17027.575
417.64277	16922.375
421.77947	16944.875
425.9132	16964.375
430.04396	17110.375
434.17176	17250.975
438.2966	17502.775
442.41849	17848.275
446.53742	18331.975
450.6534	18788.675
454.76644	19122.175
458.87653	19270.675
462.98368	19140.475
467.08789	18986.075
471.18916	18847.175
475.2875	18762.475
479.38291	18741.175
483.4754	18653.475
487.56496	18444.675
491.6516	18156.975
495.73531	17949.675
499.81612	17797.275
503.89401	17846.675
507.96899	17918.875
512.04106	17999.975
516.11023	18002.975
520.1765	18021.875
524.23987	17992.975
528.30034	17924.575
532.35792	17824.575
536.41261	17679.375
540.46441	17592.975
544.51333	17554.075
548.55936	17708.975
552.60252	17975.375
556.64279	18311.975
560.6802	18594.775
564.71473	18750.575
568.7464	18912.675
572.7752	19208.275
576.80114	19375.475
580.82422	19487.375
584.84444	19726.175
588.86181	20094.375
592.87633	20587.975
596.888	20850.575
600.89682	20655.375
604.9028	20669.975
608.90594	21322.175
612.90624	22134.375
616.90371	21152.475
620.89834	18911.475
624.89015	17921.875
628.87913	17798.175
632.86528	17868.575
636.84862	17946.875
640.82913	17847.075
644.80683	17590.375
648.78172	17418.175
652.75379	17364.875
656.72306	17473.375
660.68952	17612.775
664.65319	17564.475
668.61405	17415.675
672.57211	17436.975
676.52738	17566.675
680.47986	17606.675
684.42955	17550.375
688.37646	17511.975
692.32058	17474.075
696.26192	17575.875
700.20048	17683.675
704.13626	17741.375
708.06928	17717.475
711.99952	17649.575
715.927	17583.975
719.85171	17566.975
723.77365	17470.375
727.69284	17360.775
731.60928	17210.975
735.52295	17158.675
739.43388	17123.875
743.34206	17130.975
747.24749	17138.075
751.15017	17206.575
755.05012	17315.975
758.94733	17623.475
762.8418	18132.175
766.73354	18918.775
770.62254	19708.075
774.50882	19874.975
778.39237	19277.075
782.27321	18263.475
786.15132	17403.675
790.02671	16934.575
793.89938	16728.475
797.76935	16618.075
801.6366	16630.675
805.50115	16617.975
809.36299	16561.875
813.22213	16517.475
817.07857	16524.375
820.93231	16475.375
824.78336	16406.175
828.63172	16350.975
832.47738	16322.675
836.32036	16343.175
840.16066	16359.975
843.99827	16398.575
847.8332	16343.275
851.66546	16284.675
855.49504	16325.175
859.32195	16333.775
863.1462	16332.175
866.96777	16306.075
870.78668	16284.675
874.60293	16264.875
878.41652	16258.175
882.22745	16284.875
886.03573	16320.175
889.84136	16331.375
893.64433	16276.975
897.44466	16211.975
901.24235	16176.175
905.0374	16116.175
908.8298	16101.175
912.61957	16123.375
916.40671	16206.875
920.19121	16304.775
923.97308	16456.575
927.75233	16455.475
931.52895	16386.475
935.30295	16276.675
939.07433	16072.975
942.84309	15930.675
946.60924	15837.775
950.37278	15738.675
954.13371	15709.275
957.89203	15727.975
961.64774	15704.775
965.40086	15681.175
969.15137	15603.975
972.89929	15559.275
976.64461	15513.875
980.38733	15444.475
984.12747	15524.075
987.86502	15568.575
991.59999	15643.375
995.33237	15779.375
999.06217	16025.775
1002.78939	16264.575
1006.51404	16455.575
1010.23611	16601.575
1013.95561	16721.675
1017.67255	16709.575
1021.38692	16575.775
1025.09872	16419.075
1028.80796	16320.075
1032.51465	16371.475
1036.21877	16498.875
1039.92035	16546.175
1043.61937	16545.575
1047.31584	16531.675
1051.00976	16506.575
1054.70114	16562.175
1058.38998	16678.975
1062.07627	16867.775
1065.76003	17183.375
1069.44126	17594.975
1073.11995	18041.775
1076.79611	18372.675
1080.46974	18310.175
1084.14085	18010.575
1087.80943	17676.375
1091.47549	17446.075
1095.13903	17285.575
1098.80005	17079.375
1102.45857	16831.775
1106.11456	16662.375
1109.76805	16563.875
1113.41903	16625.275
1117.06751	16715.175
1120.71348	16842.175
1124.35696	16951.375
1127.99793	17135.775
1131.63641	17286.975
1135.2724	17222.575
1138.90589	17096.075
1142.5369	17091.675
1146.16542	17092.075
1149.79145	17177.375
1153.415	17335.175
1157.03607	17535.475
1160.65467	17868.275
1164.27079	18446.975
1167.88443	19178.475
1171.49561	20118.775
1175.10432	21280.775
1178.71056	22639.275
1182.31434	23778.675
1185.91565	24124.175
1189.51451	23754.575
1193.11091	23118.375
1196.70485	22427.475
1200.29634	21821.175
1203.88538	21372.275
1207.47197	21087.675
1211.05612	20810.975
1214.63782	20513.575
1218.21708	20254.775
1221.79391	20062.875
1225.36829	19934.175
1228.94024	19729.475
1232.50976	19459.675
1236.07685	19256.675
1239.6415	19148.875
1243.20374	19166.575
1246.76355	19252.975
1250.32093	19453.475
1253.8759	19729.575
1257.42845	20058.975
1260.97859	20382.775
1264.52631	20701.475
1268.07163	21043.075
1271.61453	21415.075
1275.15503	21852.075
1278.69312	22275.475
1282.22882	22688.275
1285.76211	23272.875
1289.29301	23991.475
1292.82151	24914.275
1296.34761	26017.275
1299.87133	27245.175
1303.39266	28533.275
1306.9116	29856.075
1310.42815	31066.475
1313.94233	31931.775
1317.45412	32170.675
1320.96354	31865.575
1324.47058	31427.775
1327.97525	30917.475
1331.47754	30564.575
1334.97747	30295.075
1338.47502	30124.575
1341.97022	29805.075
1345.46305	29349.175
1348.95352	28933.575
1352.44163	28824.775
1355.92738	29268.275
1359.41078	30181.875
1362.89183	31044.275
1366.37053	30770.675
1369.84688	28891.375
1373.32088	26461.875
1376.79254	24776.175
1380.26186	24175.675
1383.72883	24188.075
1387.19347	24329.075
1390.65578	24303.475
1394.11575	24385.275
1397.57339	24632.475
1401.0287	25129.575
1404.48168	25512.475
1407.93234	25545.875
1411.38068	25116.675
1414.82669	24360.075
1418.27039	23409.575
1421.71177	22460.475
1425.15083	21654.975
1428.58758	21224.575
1432.02203	21289.075
1435.45416	21668.075
1438.88399	22214.675
1442.31151	22689.775
1445.73673	23074.475
1449.15965	23418.375
1452.58027	23629.975
1455.9986	23711.775
1459.41463	23737.275
1462.82837	23921.075
1466.23982	24231.875
1469.64898	24525.075
1473.05586	24668.175
1476.46045	24676.175
1479.86276	24508.475
1483.26279	24213.475
1486.66054	23932.775
1490.05602	23773.275
1493.44922	23690.175
1496.84016	23646.075
1500.22882	23719.275
1503.61521	24037.575
1506.99934	24564.575
1510.38121	25059.575
1513.76081	25226.875
1517.13816	24855.375
1520.51324	24224.575
1523.88607	23746.775
1527.25665	23537.275
1530.62498	23494.975
1533.99105	23570.275
1537.35488	23519.775
1540.71647	23324.975
1544.07581	22977.175
1547.4329	22583.175
1550.78776	22232.875
1554.14038	21938.475
1557.49077	21796.175
1560.83892	21780.175
1564.18484	21818.275
1567.52853	22037.475
1570.86999	22533.375
1574.20922	23286.075
1577.54624	24124.375
1580.88103	24654.075
1584.2136	24790.975
1587.54395	24827.275
1590.87208	25122.275
1594.19801	25790.875
1597.52172	26639.575
1600.84321	26850.575
1604.16251	25992.375
1607.47959	24310.875
1610.79447	22477.575
1614.10715	20820.675
1617.41763	19529.075
1620.7259	18716.475
1624.03199	18309.275
1627.33587	18311.675
1630.63757	18711.275
1633.93707	19666.175
1637.23439	21147.075
1640.52951	23301.775
1643.82246	25738.075
1647.11321	27619.875
1650.40179	27867.575
1653.68819	26119.975
1656.97241	23247.975
1660.25446	20472.775
1663.53433	18433.175
1666.81203	17071.975
1670.08756	16215.775
1673.36092	15701.275
1676.63211	15362.275
1679.90115	15077.475
1683.16801	14890.375
1686.43272	14757.675
1689.69527	14642.675
1692.95567	14537.475
1696.2139	14507.875
1699.46999	14465.175
1702.72392	14426.775
1705.97571	14377.775
1709.22535	14332.275
1712.47284	14314.475
1715.71819	14271.175
1718.96139	14210.775
1722.20246	14183.575
1725.44139	14141.775
1728.67818	14061.875
1731.91284	13960.775
1735.14537	13927.275
1738.37576	13865.875
1741.60403	13835.075
1744.83017	13803.375
1748.05418	13778.175
1751.27607	13767.675
1754.49584	13734.375
1757.71349	13733.675
1760.92903	13717.375
1764.14244	13700.875
1767.35375	13668.875
1770.56294	13644.775
1773.77002	13597.575
1776.97499	13604.875
1780.17785	13545.275
1783.37861	13526.175
1786.57727	13472.575
1789.77382	13455.075
1792.96828	13417.675
1796.16064	13397.075
1799.3509	13339.675
1802.53907	13327.875
1805.72514	13302.475
1808.90913	13270.175
1812.09102	13244.175
1815.27083	13212.275
1818.44856	13209.775
1821.6242	13180.175
1824.79776	13171.375
1827.96924	13119.275
1831.13864	13136.675
1834.30597	13134.575
1837.47122	13137.975
1840.6344	13101.475
1843.7955	13104.775
1846.95454	13107.575
1850.11151	13082.375
1853.26642	13080.475
1856.41926	13046.975
1859.57004	13045.275
1862.71876	13055.775
1865.86542	13053.675
1869.01003	13045.075
1872.15258	13049.175
1875.29308	13017.475
1878.43152	12993.375
1881.56792	13003.975
1884.70227	12995.275
1887.83457	12978.175
1890.96482	12976.375
1894.09304	12948.575
1897.21921	12952.175
1900.34335	12932.375
1903.46544	12921.375
1906.58551	12930.675
1909.70353	12872.875
1912.81953	12877.575
1915.93349	12885.975
1919.04543	12837.275
1922.15534	12796.875
1925.26322	12772.075
1928.36908	12746.475
1931.47292	12745.775
1934.57473	12727.875
1937.67453	12677.875
1940.77232	12636.275
1943.86808	12612.875
1946.96184	12566.875
1950.05358	12557.475
1953.14331	12533.975
1956.23103	12460.375
1959.31675	12437.175
1962.40046	12417.475
1965.48217	12378.475
1968.56188	12349.875
1971.63959	12296.375
1974.7153	12288.875
1977.78901	12229.275
1980.86073	12187.175
1983.93046	12167.175
1986.99819	12145.275
1990.06394	12102.075
1993.1277	12073.075
1996.18947	12014.975
1999.24925	11982.175
2002.30706	11966.375
2005.36288	11948.675
2008.41672	11911.875
2011.46859	11847.575
2014.51848	11834.675
2017.56639	11828.675
2020.61233	11799.375
2023.6563	11769.875
2026.6983	11738.475
2029.73833	11718.975
2032.7764	11685.175
2035.8125	11663.575
2038.84664	11628.775
2041.87881	11603.575
2044.90903	11603.975
2047.93729	11585.975
2050.96359	11587.775
2053.98794	11544.775
2057.01034	11540.375
2060.03078	11555.675
2063.04927	11549.375
2066.06582	11511.975
2069.08042	11520.975
2072.09307	11509.075
2075.10378	11501.775
2078.11255	11523.175
2081.11938	11487.475
2084.12426	11487.875
2087.12722	11467.775
2090.12824	11481.475
2093.12732	11498.675
2096.12447	11482.975
2099.11969	11459.675
2102.11299	11473.075
2105.10435	11508.375
2108.09379	11504.875
2111.08131	11481.975
2114.0669	11496.675
2117.05057	11506.075
2120.03233	11496.575
2123.01216	11541.075
2125.99008	11536.275
2128.96609	11535.575
2131.94018	11540.075
2134.91236	11538.875
2137.88263	11578.875
2140.851	11552.575
2143.81746	11578.675
2146.78201	11567.075
2149.74466	11558.175
2152.7054	11574.875
2155.66425	11605.575
2158.6212	11609.175
2161.57625	11613.975
2164.52941	11584.575
2167.48067	11552.675
2170.43004	11561.875
2173.37752	11557.375
2176.32311	11533.975
2179.26681	11560.175
2182.20863	11529.475
2185.14856	11547.075
2188.08661	11515.775
2191.02278	11530.775
2193.95707	11552.775
2196.88948	11496.575
2199.82001	11497.275
2202.74867	11517.675
2205.67545	11507.975
2208.60037	11507.675
2211.52341	11488.675
2214.44458	11465.175
2217.36388	11453.475
2220.28132	11402.975
2223.1969	11385.075
2226.11061	11380.075
2229.02246	11363.675
2231.93245	11349.375
2234.84058	11299.975
2237.74686	11299.275
2240.65128	11310.675
2243.55385	11279.775
2246.45456	11240.975
2249.35343	11230.275
2252.25044	11207.975
2255.14561	11186.975
2258.03893	11180.475
2260.93041	11163.075
2263.82004	11110.875
2266.70783	11118.475
2269.59378	11096.875
2272.4779	11065.975
2275.36017	11040.075
2278.24061	11016.075
2281.11922	10969.575
2283.996	10983.475
2286.87094	10959.775
2289.74405	10940.675
2292.61534	10918.375
2295.4848	10901.775
2298.35243	10937.075
2301.21824	10890.575
2304.08223	10885.975
2306.94439	10883.675
2309.80474	10885.775
2312.66327	10879.875
2315.51999	10871.075
2318.37489	10841.275
2321.22797	10841.775
2324.07925	10858.375
2326.92871	10826.275
2329.77637	10828.775
2332.62222	10800.675
2335.46626	10794.475
2338.3085	10785.975
2341.14893	10783.875
2343.98756	10767.375
2346.8244	10741.875
2349.65943	10760.275
2352.49267	10739.375
2355.32411	10743.275
2358.15376	10718.475
2360.98161	10718.475
2363.80768	10744.275
2366.63195	10718.575
2369.45444	10693.575
2372.27514	10683.775
2375.09405	10679.275
2377.91118	10659.475
2380.72652	10626.775
2383.54009	10636.175
2386.35187	10603.875
2389.16188	10576.275
2391.97011	10556.875
2394.77657	10538.675
2397.58125	10513.275
2400.38416	10495.075
2403.18529	10506.875
2405.98466	10503.875
2408.78226	10453.875
2411.57809	10449.375
2414.37216	10443.975
2417.16446	10424.875
2419.955	10419.075
2422.74378	10376.875
2425.5308	10363.375
2428.31606	10371.775
2431.09956	10373.775
2433.88131	10362.975
2436.6613	10364.675
2439.43954	10347.275
2442.21603	10328.375
2444.99077	10326.575
2447.76377	10341.575
2450.53501	10314.775
2453.30451	10289.975
2456.07226	10301.375
2458.83827	10284.575
2461.60254	10270.175
2464.36507	10263.975
2467.12586	10247.875
2469.88492	10263.175
2472.64224	10265.975
2475.39782	10238.675
2478.15167	10243.175
2480.90379	10242.375
2483.65417	10263.375
2486.40283	10274.275
2489.14976	10243.475
2491.89497	10236.775
2494.63845	10272.475
2497.3802	10226.875
2500.12024	10218.975
2502.85855	10238.975
2505.59514	10229.075
2508.33002	10221.475
2511.06318	10185.875
2513.79462	10204.675
2516.52435	10159.275
2519.25237	10172.675
2521.97867	10162.675
2524.70327	10162.575
2527.42616	10159.675
2530.14734	10113.375
2532.86681	10130.475
2535.58458	10123.075
2538.30065	10107.375
2541.01501	10115.675
2543.72768	10093.875
2546.43864	10082.675
2549.14791	10052.475
2551.85548	10020.575
2554.56136	10008.175
2557.26554	10007.875
2559.96803	9979.875
2562.66883	9962.575
2565.36794	9970.675
2568.06536	9969.775
2570.7611	9978.475
2573.45514	9948.675
2576.14751	9965.175
2578.83819	9917.975
2581.52719	9927.875
2584.21451	9905.275
2586.90015	9902.375
2589.58411	9882.675
2592.2664	9874.475
2594.94701	9833.075
2597.62594	9841.175
2600.30321	9834.275
2602.9788	9817.675
2605.65273	9792.775
2608.32498	9787.975
2610.99557	9754.175
2613.66449	9794.575
2616.33175	9763.175
2618.99734	9776.175
2621.66128	9752.575
2624.32355	9752.575
2626.98416	9757.875
2629.64311	9754.875
2632.30041	9740.975
2634.95605	9736.775
2637.61004	9710.275
2640.26238	9728.275
2642.91306	9724.375
2645.56209	9710.975
2648.20948	9718.775
2650.85521	9690.275
2653.4993	9698.675
2656.14175	9703.775
2658.78255	9687.775
2661.42171	9664.275
2664.05923	9694.875
2666.6951	9697.575
2669.32934	9698.875
2671.96194	9693.175
2674.59291	9701.375
2677.22224	9697.275
2679.84993	9700.375
2682.476	9710.875
2685.10043	9684.575
2687.72324	9667.375
2690.34441	9687.075
2692.96396	9676.275
2695.58188	9702.275
2698.19818	9680.675
2700.81285	9693.375
2703.4259	9700.175
2706.03733	9750.175
2708.64714	9704.575
2711.25533	9707.175
2713.86191	9702.375
2716.46687	9711.775
2719.07021	9723.075
2721.67194	9719.275
2724.27206	9680.675
2726.87057	9673.875
2729.46747	9699.875
2732.06276	9696.575
2734.65644	9691.775
2737.24852	9685.775
2739.83899	9688.575
2742.42786	9683.675
2745.01513	9682.675
2747.60079	9678.475
2750.18486	9665.375
2752.76733	9662.775
2755.3482	9643.775
2757.92747	9645.975
2760.50515	9637.275
2763.08123	9629.375
2765.65573	9636.475
2768.22863	9614.175
2770.79994	9611.375
2773.36967	9622.375
2775.9378	9620.575
2778.50435	9610.775
2781.06932	9590.375
2783.6327	9603.375
2786.1945	9562.975
2788.75471	9557.975
2791.31335	9542.475
2793.87041	9514.575
2796.42589	9489.575
2798.97979	9500.475
2801.53212	9478.175
2804.08288	9483.475
2806.63206	9433.075
2809.17967	9420.175
2811.72571	9417.475
2814.27018	9418.975
2816.81308	9388.275
2819.35442	9382.875
2821.89419	9355.875
2824.43239	9359.975
2826.96904	9324.475
2829.50412	9323.875
2832.03763	9328.675
2834.56959	9349.875
2837.1	9308.375
2839.62884	9328.175
2842.15613	9303.775
2844.68186	9339.075
2847.20604	9322.475
2849.72867	9326.575
2852.24974	9310.775
2854.76927	9296.975
2857.28724	9291.975
2859.80367	9289.075
2862.31855	9286.175
2864.83189	9260.775
2867.34368	9253.275
2869.85393	9264.075
2872.36264	9230.375
2874.8698	9232.175
2877.37543	9241.075
2879.87952	9266.375
2882.38207	9252.075
2884.88308	9259.175
2887.38256	9279.275
2889.88051	9270.475
2892.37692	9265.375
2894.8718	9267.775
2897.36515	9272.375
2899.85698	9298.375
2902.34727	9301.475
2904.83604	9325.775
2907.32328	9314.775
2909.809	9330.975
2912.29319	9322.175
2914.77587	9368.975
2917.25702	9318.975
2919.73665	9331.575
2922.21476	9336.075
2924.69136	9340.575
2927.16644	9332.575
2929.64	9329.875
2932.11205	9329.575
2934.58258	9289.375
2937.05161	9316.075
2939.51912	9304.175
2941.98513	9321.875
2944.44962	9287.275
2946.91261	9247.075
2949.37409	9239.175
2951.83407	9245.175
2954.29254	9219.275
2956.74951	9201.575
2959.20498	9197.675
2961.65895	9186.275
2964.11142	9174.975
2966.56239	9150.575
2969.01186	9139.675
2971.45984	9095.375
2973.90632	9080.675
2976.35131	9038.875
2978.7948	9026.875
2981.23681	9022.775
2983.67732	8997.075
2986.11635	8967.375
2988.55388	8931.875
2990.98993	8925.075
2993.4245	8902.675
2995.85758	8903.375
2998.28917	8859.475
3000.71928	8881.375
3003.14791	8847.275
3005.57506	8837.875
3008.00073	8818.175
3010.42493	8840.075
3012.84764	8808.475
3015.26888	8786.775
3017.68865	8760.975
3020.10694	8758.775
3022.52376	8724.475
3024.9391	8714.275
3027.35298	8714.275
3029.76539	8716.975
3032.17632	8712.075
3034.5858	8668.575
3036.9938	8681.775
3039.40034	8665.775
3041.80542	8637.975
3044.20903	8660.075
3046.61118	8639.175
3049.01187	8623.175
3051.4111	8608.675
3053.80888	8601.375
3056.20519	8584.275
3058.60005	8544.075
3060.99345	8539.875
3063.3854	8520.975
3065.7759	8497.675
3068.16494	8499.575
3070.55254	8462.175
3072.93868	8459.075
3075.32338	8422.775
3077.70662	8408.975
3080.08842	8373.075
3082.46878	8401.175
3084.84769	8395.175
3087.22515	8396.575
3089.60118	8407.275
3091.97576	8408.175
3094.3489	8413.275
3096.72061	8386.475
3099.09087	8398.275
3101.4597	8388.475
3103.82709	8386.475
3106.19305	8373.375
3108.55757	8364.075
3110.92066	8340.875
3113.28232	8340.175
3115.64255	8324.075
3118.00134	8308.175
3120.35871	8299.975
3122.71466	8278.475
3125.06917	8282.475
3127.42226	8254.075
3129.77393	8281.375
3132.12417	8248.175
3134.47299	8262.075
3136.82039	8271.075
3139.16636	8285.475
3141.51092	8260.175
3143.85406	8286.475
3146.19579	8280.575
3148.53609	8259.875
3150.87499	8286.875
3153.21246	8285.275
3155.54853	8302.675
