Data from AgNP_FTO_APTES_CRN_5uM_R6G_10uM_NaF_0.1M_Addition_RamanShift__37__16-09-07-944.txt Node

Date: Wed Dec 15 16:09:07 GMT 2021
User: TCL
Spectrometer: QEP01345
Trigger mode: 4
Integration Time (sec): 7.000000E0
Scans to average: 10
Electric dark correction enabled: true
Nonlinearity correction enabled: false
Boxcar width: 0
XAxis mode: Raman Shifts
Number of Pixels in Spectrum: 1044
>>>>>Begin Spectral Data<<<<<
46.04893	0.7875
50.45542	-1.7125
54.85868	-1.3125
59.25871	0.5875
63.6555	60.3875
68.04907	65.1875
72.43941	73.1875
76.82654	75.5875
81.21044	77.1875
85.59113	81.0875
89.96862	86.4875
94.34289	83.1875
98.71396	90.8875
103.08183	95.7875
107.4465	95.2875
111.80798	98.0875
116.16626	98.3875
120.52136	100.0875
124.87327	99.5875
129.222	102.9875
133.56755	104.8875
137.90993	113.7875
142.24913	119.9875
146.58517	128.7875
150.91804	142.0875
155.24774	161.8875
159.57429	195.0875
163.89768	243.7875
168.21792	309.8875
172.53501	409.1875
176.84895	566.5875
181.15975	769.7875
185.46741	1075.6875
189.77193	1465.6875
194.07331	1943.3875
198.37157	2499.9875
202.6667	3078.9875
206.9587	3661.8875
211.24758	4239.1875
215.53334	4852.4875
219.81599	5536.3875
224.09553	6330.9875
228.37195	7214.7875
232.64527	8163.4875
236.91549	9104.2875
241.18261	9926.8875
245.44663	10564.4875
249.70755	11040.0875
253.96539	11454.0875
258.22014	11820.4875
262.4718	12227.7875
266.72039	12584.2875
270.96589	12752.2875
275.20832	12801.7875
279.44768	12656.0875
283.68397	12459.8875
287.91719	12347.2875
292.14735	12400.5875
296.37445	12686.7875
300.59849	13313.5875
304.81948	14011.7875
309.03742	14506.6875
313.25231	14427.8875
317.46415	13698.8875
321.67296	12492.2875
325.87872	11525.2875
330.08145	11050.4875
334.28114	10979.3875
338.47781	11213.5875
342.67145	11580.2875
346.86207	12109.7875
351.04966	12929.1875
355.23424	13868.4875
359.4158	14598.0875
363.59435	14975.4875
367.76989	15054.5875
371.94243	15024.4875
376.11196	14898.5875
380.27849	14775.9875
384.44203	14594.8875
388.60257	14413.3875
392.76012	14242.9875
396.91468	14379.9875
401.06626	14785.6875
405.21485	15046.3875
409.36047	14687.7875
413.50311	13784.1875
417.64277	12921.9875
421.77947	12433.6875
425.9132	12228.9875
430.04396	12214.3875
434.17176	12284.1875
438.2966	12464.7875
442.41849	12737.0875
446.53742	13139.9875
450.6534	13501.2875
454.76644	13731.2875
458.87653	13778.0875
462.98368	13675.8875
467.08789	13397.0875
471.18916	13051.5875
475.2875	12679.8875
479.38291	12354.7875
483.4754	12124.8875
487.56496	11926.6875
491.6516	11820.8875
495.73531	11798.2875
499.81612	11843.3875
503.89401	12011.0875
507.96899	12225.0875
512.04106	12517.9875
516.11023	12791.3875
520.1765	12993.4875
524.23987	12962.4875
528.30034	12661.5875
532.35792	12325.7875
536.41261	11986.2875
540.46441	11641.0875
544.51333	11472.4875
548.55936	11556.1875
552.60252	11832.4875
556.64279	12184.0875
560.6802	12355.7875
564.71473	12568.1875
568.7464	13087.7875
572.7752	13446.8875
576.80114	13076.3875
580.82422	12572.0875
584.84444	12362.3875
588.86181	12274.1875
592.87633	12270.4875
596.888	12490.4875
600.89682	13125.1875
604.9028	15091.5875
608.90594	20102.2875
612.90624	26380.2875
616.90371	24979.8875
620.89834	16689.6875
624.89015	12821.6875
628.87913	12054.2875
632.86528	12161.9875
636.84862	12437.2875
640.82913	12262.8875
644.80683	11634.2875
648.78172	11251.5875
652.75379	11358.9875
656.72306	11994.4875
660.68952	12654.7875
664.65319	12456.4875
668.61405	11716.0875
672.57211	11328.7875
676.52738	11279.1875
680.47986	11281.4875
684.42955	11177.7875
688.37646	11109.8875
692.32058	11153.4875
696.26192	11279.5875
700.20048	11468.9875
704.13626	11612.5875
708.06928	11579.9875
711.99952	11504.4875
715.927	11423.4875
719.85171	11471.5875
723.77365	11450.6875
727.69284	11335.3875
731.60928	11239.0875
735.52295	11222.0875
739.43388	11284.5875
743.34206	11344.9875
747.24749	11422.1875
751.15017	11525.8875
755.05012	11794.6875
758.94733	12482.6875
762.8418	14060.1875
766.73354	16792.7875
770.62254	19668.2875
774.50882	21177.9875
778.39237	20069.8875
782.27321	17052.3875
786.15132	14180.0875
790.02671	12550.6875
793.89938	11862.0875
797.76935	11531.0875
801.6366	11404.0875
805.50115	11294.4875
809.36299	11231.5875
813.22213	11166.5875
817.07857	11152.6875
820.93231	11155.7875
824.78336	11204.9875
828.63172	11261.5875
832.47738	11329.6875
836.32036	11300.0875
840.16066	11224.5875
843.99827	11144.6875
847.8332	11106.6875
851.66546	11064.9875
855.49504	11082.8875
859.32195	11026.9875
863.1462	10943.7875
866.96777	10912.5875
870.78668	10874.9875
874.60293	10941.0875
878.41652	10946.0875
882.22745	11013.8875
886.03573	11105.9875
889.84136	11041.4875
893.64433	10976.8875
897.44466	10979.0875
901.24235	10991.8875
905.0374	10967.3875
908.8298	10952.2875
912.61957	10925.1875
916.40671	10978.5875
920.19121	11054.0875
923.97308	11152.2875
927.75233	11324.1875
931.52895	11420.0875
935.30295	11291.4875
939.07433	10963.3875
942.84309	10654.7875
946.60924	10482.4875
950.37278	10392.4875
954.13371	10323.7875
957.89203	10257.9875
961.64774	10246.0875
965.40086	10220.2875
969.15137	10192.7875
972.89929	10152.7875
976.64461	10135.8875
980.38733	10154.3875
984.12747	10183.8875
987.86502	10181.8875
991.59999	10286.3875
995.33237	10413.8875
999.06217	10630.3875
1002.78939	10956.2875
1006.51404	11238.9875
1010.23611	11563.1875
1013.95561	11765.6875
1017.67255	11705.3875
1021.38692	11475.9875
1025.09872	11333.7875
1028.80796	11230.9875
1032.51465	11325.2875
1036.21877	11510.8875
1039.92035	11654.8875
1043.61937	11653.0875
1047.31584	11605.3875
1051.00976	11491.2875
1054.70114	11399.2875
1058.38998	11364.9875
1062.07627	11425.8875
1065.76003	11541.4875
1069.44126	11735.8875
1073.11995	11947.1875
1076.79611	12205.5875
1080.46974	12466.6875
1084.14085	12756.1875
1087.80943	13037.8875
1091.47549	13126.0875
1095.13903	12758.9875
1098.80005	12217.3875
1102.45857	11789.7875
1106.11456	11639.6875
1109.76805	11701.1875
1113.41903	11998.6875
1117.06751	12425.4875
1120.71348	12970.3875
1124.35696	13583.3875
1127.99793	14118.9875
1131.63641	14114.8875
1135.2724	13435.6875
1138.90589	12740.9875
1142.5369	12327.8875
1146.16542	12000.1875
1149.79145	11827.0875
1153.415	11792.2875
1157.03607	11967.4875
1160.65467	12261.0875
1164.27079	12752.7875
1167.88443	13515.0875
1171.49561	14703.2875
1175.10432	16798.8875
1178.71056	19597.2875
1182.31434	21702.3875
1185.91565	22171.9875
1189.51451	21343.7875
1193.11091	19666.9875
1196.70485	17772.6875
1200.29634	16472.7875
1203.88538	15580.6875
1207.47197	14591.7875
1211.05612	13767.7875
1214.63782	13286.4875
1218.21708	13130.4875
1221.79391	13133.9875
1225.36829	13229.9875
1228.94024	13324.0875
1232.50976	13404.8875
1236.07685	13467.0875
1239.6415	13558.8875
1243.20374	13619.3875
1246.76355	13672.9875
1250.32093	13848.5875
1253.8759	14169.9875
1257.42845	14630.3875
1260.97859	15135.1875
1264.52631	15606.9875
1268.07163	16107.1875
1271.61453	16579.9875
1275.15503	16912.8875
1278.69312	17069.3875
1282.22882	17101.4875
1285.76211	17394.5875
1289.29301	17946.3875
1292.82151	18555.0875
1296.34761	19149.1875
1299.87133	20099.5875
1303.39266	21758.5875
1306.9116	24390.1875
1310.42815	27456.9875
1313.94233	29375.2875
1317.45412	28920.6875
1320.96354	26906.5875
1324.47058	24524.8875
1327.97525	22475.8875
1331.47754	21188.7875
1334.97747	20759.4875
1338.47502	20865.6875
1341.97022	21319.8875
1345.46305	22120.3875
1348.95352	23489.8875
1352.44163	25469.0875
1355.92738	28361.2875
1359.41078	32833.9875
1362.89183	37516.1875
1366.37053	36990.9875
1369.84688	31047.8875
1373.32088	24942.6875
1376.79254	21013.2875
1380.26186	19132.5875
1383.72883	18201.2875
1387.19347	17460.1875
1390.65578	16725.5875
1394.11575	16001.2875
1397.57339	15647.1875
1401.0287	15614.8875
1404.48168	15824.9875
1407.93234	16130.3875
1411.38068	16424.6875
1414.82669	16501.7875
1418.27039	16315.9875
1421.71177	15978.4875
1425.15083	15581.2875
1428.58758	15305.4875
1432.02203	15284.2875
1435.45416	15445.3875
1438.88399	15540.3875
1442.31151	15605.1875
1445.73673	15698.1875
1449.15965	15859.9875
1452.58027	15783.3875
1455.9986	15641.0875
1459.41463	15513.2875
1462.82837	15631.6875
1466.23982	15971.2875
1469.64898	16390.3875
1473.05586	16732.5875
1476.46045	16945.1875
1479.86276	17349.7875
1483.26279	17769.3875
1486.66054	18345.8875
1490.05602	19017.6875
1493.44922	19928.4875
1496.84016	21324.1875
1500.22882	23538.9875
1503.61521	26574.3875
1506.99934	30207.5875
1510.38121	33576.7875
1513.76081	35191.5875
1517.13816	33587.7875
1520.51324	29421.3875
1523.88607	24956.0875
1527.25665	21881.3875
1530.62498	20068.2875
1533.99105	19002.0875
1537.35488	18328.5875
1540.71647	17894.4875
1544.07581	17681.4875
1547.4329	17561.1875
1550.78776	17478.9875
1554.14038	17418.3875
1557.49077	17572.9875
1560.83892	17939.1875
1564.18484	18474.7875
1567.52853	19115.7875
1570.86999	19816.0875
1574.20922	20350.2875
1577.54624	20435.7875
1580.88103	19569.9875
1584.2136	18190.0875
1587.54395	17310.5875
1590.87208	17308.1875
1594.19801	18117.2875
1597.52172	19391.1875
1600.84321	19916.1875
1604.16251	19197.9875
1607.47959	17909.0875
1610.79447	16553.8875
1614.10715	15244.7875
1617.41763	14147.9875
1620.7259	13492.9875
1624.03199	13177.8875
1627.33587	13198.9875
1630.63757	13486.1875
1633.93707	14133.1875
1637.23439	15152.8875
1640.52951	16684.4875
1643.82246	18753.9875
1647.11321	21338.6875
1650.40179	23402.1875
1653.68819	23153.0875
1656.97241	20162.4875
1660.25446	16615.7875
1663.53433	14010.8875
1666.81203	12477.4875
1670.08756	11613.3875
1673.36092	11051.8875
1676.63211	10730.1875
1679.90115	10517.8875
1683.16801	10326.9875
1686.43272	10206.7875
1689.69527	10145.6875
1692.95567	10096.4875
1696.2139	10075.9875
1699.46999	10070.1875
1702.72392	10068.4875
1705.97571	10010.9875
1709.22535	9973.8875
1712.47284	9982.0875
1715.71819	9970.1875
1718.96139	9969.2875
1722.20246	9932.8875
1725.44139	9882.9875
1728.67818	9815.2875
1731.91284	9716.9875
1735.14537	9653.1875
1738.37576	9596.9875
1741.60403	9555.8875
1744.83017	9511.2875
1748.05418	9484.5875
1751.27607	9457.3875
1754.49584	9434.4875
1757.71349	9445.0875
1760.92903	9461.4875
1764.14244	9437.0875
1767.35375	9428.8875
1770.56294	9394.0875
1773.77002	9366.7875
1776.97499	9348.6875
1780.17785	9293.6875
1783.37861	9276.4875
1786.57727	9248.1875
1789.77382	9216.3875
1792.96828	9187.5875
1796.16064	9191.4875
1799.3509	9196.3875
1802.53907	9173.8875
1805.72514	9118.9875
1808.90913	9098.8875
1812.09102	9080.7875
1815.27083	9050.4875
1818.44856	9020.3875
1821.6242	9016.7875
1824.79776	9015.3875
1827.96924	9001.2875
1831.13864	9005.0875
1834.30597	8978.1875
1837.47122	8997.9875
1840.6344	8981.7875
1843.7955	8979.2875
1846.95454	8973.3875
1850.11151	8985.8875
1853.26642	8973.1875
1856.41926	8980.5875
1859.57004	8974.9875
1862.71876	8951.9875
1865.86542	8989.2875
1869.01003	8977.7875
1872.15258	8997.5875
1875.29308	8970.4875
1878.43152	8990.7875
1881.56792	9004.8875
1884.70227	8994.1875
1887.83457	8987.0875
1890.96482	8999.1875
1894.09304	8987.8875
1897.21921	8978.0875
1900.34335	8979.3875
1903.46544	8974.6875
1906.58551	8979.7875
1909.70353	8965.7875
1912.81953	8944.6875
1915.93349	8952.2875
1919.04543	8931.8875
1922.15534	8928.0875
1925.26322	8918.0875
1928.36908	8860.2875
1931.47292	8847.7875
1934.57473	8806.0875
1937.67453	8775.2875
1940.77232	8721.7875
1943.86808	8685.6875
1946.96184	8664.9875
1950.05358	8623.2875
1953.14331	8600.6875
1956.23103	8565.5875
1959.31675	8554.4875
1962.40046	8515.9875
1965.48217	8497.3875
1968.56188	8479.4875
1971.63959	8462.9875
1974.7153	8436.5875
1977.78901	8403.4875
1980.86073	8383.6875
1983.93046	8347.2875
1986.99819	8317.0875
1990.06394	8292.6875
1993.1277	8262.5875
1996.18947	8223.2875
1999.24925	8197.4875
2002.30706	8192.1875
2005.36288	8154.5875
2008.41672	8134.9875
2011.46859	8099.5875
2014.51848	8079.3875
2017.56639	8080.9875
2020.61233	8043.0875
2023.6563	8019.2875
2026.6983	8012.5875
2029.73833	7998.5875
2032.7764	7973.4875
2035.8125	7945.2875
2038.84664	7920.9875
2041.87881	7924.8875
2044.90903	7901.9875
2047.93729	7876.0875
2050.96359	7877.2875
2053.98794	7873.1875
2057.01034	7840.6875
2060.03078	7826.7875
2063.04927	7824.9875
2066.06582	7836.9875
2069.08042	7798.2875
2072.09307	7809.8875
2075.10378	7792.0875
2078.11255	7775.3875
2081.11938	7779.5875
2084.12426	7787.4875
2087.12722	7779.1875
2090.12824	7761.1875
2093.12732	7777.8875
2096.12447	7773.9875
2099.11969	7773.2875
2102.11299	7756.0875
2105.10435	7782.7875
2108.09379	7780.6875
2111.08131	7768.1875
2114.0669	7778.3875
2117.05057	7790.7875
2120.03233	7775.7875
2123.01216	7801.2875
2125.99008	7793.1875
2128.96609	7811.8875
2131.94018	7805.3875
2134.91236	7816.7875
2137.88263	7835.6875
2140.851	7791.1875
2143.81746	7814.3875
2146.78201	7789.5875
2149.74466	7799.8875
2152.7054	7779.8875
2155.66425	7780.8875
2158.6212	7786.9875
2161.57625	7773.7875
2164.52941	7770.4875
2167.48067	7778.4875
2170.43004	7770.6875
2173.37752	7772.9875
2176.32311	7783.1875
2179.26681	7761.9875
2182.20863	7761.5875
2185.14856	7759.0875
2188.08661	7747.3875
2191.02278	7751.0875
2193.95707	7749.2875
2196.88948	7714.0875
2199.82001	7739.4875
2202.74867	7687.2875
2205.67545	7698.8875
2208.60037	7712.3875
2211.52341	7685.5875
2214.44458	7699.5875
2217.36388	7672.1875
2220.28132	7669.6875
2223.1969	7644.7875
2226.11061	7628.2875
2229.02246	7616.6875
2231.93245	7580.1875
2234.84058	7574.4875
2237.74686	7542.6875
2240.65128	7542.5875
2243.55385	7525.0875
2246.45456	7538.1875
2249.35343	7526.3875
2252.25044	7521.0875
2255.14561	7509.4875
2258.03893	7534.7875
2260.93041	7521.6875
2263.82004	7515.9875
2266.70783	7462.7875
2269.59378	7469.4875
2272.4779	7441.3875
2275.36017	7415.0875
2278.24061	7401.0875
2281.11922	7376.4875
2283.996	7360.6875
2286.87094	7365.6875
2289.74405	7323.6875
2292.61534	7328.7875
2295.4848	7310.2875
2298.35243	7300.9875
2301.21824	7290.0875
2304.08223	7290.6875
2306.94439	7281.6875
2309.80474	7287.2875
2312.66327	7303.3875
2315.51999	7283.3875
2318.37489	7264.1875
2321.22797	7247.1875
2324.07925	7252.7875
2326.92871	7236.3875
2329.77637	7231.2875
2332.62222	7231.2875
2335.46626	7246.0875
2338.3085	7229.0875
2341.14893	7232.5875
2343.98756	7203.1875
2346.8244	7210.9875
2349.65943	7223.4875
2352.49267	7234.3875
2355.32411	7246.4875
2358.15376	7254.4875
2360.98161	7239.2875
2363.80768	7272.9875
2366.63195	7277.2875
2369.45444	7271.6875
2372.27514	7265.0875
2375.09405	7240.0875
2377.91118	7232.6875
2380.72652	7194.9875
2383.54009	7177.6875
2386.35187	7148.0875
2389.16188	7103.0875
2391.97011	7077.0875
2394.77657	7077.2875
2397.58125	7049.4875
2400.38416	7016.5875
2403.18529	7021.5875
2405.98466	7002.6875
2408.78226	6965.0875
2411.57809	6957.0875
2414.37216	6959.0875
2417.16446	6944.9875
2419.955	6925.6875
2422.74378	6941.4875
2425.5308	6928.5875
2428.31606	6930.0875
2431.09956	6934.6875
2433.88131	6919.4875
2436.6613	6923.4875
2439.43954	6912.4875
2442.21603	6902.6875
2444.99077	6911.4875
2447.76377	6922.8875
2450.53501	6923.0875
2453.30451	6922.4875
2456.07226	6911.4875
2458.83827	6899.5875
2461.60254	6904.0875
2464.36507	6901.7875
2467.12586	6877.7875
2469.88492	6879.3875
2472.64224	6880.4875
2475.39782	6884.7875
2478.15167	6911.4875
2480.90379	6908.4875
2483.65417	6923.0875
2486.40283	6927.5875
2489.14976	6934.3875
2491.89497	6935.1875
2494.63845	6952.4875
2497.3802	6949.2875
2500.12024	6952.2875
2502.85855	6925.5875
2505.59514	6926.3875
2508.33002	6891.2875
2511.06318	6854.2875
2513.79462	6836.9875
2516.52435	6812.8875
2519.25237	6775.5875
2521.97867	6757.6875
2524.70327	6754.3875
2527.42616	6732.5875
2530.14734	6732.4875
2532.86681	6709.3875
2535.58458	6712.8875
2538.30065	6690.1875
2541.01501	6715.2875
2543.72768	6729.9875
2546.43864	6721.6875
2549.14791	6696.2875
2551.85548	6702.1875
2554.56136	6692.6875
2557.26554	6685.8875
2559.96803	6676.7875
2562.66883	6650.2875
2565.36794	6659.7875
2568.06536	6659.3875
2570.7611	6623.1875
2573.45514	6626.7875
2576.14751	6618.7875
2578.83819	6586.8875
2581.52719	6621.7875
2584.21451	6582.1875
2586.90015	6593.3875
2589.58411	6565.8875
2592.2664	6560.4875
2594.94701	6554.3875
2597.62594	6547.9875
2600.30321	6541.3875
2602.9788	6520.4875
2605.65273	6546.0875
2608.32498	6540.4875
2610.99557	6504.8875
2613.66449	6542.1875
2616.33175	6513.3875
2618.99734	6528.0875
2621.66128	6493.0875
2624.32355	6512.6875
2626.98416	6507.2875
2629.64311	6489.2875
2632.30041	6480.1875
2634.95605	6468.9875
2637.61004	6473.3875
2640.26238	6445.8875
2642.91306	6443.7875
2645.56209	6420.8875
2648.20948	6442.2875
2650.85521	6409.6875
2653.4993	6428.9875
2656.14175	6413.7875
2658.78255	6428.0875
2661.42171	6419.0875
2664.05923	6423.3875
2666.6951	6444.8875
2669.32934	6431.8875
2671.96194	6465.0875
2674.59291	6458.3875
2677.22224	6461.2875
2679.84993	6470.7875
2682.476	6458.9875
2685.10043	6455.7875
2687.72324	6463.6875
2690.34441	6454.2875
2692.96396	6450.8875
2695.58188	6463.8875
2698.19818	6439.4875
2700.81285	6435.4875
2703.4259	6465.8875
2706.03733	6516.5875
2708.64714	6490.1875
2711.25533	6479.5875
2713.86191	6467.4875
2716.46687	6475.6875
2719.07021	6470.7875
2721.67194	6478.1875
2724.27206	6478.1875
2726.87057	6481.8875
2729.46747	6476.1875
2732.06276	6466.1875
2734.65644	6471.8875
2737.24852	6468.7875
2739.83899	6454.5875
2742.42786	6446.8875
2745.01513	6428.9875
2747.60079	6433.0875
2750.18486	6423.1875
2752.76733	6417.9875
2755.3482	6415.0875
2757.92747	6426.6875
2760.50515	6402.9875
2763.08123	6384.0875
2765.65573	6365.0875
2768.22863	6373.0875
2770.79994	6365.9875
2773.36967	6357.0875
2775.9378	6344.3875
2778.50435	6338.6875
2781.06932	6311.8875
2783.6327	6343.1875
2786.1945	6348.1875
2788.75471	6317.5875
2791.31335	6305.3875
2793.87041	6330.5875
2796.42589	6299.9875
2798.97979	6299.0875
2801.53212	6295.9875
2804.08288	6274.1875
2806.63206	6280.8875
2809.17967	6278.9875
2811.72571	6288.3875
2814.27018	6295.3875
2816.81308	6279.3875
2819.35442	6287.1875
2821.89419	6286.6875
2824.43239	6306.6875
2826.96904	6281.0875
2829.50412	6307.4875
2832.03763	6302.6875
2834.56959	6319.2875
2837.1	6296.2875
2839.62884	6292.8875
2842.15613	6313.8875
2844.68186	6349.9875
2847.20604	6358.1875
2849.72867	6378.6875
2852.24974	6380.2875
2854.76927	6377.4875
2857.28724	6387.7875
2859.80367	6375.8875
2862.31855	6356.8875
2864.83189	6357.3875
2867.34368	6343.1875
2869.85393	6357.5875
2872.36264	6342.6875
2874.8698	6328.1875
2877.37543	6346.0875
2879.87952	6344.2875
2882.38207	6325.1875
2884.88308	6304.6875
2887.38256	6307.4875
2889.88051	6294.8875
2892.37692	6310.1875
2894.8718	6296.7875
2897.36515	6315.1875
2899.85698	6299.6875
2902.34727	6323.2875
2904.83604	6319.8875
2907.32328	6318.1875
2909.809	6325.0875
2912.29319	6331.0875
2914.77587	6315.8875
2917.25702	6318.7875
2919.73665	6322.1875
2922.21476	6322.5875
2924.69136	6303.5875
2927.16644	6308.9875
2929.64	6287.0875
2932.11205	6272.6875
2934.58258	6256.1875
2937.05161	6251.5875
2939.51912	6242.8875
2941.98513	6203.9875
2944.44962	6175.4875
2946.91261	6140.4875
2949.37409	6148.5875
2951.83407	6114.7875
2954.29254	6123.6875
2956.74951	6088.3875
2959.20498	6078.3875
2961.65895	6071.4875
2964.11142	6059.6875
2966.56239	6046.9875
2969.01186	6027.0875
2971.45984	6018.6875
2973.90632	6009.9875
2976.35131	5986.3875
2978.7948	5973.8875
2981.23681	5961.1875
2983.67732	5943.6875
2986.11635	5930.5875
2988.55388	5905.6875
2990.98993	5888.0875
2993.4245	5872.8875
2995.85758	5847.5875
2998.28917	5843.5875
3000.71928	5846.0875
3003.14791	5837.8875
3005.57506	5819.7875
3008.00073	5813.7875
3010.42493	5812.6875
3012.84764	5801.4875
3015.26888	5797.7875
3017.68865	5795.3875
3020.10694	5763.4875
3022.52376	5777.9875
3024.9391	5756.5875
3027.35298	5760.4875
3029.76539	5741.2875
3032.17632	5735.2875
3034.5858	5717.9875
3036.9938	5703.4875
3039.40034	5710.9875
3041.80542	5697.2875
3044.20903	5659.6875
3046.61118	5684.9875
3049.01187	5667.5875
3051.4111	5638.3875
3053.80888	5638.4875
3056.20519	5619.8875
3058.60005	5602.5875
3060.99345	5606.1875
3063.3854	5592.4875
3065.7759	5571.6875
3068.16494	5591.8875
3070.55254	5553.7875
3072.93868	5548.3875
3075.32338	5540.2875
3077.70662	5517.7875
3080.08842	5503.0875
