Data from AgNP_FTO_APTES_CRN_20uM_R6G_10uM_NaF_0.1M_Addition_RamanShift__35__17-41-18-049.txt Node

Date: Wed Dec 15 17:41:18 GMT 2021
User: TCL
Spectrometer: QEP01345
Trigger mode: 4
Integration Time (sec): 7.000000E0
Scans to average: 10
Electric dark correction enabled: true
Nonlinearity correction enabled: false
Boxcar width: 0
XAxis mode: Raman Shifts
Number of Pixels in Spectrum: 1044
>>>>>Begin Spectral Data<<<<<
46.04893	1.8875
50.45542	-2.0125
54.85868	-0.6125
59.25871	-0.4125
63.6555	42.1875
68.04907	47.1875
72.43941	47.6875
76.82654	51.8875
81.21044	56.8875
85.59113	60.2875
89.96862	62.1875
94.34289	61.2875
98.71396	65.8875
103.08183	73.2875
107.4465	72.0875
111.80798	70.2875
116.16626	70.7875
120.52136	72.7875
124.87327	69.3875
129.222	75.1875
133.56755	71.5875
137.90993	75.8875
142.24913	82.6875
146.58517	85.3875
150.91804	93.6875
155.24774	106.6875
159.57429	127.4875
163.89768	157.5875
168.21792	200.3875
172.53501	263.6875
176.84895	354.1875
181.15975	492.3875
185.46741	676.4875
189.77193	926.2875
194.07331	1237.0875
198.37157	1590.0875
202.6667	1962.3875
206.9587	2337.1875
211.24758	2708.4875
215.53334	3092.3875
219.81599	3522.5875
224.09553	4015.6875
228.37195	4541.8875
232.64527	5129.3875
236.91549	5709.3875
241.18261	6252.8875
245.44663	6692.4875
249.70755	7027.9875
253.96539	7321.2875
258.22014	7590.3875
262.4718	7840.1875
266.72039	8062.3875
270.96589	8189.1875
275.20832	8207.3875
279.44768	8132.0875
283.68397	8037.3875
287.91719	7980.7875
292.14735	7991.7875
296.37445	8156.2875
300.59849	8432.6875
304.81948	8793.3875
309.03742	9028.9875
313.25231	9020.7875
317.46415	8629.0875
321.67296	8018.5875
325.87872	7467.6875
330.08145	7232.4875
334.28114	7196.0875
338.47781	7314.1875
342.67145	7501.8875
346.86207	7810.3875
351.04966	8262.5875
355.23424	8779.8875
359.4158	9182.4875
363.59435	9353.1875
367.76989	9410.1875
371.94243	9373.0875
376.11196	9318.1875
380.27849	9257.1875
384.44203	9160.8875
388.60257	9028.9875
392.76012	9018.9875
396.91468	9072.4875
401.06626	9316.9875
405.21485	9493.1875
409.36047	9371.3875
413.50311	8925.6875
417.64277	8473.7875
421.77947	8241.7875
425.9132	8134.8875
430.04396	8117.6875
434.17176	8171.8875
438.2966	8277.6875
442.41849	8459.0875
446.53742	8689.2875
450.6534	8922.0875
454.76644	9093.5875
458.87653	9122.0875
462.98368	9048.2875
467.08789	8907.9875
471.18916	8712.6875
475.2875	8500.3875
479.38291	8330.3875
483.4754	8229.1875
487.56496	8117.1875
491.6516	8035.0875
495.73531	7987.7875
499.81612	8035.4875
503.89401	8129.9875
507.96899	8227.8875
512.04106	8356.3875
516.11023	8513.3875
520.1765	8651.5875
524.23987	8666.3875
528.30034	8492.0875
532.35792	8306.7875
536.41261	8109.0875
540.46441	7927.7875
544.51333	7841.3875
548.55936	7876.1875
552.60252	8022.7875
556.64279	8229.8875
560.6802	8355.7875
564.71473	8452.1875
568.7464	8739.4875
572.7752	8940.4875
576.80114	8763.2875
580.82422	8496.9875
584.84444	8358.3875
588.86181	8338.9875
592.87633	8371.7875
596.888	8492.0875
600.89682	8734.0875
604.9028	9663.2875
608.90594	12120.2875
612.90624	15425.7875
616.90371	15030.1875
620.89834	10730.6875
624.89015	8596.4875
628.87913	8193.0875
632.86528	8222.7875
636.84862	8333.5875
640.82913	8253.9875
644.80683	7944.8875
648.78172	7735.4875
652.75379	7802.9875
656.72306	8080.4875
660.68952	8470.5875
664.65319	8414.8875
668.61405	8041.6875
672.57211	7827.1875
676.52738	7816.7875
680.47986	7839.3875
684.42955	7788.2875
688.37646	7749.9875
692.32058	7786.3875
696.26192	7849.3875
700.20048	7952.4875
704.13626	8021.9875
708.06928	8026.0875
711.99952	7985.4875
715.927	7943.5875
719.85171	7924.5875
723.77365	7918.0875
727.69284	7841.2875
731.60928	7789.8875
735.52295	7794.6875
739.43388	7805.6875
743.34206	7835.8875
747.24749	7867.5875
751.15017	7921.8875
755.05012	8093.8875
758.94733	8408.8875
762.8418	9245.8875
766.73354	10634.5875
770.62254	12175.9875
774.50882	12936.5875
778.39237	12439.7875
782.27321	10898.5875
786.15132	9355.1875
790.02671	8470.1875
793.89938	8067.2875
797.76935	7896.8875
801.6366	7836.4875
805.50115	7767.9875
809.36299	7743.7875
813.22213	7704.8875
817.07857	7723.9875
820.93231	7694.8875
824.78336	7746.6875
828.63172	7767.1875
832.47738	7802.5875
836.32036	7807.8875
840.16066	7769.2875
843.99827	7714.3875
847.8332	7695.9875
851.66546	7684.0875
855.49504	7680.1875
859.32195	7642.3875
863.1462	7630.9875
866.96777	7601.4875
870.78668	7607.6875
874.60293	7598.6875
878.41652	7622.8875
882.22745	7671.8875
886.03573	7678.8875
889.84136	7685.6875
893.64433	7622.4875
897.44466	7611.3875
901.24235	7619.4875
905.0374	7597.1875
908.8298	7581.0875
912.61957	7582.3875
916.40671	7620.8875
920.19121	7657.1875
923.97308	7718.4875
927.75233	7777.9875
931.52895	7868.0875
935.30295	7773.8875
939.07433	7596.7875
942.84309	7424.5875
946.60924	7308.9875
950.37278	7259.8875
954.13371	7225.4875
957.89203	7204.4875
961.64774	7178.0875
965.40086	7159.5875
969.15137	7138.1875
972.89929	7121.8875
976.64461	7115.3875
980.38733	7103.4875
984.12747	7123.3875
987.86502	7154.3875
991.59999	7170.8875
995.33237	7244.2875
999.06217	7369.4875
1002.78939	7526.5875
1006.51404	7661.2875
1010.23611	7829.7875
1013.95561	7959.0875
1017.67255	7939.7875
1021.38692	7809.6875
1025.09872	7708.7875
1028.80796	7664.6875
1032.51465	7692.5875
1036.21877	7790.1875
1039.92035	7858.2875
1043.61937	7875.2875
1047.31584	7857.7875
1051.00976	7835.0875
1054.70114	7812.2875
1058.38998	7820.5875
1062.07627	7880.1875
1065.76003	7968.4875
1069.44126	8098.8875
1073.11995	8253.3875
1076.79611	8413.1875
1080.46974	8545.5875
1084.14085	8661.9875
1087.80943	8765.8875
1091.47549	8761.9875
1095.13903	8530.3875
1098.80005	8245.2875
1102.45857	8001.5875
1106.11456	7874.0875
1109.76805	7904.4875
1113.41903	8028.7875
1117.06751	8251.5875
1120.71348	8533.2875
1124.35696	8872.6875
1127.99793	9175.2875
1131.63641	9180.0875
1135.2724	8806.3875
1138.90589	8407.5875
1142.5369	8188.2875
1146.16542	8047.6875
1149.79145	7954.1875
1153.415	7933.2875
1157.03607	8002.6875
1160.65467	8150.5875
1164.27079	8421.4875
1167.88443	8796.0875
1171.49561	9436.1875
1175.10432	10535.3875
1178.71056	11924.0875
1182.31434	12897.9875
1185.91565	13056.0875
1189.51451	12615.8875
1193.11091	11855.8875
1196.70485	10970.4875
1200.29634	10325.4875
1203.88538	9877.4875
1207.47197	9362.3875
1211.05612	8903.1875
1214.63782	8664.4875
1218.21708	8607.9875
1221.79391	8597.3875
1225.36829	8632.0875
1228.94024	8667.5875
1232.50976	8701.2875
1236.07685	8740.0875
1239.6415	8792.3875
1243.20374	8849.3875
1246.76355	8894.3875
1250.32093	9003.7875
1253.8759	9193.4875
1257.42845	9425.1875
1260.97859	9683.5875
1264.52631	9914.8875
1268.07163	10146.4875
1271.61453	10380.7875
1275.15503	10551.8875
1278.69312	10586.8875
1282.22882	10629.1875
1285.76211	10805.2875
1289.29301	11107.8875
1292.82151	11429.1875
1296.34761	11697.9875
1299.87133	12156.2875
1303.39266	12983.2875
1306.9116	14242.9875
1310.42815	15792.3875
1313.94233	16809.2875
1317.45412	16622.4875
1320.96354	15539.9875
1324.47058	14353.7875
1327.97525	13336.7875
1331.47754	12756.2875
1334.97747	12565.7875
1338.47502	12694.9875
1341.97022	12970.3875
1345.46305	13409.2875
1348.95352	14070.8875
1352.44163	15035.9875
1355.92738	16401.7875
1359.41078	18631.6875
1362.89183	20913.6875
1366.37053	20610.8875
1369.84688	17666.6875
1373.32088	14628.6875
1376.79254	12717.7875
1380.26186	11720.8875
1383.72883	11202.2875
1387.19347	10820.1875
1390.65578	10437.4875
1394.11575	10045.6875
1397.57339	9843.6875
1401.0287	9845.4875
1404.48168	9935.3875
1407.93234	10071.5875
1411.38068	10207.2875
1414.82669	10253.5875
1418.27039	10122.7875
1421.71177	9906.5875
1425.15083	9755.5875
1428.58758	9631.6875
1432.02203	9662.0875
1435.45416	9742.5875
1438.88399	9777.2875
1442.31151	9775.7875
1445.73673	9823.8875
1449.15965	9876.6875
1452.58027	9824.7875
1455.9986	9730.9875
1459.41463	9673.3875
1462.82837	9746.3875
1466.23982	9923.1875
1469.64898	10134.8875
1473.05586	10301.4875
1476.46045	10457.9875
1479.86276	10676.6875
1483.26279	10892.6875
1486.66054	11210.6875
1490.05602	11565.8875
1493.44922	12062.2875
1496.84016	12729.6875
1500.22882	13825.8875
1503.61521	15274.5875
1506.99934	16931.6875
1510.38121	18599.4875
1513.76081	19466.9875
1517.13816	18798.3875
1520.51324	16712.2875
1523.88607	14511.8875
1527.25665	12939.4875
1530.62498	12011.9875
1533.99105	11513.1875
1537.35488	11183.3875
1540.71647	10966.2875
1544.07581	10865.5875
1547.4329	10783.7875
1550.78776	10754.1875
1554.14038	10710.1875
1557.49077	10790.5875
1560.83892	10971.1875
1564.18484	11263.4875
1567.52853	11624.1875
1570.86999	11939.9875
1574.20922	12224.5875
1577.54624	12291.9875
1580.88103	11875.7875
1584.2136	11192.3875
1587.54395	10700.0875
1590.87208	10572.0875
1594.19801	10969.0875
1597.52172	11620.1875
1600.84321	11952.8875
1604.16251	11628.4875
1607.47959	10963.9875
1610.79447	10250.9875
1614.10715	9530.0875
1617.41763	8979.6875
1620.7259	8634.4875
1624.03199	8452.0875
1627.33587	8453.7875
1630.63757	8598.3875
1633.93707	8923.2875
1637.23439	9421.0875
1640.52951	10162.4875
1643.82246	11190.8875
1647.11321	12473.8875
1650.40179	13552.9875
1653.68819	13444.8875
1656.97241	11992.7875
1660.25446	10194.6875
1663.53433	8898.4875
1666.81203	8112.6875
1670.08756	7671.3875
1673.36092	7374.7875
1676.63211	7207.2875
1679.90115	7089.7875
1683.16801	6974.7875
1686.43272	6920.4875
1689.69527	6881.4875
1692.95567	6861.3875
1696.2139	6838.6875
1699.46999	6839.2875
1702.72392	6829.8875
1705.97571	6798.4875
1709.22535	6794.0875
1712.47284	6764.1875
1715.71819	6751.5875
1718.96139	6782.4875
1722.20246	6779.7875
1725.44139	6744.3875
1728.67818	6702.3875
1731.91284	6657.0875
1735.14537	6598.2875
1738.37576	6560.7875
1741.60403	6543.3875
1744.83017	6538.6875
1748.05418	6522.3875
1751.27607	6518.7875
1754.49584	6483.3875
1757.71349	6471.4875
1760.92903	6491.6875
1764.14244	6480.9875
1767.35375	6491.1875
1770.56294	6459.7875
1773.77002	6453.9875
1776.97499	6423.0875
1780.17785	6388.8875
1783.37861	6387.2875
1786.57727	6364.3875
1789.77382	6357.8875
1792.96828	6358.8875
1796.16064	6348.0875
1799.3509	6324.1875
1802.53907	6307.5875
1805.72514	6270.1875
1808.90913	6274.2875
1812.09102	6274.4875
1815.27083	6245.9875
1818.44856	6242.7875
1821.6242	6233.6875
1824.79776	6224.0875
1827.96924	6219.2875
1831.13864	6195.3875
1834.30597	6213.8875
1837.47122	6198.6875
1840.6344	6180.8875
1843.7955	6199.5875
1846.95454	6185.3875
1850.11151	6174.9875
1853.26642	6153.5875
1856.41926	6180.6875
1859.57004	6184.8875
1862.71876	6170.6875
1865.86542	6166.6875
1869.01003	6172.4875
1872.15258	6156.5875
1875.29308	6164.4875
1878.43152	6136.5875
1881.56792	6156.1875
1884.70227	6145.2875
1887.83457	6144.6875
1890.96482	6136.5875
1894.09304	6122.8875
1897.21921	6119.9875
1900.34335	6125.1875
1903.46544	6122.4875
1906.58551	6132.9875
1909.70353	6122.7875
1912.81953	6107.9875
1915.93349	6121.1875
1919.04543	6070.5875
1922.15534	6075.3875
1925.26322	6072.1875
1928.36908	6054.7875
1931.47292	6042.9875
1934.57473	6017.9875
1937.67453	6013.6875
1940.77232	5981.9875
1943.86808	5967.5875
1946.96184	5945.0875
1950.05358	5930.2875
1953.14331	5916.3875
1956.23103	5897.5875
1959.31675	5892.7875
1962.40046	5860.8875
1965.48217	5847.0875
1968.56188	5833.7875
1971.63959	5807.0875
1974.7153	5790.8875
1977.78901	5777.5875
1980.86073	5753.3875
1983.93046	5739.9875
1986.99819	5706.9875
1990.06394	5703.7875
1993.1277	5669.6875
1996.18947	5659.3875
1999.24925	5619.3875
2002.30706	5624.0875
2005.36288	5598.4875
2008.41672	5590.3875
2011.46859	5578.8875
2014.51848	5543.3875
2017.56639	5555.1875
2020.61233	5545.7875
2023.6563	5509.6875
2026.6983	5506.3875
2029.73833	5501.7875
2032.7764	5473.5875
2035.8125	5478.1875
2038.84664	5436.9875
2041.87881	5436.0875
2044.90903	5441.0875
2047.93729	5412.6875
2050.96359	5410.5875
2053.98794	5398.5875
2057.01034	5398.4875
2060.03078	5381.8875
2063.04927	5383.6875
2066.06582	5386.3875
2069.08042	5378.6875
2072.09307	5355.2875
2075.10378	5365.2875
2078.11255	5336.1875
2081.11938	5362.8875
2084.12426	5337.5875
2087.12722	5347.7875
2090.12824	5324.8875
2093.12732	5355.4875
2096.12447	5350.6875
2099.11969	5330.9875
2102.11299	5345.1875
2105.10435	5345.5875
2108.09379	5365.0875
2111.08131	5360.0875
2114.0669	5365.0875
2117.05057	5338.9875
2120.03233	5367.8875
2123.01216	5360.2875
2125.99008	5359.8875
2128.96609	5351.9875
2131.94018	5372.1875
2134.91236	5357.1875
2137.88263	5363.9875
2140.851	5375.0875
2143.81746	5379.3875
2146.78201	5377.4875
2149.74466	5370.9875
2152.7054	5361.1875
2155.66425	5368.2875
2158.6212	5371.4875
2161.57625	5360.5875
2164.52941	5349.7875
2167.48067	5355.3875
2170.43004	5341.9875
2173.37752	5354.5875
2176.32311	5346.0875
2179.26681	5348.9875
2182.20863	5332.8875
2185.14856	5337.2875
2188.08661	5324.2875
2191.02278	5320.9875
2193.95707	5323.7875
2196.88948	5311.7875
2199.82001	5305.4875
2202.74867	5306.8875
2205.67545	5308.8875
2208.60037	5285.9875
2211.52341	5290.1875
2214.44458	5283.4875
2217.36388	5267.0875
2220.28132	5254.7875
2223.1969	5247.7875
2226.11061	5236.6875
2229.02246	5234.6875
2231.93245	5221.0875
2234.84058	5207.2875
2237.74686	5187.1875
2240.65128	5198.6875
2243.55385	5183.8875
2246.45456	5168.5875
2249.35343	5172.4875
2252.25044	5160.1875
2255.14561	5153.0875
2258.03893	5163.5875
2260.93041	5163.4875
2263.82004	5154.2875
2266.70783	5135.5875
2269.59378	5110.2875
2272.4779	5107.6875
2275.36017	5098.5875
2278.24061	5071.4875
2281.11922	5052.2875
2283.996	5063.7875
2286.87094	5046.9875
2289.74405	5031.6875
2292.61534	5034.2875
2295.4848	4993.3875
2298.35243	5024.5875
2301.21824	5006.3875
2304.08223	4993.2875
2306.94439	4993.2875
2309.80474	4968.8875
2312.66327	4979.9875
2315.51999	4982.0875
2318.37489	4980.0875
2321.22797	4977.6875
2324.07925	4962.9875
2326.92871	4955.1875
2329.77637	4968.3875
2332.62222	4945.4875
2335.46626	4932.7875
2338.3085	4919.2875
2341.14893	4933.3875
2343.98756	4925.6875
2346.8244	4934.3875
2349.65943	4948.8875
2352.49267	4921.0875
2355.32411	4943.7875
2358.15376	4933.4875
2360.98161	4941.5875
2363.80768	4950.1875
2366.63195	4932.8875
2369.45444	4935.6875
2372.27514	4930.2875
2375.09405	4915.8875
2377.91118	4909.4875
2380.72652	4904.8875
2383.54009	4861.7875
2386.35187	4862.1875
2389.16188	4838.5875
2391.97011	4826.9875
2394.77657	4813.7875
2397.58125	4807.0875
2400.38416	4795.6875
2403.18529	4780.9875
2405.98466	4756.2875
2408.78226	4761.4875
2411.57809	4748.6875
2414.37216	4739.8875
2417.16446	4728.1875
2419.955	4721.2875
2422.74378	4729.6875
2425.5308	4722.7875
2428.31606	4721.4875
2431.09956	4712.9875
2433.88131	4713.8875
2436.6613	4732.8875
2439.43954	4712.5875
2442.21603	4696.4875
2444.99077	4681.6875
2447.76377	4693.2875
2450.53501	4695.0875
2453.30451	4696.8875
2456.07226	4685.3875
2458.83827	4682.0875
2461.60254	4666.8875
2464.36507	4664.2875
2467.12586	4658.7875
2469.88492	4660.9875
2472.64224	4650.1875
2475.39782	4665.1875
2478.15167	4670.5875
2480.90379	4681.2875
2483.65417	4671.7875
2486.40283	4673.9875
2489.14976	4687.8875
2491.89497	4690.5875
2494.63845	4699.8875
2497.3802	4668.8875
2500.12024	4675.7875
2502.85855	4666.3875
2505.59514	4658.5875
2508.33002	4650.5875
2511.06318	4629.8875
2513.79462	4607.0875
2516.52435	4601.0875
2519.25237	4587.0875
2521.97867	4562.5875
2524.70327	4571.5875
2527.42616	4565.6875
2530.14734	4558.5875
2532.86681	4551.5875
2535.58458	4532.8875
2538.30065	4524.6875
2541.01501	4532.7875
2543.72768	4540.0875
2546.43864	4511.2875
2549.14791	4517.6875
2551.85548	4505.8875
2554.56136	4498.8875
2557.26554	4478.7875
2559.96803	4483.0875
2562.66883	4508.8875
2565.36794	4493.3875
2568.06536	4462.3875
2570.7611	4470.6875
2573.45514	4469.3875
2576.14751	4452.5875
2578.83819	4438.7875
2581.52719	4443.8875
2584.21451	4430.7875
2586.90015	4420.1875
2589.58411	4415.7875
2592.2664	4417.8875
2594.94701	4404.5875
2597.62594	4409.9875
2600.30321	4386.1875
2602.9788	4364.0875
2605.65273	4380.0875
2608.32498	4369.9875
2610.99557	4356.9875
2613.66449	4354.5875
2616.33175	4365.4875
2618.99734	4350.3875
2621.66128	4350.4875
2624.32355	4358.1875
2626.98416	4352.4875
2629.64311	4322.9875
2632.30041	4331.7875
2634.95605	4318.6875
2637.61004	4313.9875
2640.26238	4308.8875
2642.91306	4304.3875
2645.56209	4282.2875
2648.20948	4284.8875
2650.85521	4297.2875
2653.4993	4296.1875
2656.14175	4276.3875
2658.78255	4282.5875
2661.42171	4276.0875
2664.05923	4295.3875
2666.6951	4290.7875
2669.32934	4300.3875
2671.96194	4286.0875
2674.59291	4291.6875
2677.22224	4293.4875
2679.84993	4294.4875
2682.476	4307.7875
2685.10043	4293.6875
2687.72324	4305.7875
2690.34441	4298.6875
2692.96396	4289.4875
2695.58188	4299.0875
2698.19818	4291.6875
2700.81285	4285.5875
2703.4259	4320.5875
2706.03733	4360.9875
2708.64714	4320.2875
2711.25533	4312.1875
2713.86191	4298.2875
2716.46687	4325.0875
2719.07021	4297.5875
2721.67194	4312.6875
2724.27206	4305.5875
2726.87057	4290.4875
2729.46747	4297.0875
2732.06276	4282.6875
2734.65644	4265.4875
2737.24852	4279.7875
2739.83899	4276.9875
2742.42786	4268.8875
2745.01513	4267.5875
2747.60079	4242.6875
2750.18486	4260.3875
2752.76733	4260.8875
2755.3482	4242.7875
2757.92747	4250.9875
2760.50515	4230.6875
2763.08123	4209.6875
2765.65573	4228.7875
2768.22863	4216.3875
2770.79994	4222.9875
2773.36967	4203.9875
2775.9378	4196.3875
2778.50435	4199.4875
2781.06932	4183.7875
2783.6327	4187.6875
2786.1945	4182.3875
2788.75471	4183.6875
2791.31335	4165.4875
2793.87041	4164.5875
2796.42589	4159.0875
2798.97979	4158.2875
2801.53212	4159.8875
2804.08288	4141.0875
2806.63206	4126.0875
2809.17967	4139.3875
2811.72571	4117.9875
2814.27018	4146.0875
2816.81308	4127.7875
2819.35442	4127.3875
2821.89419	4124.1875
2824.43239	4134.0875
2826.96904	4123.9875
2829.50412	4140.7875
2832.03763	4130.4875
2834.56959	4136.6875
2837.1	4136.8875
2839.62884	4144.2875
2842.15613	4158.5875
2844.68186	4176.3875
2847.20604	4203.1875
2849.72867	4224.3875
2852.24974	4240.3875
2854.76927	4249.1875
2857.28724	4250.6875
2859.80367	4233.3875
2862.31855	4217.0875
2864.83189	4202.0875
2867.34368	4205.2875
2869.85393	4186.6875
2872.36264	4179.7875
2874.8698	4170.4875
2877.37543	4173.8875
2879.87952	4189.9875
2882.38207	4179.6875
2884.88308	4185.2875
2887.38256	4176.6875
2889.88051	4166.7875
2892.37692	4156.7875
2894.8718	4162.3875
2897.36515	4165.3875
2899.85698	4169.0875
2902.34727	4189.5875
2904.83604	4167.0875
2907.32328	4173.2875
2909.809	4166.1875
2912.29319	4163.3875
2914.77587	4168.9875
2917.25702	4163.8875
2919.73665	4154.9875
2922.21476	4159.9875
2924.69136	4149.3875
2927.16644	4137.4875
2929.64	4129.5875
2932.11205	4126.3875
2934.58258	4107.4875
2937.05161	4126.4875
2939.51912	4114.2875
2941.98513	4092.8875
2944.44962	4073.5875
2946.91261	4038.2875
2949.37409	4028.8875
2951.83407	4025.7875
2954.29254	4012.4875
2956.74951	3990.5875
2959.20498	3984.8875
2961.65895	3975.6875
2964.11142	3965.7875
2966.56239	3971.0875
2969.01186	3969.2875
2971.45984	3944.5875
2973.90632	3943.5875
2976.35131	3925.5875
2978.7948	3916.1875
2981.23681	3915.6875
2983.67732	3900.9875
2986.11635	3887.3875
2988.55388	3876.6875
2990.98993	3862.7875
2993.4245	3862.5875
2995.85758	3859.3875
2998.28917	3857.8875
3000.71928	3837.9875
3003.14791	3838.7875
3005.57506	3831.7875
3008.00073	3817.9875
3010.42493	3826.7875
3012.84764	3814.4875
3015.26888	3808.9875
3017.68865	3796.9875
3020.10694	3804.8875
3022.52376	3791.3875
3024.9391	3786.4875
3027.35298	3781.3875
3029.76539	3781.3875
3032.17632	3785.0875
3034.5858	3762.7875
3036.9938	3772.2875
3039.40034	3759.6875
3041.80542	3760.8875
3044.20903	3749.1875
3046.61118	3745.3875
3049.01187	3742.7875
3051.4111	3729.2875
3053.80888	3733.0875
3056.20519	3720.9875
3058.60005	3719.7875
3060.99345	3708.8875
3063.3854	3703.5875
3065.7759	3698.5875
3068.16494	3680.0875
3070.55254	3687.7875
3072.93868	3674.8875
3075.32338	3667.5875
3077.70662	3664.2875
3080.08842	3639.7875
3082.46878	3652.0875
3084.84769	3641.9875
3087.22515	3635.9875
3089.60118	3634.2875
3091.97576	3626.7875
3094.3489	3627.9875
3096.72061	3626.1875
3099.09087	3642.8875
3101.4597	3635.0875
3103.82709	3624.3875
3106.19305	3601.0875
3108.55757	3606.5875
3110.92066	3598.8875
3113.28232	3598.0875
