Data from AgNP_FTO_APTES_CRN_0uM_R6G_10uM_NaF_0.1M_Addition_RamanShift__66__12-46-42-980.txt Node

Date: Wed Dec 15 12:46:42 GMT 2021
User: TCL
Spectrometer: QEP01345
Trigger mode: 4
Integration Time (sec): 7.000000E0
Scans to average: 10
Electric dark correction enabled: true
Nonlinearity correction enabled: false
Boxcar width: 0
XAxis mode: Raman Shifts
Number of Pixels in Spectrum: 1044
>>>>>Begin Spectral Data<<<<<
46.04893	1.05
50.45542	-1.75
54.85868	-1.65
59.25871	-2.25
63.6555	152.35
68.04907	162.25
72.43941	166.75
76.82654	179.55
81.21044	183.75
85.59113	194.25
89.96862	197.25
94.34289	202.85
98.71396	213.15
103.08183	219.05
107.4465	222.35
111.80798	226.25
116.16626	235.95
120.52136	245.25
124.87327	246.55
129.222	263.65
133.56755	274.35
137.90993	299.25
142.24913	318.75
146.58517	355.45
150.91804	406.35
155.24774	474.95
159.57429	587.25
163.89768	748.75
168.21792	979.35
172.53501	1328.35
176.84895	1837.25
181.15975	2569.15
185.46741	3598.75
189.77193	4961.45
194.07331	6625.05
198.37157	8497.75
202.6667	10492.45
206.9587	12438.55
211.24758	14389.05
215.53334	16352.05
219.81599	18464.45
224.09553	20813.25
228.37195	23432.05
232.64527	26281.05
236.91549	29280.85
241.18261	32197.15
245.44663	34796.65
249.70755	37113.65
253.96539	39056.15
258.22014	40722.95
262.4718	42218.25
266.72039	43273.05
270.96589	43910.15
275.20832	43978.85
279.44768	43666.45
283.68397	43256.05
287.91719	42810.55
292.14735	42586.85
296.37445	42611.75
300.59849	43023.45
304.81948	43589.95
309.03742	43988.95
313.25231	43886.55
317.46415	42757.95
321.67296	41215.55
325.87872	39898.85
330.08145	39290.05
334.28114	39387.45
338.47781	39813.25
342.67145	40445.45
346.86207	41439.55
351.04966	42694.95
355.23424	44140.55
359.4158	45353.75
363.59435	46129.65
367.76989	46531.75
371.94243	46648.85
376.11196	46743.55
380.27849	46808.75
384.44203	46925.75
388.60257	46985.05
392.76012	47232.55
396.91468	47835.85
401.06626	48792.75
405.21485	49633.95
409.36047	49505.85
413.50311	48510.75
417.64277	47657.25
421.77947	47311.05
425.9132	47320.35
430.04396	47643.95
434.17176	47981.35
438.2966	48521.45
442.41849	49582.75
446.53742	51032.45
450.6534	52735.15
454.76644	54037.55
458.87653	54530.75
462.98368	54213.15
467.08789	53253.45
471.18916	51927.35
475.2875	50604.85
479.38291	49761.65
483.4754	49081.45
487.56496	48538.25
491.6516	47923.55
495.73531	47440.75
499.81612	47299.85
503.89401	47623.95
507.96899	47855.75
512.04106	47979.25
516.11023	48151.75
520.1765	48220.45
524.23987	48165.05
528.30034	47768.65
532.35792	47207.55
536.41261	46400.65
540.46441	45579.95
544.51333	45305.15
548.55936	45710.45
552.60252	46546.95
556.64279	47373.15
560.6802	47886.15
564.71473	48250.55
568.7464	49164.75
572.7752	50257.55
576.80114	50618.85
580.82422	50966.55
584.84444	51635.85
588.86181	52511.15
592.87633	53868.35
596.888	55159.65
600.89682	56318.15
604.9028	59243.35
608.90594	66421.95
612.90624	73855.05
616.90371	69553.35
620.89834	56406.55
624.89015	50749.55
628.87913	50042.75
632.86528	49652.75
636.84862	48981.05
640.82913	47787.25
644.80683	46188.25
648.78172	45091.85
652.75379	44994.15
656.72306	46037.35
660.68952	47204.25
664.65319	47039.65
668.61405	45921.15
672.57211	45436.55
676.52738	45318.95
680.47986	45299.15
684.42955	45089.25
688.37646	45055.05
692.32058	45269.75
696.26192	45725.85
700.20048	46383.15
704.13626	46633.55
708.06928	46388.45
711.99952	45981.75
715.927	45915.05
719.85171	45977.75
723.77365	45698.05
727.69284	45159.55
731.60928	44668.75
735.52295	44596.75
739.43388	44762.25
743.34206	45049.45
747.24749	45402.95
751.15017	45856.95
755.05012	46730.85
758.94733	48232.75
762.8418	51171.35
766.73354	55909.25
770.62254	60563.85
774.50882	61961.65
778.39237	59007.15
782.27321	53866.55
786.15132	49583.45
790.02671	46999.45
793.89938	45855.05
797.76935	45479.95
801.6366	45316.65
805.50115	45101.45
809.36299	44779.75
813.22213	44510.35
817.07857	44457.45
820.93231	44342.95
824.78336	44407.15
828.63172	44454.75
832.47738	44658.15
836.32036	44916.15
840.16066	45269.35
843.99827	45405.85
847.8332	45326.95
851.66546	44908.15
855.49504	44714.95
859.32195	44564.35
863.1462	44290.45
866.96777	43979.65
870.78668	43791.15
874.60293	43808.35
878.41652	43808.65
882.22745	44053.85
886.03573	44224.55
889.84136	44107.15
893.64433	43846.25
897.44466	43653.25
901.24235	43570.85
905.0374	43487.25
908.8298	43502.95
912.61957	43612.45
916.40671	44052.15
920.19121	44826.95
923.97308	45652.25
927.75233	46301.55
931.52895	46325.15
935.30295	45672.05
939.07433	44596.15
942.84309	43852.45
946.60924	43627.45
950.37278	43412.95
954.13371	43011.05
957.89203	42603.85
961.64774	42330.85
965.40086	42195.45
969.15137	42025.95
972.89929	41922.55
976.64461	41913.75
980.38733	42035.95
984.12747	42360.25
987.86502	42915.25
991.59999	43725.75
995.33237	45028.75
999.06217	47074.35
1002.78939	49555.95
1006.51404	51033.35
1010.23611	51665.85
1013.95561	52090.35
1017.67255	51871.65
1021.38692	51083.65
1025.09872	50783.35
1028.80796	52041.15
1032.51465	54788.85
1036.21877	57302.35
1039.92035	57568.45
1043.61937	56049.65
1047.31584	53436.85
1051.00976	50697.95
1054.70114	48995.25
1058.38998	48419.15
1062.07627	48461.95
1065.76003	48694.95
1069.44126	49273.95
1073.11995	50389.85
1076.79611	51383.15
1080.46974	51892.05
1084.14085	52106.45
1087.80943	52230.85
1091.47549	51910.05
1095.13903	51096.05
1098.80005	49845.05
1102.45857	48699.55
1106.11456	48119.65
1109.76805	48146.35
1113.41903	48555.95
1117.06751	49097.55
1120.71348	49707.85
1124.35696	50347.35
1127.99793	51033.55
1131.63641	51250.15
1135.2724	50699.55
1138.90589	50045.25
1142.5369	49431.45
1146.16542	49051.05
1149.79145	48898.15
1153.415	49138.75
1157.03607	49679.05
1160.65467	50757.65
1164.27079	52527.05
1167.88443	55266.35
1171.49561	59208.85
1175.10432	64818.25
1178.71056	71880.05
1182.31434	78229.55
1185.91565	81383.95
1189.51451	80761.35
1193.11091	76977.55
1196.70485	72192.85
1200.29634	68149.05
1203.88538	65129.15
1207.47197	62850.55
1211.05612	61119.95
1214.63782	60180.85
1218.21708	60180.65
1221.79391	60690.75
1225.36829	61103.45
1228.94024	60726.35
1232.50976	59588.35
1236.07685	58582.75
1239.6415	58097.45
1243.20374	57927.95
1246.76355	58186.55
1250.32093	59133.05
1253.8759	60743.55
1257.42845	62858.65
1260.97859	64714.05
1264.52631	66317.05
1268.07163	68030.15
1271.61453	70176.05
1275.15503	72637.35
1278.69312	75179.45
1282.22882	77416.95
1285.76211	79247.15
1289.29301	81032.45
1292.82151	83113.65
1296.34761	85953.15
1299.87133	90179.05
1303.39266	96108.65
1306.9116	103677.65
1310.42815	111499.45
1313.94233	116665.15
1317.45412	116557.75
1320.96354	112636.15
1324.47058	107487.45
1327.97525	103061.35
1331.47754	99935.95
1334.97747	98672.75
1338.47502	98509.05
1341.97022	98561.75
1345.46305	97895.25
1348.95352	97202.45
1352.44163	97624.75
1355.92738	101068.05
1359.41078	108536.35
1362.89183	115993.95
1366.37053	115090.45
1369.84688	104416.85
1373.32088	91613.05
1376.79254	82473.45
1380.26186	78138.95
1383.72883	76552.35
1387.19347	75443.45
1390.65578	74058.35
1394.11575	73368.05
1397.57339	73860.75
1401.0287	75366.85
1404.48168	76938.25
1407.93234	78278.55
1411.38068	78989.05
1414.82669	78280.05
1418.27039	76030.45
1421.71177	73101.75
1425.15083	70400.35
1428.58758	69009.45
1432.02203	68980.55
1435.45416	69924.45
1438.88399	71037.95
1442.31151	71969.35
1445.73673	72837.75
1449.15965	73509.75
1452.58027	73652.55
1455.9986	73226.75
1459.41463	73027.55
1462.82837	73695.55
1466.23982	75199.25
1469.64898	76811.15
1473.05586	77859.55
1476.46045	78512.05
1479.86276	79119.45
1483.26279	79455.45
1486.66054	79893.25
1490.05602	80844.15
1493.44922	81986.65
1496.84016	82902.95
1500.22882	84256.95
1503.61521	86586.05
1506.99934	90028.05
1510.38121	93874.35
1513.76081	95878.35
1517.13816	94398.55
1520.51324	89577.75
1523.88607	84369.95
1527.25665	80713.95
1530.62498	78554.65
1533.99105	77266.25
1537.35488	76464.35
1540.71647	75709.85
1544.07581	74857.25
1547.4329	73784.15
1550.78776	72628.65
1554.14038	71665.65
1557.49077	71271.25
1560.83892	71045.05
1564.18484	71128.25
1567.52853	71240.85
1570.86999	71767.75
1574.20922	72850.35
1577.54624	74179.95
1580.88103	74651.35
1584.2136	74836.45
1587.54395	76137.35
1590.87208	79555.05
1594.19801	84973.15
1597.52172	91008.25
1600.84321	93448.15
1604.16251	89732.65
1607.47959	82077.25
1610.79447	73746.35
1614.10715	66566.95
1617.41763	61290.25
1620.7259	58015.25
1624.03199	56574.25
1627.33587	56931.45
1630.63757	58929.65
1633.93707	62498.25
1637.23439	67804.75
1640.52951	74401.05
1643.82246	81620.15
1647.11321	87202.85
1650.40179	88286.65
1653.68819	83098.05
1656.97241	73034.75
1660.25446	62705.35
1663.53433	55137.15
1666.81203	50337.55
1670.08756	47369.65
1673.36092	45561.25
1676.63211	44363.25
1679.90115	43526.95
1683.16801	42885.65
1686.43272	42443.95
1689.69527	42167.25
1692.95567	41928.85
1696.2139	41790.75
1699.46999	41710.35
1702.72392	41610.65
1705.97571	41563.45
1709.22535	41488.75
1712.47284	41425.65
1715.71819	41387.05
1718.96139	41288.05
1722.20246	41208.75
1725.44139	41078.45
1728.67818	40831.55
1731.91284	40609.05
1735.14537	40370.55
1738.37576	40180.05
1741.60403	40045.65
1744.83017	39952.45
1748.05418	39896.75
1751.27607	39788.05
1754.49584	39764.65
1757.71349	39650.65
1760.92903	39665.95
1764.14244	39609.65
1767.35375	39583.55
1770.56294	39530.65
1773.77002	39505.75
1776.97499	39572.35
1780.17785	39514.25
1783.37861	39462.05
1786.57727	39458.25
1789.77382	39405.75
1792.96828	39321.85
1796.16064	39288.45
1799.3509	39230.25
1802.53907	39241.45
1805.72514	39129.85
1808.90913	39025.85
1812.09102	38951.85
1815.27083	38870.75
1818.44856	38836.85
1821.6242	38771.35
1824.79776	38767.25
1827.96924	38694.75
1831.13864	38695.25
1834.30597	38756.35
1837.47122	38732.15
1840.6344	38689.55
1843.7955	38756.75
1846.95454	38710.95
1850.11151	38748.85
1853.26642	38743.75
1856.41926	38707.25
1859.57004	38739.75
1862.71876	38715.35
1865.86542	38698.15
1869.01003	38738.65
1872.15258	38712.55
1875.29308	38780.45
1878.43152	38735.15
1881.56792	38802.15
1884.70227	38800.35
1887.83457	38849.15
1890.96482	38831.25
1894.09304	38829.15
1897.21921	38808.65
1900.34335	38835.85
1903.46544	38796.05
1906.58551	38840.45
1909.70353	38855.05
1912.81953	38817.75
1915.93349	38761.95
1919.04543	38631.55
1922.15534	38675.05
1925.26322	38578.35
1928.36908	38457.95
1931.47292	38356.95
1934.57473	38273.85
1937.67453	38101.95
1940.77232	38021.65
1943.86808	37894.15
1946.96184	37699.15
1950.05358	37575.95
1953.14331	37443.65
1956.23103	37354.45
1959.31675	37225.25
1962.40046	37117.75
1965.48217	37019.95
1968.56188	36961.95
1971.63959	36820.95
1974.7153	36734.55
1977.78901	36628.15
1980.86073	36490.05
1983.93046	36400.75
1986.99819	36237.35
1990.06394	36161.95
1993.1277	36116.25
1996.18947	35960.65
1999.24925	35886.55
2002.30706	35741.75
2005.36288	35719.55
2008.41672	35625.45
2011.46859	35493.25
2014.51848	35412.05
2017.56639	35348.75
2020.61233	35265.95
2023.6563	35212.35
2026.6983	35139.05
2029.73833	35123.15
2032.7764	35035.95
2035.8125	35017.45
2038.84664	34973.55
2041.87881	34932.05
2044.90903	34915.15
2047.93729	34839.85
2050.96359	34822.75
2053.98794	34751.75
2057.01034	34749.05
2060.03078	34712.75
2063.04927	34660.05
2066.06582	34644.85
2069.08042	34640.65
2072.09307	34594.55
2075.10378	34555.15
2078.11255	34492.65
2081.11938	34528.85
2084.12426	34433.15
2087.12722	34384.25
2090.12824	34354.55
2093.12732	34404.75
2096.12447	34386.85
2099.11969	34311.65
2102.11299	34380.65
2105.10435	34379.95
2108.09379	34411.65
2111.08131	34410.65
2114.0669	34433.25
2117.05057	34446.75
2120.03233	34421.75
2123.01216	34439.65
2125.99008	34485.45
2128.96609	34499.35
2131.94018	34538.85
2134.91236	34484.85
2137.88263	34585.95
2140.851	34600.95
2143.81746	34705.55
2146.78201	34657.85
2149.74466	34654.95
2152.7054	34671.15
2155.66425	34702.55
2158.6212	34637.75
2161.57625	34650.65
2164.52941	34682.05
2167.48067	34653.45
2170.43004	34648.65
2173.37752	34618.45
2176.32311	34605.95
2179.26681	34576.65
2182.20863	34619.35
2185.14856	34675.65
2188.08661	34711.65
2191.02278	34691.25
2193.95707	34719.65
2196.88948	34723.05
2199.82001	34776.35
2202.74867	34754.65
2205.67545	34755.85
2208.60037	34733.95
2211.52341	34757.25
2214.44458	34765.55
2217.36388	34708.25
2220.28132	34679.55
2223.1969	34651.75
2226.11061	34642.85
2229.02246	34517.75
2231.93245	34449.25
2234.84058	34364.75
2237.74686	34268.45
2240.65128	34303.75
2243.55385	34211.35
2246.45456	34186.45
2249.35343	34112.35
2252.25044	34060.75
2255.14561	33970.95
2258.03893	34062.85
2260.93041	33971.05
2263.82004	33874.55
2266.70783	33808.35
2269.59378	33731.65
2272.4779	33646.45
2275.36017	33530.95
2278.24061	33449.65
2281.11922	33438.55
2283.996	33402.55
2286.87094	33374.05
2289.74405	33317.45
2292.61534	33293.65
2295.4848	33295.25
2298.35243	33323.35
2301.21824	33346.05
2304.08223	33435.65
2306.94439	33444.05
2309.80474	33484.55
2312.66327	33473.25
2315.51999	33524.65
2318.37489	33540.05
2321.22797	33567.35
2324.07925	33544.75
2326.92871	33505.25
2329.77637	33545.55
2332.62222	33494.05
2335.46626	33514.15
2338.3085	33574.05
2341.14893	33635.25
2343.98756	33688.45
2346.8244	33666.55
2349.65943	33645.45
2352.49267	33662.05
2355.32411	33648.75
2358.15376	33583.75
2360.98161	33526.55
2363.80768	33479.25
2366.63195	33393.75
2369.45444	33376.25
2372.27514	33276.85
2375.09405	33160.25
2377.91118	33039.95
2380.72652	32965.85
2383.54009	32884.65
2386.35187	32901.85
2389.16188	32819.05
2391.97011	32877.55
2394.77657	32838.65
2397.58125	32773.85
2400.38416	32689.25
2403.18529	32618.15
2405.98466	32543.15
2408.78226	32468.05
2411.57809	32345.35
2414.37216	32272.75
2417.16446	32231.55
2419.955	32135.05
2422.74378	32099.75
2425.5308	32116.35
2428.31606	32079.95
2431.09956	32043.95
2433.88131	31981.35
2436.6613	32017.55
2439.43954	32018.65
2442.21603	31982.55
2444.99077	31917.55
2447.76377	31960.95
2450.53501	31916.35
2453.30451	31902.45
2456.07226	31924.75
2458.83827	31942.85
2461.60254	31909.05
2464.36507	31949.65
2467.12586	31913.55
2469.88492	31957.85
2472.64224	32001.65
2475.39782	32032.95
2478.15167	32038.05
2480.90379	32020.15
2483.65417	32129.75
2486.40283	32124.85
2489.14976	32152.25
2491.89497	32142.45
2494.63845	32179.55
2497.3802	32194.35
2500.12024	32224.65
2502.85855	32205.55
2505.59514	32183.75
2508.33002	32140.55
2511.06318	32069.75
2513.79462	32027.35
2516.52435	31957.45
2519.25237	31925.35
2521.97867	31917.95
2524.70327	31911.65
2527.42616	31863.35
2530.14734	31948.35
2532.86681	31899.35
2535.58458	31856.35
2538.30065	31844.55
2541.01501	31830.65
2543.72768	31836.85
2546.43864	31814.35
2549.14791	31791.55
2551.85548	31802.15
2554.56136	31810.85
2557.26554	31749.85
2559.96803	31682.05
2562.66883	31668.35
2565.36794	31683.65
2568.06536	31688.25
2570.7611	31655.75
2573.45514	31700.95
2576.14751	31710.45
2578.83819	31632.05
2581.52719	31654.25
2584.21451	31621.35
2586.90015	31642.75
2589.58411	31639.75
2592.2664	31644.75
2594.94701	31590.85
2597.62594	31603.25
2600.30321	31551.35
2602.9788	31596.15
2605.65273	31532.35
2608.32498	31576.95
2610.99557	31550.75
2613.66449	31582.55
2616.33175	31581.15
2618.99734	31593.15
2621.66128	31620.05
2624.32355	31645.45
2626.98416	31709.65
2629.64311	31696.75
2632.30041	31745.55
2634.95605	31679.15
2637.61004	31646.75
2640.26238	31603.25
2642.91306	31582.35
2645.56209	31464.35
2648.20948	31432.45
2650.85521	31381.15
2653.4993	31385.45
2656.14175	31354.05
2658.78255	31398.15
2661.42171	31387.95
2664.05923	31471.35
2666.6951	31455.15
2669.32934	31504.05
2671.96194	31516.85
2674.59291	31465.35
2677.22224	31495.45
2679.84993	31460.05
2682.476	31456.85
2685.10043	31464.65
2687.72324	31389.75
2690.34441	31352.55
2692.96396	31286.65
2695.58188	31377.05
2698.19818	31263.55
2700.81285	31279.75
2703.4259	31208.75
2706.03733	31303.75
2708.64714	31236.85
2711.25533	31244.15
2713.86191	31238.85
2716.46687	31260.55
2719.07021	31224.45
2721.67194	31271.05
2724.27206	31297.95
2726.87057	31288.95
2729.46747	31275.25
2732.06276	31337.35
2734.65644	31267.05
2737.24852	31346.95
2739.83899	31287.45
2742.42786	31269.95
2745.01513	31247.45
2747.60079	31260.55
2750.18486	31221.25
2752.76733	31246.15
2755.3482	31267.45
2757.92747	31270.25
2760.50515	31228.95
2763.08123	31198.35
2765.65573	31222.35
2768.22863	31222.35
2770.79994	31149.15
2773.36967	31191.55
2775.9378	31135.85
2778.50435	31145.45
2781.06932	31106.85
2783.6327	31107.65
2786.1945	31113.05
2788.75471	31082.95
2791.31335	31050.65
2793.87041	30980.35
2796.42589	30901.65
2798.97979	30876.95
2801.53212	30788.85
2804.08288	30760.55
2806.63206	30698.15
2809.17967	30673.75
2811.72571	30626.85
2814.27018	30610.75
2816.81308	30613.15
2819.35442	30594.95
2821.89419	30583.15
2824.43239	30527.65
2826.96904	30553.25
2829.50412	30551.95
2832.03763	30550.15
2834.56959	30524.95
2837.1	30498.85
2839.62884	30456.85
2842.15613	30398.15
2844.68186	30407.85
2847.20604	30409.65
2849.72867	30370.85
2852.24974	30326.55
2854.76927	30325.95
2857.28724	30323.95
2859.80367	30273.35
2862.31855	30212.15
2864.83189	30250.55
2867.34368	30232.65
2869.85393	30247.75
2872.36264	30196.15
2874.8698	30200.55
2877.37543	30190.15
2879.87952	30254.85
2882.38207	30265.45
2884.88308	30211.65
2887.38256	30250.05
2889.88051	30247.75
2892.37692	30292.75
2894.8718	30338.15
2897.36515	30292.35
2899.85698	30325.45
2902.34727	30418.85
2904.83604	30400.95
2907.32328	30425.35
2909.809	30404.15
2912.29319	30438.45
2914.77587	30458.05
2917.25702	30414.65
2919.73665	30358.35
2922.21476	30407.35
2924.69136	30330.25
2927.16644	30321.35
2929.64	30238.75
2932.11205	30200.55
2934.58258	30122.55
2937.05161	30150.25
2939.51912	30139.85
2941.98513	30114.95
2944.44962	30035.95
2946.91261	29985.45
2949.37409	29966.55
2951.83407	29945.75
2954.29254	29977.75
2956.74951	29918.95
2959.20498	29924.35
2961.65895	29885.35
2964.11142	29816.75
2966.56239	29745.15
2969.01186	29697.15
2971.45984	29596.45
2973.90632	29515.65
2976.35131	29464.95
2978.7948	29420.55
2981.23681	29356.65
2983.67732	29274.55
2986.11635	29218.55
2988.55388	29116.25
2990.98993	29087.85
2993.4245	29040.65
2995.85758	28957.45
2998.28917	28874.65
3000.71928	28843.25
3003.14791	28749.55
3005.57506	28697.95
3008.00073	28627.15
3010.42493	28639.95
3012.84764	28636.45
3015.26888	28557.25
3017.68865	28525.75
3020.10694	28487.95
3022.52376	28407.75
3024.9391	28350.25
3027.35298	28310.15
3029.76539	28250.15
3032.17632	28236.55
3034.5858	28178.45
3036.9938	28173.65
3039.40034	28136.65
3041.80542	28113.05
3044.20903	28062.55
3046.61118	28033.65
3049.01187	27953.85
3051.4111	27929.15
3053.80888	27872.45
3056.20519	27754.95
3058.60005	27696.45
3060.99345	27659.55
3063.3854	27603.45
3065.7759	27499.65
3068.16494	27456.45
3070.55254	27376.35
3072.93868	27350.35
3075.32338	27225.35
3077.70662	27138.45
3080.08842	27073.15
3082.46878	27062.05
3084.84769	26982.25
3087.22515	27009.75
3089.60118	27029.35
3091.97576	27005.05
3094.3489	26960.35
3096.72061	26906.95
3099.09087	26891.45
3101.4597	26851.85
3103.82709	26815.95
3106.19305	26773.35
3108.55757	26754.85
3110.92066	26693.75
3113.28232	26688.35
3115.64255	26594.95
3118.00134	26549.85
3120.35871	26489.15
3122.71466	26414.35
3125.06917	26402.55
3127.42226	26364.45
3129.77393	26375.55
3132.12417	26332.95
3134.47299	26316.55
3136.82039	26307.85
3139.16636	26313.85
3141.51092	26251.25
3143.85406	26278.55
3146.19579	26224.55
3148.53609	26226.25
3150.87499	26188.65
3153.21246	26220.65
3155.54853	26307.65
3157.88318	26180.25
3160.21642	26220.95
3162.54826	26133.25
3164.87868	26135.15
3167.2077	26101.85
3169.5353	26130.25
3171.86151	26091.45
3174.18631	26040.55
3176.5097	26051.55
3178.83169	25984.85
3181.15228	26028.35
3183.47147	25928.05
3185.78926	25969.35
3188.10565	25932.15
3190.42065	25951.35
3192.73424	25934.15
3195.04645	25902.45
3197.35725	25918.05
3199.66667	25885.35
3201.97469	25894.85
3204.28132	25871.35
3206.58656	25886.35
3208.8904	25865.85
3211.19287	25878.75
3213.49394	25851.55
3215.79363	25910.15
3218.09193	25884.75
3220.38884	25842.65
3222.68438	25875.05
3224.97853	25821.25
3227.2713	25797.05
3229.56269	25776.35
3231.8527	25814.65
3234.14133	25723.05
3236.42858	25628.55
