Data from AgNP_FTO_APTES_CRN_20uM_R6G_10uM_NaF_0.1M_Addition_RamanShift__30__17-35-28-042.txt Node

Date: Wed Dec 15 17:35:28 GMT 2021
User: TCL
Spectrometer: QEP01345
Trigger mode: 4
Integration Time (sec): 7.000000E0
Scans to average: 10
Electric dark correction enabled: true
Nonlinearity correction enabled: false
Boxcar width: 0
XAxis mode: Raman Shifts
Number of Pixels in Spectrum: 1044
>>>>>Begin Spectral Data<<<<<
46.04893	0.925
50.45542	-2.175
54.85868	0.125
59.25871	-1.575
63.6555	60.125
68.04907	67.225
72.43941	68.225
76.82654	71.925
81.21044	72.425
85.59113	77.425
89.96862	80.125
94.34289	80.425
98.71396	86.925
103.08183	88.625
107.4465	87.325
111.80798	93.525
116.16626	94.725
120.52136	98.425
124.87327	95.325
129.222	98.325
133.56755	104.125
137.90993	113.625
142.24913	124.425
146.58517	133.025
150.91804	151.525
155.24774	178.825
159.57429	219.225
163.89768	274.925
168.21792	365.925
172.53501	493.825
176.84895	683.425
181.15975	944.425
185.46741	1328.825
189.77193	1841.025
194.07331	2462.625
198.37157	3175.725
202.6667	3920.025
206.9587	4670.025
211.24758	5404.425
215.53334	6166.025
219.81599	6967.925
224.09553	7881.025
228.37195	8865.325
232.64527	9991.725
236.91549	11102.825
241.18261	12225.225
245.44663	13190.425
249.70755	14066.825
253.96539	14799.325
258.22014	15442.325
262.4718	16031.025
266.72039	16464.825
270.96589	16709.225
275.20832	16767.425
279.44768	16638.225
283.68397	16451.825
287.91719	16328.725
292.14735	16336.525
296.37445	16424.625
300.59849	16679.025
304.81948	17054.525
309.03742	17243.225
313.25231	17101.325
317.46415	16555.025
321.67296	15739.325
325.87872	15042.325
330.08145	14722.125
334.28114	14702.925
338.47781	14901.025
342.67145	15180.425
346.86207	15609.525
351.04966	16223.025
355.23424	16894.925
359.4158	17422.625
363.59435	17761.425
367.76989	17870.125
371.94243	17944.125
376.11196	17917.525
380.27849	17904.925
384.44203	17820.025
388.60257	17777.925
392.76012	17775.925
396.91468	17943.725
401.06626	18320.925
405.21485	18603.525
409.36047	18414.325
413.50311	17909.925
417.64277	17373.925
421.77947	17080.525
425.9132	16984.725
430.04396	17009.725
434.17176	17132.725
438.2966	17301.425
442.41849	17643.225
446.53742	18062.425
450.6534	18514.925
454.76644	18880.825
458.87653	18996.325
462.98368	18969.125
467.08789	18737.025
471.18916	18415.825
475.2875	18071.825
479.38291	17784.225
483.4754	17577.625
487.56496	17363.225
491.6516	17198.125
495.73531	17036.525
499.81612	17030.425
503.89401	17151.025
507.96899	17245.625
512.04106	17371.725
516.11023	17602.125
520.1765	17715.825
524.23987	17726.025
528.30034	17562.125
532.35792	17322.225
536.41261	17049.025
540.46441	16752.925
544.51333	16669.825
548.55936	16762.025
552.60252	17033.125
556.64279	17349.625
560.6802	17504.825
564.71473	17611.725
568.7464	17930.825
572.7752	18252.325
576.80114	18125.825
580.82422	17872.125
584.84444	17802.525
588.86181	17850.125
592.87633	18032.625
596.888	18282.225
600.89682	18684.425
604.9028	19928.325
608.90594	23195.825
612.90624	27340.125
616.90371	26410.525
620.89834	20648.825
624.89015	17958.925
628.87913	17502.425
632.86528	17464.525
636.84862	17474.525
640.82913	17239.125
644.80683	16758.025
648.78172	16405.125
652.75379	16437.325
656.72306	16806.325
660.68952	17286.925
664.65319	17251.225
668.61405	16797.525
672.57211	16542.525
676.52738	16516.925
680.47986	16523.125
684.42955	16483.425
688.37646	16450.025
692.32058	16511.825
696.26192	16633.625
700.20048	16820.025
704.13626	16912.025
708.06928	16885.525
711.99952	16795.525
715.927	16710.125
719.85171	16722.225
723.77365	16686.325
727.69284	16559.325
731.60928	16429.125
735.52295	16433.025
739.43388	16439.225
743.34206	16504.025
747.24749	16589.625
751.15017	16704.525
755.05012	16955.525
758.94733	17474.225
762.8418	18595.025
766.73354	20496.825
770.62254	22568.425
774.50882	23442.225
778.39237	22480.725
782.27321	20339.225
786.15132	18428.325
790.02671	17269.625
793.89938	16778.225
797.76935	16575.925
801.6366	16432.825
805.50115	16396.125
809.36299	16333.225
813.22213	16270.525
817.07857	16245.625
820.93231	16233.425
824.78336	16278.625
828.63172	16310.025
832.47738	16362.725
836.32036	16418.025
840.16066	16439.825
843.99827	16415.025
847.8332	16335.225
851.66546	16284.025
855.49504	16251.525
859.32195	16239.625
863.1462	16151.825
866.96777	16128.125
870.78668	16065.625
874.60293	16075.825
878.41652	16130.025
882.22745	16154.725
886.03573	16205.225
889.84136	16174.325
893.64433	16080.925
897.44466	16042.425
901.24235	16031.225
905.0374	16036.625
908.8298	15982.025
912.61957	16001.225
916.40671	16109.025
920.19121	16198.925
923.97308	16361.825
927.75233	16494.125
931.52895	16554.625
935.30295	16445.625
939.07433	16147.125
942.84309	15848.325
946.60924	15726.525
950.37278	15633.525
954.13371	15556.525
957.89203	15468.025
961.64774	15421.325
965.40086	15366.325
969.15137	15302.025
972.89929	15246.325
976.64461	15211.825
980.38733	15241.225
984.12747	15341.725
987.86502	15394.425
991.59999	15543.225
995.33237	15780.025
999.06217	16190.925
1002.78939	16646.625
1006.51404	16956.725
1010.23611	17134.325
1013.95561	17311.225
1017.67255	17292.125
1021.38692	17153.125
1025.09872	17011.925
1028.80796	17139.925
1032.51465	17589.325
1036.21877	17956.825
1039.92035	18056.025
1043.61937	17821.625
1047.31584	17463.225
1051.00976	17106.725
1054.70114	16884.825
1058.38998	16875.825
1062.07627	16947.625
1065.76003	17100.625
1069.44126	17283.625
1073.11995	17583.725
1076.79611	17859.125
1080.46974	18063.225
1084.14085	18161.625
1087.80943	18195.325
1091.47549	18075.925
1095.13903	17737.625
1098.80005	17280.525
1102.45857	16899.425
1106.11456	16750.825
1109.76805	16795.525
1113.41903	16961.425
1117.06751	17255.725
1120.71348	17585.725
1124.35696	17970.225
1127.99793	18289.825
1131.63641	18341.525
1135.2724	17927.525
1138.90589	17500.125
1142.5369	17210.825
1146.16542	17014.225
1149.79145	16877.925
1153.415	16916.225
1157.03607	17030.025
1160.65467	17305.025
1164.27079	17746.625
1167.88443	18479.525
1171.49561	19570.125
1175.10432	21244.125
1178.71056	23476.925
1182.31434	25312.025
1185.91565	25941.625
1189.51451	25535.725
1193.11091	24344.925
1196.70485	22820.625
1200.29634	21634.625
1203.88538	20809.425
1207.47197	20037.625
1211.05612	19329.925
1214.63782	18969.125
1218.21708	18858.925
1221.79391	18927.425
1225.36829	18965.125
1228.94024	18967.925
1232.50976	18858.925
1236.07685	18766.425
1239.6415	18826.225
1243.20374	18909.825
1246.76355	19027.725
1250.32093	19290.925
1253.8759	19671.525
1257.42845	20193.225
1260.97859	20660.725
1264.52631	21064.225
1268.07163	21491.925
1271.61453	21969.625
1275.15503	22395.325
1278.69312	22774.125
1282.22882	23086.225
1285.76211	23380.025
1289.29301	23802.125
1292.82151	24345.425
1296.34761	24958.325
1299.87133	25897.125
1303.39266	27332.125
1306.9116	29521.925
1310.42815	31992.125
1313.94233	33648.025
1317.45412	33507.825
1320.96354	32126.825
1324.47058	30449.925
1327.97525	28973.525
1331.47754	28013.925
1334.97747	27721.925
1338.47502	27915.925
1341.97022	28351.425
1345.46305	28729.625
1348.95352	29186.025
1352.44163	30009.325
1355.92738	31609.425
1359.41078	34482.625
1362.89183	37591.925
1366.37053	37176.525
1369.84688	33000.025
1373.32088	28546.925
1376.79254	25631.825
1380.26186	24178.325
1383.72883	23543.525
1387.19347	23024.725
1390.65578	22451.325
1394.11575	22069.625
1397.57339	21958.625
1401.0287	22120.625
1404.48168	22467.725
1407.93234	22752.925
1411.38068	22969.525
1414.82669	22868.625
1418.27039	22471.225
1421.71177	21881.725
1425.15083	21334.925
1428.58758	21037.725
1432.02203	20981.325
1435.45416	21176.925
1438.88399	21275.425
1442.31151	21458.425
1445.73673	21596.825
1449.15965	21777.725
1452.58027	21802.625
1455.9986	21698.325
1459.41463	21663.025
1462.82837	21782.425
1466.23982	22160.325
1469.64898	22597.325
1473.05586	22931.425
1476.46045	23161.725
1479.86276	23393.625
1483.26279	23684.925
1486.66054	24020.225
1490.05602	24484.625
1493.44922	25021.825
1496.84016	25729.325
1500.22882	26810.225
1503.61521	28327.725
1506.99934	30269.325
1510.38121	32354.825
1513.76081	33632.125
1517.13816	32939.925
1520.51324	30514.525
1523.88607	27839.925
1527.25665	25823.525
1530.62498	24577.925
1533.99105	23916.125
1537.35488	23487.625
1540.71647	23236.925
1544.07581	23094.625
1547.4329	22935.325
1550.78776	22768.725
1554.14038	22648.625
1557.49077	22743.725
1560.83892	22918.925
1564.18484	23235.625
1567.52853	23550.825
1570.86999	23855.925
1574.20922	24186.025
1577.54624	24494.125
1580.88103	24284.825
1584.2136	23729.725
1587.54395	23377.125
1590.87208	23552.725
1594.19801	24439.325
1597.52172	25747.025
1600.84321	26413.725
1604.16251	25657.325
1607.47959	24124.225
1610.79447	22429.225
1614.10715	20877.525
1617.41763	19663.825
1620.7259	18851.725
1624.03199	18465.325
1627.33587	18500.025
1630.63757	18869.825
1633.93707	19599.325
1637.23439	20689.325
1640.52951	22206.725
1643.82246	23937.725
1647.11321	25844.925
1650.40179	27026.725
1653.68819	26394.425
1656.97241	23872.125
1660.25446	20906.925
1663.53433	18698.525
1666.81203	17339.925
1670.08756	16495.225
1673.36092	15998.625
1676.63211	15630.425
1679.90115	15403.525
1683.16801	15240.225
1686.43272	15101.925
1689.69527	15017.525
1692.95567	14947.325
1696.2139	14927.625
1699.46999	14920.125
1702.72392	14886.625
1705.97571	14871.825
1709.22535	14853.325
1712.47284	14832.225
1715.71819	14825.025
1718.96139	14841.125
1722.20246	14790.925
1725.44139	14725.625
1728.67818	14669.725
1731.91284	14595.825
1735.14537	14541.525
1738.37576	14480.725
1741.60403	14411.325
1744.83017	14380.125
1748.05418	14377.625
1751.27607	14372.625
1754.49584	14343.925
1757.71349	14347.225
1760.92903	14332.125
1764.14244	14334.925
1767.35375	14332.425
1770.56294	14302.625
1773.77002	14297.625
1776.97499	14264.125
1780.17785	14215.925
1783.37861	14207.025
1786.57727	14180.425
1789.77382	14170.025
1792.96828	14132.225
1796.16064	14152.825
1799.3509	14125.625
1802.53907	14104.425
1805.72514	14059.425
1808.90913	14028.525
1812.09102	14002.125
1815.27083	13972.125
1818.44856	13988.425
1821.6242	13944.625
1824.79776	13923.225
1827.96924	13932.225
1831.13864	13933.825
1834.30597	13933.425
1837.47122	13938.925
1840.6344	13894.325
1843.7955	13889.325
1846.95454	13904.625
1850.11151	13892.325
1853.26642	13897.825
1856.41926	13906.225
1859.57004	13886.725
1862.71876	13884.525
1865.86542	13893.725
1869.01003	13908.425
1872.15258	13906.025
1875.29308	13887.725
1878.43152	13870.825
1881.56792	13867.425
1884.70227	13857.625
1887.83457	13849.225
1890.96482	13855.925
1894.09304	13838.825
1897.21921	13849.025
1900.34335	13824.325
1903.46544	13820.425
1906.58551	13825.925
1909.70353	13807.625
1912.81953	13808.825
1915.93349	13798.925
1919.04543	13763.625
1922.15534	13776.525
1925.26322	13727.125
1928.36908	13705.225
1931.47292	13704.625
1934.57473	13645.525
1937.67453	13614.325
1940.77232	13549.825
1943.86808	13530.125
1946.96184	13496.425
1950.05358	13470.025
1953.14331	13417.025
1956.23103	13381.925
1959.31675	13361.925
1962.40046	13331.325
1965.48217	13283.925
1968.56188	13263.925
1971.63959	13217.325
1974.7153	13170.525
1977.78901	13126.625
1980.86073	13064.125
1983.93046	13049.125
1986.99819	13021.325
1990.06394	12967.025
1993.1277	12940.925
1996.18947	12864.525
1999.24925	12857.025
2002.30706	12826.825
2005.36288	12800.725
2008.41672	12783.525
2011.46859	12723.725
2014.51848	12690.725
2017.56639	12657.825
2020.61233	12617.925
2023.6563	12607.725
2026.6983	12597.925
2029.73833	12581.425
2032.7764	12530.525
2035.8125	12505.025
2038.84664	12496.825
2041.87881	12498.525
2044.90903	12444.925
2047.93729	12432.425
2050.96359	12412.025
2053.98794	12412.425
2057.01034	12392.325
2060.03078	12386.025
2063.04927	12361.625
2066.06582	12373.325
2069.08042	12366.625
2072.09307	12336.825
2075.10378	12294.025
2078.11255	12303.725
2081.11938	12288.625
2084.12426	12333.425
2087.12722	12326.125
2090.12824	12301.625
2093.12732	12282.625
2096.12447	12314.325
2099.11969	12317.425
2102.11299	12311.325
2105.10435	12309.925
2108.09379	12341.525
2111.08131	12345.025
2114.0669	12349.625
2117.05057	12333.225
2120.03233	12333.625
2123.01216	12361.625
2125.99008	12355.925
2128.96609	12389.425
2131.94018	12392.125
2134.91236	12386.025
2137.88263	12414.225
2140.851	12408.425
2143.81746	12412.125
2146.78201	12421.525
2149.74466	12429.225
2152.7054	12459.825
2155.66425	12424.925
2158.6212	12457.725
2161.57625	12416.825
2164.52941	12434.125
2167.48067	12418.625
2170.43004	12448.425
2173.37752	12427.125
2176.32311	12424.225
2179.26681	12425.925
2182.20863	12402.425
2185.14856	12410.725
2188.08661	12405.525
2191.02278	12451.125
2193.95707	12409.925
2196.88948	12413.325
2199.82001	12405.325
2202.74867	12390.825
2205.67545	12387.525
2208.60037	12396.625
2211.52341	12376.925
2214.44458	12354.525
2217.36388	12337.625
2220.28132	12314.325
2223.1969	12315.825
2226.11061	12310.425
2229.02246	12297.525
2231.93245	12256.225
2234.84058	12223.925
2237.74686	12218.425
2240.65128	12184.725
2243.55385	12185.225
2246.45456	12154.925
2249.35343	12137.525
2252.25044	12135.225
2255.14561	12125.025
2258.03893	12111.225
2260.93041	12133.925
2263.82004	12089.525
2266.70783	12052.125
2269.59378	12069.425
2272.4779	12000.125
2275.36017	11988.725
2278.24061	11947.525
2281.11922	11910.625
2283.996	11906.325
2286.87094	11898.225
2289.74405	11883.825
2292.61534	11845.825
2295.4848	11826.225
2298.35243	11864.825
2301.21824	11870.425
2304.08223	11856.425
2306.94439	11846.625
2309.80474	11860.825
2312.66327	11835.325
2315.51999	11878.725
2318.37489	11859.825
2321.22797	11850.025
2324.07925	11823.825
2326.92871	11847.125
2329.77637	11832.725
2332.62222	11828.225
2335.46626	11793.525
2338.3085	11821.325
2341.14893	11794.125
2343.98756	11798.325
2346.8244	11811.925
2349.65943	11811.125
2352.49267	11798.625
2355.32411	11806.325
2358.15376	11798.825
2360.98161	11795.125
2363.80768	11801.925
2366.63195	11779.025
2369.45444	11767.025
2372.27514	11734.125
2375.09405	11704.225
2377.91118	11706.825
2380.72652	11639.325
2383.54009	11658.725
2386.35187	11634.625
2389.16188	11584.625
2391.97011	11567.125
2394.77657	11566.225
2397.58125	11520.625
2400.38416	11507.125
2403.18529	11488.825
2405.98466	11479.425
2408.78226	11437.925
2411.57809	11411.625
2414.37216	11408.625
2417.16446	11392.125
2419.955	11372.925
2422.74378	11358.025
2425.5308	11342.625
2428.31606	11324.225
2431.09956	11326.725
2433.88131	11313.525
2436.6613	11306.525
2439.43954	11330.725
2442.21603	11300.125
2444.99077	11271.825
2447.76377	11285.725
2450.53501	11280.825
2453.30451	11284.325
2456.07226	11281.725
2458.83827	11244.825
2461.60254	11240.525
2464.36507	11252.425
2467.12586	11240.225
2469.88492	11247.725
2472.64224	11253.325
2475.39782	11235.025
2478.15167	11275.825
2480.90379	11230.725
2483.65417	11278.425
2486.40283	11279.925
2489.14976	11299.725
2491.89497	11300.725
2494.63845	11317.325
2497.3802	11310.425
2500.12024	11284.925
2502.85855	11272.925
2505.59514	11289.125
2508.33002	11267.925
2511.06318	11201.625
2513.79462	11188.225
2516.52435	11165.025
2519.25237	11180.325
2521.97867	11154.825
2524.70327	11143.725
2527.42616	11128.825
2530.14734	11123.225
2532.86681	11118.225
2535.58458	11115.325
2538.30065	11084.125
2541.01501	11075.025
2543.72768	11084.725
2546.43864	11081.125
2549.14791	11043.525
2551.85548	11031.825
2554.56136	11032.825
2557.26554	11021.925
2559.96803	11006.625
2562.66883	11005.825
2565.36794	11020.425
2568.06536	11005.625
2570.7611	10989.925
2573.45514	10982.825
2576.14751	10964.325
2578.83819	10940.425
2581.52719	10954.025
2584.21451	10946.825
2586.90015	10918.225
2589.58411	10918.025
2592.2664	10889.725
2594.94701	10879.325
2597.62594	10879.525
2600.30321	10841.825
2602.9788	10839.925
2605.65273	10840.425
2608.32498	10823.725
2610.99557	10836.125
2613.66449	10846.125
2616.33175	10823.325
2618.99734	10823.125
2621.66128	10813.525
2624.32355	10828.925
2626.98416	10814.725
2629.64311	10812.025
2632.30041	10820.925
2634.95605	10788.725
2637.61004	10787.525
2640.26238	10754.525
2642.91306	10769.825
2645.56209	10735.725
2648.20948	10743.825
2650.85521	10706.625
2653.4993	10720.125
2656.14175	10712.325
2658.78255	10710.025
2661.42171	10702.525
2664.05923	10714.025
2666.6951	10730.225
2669.32934	10718.925
2671.96194	10730.825
2674.59291	10737.025
2677.22224	10739.125
2679.84993	10743.625
2682.476	10730.625
2685.10043	10733.725
2687.72324	10717.125
2690.34441	10715.725
2692.96396	10705.725
2695.58188	10721.725
2698.19818	10729.225
2700.81285	10742.225
2703.4259	10700.225
2706.03733	10789.625
2708.64714	10741.425
2711.25533	10752.225
2713.86191	10745.425
2716.46687	10774.825
2719.07021	10758.025
2721.67194	10743.425
2724.27206	10752.125
2726.87057	10738.825
2729.46747	10758.125
2732.06276	10735.025
2734.65644	10735.725
2737.24852	10738.725
2739.83899	10728.125
2742.42786	10730.025
2745.01513	10714.125
2747.60079	10682.225
2750.18486	10699.725
2752.76733	10698.225
2755.3482	10700.425
2757.92747	10661.325
2760.50515	10703.925
2763.08123	10655.025
2765.65573	10646.425
2768.22863	10653.725
2770.79994	10627.225
2773.36967	10653.625
2775.9378	10629.225
2778.50435	10617.225
2781.06932	10584.525
2783.6327	10597.225
2786.1945	10592.325
2788.75471	10585.425
2791.31335	10556.525
2793.87041	10531.725
2796.42589	10513.525
2798.97979	10518.125
2801.53212	10511.225
2804.08288	10498.925
2806.63206	10464.225
2809.17967	10463.925
2811.72571	10412.425
2814.27018	10424.425
2816.81308	10417.625
2819.35442	10400.725
2821.89419	10414.225
2824.43239	10400.925
2826.96904	10401.025
2829.50412	10391.825
2832.03763	10382.025
2834.56959	10390.325
2837.1	10357.825
2839.62884	10349.725
2842.15613	10369.025
2844.68186	10379.425
2847.20604	10382.225
2849.72867	10390.725
2852.24974	10391.325
2854.76927	10394.225
2857.28724	10409.925
2859.80367	10358.525
2862.31855	10358.425
2864.83189	10334.925
2867.34368	10327.725
2869.85393	10330.725
2872.36264	10317.525
2874.8698	10306.025
2877.37543	10346.925
2879.87952	10337.625
2882.38207	10339.325
2884.88308	10327.025
2887.38256	10329.025
2889.88051	10325.125
2892.37692	10318.225
2894.8718	10319.625
2897.36515	10311.625
2899.85698	10317.925
2902.34727	10341.125
2904.83604	10350.325
2907.32328	10353.725
2909.809	10354.025
2912.29319	10365.725
2914.77587	10370.425
2917.25702	10373.825
2919.73665	10354.625
2922.21476	10348.225
2924.69136	10340.425
2927.16644	10328.625
2929.64	10333.225
2932.11205	10302.525
2934.58258	10288.125
2937.05161	10293.125
2939.51912	10303.325
2941.98513	10277.325
2944.44962	10265.425
2946.91261	10232.525
2949.37409	10218.625
2951.83407	10236.025
2954.29254	10211.925
2956.74951	10219.025
2959.20498	10210.725
2961.65895	10190.225
2964.11142	10184.425
2966.56239	10160.325
2969.01186	10156.325
2971.45984	10112.025
2973.90632	10100.125
2976.35131	10069.525
2978.7948	10070.225
2981.23681	10049.325
2983.67732	10020.325
2986.11635	10011.625
2988.55388	9994.325
2990.98993	9976.225
2993.4245	9935.925
2995.85758	9957.125
2998.28917	9935.125
3000.71928	9898.425
3003.14791	9908.725
3005.57506	9877.225
3008.00073	9869.425
3010.42493	9872.025
3012.84764	9838.325
3015.26888	9853.925
3017.68865	9812.525
3020.10694	9799.425
3022.52376	9784.425
3024.9391	9787.525
3027.35298	9791.825
3029.76539	9772.925
3032.17632	9763.125
3034.5858	9739.025
3036.9938	9742.625
3039.40034	9734.525
3041.80542	9734.825
3044.20903	9710.625
3046.61118	9702.625
3049.01187	9670.225
3051.4111	9674.025
3053.80888	9654.225
3056.20519	9635.925
3058.60005	9612.825
3060.99345	9583.325
3063.3854	9535.325
3065.7759	9544.825
3068.16494	9528.825
3070.55254	9520.325
3072.93868	9500.825
3075.32338	9469.625
3077.70662	9444.025
3080.08842	9428.625
3082.46878	9421.725
3084.84769	9407.425
3087.22515	9388.725
3089.60118	9400.825
3091.97576	9426.325
3094.3489	9409.825
3096.72061	9398.925
3099.09087	9416.725
3101.4597	9397.225
3103.82709	9374.925
3106.19305	9371.125
3108.55757	9375.225
3110.92066	9354.325
3113.28232	9333.725
3115.64255	9288.025
3118.00134	9283.825
3120.35871	9280.625
3122.71466	9292.925
3125.06917	9260.925
3127.42226	9250.925
3129.77393	9276.025
3132.12417	9272.325
3134.47299	9269.725
3136.82039	9243.125
