Data from AgNP_FTO_APTES_CRN_500uM_R6G_10uM_NaF_0.1M_Addition_RamanShift__34__20-43-18-255.txt Node

Date: Wed Dec 15 20:43:18 GMT 2021
User: TCL
Spectrometer: QEP01345
Trigger mode: 4
Integration Time (sec): 7.000000E0
Scans to average: 10
Electric dark correction enabled: true
Nonlinearity correction enabled: false
Boxcar width: 0
XAxis mode: Raman Shifts
Number of Pixels in Spectrum: 1044
>>>>>Begin Spectral Data<<<<<
46.04893	1.5625
50.45542	-1.5375
54.85868	-0.7375
59.25871	-0.2375
63.6555	44.1625
68.04907	50.4625
72.43941	55.9625
76.82654	58.1625
81.21044	58.6625
85.59113	60.4625
89.96862	66.5625
94.34289	63.7625
98.71396	73.4625
103.08183	76.7625
107.4465	75.7625
111.80798	76.7625
116.16626	75.8625
120.52136	81.2625
124.87327	78.5625
129.222	81.6625
133.56755	82.3625
137.90993	87.4625
142.24913	96.7625
146.58517	102.9625
150.91804	118.0625
155.24774	133.7625
159.57429	167.2625
163.89768	202.9625
168.21792	268.5625
172.53501	357.3625
176.84895	486.7625
181.15975	678.3625
185.46741	936.0625
189.77193	1294.7625
194.07331	1720.4625
198.37157	2218.8625
202.6667	2733.6625
206.9587	3234.2625
211.24758	3734.1625
215.53334	4268.8625
219.81599	4849.4625
224.09553	5474.2625
228.37195	6215.9625
232.64527	6951.0625
236.91549	7729.7625
241.18261	8437.7625
245.44663	9045.8625
249.70755	9516.7625
253.96539	9929.7625
258.22014	10284.6625
262.4718	10579.1625
266.72039	10821.1625
270.96589	10933.4625
275.20832	10929.1625
279.44768	10814.4625
283.68397	10658.9625
287.91719	10548.8625
292.14735	10554.8625
296.37445	10717.2625
300.59849	11020.6625
304.81948	11435.2625
309.03742	11720.9625
313.25231	11745.0625
317.46415	11269.8625
321.67296	10513.6625
325.87872	9910.7625
330.08145	9638.7625
334.28114	9610.4625
338.47781	9786.6625
342.67145	10025.0625
346.86207	10436.4625
351.04966	11006.6625
355.23424	11658.1625
359.4158	12108.5625
363.59435	12348.0625
367.76989	12425.4625
371.94243	12430.4625
376.11196	12337.6625
380.27849	12289.8625
384.44203	12160.0625
388.60257	12016.4625
392.76012	11938.2625
396.91468	12046.4625
401.06626	12347.6625
405.21485	12567.4625
409.36047	12381.8625
413.50311	11830.7625
417.64277	11306.1625
421.77947	11013.7625
425.9132	10906.1625
430.04396	10965.6625
434.17176	11050.0625
438.2966	11217.5625
442.41849	11506.7625
446.53742	11882.5625
450.6534	12225.7625
454.76644	12439.2625
458.87653	12478.0625
462.98368	12376.4625
467.08789	12161.4625
471.18916	11961.6625
475.2875	11702.1625
479.38291	11482.0625
483.4754	11277.5625
487.56496	11103.8625
491.6516	10970.7625
495.73531	10922.3625
499.81612	10978.9625
503.89401	11133.9625
507.96899	11308.3625
512.04106	11511.3625
516.11023	11793.9625
520.1765	11987.8625
524.23987	12052.9625
528.30034	11897.9625
532.35792	11677.6625
536.41261	11390.5625
540.46441	11135.5625
544.51333	11005.1625
548.55936	11044.9625
552.60252	11260.4625
556.64279	11455.9625
560.6802	11614.9625
564.71473	11757.6625
568.7464	12150.2625
572.7752	12388.9625
576.80114	12053.2625
580.82422	11634.1625
584.84444	11445.9625
588.86181	11475.2625
592.87633	11651.6625
596.888	11871.2625
600.89682	12178.9625
604.9028	13329.4625
608.90594	16407.7625
612.90624	20435.0625
616.90371	19717.3625
620.89834	14461.8625
624.89015	11961.2625
628.87913	11433.4625
632.86528	11479.0625
636.84862	11607.7625
640.82913	11525.6625
644.80683	11217.0625
648.78172	11006.0625
652.75379	11113.4625
656.72306	11556.2625
660.68952	11989.0625
664.65319	11916.8625
668.61405	11474.8625
672.57211	11276.3625
676.52738	11251.6625
680.47986	11295.1625
684.42955	11210.6625
688.37646	11183.8625
692.32058	11231.9625
696.26192	11307.4625
700.20048	11391.4625
704.13626	11401.8625
708.06928	11367.4625
711.99952	11211.2625
715.927	11134.4625
719.85171	11096.3625
723.77365	10989.2625
727.69284	10867.4625
731.60928	10740.9625
735.52295	10712.3625
739.43388	10730.8625
743.34206	10731.4625
747.24749	10733.3625
751.15017	10767.9625
755.05012	10940.5625
758.94733	11393.3625
762.8418	12464.6625
766.73354	14219.1625
770.62254	16073.3625
774.50882	17002.9625
778.39237	16362.1625
782.27321	14401.8625
786.15132	12402.5625
790.02671	11264.6625
793.89938	10764.2625
797.76935	10553.1625
801.6366	10443.1625
805.50115	10357.5625
809.36299	10310.8625
813.22213	10294.5625
817.07857	10281.1625
820.93231	10291.5625
824.78336	10345.5625
828.63172	10400.2625
832.47738	10427.9625
836.32036	10408.7625
840.16066	10348.4625
843.99827	10295.6625
847.8332	10185.1625
851.66546	10183.0625
855.49504	10190.4625
859.32195	10157.5625
863.1462	10110.2625
866.96777	10047.6625
870.78668	10017.7625
874.60293	9986.5625
878.41652	10002.7625
882.22745	10059.9625
886.03573	10086.1625
889.84136	10058.9625
893.64433	10002.6625
897.44466	9990.4625
901.24235	10000.0625
905.0374	9964.5625
908.8298	9924.6625
912.61957	9918.7625
916.40671	9952.3625
920.19121	10032.4625
923.97308	10095.5625
927.75233	10189.1625
931.52895	10281.7625
935.30295	10195.3625
939.07433	9916.4625
942.84309	9681.3625
946.60924	9548.4625
950.37278	9464.2625
954.13371	9405.7625
957.89203	9382.8625
961.64774	9334.2625
965.40086	9313.9625
969.15137	9267.1625
972.89929	9236.4625
976.64461	9213.5625
980.38733	9220.7625
984.12747	9232.7625
987.86502	9265.9625
991.59999	9290.5625
995.33237	9382.3625
999.06217	9503.4625
1002.78939	9693.2625
1006.51404	9888.7625
1010.23611	10080.5625
1013.95561	10174.1625
1017.67255	10145.1625
1021.38692	9978.4625
1025.09872	9860.0625
1028.80796	9764.8625
1032.51465	9780.3625
1036.21877	9860.8625
1039.92035	10007.3625
1043.61937	10111.9625
1047.31584	10117.7625
1051.00976	10129.1625
1054.70114	10105.1625
1058.38998	10137.8625
1062.07627	10244.1625
1065.76003	10417.3625
1069.44126	10675.9625
1073.11995	11043.0625
1076.79611	11389.3625
1080.46974	11613.7625
1084.14085	11670.4625
1087.80943	11586.1625
1091.47549	11353.8625
1095.13903	10998.5625
1098.80005	10560.6625
1102.45857	10265.7625
1106.11456	10138.6625
1109.76805	10199.7625
1113.41903	10402.9625
1117.06751	10727.1625
1120.71348	11123.7625
1124.35696	11593.2625
1127.99793	11947.6625
1131.63641	11865.1625
1135.2724	11369.1625
1138.90589	10908.7625
1142.5369	10614.4625
1146.16542	10391.0625
1149.79145	10274.8625
1153.415	10279.3625
1157.03607	10355.4625
1160.65467	10571.1625
1164.27079	10915.1625
1167.88443	11465.2625
1171.49561	12389.0625
1175.10432	13853.7625
1178.71056	15618.8625
1182.31434	16762.6625
1185.91565	16797.8625
1189.51451	16270.7625
1193.11091	15363.9625
1196.70485	14374.2625
1200.29634	13613.6625
1203.88538	12991.4625
1207.47197	12255.4625
1211.05612	11694.4625
1214.63782	11391.0625
1218.21708	11341.0625
1221.79391	11334.9625
1225.36829	11349.2625
1228.94024	11368.2625
1232.50976	11398.6625
1236.07685	11430.6625
1239.6415	11520.5625
1243.20374	11574.9625
1246.76355	11640.0625
1250.32093	11753.0625
1253.8759	11969.8625
1257.42845	12282.4625
1260.97859	12614.0625
1264.52631	12927.5625
1268.07163	13212.5625
1271.61453	13453.4625
1275.15503	13622.6625
1278.69312	13652.3625
1282.22882	13715.6625
1285.76211	13956.5625
1289.29301	14356.7625
1292.82151	14847.0625
1296.34761	15290.3625
1299.87133	15999.1625
1303.39266	17111.4625
1306.9116	18817.1625
1310.42815	20737.9625
1313.94233	21741.0625
1317.45412	21262.3625
1320.96354	19885.2625
1324.47058	18431.1625
1327.97525	17183.5625
1331.47754	16514.4625
1334.97747	16364.7625
1338.47502	16607.7625
1341.97022	17080.8625
1345.46305	17683.7625
1348.95352	18702.8625
1352.44163	20137.6625
1355.92738	22164.0625
1359.41078	25035.8625
1362.89183	27400.8625
1366.37053	26376.3625
1369.84688	22715.9625
1373.32088	19177.0625
1376.79254	16900.1625
1380.26186	15668.6625
1383.72883	14985.1625
1387.19347	14408.2625
1390.65578	13829.3625
1394.11575	13385.6625
1397.57339	13114.2625
1401.0287	13116.7625
1404.48168	13225.6625
1407.93234	13313.3625
1411.38068	13393.8625
1414.82669	13336.4625
1418.27039	13123.9625
1421.71177	12895.5625
1425.15083	12660.6625
1428.58758	12525.2625
1432.02203	12609.4625
1435.45416	12707.6625
1438.88399	12767.4625
1442.31151	12759.1625
1445.73673	12789.4625
1449.15965	12820.3625
1452.58027	12759.8625
1455.9986	12659.6625
1459.41463	12612.5625
1462.82837	12751.8625
1466.23982	13001.9625
1469.64898	13286.4625
1473.05586	13490.5625
1476.46045	13658.9625
1479.86276	13864.3625
1483.26279	14110.2625
1486.66054	14425.9625
1490.05602	14815.1625
1493.44922	15365.5625
1496.84016	16229.0625
1500.22882	17540.4625
1503.61521	19273.1625
1506.99934	21264.6625
1510.38121	23031.1625
1513.76081	23885.7625
1517.13816	22749.5625
1520.51324	20181.7625
1523.88607	17691.5625
1527.25665	16036.8625
1530.62498	15178.6625
1533.99105	14725.8625
1537.35488	14440.6625
1540.71647	14271.5625
1544.07581	14229.0625
1547.4329	14170.9625
1550.78776	14054.9625
1554.14038	14011.4625
1557.49077	14013.8625
1560.83892	14191.3625
1564.18484	14504.7625
1567.52853	14984.8625
1570.86999	15514.2625
1574.20922	15998.8625
1577.54624	16277.1625
1580.88103	15877.0625
1584.2136	14962.7625
1587.54395	14141.7625
1590.87208	13880.1625
1594.19801	14287.1625
1597.52172	14998.3625
1600.84321	15412.4625
1604.16251	14992.5625
1607.47959	14143.6625
1610.79447	13137.3625
1614.10715	12176.2625
1617.41763	11437.1625
1620.7259	11014.7625
1624.03199	10789.8625
1627.33587	10770.3625
1630.63757	10928.5625
1633.93707	11306.7625
1637.23439	11973.1625
1640.52951	13000.1625
1643.82246	14379.3625
1647.11321	15982.7625
1650.40179	17066.7625
1653.68819	16580.0625
1656.97241	14700.0625
1660.25446	12600.8625
1663.53433	11073.8625
1666.81203	10158.6625
1670.08756	9631.0625
1673.36092	9295.5625
1676.63211	9100.5625
1679.90115	8952.0625
1683.16801	8818.2625
1686.43272	8724.2625
1689.69527	8661.4625
1692.95567	8616.7625
1696.2139	8598.2625
1699.46999	8571.5625
1702.72392	8543.1625
1705.97571	8535.1625
1709.22535	8517.2625
1712.47284	8501.9625
1715.71819	8489.6625
1718.96139	8495.6625
1722.20246	8478.0625
1725.44139	8442.0625
1728.67818	8389.4625
1731.91284	8322.4625
1735.14537	8256.7625
1738.37576	8210.5625
1741.60403	8168.6625
1744.83017	8163.0625
1748.05418	8121.5625
1751.27607	8115.8625
1754.49584	8101.7625
1757.71349	8088.0625
1760.92903	8080.8625
1764.14244	8047.9625
1767.35375	8046.2625
1770.56294	8010.5625
1773.77002	7994.3625
1776.97499	7961.9625
1780.17785	7920.0625
1783.37861	7909.3625
1786.57727	7905.1625
1789.77382	7883.8625
1792.96828	7870.9625
1796.16064	7837.6625
1799.3509	7836.2625
1802.53907	7809.3625
1805.72514	7819.7625
1808.90913	7769.5625
1812.09102	7758.3625
1815.27083	7688.5625
1818.44856	7728.4625
1821.6242	7704.7625
1824.79776	7678.7625
1827.96924	7671.9625
1831.13864	7669.2625
1834.30597	7644.9625
1837.47122	7640.5625
1840.6344	7602.5625
1843.7955	7625.3625
1846.95454	7612.9625
1850.11151	7588.2625
1853.26642	7593.9625
1856.41926	7599.6625
1859.57004	7604.2625
1862.71876	7580.5625
1865.86542	7587.7625
1869.01003	7584.4625
1872.15258	7585.6625
1875.29308	7586.8625
1878.43152	7551.3625
1881.56792	7566.7625
1884.70227	7552.2625
1887.83457	7552.5625
1890.96482	7556.3625
1894.09304	7534.3625
1897.21921	7543.7625
1900.34335	7542.4625
1903.46544	7523.6625
1906.58551	7521.3625
1909.70353	7504.4625
1912.81953	7528.3625
1915.93349	7505.0625
1919.04543	7510.6625
1922.15534	7481.3625
1925.26322	7458.2625
1928.36908	7460.4625
1931.47292	7434.9625
1934.57473	7407.7625
1937.67453	7389.3625
1940.77232	7357.5625
1943.86808	7332.2625
1946.96184	7308.0625
1950.05358	7279.4625
1953.14331	7248.0625
1956.23103	7227.3625
1959.31675	7226.0625
1962.40046	7208.6625
1965.48217	7183.6625
1968.56188	7166.4625
1971.63959	7137.7625
1974.7153	7099.5625
1977.78901	7080.1625
1980.86073	7055.8625
1983.93046	7041.3625
1986.99819	7009.2625
1990.06394	7002.0625
1993.1277	6968.3625
1996.18947	6938.1625
1999.24925	6931.4625
2002.30706	6889.6625
2005.36288	6872.5625
2008.41672	6858.4625
2011.46859	6825.6625
2014.51848	6825.6625
2017.56639	6812.0625
2020.61233	6768.7625
2023.6563	6765.0625
2026.6983	6750.2625
2029.73833	6733.9625
2032.7764	6708.3625
2035.8125	6701.4625
2038.84664	6681.7625
2041.87881	6663.9625
2044.90903	6641.1625
2047.93729	6643.1625
2050.96359	6633.3625
2053.98794	6625.2625
2057.01034	6627.6625
2060.03078	6594.8625
2063.04927	6617.2625
2066.06582	6596.3625
2069.08042	6591.7625
2072.09307	6570.8625
2075.10378	6563.7625
2078.11255	6561.1625
2081.11938	6558.9625
2084.12426	6569.5625
2087.12722	6555.3625
2090.12824	6566.2625
2093.12732	6542.5625
2096.12447	6539.8625
2099.11969	6546.7625
2102.11299	6557.0625
2105.10435	6529.9625
2108.09379	6537.7625
2111.08131	6551.9625
2114.0669	6554.0625
2117.05057	6540.5625
2120.03233	6547.2625
2123.01216	6566.0625
2125.99008	6563.6625
2128.96609	6584.1625
2131.94018	6565.9625
2134.91236	6578.0625
2137.88263	6572.3625
2140.851	6563.0625
2143.81746	6584.4625
2146.78201	6586.5625
2149.74466	6569.9625
2152.7054	6570.8625
2155.66425	6559.4625
2158.6212	6551.1625
2161.57625	6569.9625
2164.52941	6535.4625
2167.48067	6543.4625
2170.43004	6550.9625
2173.37752	6537.9625
2176.32311	6529.2625
2179.26681	6535.6625
2182.20863	6532.3625
2185.14856	6518.4625
2188.08661	6498.1625
2191.02278	6502.1625
2193.95707	6499.7625
2196.88948	6480.8625
2199.82001	6492.8625
2202.74867	6480.2625
2205.67545	6477.2625
2208.60037	6474.3625
2211.52341	6458.1625
2214.44458	6446.4625
2217.36388	6409.2625
2220.28132	6395.3625
2223.1969	6393.5625
2226.11061	6366.1625
2229.02246	6355.6625
2231.93245	6340.2625
2234.84058	6325.5625
2237.74686	6324.8625
2240.65128	6309.7625
2243.55385	6300.6625
2246.45456	6303.5625
2249.35343	6283.8625
2252.25044	6288.6625
2255.14561	6293.3625
2258.03893	6252.5625
2260.93041	6275.7625
2263.82004	6258.2625
2266.70783	6247.8625
2269.59378	6218.5625
2272.4779	6217.0625
2275.36017	6184.5625
2278.24061	6170.0625
2281.11922	6143.1625
2283.996	6142.2625
2286.87094	6130.7625
2289.74405	6126.9625
2292.61534	6096.4625
2295.4848	6076.2625
2298.35243	6093.4625
2301.21824	6088.6625
2304.08223	6067.9625
2306.94439	6064.4625
2309.80474	6043.5625
2312.66327	6053.5625
2315.51999	6044.4625
2318.37489	6044.0625
2321.22797	6022.4625
2324.07925	6031.1625
2326.92871	6015.1625
2329.77637	6004.3625
2332.62222	6002.0625
2335.46626	5979.9625
2338.3085	5986.8625
2341.14893	5973.3625
2343.98756	5956.4625
2346.8244	5948.0625
2349.65943	5965.1625
2352.49267	5959.7625
2355.32411	5969.2625
2358.15376	5966.6625
2360.98161	5977.0625
2363.80768	5973.7625
2366.63195	5977.8625
2369.45444	5970.4625
2372.27514	5966.6625
2375.09405	5949.7625
2377.91118	5941.5625
2380.72652	5912.3625
2383.54009	5895.9625
2386.35187	5896.0625
2389.16188	5865.0625
2391.97011	5814.8625
2394.77657	5828.3625
2397.58125	5803.7625
2400.38416	5806.7625
2403.18529	5779.5625
2405.98466	5766.1625
2408.78226	5774.3625
2411.57809	5756.0625
2414.37216	5746.4625
2417.16446	5745.3625
2419.955	5717.4625
2422.74378	5734.1625
2425.5308	5719.9625
2428.31606	5682.4625
2431.09956	5702.5625
2433.88131	5677.2625
2436.6613	5704.9625
2439.43954	5683.8625
2442.21603	5692.8625
2444.99077	5690.2625
2447.76377	5687.2625
2450.53501	5688.9625
2453.30451	5668.2625
2456.07226	5664.3625
2458.83827	5652.5625
2461.60254	5664.6625
2464.36507	5654.6625
2467.12586	5654.9625
2469.88492	5632.9625
2472.64224	5628.2625
2475.39782	5624.3625
2478.15167	5658.7625
2480.90379	5642.8625
2483.65417	5638.8625
2486.40283	5648.5625
2489.14976	5664.0625
2491.89497	5664.9625
2494.63845	5661.2625
2497.3802	5651.4625
2500.12024	5638.5625
2502.85855	5617.3625
2505.59514	5612.8625
2508.33002	5609.6625
2511.06318	5571.5625
2513.79462	5564.8625
2516.52435	5546.8625
2519.25237	5538.7625
2521.97867	5524.1625
2524.70327	5537.0625
2527.42616	5506.5625
2530.14734	5497.6625
2532.86681	5489.0625
2535.58458	5478.0625
2538.30065	5479.0625
2541.01501	5477.2625
2543.72768	5468.5625
2546.43864	5469.6625
2549.14791	5448.5625
2551.85548	5446.5625
2554.56136	5443.7625
2557.26554	5413.9625
2559.96803	5402.0625
2562.66883	5407.6625
2565.36794	5383.2625
2568.06536	5388.4625
2570.7611	5399.9625
2573.45514	5363.2625
2576.14751	5374.9625
2578.83819	5352.0625
2581.52719	5348.3625
2584.21451	5328.0625
2586.90015	5330.7625
2589.58411	5314.4625
2592.2664	5303.5625
2594.94701	5277.5625
2597.62594	5278.5625
2600.30321	5258.4625
2602.9788	5260.5625
2605.65273	5257.3625
2608.32498	5256.1625
2610.99557	5247.1625
2613.66449	5239.0625
2616.33175	5231.2625
2618.99734	5239.9625
2621.66128	5226.7625
2624.32355	5219.9625
2626.98416	5202.5625
2629.64311	5204.9625
2632.30041	5199.4625
2634.95605	5184.5625
2637.61004	5189.2625
2640.26238	5180.8625
2642.91306	5155.0625
2645.56209	5168.6625
2648.20948	5167.8625
2650.85521	5141.6625
2653.4993	5152.9625
2656.14175	5154.6625
2658.78255	5155.6625
2661.42171	5146.2625
2664.05923	5172.3625
2666.6951	5167.2625
2669.32934	5171.3625
2671.96194	5173.3625
2674.59291	5172.4625
2677.22224	5178.9625
2679.84993	5160.2625
2682.476	5171.3625
2685.10043	5184.0625
2687.72324	5148.1625
2690.34441	5177.4625
2692.96396	5160.5625
2695.58188	5185.5625
2698.19818	5169.4625
2700.81285	5176.9625
2703.4259	5199.6625
2706.03733	5226.3625
2708.64714	5207.9625
2711.25533	5218.9625
2713.86191	5190.2625
2716.46687	5211.3625
2719.07021	5223.9625
2721.67194	5220.2625
2724.27206	5194.9625
2726.87057	5185.6625
2729.46747	5190.6625
2732.06276	5174.5625
2734.65644	5164.8625
2737.24852	5163.8625
2739.83899	5130.7625
2742.42786	5165.5625
2745.01513	5130.0625
2747.60079	5123.7625
2750.18486	5128.6625
2752.76733	5118.3625
2755.3482	5101.6625
2757.92747	5100.0625
2760.50515	5087.3625
2763.08123	5079.1625
2765.65573	5067.6625
2768.22863	5068.1625
2770.79994	5058.3625
2773.36967	5071.2625
2775.9378	5049.9625
2778.50435	5051.2625
2781.06932	5059.2625
2783.6327	5052.4625
2786.1945	5033.7625
2788.75471	5036.6625
2791.31335	5038.7625
2793.87041	5045.7625
2796.42589	5036.8625
2798.97979	5040.7625
2801.53212	5036.3625
2804.08288	5013.9625
2806.63206	5027.0625
2809.17967	5027.4625
2811.72571	5020.9625
2814.27018	5013.8625
2816.81308	5021.9625
2819.35442	5005.5625
2821.89419	5029.7625
2824.43239	5018.6625
2826.96904	5029.9625
2829.50412	5025.5625
2832.03763	5021.9625
2834.56959	5039.7625
2837.1	5062.4625
2839.62884	5070.5625
2842.15613	5095.5625
2844.68186	5170.2625
2847.20604	5236.4625
2849.72867	5274.4625
2852.24974	5290.3625
2854.76927	5304.0625
2857.28724	5294.0625
2859.80367	5271.4625
2862.31855	5250.4625
2864.83189	5222.0625
2867.34368	5210.3625
2869.85393	5204.0625
2872.36264	5183.7625
2874.8698	5193.3625
2877.37543	5193.7625
2879.87952	5181.9625
2882.38207	5205.7625
2884.88308	5193.1625
2887.38256	5194.0625
2889.88051	5200.5625
2892.37692	5193.4625
2894.8718	5189.0625
2897.36515	5207.3625
2899.85698	5207.6625
2902.34727	5221.1625
2904.83604	5229.1625
2907.32328	5229.4625
2909.809	5213.3625
2912.29319	5233.6625
2914.77587	5212.2625
2917.25702	5191.2625
2919.73665	5192.9625
2922.21476	5188.7625
2924.69136	5168.6625
2927.16644	5169.0625
2929.64	5164.1625
2932.11205	5127.6625
2934.58258	5095.8625
2937.05161	5105.8625
2939.51912	5081.8625
2941.98513	5040.3625
2944.44962	5000.4625
2946.91261	4960.2625
2949.37409	4937.8625
2951.83407	4899.9625
2954.29254	4869.7625
2956.74951	4847.2625
2959.20498	4835.4625
2961.65895	4828.7625
2964.11142	4790.4625
2966.56239	4798.0625
2969.01186	4782.8625
2971.45984	4741.1625
2973.90632	4756.5625
2976.35131	4741.9625
2978.7948	4723.6625
2981.23681	4696.3625
2983.67732	4699.2625
2986.11635	4670.0625
2988.55388	4662.0625
2990.98993	4645.0625
2993.4245	4632.6625
2995.85758	4627.6625
2998.28917	4613.4625
3000.71928	4611.3625
3003.14791	4598.3625
3005.57506	4586.3625
3008.00073	4564.3625
3010.42493	4574.0625
3012.84764	4557.6625
3015.26888	4549.8625
3017.68865	4540.4625
3020.10694	4540.9625
3022.52376	4533.2625
3024.9391	4524.3625
3027.35298	4519.7625
3029.76539	4530.0625
3032.17632	4523.1625
3034.5858	4500.3625
3036.9938	4504.9625
3039.40034	4485.0625
3041.80542	4499.5625
3044.20903	4472.7625
3046.61118	4476.5625
3049.01187	4452.9625
3051.4111	4442.0625
3053.80888	4441.5625
3056.20519	4445.3625
3058.60005	4444.1625
3060.99345	4449.2625
3063.3854	4426.9625
3065.7759	4423.1625
3068.16494	4424.8625
3070.55254	4401.3625
3072.93868	4403.6625
3075.32338	4391.2625
3077.70662	4363.6625
3080.08842	4363.2625
3082.46878	4365.9625
3084.84769	4361.4625
3087.22515	4339.5625
