Data from AgNP_FTO_APTES_CRN_1000uM_R6G_10uM_NaF_0.1M_Addition_RamanShift__18__21-11-18-287.txt Node

Date: Wed Dec 15 21:11:18 GMT 2021
User: TCL
Spectrometer: QEP01345
Trigger mode: 4
Integration Time (sec): 7.000000E0
Scans to average: 10
Electric dark correction enabled: true
Nonlinearity correction enabled: false
Boxcar width: 0
XAxis mode: Raman Shifts
Number of Pixels in Spectrum: 1044
>>>>>Begin Spectral Data<<<<<
46.04893	1.125
50.45542	-1.075
54.85868	-0.975
59.25871	-1.875
63.6555	54.425
68.04907	60.925
72.43941	60.125
76.82654	65.725
81.21044	65.125
85.59113	69.525
89.96862	72.125
94.34289	72.325
98.71396	78.825
103.08183	79.425
107.4465	84.825
111.80798	85.325
116.16626	87.325
120.52136	90.925
124.87327	94.425
129.222	96.025
133.56755	102.825
137.90993	109.225
142.24913	121.525
146.58517	135.325
150.91804	152.725
155.24774	185.825
159.57429	227.125
163.89768	298.425
168.21792	384.925
172.53501	522.325
176.84895	724.025
181.15975	1014.725
185.46741	1426.725
189.77193	1974.425
194.07331	2647.525
198.37157	3405.325
202.6667	4213.325
206.9587	5024.925
211.24758	5812.125
215.53334	6589.525
219.81599	7420.025
224.09553	8329.325
228.37195	9311.525
232.64527	10364.125
236.91549	11494.325
241.18261	12613.625
245.44663	13630.325
249.70755	14601.125
253.96539	15411.125
258.22014	16077.025
262.4718	16648.725
266.72039	17028.625
270.96589	17177.525
275.20832	17225.425
279.44768	17058.225
283.68397	16921.625
287.91719	16693.825
292.14735	16603.825
296.37445	16548.525
300.59849	16509.925
304.81948	16514.725
309.03742	16463.325
313.25231	16319.125
317.46415	16101.625
321.67296	15863.725
325.87872	15659.525
330.08145	15593.925
334.28114	15656.325
338.47781	15754.025
342.67145	15922.325
346.86207	16107.925
351.04966	16396.225
355.23424	16640.725
359.4158	16858.525
363.59435	16983.925
367.76989	17106.825
371.94243	17176.825
376.11196	17297.125
380.27849	17400.625
384.44203	17542.125
388.60257	17655.725
392.76012	17768.125
396.91468	17944.225
401.06626	18112.025
405.21485	18285.425
409.36047	18292.525
413.50311	18148.625
417.64277	18001.425
421.77947	17987.425
425.9132	18062.825
430.04396	18233.225
434.17176	18457.425
438.2966	18700.825
442.41849	19213.925
446.53742	19797.925
450.6534	20385.425
454.76644	20741.725
458.87653	20871.225
462.98368	20604.925
467.08789	20324.125
471.18916	20121.025
475.2875	19937.525
479.38291	19849.825
483.4754	19743.025
487.56496	19447.725
491.6516	19160.525
495.73531	18918.625
499.81612	18821.025
503.89401	18865.225
507.96899	18933.525
512.04106	19024.725
516.11023	19098.225
520.1765	19123.125
524.23987	19161.525
528.30034	19155.025
532.35792	19077.125
536.41261	18881.325
540.46441	18693.425
544.51333	18684.125
548.55936	18798.825
552.60252	19116.325
556.64279	19532.325
560.6802	19868.625
564.71473	20035.325
568.7464	20219.425
572.7752	20528.425
576.80114	20698.325
580.82422	20795.425
584.84444	21037.725
588.86181	21608.925
592.87633	22450.425
596.888	22825.025
600.89682	22376.225
604.9028	22186.725
608.90594	22944.425
612.90624	23910.025
616.90371	22780.325
620.89834	20220.625
624.89015	18995.625
628.87913	18807.125
632.86528	18899.225
636.84862	18964.225
640.82913	18868.925
644.80683	18593.225
648.78172	18389.125
652.75379	18304.125
656.72306	18457.025
660.68952	18600.725
664.65319	18556.625
668.61405	18431.525
672.57211	18434.825
676.52738	18545.325
680.47986	18617.825
684.42955	18535.825
688.37646	18475.625
692.32058	18436.825
696.26192	18505.925
700.20048	18619.025
704.13626	18679.325
708.06928	18675.825
711.99952	18546.625
715.927	18517.625
719.85171	18462.125
723.77365	18374.025
727.69284	18195.125
731.60928	18040.725
735.52295	17946.625
739.43388	17936.425
743.34206	17935.725
747.24749	17932.025
751.15017	18009.825
755.05012	18111.525
758.94733	18435.625
762.8418	19034.825
766.73354	19989.225
770.62254	20893.325
774.50882	21080.325
778.39237	20407.425
782.27321	19280.925
786.15132	18319.025
790.02671	17749.425
793.89938	17449.825
797.76935	17347.925
801.6366	17310.425
805.50115	17271.725
809.36299	17234.525
813.22213	17143.925
817.07857	17139.925
820.93231	17123.425
824.78336	17058.125
828.63172	17048.525
832.47738	17005.025
836.32036	17009.725
840.16066	17026.325
843.99827	17010.825
847.8332	16960.025
851.66546	16905.225
855.49504	16926.225
859.32195	16941.425
863.1462	16987.225
866.96777	16957.525
870.78668	16923.025
874.60293	16926.525
878.41652	16905.125
882.22745	16917.825
886.03573	16937.225
889.84136	16912.325
893.64433	16892.925
897.44466	16828.925
901.24235	16772.525
905.0374	16719.125
908.8298	16683.325
912.61957	16699.125
916.40671	16790.125
920.19121	16939.725
923.97308	17045.425
927.75233	17061.025
931.52895	17037.825
935.30295	16933.825
939.07433	16702.125
942.84309	16491.625
946.60924	16375.025
950.37278	16287.725
954.13371	16274.025
957.89203	16250.625
961.64774	16231.225
965.40086	16227.725
969.15137	16152.125
972.89929	16049.125
976.64461	16038.625
980.38733	15999.125
984.12747	16030.025
987.86502	16100.625
991.59999	16210.825
995.33237	16362.525
999.06217	16620.025
1002.78939	16890.625
1006.51404	17123.025
1010.23611	17296.825
1013.95561	17446.025
1017.67255	17460.225
1021.38692	17293.325
1025.09872	17043.025
1028.80796	16919.825
1032.51465	16946.025
1036.21877	17035.525
1039.92035	17127.725
1043.61937	17135.625
1047.31584	17130.925
1051.00976	17145.625
1054.70114	17235.625
1058.38998	17364.225
1062.07627	17579.625
1065.76003	17965.525
1069.44126	18498.025
1073.11995	19100.725
1076.79611	19571.425
1080.46974	19572.225
1084.14085	19108.825
1087.80943	18605.225
1091.47549	18288.125
1095.13903	18020.225
1098.80005	17750.425
1102.45857	17443.925
1106.11456	17222.425
1109.76805	17152.125
1113.41903	17219.225
1117.06751	17293.925
1120.71348	17451.925
1124.35696	17662.725
1127.99793	17828.725
1131.63641	17979.025
1135.2724	17922.425
1138.90589	17818.025
1142.5369	17743.525
1146.16542	17786.025
1149.79145	17862.825
1153.415	17999.525
1157.03607	18168.825
1160.65467	18503.125
1164.27079	19118.925
1167.88443	19913.025
1171.49561	21041.425
1175.10432	22469.025
1178.71056	24128.425
1182.31434	25481.225
1185.91565	25808.825
1189.51451	25318.625
1193.11091	24508.725
1196.70485	23706.625
1200.29634	22920.725
1203.88538	22286.525
1207.47197	21857.125
1211.05612	21488.625
1214.63782	21242.125
1218.21708	21078.725
1221.79391	21004.025
1225.36829	20951.025
1228.94024	20760.825
1232.50976	20415.025
1236.07685	20160.725
1239.6415	19980.325
1243.20374	19991.125
1246.76355	20119.525
1250.32093	20305.625
1253.8759	20568.725
1257.42845	20987.825
1260.97859	21351.125
1264.52631	21724.325
1268.07163	22110.725
1271.61453	22472.025
1275.15503	22882.525
1278.69312	23346.425
1282.22882	23785.925
1285.76211	24353.325
1289.29301	25146.325
1292.82151	26149.125
1296.34761	27330.825
1299.87133	28585.925
1303.39266	29930.725
1306.9116	31405.625
1310.42815	32949.525
1313.94233	34122.825
1317.45412	34578.325
1320.96354	34206.525
1324.47058	33505.925
1327.97525	32746.725
1331.47754	32099.225
1334.97747	31732.225
1338.47502	31627.625
1341.97022	31377.425
1345.46305	30988.725
1348.95352	30555.925
1352.44163	30618.125
1355.92738	31314.025
1359.41078	32397.125
1362.89183	33491.025
1366.37053	33232.325
1369.84688	31127.425
1373.32088	28308.925
1376.79254	26344.825
1380.26186	25621.925
1383.72883	25611.925
1387.19347	25598.225
1390.65578	25504.025
1394.11575	25518.225
1397.57339	25810.025
1401.0287	26316.025
1404.48168	26725.225
1407.93234	26726.525
1411.38068	26378.325
1414.82669	25632.625
1418.27039	24707.525
1421.71177	23758.625
1425.15083	22905.925
1428.58758	22472.925
1432.02203	22571.825
1435.45416	22982.225
1438.88399	23572.125
1442.31151	24000.825
1445.73673	24328.425
1449.15965	24691.025
1452.58027	24969.025
1455.9986	25007.725
1459.41463	25028.625
1462.82837	25231.325
1466.23982	25585.125
1469.64898	25961.925
1473.05586	26163.325
1476.46045	26145.425
1479.86276	25977.625
1483.26279	25683.125
1486.66054	25478.025
1490.05602	25400.125
1493.44922	25358.525
1496.84016	25259.325
1500.22882	25327.525
1503.61521	25651.625
1506.99934	26269.425
1510.38121	26818.425
1513.76081	26969.625
1517.13816	26477.625
1520.51324	25614.725
1523.88607	24903.625
1527.25665	24535.125
1530.62498	24446.325
1533.99105	24555.925
1537.35488	24502.025
1540.71647	24307.525
1544.07581	23949.325
1547.4329	23543.325
1550.78776	23212.125
1554.14038	22954.825
1557.49077	22774.025
1560.83892	22674.425
1564.18484	22820.725
1567.52853	23146.425
1570.86999	23720.225
1574.20922	24639.625
1577.54624	25683.525
1580.88103	26232.725
1584.2136	26271.825
1587.54395	26069.325
1590.87208	26132.925
1594.19801	26784.725
1597.52172	27744.125
1600.84321	28179.525
1604.16251	27466.625
1607.47959	25673.925
1610.79447	23556.225
1614.10715	21668.625
1617.41763	20190.325
1620.7259	19282.825
1624.03199	18826.825
1627.33587	18833.025
1630.63757	19264.625
1633.93707	20242.525
1637.23439	21938.625
1640.52951	24316.425
1643.82246	27095.825
1647.11321	29178.225
1650.40179	29437.725
1653.68819	27510.225
1656.97241	24292.825
1660.25446	21260.625
1663.53433	19030.025
1666.81203	17594.125
1670.08756	16708.825
1673.36092	16130.625
1676.63211	15757.225
1679.90115	15503.825
1683.16801	15257.625
1686.43272	15112.525
1689.69527	15005.125
1692.95567	14900.925
1696.2139	14858.325
1699.46999	14816.625
1702.72392	14777.125
1705.97571	14732.425
1709.22535	14650.725
1712.47284	14632.725
1715.71819	14610.325
1718.96139	14576.625
1722.20246	14495.125
1725.44139	14402.925
1728.67818	14338.525
1731.91284	14268.325
1735.14537	14171.725
1738.37576	14115.025
1741.60403	14080.625
1744.83017	14030.325
1748.05418	14057.625
1751.27607	14033.925
1754.49584	14013.325
1757.71349	14000.925
1760.92903	13984.425
1764.14244	13927.025
1767.35375	13905.125
1770.56294	13876.125
1773.77002	13850.525
1776.97499	13813.425
1780.17785	13743.525
1783.37861	13759.625
1786.57727	13689.625
1789.77382	13641.925
1792.96828	13614.725
1796.16064	13580.225
1799.3509	13538.025
1802.53907	13521.525
1805.72514	13488.925
1808.90913	13415.325
1812.09102	13420.125
1815.27083	13401.625
1818.44856	13369.125
1821.6242	13336.925
1824.79776	13305.625
1827.96924	13303.825
1831.13864	13286.725
1834.30597	13284.525
1837.47122	13305.125
1840.6344	13232.325
1843.7955	13241.625
1846.95454	13226.925
1850.11151	13218.825
1853.26642	13200.425
1856.41926	13207.425
1859.57004	13204.525
1862.71876	13196.125
1865.86542	13168.425
1869.01003	13170.825
1872.15258	13173.925
1875.29308	13155.025
1878.43152	13109.425
1881.56792	13122.325
1884.70227	13124.225
1887.83457	13107.825
1890.96482	13084.225
1894.09304	13085.325
1897.21921	13066.125
1900.34335	13076.425
1903.46544	13047.725
1906.58551	13028.625
1909.70353	12993.025
1912.81953	13003.325
1915.93349	12979.425
1919.04543	12947.025
1922.15534	12899.525
1925.26322	12900.625
1928.36908	12865.425
1931.47292	12875.825
1934.57473	12854.025
1937.67453	12765.925
1940.77232	12757.025
1943.86808	12706.025
1946.96184	12673.625
1950.05358	12653.625
1953.14331	12604.525
1956.23103	12597.225
1959.31675	12540.425
1962.40046	12512.025
1965.48217	12479.125
1968.56188	12456.525
1971.63959	12396.425
1974.7153	12383.125
1977.78901	12343.525
1980.86073	12291.825
1983.93046	12260.125
1986.99819	12218.825
1990.06394	12208.925
1993.1277	12158.525
1996.18947	12105.425
1999.24925	12105.625
2002.30706	12053.825
2005.36288	12002.925
2008.41672	11978.425
2011.46859	11918.825
2014.51848	11913.525
2017.56639	11894.525
2020.61233	11838.025
2023.6563	11832.125
2026.6983	11824.925
2029.73833	11785.925
2032.7764	11759.725
2035.8125	11702.025
2038.84664	11708.025
2041.87881	11685.425
2044.90903	11653.325
2047.93729	11620.925
2050.96359	11614.925
2053.98794	11604.125
2057.01034	11590.525
2060.03078	11596.025
2063.04927	11589.325
2066.06582	11570.925
2069.08042	11559.525
2072.09307	11572.725
2075.10378	11538.125
2078.11255	11542.325
2081.11938	11533.325
2084.12426	11529.725
2087.12722	11526.325
2090.12824	11535.825
2093.12732	11521.025
2096.12447	11547.825
2099.11969	11501.225
2102.11299	11537.625
2105.10435	11536.525
2108.09379	11530.125
2111.08131	11533.425
2114.0669	11521.725
2117.05057	11510.125
2120.03233	11535.825
2123.01216	11549.625
2125.99008	11554.825
2128.96609	11574.025
2131.94018	11573.525
2134.91236	11579.725
2137.88263	11573.525
2140.851	11594.825
2143.81746	11583.825
2146.78201	11580.625
2149.74466	11579.925
2152.7054	11595.225
2155.66425	11629.625
2158.6212	11611.425
2161.57625	11627.325
2164.52941	11595.725
2167.48067	11566.625
2170.43004	11556.725
2173.37752	11550.725
2176.32311	11549.425
2179.26681	11550.725
2182.20863	11555.725
2185.14856	11551.225
2188.08661	11536.225
2191.02278	11552.825
2193.95707	11506.625
2196.88948	11500.925
2199.82001	11511.125
2202.74867	11488.325
2205.67545	11489.525
2208.60037	11476.125
2211.52341	11475.225
2214.44458	11461.525
2217.36388	11423.925
2220.28132	11398.925
2223.1969	11339.225
2226.11061	11339.725
2229.02246	11332.025
2231.93245	11337.925
2234.84058	11285.025
2237.74686	11295.525
2240.65128	11280.125
2243.55385	11239.025
2246.45456	11220.025
2249.35343	11220.025
2252.25044	11187.825
2255.14561	11166.625
2258.03893	11157.325
2260.93041	11139.025
2263.82004	11127.125
2266.70783	11107.025
2269.59378	11068.025
2272.4779	11044.225
2275.36017	11011.025
2278.24061	10979.625
2281.11922	10946.125
2283.996	10929.625
2286.87094	10933.125
2289.74405	10905.625
2292.61534	10865.425
2295.4848	10870.325
2298.35243	10876.025
2301.21824	10870.825
2304.08223	10851.725
2306.94439	10844.525
2309.80474	10803.325
2312.66327	10833.925
2315.51999	10798.725
2318.37489	10804.125
2321.22797	10811.625
2324.07925	10791.525
2326.92871	10781.625
2329.77637	10773.425
2332.62222	10770.325
2335.46626	10740.325
2338.3085	10723.925
2341.14893	10710.825
2343.98756	10723.525
2346.8244	10701.625
2349.65943	10680.625
2352.49267	10677.125
2355.32411	10660.525
2358.15376	10676.225
2360.98161	10657.425
2363.80768	10655.025
2366.63195	10619.425
2369.45444	10616.325
2372.27514	10615.125
2375.09405	10600.925
2377.91118	10593.425
2380.72652	10552.925
2383.54009	10531.925
2386.35187	10550.325
2389.16188	10478.425
2391.97011	10456.225
2394.77657	10451.525
2397.58125	10443.025
2400.38416	10430.325
2403.18529	10412.725
2405.98466	10418.725
2408.78226	10375.825
2411.57809	10406.325
2414.37216	10347.825
2417.16446	10337.225
2419.955	10313.025
2422.74378	10316.325
2425.5308	10294.525
2428.31606	10289.025
2431.09956	10263.225
2433.88131	10273.025
2436.6613	10258.725
2439.43954	10273.525
2442.21603	10262.025
2444.99077	10250.425
2447.76377	10259.725
2450.53501	10250.125
2453.30451	10215.925
2456.07226	10210.725
2458.83827	10214.925
2461.60254	10198.625
2464.36507	10187.025
2467.12586	10158.825
2469.88492	10183.625
2472.64224	10155.325
2475.39782	10134.025
2478.15167	10154.225
2480.90379	10142.125
2483.65417	10160.925
2486.40283	10178.225
2489.14976	10152.525
2491.89497	10167.125
2494.63845	10179.225
2497.3802	10135.225
2500.12024	10120.025
2502.85855	10133.225
2505.59514	10130.225
2508.33002	10114.725
2511.06318	10095.725
2513.79462	10083.625
2516.52435	10059.325
2519.25237	10067.125
2521.97867	10047.725
2524.70327	10050.925
2527.42616	10025.425
2530.14734	10017.825
2532.86681	9995.025
2535.58458	10002.825
2538.30065	9995.625
2541.01501	9979.625
2543.72768	9988.325
2546.43864	9986.925
2549.14791	9934.525
2551.85548	9923.625
2554.56136	9918.325
2557.26554	9909.425
2559.96803	9881.625
2562.66883	9863.625
2565.36794	9869.725
2568.06536	9865.925
2570.7611	9868.325
2573.45514	9834.325
2576.14751	9829.325
2578.83819	9802.825
2581.52719	9795.525
2584.21451	9773.025
2586.90015	9758.725
2589.58411	9742.025
2592.2664	9749.025
2594.94701	9718.725
2597.62594	9706.725
2600.30321	9710.925
2602.9788	9694.825
2605.65273	9667.725
2608.32498	9674.525
2610.99557	9652.725
2613.66449	9657.325
2616.33175	9635.925
2618.99734	9621.025
2621.66128	9626.525
2624.32355	9623.025
2626.98416	9629.625
2629.64311	9612.225
2632.30041	9590.525
2634.95605	9575.025
2637.61004	9573.025
2640.26238	9562.125
2642.91306	9562.925
2645.56209	9592.825
2648.20948	9574.925
2650.85521	9566.725
2653.4993	9565.225
2656.14175	9573.525
2658.78255	9571.025
2661.42171	9554.125
2664.05923	9575.025
2666.6951	9563.625
2669.32934	9569.425
2671.96194	9568.925
2674.59291	9572.925
2677.22224	9543.425
2679.84993	9573.025
2682.476	9572.725
2685.10043	9535.825
2687.72324	9535.925
2690.34441	9547.425
2692.96396	9544.725
2695.58188	9533.725
2698.19818	9558.825
2700.81285	9551.025
2703.4259	9545.725
2706.03733	9592.125
2708.64714	9574.925
2711.25533	9582.225
2713.86191	9573.225
2716.46687	9563.725
2719.07021	9580.725
2721.67194	9543.325
2724.27206	9530.825
2726.87057	9561.525
2729.46747	9559.825
2732.06276	9549.125
2734.65644	9527.325
2737.24852	9560.825
2739.83899	9545.525
2742.42786	9541.725
2745.01513	9536.325
2747.60079	9518.025
2750.18486	9514.825
2752.76733	9517.225
2755.3482	9507.425
2757.92747	9516.325
2760.50515	9479.525
2763.08123	9492.025
2765.65573	9485.425
2768.22863	9484.025
2770.79994	9473.425
2773.36967	9477.025
2775.9378	9463.025
2778.50435	9443.625
2781.06932	9420.925
2783.6327	9439.825
2786.1945	9425.225
2788.75471	9402.125
2791.31335	9401.525
2793.87041	9381.225
2796.42589	9345.825
2798.97979	9355.725
2801.53212	9354.325
2804.08288	9333.625
2806.63206	9290.425
2809.17967	9281.725
2811.72571	9261.425
2814.27018	9272.125
2816.81308	9243.125
2819.35442	9246.825
2821.89419	9213.125
2824.43239	9212.825
2826.96904	9217.425
2829.50412	9202.025
2832.03763	9153.425
2834.56959	9180.525
2837.1	9179.625
2839.62884	9174.325
2842.15613	9186.125
2844.68186	9213.525
2847.20604	9248.925
2849.72867	9355.925
2852.24974	9186.825
2854.76927	9199.025
2857.28724	9182.025
2859.80367	9148.225
2862.31855	9139.425
2864.83189	9137.125
2867.34368	9118.325
2869.85393	9119.725
2872.36264	9113.325
2874.8698	9104.525
2877.37543	9138.125
2879.87952	9141.325
2882.38207	9125.625
2884.88308	9132.625
2887.38256	9165.425
2889.88051	9147.725
2892.37692	9145.625
2894.8718	9143.325
2897.36515	9157.525
2899.85698	9154.325
2902.34727	9193.925
2904.83604	9199.025
2907.32328	9230.425
2909.809	9235.925
2912.29319	9234.625
2914.77587	9227.325
2917.25702	9223.325
2919.73665	9246.025
2922.21476	9266.825
2924.69136	9264.025
2927.16644	9252.725
2929.64	9253.625
2932.11205	9228.425
2934.58258	9224.825
2937.05161	9223.425
2939.51912	9232.325
2941.98513	9216.825
2944.44962	9155.925
2946.91261	9138.225
2949.37409	9120.125
2951.83407	9117.325
2954.29254	9099.425
2956.74951	9063.625
2959.20498	9054.725
2961.65895	9028.025
2964.11142	9042.625
2966.56239	9004.025
2969.01186	8964.725
2971.45984	8953.725
2973.90632	8926.525
2976.35131	8927.225
2978.7948	8912.425
2981.23681	8854.025
2983.67732	8847.725
2986.11635	8807.725
2988.55388	8784.425
2990.98993	8769.525
2993.4245	8724.625
2995.85758	8728.825
2998.28917	8694.825
3000.71928	8670.325
3003.14791	8676.125
3005.57506	8659.325
3008.00073	8652.825
3010.42493	8638.825
3012.84764	8612.325
3015.26888	8596.125
3017.68865	8577.025
3020.10694	8586.725
3022.52376	8557.225
3024.9391	8542.425
3027.35298	8527.225
3029.76539	8517.925
3032.17632	8504.725
3034.5858	8508.925
3036.9938	8501.725
3039.40034	8459.625
3041.80542	8467.825
3044.20903	8445.625
3046.61118	8440.125
3049.01187	8426.425
3051.4111	8422.525
3053.80888	8376.525
3056.20519	8373.725
3058.60005	8362.425
3060.99345	8348.925
3063.3854	8329.425
3065.7759	8294.125
3068.16494	8303.825
3070.55254	8282.625
3072.93868	8267.325
3075.32338	8226.525
3077.70662	8234.025
3080.08842	8173.925
3082.46878	8196.325
3084.84769	8184.825
3087.22515	8174.725
3089.60118	8200.425
3091.97576	8202.125
3094.3489	8219.025
3096.72061	8192.025
3099.09087	8191.725
3101.4597	8180.425
3103.82709	8166.525
3106.19305	8174.325
3108.55757	8165.025
3110.92066	8147.025
3113.28232	8120.925
3115.64255	8085.425
3118.00134	8079.825
3120.35871	8091.525
3122.71466	8088.025
3125.06917	8053.825
3127.42226	8024.425
3129.77393	8058.725
3132.12417	8059.725
3134.47299	8056.425
3136.82039	8066.125
3139.16636	8059.425
3141.51092	8089.525
3143.85406	8073.625
3146.19579	8069.625
3148.53609	8049.725
3150.87499	8049.925
3153.21246	8071.525
3155.54853	8079.725
3157.88318	8070.225
