Data from AgNP_FTO_APTES_CRN_0uM_R6G_10uM_NaF_0.1M_Addition_RamanShift__37__12-12-52-941.txt Node

Date: Wed Dec 15 12:12:52 GMT 2021
User: TCL
Spectrometer: QEP01345
Trigger mode: 4
Integration Time (sec): 7.000000E0
Scans to average: 10
Electric dark correction enabled: true
Nonlinearity correction enabled: false
Boxcar width: 0
XAxis mode: Raman Shifts
Number of Pixels in Spectrum: 1044
>>>>>Begin Spectral Data<<<<<
46.04893	0.8
50.45542	-1.3
54.85868	0.2
59.25871	1.4
63.6555	66.3
68.04907	71.5
72.43941	77.1
76.82654	84.8
81.21044	88
85.59113	92.9
89.96862	99.8
94.34289	100.9
98.71396	108.8
103.08183	109.8
107.4465	114
111.80798	109.5
116.16626	111.5
120.52136	117.8
124.87327	109.4
129.222	108
133.56755	106.5
137.90993	112.9
142.24913	111.3
146.58517	114.2
150.91804	112.8
155.24774	121.3
159.57429	132.9
163.89768	147.6
168.21792	169
172.53501	204.6
176.84895	256.7
181.15975	329.2
185.46741	434.4
189.77193	573.9
194.07331	740
198.37157	938.9
202.6667	1130
206.9587	1322.8
211.24758	1512.2
215.53334	1701.8
219.81599	1923.4
224.09553	2152.6
228.37195	2408.5
232.64527	2680.5
236.91549	2965.8
241.18261	3212
245.44663	3417
249.70755	3596
253.96539	3706.6
258.22014	3820.8
262.4718	3935.4
266.72039	4024.5
270.96589	4057.6
275.20832	4035.5
279.44768	3972.6
283.68397	3886.3
287.91719	3826.3
292.14735	3809.9
296.37445	3862.4
300.59849	3990.2
304.81948	4157.9
309.03742	4286.8
313.25231	4238.5
317.46415	4039.5
321.67296	3707.6
325.87872	3460.3
330.08145	3339.9
334.28114	3335.5
338.47781	3403.6
342.67145	3501.2
346.86207	3649
351.04966	3880.1
355.23424	4156.3
359.4158	4360.4
363.59435	4467.8
367.76989	4515
371.94243	4494.4
376.11196	4492.9
380.27849	4434.1
384.44203	4394.7
388.60257	4310.4
392.76012	4253.7
396.91468	4253.4
401.06626	4360.1
405.21485	4431.1
409.36047	4361.5
413.50311	4124.8
417.64277	3900.9
421.77947	3767.4
425.9132	3726.4
430.04396	3707.1
434.17176	3756.1
438.2966	3810.6
442.41849	3922.5
446.53742	4076.1
450.6534	4183.5
454.76644	4237.7
458.87653	4258.7
462.98368	4191.6
467.08789	4110.5
471.18916	4007.4
475.2875	3923
479.38291	3833.9
483.4754	3748.6
487.56496	3727.6
491.6516	3697
495.73531	3679
499.81612	3691.3
503.89401	3737.8
507.96899	3807.8
512.04106	3890.6
516.11023	4017.9
520.1765	4107.6
524.23987	4112.4
528.30034	4023.5
532.35792	3917.6
536.41261	3773.1
540.46441	3656.6
544.51333	3576.4
548.55936	3582.4
552.60252	3628.6
556.64279	3716.9
560.6802	3744.7
564.71473	3774.7
568.7464	3913.7
572.7752	3955.9
576.80114	3785.7
580.82422	3618
584.84444	3532
588.86181	3525
592.87633	3562
596.888	3631.8
600.89682	3776.4
604.9028	4219.3
608.90594	5448.9
612.90624	7129.4
616.90371	6943.6
620.89834	4813.7
624.89015	3724.8
628.87913	3484.1
632.86528	3451
636.84862	3508.3
640.82913	3495.1
644.80683	3376.6
648.78172	3311.8
652.75379	3399.1
656.72306	3624.5
660.68952	3831.6
664.65319	3707.9
668.61405	3444.9
672.57211	3298
676.52738	3297.8
680.47986	3297.9
684.42955	3279.3
688.37646	3280.5
692.32058	3311.4
696.26192	3364.4
700.20048	3454
704.13626	3538.6
708.06928	3507.4
711.99952	3469.9
715.927	3433.9
719.85171	3417.2
723.77365	3391.1
727.69284	3356.1
731.60928	3325.2
735.52295	3333.8
739.43388	3340.1
743.34206	3353.1
747.24749	3361.3
751.15017	3359
755.05012	3436.9
758.94733	3598.4
762.8418	3951.6
766.73354	4610.3
770.62254	5357.8
774.50882	5884.5
778.39237	5804.9
782.27321	5045.7
786.15132	4228.7
790.02671	3768.1
793.89938	3587.4
797.76935	3495.2
801.6366	3453
805.50115	3419
809.36299	3393.9
813.22213	3380.7
817.07857	3396.6
820.93231	3373.2
824.78336	3370.1
828.63172	3371.4
832.47738	3387.6
836.32036	3398.2
840.16066	3384
843.99827	3353.8
847.8332	3348.3
851.66546	3374.2
855.49504	3389.3
859.32195	3361.4
863.1462	3319.8
866.96777	3265.5
870.78668	3255.4
874.60293	3242.6
878.41652	3235.4
882.22745	3251.9
886.03573	3270.8
889.84136	3281.8
893.64433	3278.9
897.44466	3297.6
901.24235	3327.3
905.0374	3310.4
908.8298	3312.8
912.61957	3319.2
916.40671	3367
920.19121	3405.3
923.97308	3448.8
927.75233	3494.8
931.52895	3563.1
935.30295	3552.7
939.07433	3476.9
942.84309	3391.5
946.60924	3325.7
950.37278	3279.6
954.13371	3233.6
957.89203	3212.4
961.64774	3183.5
965.40086	3164.8
969.15137	3136.2
972.89929	3115.3
976.64461	3100.7
980.38733	3088.7
984.12747	3083.8
987.86502	3086.7
991.59999	3079.6
995.33237	3101.4
999.06217	3127.6
1002.78939	3161
1006.51404	3201.7
1010.23611	3248.3
1013.95561	3294.7
1017.67255	3261.3
1021.38692	3226.5
1025.09872	3187.7
1028.80796	3174.9
1032.51465	3217.5
1036.21877	3318.7
1039.92035	3447.3
1043.61937	3516.5
1047.31584	3474
1051.00976	3437.9
1054.70114	3343.4
1058.38998	3263.8
1062.07627	3248.1
1065.76003	3239.3
1069.44126	3284.3
1073.11995	3374.6
1076.79611	3477
1080.46974	3552.9
1084.14085	3579
1087.80943	3594.2
1091.47549	3537.4
1095.13903	3398.8
1098.80005	3208.7
1102.45857	3074.4
1106.11456	3054.5
1109.76805	3096.5
1113.41903	3181.1
1117.06751	3309.6
1120.71348	3469.7
1124.35696	3666.4
1127.99793	3814.3
1131.63641	3786.6
1135.2724	3545.9
1138.90589	3325.7
1142.5369	3177
1146.16542	3078.9
1149.79145	3028.1
1153.415	3028.6
1157.03607	3076.8
1160.65467	3160.2
1164.27079	3291.7
1167.88443	3508.6
1171.49561	3852
1175.10432	4427
1178.71056	5154.2
1182.31434	5672.6
1185.91565	5803.2
1189.51451	5619.7
1193.11091	5249.5
1196.70485	4750.8
1200.29634	4350.3
1203.88538	4036.2
1207.47197	3692.5
1211.05612	3403.2
1214.63782	3265.6
1218.21708	3231.1
1221.79391	3223.6
1225.36829	3230.4
1228.94024	3249.5
1232.50976	3239.7
1236.07685	3244.4
1239.6415	3278.3
1243.20374	3311.9
1246.76355	3312.9
1250.32093	3372.2
1253.8759	3457.6
1257.42845	3562.2
1260.97859	3737.2
1264.52631	3903.4
1268.07163	4074.8
1271.61453	4218.3
1275.15503	4264.7
1278.69312	4232.7
1282.22882	4197.8
1285.76211	4265.9
1289.29301	4405.6
1292.82151	4599.5
1296.34761	4770.1
1299.87133	5004.2
1303.39266	5391.8
1306.9116	6009.8
1310.42815	6756.7
1313.94233	7148.4
1317.45412	6944.7
1320.96354	6323.9
1324.47058	5648.9
1327.97525	5049
1331.47754	4692.1
1334.97747	4574.5
1338.47502	4611.4
1341.97022	4773.7
1345.46305	5051.7
1348.95352	5582.9
1352.44163	6349.1
1355.92738	7314.9
1359.41078	8574.8
1362.89183	9609.8
1366.37053	9426.4
1369.84688	8064.3
1373.32088	6598.3
1376.79254	5519.6
1380.26186	4885.5
1383.72883	4504.2
1387.19347	4218.3
1390.65578	3953.8
1394.11575	3718
1397.57339	3563.2
1401.0287	3498
1404.48168	3468
1407.93234	3468.3
1411.38068	3472.2
1414.82669	3491.7
1418.27039	3497.1
1421.71177	3486.2
1425.15083	3488.5
1428.58758	3471.8
1432.02203	3542.4
1435.45416	3610.6
1438.88399	3647.6
1442.31151	3641
1445.73673	3630.8
1449.15965	3591.6
1452.58027	3546.4
1455.9986	3448.3
1459.41463	3386.2
1462.82837	3408.5
1466.23982	3484.1
1469.64898	3557.7
1473.05586	3615.4
1476.46045	3651.8
1479.86276	3692
1483.26279	3763.6
1486.66054	3847.5
1490.05602	3930.8
1493.44922	4106.3
1496.84016	4445.3
1500.22882	5045.6
1503.61521	5922.5
1506.99934	6889.6
1510.38121	7790.4
1513.76081	8170.1
1517.13816	7673.3
1520.51324	6481.7
1523.88607	5338.3
1527.25665	4606.2
1530.62498	4225.8
1533.99105	4034.5
1537.35488	3902.1
1540.71647	3847
1544.07581	3819.3
1547.4329	3801.2
1550.78776	3819.5
1554.14038	3802.1
1557.49077	3825
1560.83892	3913.4
1564.18484	4042.6
1567.52853	4256.8
1570.86999	4584.6
1574.20922	4865.9
1577.54624	4965.2
1580.88103	4735.7
1584.2136	4229.3
1587.54395	3850.7
1590.87208	3728.8
1594.19801	3852.8
1597.52172	4115.3
1600.84321	4257
1604.16251	4100.9
1607.47959	3850.7
1610.79447	3548.8
1614.10715	3251.4
1617.41763	3023.9
1620.7259	2871.2
1624.03199	2830.2
1627.33587	2822.2
1630.63757	2849.5
1633.93707	2939.8
1637.23439	3087.2
1640.52951	3368.9
1643.82246	3819.7
1647.11321	4415.7
1650.40179	4931.3
1653.68819	4883.9
1656.97241	4221.1
1660.25446	3458.6
1663.53433	2911.6
1666.81203	2619.2
1670.08756	2465.5
1673.36092	2363.2
1676.63211	2304.8
1679.90115	2263
1683.16801	2235.4
1686.43272	2216
1689.69527	2206.5
1692.95567	2183.1
1696.2139	2167.2
1699.46999	2144.3
1702.72392	2116.1
1705.97571	2112.2
1709.22535	2104.5
1712.47284	2103.8
1715.71819	2100
1718.96139	2089.3
1722.20246	2074.4
1725.44139	2059.4
1728.67818	2032
1731.91284	2002.8
1735.14537	1972.8
1738.37576	1925.3
1741.60403	1924.1
1744.83017	1895.2
1748.05418	1879.5
1751.27607	1877.9
1754.49584	1866.8
1757.71349	1857.3
1760.92903	1839.6
1764.14244	1834.5
1767.35375	1826.6
1770.56294	1815.6
1773.77002	1805.5
1776.97499	1812.1
1780.17785	1797.9
1783.37861	1794.1
1786.57727	1784.4
1789.77382	1779
1792.96828	1769.7
1796.16064	1771.6
1799.3509	1764
1802.53907	1768.4
1805.72514	1743.9
1808.90913	1734.7
1812.09102	1736.9
1815.27083	1721.7
1818.44856	1720.7
1821.6242	1724.4
1824.79776	1705.2
1827.96924	1707
1831.13864	1698.9
1834.30597	1702.9
1837.47122	1690.6
1840.6344	1681.4
1843.7955	1684.2
1846.95454	1685.5
1850.11151	1681
1853.26642	1670.5
1856.41926	1665.9
1859.57004	1676.3
1862.71876	1666.1
1865.86542	1660.6
1869.01003	1660.1
1872.15258	1664
1875.29308	1660.1
1878.43152	1651.1
1881.56792	1649.2
1884.70227	1652.5
1887.83457	1652.3
1890.96482	1642.9
1894.09304	1644.1
1897.21921	1649.4
1900.34335	1638.8
1903.46544	1640.7
1906.58551	1643.6
1909.70353	1648.3
1912.81953	1639.9
1915.93349	1632
1919.04543	1619.9
1922.15534	1623.6
1925.26322	1621.3
1928.36908	1612.1
1931.47292	1603.2
1934.57473	1597.3
1937.67453	1596.3
1940.77232	1582.8
1943.86808	1579.2
1946.96184	1558.8
1950.05358	1565.6
1953.14331	1558
1956.23103	1558.6
1959.31675	1547.9
1962.40046	1548
1965.48217	1548
1968.56188	1541.4
1971.63959	1531.2
1974.7153	1529.5
1977.78901	1522.1
1980.86073	1522.5
1983.93046	1513.1
1986.99819	1507.3
1990.06394	1495.3
1993.1277	1496.3
1996.18947	1495.3
1999.24925	1482.7
2002.30706	1473.1
2005.36288	1467.4
2008.41672	1467.2
2011.46859	1454.1
2014.51848	1450.6
2017.56639	1445.4
2020.61233	1446.1
2023.6563	1435
2026.6983	1434.6
2029.73833	1434.2
2032.7764	1428.7
2035.8125	1416.8
2038.84664	1416
2041.87881	1413.4
2044.90903	1402.8
2047.93729	1403.1
2050.96359	1406.3
2053.98794	1403.2
2057.01034	1403.4
2060.03078	1396.8
2063.04927	1393.4
2066.06582	1400.2
2069.08042	1393.1
2072.09307	1390.8
2075.10378	1388.7
2078.11255	1385.7
2081.11938	1387.2
2084.12426	1388.9
2087.12722	1381.3
2090.12824	1378.1
2093.12732	1389.3
2096.12447	1374
2099.11969	1378.5
2102.11299	1383.8
2105.10435	1376.9
2108.09379	1373.1
2111.08131	1369.6
2114.0669	1383.1
2117.05057	1379.5
2120.03233	1379.2
2123.01216	1383.5
2125.99008	1387.3
2128.96609	1380.8
2131.94018	1376.3
2134.91236	1383.2
2137.88263	1385.8
2140.851	1382.9
2143.81746	1383.1
2146.78201	1383.2
2149.74466	1383.1
2152.7054	1382
2155.66425	1375
2158.6212	1375.9
2161.57625	1375.4
2164.52941	1372.8
2167.48067	1368.2
2170.43004	1371.4
2173.37752	1366.5
2176.32311	1370.3
2179.26681	1378.9
2182.20863	1368
2185.14856	1372
2188.08661	1368
2191.02278	1366.8
2193.95707	1358.9
2196.88948	1355.1
2199.82001	1355.6
2202.74867	1352.6
2205.67545	1347.9
2208.60037	1351.3
2211.52341	1345.3
2214.44458	1325.8
2217.36388	1336.3
2220.28132	1331.4
2223.1969	1319.2
2226.11061	1322.8
2229.02246	1315.4
2231.93245	1316.3
2234.84058	1304.5
2237.74686	1304.5
2240.65128	1317.6
2243.55385	1298.5
2246.45456	1299.1
2249.35343	1302.7
2252.25044	1301.3
2255.14561	1300.3
2258.03893	1300.7
2260.93041	1299.4
2263.82004	1292.4
2266.70783	1300.1
2269.59378	1287.9
2272.4779	1285.4
2275.36017	1276.8
2278.24061	1271.6
2281.11922	1273.1
2283.996	1270.1
2286.87094	1270.2
2289.74405	1253
2292.61534	1258.9
2295.4848	1254.5
2298.35243	1258.4
2301.21824	1241.4
2304.08223	1247
2306.94439	1250.2
2309.80474	1238
2312.66327	1239.4
2315.51999	1242.2
2318.37489	1238.7
2321.22797	1233.3
2324.07925	1233.8
2326.92871	1236.3
2329.77637	1233.4
2332.62222	1232.2
2335.46626	1219.2
2338.3085	1220.2
2341.14893	1220.4
2343.98756	1217.3
2346.8244	1210.1
2349.65943	1211.1
2352.49267	1218
2355.32411	1222
2358.15376	1219.7
2360.98161	1221.3
2363.80768	1223.3
2366.63195	1232.2
2369.45444	1230.4
2372.27514	1229.1
2375.09405	1239.7
2377.91118	1225.9
2380.72652	1224
2383.54009	1215.4
2386.35187	1207.8
2389.16188	1201.5
2391.97011	1199.7
2394.77657	1195.2
2397.58125	1192.7
2400.38416	1182.5
2403.18529	1182.3
2405.98466	1172
2408.78226	1172.5
2411.57809	1170
2414.37216	1176.3
2417.16446	1169.9
2419.955	1177.5
2422.74378	1165.9
2425.5308	1168.7
2428.31606	1162.8
2431.09956	1166.2
2433.88131	1161.4
2436.6613	1166
2439.43954	1168.2
2442.21603	1155.2
2444.99077	1158.8
2447.76377	1158.2
2450.53501	1160
2453.30451	1155.9
2456.07226	1168.7
2458.83827	1161.7
2461.60254	1162.9
2464.36507	1166.1
2467.12586	1157.8
2469.88492	1155.2
2472.64224	1149.5
2475.39782	1157.5
2478.15167	1159.9
2480.90379	1163.6
2483.65417	1167.4
2486.40283	1168.8
2489.14976	1166.4
2491.89497	1171.7
2494.63845	1175.6
2497.3802	1172.8
2500.12024	1169
2502.85855	1171.3
2505.59514	1166.5
2508.33002	1157.8
2511.06318	1142.2
2513.79462	1142.6
2516.52435	1132.1
2519.25237	1130.1
2521.97867	1124.8
2524.70327	1125.3
2527.42616	1128.7
2530.14734	1127.7
2532.86681	1134.6
2535.58458	1127.6
2538.30065	1119
2541.01501	1122.7
2543.72768	1120.9
2546.43864	1124
2549.14791	1125.5
2551.85548	1125.1
2554.56136	1124
2557.26554	1130.2
2559.96803	1128.2
2562.66883	1125.2
2565.36794	1136.7
2568.06536	1132.6
2570.7611	1120.4
2573.45514	1126.5
2576.14751	1120.8
2578.83819	1126.7
2581.52719	1124.3
2584.21451	1115.6
2586.90015	1115
2589.58411	1120.5
2592.2664	1113.9
2594.94701	1114.4
2597.62594	1114.2
2600.30321	1123.6
2602.9788	1123
2605.65273	1116.7
2608.32498	1110.9
2610.99557	1110.7
2613.66449	1118.4
2616.33175	1119.5
2618.99734	1118.5
2621.66128	1111.4
2624.32355	1116.8
2626.98416	1118.2
2629.64311	1120.2
2632.30041	1117
2634.95605	1113.9
2637.61004	1111.8
2640.26238	1109.6
2642.91306	1111
2645.56209	1121.8
2648.20948	1109.8
2650.85521	1115
2653.4993	1128.4
2656.14175	1127.7
2658.78255	1138.6
2661.42171	1140.8
2664.05923	1145.9
2666.6951	1163
2669.32934	1158.9
2671.96194	1162.8
2674.59291	1174.9
2677.22224	1170
2679.84993	1186.7
2682.476	1186
2685.10043	1191.4
2687.72324	1191.6
2690.34441	1200.4
2692.96396	1209.9
2695.58188	1215.4
2698.19818	1224.1
2700.81285	1234.7
2703.4259	1238.1
2706.03733	1250
2708.64714	1265.3
2711.25533	1281.6
2713.86191	1282.3
2716.46687	1310.5
2719.07021	1317.1
2721.67194	1315.6
2724.27206	1328.5
2726.87057	1325.1
2729.46747	1326.6
2732.06276	1344.8
2734.65644	1354.7
2737.24852	1353.2
2739.83899	1357.4
2742.42786	1375.7
2745.01513	1386.5
2747.60079	1395.2
2750.18486	1405.2
2752.76733	1416.5
2755.3482	1440.2
2757.92747	1452.1
2760.50515	1466.9
2763.08123	1476.3
2765.65573	1498.8
2768.22863	1521.1
2770.79994	1548.4
2773.36967	1566.8
2775.9378	1593.1
2778.50435	1619.8
2781.06932	1641.6
2783.6327	1676
2786.1945	1719
2788.75471	1743.4
2791.31335	1785.4
2793.87041	1827.5
2796.42589	1858.4
2798.97979	1904.6
2801.53212	1945.8
2804.08288	1994
2806.63206	2036.2
2809.17967	2067.3
2811.72571	2117.2
2814.27018	2174.7
2816.81308	2203
2819.35442	2233.1
2821.89419	2246.7
2824.43239	2263.1
2826.96904	2265.7
2829.50412	2274.8
2832.03763	2260.8
2834.56959	2282.1
2837.1	2263.5
2839.62884	2295.9
2842.15613	2324.4
2844.68186	2384.9
2847.20604	2454.9
2849.72867	2501.8
2852.24974	2520.9
2854.76927	2527.9
2857.28724	2503.8
2859.80367	2485.8
2862.31855	2454.4
2864.83189	2427.8
2867.34368	2407.9
2869.85393	2375.2
2872.36264	2347.2
2874.8698	2323.7
2877.37543	2295.8
2879.87952	2281.4
2882.38207	2265.4
2884.88308	2229.1
2887.38256	2228
2889.88051	2200.5
2892.37692	2185.6
2894.8718	2192
2897.36515	2164.9
2899.85698	2152.4
2902.34727	2148.6
2904.83604	2138.2
2907.32328	2124.9
2909.809	2114.1
2912.29319	2105.5
2914.77587	2094.1
2917.25702	2063.1
2919.73665	2061.2
2922.21476	2049.5
2924.69136	2042.2
2927.16644	2023.2
2929.64	2002
2932.11205	1973.5
2934.58258	1925.8
2937.05161	1905
2939.51912	1865.9
2941.98513	1804.1
2944.44962	1726.2
2946.91261	1664.6
2949.37409	1612.7
2951.83407	1563.8
2954.29254	1521.3
2956.74951	1477.9
2959.20498	1445.9
2961.65895	1413.7
2964.11142	1397.8
2966.56239	1372.9
2969.01186	1338.5
2971.45984	1311.1
2973.90632	1303.5
2976.35131	1275.1
2978.7948	1263.2
2981.23681	1241.9
2983.67732	1236.8
2986.11635	1212.1
2988.55388	1195
2990.98993	1182.7
2993.4245	1170.3
2995.85758	1153.7
2998.28917	1141.4
3000.71928	1130.4
3003.14791	1129.3
3005.57506	1116.2
3008.00073	1113.7
3010.42493	1099.7
3012.84764	1094.1
3015.26888	1089.8
3017.68865	1096
3020.10694	1091.1
3022.52376	1091.7
3024.9391	1092.5
3027.35298	1096
3029.76539	1095
3032.17632	1092.1
3034.5858	1093.1
3036.9938	1090.7
3039.40034	1086.6
3041.80542	1093
3044.20903	1085.6
3046.61118	1097
3049.01187	1098.4
3051.4111	1091.7
3053.80888	1101
3056.20519	1097.7
3058.60005	1102.1
3060.99345	1102.6
3063.3854	1111.9
3065.7759	1106.1
3068.16494	1111.6
3070.55254	1120.6
3072.93868	1120
3075.32338	1111.8
3077.70662	1116.7
3080.08842	1107.7
3082.46878	1115.2
3084.84769	1111.6
3087.22515	1101.4
3089.60118	1108.1
3091.97576	1106.4
3094.3489	1107
3096.72061	1113.3
3099.09087	1110.9
3101.4597	1105.2
3103.82709	1112
3106.19305	1113.8
3108.55757	1119.8
3110.92066	1128.7
3113.28232	1124
3115.64255	1129.1
3118.00134	1125.5
3120.35871	1132.4
3122.71466	1142.5
3125.06917	1146.5
3127.42226	1154.4
3129.77393	1159.1
3132.12417	1163.9
3134.47299	1178.1
3136.82039	1174.3
3139.16636	1192.2
3141.51092	1199.6
3143.85406	1213.4
3146.19579	1221
3148.53609	1224.4
3150.87499	1233.2
3153.21246	1243.1
3155.54853	1255.7
3157.88318	1259.7
3160.21642	1267.5
3162.54826	1277.4
3164.87868	1283.4
3167.2077	1282.5
3169.5353	1298.5
3171.86151	1298.9
3174.18631	1303.9
3176.5097	1326.2
3178.83169	1317.6
3181.15228	1318.4
3183.47147	1330.1
3185.78926	1345
3188.10565	1339.3
3190.42065	1348.3
3192.73424	1354.4
3195.04645	1363.8
3197.35725	1372.2
3199.66667	1377.3
3201.97469	1378.4
3204.28132	1382.2
3206.58656	1387.5
3208.8904	1389.6
3211.19287	1398.8
3213.49394	1412.1
3215.79363	1412.4
3218.09193	1422.3
3220.38884	1424
3222.68438	1427.6
3224.97853	1431.5
3227.2713	1427.8
3229.56269	1432
3231.8527	1442.9
3234.14133	1440.3
3236.42858	1437.2
3238.71446	1441.1
3240.99896	1439.2
3243.28209	1449.5
3245.56384	1450
3247.84423	1457.4
3250.12324	1463.4
3252.40088	1466.4
3254.67715	1470.5
3256.95205	1463.6
3259.22558	1479.5
3261.49775	1472.8
3263.76855	1484.3
3266.03799	1478
3268.30606	1486.9
3270.57277	1485.9
3272.83812	1493
3275.10211	1500.2
3277.36474	1491.7
3279.62601	1497.5
3281.88593	1499.2
3284.14448	1497.5
3286.40168	1494.6
3288.65753	1503.8
3290.91202	1485.1
3293.16516	1481.5
3295.41695	1477.9
3297.66738	1459.2
3299.91647	1453.8
3302.16421	1446.4
3304.4106	1438.8
3306.65564	1435.6
3308.89933	1427.1
3311.14169	1398.9
3313.38269	1394.2
3315.62236	1387
3317.86068	1370.3
3320.09766	1358.8
3322.3333	1353.6
3324.5676	1358.1
3326.80056	1327.4
3329.03219	1322.4
3331.26248	-0.5
3333.49143	0.2
3335.71905	-0.7
