Data from AgNP_FTO_APTES_CRN_0uM_R6G_10uM_NaF_0.1M_Addition_RamanShift__22__11-55-22-922.txt Node

Date: Wed Dec 15 11:55:22 GMT 2021
User: TCL
Spectrometer: QEP01345
Trigger mode: 4
Integration Time (sec): 7.000000E0
Scans to average: 10
Electric dark correction enabled: true
Nonlinearity correction enabled: false
Boxcar width: 0
XAxis mode: Raman Shifts
Number of Pixels in Spectrum: 1044
>>>>>Begin Spectral Data<<<<<
46.04893	1.225
50.45542	-1.175
54.85868	-0.075
59.25871	0.125
63.6555	61.025
68.04907	68.725
72.43941	73.525
76.82654	78.925
81.21044	85.625
85.59113	87.925
89.96862	92.025
94.34289	89.625
98.71396	100.225
103.08183	102.125
107.4465	101.125
111.80798	107.025
116.16626	104.225
120.52136	106.925
124.87327	106.425
129.222	109.825
133.56755	108.225
137.90993	116.725
142.24913	123.325
146.58517	127.025
150.91804	139.925
155.24774	156.325
159.57429	183.625
163.89768	219.925
168.21792	270.825
172.53501	359.425
176.84895	475.325
181.15975	652.725
185.46741	900.825
189.77193	1224.825
194.07331	1631.725
198.37157	2097.625
202.6667	2585.725
206.9587	3090.325
211.24758	3579.025
215.53334	4069.725
219.81599	4620.425
224.09553	5207.525
228.37195	5869.125
232.64527	6604.125
236.91549	7317.125
241.18261	7976.725
245.44663	8481.425
249.70755	8888.125
253.96539	9191.825
258.22014	9438.925
262.4718	9689.825
266.72039	9841.025
270.96589	9893.225
275.20832	9806.125
279.44768	9595.025
283.68397	9404.325
287.91719	9199.925
292.14735	9110.825
296.37445	9174.225
300.59849	9415.225
304.81948	9745.725
309.03742	10003.225
313.25231	10113.925
317.46415	9952.325
321.67296	9588.925
325.87872	9232.225
330.08145	9062.325
334.28114	9020.925
338.47781	9094.325
342.67145	9231.125
346.86207	9419.825
351.04966	9722.425
355.23424	10079.625
359.4158	10329.825
363.59435	10432.025
367.76989	10455.425
371.94243	10389.825
376.11196	10342.825
380.27849	10316.825
384.44203	10282.825
388.60257	10186.625
392.76012	10150.725
396.91468	10147.425
401.06626	10324.325
405.21485	10424.425
409.36047	10288.025
413.50311	9845.925
417.64277	9475.025
421.77947	9301.325
425.9132	9237.925
430.04396	9300.425
434.17176	9419.425
438.2966	9630.025
442.41849	10023.925
446.53742	10531.225
450.6534	11002.925
454.76644	11186.325
458.87653	10985.125
462.98368	10575.925
467.08789	10152.125
471.18916	9794.525
475.2875	9427.125
479.38291	9157.725
483.4754	8951.925
487.56496	8862.325
491.6516	8835.225
495.73531	8869.725
499.81612	8921.325
503.89401	9079.025
507.96899	9193.525
512.04106	9369.125
516.11023	9521.625
520.1765	9704.925
524.23987	9808.525
528.30034	9791.025
532.35792	9701.725
536.41261	9497.625
540.46441	9173.025
544.51333	8981.725
548.55936	8985.025
552.60252	9195.325
556.64279	9552.125
560.6802	9760.725
564.71473	9747.925
568.7464	9776.325
572.7752	9818.425
576.80114	9649.925
580.82422	9524.125
584.84444	9717.925
588.86181	10450.225
592.87633	11609.525
596.888	12331.425
600.89682	11903.525
604.9028	11692.925
608.90594	13385.225
612.90624	16050.025
616.90371	15523.225
620.89834	11435.925
624.89015	9284.925
628.87913	8789.825
632.86528	8776.425
636.84862	8825.525
640.82913	8718.725
644.80683	8405.425
648.78172	8173.325
652.75379	8211.925
656.72306	8457.925
660.68952	8808.025
664.65319	8683.625
668.61405	8288.325
672.57211	8088.725
676.52738	8112.225
680.47986	8114.225
684.42955	8020.425
688.37646	7925.425
692.32058	7918.825
696.26192	8003.825
700.20048	8137.225
704.13626	8250.525
708.06928	8270.325
711.99952	8249.225
715.927	8252.125
719.85171	8336.925
723.77365	8334.625
727.69284	8250.625
731.60928	8178.525
735.52295	8195.225
739.43388	8238.325
743.34206	8262.125
747.24749	8298.825
751.15017	8322.325
755.05012	8403.025
758.94733	8717.925
762.8418	9505.025
766.73354	10963.725
770.62254	12598.325
774.50882	13372.225
778.39237	12709.425
782.27321	11080.825
786.15132	9644.725
790.02671	8755.925
793.89938	8343.625
797.76935	8140.525
801.6366	8019.225
805.50115	7957.425
809.36299	7865.225
813.22213	7774.325
817.07857	7760.825
820.93231	7741.225
824.78336	7709.725
828.63172	7722.825
832.47738	7748.725
836.32036	7731.625
840.16066	7754.725
843.99827	7741.725
847.8332	7705.125
851.66546	7715.725
855.49504	7716.625
859.32195	7712.025
863.1462	7652.825
866.96777	7625.525
870.78668	7583.225
874.60293	7622.025
878.41652	7626.325
882.22745	7675.825
886.03573	7732.025
889.84136	7754.025
893.64433	7750.525
897.44466	7746.625
901.24235	7789.625
905.0374	7806.725
908.8298	7840.325
912.61957	7872.325
916.40671	7959.625
920.19121	8117.725
923.97308	8282.925
927.75233	8419.225
931.52895	8422.525
935.30295	8285.525
939.07433	8004.325
942.84309	7751.825
946.60924	7598.825
950.37278	7482.025
954.13371	7403.925
957.89203	7294.725
961.64774	7233.725
965.40086	7164.225
969.15137	7129.025
972.89929	7092.525
976.64461	7072.425
980.38733	7050.425
984.12747	7086.125
987.86502	7106.025
991.59999	7188.325
995.33237	7285.625
999.06217	7471.725
1002.78939	7705.725
1006.51404	7878.025
1010.23611	8030.525
1013.95561	8144.525
1017.67255	8136.725
1021.38692	7981.325
1025.09872	7695.825
1028.80796	7511.325
1032.51465	7470.725
1036.21877	7484.725
1039.92035	7545.425
1043.61937	7609.425
1047.31584	7679.025
1051.00976	7711.625
1054.70114	7792.125
1058.38998	7870.425
1062.07627	7861.425
1065.76003	7947.825
1069.44126	8063.225
1073.11995	8245.725
1076.79611	8436.425
1080.46974	8535.325
1084.14085	8561.525
1087.80943	8572.225
1091.47549	8510.125
1095.13903	8254.525
1098.80005	7888.125
1102.45857	7585.225
1106.11456	7480.325
1109.76805	7492.825
1113.41903	7643.425
1117.06751	7832.225
1120.71348	8084.025
1124.35696	8353.725
1127.99793	8610.725
1131.63641	8659.925
1135.2724	8367.825
1138.90589	7991.825
1142.5369	7761.025
1146.16542	7642.525
1149.79145	7582.725
1153.415	7516.825
1157.03607	7558.725
1160.65467	7692.325
1164.27079	8027.825
1167.88443	8620.525
1171.49561	9604.425
1175.10432	11044.325
1178.71056	12972.625
1182.31434	14591.625
1185.91565	14889.025
1189.51451	14066.225
1193.11091	12805.125
1196.70485	11660.725
1200.29634	10728.425
1203.88538	9954.925
1207.47197	9197.425
1211.05612	8616.725
1214.63782	8355.525
1218.21708	8402.525
1221.79391	8646.425
1225.36829	8937.725
1228.94024	8992.825
1232.50976	8722.125
1236.07685	8321.525
1239.6415	8067.625
1243.20374	7928.425
1246.76355	7888.225
1250.32093	7930.925
1253.8759	8105.625
1257.42845	8341.225
1260.97859	8639.225
1264.52631	9001.325
1268.07163	9344.325
1271.61453	9617.825
1275.15503	9874.925
1278.69312	10099.525
1282.22882	10321.225
1285.76211	10792.325
1289.29301	11438.325
1292.82151	12094.025
1296.34761	12841.425
1299.87133	13694.925
1303.39266	14864.525
1306.9116	16531.125
1310.42815	18548.425
1313.94233	20054.525
1317.45412	20020.525
1320.96354	18482.325
1324.47058	16421.325
1327.97525	14609.725
1331.47754	13318.225
1334.97747	12700.425
1338.47502	12439.125
1341.97022	12392.725
1345.46305	12624.925
1348.95352	13451.625
1352.44163	14991.825
1355.92738	17246.925
1359.41078	20231.525
1362.89183	23080.325
1366.37053	23488.125
1369.84688	20352.225
1373.32088	16080.825
1376.79254	13183.125
1380.26186	11935.725
1383.72883	11482.525
1387.19347	11131.125
1390.65578	10655.825
1394.11575	10365.925
1397.57339	10372.325
1401.0287	10526.525
1404.48168	10585.925
1407.93234	10557.625
1411.38068	10415.725
1414.82669	10229.825
1418.27039	9971.625
1421.71177	9726.225
1425.15083	9397.125
1428.58758	9222.125
1432.02203	9361.825
1435.45416	9645.625
1438.88399	9876.325
1442.31151	9998.825
1445.73673	10023.325
1449.15965	10016.225
1452.58027	9879.725
1455.9986	9595.025
1459.41463	9371.125
1462.82837	9380.725
1466.23982	9661.925
1469.64898	10016.825
1473.05586	10265.025
1476.46045	10439.025
1479.86276	10581.225
1483.26279	10693.625
1486.66054	10793.825
1490.05602	10975.925
1493.44922	11270.625
1496.84016	11657.425
1500.22882	12438.425
1503.61521	13679.325
1506.99934	15295.725
1510.38121	16935.025
1513.76081	17684.725
1517.13816	16908.025
1520.51324	14925.925
1523.88607	12951.425
1527.25665	11713.725
1530.62498	11164.425
1533.99105	10842.325
1537.35488	10536.625
1540.71647	10232.825
1544.07581	9928.325
1547.4329	9635.625
1550.78776	9432.525
1554.14038	9245.625
1557.49077	9172.625
1560.83892	9282.025
1564.18484	9510.225
1567.52853	9903.425
1570.86999	10379.725
1574.20922	10929.625
1577.54624	11260.825
1580.88103	11007.425
1584.2136	10349.025
1587.54395	9793.325
1590.87208	9755.725
1594.19801	10362.825
1597.52172	11468.925
1600.84321	12297.425
1604.16251	12054.725
1607.47959	10932.725
1610.79447	9524.025
1614.10715	8342.525
1617.41763	7496.225
1620.7259	7067.925
1624.03199	6841.325
1627.33587	6859.625
1630.63757	7069.525
1633.93707	7555.325
1637.23439	8486.025
1640.52951	9992.825
1643.82246	12165.925
1647.11321	14363.125
1650.40179	15373.625
1653.68819	14357.125
1656.97241	11848.525
1660.25446	9322.025
1663.53433	7593.925
1666.81203	6634.325
1670.08756	6063.025
1673.36092	5746.025
1676.63211	5522.025
1679.90115	5381.625
1683.16801	5280.725
1686.43272	5190.625
1689.69527	5146.125
1692.95567	5097.425
1696.2139	5038.125
1699.46999	5008.325
1702.72392	4993.525
1705.97571	5004.025
1709.22535	4994.825
1712.47284	4986.125
1715.71819	4964.925
1718.96139	4956.725
1722.20246	4932.825
1725.44139	4895.025
1728.67818	4838.025
1731.91284	4806.825
1735.14537	4751.725
1738.37576	4726.325
1741.60403	4693.925
1744.83017	4674.525
1748.05418	4654.625
1751.27607	4630.625
1754.49584	4603.725
1757.71349	4593.225
1760.92903	4559.725
1764.14244	4554.225
1767.35375	4542.225
1770.56294	4523.925
1773.77002	4501.225
1776.97499	4499.525
1780.17785	4489.125
1783.37861	4467.825
1786.57727	4456.425
1789.77382	4450.325
1792.96828	4440.125
1796.16064	4413.225
1799.3509	4400.925
1802.53907	4392.425
1805.72514	4375.425
1808.90913	4361.925
1812.09102	4345.925
1815.27083	4331.225
1818.44856	4307.425
1821.6242	4285.125
1824.79776	4304.925
1827.96924	4288.225
1831.13864	4267.525
1834.30597	4267.225
1837.47122	4261.525
1840.6344	4239.825
1843.7955	4239.625
1846.95454	4251.725
1850.11151	4243.125
1853.26642	4229.425
1856.41926	4216.725
1859.57004	4215.625
1862.71876	4204.925
1865.86542	4216.425
1869.01003	4188.825
1872.15258	4180.425
1875.29308	4186.025
1878.43152	4183.125
1881.56792	4187.725
1884.70227	4180.825
1887.83457	4166.325
1890.96482	4181.525
1894.09304	4179.425
1897.21921	4165.225
1900.34335	4164.925
1903.46544	4144.525
1906.58551	4150.425
1909.70353	4140.025
1912.81953	4147.525
1915.93349	4134.825
1919.04543	4118.925
1922.15534	4103.325
1925.26322	4077.325
1928.36908	4060.025
1931.47292	4039.625
1934.57473	4020.825
1937.67453	4016.425
1940.77232	3987.925
1943.86808	3963.125
1946.96184	3953.025
1950.05358	3942.425
1953.14331	3921.425
1956.23103	3908.525
1959.31675	3902.925
1962.40046	3891.225
1965.48217	3885.425
1968.56188	3872.625
1971.63959	3859.125
1974.7153	3841.425
1977.78901	3825.325
1980.86073	3819.525
1983.93046	3800.225
1986.99819	3787.725
1990.06394	3766.725
1993.1277	3759.325
1996.18947	3732.225
1999.24925	3714.825
2002.30706	3713.025
2005.36288	3688.825
2008.41672	3689.925
2011.46859	3664.525
2014.51848	3665.225
2017.56639	3654.925
2020.61233	3634.225
2023.6563	3617.125
2026.6983	3596.325
2029.73833	3590.525
2032.7764	3588.625
2035.8125	3583.325
2038.84664	3558.925
2041.87881	3567.425
2044.90903	3551.225
2047.93729	3552.525
2050.96359	3533.825
2053.98794	3532.825
2057.01034	3524.725
2060.03078	3518.325
2063.04927	3509.925
2066.06582	3497.825
2069.08042	3495.525
2072.09307	3498.825
2075.10378	3487.025
2078.11255	3476.725
2081.11938	3481.025
2084.12426	3485.025
2087.12722	3473.725
2090.12824	3465.225
2093.12732	3470.425
2096.12447	3456.925
2099.11969	3450.425
2102.11299	3462.225
2105.10435	3467.525
2108.09379	3484.325
2111.08131	3458.725
2114.0669	3469.925
2117.05057	3469.625
2120.03233	3448.825
2123.01216	3457.025
2125.99008	3464.025
2128.96609	3462.425
2131.94018	3462.625
2134.91236	3463.525
2137.88263	3455.225
2140.851	3456.325
2143.81746	3460.625
2146.78201	3448.725
2149.74466	3455.925
2152.7054	3431.025
2155.66425	3432.425
2158.6212	3425.925
2161.57625	3425.825
2164.52941	3418.925
2167.48067	3421.925
2170.43004	3414.125
2173.37752	3407.825
2176.32311	3412.825
2179.26681	3404.225
2182.20863	3402.025
2185.14856	3419.525
2188.08661	3409.725
2191.02278	3403.225
2193.95707	3394.325
2196.88948	3390.725
2199.82001	3398.925
2202.74867	3393.325
2205.67545	3380.925
2208.60037	3373.725
2211.52341	3369.725
2214.44458	3354.325
2217.36388	3349.325
2220.28132	3335.525
2223.1969	3312.325
2226.11061	3308.725
2229.02246	3310.525
2231.93245	3298.025
2234.84058	3302.925
2237.74686	3285.725
2240.65128	3300.725
2243.55385	3279.625
2246.45456	3280.325
2249.35343	3261.025
2252.25044	3264.925
2255.14561	3258.125
2258.03893	3250.225
2260.93041	3250.025
2263.82004	3229.625
2266.70783	3219.225
2269.59378	3221.225
2272.4779	3205.525
2275.36017	3205.225
2278.24061	3198.425
2281.11922	3178.725
2283.996	3165.925
2286.87094	3161.025
2289.74405	3157.325
2292.61534	3139.225
2295.4848	3116.325
2298.35243	3133.125
2301.21824	3110.725
2304.08223	3122.825
2306.94439	3113.525
2309.80474	3116.925
2312.66327	3114.825
2315.51999	3114.925
2318.37489	3108.525
2321.22797	3105.625
2324.07925	3099.425
2326.92871	3091.625
2329.77637	3090.925
2332.62222	3093.325
2335.46626	3069.025
2338.3085	3080.125
2341.14893	3071.825
2343.98756	3069.625
2346.8244	3073.125
2349.65943	3069.025
2352.49267	3061.225
2355.32411	3063.525
2358.15376	3068.425
2360.98161	3087.825
2363.80768	3087.525
2366.63195	3090.725
2369.45444	3073.025
2372.27514	3086.925
2375.09405	3079.925
2377.91118	3065.325
2380.72652	3044.125
2383.54009	3038.825
2386.35187	3020.625
2389.16188	3004.825
2391.97011	3000.725
2394.77657	2996.125
2397.58125	2975.425
2400.38416	2966.425
2403.18529	2964.725
2405.98466	2954.325
2408.78226	2954.825
2411.57809	2940.225
2414.37216	2928.025
2417.16446	2935.025
2419.955	2921.025
2422.74378	2913.625
2425.5308	2911.925
2428.31606	2907.425
2431.09956	2923.925
2433.88131	2898.025
2436.6613	2898.625
2439.43954	2895.025
2442.21603	2903.525
2444.99077	2888.725
2447.76377	2897.325
2450.53501	2896.025
2453.30451	2905.825
2456.07226	2893.925
2458.83827	2883.625
2461.60254	2891.125
2464.36507	2889.125
2467.12586	2878.625
2469.88492	2871.725
2472.64224	2884.725
2475.39782	2879.825
2478.15167	2894.525
2480.90379	2887.425
2483.65417	2900.825
2486.40283	2895.625
2489.14976	2903.325
2491.89497	2901.025
2494.63845	2903.225
2497.3802	2886.725
2500.12024	2902.525
2502.85855	2907.225
2505.59514	2885.225
2508.33002	2856.325
2511.06318	2844.125
2513.79462	2834.225
2516.52435	2827.425
2519.25237	2806.425
2521.97867	2792.425
2524.70327	2781.525
2527.42616	2791.825
2530.14734	2783.825
2532.86681	2776.925
2535.58458	2778.625
2538.30065	2769.125
2541.01501	2778.725
2543.72768	2777.725
2546.43864	2776.625
2549.14791	2775.425
2551.85548	2773.025
2554.56136	2762.025
2557.26554	2761.825
2559.96803	2748.025
2562.66883	2766.425
2565.36794	2750.925
2568.06536	2744.625
2570.7611	2740.325
2573.45514	2735.625
2576.14751	2736.625
2578.83819	2734.625
2581.52719	2725.625
2584.21451	2722.125
2586.90015	2721.225
2589.58411	2709.225
2592.2664	2720.525
2594.94701	2693.125
2597.62594	2705.525
2600.30321	2690.825
2602.9788	2686.325
2605.65273	2687.425
2608.32498	2685.525
2610.99557	2682.325
2613.66449	2680.425
2616.33175	2675.125
2618.99734	2667.925
2621.66128	2684.125
2624.32355	2682.125
2626.98416	2670.225
2629.64311	2675.325
2632.30041	2665.925
2634.95605	2669.625
2637.61004	2656.525
2640.26238	2646.125
2642.91306	2656.425
2645.56209	2639.925
2648.20948	2641.025
2650.85521	2644.325
2653.4993	2644.125
2656.14175	2653.425
2658.78255	2650.125
2661.42171	2645.925
2664.05923	2671.325
2666.6951	2660.125
2669.32934	2672.625
2671.96194	2658.025
2674.59291	2655.625
2677.22224	2656.125
2679.84993	2663.125
2682.476	2665.325
2685.10043	2661.225
2687.72324	2645.725
2690.34441	2651.025
2692.96396	2641.025
2695.58188	2655.225
2698.19818	2648.125
2700.81285	2662.725
2703.4259	2646.825
2706.03733	2645.325
2708.64714	2658.225
2711.25533	2652.825
2713.86191	2660.325
2716.46687	2692.025
2719.07021	2694.725
2721.67194	2683.925
2724.27206	2695.425
2726.87057	2702.525
2729.46747	2705.325
2732.06276	2707.025
2734.65644	2700.025
2737.24852	2726.025
2739.83899	2707.825
2742.42786	2732.025
2745.01513	2718.025
2747.60079	2726.325
2750.18486	2724.125
2752.76733	2735.925
2755.3482	2738.525
2757.92747	2746.225
2760.50515	2749.225
2763.08123	2746.625
2765.65573	2730.725
2768.22863	2743.425
2770.79994	2739.325
2773.36967	2735.825
2775.9378	2742.125
2778.50435	2748.625
2781.06932	2745.125
2783.6327	2757.925
2786.1945	2761.625
2788.75471	2751.625
2791.31335	2749.725
2793.87041	2768.325
2796.42589	2761.825
2798.97979	2771.025
2801.53212	2767.325
2804.08288	2771.325
2806.63206	2775.325
2809.17967	2772.425
2811.72571	2767.225
2814.27018	2763.825
2816.81308	2765.225
2819.35442	2763.825
2821.89419	2760.525
2824.43239	2783.025
2826.96904	2791.125
2829.50412	2780.825
2832.03763	2783.725
2834.56959	2794.925
2837.1	2800.425
2839.62884	2821.025
2842.15613	2846.925
2844.68186	2867.525
2847.20604	2905.125
2849.72867	2939.125
2852.24974	2970.125
2854.76927	2986.025
2857.28724	3010.425
2859.80367	3032.625
2862.31855	3040.225
2864.83189	3077.925
2867.34368	3085.725
2869.85393	3092.925
2872.36264	3123.025
2874.8698	3139.025
2877.37543	3167.625
2879.87952	3178.525
2882.38207	3200.625
2884.88308	3204.525
2887.38256	3229.125
2889.88051	3217.525
2892.37692	3232.725
2894.8718	3241.125
2897.36515	3233.325
2899.85698	3245.825
2902.34727	3251.525
2904.83604	3246.725
2907.32328	3234.525
2909.809	3235.425
2912.29319	3244.125
2914.77587	3230.125
2917.25702	3222.625
2919.73665	3234.825
2922.21476	3234.125
2924.69136	3210.125
2927.16644	3212.325
2929.64	3193.125
2932.11205	3164.925
2934.58258	3129.825
2937.05161	3125.625
2939.51912	3110.525
2941.98513	3071.725
2944.44962	3023.825
2946.91261	2976.325
2949.37409	2947.825
2951.83407	2918.825
2954.29254	2883.925
2956.74951	2847.825
2959.20498	2818.025
2961.65895	2790.825
2964.11142	2771.425
2966.56239	2731.325
2969.01186	2704.025
2971.45984	2672.225
2973.90632	2657.125
2976.35131	2616.025
2978.7948	2600.925
2981.23681	2569.225
2983.67732	2554.925
2986.11635	2535.425
2988.55388	2512.425
2990.98993	2489.425
2993.4245	2481.025
2995.85758	2471.425
2998.28917	2457.025
3000.71928	2455.225
3003.14791	2438.725
3005.57506	2439.125
3008.00073	2428.725
3010.42493	2420.925
3012.84764	2420.225
3015.26888	2417.525
3017.68865	2410.525
3020.10694	2398.225
3022.52376	2388.225
3024.9391	2381.025
3027.35298	2383.825
3029.76539	2374.225
3032.17632	2366.725
3034.5858	2362.625
3036.9938	2362.025
3039.40034	2349.025
3041.80542	2367.825
3044.20903	2344.925
3046.61118	2355.525
3049.01187	2344.725
3051.4111	2350.325
3053.80888	2342.225
3056.20519	2341.525
3058.60005	2339.825
3060.99345	2339.725
3063.3854	2334.125
3065.7759	2328.025
3068.16494	2341.225
3070.55254	2328.025
3072.93868	2330.025
3075.32338	2322.525
3077.70662	2309.625
3080.08842	2307.325
3082.46878	2318.025
3084.84769	2317.725
3087.22515	2321.825
3089.60118	2334.025
3091.97576	2338.725
3094.3489	2334.825
3096.72061	2312.225
3099.09087	2316.725
3101.4597	2326.625
3103.82709	2324.925
3106.19305	2320.525
3108.55757	2326.525
3110.92066	2336.725
3113.28232	2327.425
3115.64255	2323.825
3118.00134	2327.925
3120.35871	2329.125
3122.71466	2335.625
3125.06917	2325.525
3127.42226	2328.425
3129.77393	2352.125
3132.12417	2345.125
3134.47299	2355.725
3136.82039	2360.925
3139.16636	2371.325
3141.51092	2378.625
3143.85406	2377.925
3146.19579	2373.425
3148.53609	2391.725
3150.87499	2391.425
3153.21246	2401.225
3155.54853	2423.525
3157.88318	2407.025
3160.21642	2420.725
3162.54826	2435.325
3164.87868	2423.225
3167.2077	2427.925
3169.5353	2427.125
3171.86151	2449.625
3174.18631	2440.625
3176.5097	2454.925
3178.83169	2444.625
3181.15228	2453.825
3183.47147	2455.325
3185.78926	2456.425
3188.10565	2460.925
3190.42065	2464.225
3192.73424	2475.525
3195.04645	2463.025
3197.35725	2463.625
3199.66667	2490.925
3201.97469	2501.925
3204.28132	2489.425
3206.58656	2497.125
3208.8904	2503.425
3211.19287	2494.525
3213.49394	2508.525
3215.79363	2513.525
3218.09193	2522.625
3220.38884	2522.825
