Data from AgNP_FTO_APTES_CRN_1uM_R6G_10uM_NaF_0.1M_Addition_RamanShift__26__14-15-50-812.txt Node

Date: Wed Dec 15 14:15:50 GMT 2021
User: TCL
Spectrometer: QEP01345
Trigger mode: 4
Integration Time (sec): 7.000000E0
Scans to average: 10
Electric dark correction enabled: true
Nonlinearity correction enabled: false
Boxcar width: 0
XAxis mode: Raman Shifts
Number of Pixels in Spectrum: 1044
>>>>>Begin Spectral Data<<<<<
46.04893	-0.05
50.45542	-2.55
54.85868	-2.15
59.25871	-0.55
63.6555	152.45
68.04907	160.35
72.43941	169.95
76.82654	178.75
81.21044	184.65
85.59113	189.35
89.96862	200.05
94.34289	203.55
98.71396	209.95
103.08183	219.15
107.4465	226.55
111.80798	227.45
116.16626	235.45
120.52136	245.35
124.87327	247.85
129.222	260.05
133.56755	271.15
137.90993	294.05
142.24913	316.05
146.58517	350.45
150.91804	401.95
155.24774	472.05
159.57429	580.95
163.89768	740.25
168.21792	958.25
172.53501	1312.65
176.84895	1803.05
181.15975	2532.05
185.46741	3527.35
189.77193	4847.05
194.07331	6477.75
198.37157	8302.75
202.6667	10235.75
206.9587	12143.85
211.24758	14051.05
215.53334	15983.15
219.81599	18051.55
224.09553	20361.25
228.37195	22899.55
232.64527	25725.95
236.91549	28657.95
241.18261	31466.85
245.44663	34071.65
249.70755	36306.95
253.96539	38208.15
258.22014	39921.55
262.4718	41419.25
266.72039	42528.05
270.96589	43163.25
275.20832	43204.45
279.44768	43010.95
283.68397	42644.05
287.91719	42239.15
292.14735	42103.35
296.37445	42287.85
300.59849	42689.95
304.81948	43245.75
309.03742	43582.35
313.25231	43359.65
317.46415	42203.85
321.67296	40550.15
325.87872	39146.55
330.08145	38519.75
334.28114	38486.15
338.47781	38941.55
342.67145	39600.05
346.86207	40430.55
351.04966	41690.85
355.23424	43085.85
359.4158	44238.95
363.59435	44950.15
367.76989	45335.55
371.94243	45469.05
376.11196	45559.05
380.27849	45563.95
384.44203	45618.15
388.60257	45679.25
392.76012	45914.85
396.91468	46577.15
401.06626	47522.85
405.21485	48218.95
409.36047	48056.35
413.50311	47076.25
417.64277	46116.25
421.77947	45730.25
425.9132	45840.95
430.04396	46012.65
434.17176	46332.65
438.2966	46789.95
442.41849	47631.55
446.53742	48857.25
450.6534	50375.15
454.76644	51569.25
458.87653	52061.95
462.98368	51804.15
467.08789	51119.15
471.18916	49978.95
475.2875	48852.85
479.38291	48040.05
483.4754	47430.05
487.56496	46895.35
491.6516	46321.35
495.73531	45922.35
499.81612	45788.25
503.89401	46142.75
507.96899	46397.35
512.04106	46516.95
516.11023	46656.75
520.1765	46674.95
524.23987	46485.85
528.30034	46048.05
532.35792	45431.55
536.41261	44685.35
540.46441	44004.85
544.51333	43854.85
548.55936	44283.35
552.60252	45121.15
556.64279	45931.25
560.6802	46453.65
564.71473	46829.85
568.7464	47684.95
572.7752	48687.95
576.80114	49194.95
580.82422	49521.95
584.84444	49999.05
588.86181	50622.25
592.87633	51517.75
596.888	52395.35
600.89682	53524.85
604.9028	56693.45
608.90594	64030.65
612.90624	71489.15
616.90371	67119.15
620.89834	54108.95
624.89015	48351.35
628.87913	47554.05
632.86528	47456.55
636.84862	47038.15
640.82913	46000.85
644.80683	44454.85
648.78172	43413.85
652.75379	43386.25
656.72306	44251.95
660.68952	45466.85
664.65319	45278.85
668.61405	44184.45
672.57211	43724.95
676.52738	43684.65
680.47986	43646.75
684.42955	43379.95
688.37646	43347.95
692.32058	43553.05
696.26192	44047.65
700.20048	44580.65
704.13626	44901.65
708.06928	44721.65
711.99952	44371.05
715.927	44187.65
719.85171	44324.85
723.77365	44104.45
727.69284	43526.85
731.60928	43115.05
735.52295	42976.35
739.43388	43136.95
743.34206	43330.05
747.24749	43655.35
751.15017	44101.35
755.05012	44972.05
758.94733	46526.05
762.8418	49515.35
766.73354	54266.85
770.62254	58945.65
774.50882	60185.95
778.39237	56990.85
782.27321	51851.55
786.15132	47552.85
790.02671	45147.35
793.89938	43997.25
797.76935	43624.75
801.6366	43488.95
805.50115	43267.35
809.36299	42957.15
813.22213	42731.35
817.07857	42612.55
820.93231	42626.15
824.78336	42654.55
828.63172	42652.75
832.47738	42754.55
836.32036	42895.35
840.16066	43181.85
843.99827	43381.05
847.8332	43251.25
851.66546	42997.95
855.49504	42763.05
859.32195	42664.15
863.1462	42368.75
866.96777	42084.65
870.78668	41882.45
874.60293	41873.95
878.41652	41876.45
882.22745	42061.75
886.03573	42215.75
889.84136	42120.65
893.64433	41916.15
897.44466	41708.65
901.24235	41615.95
905.0374	41616.25
908.8298	41559.55
912.61957	41657.45
916.40671	42115.35
920.19121	42833.45
923.97308	43608.45
927.75233	44124.65
931.52895	44017.25
935.30295	43412.65
939.07433	42404.25
942.84309	41700.15
946.60924	41447.55
950.37278	41326.05
954.13371	40979.25
957.89203	40607.45
961.64774	40424.15
965.40086	40289.15
969.15137	40132.55
972.89929	40019.85
976.64461	40030.45
980.38733	40170.15
984.12747	40401.75
987.86502	40955.85
991.59999	41699.15
995.33237	42788.75
999.06217	44673.25
1002.78939	46776.05
1006.51404	48091.05
1010.23611	48727.15
1013.95561	49048.55
1017.67255	48827.35
1021.38692	48108.85
1025.09872	47822.85
1028.80796	48980.65
1032.51465	51468.65
1036.21877	53595.35
1039.92035	53851.35
1043.61937	52627.65
1047.31584	50405.65
1051.00976	47959.55
1054.70114	46571.75
1058.38998	46149.05
1062.07627	46207.45
1065.76003	46556.15
1069.44126	47135.75
1073.11995	48156.95
1076.79611	49138.65
1080.46974	49571.65
1084.14085	49788.55
1087.80943	49951.65
1091.47549	49754.45
1095.13903	49043.95
1098.80005	47991.85
1102.45857	46834.05
1106.11456	46209.25
1109.76805	46176.35
1113.41903	46570.55
1117.06751	47150.35
1120.71348	47774.65
1124.35696	48392.05
1127.99793	49128.85
1131.63641	49397.15
1135.2724	48777.45
1138.90589	48154.65
1142.5369	47620.15
1146.16542	47273.15
1149.79145	47209.75
1153.415	47496.05
1157.03607	48044.85
1160.65467	49159.55
1164.27079	51034.55
1167.88443	53757.85
1171.49561	57588.05
1175.10432	62926.65
1178.71056	69635.85
1182.31434	75786.35
1185.91565	78754.25
1189.51451	78180.35
1193.11091	74743.35
1196.70485	70147.75
1200.29634	66228.35
1203.88538	63367.65
1207.47197	61130.45
1211.05612	59299.05
1214.63782	58282.75
1218.21708	58089.55
1221.79391	58358.55
1225.36829	58583.95
1228.94024	58154.35
1232.50976	57329.25
1236.07685	56595.35
1239.6415	56244.25
1243.20374	56219.05
1246.76355	56581.75
1250.32093	57622.15
1253.8759	59103.65
1257.42845	61117.05
1260.97859	62939.25
1264.52631	64413.95
1268.07163	66131.35
1271.61453	68185.75
1275.15503	70476.05
1278.69312	72744.25
1282.22882	74659.55
1285.76211	76261.85
1289.29301	77926.35
1292.82151	79834.25
1296.34761	82568.25
1299.87133	86756.55
1303.39266	92452.85
1306.9116	99433.65
1310.42815	106727.95
1313.94233	111428.35
1317.45412	111339.95
1320.96354	107919.45
1324.47058	103619.55
1327.97525	99706.25
1331.47754	97090.55
1334.97747	96147.95
1338.47502	96335.75
1341.97022	96565.65
1345.46305	96078.35
1348.95352	95367.65
1352.44163	95661.75
1355.92738	98736.15
1359.41078	105530.65
1362.89183	112389.85
1366.37053	110827.85
1369.84688	100148.35
1373.32088	87960.25
1376.79254	79522.85
1380.26186	75597.95
1383.72883	74156.95
1387.19347	73108.25
1390.65578	71742.25
1394.11575	71026.55
1397.57339	71462.55
1401.0287	72683.95
1404.48168	74175.75
1407.93234	75496.65
1411.38068	76096.25
1414.82669	75362.65
1418.27039	73170.75
1421.71177	70336.95
1425.15083	67745.05
1428.58758	66202.65
1432.02203	66052.25
1435.45416	66970.95
1438.88399	68228.55
1442.31151	69241.75
1445.73673	70191.45
1449.15965	70890.05
1452.58027	71234.25
1455.9986	71021.55
1459.41463	71101.65
1462.82837	71886.35
1466.23982	73327.85
1469.64898	74886.15
1473.05586	76044.35
1476.46045	76738.65
1479.86276	77143.25
1483.26279	77268.15
1486.66054	77598.65
1490.05602	78374.65
1493.44922	79346.25
1496.84016	80291.15
1500.22882	81977.45
1503.61521	84774.45
1506.99934	88658.25
1510.38121	92754.25
1513.76081	94969.65
1517.13816	93090.85
1520.51324	88096.15
1523.88607	82793.95
1527.25665	78952.55
1530.62498	76718.55
1533.99105	75471.15
1537.35488	74643.35
1540.71647	73806.85
1544.07581	72967.05
1547.4329	71944.25
1550.78776	70884.75
1554.14038	70126.45
1557.49077	69950.55
1560.83892	69954.85
1564.18484	70123.85
1567.52853	70284.35
1570.86999	70743.35
1574.20922	71765.75
1577.54624	72932.35
1580.88103	73132.65
1584.2136	73200.25
1587.54395	74358.85
1590.87208	77266.55
1594.19801	82214.05
1597.52172	87641.95
1600.84321	89414.45
1604.16251	85686.35
1607.47959	78784.25
1610.79447	71497.15
1614.10715	65007.15
1617.41763	59983.55
1620.7259	56761.05
1624.03199	55233.65
1627.33587	55429.45
1630.63757	57159.35
1633.93707	60657.55
1637.23439	65592.95
1640.52951	72005.45
1643.82246	78972.55
1647.11321	84430.05
1650.40179	85699.35
1653.68819	80887.45
1656.97241	71096.05
1660.25446	60983.65
1663.53433	53490.45
1666.81203	48810.55
1670.08756	45924.75
1673.36092	44045.35
1676.63211	42806.25
1679.90115	41973.65
1683.16801	41328.75
1686.43272	40803.85
1689.69527	40524.45
1692.95567	40302.85
1696.2139	40104.35
1699.46999	39989.25
1702.72392	39872.35
1705.97571	39796.55
1709.22535	39744.55
1712.47284	39716.15
1715.71819	39689.15
1718.96139	39590.85
1722.20246	39500.15
1725.44139	39318.75
1728.67818	39134.25
1731.91284	38881.45
1735.14537	38651.05
1738.37576	38453.85
1741.60403	38368.95
1744.83017	38254.95
1748.05418	38150.05
1751.27607	38059.85
1754.49584	38017.95
1757.71349	37980.55
1760.92903	37918.25
1764.14244	37931.85
1767.35375	37907.05
1770.56294	37889.15
1773.77002	37880.75
1776.97499	37798.45
1780.17785	37692.75
1783.37861	37747.55
1786.57727	37703.55
1789.77382	37590.15
1792.96828	37565.85
1796.16064	37533.15
1799.3509	37508.95
1802.53907	37428.95
1805.72514	37313.35
1808.90913	37227.55
1812.09102	37148.15
1815.27083	37125.05
1818.44856	37081.25
1821.6242	37014.95
1824.79776	36982.65
1827.96924	36986.25
1831.13864	36894.55
1834.30597	36957.05
1837.47122	36966.95
1840.6344	36943.75
1843.7955	36910.55
1846.95454	36939.05
1850.11151	36966.45
1853.26642	36935.65
1856.41926	36964.15
1859.57004	36947.75
1862.71876	36947.15
1865.86542	36980.05
1869.01003	37000.75
1872.15258	37036.75
1875.29308	37016.15
1878.43152	36990.35
1881.56792	37007.75
1884.70227	36975.85
1887.83457	37053.35
1890.96482	37072.95
1894.09304	37048.45
1897.21921	36996.95
1900.34335	37005.95
1903.46544	36980.75
1906.58551	37038.25
1909.70353	36984.25
1912.81953	36976.55
1915.93349	36858.35
1919.04543	36918.65
1922.15534	36906.75
1925.26322	36777.65
1928.36908	36710.75
1931.47292	36596.25
1934.57473	36516.85
1937.67453	36395.75
1940.77232	36221.45
1943.86808	36094.25
1946.96184	35942.25
1950.05358	35772.05
1953.14331	35680.65
1956.23103	35578.35
1959.31675	35523.85
1962.40046	35449.65
1965.48217	35309.75
1968.56188	35202.85
1971.63959	35070.35
1974.7153	35004.25
1977.78901	34882.25
1980.86073	34754.25
1983.93046	34704.45
1986.99819	34553.05
1990.06394	34453.75
1993.1277	34370.85
1996.18947	34231.85
1999.24925	34149.55
2002.30706	34024.35
2005.36288	34021.15
2008.41672	33916.35
2011.46859	33771.45
2014.51848	33718.55
2017.56639	33676.95
2020.61233	33524.95
2023.6563	33460.35
2026.6983	33443.45
2029.73833	33414.75
2032.7764	33362.05
2035.8125	33361.45
2038.84664	33342.15
2041.87881	33318.65
2044.90903	33227.35
2047.93729	33178.75
2050.96359	33136.45
2053.98794	33078.55
2057.01034	33028.05
2060.03078	33021.05
2063.04927	32976.05
2066.06582	32999.95
2069.08042	32937.65
2072.09307	32905.25
2075.10378	32817.95
2078.11255	32784.55
2081.11938	32807.65
2084.12426	32726.45
2087.12722	32688.15
2090.12824	32721.15
2093.12732	32683.25
2096.12447	32709.45
2099.11969	32663.15
2102.11299	32719.45
2105.10435	32738.75
2108.09379	32704.95
2111.08131	32759.85
2114.0669	32773.35
2117.05057	32789.35
2120.03233	32837.85
2123.01216	32858.35
2125.99008	32869.05
2128.96609	32879.35
2131.94018	32919.15
2134.91236	32907.85
2137.88263	32931.75
2140.851	32953.25
2143.81746	32996.45
2146.78201	32987.15
2149.74466	33012.75
2152.7054	33017.45
2155.66425	33067.85
2158.6212	33054.75
2161.57625	33049.45
2164.52941	33033.45
2167.48067	33012.65
2170.43004	32974.35
2173.37752	32980.25
2176.32311	32984.95
2179.26681	32994.95
2182.20863	32967.65
2185.14856	33034.85
2188.08661	33058.75
2191.02278	33035.85
2193.95707	33024.35
2196.88948	33063.35
2199.82001	33082.35
2202.74867	33023.15
2205.67545	33019.45
2208.60037	33003.25
2211.52341	33067.05
2214.44458	33012.65
2217.36388	32941.75
2220.28132	32983.05
2223.1969	32942.95
2226.11061	32909.85
2229.02246	32777.75
2231.93245	32762.65
2234.84058	32629.65
2237.74686	32597.15
2240.65128	32581.25
2243.55385	32522.35
2246.45456	32444.75
2249.35343	32427.75
2252.25044	32374.65
2255.14561	32320.55
2258.03893	32340.25
2260.93041	32296.55
2263.82004	32186.05
2266.70783	32141.35
2269.59378	32032.15
2272.4779	31976.15
2275.36017	31875.55
2278.24061	31786.05
2281.11922	31772.15
2283.996	31775.45
2286.87094	31701.45
2289.74405	31633.35
2292.61534	31675.85
2295.4848	31641.25
2298.35243	31697.95
2301.21824	31729.65
2304.08223	31726.65
2306.94439	31761.35
2309.80474	31786.45
2312.66327	31818.55
2315.51999	31852.45
2318.37489	31872.25
2321.22797	31882.05
2324.07925	31912.55
2326.92871	31859.85
2329.77637	31900.25
2332.62222	31894.75
2335.46626	31838.65
2338.3085	31886.95
2341.14893	31973.95
2343.98756	32019.95
2346.8244	32017.55
2349.65943	32008.15
2352.49267	32013.05
2355.32411	31966.05
2358.15376	31952.45
2360.98161	31915.55
2363.80768	31869.25
2366.63195	31791.55
2369.45444	31731.85
2372.27514	31639.95
2375.09405	31583.45
2377.91118	31523.25
2380.72652	31388.55
2383.54009	31296.55
2386.35187	31239.45
2389.16188	31174.45
2391.97011	31151.35
2394.77657	31120.35
2397.58125	31105.45
2400.38416	31058.45
2403.18529	31003.05
2405.98466	30965.65
2408.78226	30828.15
2411.57809	30771.65
2414.37216	30687.05
2417.16446	30673.25
2419.955	30591.65
2422.74378	30571.15
2425.5308	30525.45
2428.31606	30551.05
2431.09956	30532.15
2433.88131	30468.95
2436.6613	30470.25
2439.43954	30458.35
2442.21603	30463.95
2444.99077	30478.15
2447.76377	30424.55
2450.53501	30438.95
2453.30451	30439.15
2456.07226	30418.35
2458.83827	30402.15
2461.60254	30455.35
2464.36507	30408.85
2467.12586	30459.85
2469.88492	30427.85
2472.64224	30462.15
2475.39782	30469.65
2478.15167	30539.95
2480.90379	30562.95
2483.65417	30655.15
2486.40283	30613.75
2489.14976	30633.35
2491.89497	30639.75
2494.63845	30692.85
2497.3802	30677.45
2500.12024	30709.05
2502.85855	30710.25
2505.59514	30653.35
2508.33002	30615.05
2511.06318	30557.25
2513.79462	30489.45
2516.52435	30498.35
2519.25237	30513.65
2521.97867	30465.55
2524.70327	30415.55
2527.42616	30394.35
2530.14734	30392.15
2532.86681	30334.85
2535.58458	30360.85
2538.30065	30363.45
2541.01501	30372.25
2543.72768	30301.95
2546.43864	30324.15
2549.14791	30238.95
2551.85548	30255.45
2554.56136	30242.35
2557.26554	30227.65
2559.96803	30181.05
2562.66883	30178.35
2565.36794	30175.15
2568.06536	30148.85
2570.7611	30140.35
2573.45514	30165.45
2576.14751	30154.15
2578.83819	30153.35
2581.52719	30160.35
2584.21451	30132.75
2586.90015	30141.95
2589.58411	30112.65
2592.2664	30120.15
2594.94701	30080.95
2597.62594	30101.65
2600.30321	30078.15
2602.9788	30047.35
2605.65273	30046.45
2608.32498	30026.35
2610.99557	30085.55
2613.66449	30102.85
2616.33175	30103.55
2618.99734	30144.65
2621.66128	30183.15
2624.32355	30193.15
2626.98416	30199.65
2629.64311	30197.45
2632.30041	30181.65
2634.95605	30137.65
2637.61004	30141.85
2640.26238	30070.25
2642.91306	30052.75
2645.56209	30010.15
2648.20948	29955.95
2650.85521	29861.65
2653.4993	29891.45
2656.14175	29862.95
2658.78255	29857.35
2661.42171	29869.65
2664.05923	29909.45
2666.6951	29908.95
2669.32934	30005.55
2671.96194	29990.25
2674.59291	30051.35
2677.22224	30026.55
2679.84993	29999.25
2682.476	29972.45
2685.10043	29976.75
2687.72324	29915.65
2690.34441	29910.55
2692.96396	29907.95
2695.58188	29815.65
2698.19818	29791.05
2700.81285	29787.05
2703.4259	29783.55
2706.03733	29838.25
2708.64714	29824.25
2711.25533	29839.85
2713.86191	29812.15
2716.46687	29861.85
2719.07021	29838.45
2721.67194	29855.45
2724.27206	29806.65
2726.87057	29856.05
2729.46747	29868.55
2732.06276	29857.65
2734.65644	29801.45
2737.24852	29852.85
2739.83899	29831.45
2742.42786	29893.75
2745.01513	29900.95
2747.60079	29915.55
2750.18486	29865.75
2752.76733	29878.65
2755.3482	29787.65
2757.92747	29797.55
2760.50515	29719.75
2763.08123	29805.25
2765.65573	29753.75
2768.22863	29737.85
2770.79994	29687.65
2773.36967	29749.05
2775.9378	29736.05
2778.50435	29706.95
2781.06932	29692.75
2783.6327	29712.85
2786.1945	29720.75
2788.75471	29634.85
2791.31335	29675.75
2793.87041	29576.45
2796.42589	29483.95
2798.97979	29482.25
2801.53212	29414.15
2804.08288	29354.25
2806.63206	29306.95
2809.17967	29302.05
2811.72571	29254.45
2814.27018	29226.35
2816.81308	29212.65
2819.35442	29245.05
2821.89419	29217.15
2824.43239	29202.35
2826.96904	29174.75
2829.50412	29174.15
2832.03763	29094.05
2834.56959	29072.85
2837.1	29042.55
2839.62884	29027.95
2842.15613	28969.25
2844.68186	29014.35
2847.20604	28934.35
2849.72867	28942.55
2852.24974	28882.55
2854.76927	28886.55
2857.28724	28884.35
2859.80367	28860.95
2862.31855	28826.15
2864.83189	28806.25
2867.34368	28753.85
2869.85393	28777.75
2872.36264	28775.15
2874.8698	28776.25
2877.37543	28783.65
2879.87952	28776.95
2882.38207	28748.75
2884.88308	28773.25
2887.38256	28775.55
2889.88051	28804.85
2892.37692	28772.05
2894.8718	28796.55
2897.36515	28885.15
2899.85698	28842.55
2902.34727	28888.15
2904.83604	28877.25
2907.32328	28946.15
2909.809	28969.75
2912.29319	28955.55
2914.77587	28956.75
2917.25702	28971.75
2919.73665	28921.35
2922.21476	28955.25
2924.69136	28908.75
2927.16644	28900.65
2929.64	28852.05
2932.11205	28790.65
2934.58258	28669.35
2937.05161	28699.15
2939.51912	28687.95
2941.98513	28638.65
2944.44962	28620.15
2946.91261	28501.25
2949.37409	28574.65
2951.83407	28539.35
2954.29254	28532.75
2956.74951	28538.75
2959.20498	28509.75
2961.65895	28430.95
2964.11142	28423.05
2966.56239	28337.45
2969.01186	28341.25
2971.45984	28194.95
2973.90632	28160.55
2976.35131	28081.35
2978.7948	28044.55
2981.23681	27987.65
2983.67732	27939.55
2986.11635	27868.85
2988.55388	27793.25
2990.98993	27733.75
2993.4245	27696.45
2995.85758	27608.35
2998.28917	27551.45
3000.71928	27560.25
3003.14791	27467.95
3005.57506	27448.75
3008.00073	27365.15
3010.42493	27326.95
3012.84764	27266.95
3015.26888	27277.45
3017.68865	27219.25
3020.10694	27158.85
3022.52376	27060.85
3024.9391	27048.25
3027.35298	27010.45
3029.76539	26966.95
3032.17632	26921.65
3034.5858	26880.95
3036.9938	26852.05
3039.40034	26767.95
3041.80542	26796.95
3044.20903	26742.65
3046.61118	26667.35
3049.01187	26629.55
3051.4111	26599.55
3053.80888	26517.45
3056.20519	26517.85
3058.60005	26423.35
3060.99345	26389.15
3063.3854	26390.05
3065.7759	26256.85
3068.16494	26199.55
3070.55254	26118.85
3072.93868	26046.25
3075.32338	25985.85
3077.70662	25886.25
3080.08842	25813.25
3082.46878	25830.25
3084.84769	25771.25
3087.22515	25783.25
3089.60118	25755.65
3091.97576	25743.25
3094.3489	25685.75
3096.72061	25749.95
3099.09087	25677.35
3101.4597	25643.25
3103.82709	25650.75
3106.19305	25597.45
3108.55757	25591.15
3110.92066	25445.95
3113.28232	25428.75
3115.64255	25327.25
3118.00134	25325.25
3120.35871	25274.65
3122.71466	25202.35
3125.06917	25183.85
3127.42226	25131.25
3129.77393	25134.75
3132.12417	25106.65
3134.47299	25088.35
3136.82039	25065.95
3139.16636	25056.05
3141.51092	25062.05
3143.85406	25062.65
3146.19579	25032.15
3148.53609	25044.05
3150.87499	25044.55
3153.21246	24952.75
3155.54853	25018.15
3157.88318	24971.45
3160.21642	24960.95
3162.54826	24918.85
3164.87868	24931.85
3167.2077	24878.55
3169.5353	24901.45
3171.86151	24855.25
3174.18631	24829.35
3176.5097	24833.05
3178.83169	24758.45
3181.15228	24782.35
3183.47147	24708.35
3185.78926	24727.45
3188.10565	24701.55
3190.42065	24709.75
3192.73424	24705.05
3195.04645	24710.45
3197.35725	24735.75
3199.66667	24710.95
3201.97469	24702.75
3204.28132	24625.05
3206.58656	24688.15
3208.8904	24626.65
3211.19287	24671.25
3213.49394	24618.85
3215.79363	24599.85
3218.09193	24632.15
3220.38884	24633.95
3222.68438	24601.25
3224.97853	24572.05
3227.2713	24580.95
3229.56269	24532.55
3231.8527	24543.55
3234.14133	24512.45
3236.42858	24482.95
