Data from AgNP_FTO_APTES_CRN_5uM_R6G_10uM_NaF_0.1M_Addition_RamanShift__8__15-35-17-905.txt Node

Date: Wed Dec 15 15:35:17 GMT 2021
User: TCL
Spectrometer: QEP01345
Trigger mode: 4
Integration Time (sec): 7.000000E0
Scans to average: 10
Electric dark correction enabled: true
Nonlinearity correction enabled: false
Boxcar width: 0
XAxis mode: Raman Shifts
Number of Pixels in Spectrum: 1044
>>>>>Begin Spectral Data<<<<<
46.04893	0.4875
50.45542	-3.7125
54.85868	-0.7125
59.25871	-2.7125
63.6555	129.9875
68.04907	141.0875
72.43941	141.7875
76.82654	151.1875
81.21044	152.8875
85.59113	158.5875
89.96862	165.8875
94.34289	167.1875
98.71396	176.7875
103.08183	185.0875
107.4465	187.2875
111.80798	195.0875
116.16626	194.6875
120.52136	206.3875
124.87327	214.3875
129.222	223.9875
133.56755	237.6875
137.90993	256.3875
142.24913	282.2875
146.58517	319.3875
150.91804	365.4875
155.24774	443.7875
159.57429	543.0875
163.89768	699.6875
168.21792	918.0875
172.53501	1251.1875
176.84895	1744.5875
181.15975	2438.9875
185.46741	3415.9875
189.77193	4711.1875
194.07331	6277.7875
198.37157	8074.8875
202.6667	9989.0875
206.9587	11870.4875
211.24758	13688.5875
215.53334	15504.0875
219.81599	17428.4875
224.09553	19533.8875
228.37195	21853.8875
232.64527	24469.8875
236.91549	27198.1875
241.18261	29989.2875
245.44663	32610.0875
249.70755	35001.2875
253.96539	37139.4875
258.22014	38909.6875
262.4718	40349.0875
266.72039	41308.1875
270.96589	41783.1875
275.20832	41851.1875
279.44768	41633.0875
283.68397	41313.8875
287.91719	40938.7875
292.14735	40721.3875
296.37445	40570.0875
300.59849	40587.9875
304.81948	40604.2875
309.03742	40609.9875
313.25231	40403.5875
317.46415	39918.7875
321.67296	39395.1875
325.87872	38857.6875
330.08145	38663.8875
334.28114	38720.3875
338.47781	39019.2875
342.67145	39433.4875
346.86207	39968.5875
351.04966	40568.1875
355.23424	41224.4875
359.4158	41880.6875
363.59435	42419.8875
367.76989	42833.2875
371.94243	43091.7875
376.11196	43229.2875
380.27849	43318.6875
384.44203	43434.4875
388.60257	43794.2875
392.76012	44274.6875
396.91468	44838.1875
401.06626	45604.0875
405.21485	46030.5875
409.36047	46089.2875
413.50311	45973.8875
417.64277	46079.2875
421.77947	46429.7875
425.9132	46807.2875
430.04396	47085.5875
434.17176	47171.9875
438.2966	47199.5875
442.41849	47510.6875
446.53742	48390.3875
450.6534	49481.3875
454.76644	50282.5875
458.87653	50730.2875
462.98368	50534.8875
467.08789	49977.9875
471.18916	49202.2875
475.2875	48375.3875
479.38291	47841.5875
483.4754	47411.5875
487.56496	46985.5875
491.6516	46627.5875
495.73531	46335.6875
499.81612	46372.9875
503.89401	46900.4875
507.96899	47375.7875
512.04106	47582.7875
516.11023	47387.5875
520.1765	46864.7875
524.23987	46255.7875
528.30034	45758.0875
532.35792	45358.8875
536.41261	44890.3875
540.46441	44539.1875
544.51333	44529.0875
548.55936	44967.3875
552.60252	45733.8875
556.64279	46509.1875
560.6802	47126.1875
564.71473	47569.8875
568.7464	48241.0875
572.7752	49510.8875
576.80114	51209.1875
580.82422	53415.4875
584.84444	55919.7875
588.86181	58508.8875
592.87633	59966.8875
596.888	58687.1875
600.89682	56002.9875
604.9028	55178.8875
608.90594	56943.3875
612.90624	58455.6875
616.90371	54955.5875
620.89834	49159.3875
624.89015	46700.9875
628.87913	46613.0875
632.86528	46800.5875
636.84862	46715.4875
640.82913	45972.5875
644.80683	45181.8875
648.78172	44690.2875
652.75379	44783.0875
656.72306	45275.2875
660.68952	45684.2875
664.65319	45318.3875
668.61405	44845.8875
672.57211	44861.4875
676.52738	45052.9875
680.47986	45037.2875
684.42955	44709.9875
688.37646	44612.8875
692.32058	44894.0875
696.26192	45505.4875
700.20048	46147.7875
704.13626	46498.0875
708.06928	46610.8875
711.99952	46482.2875
715.927	46510.9875
719.85171	46641.7875
723.77365	46430.6875
727.69284	45742.8875
731.60928	45080.9875
735.52295	44733.7875
739.43388	44623.9875
743.34206	44784.4875
747.24749	45100.6875
751.15017	45577.5875
755.05012	46252.6875
758.94733	47413.8875
762.8418	49044.6875
766.73354	51460.6875
770.62254	53323.6875
774.50882	53113.7875
778.39237	51145.1875
782.27321	48755.2875
786.15132	46829.0875
790.02671	45757.7875
793.89938	45128.3875
797.76935	44895.1875
801.6366	44893.0875
805.50115	44855.5875
809.36299	44669.0875
813.22213	44291.0875
817.07857	43957.7875
820.93231	43735.9875
824.78336	43603.3875
828.63172	43404.8875
832.47738	43364.4875
836.32036	43411.6875
840.16066	43474.3875
843.99827	43492.6875
847.8332	43491.3875
851.66546	43548.5875
855.49504	43620.2875
859.32195	43654.6875
863.1462	43583.9875
866.96777	43499.4875
870.78668	43484.5875
874.60293	43554.3875
878.41652	43570.0875
882.22745	43683.2875
886.03573	43849.3875
889.84136	43811.1875
893.64433	43778.7875
897.44466	43633.3875
901.24235	43570.6875
905.0374	43436.2875
908.8298	43446.8875
912.61957	43494.2875
916.40671	43897.1875
920.19121	44449.3875
923.97308	44853.5875
927.75233	44798.4875
931.52895	44262.4875
935.30295	43674.1875
939.07433	43099.3875
942.84309	42695.3875
946.60924	42580.5875
950.37278	42552.2875
954.13371	42551.5875
957.89203	42540.0875
961.64774	42524.6875
965.40086	42501.0875
969.15137	42405.3875
972.89929	42251.5875
976.64461	42242.6875
980.38733	42180.9875
984.12747	42282.4875
987.86502	42398.9875
991.59999	42649.6875
995.33237	42985.4875
999.06217	43600.0875
1002.78939	44467.4875
1006.51404	45387.5875
1010.23611	46299.3875
1013.95561	46906.1875
1017.67255	46803.3875
1021.38692	46240.0875
1025.09872	45564.9875
1028.80796	45042.4875
1032.51465	45030.9875
1036.21877	45275.5875
1039.92035	45469.4875
1043.61937	45524.3875
1047.31584	45527.6875
1051.00976	45461.0875
1054.70114	45580.6875
1058.38998	45928.5875
1062.07627	46640.1875
1065.76003	47562.8875
1069.44126	48657.8875
1073.11995	49852.2875
1076.79611	50755.3875
1080.46974	50897.5875
1084.14085	50694.1875
1087.80943	50565.0875
1091.47549	50571.6875
1095.13903	50419.5875
1098.80005	49678.0875
1102.45857	48641.9875
1106.11456	47764.7875
1109.76805	47264.8875
1113.41903	47116.6875
1117.06751	47103.7875
1120.71348	47351.3875
1124.35696	47615.5875
1127.99793	47961.4875
1131.63641	48342.8875
1135.2724	48480.7875
1138.90589	48669.6875
1142.5369	48986.8875
1146.16542	49246.0875
1149.79145	49515.9875
1153.415	49933.9875
1157.03607	50723.0875
1160.65467	52273.0875
1164.27079	54621.4875
1167.88443	57197.6875
1171.49561	59577.3875
1175.10432	62114.0875
1178.71056	65300.3875
1182.31434	68592.3875
1185.91565	70691.0875
1189.51451	70921.2875
1193.11091	70003.3875
1196.70485	68352.2875
1200.29634	66221.8875
1203.88538	64934.7875
1207.47197	64602.2875
1211.05612	64490.1875
1214.63782	63693.3875
1218.21708	62027.0875
1221.79391	60069.3875
1225.36829	58483.4875
1228.94024	57551.0875
1232.50976	56979.2875
1236.07685	56502.7875
1239.6415	56270.9875
1243.20374	56266.1875
1246.76355	56616.3875
1250.32093	57323.4875
1253.8759	58477.3875
1257.42845	60011.2875
1260.97859	61629.0875
1264.52631	63371.6875
1268.07163	65069.4875
1271.61453	66790.0875
1275.15503	68496.9875
1278.69312	70231.4875
1282.22882	71898.8875
1285.76211	73732.7875
1289.29301	75989.7875
1292.82151	78790.0875
1296.34761	82140.1875
1299.87133	86325.9875
1303.39266	90655.6875
1306.9116	94175.8875
1310.42815	96487.3875
1313.94233	97244.4875
1317.45412	96724.1875
1320.96354	95961.8875
1324.47058	96011.2875
1327.97525	96462.5875
1331.47754	97299.2875
1334.97747	97705.6875
1338.47502	97817.6875
1341.97022	97370.0875
1345.46305	96205.7875
1348.95352	94701.0875
1352.44163	93382.1875
1355.92738	93007.6875
1359.41078	94071.4875
1362.89183	94810.3875
1366.37053	93063.6875
1369.84688	87878.3875
1373.32088	80756.1875
1376.79254	75375.5875
1380.26186	73241.8875
1383.72883	73329.4875
1387.19347	73712.1875
1390.65578	73244.2875
1394.11575	72955.8875
1397.57339	73681.3875
1401.0287	75230.2875
1404.48168	76726.0875
1407.93234	77070.3875
1411.38068	76004.1875
1414.82669	73730.3875
1418.27039	70838.8875
1421.71177	68070.3875
1425.15083	65928.8875
1428.58758	65159.5875
1432.02203	65978.9875
1435.45416	67855.6875
1438.88399	69999.7875
1442.31151	71687.7875
1445.73673	72369.9875
1449.15965	72419.8875
1452.58027	72023.4875
1455.9986	71711.6875
1459.41463	72094.2875
1462.82837	73120.1875
1466.23982	74446.4875
1469.64898	75491.4875
1473.05586	76042.9875
1476.46045	75970.7875
1479.86276	75335.0875
1483.26279	74523.3875
1486.66054	73909.1875
1490.05602	73903.6875
1493.44922	74215.0875
1496.84016	74500.5875
1500.22882	74937.1875
1503.61521	75809.1875
1506.99934	76864.9875
1510.38121	77468.3875
1513.76081	77380.4875
1517.13816	76775.1875
1520.51324	76150.6875
1523.88607	76057.0875
1527.25665	76624.8875
1530.62498	77174.2875
1533.99105	77205.4875
1537.35488	76433.5875
1540.71647	74976.0875
1544.07581	73192.8875
1547.4329	71313.0875
1550.78776	69706.1875
1554.14038	68362.9875
1557.49077	67617.2875
1560.83892	66890.8875
1564.18484	66459.0875
1567.52853	66385.2875
1570.86999	66946.7875
1574.20922	68495.8875
1577.54624	70457.8875
1580.88103	71976.4875
1584.2136	73808.9875
1587.54395	76330.7875
1590.87208	79509.9875
1594.19801	83242.3875
1597.52172	86474.8875
1600.84321	86625.5875
1604.16251	82691.4875
1607.47959	76723.5875
1610.79447	70784.6875
1614.10715	65258.1875
1617.41763	60634.4875
1620.7259	57282.3875
1624.03199	55590.8875
1627.33587	55583.1875
1630.63757	57109.5875
1633.93707	60604.5875
1637.23439	66585.5875
1640.52951	74959.4875
1643.82246	84084.1875
1647.11321	90241.4875
1650.40179	89690.6875
1653.68819	82222.6875
1656.97241	71660.0875
1660.25446	62023.3875
1663.53433	55139.4875
1666.81203	50665.7875
1670.08756	47817.4875
1673.36092	46033.9875
1676.63211	44908.9875
1679.90115	44028.9875
1683.16801	43366.1875
1686.43272	42872.5875
1689.69527	42555.0875
1692.95567	42254.3875
1696.2139	42086.5875
1699.46999	42035.1875
1702.72392	41869.0875
1705.97571	41714.4875
1709.22535	41629.3875
1712.47284	41524.9875
1715.71819	41472.7875
1718.96139	41356.5875
1722.20246	41172.2875
1725.44139	41094.5875
1728.67818	40860.6875
1731.91284	40625.2875
1735.14537	40405.8875
1738.37576	40241.2875
1741.60403	40070.3875
1744.83017	39979.3875
1748.05418	39915.4875
1751.27607	39816.9875
1754.49584	39699.8875
1757.71349	39695.9875
1760.92903	39707.5875
1764.14244	39644.1875
1767.35375	39637.5875
1770.56294	39607.4875
1773.77002	39547.0875
1776.97499	39514.6875
1780.17785	39409.9875
1783.37861	39350.4875
1786.57727	39244.8875
1789.77382	39141.9875
1792.96828	39134.7875
1796.16064	39027.0875
1799.3509	38943.6875
1802.53907	38939.6875
1805.72514	38840.7875
1808.90913	38727.1875
1812.09102	38659.5875
1815.27083	38590.5875
1818.44856	38556.6875
1821.6242	38500.7875
1824.79776	38543.1875
1827.96924	38511.1875
1831.13864	38570.7875
1834.30597	38583.7875
1837.47122	38595.6875
1840.6344	38608.3875
1843.7955	38628.9875
1846.95454	38609.6875
1850.11151	38597.3875
1853.26642	38558.0875
1856.41926	38519.8875
1859.57004	38577.2875
1862.71876	38461.7875
1865.86542	38382.0875
1869.01003	38376.5875
1872.15258	38343.2875
1875.29308	38282.4875
1878.43152	38214.2875
1881.56792	38185.9875
1884.70227	38123.1875
1887.83457	38131.7875
1890.96482	38061.5875
1894.09304	38004.9875
1897.21921	38005.7875
1900.34335	37886.5875
1903.46544	37830.7875
1906.58551	37768.1875
1909.70353	37677.3875
1912.81953	37633.7875
1915.93349	37557.4875
1919.04543	37507.3875
1922.15534	37456.7875
1925.26322	37354.7875
1928.36908	37273.6875
1931.47292	37176.6875
1934.57473	37079.1875
1937.67453	36999.7875
1940.77232	36968.8875
1943.86808	36825.4875
1946.96184	36751.8875
1950.05358	36643.8875
1953.14331	36589.4875
1956.23103	36483.0875
1959.31675	36448.7875
1962.40046	36271.1875
1965.48217	36150.9875
1968.56188	36017.9875
1971.63959	35974.3875
1974.7153	35838.6875
1977.78901	35706.0875
1980.86073	35706.1875
1983.93046	35530.9875
1986.99819	35502.7875
1990.06394	35377.0875
1993.1277	35323.6875
1996.18947	35206.4875
1999.24925	35117.8875
2002.30706	35040.1875
2005.36288	34900.0875
2008.41672	34825.3875
2011.46859	34732.0875
2014.51848	34673.4875
2017.56639	34638.9875
2020.61233	34538.1875
2023.6563	34428.7875
2026.6983	34329.4875
2029.73833	34354.8875
2032.7764	34281.5875
2035.8125	34164.5875
2038.84664	34098.2875
2041.87881	34006.3875
2044.90903	34022.8875
2047.93729	33946.3875
2050.96359	33841.9875
2053.98794	33860.2875
2057.01034	33840.6875
2060.03078	33795.5875
2063.04927	33789.2875
2066.06582	33736.1875
2069.08042	33769.5875
2072.09307	33748.1875
2075.10378	33667.5875
2078.11255	33679.6875
2081.11938	33664.8875
2084.12426	33664.4875
2087.12722	33629.8875
2090.12824	33611.1875
2093.12732	33691.8875
2096.12447	33686.6875
2099.11969	33617.4875
2102.11299	33642.1875
2105.10435	33674.8875
2108.09379	33713.4875
2111.08131	33723.3875
2114.0669	33785.3875
2117.05057	33761.2875
2120.03233	33740.8875
2123.01216	33808.5875
2125.99008	33770.5875
2128.96609	33825.0875
2131.94018	33807.7875
2134.91236	33845.9875
2137.88263	33916.3875
2140.851	33872.1875
2143.81746	33875.7875
2146.78201	33913.4875
2149.74466	33924.6875
2152.7054	33940.8875
2155.66425	33911.9875
2158.6212	33883.6875
2161.57625	33894.3875
2164.52941	33934.5875
2167.48067	33953.6875
2170.43004	33932.3875
2173.37752	33897.4875
2176.32311	33917.0875
2179.26681	33842.6875
2182.20863	33882.8875
2185.14856	33893.3875
2188.08661	33868.7875
2191.02278	33904.9875
2193.95707	33842.3875
2196.88948	33835.6875
2199.82001	33809.6875
2202.74867	33743.7875
2205.67545	33726.0875
2208.60037	33656.4875
2211.52341	33639.4875
2214.44458	33612.7875
2217.36388	33536.0875
2220.28132	33533.2875
2223.1969	33459.7875
2226.11061	33453.7875
2229.02246	33356.6875
2231.93245	33285.1875
2234.84058	33228.4875
2237.74686	33196.1875
2240.65128	33234.4875
2243.55385	33134.4875
2246.45456	33100.9875
2249.35343	33010.5875
2252.25044	32953.0875
2255.14561	32886.1875
2258.03893	32892.6875
2260.93041	32868.8875
2263.82004	32732.6875
2266.70783	32684.9875
2269.59378	32612.6875
2272.4779	32486.8875
2275.36017	32427.9875
2278.24061	32368.8875
2281.11922	32276.2875
2283.996	32263.2875
2286.87094	32232.7875
2289.74405	32196.1875
2292.61534	32191.1875
2295.4848	32128.4875
2298.35243	32110.8875
2301.21824	32091.6875
2304.08223	32062.4875
2306.94439	32043.2875
2309.80474	32070.3875
2312.66327	32061.7875
2315.51999	32053.7875
2318.37489	32011.3875
2321.22797	31935.4875
2324.07925	31923.0875
2326.92871	31853.6875
2329.77637	31818.9875
2332.62222	31809.0875
2335.46626	31809.9875
2338.3085	31742.1875
2341.14893	31715.5875
2343.98756	31770.4875
2346.8244	31764.1875
2349.65943	31678.0875
2352.49267	31661.3875
2355.32411	31626.6875
2358.15376	31655.0875
2360.98161	31637.2875
2363.80768	31658.9875
2366.63195	31602.2875
2369.45444	31585.6875
2372.27514	31508.2875
2375.09405	31477.0875
2377.91118	31440.4875
2380.72652	31382.4875
2383.54009	31338.8875
2386.35187	31348.3875
2389.16188	31219.9875
2391.97011	31203.1875
2394.77657	31183.2875
2397.58125	31148.4875
2400.38416	31092.1875
2403.18529	31016.1875
2405.98466	30966.9875
2408.78226	30935.4875
2411.57809	30896.1875
2414.37216	30868.0875
2417.16446	30899.1875
2419.955	30793.9875
2422.74378	30862.8875
2425.5308	30793.8875
2428.31606	30765.2875
2431.09956	30763.5875
2433.88131	30738.2875
2436.6613	30713.8875
2439.43954	30696.3875
2442.21603	30649.9875
2444.99077	30621.0875
2447.76377	30620.0875
2450.53501	30624.5875
2453.30451	30637.4875
2456.07226	30603.8875
2458.83827	30599.0875
2461.60254	30622.2875
2464.36507	30518.9875
2467.12586	30559.2875
2469.88492	30510.0875
2472.64224	30479.3875
2475.39782	30487.7875
2478.15167	30516.0875
2480.90379	30479.6875
2483.65417	30521.7875
2486.40283	30487.7875
2489.14976	30498.4875
2491.89497	30415.8875
2494.63845	30470.2875
2497.3802	30455.7875
2500.12024	30442.4875
2502.85855	30510.7875
2505.59514	30491.8875
2508.33002	30420.4875
2511.06318	30453.4875
2513.79462	30438.7875
2516.52435	30390.7875
2519.25237	30383.0875
2521.97867	30352.5875
2524.70327	30368.4875
2527.42616	30303.5875
2530.14734	30305.9875
2532.86681	30249.4875
2535.58458	30213.5875
2538.30065	30198.3875
2541.01501	30182.5875
2543.72768	30150.8875
2546.43864	30119.6875
2549.14791	30124.9875
2551.85548	30085.5875
2554.56136	30022.4875
2557.26554	30039.5875
2559.96803	30020.4875
2562.66883	29995.3875
2565.36794	29927.1875
2568.06536	29949.7875
2570.7611	29903.8875
2573.45514	29875.7875
2576.14751	29835.5875
2578.83819	29818.8875
2581.52719	29800.9875
2584.21451	29749.1875
2586.90015	29716.1875
2589.58411	29665.8875
2592.2664	29690.1875
2594.94701	29601.3875
2597.62594	29640.4875
2600.30321	29604.9875
2602.9788	29568.2875
2605.65273	29536.5875
2608.32498	29515.7875
2610.99557	29508.4875
2613.66449	29541.5875
2616.33175	29446.4875
2618.99734	29443.9875
2621.66128	29415.7875
2624.32355	29467.6875
2626.98416	29402.5875
2629.64311	29317.7875
2632.30041	29317.3875
2634.95605	29304.3875
2637.61004	29304.3875
2640.26238	29279.3875
2642.91306	29304.5875
2645.56209	29259.6875
2648.20948	29324.0875
2650.85521	29276.1875
2653.4993	29286.6875
2656.14175	29282.1875
2658.78255	29281.6875
2661.42171	29295.6875
2664.05923	29315.0875
2666.6951	29330.8875
2669.32934	29335.7875
2671.96194	29322.4875
2674.59291	29312.7875
2677.22224	29366.2875
2679.84993	29360.2875
2682.476	29270.2875
2685.10043	29293.0875
2687.72324	29256.2875
2690.34441	29334.4875
2692.96396	29314.7875
2695.58188	29379.1875
2698.19818	29300.9875
2700.81285	29336.6875
2703.4259	29334.0875
2706.03733	29403.2875
2708.64714	29398.7875
2711.25533	29460.0875
2713.86191	29419.9875
2716.46687	29467.1875
2719.07021	29442.9875
2721.67194	29411.5875
2724.27206	29427.3875
2726.87057	29431.1875
2729.46747	29498.6875
2732.06276	29511.6875
2734.65644	29512.8875
2737.24852	29531.9875
2739.83899	29524.9875
2742.42786	29516.5875
2745.01513	29424.9875
2747.60079	29469.6875
2750.18486	29383.0875
2752.76733	29413.9875
2755.3482	29445.1875
2757.92747	29447.6875
2760.50515	29378.9875
2763.08123	29389.0875
2765.65573	29304.0875
2768.22863	29317.3875
2770.79994	29281.2875
2773.36967	29223.6875
2775.9378	29190.4875
2778.50435	29204.1875
2781.06932	29176.5875
2783.6327	29163.1875
2786.1945	29161.8875
2788.75471	29134.2875
2791.31335	29017.9875
2793.87041	29023.7875
2796.42589	28924.2875
2798.97979	28950.9875
2801.53212	28866.1875
2804.08288	28845.8875
2806.63206	28779.8875
2809.17967	28674.9875
2811.72571	28630.7875
2814.27018	28623.4875
2816.81308	28559.7875
2819.35442	28530.6875
2821.89419	28454.8875
2824.43239	28442.1875
2826.96904	28389.1875
2829.50412	28377.8875
2832.03763	28313.2875
2834.56959	28358.8875
2837.1	28253.2875
2839.62884	28226.0875
2842.15613	28166.2875
2844.68186	28176.4875
2847.20604	28130.4875
2849.72867	28122.6875
2852.24974	28099.9875
2854.76927	28081.3875
2857.28724	28022.0875
2859.80367	27999.7875
2862.31855	27963.4875
2864.83189	27954.0875
2867.34368	27881.5875
2869.85393	27911.5875
2872.36264	27895.5875
2874.8698	27861.7875
2877.37543	27907.3875
2879.87952	27859.5875
2882.38207	27833.6875
2884.88308	27816.8875
2887.38256	27891.9875
2889.88051	27839.5875
2892.37692	27830.4875
2894.8718	27819.1875
2897.36515	27867.1875
2899.85698	27840.8875
2902.34727	27898.1875
2904.83604	27946.3875
2907.32328	27942.8875
2909.809	27951.3875
2912.29319	27977.3875
2914.77587	27952.6875
2917.25702	27958.8875
2919.73665	27981.8875
2922.21476	27965.7875
2924.69136	27957.7875
2927.16644	27976.7875
2929.64	27871.9875
2932.11205	27845.0875
2934.58258	27746.3875
2937.05161	27802.6875
2939.51912	27874.9875
2941.98513	27854.1875
2944.44962	27746.9875
2946.91261	27640.5875
2949.37409	27701.1875
2951.83407	27703.2875
2954.29254	27673.5875
2956.74951	27605.5875
2959.20498	27592.0875
2961.65895	27528.5875
2964.11142	27573.1875
2966.56239	27526.0875
2969.01186	27495.8875
2971.45984	27438.0875
2973.90632	27375.0875
2976.35131	27344.1875
2978.7948	27362.6875
2981.23681	27261.7875
2983.67732	27199.3875
2986.11635	27162.0875
2988.55388	27128.5875
2990.98993	27061.9875
2993.4245	26975.4875
2995.85758	26843.8875
2998.28917	26839.6875
3000.71928	26790.9875
3003.14791	26736.6875
3005.57506	26710.4875
3008.00073	26645.0875
3010.42493	26638.6875
3012.84764	26610.9875
3015.26888	26570.5875
3017.68865	26497.1875
3020.10694	26469.6875
3022.52376	26404.1875
