Data from AgNP_FTO_APTES_CRN_0uM_R6G_10uM_NaF_0.1M_Addition_RamanShift__43__12-19-52-949.txt Node

Date: Wed Dec 15 12:19:52 GMT 2021
User: TCL
Spectrometer: QEP01345
Trigger mode: 4
Integration Time (sec): 7.000000E0
Scans to average: 10
Electric dark correction enabled: true
Nonlinearity correction enabled: false
Boxcar width: 0
XAxis mode: Raman Shifts
Number of Pixels in Spectrum: 1044
>>>>>Begin Spectral Data<<<<<
46.04893	0.25
50.45542	-3.65
54.85868	-0.85
59.25871	-1.55
63.6555	156.45
68.04907	170.05
72.43941	170.95
76.82654	184.25
81.21044	193.45
85.59113	202.05
89.96862	202.65
94.34289	205.85
98.71396	219.45
103.08183	228.15
107.4465	230.55
111.80798	233.85
116.16626	244.55
120.52136	253.85
124.87327	256.95
129.222	267.35
133.56755	278.85
137.90993	294.55
142.24913	319.45
146.58517	350.85
150.91804	400.05
155.24774	475.45
159.57429	578.95
163.89768	725.05
168.21792	950.55
172.53501	1274.75
176.84895	1758.75
181.15975	2459.75
185.46741	3431.65
189.77193	4713.95
194.07331	6271.25
198.37157	8069.35
202.6667	9958.15
206.9587	11826.25
211.24758	13687.15
215.53334	15585.45
219.81599	17602.35
224.09553	19811.95
228.37195	22220.85
232.64527	24900.35
236.91549	27654.15
241.18261	30382.85
245.44663	32859.55
249.70755	35147.95
253.96539	37105.05
258.22014	38756.65
262.4718	40106.55
266.72039	40943.95
270.96589	41371.35
275.20832	41245.35
279.44768	40895.75
283.68397	40383.55
287.91719	40015.85
292.14735	39794.85
296.37445	39619.15
300.59849	39740.15
304.81948	39849.65
309.03742	40069.05
313.25231	40068.35
317.46415	39864.35
321.67296	39472.85
325.87872	39082.85
330.08145	38964.55
334.28114	39015.35
338.47781	39253.65
342.67145	39679.75
346.86207	40258.95
351.04966	40973.25
355.23424	41728.65
359.4158	42433.95
363.59435	43039.85
367.76989	43368.65
371.94243	43564.25
376.11196	43724.65
380.27849	43855.35
384.44203	44157.75
388.60257	44528.35
392.76012	44891.85
396.91468	45417.85
401.06626	46144.65
405.21485	46700.55
409.36047	46869.65
413.50311	46894.65
417.64277	47171.05
421.77947	47621.55
425.9132	47979.55
430.04396	48221.65
434.17176	48437.25
438.2966	48614.25
442.41849	49491.25
446.53742	51053.25
450.6534	52685.35
454.76644	53792.65
458.87653	53870.25
462.98368	53105.65
467.08789	51911.55
471.18916	50481.45
475.2875	48982.35
479.38291	47991.65
483.4754	47469.85
487.56496	47159.45
491.6516	46970.85
495.73531	46847.85
499.81612	47027.35
503.89401	47565.65
507.96899	47840.95
512.04106	47712.25
516.11023	47353.15
520.1765	46978.95
524.23987	46798.95
528.30034	46666.55
532.35792	46426.05
536.41261	45852.55
540.46441	45095.95
544.51333	44734.25
548.55936	44979.45
552.60252	45787.85
556.64279	46919.45
560.6802	47773.35
564.71473	48230.75
568.7464	48621.05
572.7752	49687.45
576.80114	51402.65
580.82422	53666.15
584.84444	56794.35
588.86181	60366.25
592.87633	63047.15
596.888	62601.85
600.89682	59213.65
604.9028	57570.75
608.90594	59946.55
612.90624	62384.25
616.90371	58668.55
620.89834	51182.45
624.89015	47762.85
628.87913	47083.55
632.86528	46837.65
636.84862	46176.45
640.82913	45166.25
644.80683	44167.75
648.78172	43767.65
652.75379	44075.95
656.72306	44765.95
660.68952	45327.25
664.65319	44956.35
668.61405	44289.95
672.57211	44258.95
676.52738	44567.05
680.47986	44457.85
684.42955	44026.85
688.37646	43958.65
692.32058	44398.35
696.26192	45331.15
700.20048	46255.95
704.13626	46635.75
708.06928	46503.15
711.99952	46263.35
715.927	46506.65
719.85171	47001.85
723.77365	46884.55
727.69284	46034.35
731.60928	45182.85
735.52295	44896.25
739.43388	44932.15
743.34206	45128.45
747.24749	45391.55
751.15017	45862.25
755.05012	46513.35
758.94733	47614.25
762.8418	49442.75
766.73354	51953.95
770.62254	53975.35
774.50882	53758.05
778.39237	51514.65
782.27321	49045.15
786.15132	47051.45
790.02671	45806.35
793.89938	45266.15
797.76935	45140.95
801.6366	45255.65
805.50115	45362.55
809.36299	45071.55
813.22213	44546.35
817.07857	44201.35
820.93231	43868.05
824.78336	43638.85
828.63172	43504.25
832.47738	43511.85
836.32036	43721.95
840.16066	43967.75
843.99827	44095.65
847.8332	44029.95
851.66546	43827.75
855.49504	43814.15
859.32195	43776.45
863.1462	43643.25
866.96777	43524.15
870.78668	43448.25
874.60293	43535.45
878.41652	43627.65
882.22745	43887.85
886.03573	44104.55
889.84136	44133.85
893.64433	43969.45
897.44466	43655.35
901.24235	43564.85
905.0374	43485.05
908.8298	43464.95
912.61957	43640.75
916.40671	44044.05
920.19121	44698.75
923.97308	45462.35
927.75233	45779.85
931.52895	45463.45
935.30295	44651.65
939.07433	43836.85
942.84309	43345.15
946.60924	43219.05
950.37278	43242.05
954.13371	43153.35
957.89203	42980.55
961.64774	42791.55
965.40086	42730.45
969.15137	42665.45
972.89929	42519.05
976.64461	42494.25
980.38733	42630.55
984.12747	42777.15
987.86502	43113.75
991.59999	43637.55
995.33237	44435.35
999.06217	45711.45
1002.78939	47309.95
1006.51404	48702.45
1010.23611	49693.15
1013.95561	50148.65
1017.67255	50097.45
1021.38692	49218.65
1025.09872	48364.35
1028.80796	48529.35
1032.51465	49813.55
1036.21877	51138.15
1039.92035	51489.75
1043.61937	50874.55
1047.31584	49703.65
1051.00976	48435.85
1054.70114	47763.45
1058.38998	47621.55
1062.07627	47871.55
1065.76003	48341.65
1069.44126	49173.55
1073.11995	50482.35
1076.79611	51483.75
1080.46974	51896.95
1084.14085	51854.65
1087.80943	51801.85
1091.47549	51671.05
1095.13903	51157.55
1098.80005	50195.35
1102.45857	48935.65
1106.11456	48149.45
1109.76805	47861.55
1113.41903	47851.95
1117.06751	47927.55
1120.71348	48140.55
1124.35696	48275.05
1127.99793	48576.85
1131.63641	48867.15
1135.2724	48988.05
1138.90589	49150.45
1142.5369	49361.35
1146.16542	49611.05
1149.79145	49805.75
1153.415	50207.45
1157.03607	50974.45
1160.65467	52716.95
1164.27079	55631.35
1167.88443	58962.35
1171.49561	61971.95
1175.10432	65560.85
1178.71056	70408.05
1182.31434	75206.05
1185.91565	77212.35
1189.51451	75935.25
1193.11091	73207.25
1196.70485	70298.85
1200.29634	67886.55
1203.88538	66444.05
1207.47197	65836.35
1211.05612	65248.65
1214.63782	64130.15
1218.21708	62877.35
1221.79391	61637.35
1225.36829	60958.65
1228.94024	60150.55
1232.50976	58856.45
1236.07685	57360.15
1239.6415	56489.65
1243.20374	56368.55
1246.76355	56912.35
1250.32093	57931.25
1253.8759	59473.65
1257.42845	61151.05
1260.97859	63101.35
1264.52631	65157.85
1268.07163	67346.35
1271.61453	69662.65
1275.15503	72039.55
1278.69312	74472.75
1282.22882	76887.55
1285.76211	79543.65
1289.29301	82575.35
1292.82151	85847.15
1296.34761	90167.65
1299.87133	95769.15
1303.39266	102309.55
1306.9116	107939.55
1310.42815	112026.75
1313.94233	113587.85
1317.45412	112339.55
1320.96354	109434.75
1324.47058	106646.05
1327.97525	105072.55
1331.47754	104175.25
1334.97747	103178.85
1338.47502	101238.65
1341.97022	97837.25
1345.46305	94100.15
1348.95352	91821.15
1352.44163	92578.05
1355.92738	97145.05
1359.41078	103742.05
1362.89183	108737.65
1366.37053	108696.75
1369.84688	101590.15
1373.32088	90100.25
1376.79254	81198.45
1380.26186	77898.85
1383.72883	78064.35
1387.19347	78039.95
1390.65578	76533.05
1394.11575	75541.65
1397.57339	76181.65
1401.0287	78096.55
1404.48168	80145.55
1407.93234	81179.05
1411.38068	80758.25
1414.82669	78992.75
1418.27039	76296.45
1421.71177	72976.65
1425.15083	70040.75
1428.58758	68864.15
1432.02203	69906.75
1435.45416	72464.65
1438.88399	75220.55
1442.31151	77007.15
1445.73673	77664.45
1449.15965	77643.95
1452.58027	76644.05
1455.9986	75054.45
1459.41463	74067.25
1462.82837	74900.85
1466.23982	77028.75
1469.64898	79373.55
1473.05586	81238.95
1476.46045	82303.65
1479.86276	82530.25
1483.26279	81940.25
1486.66054	81576.25
1490.05602	81910.05
1493.44922	82023.35
1496.84016	81166.45
1500.22882	80115.45
1503.61521	79549.15
1506.99934	79576.65
1510.38121	79768.65
1513.76081	79249.05
1517.13816	78181.25
1520.51324	76772.55
1523.88607	76175.35
1527.25665	76864.85
1530.62498	77965.95
1533.99105	78347.25
1537.35488	77811.45
1540.71647	76340.15
1544.07581	74510.25
1547.4329	72444.55
1550.78776	70493.15
1554.14038	68737.95
1557.49077	67593.05
1560.83892	66655.55
1564.18484	66067.25
1567.52853	65998.45
1570.86999	66663.75
1574.20922	68236.35
1577.54624	70206.95
1580.88103	71890.85
1584.2136	74036.85
1587.54395	77726.85
1590.87208	83332.25
1594.19801	90089.35
1597.52172	96052.15
1600.84321	97401.95
1604.16251	92162.85
1607.47959	82699.35
1610.79447	72989.55
1614.10715	65049.95
1617.41763	59654.95
1620.7259	56577.65
1624.03199	55296.45
1627.33587	55863.15
1630.63757	58039.25
1633.93707	62104.05
1637.23439	68988.45
1640.52951	79042.15
1643.82246	91231.05
1647.11321	99934.45
1650.40179	99331.95
1653.68819	89194.45
1656.97241	75272.35
1660.25446	63380.85
1663.53433	55583.25
1666.81203	50928.05
1670.08756	48127.05
1673.36092	46439.65
1676.63211	45267.05
1679.90115	44434.25
1683.16801	43846.55
1686.43272	43385.25
1689.69527	43060.65
1692.95567	42872.95
1696.2139	42688.55
1699.46999	42511.55
1702.72392	42462.55
1705.97571	42357.55
1709.22535	42351.55
1712.47284	42242.95
1715.71819	42275.95
1718.96139	42169.45
1722.20246	41999.15
1725.44139	41830.55
1728.67818	41673.75
1731.91284	41436.35
1735.14537	41211.45
1738.37576	41008.75
1741.60403	40852.65
1744.83017	40746.55
1748.05418	40704.35
1751.27607	40641.25
1754.49584	40593.65
1757.71349	40461.65
1760.92903	40482.95
1764.14244	40473.95
1767.35375	40452.45
1770.56294	40380.05
1773.77002	40351.75
1776.97499	40406.95
1780.17785	40344.85
1783.37861	40331.75
1786.57727	40282.45
1789.77382	40165.75
1792.96828	40079.85
1796.16064	40075.85
1799.3509	39970.85
1802.53907	39959.05
1805.72514	39822.35
1808.90913	39722.05
1812.09102	39705.15
1815.27083	39601.05
1818.44856	39659.85
1821.6242	39587.25
1824.79776	39565.75
1827.96924	39618.95
1831.13864	39565.35
1834.30597	39606.05
1837.47122	39573.75
1840.6344	39584.35
1843.7955	39591.85
1846.95454	39595.25
1850.11151	39585.35
1853.26642	39547.55
1856.41926	39531.25
1859.57004	39522.95
1862.71876	39467.95
1865.86542	39465.85
1869.01003	39465.65
1872.15258	39433.95
1875.29308	39428.75
1878.43152	39419.55
1881.56792	39371.05
1884.70227	39417.45
1887.83457	39457.25
1890.96482	39361.55
1894.09304	39323.95
1897.21921	39329.85
1900.34335	39239.85
1903.46544	39303.75
1906.58551	39227.05
1909.70353	39149.45
1912.81953	39116.95
1915.93349	38975.85
1919.04543	38935.55
1922.15534	38854.55
1925.26322	38779.55
1928.36908	38662.45
1931.47292	38585.35
1934.57473	38502.75
1937.67453	38461.15
1940.77232	38407.05
1943.86808	38219.95
1946.96184	38201.65
1950.05358	38054.25
1953.14331	38008.65
1956.23103	37880.25
1959.31675	37809.25
1962.40046	37739.05
1965.48217	37628.65
1968.56188	37508.35
1971.63959	37469.25
1974.7153	37408.05
1977.78901	37294.45
1980.86073	37150.45
1983.93046	37100.15
1986.99819	36935.85
1990.06394	36865.15
1993.1277	36802.05
1996.18947	36706.65
1999.24925	36596.35
2002.30706	36504.15
2005.36288	36464.15
2008.41672	36434.45
2011.46859	36241.95
2014.51848	36166.45
2017.56639	36116.95
2020.61233	36046.05
2023.6563	36023.65
2026.6983	35983.45
2029.73833	35883.75
2032.7764	35817.75
2035.8125	35804.65
2038.84664	35737.45
2041.87881	35724.55
2044.90903	35657.25
2047.93729	35591.45
2050.96359	35620.95
2053.98794	35507.25
2057.01034	35531.95
2060.03078	35510.05
2063.04927	35469.35
2066.06582	35430.85
2069.08042	35449.15
2072.09307	35457.35
2075.10378	35414.25
2078.11255	35350.05
2081.11938	35374.35
2084.12426	35370.65
2087.12722	35329.65
2090.12824	35329.85
2093.12732	35355.75
2096.12447	35368.85
2099.11969	35346.65
2102.11299	35361.45
2105.10435	35381.25
2108.09379	35419.55
2111.08131	35440.85
2114.0669	35450.25
2117.05057	35390.35
2120.03233	35440.85
2123.01216	35468.15
2125.99008	35515.25
2128.96609	35531.55
2131.94018	35537.85
2134.91236	35585.75
2137.88263	35624.75
2140.851	35677.65
2143.81746	35708.15
2146.78201	35728.05
2149.74466	35717.45
2152.7054	35780.15
2155.66425	35740.15
2158.6212	35763.45
2161.57625	35728.25
2164.52941	35782.85
2167.48067	35845.65
2170.43004	35799.95
2173.37752	35713.85
2176.32311	35729.85
2179.26681	35748.15
2182.20863	35747.45
2185.14856	35848.15
2188.08661	35772.45
2191.02278	35842.85
2193.95707	35815.85
2196.88948	35837.45
2199.82001	35914.15
2202.74867	35819.75
2205.67545	35795.65
2208.60037	35796.45
2211.52341	35756.25
2214.44458	35736.65
2217.36388	35668.95
2220.28132	35643.85
2223.1969	35593.65
2226.11061	35563.15
2229.02246	35466.15
2231.93245	35458.85
2234.84058	35352.25
2237.74686	35385.85
2240.65128	35352.05
2243.55385	35281.85
2246.45456	35239.15
2249.35343	35166.05
2252.25044	35133.75
2255.14561	35041.85
2258.03893	35021.25
2260.93041	34964.45
2263.82004	34880.55
2266.70783	34836.25
2269.59378	34703.15
2272.4779	34710.85
2275.36017	34596.35
2278.24061	34543.45
2281.11922	34501.55
2283.996	34443.65
2286.87094	34435.95
2289.74405	34379.65
2292.61534	34390.55
2295.4848	34366.85
2298.35243	34424.35
2301.21824	34432.15
2304.08223	34476.15
2306.94439	34532.25
2309.80474	34500.55
2312.66327	34475.85
2315.51999	34472.95
2318.37489	34510.65
2321.22797	34463.35
2324.07925	34422.85
2326.92871	34396.75
2329.77637	34400.25
2332.62222	34364.55
2335.46626	34394.05
2338.3085	34414.75
2341.14893	34424.85
2343.98756	34421.65
2346.8244	34366.35
2349.65943	34312.25
2352.49267	34286.75
2355.32411	34278.45
2358.15376	34215.75
2360.98161	34171.25
2363.80768	34118.75
2366.63195	34116.95
2369.45444	34119.05
2372.27514	34028.05
2375.09405	33970.75
2377.91118	33943.95
2380.72652	33874.05
2383.54009	33806.05
2386.35187	33811.65
2389.16188	33765.85
2391.97011	33790.35
2394.77657	33734.55
2397.58125	33675.25
2400.38416	33650.65
2403.18529	33607.25
2405.98466	33518.55
2408.78226	33482.55
2411.57809	33482.15
2414.37216	33340.15
2417.16446	33373.55
2419.955	33324.05
2422.74378	33322.65
2425.5308	33281.45
2428.31606	33235.15
2431.09956	33213.85
2433.88131	33124.75
2436.6613	33189.05
2439.43954	33187.85
2442.21603	33186.65
2444.99077	33147.35
2447.76377	33120.25
2450.53501	33108.35
2453.30451	33103.05
2456.07226	33085.65
2458.83827	33104.55
2461.60254	33125.35
2464.36507	33137.15
2467.12586	33117.05
2469.88492	33138.35
2472.64224	33132.95
2475.39782	33160.05
2478.15167	33191.85
2480.90379	33151.05
2483.65417	33172.95
2486.40283	33190.25
2489.14976	33216.15
2491.89497	33194.35
2494.63845	33178.15
2497.3802	33201.95
2500.12024	33228.85
2502.85855	33233.85
2505.59514	33255.05
2508.33002	33181.55
2511.06318	33131.65
2513.79462	33132.55
2516.52435	33135.95
2519.25237	33093.35
2521.97867	33088.45
2524.70327	33043.95
2527.42616	33073.05
2530.14734	33135.85
2532.86681	33052.05
2535.58458	33022.25
2538.30065	33020.05
2541.01501	33013.05
2543.72768	32970.65
2546.43864	32984.25
2549.14791	32952.75
2551.85548	32935.15
2554.56136	32925.25
2557.26554	32839.15
2559.96803	32882.75
2562.66883	32862.65
2565.36794	32841.85
2568.06536	32842.45
2570.7611	32813.35
2573.45514	32851.85
2576.14751	32879.25
2578.83819	32830.25
2581.52719	32798.05
2584.21451	32773.55
2586.90015	32708.95
2589.58411	32667.85
2592.2664	32757.55
2594.94701	32653.45
2597.62594	32689.35
2600.30321	32615.25
2602.9788	32585.85
2605.65273	32606.15
2608.32498	32608.45
2610.99557	32604.75
2613.66449	32597.05
2616.33175	32618.05
2618.99734	32611.35
2621.66128	32543.55
2624.32355	32557.05
2626.98416	32551.05
2629.64311	32535.45
2632.30041	32555.15
2634.95605	32476.25
2637.61004	32479.95
2640.26238	32456.55
2642.91306	32426.75
2645.56209	32359.55
2648.20948	32378.65
2650.85521	32380.35
2653.4993	32386.65
2656.14175	32390.55
2658.78255	32453.75
2661.42171	32452.45
2664.05923	32479.45
2666.6951	32478.75
2669.32934	32508.15
2671.96194	32533.55
2674.59291	32556.05
2677.22224	32486.95
2679.84993	32495.55
2682.476	32467.35
2685.10043	32462.15
2687.72324	32426.45
2690.34441	32488.45
2692.96396	32420.95
2695.58188	32501.15
2698.19818	32482.05
2700.81285	32472.65
2703.4259	32418.45
2706.03733	32480.55
2708.64714	32498.95
2711.25533	32532.55
2713.86191	32515.05
2716.46687	32594.55
2719.07021	32564.45
2721.67194	32572.95
2724.27206	32572.15
2726.87057	32613.25
2729.46747	32627.55
2732.06276	32684.05
2734.65644	32697.35
2737.24852	32720.55
2739.83899	32693.15
2742.42786	32691.95
2745.01513	32681.65
2747.60079	32670.85
2750.18486	32609.55
2752.76733	32647.05
2755.3482	32659.45
2757.92747	32659.55
2760.50515	32648.25
2763.08123	32643.35
2765.65573	32613.15
2768.22863	32707.75
2770.79994	32667.35
2773.36967	32634.15
2775.9378	32571.75
2778.50435	32592.85
2781.06932	32575.05
2783.6327	32562.45
2786.1945	32511.25
2788.75471	32521.35
2791.31335	32442.25
2793.87041	32428.65
2796.42589	32332.55
2798.97979	32314.95
2801.53212	32280.45
2804.08288	32193.05
2806.63206	32168.45
2809.17967	32123.45
2811.72571	32037.05
2814.27018	32039.65
2816.81308	31987.05
2819.35442	31963.35
2821.89419	31892.65
2824.43239	31884.75
2826.96904	31838.15
2829.50412	31908.35
2832.03763	31874.05
2834.56959	31832.35
2837.1	31803.85
2839.62884	31781.85
2842.15613	31720.05
2844.68186	31711.05
2847.20604	31712.45
2849.72867	31717.55
2852.24974	31676.25
2854.76927	31669.95
2857.28724	31685.45
2859.80367	31646.35
2862.31855	31602.65
2864.83189	31648.85
2867.34368	31580.05
2869.85393	31645.45
2872.36264	31581.85
2874.8698	31567.65
2877.37543	31607.45
2879.87952	31643.45
2882.38207	31675.15
2884.88308	31663.55
2887.38256	31700.85
2889.88051	31714.55
2892.37692	31782.55
2894.8718	31829.15
2897.36515	31802.75
2899.85698	31800.75
2902.34727	31886.45
2904.83604	31908.05
2907.32328	31940.55
2909.809	31920.25
2912.29319	31902.95
2914.77587	31897.35
2917.25702	31855.85
2919.73665	31850.15
2922.21476	31880.55
2924.69136	31855.75
2927.16644	31817.85
2929.64	31824.05
2932.11205	31768.05
2934.58258	31665.05
2937.05161	31749.15
2939.51912	31772.25
2941.98513	31738.25
2944.44962	31650.75
2946.91261	31509.75
2949.37409	31645.15
2951.83407	31623.05
2954.29254	31601.15
2956.74951	31564.05
2959.20498	31555.35
2961.65895	31538.65
2964.11142	31492.45
2966.56239	31389.65
2969.01186	31415.05
2971.45984	31287.65
2973.90632	31219.55
2976.35131	31145.35
2978.7948	31167.25
2981.23681	31093.35
2983.67732	31031.05
2986.11635	30929.15
2988.55388	30835.25
2990.98993	30821.25
2993.4245	30820.75
2995.85758	30680.75
2998.28917	30620.65
3000.71928	30582.75
3003.14791	30451.45
3005.57506	30438.15
3008.00073	30369.65
3010.42493	30420.05
3012.84764	30387.65
3015.26888	30361.25
3017.68865	30306.45
3020.10694	30287.95
3022.52376	30159.15
3024.9391	30123.85
3027.35298	30115.45
3029.76539	30068.85
3032.17632	30077.65
3034.5858	30005.85
3036.9938	29987.15
3039.40034	29951.65
3041.80542	29909.65
3044.20903	29901.35
3046.61118	29893.25
3049.01187	29784.35
3051.4111	29752.15
3053.80888	29739.75
3056.20519	29669.15
3058.60005	29577.95
3060.99345	29564.05
3063.3854	29523.95
3065.7759	29436.15
3068.16494	29422.65
3070.55254	29289.25
3072.93868	29300.75
3075.32338	29144.85
3077.70662	29085.65
3080.08842	29032.45
3082.46878	29039.65
3084.84769	29010.05
3087.22515	28975.35
3089.60118	29049.05
3091.97576	29024.05
3094.3489	28983.95
3096.72061	28933.45
3099.09087	28919.55
3101.4597	28855.45
3103.82709	28908.75
3106.19305	28836.05
3108.55757	28827.15
3110.92066	28703.05
3113.28232	28738.45
3115.64255	28610.05
3118.00134	28579.45
3120.35871	28463.45
3122.71466	28461.65
3125.06917	28439.15
3127.42226	28395.55
3129.77393	28413.95
3132.12417	28372.05
3134.47299	28394.05
3136.82039	28420.75
3139.16636	28425.05
3141.51092	28379.35
3143.85406	28332.05
3146.19579	28301.05
3148.53609	28295.85
3150.87499	28317.55
3153.21246	28320.55
3155.54853	28345.75
3157.88318	28247.75
3160.21642	28283.15
3162.54826	28258.95
3164.87868	28191.15
3167.2077	28210.65
3169.5353	28226.35
3171.86151	28195.95
3174.18631	28177.05
3176.5097	28148.95
3178.83169	28131.75
3181.15228	28110.15
3183.47147	28046.75
3185.78926	28054.65
3188.10565	28028.75
3190.42065	28023.05
3192.73424	28034.45
3195.04645	28004.05
3197.35725	28029.95
3199.66667	28023.05
3201.97469	28027.95
3204.28132	27940.55
3206.58656	27985.65
3208.8904	27953.05
3211.19287	27922.25
3213.49394	27942.75
3215.79363	27926.85
3218.09193	27910.65
3220.38884	27918.05
3222.68438	27934.35
3224.97853	27894.65
3227.2713	27845.55
3229.56269	27868.35
3231.8527	27863.95
3234.14133	27817.45
3236.42858	27754.35
