Data from AgNP_FTO_APTES_CRN_1000uM_R6G_10uM_NaF_0.1M_Addition_RamanShift__8__20-59-38-273.txt Node

Date: Wed Dec 15 20:59:38 GMT 2021
User: TCL
Spectrometer: QEP01345
Trigger mode: 4
Integration Time (sec): 7.000000E0
Scans to average: 10
Electric dark correction enabled: true
Nonlinearity correction enabled: false
Boxcar width: 0
XAxis mode: Raman Shifts
Number of Pixels in Spectrum: 1044
>>>>>Begin Spectral Data<<<<<
46.04893	0.75
50.45542	-3.25
54.85868	-1.05
59.25871	-0.55
63.6555	60.55
68.04907	67.65
72.43941	68.85
76.82654	75.15
81.21044	77.55
85.59113	80.35
89.96862	81.75
94.34289	81.85
98.71396	89.45
103.08183	91.75
107.4465	91.05
111.80798	94.05
116.16626	98.15
120.52136	100.65
124.87327	103.35
129.222	108.65
133.56755	112.55
137.90993	123.55
142.24913	133.65
146.58517	146.75
150.91804	169.85
155.24774	200.15
159.57429	248.95
163.89768	316.95
168.21792	409.05
172.53501	566.65
176.84895	777.25
181.15975	1092.65
185.46741	1530.25
189.77193	2110.85
194.07331	2831.35
198.37157	3648.85
202.6667	4513.75
206.9587	5373.25
211.24758	6195.45
215.53334	7011.35
219.81599	7877.95
224.09553	8818.85
228.37195	9841.35
232.64527	10980.75
236.91549	12155.05
241.18261	13419.15
245.44663	14564.45
249.70755	15681.05
253.96539	16662.95
258.22014	17500.25
262.4718	18153.85
266.72039	18610.45
270.96589	18865.25
275.20832	18903.65
279.44768	18817.85
283.68397	18696.45
287.91719	18543.35
292.14735	18467.75
296.37445	18447.25
300.59849	18418.25
304.81948	18376.05
309.03742	18246.65
313.25231	18088.65
317.46415	17824.25
321.67296	17472.35
325.87872	17196.45
330.08145	17046.65
334.28114	17062.45
338.47781	17227.55
342.67145	17357.45
346.86207	17559.65
351.04966	17810.65
355.23424	18038.65
359.4158	18224.05
363.59435	18410.95
367.76989	18527.95
371.94243	18622.75
376.11196	18679.05
380.27849	18743.65
384.44203	18866.05
388.60257	19013.95
392.76012	19204.05
396.91468	19435.45
401.06626	19675.45
405.21485	19838.45
409.36047	19842.85
413.50311	19739.15
417.64277	19719.05
421.77947	19767.35
425.9132	19800.45
430.04396	19983.15
434.17176	20092.35
438.2966	20246.35
442.41849	20472.95
446.53742	20784.95
450.6534	21150.05
454.76644	21431.55
458.87653	21606.15
462.98368	21636.65
467.08789	21562.45
471.18916	21492.55
475.2875	21451.65
479.38291	21480.95
483.4754	21393.35
487.56496	21208.35
491.6516	20878.25
495.73531	20597.55
499.81612	20489.25
503.89401	20570.15
507.96899	20632.35
512.04106	20678.25
516.11023	20677.15
520.1765	20547.75
524.23987	20432.15
528.30034	20233.95
532.35792	20086.85
536.41261	19983.15
540.46441	19850.35
544.51333	19933.15
548.55936	20115.95
552.60252	20435.15
556.64279	20836.35
560.6802	21093.35
564.71473	21219.55
568.7464	21501.75
572.7752	21990.75
576.80114	22497.45
580.82422	23005.95
584.84444	23378.25
588.86181	23835.65
592.87633	24140.25
596.888	23891.25
600.89682	23340.05
604.9028	23155.45
608.90594	23725.95
612.90624	24333.55
616.90371	23217.75
620.89834	21084.15
624.89015	20111.95
628.87913	20048.65
632.86528	20134.05
636.84862	20230.65
640.82913	20098.45
644.80683	19827.75
648.78172	19660.05
652.75379	19611.75
656.72306	19690.35
660.68952	19823.25
664.65319	19799.95
668.61405	19650.75
672.57211	19659.85
676.52738	19749.35
680.47986	19812.55
684.42955	19767.55
688.37646	19690.35
692.32058	19753.95
696.26192	19831.35
700.20048	20008.55
704.13626	20092.35
708.06928	20190.05
711.99952	20185.85
715.927	20133.05
719.85171	20140.35
723.77365	19998.55
727.69284	19799.95
731.60928	19625.95
735.52295	19553.45
739.43388	19554.75
743.34206	19605.35
747.24749	19632.55
751.15017	19778.75
755.05012	20001.05
758.94733	20371.75
762.8418	21048.35
766.73354	21955.95
770.62254	22672.05
774.50882	22688.65
778.39237	22011.45
782.27321	21014.55
786.15132	20247.95
790.02671	19732.85
793.89938	19515.55
797.76935	19401.85
801.6366	19395.75
805.50115	19345.45
809.36299	19313.25
813.22213	19205.45
817.07857	19220.15
820.93231	19166.65
824.78336	19062.45
828.63172	19018.65
832.47738	18957.15
836.32036	18978.35
840.16066	18982.55
843.99827	18958.95
847.8332	18950.55
851.66546	18947.05
855.49504	18929.55
859.32195	18956.25
863.1462	18906.95
866.96777	18870.85
870.78668	18880.55
874.60293	18887.85
878.41652	18919.75
882.22745	18960.45
886.03573	18956.55
889.84136	18981.45
893.64433	18974.55
897.44466	18935.75
901.24235	18873.05
905.0374	18812.25
908.8298	18841.85
912.61957	18862.95
916.40671	18998.65
920.19121	19158.75
923.97308	19211.55
927.75233	19148.15
931.52895	18999.45
935.30295	18801.45
939.07433	18571.15
942.84309	18365.25
946.60924	18313.95
950.37278	18252.35
954.13371	18229.55
957.89203	18213.75
961.64774	18206.15
965.40086	18205.85
969.15137	18141.25
972.89929	18047.95
976.64461	17979.75
980.38733	17928.45
984.12747	17958.85
987.86502	17933.65
991.59999	18001.75
995.33237	18089.55
999.06217	18233.65
1002.78939	18431.75
1006.51404	18643.85
1010.23611	18880.75
1013.95561	19073.05
1017.67255	19108.35
1021.38692	18944.75
1025.09872	18788.65
1028.80796	18654.15
1032.51465	18584.05
1036.21877	18626.75
1039.92035	18661.45
1043.61937	18782.35
1047.31584	18866.25
1051.00976	18976.55
1054.70114	19066.25
1058.38998	19244.55
1062.07627	19538.65
1065.76003	19924.65
1069.44126	20335.55
1073.11995	20706.35
1076.79611	20877.85
1080.46974	20730.65
1084.14085	20453.55
1087.80943	20254.85
1091.47549	20232.25
1095.13903	20194.75
1098.80005	20027.45
1102.45857	19744.25
1106.11456	19414.35
1109.76805	19208.15
1113.41903	19171.75
1117.06751	19210.85
1120.71348	19352.75
1124.35696	19508.15
1127.99793	19734.45
1131.63641	19901.55
1135.2724	19827.85
1138.90589	19803.55
1142.5369	19807.25
1146.16542	19891.45
1149.79145	20023.15
1153.415	20251.45
1157.03607	20448.45
1160.65467	20891.05
1164.27079	21538.75
1167.88443	22370.25
1171.49561	23260.35
1175.10432	24343.55
1178.71056	25611.05
1182.31434	26871.05
1185.91565	27475.25
1189.51451	27459.95
1193.11091	27141.95
1196.70485	26540.05
1200.29634	25766.25
1203.88538	25294.35
1207.47197	25031.85
1211.05612	24804.75
1214.63782	24421.95
1218.21708	23887.25
1221.79391	23244.75
1225.36829	22772.95
1228.94024	22480.95
1232.50976	22273.65
1236.07685	22107.25
1239.6415	22070.65
1243.20374	22055.05
1246.76355	22142.95
1250.32093	22355.95
1253.8759	22693.55
1257.42845	23143.85
1260.97859	23634.85
1264.52631	24093.05
1268.07163	24542.55
1271.61453	24990.85
1275.15503	25539.25
1278.69312	26060.55
1282.22882	26594.95
1285.76211	27303.15
1289.29301	28191.35
1292.82151	29266.75
1296.34761	30548.15
1299.87133	31967.65
1303.39266	33254.25
1306.9116	34323.65
1310.42815	35082.45
1313.94233	35402.85
1317.45412	35334.15
1320.96354	35069.25
1324.47058	34969.15
1327.97525	34888.45
1331.47754	34869.05
1334.97747	34846.95
1338.47502	34772.65
1341.97022	34650.95
1345.46305	34449.75
1348.95352	34104.15
1352.44163	33797.15
1355.92738	33778.85
1359.41078	34079.65
1362.89183	34360.05
1366.37053	33850.65
1369.84688	32046.45
1373.32088	29729.95
1376.79254	28058.55
1380.26186	27457.75
1383.72883	27478.25
1387.19347	27561.85
1390.65578	27534.75
1394.11575	27544.55
1397.57339	27734.15
1401.0287	27952.15
1404.48168	28064.25
1407.93234	27821.35
1411.38068	27195.25
1414.82669	26198.25
1418.27039	25206.85
1421.71177	24276.65
1425.15083	23562.35
1428.58758	23191.75
1432.02203	23326.05
1435.45416	23774.45
1438.88399	24364.55
1442.31151	24772.15
1445.73673	25103.25
1449.15965	25361.45
1452.58027	25578.65
1455.9986	25724.45
1459.41463	25911.25
1462.82837	26232.75
1466.23982	26591.75
1469.64898	26827.85
1473.05586	26943.05
1476.46045	26853.65
1479.86276	26672.55
1483.26279	26414.15
1486.66054	26271.55
1490.05602	26311.05
1493.44922	26499.45
1496.84016	26770.75
1500.22882	27228.85
1503.61521	27852.45
1506.99934	28498.55
1510.38121	28999.25
1513.76081	29036.05
1517.13816	28693.65
1520.51324	28265.65
1523.88607	28065.85
1527.25665	28042.95
1530.62498	28122.25
1533.99105	28059.85
1537.35488	27848.55
1540.71647	27302.85
1544.07581	26734.95
1547.4329	26060.25
1550.78776	25519.35
1554.14038	25064.15
1557.49077	24849.25
1560.83892	24696.35
1564.18484	24737.35
1567.52853	24863.15
1570.86999	25305.75
1574.20922	26007.05
1577.54624	26815.55
1580.88103	27229.05
1584.2136	27462.85
1587.54395	27621.85
1590.87208	27979.45
1594.19801	28679.45
1597.52172	29414.75
1600.84321	29480.35
1604.16251	28466.95
1607.47959	26840.35
1610.79447	25078.75
1614.10715	23483.75
1617.41763	22087.25
1620.7259	21156.45
1624.03199	20568.65
1627.33587	20536.85
1630.63757	20898.05
1633.93707	21908.65
1637.23439	23524.75
1640.52951	25835.15
1643.82246	28470.65
1647.11321	30508.85
1650.40179	30782.75
1653.68819	29056.45
1656.97241	26132.55
1660.25446	23171.05
1663.53433	20864.85
1666.81203	19291.35
1670.08756	18296.05
1673.36092	17630.25
1676.63211	17222.65
1679.90115	16891.15
1683.16801	16667.15
1686.43272	16485.45
1689.69527	16360.95
1692.95567	16238.75
1696.2139	16200.45
1699.46999	16166.75
1702.72392	16088.75
1705.97571	16043.75
1709.22535	16001.55
1712.47284	15950.75
1715.71819	15966.05
1718.96139	15900.35
1722.20246	15811.25
1725.44139	15752.15
1728.67818	15670.85
1731.91284	15575.55
1735.14537	15515.65
1738.37576	15445.15
1741.60403	15433.05
1744.83017	15392.95
1748.05418	15370.35
1751.27607	15331.35
1754.49584	15366.25
1757.71349	15321.15
1760.92903	15316.65
1764.14244	15313.25
1767.35375	15293.25
1770.56294	15245.25
1773.77002	15210.25
1776.97499	15178.15
1780.17785	15111.55
1783.37861	15086.55
1786.57727	15066.05
1789.77382	14988.75
1792.96828	14997.65
1796.16064	14964.55
1799.3509	14880.35
1802.53907	14872.95
1805.72514	14807.25
1808.90913	14778.85
1812.09102	14758.25
1815.27083	14716.35
1818.44856	14705.15
1821.6242	14664.35
1824.79776	14671.75
1827.96924	14652.05
1831.13864	14651.25
1834.30597	14648.95
1837.47122	14600.65
1840.6344	14591.95
1843.7955	14594.05
1846.95454	14577.05
1850.11151	14565.95
1853.26642	14570.45
1856.41926	14528.05
1859.57004	14476.45
1862.71876	14500.55
1865.86542	14475.65
1869.01003	14465.35
1872.15258	14453.85
1875.29308	14425.45
1878.43152	14395.45
1881.56792	14377.75
1884.70227	14375.75
1887.83457	14364.25
1890.96482	14339.55
1894.09304	14299.35
1897.21921	14288.55
1900.34335	14282.55
1903.46544	14238.75
1906.58551	14210.25
1909.70353	14202.35
1912.81953	14155.95
1915.93349	14159.35
1919.04543	14113.15
1922.15534	14077.25
1925.26322	14036.15
1928.36908	14028.85
1931.47292	14015.75
1934.57473	13987.65
1937.67453	13914.15
1940.77232	13868.65
1943.86808	13823.85
1946.96184	13820.15
1950.05358	13790.05
1953.14331	13736.05
1956.23103	13693.85
1959.31675	13655.65
1962.40046	13620.15
1965.48217	13603.05
1968.56188	13551.95
1971.63959	13487.75
1974.7153	13454.85
1977.78901	13406.55
1980.86073	13357.45
1983.93046	13350.65
1986.99819	13270.85
1990.06394	13279.25
1993.1277	13206.85
1996.18947	13155.25
1999.24925	13110.85
2002.30706	13100.15
2005.36288	13012.35
2008.41672	12986.55
2011.46859	12955.15
2014.51848	12956.55
2017.56639	12895.05
2020.61233	12858.55
2023.6563	12836.55
2026.6983	12796.45
2029.73833	12804.75
2032.7764	12733.45
2035.8125	12719.25
2038.84664	12652.35
2041.87881	12643.15
2044.90903	12638.25
2047.93729	12600.25
2050.96359	12602.65
2053.98794	12567.05
2057.01034	12548.95
2060.03078	12559.75
2063.04927	12494.15
2066.06582	12508.45
2069.08042	12509.65
2072.09307	12504.35
2075.10378	12482.45
2078.11255	12461.45
2081.11938	12469.15
2084.12426	12442.65
2087.12722	12425.15
2090.12824	12416.45
2093.12732	12429.55
2096.12447	12423.65
2099.11969	12440.65
2102.11299	12443.65
2105.10435	12449.35
2108.09379	12417.25
2111.08131	12424.95
2114.0669	12429.45
2117.05057	12423.25
2120.03233	12441.95
2123.01216	12449.25
2125.99008	12455.95
2128.96609	12446.85
2131.94018	12498.15
2134.91236	12489.35
2137.88263	12478.25
2140.851	12490.65
2143.81746	12466.25
2146.78201	12447.05
2149.74466	12489.85
2152.7054	12490.35
2155.66425	12474.65
2158.6212	12514.15
2161.57625	12505.85
2164.52941	12463.55
2167.48067	12453.95
2170.43004	12444.75
2173.37752	12453.55
2176.32311	12414.55
2179.26681	12446.65
2182.20863	12442.85
2185.14856	12419.05
2188.08661	12381.25
2191.02278	12362.05
2193.95707	12348.75
2196.88948	12353.25
2199.82001	12344.05
2202.74867	12341.55
2205.67545	12308.55
2208.60037	12298.95
2211.52341	12306.25
2214.44458	12267.15
2217.36388	12217.25
2220.28132	12185.55
2223.1969	12149.95
2226.11061	12140.95
2229.02246	12153.15
2231.93245	12101.55
2234.84058	12108.05
2237.74686	12067.35
2240.65128	12062.05
2243.55385	12014.05
2246.45456	12021.25
2249.35343	11983.35
2252.25044	11960.55
2255.14561	11924.75
2258.03893	11920.65
2260.93041	11881.35
2263.82004	11851.75
2266.70783	11846.15
2269.59378	11800.05
2272.4779	11776.25
2275.36017	11740.45
2278.24061	11709.15
2281.11922	11652.75
2283.996	11648.95
2286.87094	11650.85
2289.74405	11624.25
2292.61534	11621.55
2295.4848	11584.85
2298.35243	11586.85
2301.21824	11538.65
2304.08223	11525.45
2306.94439	11518.25
2309.80474	11487.65
2312.66327	11509.45
2315.51999	11478.75
2318.37489	11487.55
2321.22797	11477.25
2324.07925	11474.85
2326.92871	11447.15
2329.77637	11456.75
2332.62222	11422.05
2335.46626	11386.75
2338.3085	11363.75
2341.14893	11370.65
2343.98756	11340.85
2346.8244	11321.05
2349.65943	11317.45
2352.49267	11321.65
2355.32411	11320.35
2358.15376	11317.35
2360.98161	11303.75
2363.80768	11268.35
2366.63195	11265.95
2369.45444	11245.05
2372.27514	11231.35
2375.09405	11229.75
2377.91118	11201.65
2380.72652	11169.45
2383.54009	11154.65
2386.35187	11153.85
2389.16188	11116.75
2391.97011	11091.95
2394.77657	11075.15
2397.58125	11039.95
2400.38416	11022.35
2403.18529	11010.25
2405.98466	10983.85
2408.78226	10970.95
2411.57809	10960.55
2414.37216	10934.75
2417.16446	10907.45
2419.955	10913.15
2422.74378	10881.45
2425.5308	10858.95
2428.31606	10872.35
2431.09956	10855.15
2433.88131	10823.45
2436.6613	10835.65
2439.43954	10832.15
2442.21603	10805.35
2444.99077	10785.05
2447.76377	10794.55
2450.53501	10768.05
2453.30451	10758.55
2456.07226	10713.95
2458.83827	10749.05
2461.60254	10739.95
2464.36507	10741.25
2467.12586	10702.35
2469.88492	10684.45
2472.64224	10675.95
2475.39782	10655.15
2478.15167	10694.65
2480.90379	10679.35
2483.65417	10661.75
2486.40283	10643.25
2489.14976	10664.55
2491.89497	10656.45
2494.63845	10656.25
2497.3802	10625.55
2500.12024	10610.65
2502.85855	10580.95
2505.59514	10587.55
2508.33002	10574.35
2511.06318	10588.25
2513.79462	10564.35
2516.52435	10547.05
2519.25237	10509.95
2521.97867	10519.65
2524.70327	10514.35
2527.42616	10484.65
2530.14734	10462.95
2532.86681	10448.75
2535.58458	10453.65
2538.30065	10463.25
2541.01501	10449.95
2543.72768	10417.65
2546.43864	10411.25
2549.14791	10386.85
2551.85548	10346.25
2554.56136	10354.35
2557.26554	10309.75
2559.96803	10309.65
2562.66883	10286.85
2565.36794	10268.65
2568.06536	10257.75
2570.7611	10253.85
2573.45514	10253.15
2576.14751	10231.85
2578.83819	10228.55
2581.52719	10174.85
2584.21451	10170.35
2586.90015	10181.35
2589.58411	10126.35
2592.2664	10099.95
2594.94701	10078.75
2597.62594	10090.45
2600.30321	10069.25
2602.9788	10057.25
2605.65273	10027.05
2608.32498	10024.15
2610.99557	10022.85
2613.66449	9999.85
2616.33175	9994.35
2618.99734	9997.15
2621.66128	9962.15
2624.32355	9953.95
2626.98416	9957.65
2629.64311	9946.05
2632.30041	9925.35
2634.95605	9931.55
2637.61004	9923.35
2640.26238	9900.55
2642.91306	9887.55
2645.56209	9888.65
2648.20948	9872.65
2650.85521	9867.65
2653.4993	9881.85
2656.14175	9869.65
2658.78255	9876.65
2661.42171	9856.75
2664.05923	9860.25
2666.6951	9845.15
2669.32934	9851.95
2671.96194	9834.75
2674.59291	9854.45
2677.22224	9860.05
2679.84993	9851.05
2682.476	9833.45
2685.10043	9827.15
2687.72324	9815.25
2690.34441	9832.55
2692.96396	9831.05
2695.58188	9826.15
2698.19818	9820.25
2700.81285	9843.75
2703.4259	9823.75
2706.03733	9872.55
2708.64714	9838.65
2711.25533	9854.55
2713.86191	9834.55
2716.46687	9861.15
2719.07021	9823.75
2721.67194	9832.25
2724.27206	9822.05
2726.87057	9810.65
2729.46747	9815.65
2732.06276	9822.15
2734.65644	9811.55
2737.24852	9798.15
2739.83899	9777.25
2742.42786	9792.75
2745.01513	9755.75
2747.60079	9758.25
2750.18486	9755.45
2752.76733	9737.35
2755.3482	9741.45
2757.92747	9724.25
2760.50515	9699.75
2763.08123	9694.75
2765.65573	9686.85
2768.22863	9685.75
2770.79994	9687.95
2773.36967	9693.15
2775.9378	9667.25
2778.50435	9667.85
2781.06932	9597.05
2783.6327	9621.85
2786.1945	9612.65
2788.75471	9558.95
2791.31335	9553.85
2793.87041	9563.05
2796.42589	9546.95
2798.97979	9523.55
2801.53212	9493.65
2804.08288	9476.95
2806.63206	9436.05
2809.17967	9434.35
2811.72571	9404.65
2814.27018	9381.25
2816.81308	9396.65
2819.35442	9383.35
2821.89419	9353.45
2824.43239	9319.45
2826.96904	9312.55
2829.50412	9298.45
2832.03763	9311.85
2834.56959	9314.25
2837.1	9285.55
2839.62884	9300.15
2842.15613	9299.35
2844.68186	9332.75
2847.20604	9338.55
2849.72867	9328.55
2852.24974	9320.55
2854.76927	9325.55
2857.28724	9295.85
2859.80367	9287.95
2862.31855	9285.45
2864.83189	9250.55
2867.34368	9251.05
2869.85393	9236.75
2872.36264	9216.45
2874.8698	9213.55
2877.37543	9211.85
2879.87952	9220.75
2882.38207	9216.55
2884.88308	9198.75
2887.38256	9205.05
2889.88051	9187.25
2892.37692	9191.15
2894.8718	9174.15
2897.36515	9185.45
2899.85698	9186.65
2902.34727	9208.85
2904.83604	9225.95
2907.32328	9240.35
2909.809	9207.75
2912.29319	9207.65
2914.77587	9197.45
2917.25702	9205.15
2919.73665	9185.05
2922.21476	9206.15
2924.69136	9178.85
2927.16644	9207.25
2929.64	9174.95
2932.11205	9162.35
2934.58258	9136.85
2937.05161	9174.75
2939.51912	9180.55
2941.98513	9152.95
2944.44962	9118.45
2946.91261	9083.95
2949.37409	9092.95
2951.83407	9079.35
2954.29254	9047.85
2956.74951	9031.95
2959.20498	9017.15
2961.65895	8988.05
2964.11142	9018.95
2966.56239	8960.35
2969.01186	8937.05
2971.45984	8934.85
2973.90632	8929.95
2976.35131	8894.95
2978.7948	8888.25
2981.23681	8877.55
2983.67732	8855.75
2986.11635	8822.65
2988.55388	8799.85
2990.98993	8785.85
2993.4245	8742.35
2995.85758	8726.65
2998.28917	8708.45
3000.71928	8678.35
3003.14791	8665.05
3005.57506	8675.05
3008.00073	8643.75
3010.42493	8649.05
3012.84764	8612.65
3015.26888	8601.05
3017.68865	8593.15
3020.10694	8580.05
3022.52376	8555.95
3024.9391	8544.65
3027.35298	8542.35
3029.76539	8548.65
3032.17632	8532.15
3034.5858	8519.85
3036.9938	8493.15
3039.40034	8501.65
3041.80542	8493.45
3044.20903	8473.45
3046.61118	8466.45
3049.01187	8428.65
3051.4111	8421.75
3053.80888	8403.75
3056.20519	8387.75
3058.60005	8402.25
3060.99345	8372.45
3063.3854	8367.05
3065.7759	8359.95
3068.16494	8348.95
3070.55254	8323.05
3072.93868	8306.35
3075.32338	8264.05
3077.70662	8256.95
3080.08842	8230.85
3082.46878	8228.75
3084.84769	8209.35
3087.22515	8213.35
3089.60118	8200.15
3091.97576	8229.65
3094.3489	8226.25
3096.72061	8219.25
3099.09087	8216.15
3101.4597	8178.55
3103.82709	8203.15
3106.19305	8197.35
3108.55757	8151.35
3110.92066	8142.15
3113.28232	8146.05
3115.64255	8106.55
3118.00134	8101.65
3120.35871	8101.35
3122.71466	8087.25
3125.06917	8085.75
3127.42226	8063.85
3129.77393	8056.05
3132.12417	8074.35
3134.47299	8055.95
3136.82039	8066.65
3139.16636	8067.35
3141.51092	8085.95
3143.85406	8070.35
3146.19579	8090.95
3148.53609	8080.95
3150.87499	8072.45
3153.21246	8075.35
3155.54853	8087.85
3157.88318	8085.95
3160.21642	8088.95
3162.54826	8076.65
3164.87868	8082.05
3167.2077	8082.65
3169.5353	8078.25
3171.86151	8098.15
3174.18631	8100.35
3176.5097	8094.25
3178.83169	8062.95
3181.15228	8081.25
3183.47147	8072.95
3185.78926	8081.05
3188.10565	8062.55
3190.42065	8055.25
3192.73424	8054.45
3195.04645	8038.15
3197.35725	8040.15
3199.66667	8056.15
3201.97469	8052.85
3204.28132	8035.25
3206.58656	8045.65
3208.8904	8034.75
3211.19287	8037.95
3213.49394	8035.25
3215.79363	8037.95
3218.09193	8056.05
3220.38884	8047.45
3222.68438	8056.05
3224.97853	8038.55
3227.2713	8033.35
3229.56269	8008.25
3231.8527	8011.65
3234.14133	8004.05
3236.42858	7998.95
3238.71446	7953.45
3240.99896	7962.85
3243.28209	7937.35
3245.56384	7969.75
3247.84423	7952.75
3250.12324	7942.95
3252.40088	7918.75
3254.67715	7934.05
3256.95205	7896.45
3259.22558	7913.45
3261.49775	7896.65
3263.76855	7879.55
3266.03799	7852.65
3268.30606	7834.35
3270.57277	7831.25
