Data from AgNP_FTO_APTES_CRN_20uM_R6G_10uM_NaF_0.1M_Addition_RamanShift__27__17-31-58-038.txt Node

Date: Wed Dec 15 17:31:58 GMT 2021
User: TCL
Spectrometer: QEP01345
Trigger mode: 4
Integration Time (sec): 7.000000E0
Scans to average: 10
Electric dark correction enabled: true
Nonlinearity correction enabled: false
Boxcar width: 0
XAxis mode: Raman Shifts
Number of Pixels in Spectrum: 1044
>>>>>Begin Spectral Data<<<<<
46.04893	1.475
50.45542	-0.925
54.85868	-1.425
59.25871	-1.325
63.6555	62.675
68.04907	69.375
72.43941	76.675
76.82654	75.075
81.21044	78.275
85.59113	81.275
89.96862	86.575
94.34289	84.175
98.71396	91.075
103.08183	95.175
107.4465	97.575
111.80798	98.375
116.16626	101.475
120.52136	104.175
124.87327	102.675
129.222	110.675
133.56755	114.875
137.90993	121.375
142.24913	133.275
146.58517	146.075
150.91804	164.475
155.24774	197.375
159.57429	237.475
163.89768	304.275
168.21792	388.075
172.53501	541.875
176.84895	745.775
181.15975	1040.575
185.46741	1452.975
189.77193	1999.575
194.07331	2683.475
198.37157	3448.575
202.6667	4266.575
206.9587	5081.375
211.24758	5884.675
215.53334	6659.175
219.81599	7516.475
224.09553	8440.875
228.37195	9477.075
232.64527	10614.175
236.91549	11832.975
241.18261	13054.475
245.44663	14186.275
249.70755	15183.975
253.96539	16087.875
258.22014	16848.075
262.4718	17497.075
266.72039	17981.375
270.96589	18252.975
275.20832	18323.375
279.44768	18240.675
283.68397	18043.775
287.91719	17902.775
292.14735	17821.075
296.37445	17856.475
300.59849	17903.175
304.81948	17987.875
309.03742	18003.675
313.25231	17821.275
317.46415	17376.275
321.67296	16918.175
325.87872	16458.375
330.08145	16281.575
334.28114	16282.575
338.47781	16438.875
342.67145	16676.575
346.86207	16978.975
351.04966	17395.375
355.23424	17855.375
359.4158	18264.675
363.59435	18489.775
367.76989	18627.575
371.94243	18754.175
376.11196	18777.875
380.27849	18846.075
384.44203	18897.875
388.60257	18928.375
392.76012	19077.875
396.91468	19269.375
401.06626	19602.675
405.21485	19841.375
409.36047	19781.475
413.50311	19461.275
417.64277	19151.175
421.77947	19039.975
425.9132	19050.475
430.04396	19133.275
434.17176	19316.675
438.2966	19464.075
442.41849	19756.975
446.53742	20222.775
450.6534	20685.875
454.76644	21132.975
458.87653	21268.075
462.98368	21252.175
467.08789	21064.175
471.18916	20769.775
475.2875	20499.275
479.38291	20308.875
483.4754	20125.875
487.56496	19884.475
491.6516	19670.675
495.73531	19449.275
499.81612	19409.875
503.89401	19503.175
507.96899	19585.675
512.04106	19654.575
516.11023	19702.075
520.1765	19740.475
524.23987	19728.675
528.30034	19610.175
532.35792	19410.975
536.41261	19199.575
540.46441	18937.475
544.51333	18864.975
548.55936	18981.875
552.60252	19249.075
556.64279	19573.575
560.6802	19748.975
564.71473	19807.575
568.7464	20015.175
572.7752	20281.375
576.80114	20389.875
580.82422	20475.575
584.84444	20602.675
588.86181	20818.375
592.87633	21153.275
596.888	21535.175
600.89682	21833.275
604.9028	22601.975
608.90594	24607.575
612.90624	26913.875
616.90371	25755.575
620.89834	21781.175
624.89015	19937.075
628.87913	19699.875
632.86528	19724.175
636.84862	19689.475
640.82913	19450.475
644.80683	18959.475
648.78172	18646.475
652.75379	18579.575
656.72306	18787.475
660.68952	19107.075
664.65319	19095.475
668.61405	18762.875
672.57211	18648.275
676.52738	18600.075
680.47986	18638.275
684.42955	18590.875
688.37646	18619.975
692.32058	18612.575
696.26192	18780.775
700.20048	18982.675
704.13626	19078.975
708.06928	19045.775
711.99952	18926.375
715.927	18878.375
719.85171	18878.275
723.77365	18834.875
727.69284	18691.375
731.60928	18583.475
735.52295	18519.675
739.43388	18555.175
743.34206	18590.275
747.24749	18668.575
751.15017	18820.875
755.05012	19067.675
758.94733	19492.775
762.8418	20404.775
766.73354	21841.075
770.62254	23303.175
774.50882	23800.875
778.39237	22877.575
782.27321	21240.875
786.15132	19880.375
790.02671	19049.675
793.89938	18657.175
797.76935	18515.875
801.6366	18500.375
805.50115	18439.575
809.36299	18364.475
813.22213	18290.675
817.07857	18270.175
820.93231	18269.975
824.78336	18277.875
828.63172	18313.875
832.47738	18353.675
836.32036	18387.875
840.16066	18439.075
843.99827	18450.375
847.8332	18385.275
851.66546	18304.975
855.49504	18243.175
859.32195	18235.075
863.1462	18181.175
866.96777	18147.175
870.78668	18071.475
874.60293	18094.375
878.41652	18087.075
882.22745	18156.075
886.03573	18171.575
889.84136	18166.275
893.64433	18034.175
897.44466	18005.875
901.24235	17970.475
905.0374	17946.575
908.8298	17931.775
912.61957	17983.375
916.40671	18091.175
920.19121	18219.275
923.97308	18424.375
927.75233	18493.375
931.52895	18469.575
935.30295	18337.675
939.07433	18072.875
942.84309	17832.175
946.60924	17701.975
950.37278	17667.775
954.13371	17577.275
957.89203	17487.975
961.64774	17444.575
965.40086	17364.375
969.15137	17334.675
972.89929	17249.075
976.64461	17207.475
980.38733	17232.575
984.12747	17321.275
987.86502	17430.375
991.59999	17629.775
995.33237	17936.275
999.06217	18393.375
1002.78939	18891.875
1006.51404	19202.275
1010.23611	19422.075
1013.95561	19575.375
1017.67255	19530.675
1021.38692	19355.675
1025.09872	19223.375
1028.80796	19386.675
1032.51465	19873.375
1036.21877	20338.175
1039.92035	20412.475
1043.61937	20212.175
1047.31584	19769.175
1051.00976	19368.275
1054.70114	19103.275
1058.38998	19149.175
1062.07627	19318.775
1065.76003	19583.775
1069.44126	19963.175
1073.11995	20384.275
1076.79611	20807.075
1080.46974	20912.175
1084.14085	20795.075
1087.80943	20561.875
1091.47549	20334.875
1095.13903	20000.375
1098.80005	19584.575
1102.45857	19222.275
1106.11456	19017.275
1109.76805	18965.775
1113.41903	19078.475
1117.06751	19264.375
1120.71348	19427.375
1124.35696	19670.075
1127.99793	19933.475
1131.63641	20033.975
1135.2724	19827.575
1138.90589	19574.775
1142.5369	19418.875
1146.16542	19278.275
1149.79145	19224.775
1153.415	19296.175
1157.03607	19453.975
1160.65467	19799.575
1164.27079	20343.375
1167.88443	21178.875
1171.49561	22285.575
1175.10432	23930.075
1178.71056	25969.175
1182.31434	27670.775
1185.91565	28480.675
1189.51451	28254.875
1193.11091	27294.975
1196.70485	25937.275
1200.29634	24791.475
1203.88538	23939.575
1207.47197	23351.675
1211.05612	22815.575
1214.63782	22452.675
1218.21708	22298.975
1221.79391	22211.875
1225.36829	22232.275
1228.94024	22133.275
1232.50976	21895.075
1236.07685	21761.475
1239.6415	21703.675
1243.20374	21734.575
1246.76355	21874.975
1250.32093	22142.975
1253.8759	22558.375
1257.42845	23116.775
1260.97859	23555.075
1264.52631	24012.475
1268.07163	24419.575
1271.61453	24968.375
1275.15503	25577.175
1278.69312	26194.575
1282.22882	26692.475
1285.76211	27128.075
1289.29301	27676.475
1292.82151	28364.375
1296.34761	29274.475
1299.87133	30519.275
1303.39266	32078.175
1306.9116	34006.875
1310.42815	35994.775
1313.94233	37286.475
1317.45412	37384.875
1320.96354	36586.475
1324.47058	35530.975
1327.97525	34525.275
1331.47754	33820.375
1334.97747	33571.075
1338.47502	33697.675
1341.97022	33895.775
1345.46305	33903.775
1348.95352	33714.175
1352.44163	33785.075
1355.92738	34603.675
1359.41078	36503.375
1362.89183	38450.075
1366.37053	38070.675
1369.84688	34938.075
1373.32088	31378.975
1376.79254	28834.075
1380.26186	27620.975
1383.72883	27157.575
1387.19347	26893.675
1390.65578	26496.075
1394.11575	26309.775
1397.57339	26452.575
1401.0287	26892.875
1404.48168	27353.775
1407.93234	27630.175
1411.38068	27683.675
1414.82669	27257.575
1418.27039	26441.675
1421.71177	25531.675
1425.15083	24756.575
1428.58758	24291.275
1432.02203	24232.375
1435.45416	24488.675
1438.88399	24840.675
1442.31151	25151.975
1445.73673	25455.975
1449.15965	25769.075
1452.58027	25958.675
1455.9986	25978.975
1459.41463	26095.275
1462.82837	26453.475
1466.23982	26959.075
1469.64898	27428.975
1473.05586	27793.375
1476.46045	27883.375
1479.86276	27924.275
1483.26279	27875.175
1486.66054	27910.675
1490.05602	28078.475
1493.44922	28390.375
1496.84016	28659.175
1500.22882	29192.775
1503.61521	30032.875
1506.99934	31232.675
1510.38121	32396.075
1513.76081	32984.875
1517.13816	32357.575
1520.51324	30878.675
1523.88607	29347.875
1527.25665	28194.975
1530.62498	27593.075
1533.99105	27254.675
1537.35488	27025.175
1540.71647	26833.575
1544.07581	26629.375
1547.4329	26289.075
1550.78776	26014.675
1554.14038	25758.275
1557.49077	25774.875
1560.83892	25823.375
1564.18484	25978.975
1567.52853	26213.975
1570.86999	26509.475
1574.20922	27071.175
1577.54624	27665.175
1580.88103	28025.275
1584.2136	28037.375
1587.54395	28060.575
1590.87208	28273.075
1594.19801	29163.775
1597.52172	30460.275
1600.84321	30938.875
1604.16251	30003.075
1607.47959	28142.475
1610.79447	26089.575
1614.10715	24225.475
1617.41763	22718.275
1620.7259	21743.475
1624.03199	21239.575
1627.33587	21227.875
1630.63757	21689.575
1633.93707	22626.675
1637.23439	24060.075
1640.52951	26013.075
1643.82246	28162.675
1647.11321	30009.375
1650.40179	30634.975
1653.68819	29286.075
1656.97241	26399.575
1660.25446	23345.975
1663.53433	21100.075
1666.81203	19536.375
1670.08756	18630.275
1673.36092	18010.275
1676.63211	17589.275
1679.90115	17319.475
1683.16801	17081.575
1686.43272	16956.575
1689.69527	16866.875
1692.95567	16738.275
1696.2139	16740.775
1699.46999	16706.875
1702.72392	16657.575
1705.97571	16634.075
1709.22535	16598.775
1712.47284	16552.575
1715.71819	16537.375
1718.96139	16516.475
1722.20246	16487.075
1725.44139	16452.875
1728.67818	16349.075
1731.91284	16283.175
1735.14537	16202.675
1738.37576	16147.075
1741.60403	16095.975
1744.83017	16088.875
1748.05418	16074.275
1751.27607	16031.075
1754.49584	15995.875
1757.71349	15988.275
1760.92903	15968.275
1764.14244	16000.175
1767.35375	15994.075
1770.56294	15961.375
1773.77002	15970.975
1776.97499	15925.375
1780.17785	15906.975
1783.37861	15909.775
1786.57727	15848.975
1789.77382	15832.575
1792.96828	15821.375
1796.16064	15799.575
1799.3509	15757.275
1802.53907	15735.675
1805.72514	15716.775
1808.90913	15704.475
1812.09102	15653.775
1815.27083	15609.175
1818.44856	15609.275
1821.6242	15582.475
1824.79776	15568.675
1827.96924	15574.175
1831.13864	15559.675
1834.30597	15568.775
1837.47122	15582.975
1840.6344	15545.575
1843.7955	15559.675
1846.95454	15506.175
1850.11151	15539.075
1853.26642	15538.275
1856.41926	15540.875
1859.57004	15539.175
1862.71876	15519.475
1865.86542	15532.775
1869.01003	15490.375
1872.15258	15517.975
1875.29308	15491.075
1878.43152	15490.375
1881.56792	15493.375
1884.70227	15440.575
1887.83457	15459.475
1890.96482	15429.675
1894.09304	15445.575
1897.21921	15462.775
1900.34335	15417.475
1903.46544	15411.875
1906.58551	15427.875
1909.70353	15407.275
1912.81953	15390.975
1915.93349	15360.575
1919.04543	15379.275
1922.15534	15326.075
1925.26322	15304.375
1928.36908	15272.775
1931.47292	15255.275
1934.57473	15219.975
1937.67453	15160.475
1940.77232	15122.675
1943.86808	15097.675
1946.96184	15043.575
1950.05358	15029.575
1953.14331	14955.275
1956.23103	14936.375
1959.31675	14920.575
1962.40046	14835.175
1965.48217	14817.775
1968.56188	14771.975
1971.63959	14736.975
1974.7153	14682.375
1977.78901	14634.575
1980.86073	14607.375
1983.93046	14536.775
1986.99819	14529.275
1990.06394	14514.475
1993.1277	14429.675
1996.18947	14363.775
1999.24925	14355.175
2002.30706	14315.675
2005.36288	14260.475
2008.41672	14264.175
2011.46859	14197.075
2014.51848	14148.875
2017.56639	14131.375
2020.61233	14075.275
2023.6563	14057.275
2026.6983	14071.575
2029.73833	14058.475
2032.7764	14017.875
2035.8125	13980.675
2038.84664	13943.875
2041.87881	13941.775
2044.90903	13903.075
2047.93729	13891.375
2050.96359	13892.575
2053.98794	13892.475
2057.01034	13876.175
2060.03078	13839.075
2063.04927	13822.675
2066.06582	13811.275
2069.08042	13804.275
2072.09307	13788.875
2075.10378	13771.675
2078.11255	13753.175
2081.11938	13760.575
2084.12426	13748.075
2087.12722	13745.675
2090.12824	13772.475
2093.12732	13765.475
2096.12447	13790.275
2099.11969	13761.375
2102.11299	13750.175
2105.10435	13782.975
2108.09379	13778.775
2111.08131	13806.275
2114.0669	13818.775
2117.05057	13800.175
2120.03233	13796.675
2123.01216	13818.575
2125.99008	13829.475
2128.96609	13845.375
2131.94018	13866.375
2134.91236	13849.275
2137.88263	13879.275
2140.851	13896.575
2143.81746	13922.375
2146.78201	13901.175
2149.74466	13914.975
2152.7054	13936.375
2155.66425	13945.675
2158.6212	13962.875
2161.57625	13925.375
2164.52941	13910.375
2167.48067	13907.475
2170.43004	13907.575
2173.37752	13898.575
2176.32311	13900.275
2179.26681	13895.975
2182.20863	13898.475
2185.14856	13907.675
2188.08661	13899.375
2191.02278	13904.575
2193.95707	13916.975
2196.88948	13869.675
2199.82001	13880.175
2202.74867	13884.975
2205.67545	13880.875
2208.60037	13910.175
2211.52341	13855.975
2214.44458	13857.275
2217.36388	13812.075
2220.28132	13811.875
2223.1969	13759.875
2226.11061	13782.675
2229.02246	13787.575
2231.93245	13721.975
2234.84058	13678.975
2237.74686	13660.975
2240.65128	13691.975
2243.55385	13640.675
2246.45456	13602.475
2249.35343	13602.775
2252.25044	13588.075
2255.14561	13578.675
2258.03893	13556.475
2260.93041	13561.075
2263.82004	13537.075
2266.70783	13499.675
2269.59378	13485.475
2272.4779	13459.175
2275.36017	13409.175
2278.24061	13368.175
2281.11922	13353.875
2283.996	13335.775
2286.87094	13319.975
2289.74405	13295.475
2292.61534	13259.575
2295.4848	13278.475
2298.35243	13301.175
2301.21824	13275.575
2304.08223	13280.975
2306.94439	13303.875
2309.80474	13289.175
2312.66327	13290.375
2315.51999	13307.375
2318.37489	13281.375
2321.22797	13263.275
2324.07925	13263.075
2326.92871	13264.375
2329.77637	13243.675
2332.62222	13238.975
2335.46626	13224.075
2338.3085	13225.975
2341.14893	13219.075
2343.98756	13216.275
2346.8244	13217.675
2349.65943	13214.775
2352.49267	13207.075
2355.32411	13212.775
2358.15376	13201.975
2360.98161	13186.475
2363.80768	13174.575
2366.63195	13144.475
2369.45444	13136.275
2372.27514	13106.775
2375.09405	13068.275
2377.91118	13055.775
2380.72652	13040.675
2383.54009	13031.375
2386.35187	12998.675
2389.16188	12961.375
2391.97011	12954.475
2394.77657	12925.975
2397.58125	12918.075
2400.38416	12924.575
2403.18529	12851.675
2405.98466	12877.975
2408.78226	12832.675
2411.57809	12823.775
2414.37216	12801.975
2417.16446	12772.675
2419.955	12751.875
2422.74378	12741.975
2425.5308	12717.875
2428.31606	12715.375
2431.09956	12702.475
2433.88131	12675.875
2436.6613	12696.275
2439.43954	12685.575
2442.21603	12696.875
2444.99077	12684.775
2447.76377	12678.075
2450.53501	12636.675
2453.30451	12645.275
2456.07226	12630.975
2458.83827	12622.375
2461.60254	12637.875
2464.36507	12606.975
2467.12586	12606.675
2469.88492	12627.575
2472.64224	12599.975
2475.39782	12614.275
2478.15167	12636.575
2480.90379	12642.375
2483.65417	12677.075
2486.40283	12655.075
2489.14976	12644.175
2491.89497	12648.875
2494.63845	12662.575
2497.3802	12666.275
2500.12024	12660.775
2502.85855	12654.375
2505.59514	12627.875
2508.33002	12626.275
2511.06318	12619.175
2513.79462	12619.075
2516.52435	12581.675
2519.25237	12567.675
2521.97867	12564.675
2524.70327	12549.975
2527.42616	12539.075
2530.14734	12543.775
2532.86681	12513.675
2535.58458	12502.475
2538.30065	12494.375
2541.01501	12526.775
2543.72768	12484.575
2546.43864	12477.475
2549.14791	12452.975
2551.85548	12428.275
2554.56136	12416.275
2557.26554	12404.675
2559.96803	12413.775
2562.66883	12385.175
2565.36794	12381.575
2568.06536	12390.575
2570.7611	12392.275
2573.45514	12373.875
2576.14751	12333.275
2578.83819	12319.175
2581.52719	12347.175
2584.21451	12338.275
2586.90015	12339.975
2589.58411	12282.675
2592.2664	12318.775
2594.94701	12293.075
2597.62594	12289.675
2600.30321	12250.475
2602.9788	12253.375
2605.65273	12234.575
2608.32498	12229.475
2610.99557	12221.575
2613.66449	12231.075
2616.33175	12210.775
2618.99734	12249.575
2621.66128	12237.875
2624.32355	12198.475
2626.98416	12219.675
2629.64311	12234.375
2632.30041	12251.575
2634.95605	12227.175
2637.61004	12203.575
2640.26238	12190.275
2642.91306	12191.975
2645.56209	12167.075
2648.20948	12167.675
2650.85521	12165.275
2653.4993	12125.175
2656.14175	12137.775
2658.78255	12119.875
2661.42171	12136.375
2664.05923	12145.075
2666.6951	12150.575
2669.32934	12154.375
2671.96194	12154.175
2674.59291	12160.975
2677.22224	12148.075
2679.84993	12163.175
2682.476	12160.575
2685.10043	12171.175
2687.72324	12150.775
2690.34441	12147.475
2692.96396	12131.375
2695.58188	12144.175
2698.19818	12111.975
2700.81285	12164.275
2703.4259	12147.175
2706.03733	12209.175
2708.64714	12166.475
2711.25533	12178.375
2713.86191	12177.875
2716.46687	12182.575
2719.07021	12177.775
2721.67194	12171.875
2724.27206	12155.075
2726.87057	12182.275
2729.46747	12159.475
2732.06276	12185.475
2734.65644	12188.475
2737.24852	12197.375
2739.83899	12172.275
2742.42786	12178.875
2745.01513	12148.975
2747.60079	12135.975
2750.18486	12150.375
2752.76733	12149.575
2755.3482	12153.775
2757.92747	12140.475
2760.50515	12121.875
2763.08123	12110.875
2765.65573	12092.575
2768.22863	12094.675
2770.79994	12091.575
2773.36967	12091.675
2775.9378	12092.275
2778.50435	12072.775
2781.06932	12034.875
2783.6327	12043.475
2786.1945	12049.575
2788.75471	12023.575
2791.31335	11988.275
2793.87041	11967.775
2796.42589	11970.175
2798.97979	11942.075
2801.53212	11944.975
2804.08288	11917.475
2806.63206	11888.175
2809.17967	11853.875
2811.72571	11837.075
2814.27018	11853.375
2816.81308	11819.475
2819.35442	11840.575
2821.89419	11825.175
2824.43239	11819.375
2826.96904	11802.575
2829.50412	11815.475
2832.03763	11769.275
2834.56959	11753.775
2837.1	11736.675
2839.62884	11761.675
2842.15613	11742.175
2844.68186	11746.875
2847.20604	11753.475
2849.72867	11758.475
2852.24974	11724.975
2854.76927	11720.975
2857.28724	11724.475
2859.80367	11718.975
2862.31855	11694.875
2864.83189	11681.475
2867.34368	11655.575
2869.85393	11690.575
2872.36264	11673.175
2874.8698	11694.275
2877.37543	11677.175
2879.87952	11679.075
2882.38207	11680.175
2884.88308	11693.775
2887.38256	11690.775
2889.88051	11677.975
2892.37692	11691.875
2894.8718	11696.875
2897.36515	11699.675
2899.85698	11682.775
2902.34727	11679.075
2904.83604	11712.075
2907.32328	11729.875
2909.809	11734.275
2912.29319	11746.475
2914.77587	11719.775
2917.25702	11745.075
2919.73665	11725.275
2922.21476	11727.175
2924.69136	11713.575
2927.16644	11695.875
2929.64	11695.575
2932.11205	11697.375
2934.58258	11647.275
2937.05161	11664.875
2939.51912	11680.975
2941.98513	11680.075
2944.44962	11636.275
2946.91261	11600.875
2949.37409	11637.175
2951.83407	11615.175
2954.29254	11636.975
2956.74951	11568.575
2959.20498	11589.575
2961.65895	11578.775
2964.11142	11622.475
2966.56239	11551.575
2969.01186	11557.575
2971.45984	11495.675
2973.90632	11454.675
2976.35131	11459.075
2978.7948	11417.675
2981.23681	11408.075
2983.67732	11403.275
2986.11635	11385.675
2988.55388	11356.775
2990.98993	11369.275
2993.4245	11312.575
2995.85758	11310.675
2998.28917	11284.575
3000.71928	11247.175
3003.14791	11239.175
3005.57506	11237.475
3008.00073	11212.875
3010.42493	11228.475
3012.84764	11188.475
3015.26888	11172.075
3017.68865	11162.275
3020.10694	11127.175
3022.52376	11134.175
3024.9391	11124.775
3027.35298	11116.375
3029.76539	11116.375
3032.17632	11102.575
3034.5858	11102.675
3036.9938	11082.575
3039.40034	11044.275
3041.80542	11053.675
3044.20903	11027.475
3046.61118	11024.075
3049.01187	11024.675
3051.4111	10991.075
3053.80888	10965.175
3056.20519	10956.375
3058.60005	10936.475
3060.99345	10910.975
3063.3854	10892.975
3065.7759	10860.575
3068.16494	10840.175
3070.55254	10821.375
3072.93868	10812.675
3075.32338	10798.575
3077.70662	10726.275
3080.08842	10697.175
3082.46878	10720.575
3084.84769	10697.175
3087.22515	10692.375
3089.60118	10694.275
3091.97576	10722.875
3094.3489	10709.875
3096.72061	10679.075
3099.09087	10733.675
3101.4597	10687.675
3103.82709	10685.475
3106.19305	10649.675
3108.55757	10652.675
3110.92066	10634.275
3113.28232	10613.475
3115.64255	10576.975
3118.00134	10572.375
3120.35871	10574.675
3122.71466	10554.575
3125.06917	10534.175
3127.42226	10515.575
3129.77393	10528.175
