Data from AgNP_FTO_APTES_CRN_0uM_R6G_10uM_NaF_0.1M_Addition_RamanShift__3__11-33-12-897.txt Node

Date: Wed Dec 15 11:33:12 GMT 2021
User: TCL
Spectrometer: QEP01345
Trigger mode: 4
Integration Time (sec): 7.000000E0
Scans to average: 10
Electric dark correction enabled: true
Nonlinearity correction enabled: false
Boxcar width: 0
XAxis mode: Raman Shifts
Number of Pixels in Spectrum: 1044
>>>>>Begin Spectral Data<<<<<
46.04893	0.6375
50.45542	-1.3625
54.85868	-0.7625
59.25871	0.3375
63.6555	80.1375
68.04907	89.6375
72.43941	96.4375
76.82654	103.3375
81.21044	108.4375
85.59113	114.6375
89.96862	122.8375
94.34289	123.0375
98.71396	130.7375
103.08183	140.0375
107.4465	139.9375
111.80798	135.1375
116.16626	138.3375
120.52136	138.5375
124.87327	135.5375
129.222	134.4375
133.56755	128.8375
137.90993	132.0375
142.24913	134.1375
146.58517	135.2375
150.91804	140.3375
155.24774	144.6375
159.57429	160.6375
163.89768	176.6375
168.21792	201.5375
172.53501	237.8375
176.84895	296.8375
181.15975	381.6375
185.46741	515.8375
189.77193	691.0375
194.07331	927.8375
198.37157	1196.2375
202.6667	1503.8375
206.9587	1806.0375
211.24758	2111.7375
215.53334	2427.8375
219.81599	2749.1375
224.09553	3114.7375
228.37195	3485.0375
232.64527	3880.5375
236.91549	4284.1375
241.18261	4682.1375
245.44663	5015.0375
249.70755	5319.5375
253.96539	5548.4375
258.22014	5683.9375
262.4718	5739.9375
266.72039	5717.2375
270.96589	5613.8375
275.20832	5447.9375
279.44768	5250.1375
283.68397	5042.4375
287.91719	4859.1375
292.14735	4686.7375
296.37445	4557.5375
300.59849	4445.9375
304.81948	4390.9375
309.03742	4328.9375
313.25231	4288.2375
317.46415	4243.2375
321.67296	4174.8375
325.87872	4128.4375
330.08145	4083.4375
334.28114	4076.6375
338.47781	4040.1375
342.67145	3992.4375
346.86207	3939.4375
351.04966	3904.6375
355.23424	3862.1375
359.4158	3828.5375
363.59435	3785.3375
367.76989	3733.8375
371.94243	3687.5375
376.11196	3652.9375
380.27849	3620.2375
384.44203	3594.0375
388.60257	3586.3375
392.76012	3559.2375
396.91468	3566.4375
401.06626	3573.0375
405.21485	3600.2375
409.36047	3596.0375
413.50311	3575.3375
417.64277	3571.9375
421.77947	3561.0375
425.9132	3559.3375
430.04396	3597.4375
434.17176	3632.0375
438.2966	3660.4375
442.41849	3679.9375
446.53742	3724.5375
450.6534	3744.9375
454.76644	3759.3375
458.87653	3768.8375
462.98368	3801.0375
467.08789	3781.8375
471.18916	3809.9375
475.2875	3787.1375
479.38291	3791.6375
483.4754	3793.1375
487.56496	3793.8375
491.6516	3819.0375
495.73531	3840.7375
499.81612	3851.7375
503.89401	3921.8375
507.96899	3940.2375
512.04106	3986.8375
516.11023	4005.5375
520.1765	4026.8375
524.23987	4043.2375
528.30034	4000.8375
532.35792	3978.3375
536.41261	3952.3375
540.46441	3926.9375
544.51333	3930.7375
548.55936	3936.2375
552.60252	3975.5375
556.64279	4015.4375
560.6802	4049.8375
564.71473	4033.3375
568.7464	4018.5375
572.7752	3979.7375
576.80114	3909.6375
580.82422	3870.9375
584.84444	3862.4375
588.86181	3875.0375
592.87633	3939.0375
596.888	4073.7375
600.89682	4268.5375
604.9028	4597.1375
608.90594	4984.4375
612.90624	5348.4375
616.90371	5262.9375
620.89834	4677.7375
624.89015	4161.6375
628.87913	3900.4375
632.86528	3763.3375
636.84862	3704.6375
640.82913	3664.9375
644.80683	3631.6375
648.78172	3604.9375
652.75379	3607.8375
656.72306	3641.8375
660.68952	3686.1375
664.65319	3692.5375
668.61405	3678.6375
672.57211	3674.7375
676.52738	3675.4375
680.47986	3702.4375
684.42955	3711.1375
688.37646	3717.9375
692.32058	3715.6375
696.26192	3716.3375
700.20048	3744.4375
704.13626	3768.3375
708.06928	3799.7375
711.99952	3819.6375
715.927	3848.7375
719.85171	3882.0375
723.77365	3900.2375
727.69284	3935.9375
731.60928	3959.8375
735.52295	3987.1375
739.43388	3981.3375
743.34206	3946.3375
747.24749	3948.1375
751.15017	3944.4375
755.05012	3970.9375
758.94733	3993.7375
762.8418	4046.0375
766.73354	4142.7375
770.62254	4265.0375
774.50882	4335.1375
778.39237	4289.2375
782.27321	4139.0375
786.15132	4005.2375
790.02671	3917.6375
793.89938	3892.4375
797.76935	3885.9375
801.6366	3890.1375
805.50115	3876.6375
809.36299	3855.4375
813.22213	3830.4375
817.07857	3813.6375
820.93231	3796.5375
824.78336	3787.8375
828.63172	3775.6375
832.47738	3771.8375
836.32036	3788.9375
840.16066	3803.9375
843.99827	3811.7375
847.8332	3816.7375
851.66546	3821.8375
855.49504	3795.3375
859.32195	3781.2375
863.1462	3801.4375
866.96777	3801.0375
870.78668	3809.6375
874.60293	3842.1375
878.41652	3847.8375
882.22745	3911.7375
886.03573	3967.4375
889.84136	4064.6375
893.64433	4175.7375
897.44466	4283.5375
901.24235	4409.8375
905.0374	4555.8375
908.8298	4734.7375
912.61957	4962.3375
916.40671	5206.1375
920.19121	5464.6375
923.97308	5671.8375
927.75233	5752.6375
931.52895	5713.5375
935.30295	5542.7375
939.07433	5300.8375
942.84309	5048.1375
946.60924	4827.9375
950.37278	4672.6375
954.13371	4529.4375
957.89203	4376.9375
961.64774	4219.2375
965.40086	4094.9375
969.15137	3977.5375
972.89929	3920.5375
976.64461	3838.6375
980.38733	3781.4375
984.12747	3770.3375
987.86502	3772.7375
991.59999	3801.7375
995.33237	3844.1375
999.06217	3919.1375
1002.78939	3975.6375
1006.51404	4034.6375
1010.23611	4068.9375
1013.95561	4028.6375
1017.67255	4007.7375
1021.38692	3949.9375
1025.09872	3909.6375
1028.80796	3880.8375
1032.51465	3889.9375
1036.21877	3943.6375
1039.92035	4020.7375
1043.61937	4076.3375
1047.31584	4145.8375
1051.00976	4231.0375
1054.70114	4310.9375
1058.38998	4367.6375
1062.07627	4437.0375
1065.76003	4459.1375
1069.44126	4451.1375
1073.11995	4428.6375
1076.79611	4423.7375
1080.46974	4399.2375
1084.14085	4346.8375
1087.80943	4298.8375
1091.47549	4216.9375
1095.13903	4137.5375
1098.80005	4049.9375
1102.45857	3979.8375
1106.11456	3923.0375
1109.76805	3890.3375
1113.41903	3873.5375
1117.06751	3854.2375
1120.71348	3872.1375
1124.35696	3852.9375
1127.99793	3851.1375
1131.63641	3837.5375
1135.2724	3757.9375
1138.90589	3679.7375
1142.5369	3600.0375
1146.16542	3529.8375
1149.79145	3459.1375
1153.415	3406.8375
1157.03607	3370.3375
1160.65467	3351.3375
1164.27079	3372.1375
1167.88443	3426.3375
1171.49561	3533.9375
1175.10432	3719.9375
1178.71056	3982.8375
1182.31434	4297.1375
1185.91565	4580.6375
1189.51451	4740.4375
1193.11091	4717.2375
1196.70485	4576.3375
1200.29634	4362.7375
1203.88538	4109.0375
1207.47197	3873.4375
1211.05612	3688.7375
1214.63782	3560.7375
1218.21708	3524.4375
1221.79391	3535.4375
1225.36829	3583.3375
1228.94024	3661.5375
1232.50976	3664.7375
1236.07685	3642.6375
1239.6415	3596.2375
1243.20374	3521.2375
1246.76355	3470.7375
1250.32093	3473.9375
1253.8759	3461.4375
1257.42845	3518.5375
1260.97859	3559.3375
1264.52631	3629.2375
1268.07163	3714.3375
1271.61453	3756.5375
1275.15503	3820.4375
1278.69312	3891.2375
1282.22882	3959.4375
1285.76211	4055.2375
1289.29301	4160.6375
1292.82151	4274.2375
1296.34761	4337.7375
1299.87133	4365.6375
1303.39266	4389.8375
1306.9116	4441.0375
1310.42815	4470.4375
1313.94233	4456.8375
1317.45412	4358.1375
1320.96354	4206.9375
1324.47058	4077.1375
1327.97525	3988.1375
1331.47754	3936.1375
1334.97747	3945.9375
1338.47502	3983.7375
1341.97022	4048.5375
1345.46305	4133.0375
1348.95352	4286.2375
1352.44163	4468.9375
1355.92738	4697.0375
1359.41078	4967.5375
1362.89183	5231.3375
1366.37053	5297.3375
1369.84688	5048.4375
1373.32088	4740.7375
1376.79254	4506.1375
1380.26186	4368.8375
1383.72883	4304.1375
1387.19347	4261.4375
1390.65578	4231.4375
1394.11575	4188.6375
1397.57339	4135.5375
1401.0287	4092.0375
1404.48168	4058.1375
1407.93234	4032.4375
1411.38068	3987.9375
1414.82669	3975.4375
1418.27039	3906.8375
1421.71177	3855.0375
1425.15083	3789.2375
1428.58758	3718.8375
1432.02203	3689.3375
1435.45416	3654.5375
1438.88399	3676.9375
1442.31151	3701.9375
1445.73673	3726.4375
1449.15965	3725.4375
1452.58027	3709.9375
1455.9986	3663.0375
1459.41463	3629.2375
1462.82837	3603.9375
1466.23982	3608.4375
1469.64898	3631.2375
1473.05586	3655.3375
1476.46045	3661.3375
1479.86276	3696.0375
1483.26279	3719.8375
1486.66054	3751.3375
1490.05602	3754.4375
1493.44922	3775.8375
1496.84016	3769.4375
1500.22882	3849.0375
1503.61521	3950.8375
1506.99934	4072.4375
1510.38121	4196.5375
1513.76081	4225.7375
1517.13816	4125.9375
1520.51324	3920.8375
1523.88607	3724.0375
1527.25665	3563.7375
1530.62498	3492.9375
1533.99105	3456.5375
1537.35488	3417.4375
1540.71647	3388.9375
1544.07581	3375.2375
1547.4329	3367.7375
1550.78776	3353.4375
1554.14038	3358.2375
1557.49077	3350.3375
1560.83892	3330.3375
1564.18484	3342.6375
1567.52853	3346.9375
1570.86999	3356.2375
1574.20922	3371.4375
1577.54624	3369.6375
1580.88103	3350.9375
1584.2136	3284.0375
1587.54395	3211.0375
1590.87208	3172.5375
1594.19801	3141.0375
1597.52172	3158.0375
1600.84321	3156.2375
1604.16251	3128.5375
1607.47959	3112.8375
1610.79447	3074.0375
1614.10715	3056.6375
1617.41763	3028.8375
1620.7259	3012.0375
1624.03199	3019.6375
1627.33587	3021.3375
1630.63757	3019.8375
1633.93707	3015.1375
1637.23439	3025.1375
1640.52951	3040.3375
1643.82246	3079.3375
1647.11321	3138.6375
1650.40179	3178.2375
1653.68819	3140.1375
1656.97241	3012.2375
1660.25446	2827.3375
1663.53433	2662.8375
1666.81203	2564.0375
1670.08756	2468.4375
1673.36092	2430.7375
1676.63211	2377.3375
1679.90115	2356.0375
1683.16801	2308.6375
1686.43272	2281.2375
1689.69527	2264.1375
1692.95567	2243.2375
1696.2139	2230.5375
1699.46999	2193.6375
1702.72392	2181.0375
1705.97571	2172.7375
1709.22535	2163.1375
1712.47284	2141.3375
1715.71819	2122.2375
1718.96139	2118.6375
1722.20246	2095.7375
1725.44139	2080.2375
1728.67818	2067.2375
1731.91284	2065.3375
1735.14537	2037.5375
1738.37576	2022.6375
1741.60403	2013.0375
1744.83017	2007.2375
1748.05418	1988.4375
1751.27607	1978.4375
1754.49584	1974.8375
1757.71349	1978.2375
1760.92903	1956.5375
1764.14244	1955.5375
1767.35375	1944.2375
1770.56294	1934.9375
1773.77002	1936.1375
1776.97499	1939.6375
1780.17785	1944.4375
1783.37861	1932.8375
1786.57727	1932.3375
1789.77382	1926.0375
1792.96828	1915.0375
1796.16064	1915.4375
1799.3509	1902.3375
1802.53907	1906.5375
1805.72514	1895.4375
1808.90913	1881.5375
1812.09102	1881.8375
1815.27083	1887.3375
1818.44856	1882.6375
1821.6242	1880.3375
1824.79776	1870.2375
1827.96924	1879.6375
1831.13864	1865.7375
1834.30597	1862.0375
1837.47122	1856.9375
1840.6344	1857.3375
1843.7955	1854.1375
1846.95454	1847.7375
1850.11151	1851.1375
1853.26642	1840.3375
1856.41926	1835.3375
1859.57004	1827.6375
1862.71876	1827.6375
1865.86542	1829.2375
1869.01003	1812.7375
1872.15258	1803.6375
1875.29308	1803.5375
1878.43152	1803.2375
1881.56792	1809.1375
1884.70227	1781.8375
1887.83457	1794.1375
1890.96482	1790.6375
1894.09304	1773.9375
1897.21921	1781.6375
1900.34335	1772.7375
1903.46544	1763.7375
1906.58551	1754.8375
1909.70353	1760.7375
1912.81953	1765.4375
1915.93349	1751.8375
1919.04543	1752.9375
1922.15534	1742.5375
1925.26322	1747.8375
1928.36908	1734.3375
1931.47292	1734.6375
1934.57473	1724.1375
1937.67453	1715.7375
1940.77232	1705.5375
1943.86808	1702.8375
1946.96184	1700.7375
1950.05358	1693.7375
1953.14331	1690.8375
1956.23103	1680.4375
1959.31675	1680.2375
1962.40046	1675.1375
1965.48217	1662.2375
1968.56188	1657.0375
1971.63959	1666.8375
1974.7153	1650.5375
1977.78901	1650.5375
1980.86073	1643.5375
1983.93046	1636.3375
1986.99819	1634.4375
1990.06394	1623.1375
1993.1277	1634.2375
1996.18947	1617.8375
1999.24925	1605.1375
2002.30706	1594.9375
2005.36288	1602.4375
2008.41672	1594.6375
2011.46859	1594.5375
2014.51848	1588.1375
2017.56639	1574.5375
2020.61233	1577.7375
2023.6563	1565.0375
2026.6983	1560.2375
2029.73833	1559.6375
2032.7764	1548.0375
2035.8125	1547.6375
2038.84664	1535.1375
2041.87881	1540.2375
2044.90903	1532.4375
2047.93729	1526.2375
2050.96359	1522.5375
2053.98794	1519.2375
2057.01034	1527.1375
2060.03078	1524.9375
2063.04927	1514.6375
2066.06582	1516.9375
2069.08042	1521.0375
2072.09307	1513.5375
2075.10378	1513.4375
2078.11255	1510.9375
2081.11938	1522.9375
2084.12426	1515.2375
2087.12722	1518.1375
2090.12824	1512.4375
2093.12732	1511.4375
2096.12447	1515.7375
2099.11969	1512.2375
2102.11299	1517.9375
2105.10435	1500.1375
2108.09379	1501.9375
2111.08131	1506.9375
2114.0669	1506.5375
2117.05057	1498.5375
2120.03233	1502.8375
2123.01216	1505.1375
2125.99008	1502.8375
2128.96609	1507.6375
2131.94018	1508.5375
2134.91236	1494.4375
2137.88263	1497.7375
2140.851	1498.7375
2143.81746	1491.3375
2146.78201	1495.2375
2149.74466	1499.9375
2152.7054	1491.3375
2155.66425	1496.1375
2158.6212	1487.0375
2161.57625	1491.2375
2164.52941	1489.1375
2167.48067	1489.0375
2170.43004	1486.6375
2173.37752	1478.9375
2176.32311	1473.9375
2179.26681	1472.4375
2182.20863	1475.4375
2185.14856	1469.8375
2188.08661	1473.4375
2191.02278	1477.7375
2193.95707	1473.7375
2196.88948	1470.8375
2199.82001	1480.3375
2202.74867	1464.0375
2205.67545	1467.0375
2208.60037	1456.0375
2211.52341	1460.3375
2214.44458	1455.7375
2217.36388	1447.2375
2220.28132	1453.8375
2223.1969	1446.4375
2226.11061	1438.1375
2229.02246	1439.7375
2231.93245	1427.9375
2234.84058	1422.0375
2237.74686	1422.7375
2240.65128	1428.9375
2243.55385	1416.7375
2246.45456	1414.2375
2249.35343	1408.0375
2252.25044	1410.9375
2255.14561	1406.0375
2258.03893	1401.1375
2260.93041	1395.7375
2263.82004	1399.2375
2266.70783	1390.3375
2269.59378	1387.0375
2272.4779	1376.9375
2275.36017	1384.3375
2278.24061	1380.3375
2281.11922	1371.1375
2283.996	1370.3375
2286.87094	1368.9375
2289.74405	1358.3375
2292.61534	1359.6375
2295.4848	1351.9375
2298.35243	1361.5375
2301.21824	1346.9375
2304.08223	1349.8375
2306.94439	1344.3375
2309.80474	1338.6375
2312.66327	1345.5375
2315.51999	1342.6375
2318.37489	1342.9375
2321.22797	1327.7375
2324.07925	1333.1375
2326.92871	1330.9375
2329.77637	1327.7375
2332.62222	1333.1375
2335.46626	1324.9375
2338.3085	1317.5375
2341.14893	1321.9375
2343.98756	1312.1375
2346.8244	1315.6375
2349.65943	1305.3375
2352.49267	1301.9375
2355.32411	1303.7375
2358.15376	1307.7375
2360.98161	1314.5375
2363.80768	1303.9375
2366.63195	1299.1375
2369.45444	1303.3375
2372.27514	1295.2375
2375.09405	1302.8375
2377.91118	1288.3375
2380.72652	1295.0375
2383.54009	1295.2375
2386.35187	1292.4375
2389.16188	1282.4375
2391.97011	1283.9375
2394.77657	1273.1375
2397.58125	1273.0375
2400.38416	1274.3375
2403.18529	1273.8375
2405.98466	1255.8375
2408.78226	1263.8375
2411.57809	1266.5375
2414.37216	1251.0375
2417.16446	1253.7375
2419.955	1261.9375
2422.74378	1245.6375
2425.5308	1244.7375
2428.31606	1243.1375
2431.09956	1237.2375
2433.88131	1237.8375
2436.6613	1235.7375
2439.43954	1233.4375
2442.21603	1224.8375
2444.99077	1218.9375
2447.76377	1223.7375
2450.53501	1223.5375
2453.30451	1211.0375
2456.07226	1217.4375
2458.83827	1207.0375
2461.60254	1204.5375
2464.36507	1206.5375
2467.12586	1210.7375
2469.88492	1204.2375
2472.64224	1202.9375
2475.39782	1195.3375
2478.15167	1198.6375
2480.90379	1199.6375
2483.65417	1200.1375
2486.40283	1194.0375
2489.14976	1200.8375
2491.89497	1191.6375
2494.63845	1190.3375
2497.3802	1189.5375
2500.12024	1188.4375
2502.85855	1185.4375
2505.59514	1184.4375
2508.33002	1174.0375
2511.06318	1176.3375
2513.79462	1169.6375
2516.52435	1169.9375
2519.25237	1174.6375
2521.97867	1173.4375
2524.70327	1165.7375
2527.42616	1158.4375
2530.14734	1165.9375
2532.86681	1163.0375
2535.58458	1150.9375
2538.30065	1160.1375
2541.01501	1150.9375
2543.72768	1153.8375
2546.43864	1147.3375
2549.14791	1145.1375
2551.85548	1144.1375
2554.56136	1146.0375
2557.26554	1136.8375
2559.96803	1135.9375
2562.66883	1139.4375
2565.36794	1141.2375
2568.06536	1131.9375
2570.7611	1132.1375
2573.45514	1134.2375
2576.14751	1132.3375
2578.83819	1131.9375
2581.52719	1125.9375
2584.21451	1128.1375
2586.90015	1129.3375
2589.58411	1112.1375
2592.2664	1113.9375
2594.94701	1115.4375
2597.62594	1112.8375
2600.30321	1111.5375
2602.9788	1109.1375
2605.65273	1103.7375
2608.32498	1102.7375
2610.99557	1097.1375
2613.66449	1104.8375
2616.33175	1097.1375
2618.99734	1098.7375
2621.66128	1097.5375
2624.32355	1094.5375
2626.98416	1096.9375
2629.64311	1095.7375
2632.30041	1090.1375
2634.95605	1102.3375
2637.61004	1098.3375
2640.26238	1091.9375
2642.91306	1099.2375
2645.56209	1095.1375
2648.20948	1088.5375
2650.85521	1100.5375
2653.4993	1097.9375
2656.14175	1102.0375
2658.78255	1100.0375
2661.42171	1096.9375
2664.05923	1096.0375
2666.6951	1093.3375
2669.32934	1105.5375
2671.96194	1101.9375
2674.59291	1104.2375
2677.22224	1100.0375
2679.84993	1103.2375
2682.476	1098.0375
2685.10043	1097.4375
2687.72324	1101.0375
2690.34441	1101.8375
2692.96396	1103.2375
2695.58188	1100.4375
2698.19818	1102.1375
2700.81285	1110.3375
2703.4259	1106.7375
2706.03733	1093.3375
2708.64714	1106.9375
2711.25533	1107.5375
2713.86191	1109.6375
2716.46687	1112.0375
2719.07021	1119.9375
2721.67194	1112.6375
2724.27206	1118.5375
2726.87057	1114.5375
2729.46747	1122.2375
2732.06276	1123.8375
2734.65644	1128.4375
2737.24852	1129.0375
2739.83899	1126.1375
2742.42786	1136.7375
2745.01513	1137.2375
2747.60079	1147.7375
2750.18486	1149.2375
2752.76733	1162.3375
2755.3482	1163.9375
2757.92747	1166.6375
2760.50515	1185.3375
2763.08123	1178.7375
2765.65573	1179.1375
2768.22863	1189.2375
2770.79994	1193.9375
2773.36967	1185.6375
2775.9378	1180.8375
2778.50435	1181.0375
2781.06932	1191.5375
2783.6327	1189.6375
2786.1945	1194.9375
2788.75471	1200.6375
2791.31335	1206.4375
2793.87041	1212.5375
2796.42589	1202.5375
2798.97979	1215.6375
2801.53212	1211.8375
2804.08288	1216.2375
2806.63206	1214.9375
2809.17967	1212.8375
2811.72571	1196.1375
2814.27018	1203.2375
2816.81308	1192.0375
2819.35442	1197.4375
2821.89419	1189.5375
2824.43239	1185.9375
2826.96904	1176.5375
2829.50412	1181.4375
2832.03763	1171.4375
2834.56959	1187.3375
2837.1	1186.0375
2839.62884	1195.8375
2842.15613	1215.1375
2844.68186	1224.2375
2847.20604	1242.4375
2849.72867	1269.2375
2852.24974	1291.6375
2854.76927	1328.0375
2857.28724	1363.4375
2859.80367	1385.9375
2862.31855	1424.2375
2864.83189	1456.1375
2867.34368	1497.6375
2869.85393	1531.9375
2872.36264	1572.0375
2874.8698	1600.3375
2877.37543	1628.6375
2879.87952	1671.4375
2882.38207	1695.3375
2884.88308	1732.3375
2887.38256	1738.9375
2889.88051	1764.5375
2892.37692	1791.7375
2894.8718	1802.3375
2897.36515	1802.5375
2899.85698	1809.2375
2902.34727	1811.2375
2904.83604	1808.6375
2907.32328	1811.8375
2909.809	1800.0375
2912.29319	1810.4375
2914.77587	1805.8375
2917.25702	1820.3375
2919.73665	1813.0375
2922.21476	1820.9375
2924.69136	1831.7375
2927.16644	1828.5375
2929.64	1831.6375
2932.11205	1817.1375
2934.58258	1809.2375
2937.05161	1811.5375
2939.51912	1779.4375
2941.98513	1755.5375
2944.44962	1726.2375
2946.91261	1698.5375
2949.37409	1656.7375
2951.83407	1615.2375
2954.29254	1577.7375
2956.74951	1539.1375
2959.20498	1514.8375
2961.65895	1481.5375
2964.11142	1448.6375
2966.56239	1421.1375
2969.01186	1401.0375
2971.45984	1364.3375
2973.90632	1348.8375
2976.35131	1312.5375
2978.7948	1284.1375
2981.23681	1268.2375
2983.67732	1250.4375
2986.11635	1230.4375
2988.55388	1205.3375
2990.98993	1192.3375
2993.4245	1184.6375
2995.85758	1165.1375
2998.28917	1162.8375
3000.71928	1148.7375
3003.14791	1146.9375
3005.57506	1152.2375
3008.00073	1153.8375
3010.42493	1131.4375
3012.84764	1125.3375
3015.26888	1127.2375
3017.68865	1114.3375
3020.10694	1117.9375
3022.52376	1111.0375
3024.9391	1113.6375
3027.35298	1108.9375
3029.76539	1102.2375
3032.17632	1102.2375
3034.5858	1099.5375
3036.9938	1098.3375
3039.40034	1100.9375
3041.80542	1103.5375
3044.20903	1101.8375
3046.61118	1108.6375
3049.01187	1103.5375
3051.4111	1096.2375
3053.80888	1100.9375
3056.20519	1109.0375
3058.60005	1112.5375
3060.99345	1114.7375
3063.3854	1112.9375
3065.7759	1114.8375
3068.16494	1112.1375
3070.55254	1127.9375
3072.93868	1124.6375
3075.32338	1126.3375
3077.70662	1122.8375
3080.08842	1129.5375
3082.46878	1131.4375
3084.84769	1149.5375
3087.22515	1145.4375
3089.60118	1157.1375
3091.97576	1152.8375
3094.3489	1160.4375
3096.72061	1166.0375
3099.09087	1166.5375
3101.4597	1174.5375
3103.82709	1189.6375
3106.19305	1196.1375
3108.55757	1198.5375
3110.92066	1204.8375
3113.28232	1213.6375
3115.64255	1213.9375
3118.00134	1215.4375
3120.35871	1223.8375
3122.71466	1225.1375
3125.06917	1240.6375
