Data from AgNP_FTO_APTES_CRN_200uM_R6G_10uM_NaF_0.1M_Addition_RamanShift__32__19-54-18-199.txt Node

Date: Wed Dec 15 19:54:18 GMT 2021
User: TCL
Spectrometer: QEP01345
Trigger mode: 4
Integration Time (sec): 7.000000E0
Scans to average: 10
Electric dark correction enabled: true
Nonlinearity correction enabled: false
Boxcar width: 0
XAxis mode: Raman Shifts
Number of Pixels in Spectrum: 1044
>>>>>Begin Spectral Data<<<<<
46.04893	0.1875
50.45542	-1.2125
54.85868	-0.5125
59.25871	-0.7125
63.6555	53.4875
68.04907	56.7875
72.43941	61.0875
76.82654	64.7875
81.21044	63.3875
85.59113	72.1875
89.96862	73.8875
94.34289	68.6875
98.71396	75.9875
103.08183	82.2875
107.4465	82.0875
111.80798	83.1875
116.16626	84.7875
120.52136	84.7875
124.87327	84.4875
129.222	90.4875
133.56755	95.3875
137.90993	99.9875
142.24913	109.6875
146.58517	120.1875
150.91804	136.4875
155.24774	159.9875
159.57429	193.8875
163.89768	249.9875
168.21792	317.9875
172.53501	428.9875
176.84895	595.2875
181.15975	822.9875
185.46741	1158.2875
189.77193	1579.5875
194.07331	2126.0875
198.37157	2713.6875
202.6667	3372.7875
206.9587	4012.6875
211.24758	4646.6875
215.53334	5308.6875
219.81599	5995.4875
224.09553	6792.3875
228.37195	7641.8875
232.64527	8597.2875
236.91549	9581.3875
241.18261	10470.8875
245.44663	11268.2875
249.70755	11918.8875
253.96539	12525.5875
258.22014	13043.4875
262.4718	13485.6875
266.72039	13817.7875
270.96589	13957.5875
275.20832	13964.2875
279.44768	13883.5875
283.68397	13691.0875
287.91719	13576.5875
292.14735	13570.9875
296.37445	13764.7875
300.59849	14056.1875
304.81948	14416.9875
309.03742	14700.7875
313.25231	14672.1875
317.46415	14150.5875
321.67296	13336.2875
325.87872	12675.3875
330.08145	12339.9875
334.28114	12369.0875
338.47781	12498.2875
342.67145	12811.6875
346.86207	13172.7875
351.04966	13800.9875
355.23424	14500.4875
359.4158	14995.8875
363.59435	15258.2875
367.76989	15353.0875
371.94243	15370.9875
376.11196	15304.1875
380.27849	15273.9875
384.44203	15196.4875
388.60257	15030.9875
392.76012	14993.3875
396.91468	15137.4875
401.06626	15462.1875
405.21485	15702.4875
409.36047	15517.5875
413.50311	14946.6875
417.64277	14399.4875
421.77947	14104.4875
425.9132	13993.3875
430.04396	14034.6875
434.17176	14141.9875
438.2966	14350.7875
442.41849	14714.8875
446.53742	15134.1875
450.6534	15568.7875
454.76644	15830.3875
458.87653	15874.8875
462.98368	15719.1875
467.08789	15514.3875
471.18916	15243.0875
475.2875	14968.7875
479.38291	14716.9875
483.4754	14513.2875
487.56496	14326.1875
491.6516	14165.8875
495.73531	14083.0875
499.81612	14092.8875
503.89401	14220.7875
507.96899	14365.7875
512.04106	14555.5875
516.11023	14806.2875
520.1765	14993.0875
524.23987	14999.2875
528.30034	14866.4875
532.35792	14660.9875
536.41261	14419.1875
540.46441	14152.5875
544.51333	14024.9875
548.55936	14107.1875
552.60252	14344.8875
556.64279	14662.7875
560.6802	14816.0875
564.71473	14972.2875
568.7464	15348.6875
572.7752	15603.6875
576.80114	15327.9875
580.82422	14911.3875
584.84444	14732.3875
588.86181	14842.1875
592.87633	15055.8875
596.888	15311.0875
600.89682	15607.4875
604.9028	16732.8875
608.90594	19994.4875
612.90624	24190.3875
616.90371	23328.3875
620.89834	17653.3875
624.89015	14956.4875
628.87913	14427.3875
632.86528	14434.6875
636.84862	14577.5875
640.82913	14417.2875
644.80683	14032.1875
648.78172	13762.6875
652.75379	13821.7875
656.72306	14230.6875
660.68952	14702.0875
664.65319	14618.7875
668.61405	14130.8875
672.57211	13901.7875
676.52738	13896.2875
680.47986	13913.2875
684.42955	13863.6875
688.37646	13802.6875
692.32058	13879.1875
696.26192	13993.5875
700.20048	14141.8875
704.13626	14208.7875
708.06928	14182.5875
711.99952	14054.4875
715.927	14015.9875
719.85171	14035.0875
723.77365	13983.9875
727.69284	13872.1875
731.60928	13748.3875
735.52295	13759.2875
739.43388	13790.5875
743.34206	13808.0875
747.24749	13838.9875
751.15017	13891.7875
755.05012	14098.3875
758.94733	14579.6875
762.8418	15764.2875
766.73354	17628.2875
770.62254	19634.6875
774.50882	20616.2875
778.39237	19783.8875
782.27321	17664.5875
786.15132	15671.4875
790.02671	14469.7875
793.89938	13990.5875
797.76935	13758.6875
801.6366	13649.5875
805.50115	13591.3875
809.36299	13544.0875
813.22213	13478.5875
817.07857	13502.7875
820.93231	13536.7875
824.78336	13567.8875
828.63172	13613.3875
832.47738	13630.1875
836.32036	13655.4875
840.16066	13617.2875
843.99827	13532.8875
847.8332	13508.2875
851.66546	13470.1875
855.49504	13471.8875
859.32195	13452.6875
863.1462	13416.5875
866.96777	13344.0875
870.78668	13336.8875
874.60293	13303.9875
878.41652	13380.5875
882.22745	13413.0875
886.03573	13456.3875
889.84136	13424.3875
893.64433	13331.3875
897.44466	13318.4875
901.24235	13326.7875
905.0374	13299.9875
908.8298	13280.2875
912.61957	13278.6875
916.40671	13335.0875
920.19121	13406.2875
923.97308	13485.7875
927.75233	13586.0875
931.52895	13673.2875
935.30295	13603.1875
939.07433	13320.6875
942.84309	13041.4875
946.60924	12876.9875
950.37278	12761.2875
954.13371	12748.1875
957.89203	12712.6875
961.64774	12660.4875
965.40086	12655.1875
969.15137	12591.6875
972.89929	12580.3875
976.64461	12564.9875
980.38733	12540.7875
984.12747	12570.6875
987.86502	12631.0875
991.59999	12696.0875
995.33237	12796.7875
999.06217	13020.0875
1002.78939	13293.4875
1006.51404	13500.6875
1010.23611	13688.2875
1013.95561	13829.5875
1017.67255	13767.4875
1021.38692	13629.4875
1025.09872	13448.3875
1028.80796	13401.7875
1032.51465	13456.1875
1036.21877	13603.6875
1039.92035	13706.6875
1043.61937	13703.6875
1047.31584	13690.8875
1051.00976	13586.1875
1054.70114	13584.7875
1058.38998	13621.9875
1062.07627	13733.0875
1065.76003	13901.0875
1069.44126	14103.2875
1073.11995	14444.7875
1076.79611	14736.8875
1080.46974	14896.8875
1084.14085	14990.1875
1087.80943	15019.3875
1091.47549	14909.5875
1095.13903	14582.3875
1098.80005	14158.3875
1102.45857	13806.0875
1106.11456	13659.1875
1109.76805	13721.5875
1113.41903	13905.8875
1117.06751	14234.0875
1120.71348	14631.1875
1124.35696	15066.5875
1127.99793	15450.9875
1131.63641	15398.7875
1135.2724	14927.1875
1138.90589	14439.0875
1142.5369	14139.6875
1146.16542	13959.5875
1149.79145	13818.4875
1153.415	13849.0875
1157.03607	13933.2875
1160.65467	14124.5875
1164.27079	14548.4875
1167.88443	15149.6875
1171.49561	16162.8875
1175.10432	17703.7875
1178.71056	19730.7875
1182.31434	21161.0875
1185.91565	21405.6875
1189.51451	20864.6875
1193.11091	19868.7875
1196.70485	18699.1875
1200.29634	17771.2875
1203.88538	17062.3875
1207.47197	16304.1875
1211.05612	15632.7875
1214.63782	15325.3875
1218.21708	15251.3875
1221.79391	15209.0875
1225.36829	15237.8875
1228.94024	15207.1875
1232.50976	15206.9875
1236.07685	15177.1875
1239.6415	15232.5875
1243.20374	15303.0875
1246.76355	15387.4875
1250.32093	15558.3875
1253.8759	15835.5875
1257.42845	16194.3875
1260.97859	16547.2875
1264.52631	16908.5875
1268.07163	17246.6875
1271.61453	17572.8875
1275.15503	17829.1875
1278.69312	17944.1875
1282.22882	18042.0875
1285.76211	18339.1875
1289.29301	18769.6875
1292.82151	19346.5875
1296.34761	19929.5875
1299.87133	20774.9875
1303.39266	22042.8875
1306.9116	23961.2875
1310.42815	26183.8875
1313.94233	27545.2875
1317.45412	27225.2875
1320.96354	25789.7875
1324.47058	24135.4875
1327.97525	22757.5875
1331.47754	21851.6875
1334.97747	21595.9875
1338.47502	21842.3875
1341.97022	22251.5875
1345.46305	22764.7875
1348.95352	23546.6875
1352.44163	24809.4875
1355.92738	26716.5875
1359.41078	29694.6875
1362.89183	32523.0875
1366.37053	31710.7875
1369.84688	27836.7875
1373.32088	23710.5875
1376.79254	21113.8875
1380.26186	19836.4875
1383.72883	19158.8875
1387.19347	18659.4875
1390.65578	18101.9875
1394.11575	17663.1875
1397.57339	17549.1875
1401.0287	17615.6875
1404.48168	17804.8875
1407.93234	18020.4875
1411.38068	18100.0875
1414.82669	17986.6875
1418.27039	17663.2875
1421.71177	17246.7875
1425.15083	16903.8875
1428.58758	16651.5875
1432.02203	16722.6875
1435.45416	16866.8875
1438.88399	17010.1875
1442.31151	17062.6875
1445.73673	17081.2875
1449.15965	17185.0875
1452.58027	17194.8875
1455.9986	17099.7875
1459.41463	17057.7875
1462.82837	17231.5875
1466.23982	17555.2875
1469.64898	17900.5875
1473.05586	18126.1875
1476.46045	18314.0875
1479.86276	18535.2875
1483.26279	18793.3875
1486.66054	19119.3875
1490.05602	19534.1875
1493.44922	20091.7875
1496.84016	20866.1875
1500.22882	22114.7875
1503.61521	23876.6875
1506.99934	25925.5875
1510.38121	27965.7875
1513.76081	28944.3875
1517.13816	27942.3875
1520.51324	25320.1875
1523.88607	22622.6875
1527.25665	20745.7875
1530.62498	19733.7875
1533.99105	19189.0875
1537.35488	18878.1875
1540.71647	18701.7875
1544.07581	18603.2875
1547.4329	18500.1875
1550.78776	18351.1875
1554.14038	18271.6875
1557.49077	18305.2875
1560.83892	18503.4875
1564.18484	18819.3875
1567.52853	19262.1875
1570.86999	19696.5875
1574.20922	20138.9875
1577.54624	20402.9875
1580.88103	19984.3875
1584.2136	19176.1875
1587.54395	18533.4875
1590.87208	18422.2875
1594.19801	19054.1875
1597.52172	20028.9875
1600.84321	20578.1875
1604.16251	20099.3875
1607.47959	18976.3875
1610.79447	17677.0875
1614.10715	16449.1875
1617.41763	15471.9875
1620.7259	14901.8875
1624.03199	14620.2875
1627.33587	14576.0875
1630.63757	14816.5875
1633.93707	15323.0875
1637.23439	16221.6875
1640.52951	17452.0875
1643.82246	19156.2875
1647.11321	21057.5875
1650.40179	22327.7875
1653.68819	21846.2875
1656.97241	19544.9875
1660.25446	16985.0875
1663.53433	15066.4875
1666.81203	13921.4875
1670.08756	13252.3875
1673.36092	12843.7875
1676.63211	12575.9875
1679.90115	12379.8875
1683.16801	12223.5875
1686.43272	12125.2875
1689.69527	12052.1875
1692.95567	11998.5875
1696.2139	11992.4875
1699.46999	11976.8875
1702.72392	11929.1875
1705.97571	11920.2875
1709.22535	11888.6875
1712.47284	11880.7875
1715.71819	11876.1875
1718.96139	11858.8875
1722.20246	11841.7875
1725.44139	11795.4875
1728.67818	11759.5875
1731.91284	11667.9875
1735.14537	11607.3875
1738.37576	11551.3875
1741.60403	11530.0875
1744.83017	11526.3875
1748.05418	11504.6875
1751.27607	11470.6875
1754.49584	11458.8875
1757.71349	11460.4875
1760.92903	11437.5875
1764.14244	11437.6875
1767.35375	11403.0875
1770.56294	11390.8875
1773.77002	11371.0875
1776.97499	11352.9875
1780.17785	11293.0875
1783.37861	11292.8875
1786.57727	11277.2875
1789.77382	11249.2875
1792.96828	11221.3875
1796.16064	11216.6875
1799.3509	11194.7875
1802.53907	11198.1875
1805.72514	11156.2875
1808.90913	11119.4875
1812.09102	11091.9875
1815.27083	11074.5875
1818.44856	11050.1875
1821.6242	11026.1875
1824.79776	11013.7875
1827.96924	11000.8875
1831.13864	11001.9875
1834.30597	10984.9875
1837.47122	10994.8875
1840.6344	11001.6875
1843.7955	10971.1875
1846.95454	10966.0875
1850.11151	10962.3875
1853.26642	10950.2875
1856.41926	10944.5875
1859.57004	10936.0875
1862.71876	10947.6875
1865.86542	10945.9875
1869.01003	10931.9875
1872.15258	10937.0875
1875.29308	10931.0875
1878.43152	10912.3875
1881.56792	10889.0875
1884.70227	10895.9875
1887.83457	10900.1875
1890.96482	10910.2875
1894.09304	10884.5875
1897.21921	10882.6875
1900.34335	10875.3875
1903.46544	10901.6875
1906.58551	10893.6875
1909.70353	10881.0875
1912.81953	10859.0875
1915.93349	10857.0875
1919.04543	10818.1875
1922.15534	10821.9875
1925.26322	10791.1875
1928.36908	10773.7875
1931.47292	10759.2875
1934.57473	10729.4875
1937.67453	10728.8875
1940.77232	10655.7875
1943.86808	10643.1875
1946.96184	10598.9875
1950.05358	10590.4875
1953.14331	10535.6875
1956.23103	10511.6875
1959.31675	10489.0875
1962.40046	10449.0875
1965.48217	10419.6875
1968.56188	10419.7875
1971.63959	10372.2875
1974.7153	10333.5875
1977.78901	10310.4875
1980.86073	10273.9875
1983.93046	10221.9875
1986.99819	10203.4875
1990.06394	10174.7875
1993.1277	10147.9875
1996.18947	10128.0875
1999.24925	10104.2875
2002.30706	10052.1875
2005.36288	10038.1875
2008.41672	10010.8875
2011.46859	9979.4875
2014.51848	9949.3875
2017.56639	9927.3875
2020.61233	9905.6875
2023.6563	9899.2875
2026.6983	9874.1875
2029.73833	9855.8875
2032.7764	9817.0875
2035.8125	9817.0875
2038.84664	9781.1875
2041.87881	9799.9875
2044.90903	9740.9875
2047.93729	9738.3875
2050.96359	9714.9875
2053.98794	9700.8875
2057.01034	9715.7875
2060.03078	9702.8875
2063.04927	9657.6875
2066.06582	9644.5875
2069.08042	9654.7875
2072.09307	9632.9875
2075.10378	9631.8875
2078.11255	9633.1875
2081.11938	9643.0875
2084.12426	9597.6875
2087.12722	9625.6875
2090.12824	9627.4875
2093.12732	9631.0875
2096.12447	9622.9875
2099.11969	9611.2875
2102.11299	9626.2875
2105.10435	9652.4875
2108.09379	9619.5875
2111.08131	9650.4875
2114.0669	9631.2875
2117.05057	9645.6875
2120.03233	9648.6875
2123.01216	9675.4875
2125.99008	9645.4875
2128.96609	9677.2875
2131.94018	9688.5875
2134.91236	9688.6875
2137.88263	9677.1875
2140.851	9697.8875
2143.81746	9705.6875
2146.78201	9703.3875
2149.74466	9701.8875
2152.7054	9698.1875
2155.66425	9706.7875
2158.6212	9712.4875
2161.57625	9691.7875
2164.52941	9688.1875
2167.48067	9664.8875
2170.43004	9659.8875
2173.37752	9686.4875
2176.32311	9654.5875
2179.26681	9656.4875
2182.20863	9663.7875
2185.14856	9672.5875
2188.08661	9619.8875
2191.02278	9662.7875
2193.95707	9648.1875
2196.88948	9638.5875
2199.82001	9637.5875
2202.74867	9623.6875
2205.67545	9619.0875
2208.60037	9612.1875
2211.52341	9618.9875
2214.44458	9577.5875
2217.36388	9559.8875
2220.28132	9549.7875
2223.1969	9522.3875
2226.11061	9484.7875
2229.02246	9480.4875
2231.93245	9452.0875
2234.84058	9448.3875
2237.74686	9424.0875
2240.65128	9429.1875
2243.55385	9396.1875
2246.45456	9398.2875
2249.35343	9396.4875
2252.25044	9388.2875
2255.14561	9395.3875
2258.03893	9364.3875
2260.93041	9366.5875
2263.82004	9336.4875
2266.70783	9315.7875
2269.59378	9297.2875
2272.4779	9268.7875
2275.36017	9249.4875
2278.24061	9212.5875
2281.11922	9210.6875
2283.996	9181.3875
2286.87094	9161.4875
2289.74405	9148.5875
2292.61534	9129.5875
2295.4848	9136.5875
2298.35243	9127.1875
2301.21824	9110.6875
2304.08223	9106.0875
2306.94439	9087.4875
2309.80474	9093.8875
2312.66327	9119.8875
2315.51999	9099.4875
2318.37489	9096.7875
2321.22797	9079.4875
2324.07925	9072.1875
2326.92871	9037.9875
2329.77637	9053.8875
2332.62222	9027.3875
2335.46626	9015.6875
2338.3085	9010.3875
2341.14893	9007.6875
2343.98756	8997.2875
2346.8244	8977.1875
2349.65943	8981.8875
2352.49267	8994.6875
2355.32411	8973.4875
2358.15376	8973.1875
2360.98161	8970.0875
2363.80768	8995.4875
2366.63195	8999.7875
2369.45444	8983.9875
2372.27514	8976.7875
2375.09405	8975.8875
2377.91118	8934.0875
2380.72652	8912.1875
2383.54009	8883.0875
2386.35187	8894.7875
2389.16188	8840.1875
2391.97011	8817.0875
2394.77657	8793.9875
2397.58125	8789.4875
2400.38416	8756.8875
2403.18529	8747.0875
2405.98466	8756.5875
2408.78226	8725.9875
2411.57809	8717.1875
2414.37216	8706.7875
2417.16446	8676.0875
2419.955	8655.4875
2422.74378	8663.9875
2425.5308	8644.7875
2428.31606	8639.5875
2431.09956	8635.8875
2433.88131	8627.4875
2436.6613	8627.8875
2439.43954	8625.2875
2442.21603	8602.9875
2444.99077	8618.9875
2447.76377	8608.6875
2450.53501	8593.4875
2453.30451	8586.3875
2456.07226	8572.1875
2458.83827	8578.7875
2461.60254	8567.2875
2464.36507	8557.2875
2467.12586	8554.9875
2469.88492	8561.3875
2472.64224	8534.5875
2475.39782	8554.8875
2478.15167	8569.8875
2480.90379	8575.2875
2483.65417	8553.8875
2486.40283	8585.7875
2489.14976	8586.5875
2491.89497	8577.9875
2494.63845	8573.2875
2497.3802	8577.2875
2500.12024	8553.9875
2502.85855	8537.0875
2505.59514	8527.3875
2508.33002	8505.8875
2511.06318	8499.1875
2513.79462	8482.2875
2516.52435	8445.9875
2519.25237	8438.7875
2521.97867	8410.6875
2524.70327	8400.4875
2527.42616	8383.6875
2530.14734	8378.1875
2532.86681	8359.5875
2535.58458	8381.2875
2538.30065	8352.5875
2541.01501	8348.1875
2543.72768	8342.4875
2546.43864	8339.2875
2549.14791	8311.4875
2551.85548	8303.2875
2554.56136	8289.0875
2557.26554	8292.5875
2559.96803	8271.8875
2562.66883	8262.8875
2565.36794	8271.3875
2568.06536	8240.4875
2570.7611	8250.7875
2573.45514	8238.5875
2576.14751	8226.5875
2578.83819	8196.1875
2581.52719	8188.0875
2584.21451	8176.9875
2586.90015	8168.2875
2589.58411	8142.2875
2592.2664	8143.4875
2594.94701	8129.5875
2597.62594	8142.6875
2600.30321	8102.9875
2602.9788	8115.8875
2605.65273	8083.6875
2608.32498	8062.0875
2610.99557	8065.3875
2613.66449	8047.4875
2616.33175	8055.8875
2618.99734	8030.4875
2621.66128	8032.8875
2624.32355	8048.7875
2626.98416	8012.8875
2629.64311	8025.4875
2632.30041	8009.9875
2634.95605	8020.1875
2637.61004	7986.9875
2640.26238	7959.5875
2642.91306	7970.0875
2645.56209	7961.5875
2648.20948	7943.0875
2650.85521	7940.4875
2653.4993	7938.4875
2656.14175	7940.5875
2658.78255	7937.6875
2661.42171	7933.0875
2664.05923	7962.6875
2666.6951	7932.4875
2669.32934	7947.3875
2671.96194	7950.4875
2674.59291	7955.3875
2677.22224	7942.1875
2679.84993	7974.3875
2682.476	7950.6875
2685.10043	7966.0875
2687.72324	7918.1875
2690.34441	7951.5875
2692.96396	7946.8875
2695.58188	7945.9875
2698.19818	7944.8875
2700.81285	7970.1875
2703.4259	7964.8875
2706.03733	8026.8875
2708.64714	7988.2875
2711.25533	7983.2875
2713.86191	7955.6875
2716.46687	7986.6875
2719.07021	7989.6875
2721.67194	7975.9875
2724.27206	7966.3875
2726.87057	7968.2875
2729.46747	7966.9875
2732.06276	7972.1875
2734.65644	7943.2875
2737.24852	7959.4875
2739.83899	7928.7875
2742.42786	7931.1875
2745.01513	7887.3875
2747.60079	7896.7875
2750.18486	7908.9875
2752.76733	7901.0875
2755.3482	7893.3875
2757.92747	7877.4875
2760.50515	7880.2875
2763.08123	7848.3875
2765.65573	7866.4875
2768.22863	7846.6875
2770.79994	7826.3875
2773.36967	7833.2875
2775.9378	7809.5875
2778.50435	7808.0875
2781.06932	7797.3875
2783.6327	7814.1875
2786.1945	7802.7875
2788.75471	7781.0875
2791.31335	7776.1875
2793.87041	7772.9875
2796.42589	7730.8875
2798.97979	7755.1875
2801.53212	7721.2875
2804.08288	7711.5875
2806.63206	7713.9875
2809.17967	7695.0875
2811.72571	7674.5875
2814.27018	7682.8875
2816.81308	7683.1875
2819.35442	7694.6875
2821.89419	7675.1875
2824.43239	7667.7875
2826.96904	7666.1875
2829.50412	7682.7875
2832.03763	7652.1875
2834.56959	7671.9875
2837.1	7676.9875
2839.62884	7697.5875
2842.15613	7694.8875
2844.68186	7727.8875
2847.20604	7764.2875
2849.72867	7815.5875
2852.24974	7813.9875
2854.76927	7799.1875
2857.28724	7805.8875
2859.80367	7791.9875
2862.31855	7749.5875
2864.83189	7745.1875
2867.34368	7732.8875
2869.85393	7716.7875
2872.36264	7707.0875
2874.8698	7710.5875
2877.37543	7728.3875
2879.87952	7730.9875
2882.38207	7730.3875
2884.88308	7726.5875
2887.38256	7728.2875
2889.88051	7724.9875
2892.37692	7679.0875
2894.8718	7714.7875
2897.36515	7711.1875
2899.85698	7721.8875
2902.34727	7731.1875
2904.83604	7728.7875
2907.32328	7733.9875
2909.809	7746.2875
2912.29319	7744.0875
2914.77587	7719.6875
2917.25702	7724.9875
2919.73665	7714.5875
2922.21476	7724.0875
2924.69136	7699.7875
2927.16644	7681.0875
2929.64	7667.2875
2932.11205	7668.1875
2934.58258	7634.6875
2937.05161	7665.4875
2939.51912	7635.0875
2941.98513	7611.8875
2944.44962	7563.1875
2946.91261	7530.9875
2949.37409	7540.3875
2951.83407	7495.4875
2954.29254	7482.4875
2956.74951	7457.4875
2959.20498	7445.1875
2961.65895	7433.8875
2964.11142	7431.4875
2966.56239	7392.9875
2969.01186	7408.6875
2971.45984	7356.8875
2973.90632	7381.1875
2976.35131	7343.0875
2978.7948	7329.1875
2981.23681	7299.0875
2983.67732	7287.0875
2986.11635	7272.7875
2988.55388	7257.5875
2990.98993	7233.1875
2993.4245	7219.4875
2995.85758	7214.2875
2998.28917	7193.0875
3000.71928	7171.9875
3003.14791	7176.4875
3005.57506	7185.7875
3008.00073	7149.4875
3010.42493	7161.0875
3012.84764	7128.9875
3015.26888	7131.9875
3017.68865	7115.6875
3020.10694	7104.2875
3022.52376	7084.5875
3024.9391	7058.7875
3027.35298	7073.9875
3029.76539	7066.3875
3032.17632	7050.3875
3034.5858	7034.8875
3036.9938	7030.6875
3039.40034	7028.8875
3041.80542	7009.8875
3044.20903	7031.3875
3046.61118	6993.6875
3049.01187	6974.8875
3051.4111	6984.8875
3053.80888	6974.6875
3056.20519	6952.8875
3058.60005	6945.4875
3060.99345	6919.6875
3063.3854	6906.9875
3065.7759	6887.4875
3068.16494	6883.4875
3070.55254	6889.6875
