Data from AgNP_FTO_APTES_CRN_5uM_R6G_10uM_NaF_0.1M_Addition_RamanShift__4__15-30-37-894.txt Node

Date: Wed Dec 15 15:30:37 GMT 2021
User: TCL
Spectrometer: QEP01345
Trigger mode: 4
Integration Time (sec): 7.000000E0
Scans to average: 10
Electric dark correction enabled: true
Nonlinearity correction enabled: false
Boxcar width: 0
XAxis mode: Raman Shifts
Number of Pixels in Spectrum: 1044
>>>>>Begin Spectral Data<<<<<
46.04893	0.3125
50.45542	-2.6875
54.85868	-2.9875
59.25871	-1.2875
63.6555	136.5125
68.04907	147.2125
72.43941	149.9125
76.82654	157.5125
81.21044	162.8125
85.59113	168.8125
89.96862	177.6125
94.34289	175.0125
98.71396	187.0125
103.08183	196.0125
107.4465	199.8125
111.80798	198.5125
116.16626	207.4125
120.52136	215.7125
124.87327	222.3125
129.222	237.8125
133.56755	248.8125
137.90993	267.9125
142.24913	293.8125
146.58517	328.4125
150.91804	386.3125
155.24774	457.0125
159.57429	558.8125
163.89768	724.9125
168.21792	947.8125
172.53501	1284.2125
176.84895	1790.6125
181.15975	2517.6125
185.46741	3529.1125
189.77193	4844.8125
194.07331	6484.1125
198.37157	8326.2125
202.6667	10259.7125
206.9587	12210.6125
211.24758	14089.9125
215.53334	15985.0125
219.81599	17987.8125
224.09553	20195.6125
228.37195	22629.5125
232.64527	25310.1125
236.91549	28161.4125
241.18261	30992.4125
245.44663	33682.9125
249.70755	36168.1125
253.96539	38307.9125
258.22014	40130.5125
262.4718	41618.1125
266.72039	42601.9125
270.96589	43060.9125
275.20832	43181.5125
279.44768	42868.1125
283.68397	42459.8125
287.91719	42151.0125
292.14735	41867.1125
296.37445	41699.2125
300.59849	41756.3125
304.81948	41789.3125
309.03742	41750.0125
313.25231	41579.0125
317.46415	41065.2125
321.67296	40437.5125
325.87872	39889.7125
330.08145	39631.7125
334.28114	39654.1125
338.47781	39984.4125
342.67145	40407.6125
346.86207	40995.5125
351.04966	41717.6125
355.23424	42500.7125
359.4158	43200.1125
363.59435	43901.0125
367.76989	44333.6125
371.94243	44683.7125
376.11196	44831.6125
380.27849	45024.9125
384.44203	45251.6125
388.60257	45607.6125
392.76012	46083.9125
396.91468	46645.0125
401.06626	47371.7125
405.21485	47910.8125
409.36047	47976.0125
413.50311	47879.9125
417.64277	47927.1125
421.77947	48275.0125
425.9132	48594.6125
430.04396	48889.8125
434.17176	48972.0125
438.2966	49095.7125
442.41849	49556.2125
446.53742	50644.0125
450.6534	51927.2125
454.76644	52936.1125
458.87653	53298.6125
462.98368	53022.9125
467.08789	52220.0125
471.18916	51299.7125
475.2875	50235.6125
479.38291	49570.6125
483.4754	49097.3125
487.56496	48702.2125
491.6516	48283.7125
495.73531	48103.3125
499.81612	48286.0125
503.89401	48928.4125
507.96899	49285.7125
512.04106	49384.3125
516.11023	49160.3125
520.1765	48591.3125
524.23987	48176.0125
528.30034	47652.1125
532.35792	47213.7125
536.41261	46611.7125
540.46441	46166.2125
544.51333	46048.3125
548.55936	46530.8125
552.60252	47330.5125
556.64279	48236.2125
560.6802	48805.3125
564.71473	49230.4125
568.7464	49875.7125
572.7752	51113.9125
576.80114	52725.2125
580.82422	54766.7125
584.84444	57059.5125
588.86181	59220.2125
592.87633	60237.7125
596.888	59145.9125
600.89682	57069.8125
604.9028	57161.2125
608.90594	59785.1125
612.90624	62000.9125
616.90371	58341.6125
620.89834	51616.4125
624.89015	48747.1125
628.87913	48392.6125
632.86528	48379.9125
636.84862	48018.2125
640.82913	47280.3125
644.80683	46429.5125
648.78172	45964.6125
652.75379	46109.5125
656.72306	46630.9125
660.68952	47061.4125
664.65319	46748.5125
668.61405	46176.3125
672.57211	46220.1125
676.52738	46472.0125
680.47986	46404.1125
684.42955	46072.1125
688.37646	45978.1125
692.32058	46367.5125
696.26192	47049.8125
700.20048	47781.5125
704.13626	48082.4125
708.06928	48030.8125
711.99952	47786.9125
715.927	47846.9125
719.85171	48127.0125
723.77365	48058.3125
727.69284	47378.4125
731.60928	46654.1125
735.52295	46303.0125
739.43388	46267.4125
743.34206	46370.9125
747.24749	46663.0125
751.15017	47150.8125
755.05012	47856.2125
758.94733	49021.5125
762.8418	50729.5125
766.73354	53291.5125
770.62254	55203.1125
774.50882	55094.8125
778.39237	53094.3125
782.27321	50461.9125
786.15132	48444.2125
790.02671	47262.2125
793.89938	46743.5125
797.76935	46536.5125
801.6366	46621.5125
805.50115	46638.0125
809.36299	46423.4125
813.22213	45964.9125
817.07857	45572.3125
820.93231	45264.2125
824.78336	45081.7125
828.63172	44902.0125
832.47738	45017.8125
836.32036	45093.9125
840.16066	45340.5125
843.99827	45429.9125
847.8332	45319.4125
851.66546	45253.2125
855.49504	45273.8125
859.32195	45285.0125
863.1462	45206.8125
866.96777	45103.3125
870.78668	44996.1125
874.60293	45074.0125
878.41652	45103.9125
882.22745	45300.8125
886.03573	45429.6125
889.84136	45406.6125
893.64433	45244.9125
897.44466	45105.4125
901.24235	44980.7125
905.0374	44857.5125
908.8298	44832.3125
912.61957	44940.7125
916.40671	45285.6125
920.19121	45859.3125
923.97308	46428.6125
927.75233	46486.0125
931.52895	46079.2125
935.30295	45456.0125
939.07433	44891.7125
942.84309	44494.9125
946.60924	44441.7125
950.37278	44462.7125
954.13371	44380.4125
957.89203	44235.8125
961.64774	44203.4125
965.40086	44210.2125
969.15137	44130.0125
972.89929	44009.6125
976.64461	43966.4125
980.38733	44076.5125
984.12747	44249.1125
987.86502	44552.6125
991.59999	45004.2125
995.33237	45685.4125
999.06217	46739.4125
1002.78939	48093.8125
1006.51404	49187.6125
1010.23611	50070.1125
1013.95561	50577.3125
1017.67255	50374.9125
1021.38692	49672.4125
1025.09872	49064.7125
1028.80796	49034.8125
1032.51465	49884.8125
1036.21877	50873.4125
1039.92035	51190.9125
1043.61937	50838.3125
1047.31584	50001.5125
1051.00976	49152.2125
1054.70114	48687.9125
1058.38998	48775.4125
1062.07627	49276.1125
1065.76003	50067.0125
1069.44126	51079.7125
1073.11995	52258.6125
1076.79611	53323.8125
1080.46974	53602.9125
1084.14085	53478.2125
1087.80943	53319.4125
1091.47549	53147.5125
1095.13903	52813.3125
1098.80005	51957.0125
1102.45857	50918.3125
1106.11456	50159.5125
1109.76805	49800.8125
1113.41903	49661.0125
1117.06751	49732.7125
1120.71348	49955.6125
1124.35696	50141.0125
1127.99793	50456.2125
1131.63641	50847.9125
1135.2724	50921.6125
1138.90589	51146.2125
1142.5369	51296.8125
1146.16542	51533.5125
1149.79145	51750.3125
1153.415	52166.5125
1157.03607	53095.9125
1160.65467	54727.7125
1164.27079	57469.8125
1167.88443	60424.3125
1171.49561	63148.7125
1175.10432	66125.8125
1178.71056	70188.5125
1182.31434	74337.0125
1185.91565	76626.8125
1189.51451	76489.4125
1193.11091	74756.7125
1196.70485	72438.3125
1200.29634	70099.8125
1203.88538	68726.4125
1207.47197	68306.4125
1211.05612	67916.2125
1214.63782	66925.3125
1218.21708	65310.7125
1221.79391	63686.1125
1225.36829	62396.0125
1228.94024	61380.6125
1232.50976	60503.9125
1236.07685	59745.5125
1239.6415	59412.3125
1243.20374	59489.1125
1246.76355	59945.3125
1250.32093	60910.3125
1253.8759	62271.9125
1257.42845	64032.1125
1260.97859	65873.7125
1264.52631	67797.6125
1268.07163	69865.8125
1271.61453	71989.4125
1275.15503	74219.3125
1278.69312	76298.3125
1282.22882	77978.5125
1285.76211	79771.2125
1289.29301	81890.7125
1292.82151	84567.9125
1296.34761	88241.6125
1299.87133	93075.0125
1303.39266	98523.2125
1306.9116	103481.8125
1310.42815	106983.6125
1313.94233	108122.7125
1317.45412	107219.6125
1320.96354	105694.3125
1324.47058	104817.7125
1327.97525	104695.1125
1331.47754	104975.7125
1334.97747	105102.8125
1338.47502	104831.1125
1341.97022	103507.9125
1345.46305	101328.2125
1348.95352	99048.1125
1352.44163	97817.0125
1355.92738	98818.7125
1359.41078	101712.2125
1362.89183	103668.8125
1366.37053	101858.7125
1369.84688	95400.2125
1373.32088	86915.2125
1376.79254	80675.5125
1380.26186	78307.8125
1383.72883	78286.9125
1387.19347	78459.5125
1390.65578	77652.9125
1394.11575	77120.2125
1397.57339	77820.4125
1401.0287	79678.6125
1404.48168	81573.9125
1407.93234	82514.0125
1411.38068	82037.7125
1414.82669	80041.8125
1418.27039	77039.1125
1421.71177	73971.2125
1425.15083	71475.1125
1428.58758	70464.7125
1432.02203	71328.6125
1435.45416	73333.5125
1438.88399	75779.1125
1442.31151	77670.5125
1445.73673	78417.6125
1449.15965	78569.4125
1452.58027	78142.1125
1455.9986	77498.2125
1459.41463	77703.0125
1462.82837	78750.5125
1466.23982	80367.6125
1469.64898	81931.2125
1473.05586	82968.8125
1476.46045	83166.3125
1479.86276	82564.6125
1483.26279	81596.3125
1486.66054	81069.6125
1490.05602	80956.1125
1493.44922	81064.6125
1496.84016	80809.3125
1500.22882	80851.8125
1503.61521	81351.3125
1506.99934	82089.8125
1510.38121	82654.4125
1513.76081	82444.2125
1517.13816	81259.8125
1520.51324	79912.4125
1523.88607	79189.9125
1527.25665	79494.2125
1530.62498	80079.6125
1533.99105	80426.5125
1537.35488	80036.4125
1540.71647	78981.8125
1544.07581	77506.1125
1547.4329	75779.7125
1550.78776	74129.9125
1554.14038	72846.9125
1557.49077	71875.7125
1560.83892	71047.0125
1564.18484	70542.2125
1567.52853	70399.2125
1570.86999	70998.0125
1574.20922	72573.6125
1577.54624	74540.1125
1580.88103	76355.6125
1584.2136	78378.3125
1587.54395	81489.2125
1590.87208	85611.8125
1594.19801	90568.3125
1597.52172	95090.0125
1600.84321	95859.4125
1604.16251	91257.9125
1607.47959	83867.0125
1610.79447	76312.4125
1614.10715	69576.9125
1617.41763	64341.5125
1620.7259	60837.8125
1624.03199	59136.3125
1627.33587	59369.6125
1630.63757	61282.7125
1633.93707	65132.1125
1637.23439	71532.2125
1640.52951	80455.5125
1643.82246	89875.8125
1647.11321	96078.5125
1650.40179	95070.1125
1653.68819	86648.0125
1656.97241	75103.7125
1660.25446	64980.7125
1663.53433	57820.2125
1666.81203	53289.8125
1670.08756	50437.3125
1673.36092	48680.2125
1676.63211	47471.7125
1679.90115	46575.6125
1683.16801	45929.3125
1686.43272	45457.1125
1689.69527	45114.4125
1692.95567	44840.9125
1696.2139	44694.2125
1699.46999	44615.2125
1702.72392	44488.2125
1705.97571	44345.8125
1709.22535	44269.6125
1712.47284	44155.4125
1715.71819	44147.5125
1718.96139	43998.0125
1722.20246	43839.6125
1725.44139	43689.3125
1728.67818	43506.0125
1731.91284	43276.4125
1735.14537	43088.8125
1738.37576	42866.7125
1741.60403	42734.8125
1744.83017	42602.5125
1748.05418	42538.3125
1751.27607	42421.1125
1754.49584	42372.1125
1757.71349	42415.3125
1760.92903	42316.5125
1764.14244	42327.2125
1767.35375	42265.8125
1770.56294	42242.3125
1773.77002	42193.9125
1776.97499	42248.2125
1780.17785	42129.7125
1783.37861	42101.7125
1786.57727	41978.4125
1789.77382	41918.4125
1792.96828	41820.5125
1796.16064	41800.1125
1799.3509	41743.5125
1802.53907	41660.1125
1805.72514	41610.7125
1808.90913	41478.5125
1812.09102	41419.2125
1815.27083	41418.4125
1818.44856	41302.9125
1821.6242	41333.3125
1824.79776	41304.4125
1827.96924	41315.9125
1831.13864	41350.5125
1834.30597	41357.9125
1837.47122	41425.1125
1840.6344	41393.1125
1843.7955	41418.5125
1846.95454	41414.0125
1850.11151	41442.3125
1853.26642	41424.7125
1856.41926	41462.6125
1859.57004	41405.2125
1862.71876	41340.8125
1865.86542	41333.3125
1869.01003	41312.4125
1872.15258	41329.6125
1875.29308	41325.3125
1878.43152	41221.0125
1881.56792	41154.7125
1884.70227	41113.7125
1887.83457	41110.6125
1890.96482	41141.7125
1894.09304	41069.3125
1897.21921	41074.9125
1900.34335	40925.6125
1903.46544	40842.3125
1906.58551	40824.0125
1909.70353	40742.9125
1912.81953	40710.6125
1915.93349	40655.2125
1919.04543	40545.4125
1922.15534	40509.9125
1925.26322	40395.4125
1928.36908	40309.4125
1931.47292	40210.8125
1934.57473	40173.3125
1937.67453	40049.3125
1940.77232	39999.9125
1943.86808	39882.8125
1946.96184	39758.5125
1950.05358	39679.0125
1953.14331	39604.1125
1956.23103	39566.7125
1959.31675	39437.3125
1962.40046	39323.6125
1965.48217	39172.7125
1968.56188	39081.0125
1971.63959	38967.6125
1974.7153	38867.2125
1977.78901	38765.6125
1980.86073	38692.9125
1983.93046	38617.9125
1986.99819	38510.8125
1990.06394	38452.1125
1993.1277	38372.1125
1996.18947	38177.8125
1999.24925	38096.5125
2002.30706	38005.9125
2005.36288	37910.3125
2008.41672	37829.0125
2011.46859	37781.0125
2014.51848	37703.3125
2017.56639	37635.6125
2020.61233	37596.4125
2023.6563	37477.6125
2026.6983	37390.9125
2029.73833	37390.6125
2032.7764	37356.4125
2035.8125	37227.5125
2038.84664	37170.0125
2041.87881	37074.7125
2044.90903	37102.6125
2047.93729	37019.4125
2050.96359	36954.0125
2053.98794	36969.8125
2057.01034	36965.0125
2060.03078	36941.8125
2063.04927	36874.9125
2066.06582	36893.2125
2069.08042	36843.2125
2072.09307	36853.6125
2075.10378	36816.8125
2078.11255	36756.2125
2081.11938	36800.5125
2084.12426	36762.8125
2087.12722	36731.8125
2090.12824	36755.4125
2093.12732	36810.7125
2096.12447	36804.3125
2099.11969	36759.5125
2102.11299	36777.5125
2105.10435	36847.6125
2108.09379	36898.8125
2111.08131	36929.1125
2114.0669	36926.9125
2117.05057	36928.0125
2120.03233	36962.9125
2123.01216	36948.0125
2125.99008	37001.9125
2128.96609	37029.8125
2131.94018	37043.8125
2134.91236	37078.8125
2137.88263	37136.5125
2140.851	37158.4125
2143.81746	37183.1125
2146.78201	37173.9125
2149.74466	37227.3125
2152.7054	37275.4125
2155.66425	37223.2125
2158.6212	37261.5125
2161.57625	37252.8125
2164.52941	37302.4125
2167.48067	37284.1125
2170.43004	37275.2125
2173.37752	37264.0125
2176.32311	37284.4125
2179.26681	37219.9125
2182.20863	37228.0125
2185.14856	37316.2125
2188.08661	37266.9125
2191.02278	37283.7125
2193.95707	37251.6125
2196.88948	37255.2125
2199.82001	37236.9125
2202.74867	37221.7125
2205.67545	37202.4125
2208.60037	37182.7125
2211.52341	37155.5125
2214.44458	37166.1125
2217.36388	37058.8125
2220.28132	37050.5125
2223.1969	37005.9125
2226.11061	36952.8125
2229.02246	36923.4125
2231.93245	36805.2125
2234.84058	36739.2125
2237.74686	36724.8125
2240.65128	36746.3125
2243.55385	36639.0125
2246.45456	36598.6125
2249.35343	36544.6125
2252.25044	36466.0125
2255.14561	36421.6125
2258.03893	36410.2125
2260.93041	36384.9125
2263.82004	36295.9125
2266.70783	36200.4125
2269.59378	36096.5125
2272.4779	36024.6125
2275.36017	36003.4125
2278.24061	35892.7125
2281.11922	35842.6125
2283.996	35761.9125
2286.87094	35800.6125
2289.74405	35791.8125
2292.61534	35760.7125
2295.4848	35719.7125
2298.35243	35776.8125
2301.21824	35760.6125
2304.08223	35746.1125
2306.94439	35746.3125
2309.80474	35782.1125
2312.66327	35813.7125
2315.51999	35740.3125
2318.37489	35785.5125
2321.22797	35729.5125
2324.07925	35732.4125
2326.92871	35674.7125
2329.77637	35662.9125
2332.62222	35652.8125
2335.46626	35607.2125
2338.3085	35580.9125
2341.14893	35614.7125
2343.98756	35702.3125
2346.8244	35612.7125
2349.65943	35632.2125
2352.49267	35568.6125
2355.32411	35517.9125
2358.15376	35518.9125
2360.98161	35526.8125
2363.80768	35467.9125
2366.63195	35454.7125
2369.45444	35446.5125
2372.27514	35351.9125
2375.09405	35329.9125
2377.91118	35288.8125
2380.72652	35239.7125
2383.54009	35213.0125
2386.35187	35174.8125
2389.16188	35071.5125
2391.97011	35040.8125
2394.77657	35010.8125
2397.58125	34990.7125
2400.38416	34999.8125
2403.18529	34892.0125
2405.98466	34862.8125
2408.78226	34800.5125
2411.57809	34783.9125
2414.37216	34721.7125
2417.16446	34711.5125
2419.955	34676.9125
2422.74378	34687.6125
2425.5308	34599.1125
2428.31606	34566.8125
2431.09956	34581.7125
2433.88131	34541.6125
2436.6613	34577.8125
2439.43954	34537.8125
2442.21603	34523.1125
2444.99077	34488.0125
2447.76377	34522.3125
2450.53501	34517.2125
2453.30451	34481.5125
2456.07226	34502.0125
2458.83827	34506.6125
2461.60254	34476.8125
2464.36507	34461.7125
2467.12586	34479.7125
2469.88492	34485.2125
2472.64224	34466.8125
2475.39782	34495.8125
2478.15167	34550.7125
2480.90379	34497.9125
2483.65417	34498.9125
2486.40283	34524.2125
2489.14976	34541.6125
2491.89497	34512.6125
2494.63845	34543.5125
2497.3802	34541.5125
2500.12024	34575.3125
2502.85855	34601.0125
2505.59514	34616.9125
2508.33002	34589.8125
2511.06318	34565.0125
2513.79462	34541.3125
2516.52435	34524.7125
2519.25237	34497.8125
2521.97867	34491.6125
2524.70327	34502.0125
2527.42616	34498.9125
2530.14734	34505.3125
2532.86681	34404.6125
2535.58458	34422.4125
2538.30065	34380.1125
2541.01501	34382.8125
2543.72768	34367.2125
2546.43864	34338.5125
2549.14791	34301.8125
2551.85548	34314.2125
2554.56136	34265.6125
2557.26554	34247.6125
2559.96803	34242.2125
2562.66883	34229.1125
2565.36794	34230.2125
2568.06536	34267.9125
2570.7611	34229.1125
2573.45514	34148.8125
2576.14751	34165.2125
2578.83819	34170.7125
2581.52719	34189.0125
2584.21451	34084.8125
2586.90015	34128.0125
2589.58411	34086.4125
2592.2664	34070.2125
2594.94701	34049.4125
2597.62594	34060.4125
2600.30321	33944.9125
2602.9788	33999.9125
2605.65273	33960.6125
2608.32498	34002.7125
2610.99557	33906.2125
2613.66449	33907.3125
2616.33175	33884.3125
2618.99734	33903.2125
2621.66128	33887.3125
2624.32355	33904.7125
2626.98416	33902.9125
2629.64311	33853.7125
2632.30041	33809.2125
2634.95605	33829.1125
2637.61004	33816.4125
2640.26238	33793.8125
2642.91306	33786.4125
2645.56209	33772.5125
2648.20948	33783.8125
2650.85521	33738.2125
2653.4993	33776.7125
2656.14175	33772.4125
2658.78255	33809.8125
2661.42171	33807.8125
2664.05923	33839.4125
2666.6951	33870.9125
2669.32934	33922.5125
2671.96194	33900.9125
2674.59291	33942.6125
2677.22224	33892.2125
2679.84993	33911.0125
2682.476	33831.1125
2685.10043	33860.8125
2687.72324	33801.6125
2690.34441	33865.4125
2692.96396	33893.6125
2695.58188	33885.2125
2698.19818	33853.9125
2700.81285	33857.8125
2703.4259	33872.7125
2706.03733	33973.5125
2708.64714	34012.2125
2711.25533	34029.2125
2713.86191	34029.0125
2716.46687	34075.5125
2719.07021	34029.4125
2721.67194	34075.2125
2724.27206	34043.4125
2726.87057	34114.5125
2729.46747	34112.1125
2732.06276	34151.8125
2734.65644	34185.0125
2737.24852	34202.9125
2739.83899	34158.4125
2742.42786	34150.4125
2745.01513	34091.2125
2747.60079	34112.1125
2750.18486	34094.7125
2752.76733	34154.7125
2755.3482	34171.9125
2757.92747	34155.7125
2760.50515	34123.6125
2763.08123	34095.0125
2765.65573	34105.5125
2768.22863	34065.7125
2770.79994	33991.8125
2773.36967	34002.3125
2775.9378	33973.6125
2778.50435	33933.4125
2781.06932	33938.6125
2783.6327	34003.2125
2786.1945	33974.2125
2788.75471	33871.0125
2791.31335	33816.4125
2793.87041	33769.4125
2796.42589	33724.3125
2798.97979	33683.5125
2801.53212	33664.6125
2804.08288	33663.0125
2806.63206	33560.8125
2809.17967	33511.6125
2811.72571	33418.0125
2814.27018	33434.2125
2816.81308	33348.0125
2819.35442	33323.9125
2821.89419	33243.6125
2824.43239	33254.1125
2826.96904	33197.1125
2829.50412	33163.4125
2832.03763	33142.7125
2834.56959	33126.8125
2837.1	33050.1125
2839.62884	33044.1125
2842.15613	32985.2125
2844.68186	33036.2125
2847.20604	32958.1125
2849.72867	32958.1125
2852.24974	32921.2125
2854.76927	32871.4125
2857.28724	32852.5125
2859.80367	32859.5125
2862.31855	32820.1125
2864.83189	32795.9125
2867.34368	32756.8125
2869.85393	32776.9125
2872.36264	32760.9125
2874.8698	32743.8125
2877.37543	32770.1125
2879.87952	32782.3125
2882.38207	32789.2125
2884.88308	32770.8125
2887.38256	32850.3125
2889.88051	32796.0125
2892.37692	32818.8125
2894.8718	32810.7125
2897.36515	32878.3125
2899.85698	32846.8125
2902.34727	32943.4125
2904.83604	32939.9125
2907.32328	33012.6125
2909.809	33029.4125
2912.29319	33086.3125
2914.77587	33038.3125
2917.25702	33062.9125
2919.73665	33058.0125
2922.21476	33080.1125
2924.69136	33015.0125
2927.16644	33018.2125
2929.64	32989.9125
2932.11205	32938.5125
2934.58258	32823.1125
2937.05161	32912.5125
2939.51912	32937.6125
2941.98513	32935.8125
2944.44962	32851.1125
2946.91261	32741.9125
2949.37409	32810.6125
2951.83407	32834.3125
2954.29254	32778.7125
2956.74951	32718.4125
2959.20498	32697.2125
2961.65895	32653.9125
2964.11142	32648.6125
2966.56239	32624.4125
2969.01186	32633.2125
2971.45984	32554.9125
2973.90632	32517.0125
2976.35131	32485.3125
2978.7948	32433.3125
2981.23681	32387.1125
2983.67732	32373.7125
2986.11635	32279.6125
2988.55388	32178.5125
2990.98993	32188.9125
2993.4245	32065.1125
2995.85758	31996.6125
2998.28917	31910.8125
3000.71928	31882.7125
3003.14791	31807.8125
3005.57506	31823.5125
3008.00073	31714.4125
3010.42493	31775.3125
3012.84764	31710.4125
3015.26888	31709.2125
3017.68865	31625.3125
3020.10694	31587.9125
3022.52376	31486.7125
