Data from AgNP_FTO_APTES_CRN_5uM_R6G_10uM_NaF_0.1M_Addition_RamanShift__17__15-45-47-917.txt Node

Date: Wed Dec 15 15:45:47 GMT 2021
User: TCL
Spectrometer: QEP01345
Trigger mode: 4
Integration Time (sec): 7.000000E0
Scans to average: 10
Electric dark correction enabled: true
Nonlinearity correction enabled: false
Boxcar width: 0
XAxis mode: Raman Shifts
Number of Pixels in Spectrum: 1044
>>>>>Begin Spectral Data<<<<<
46.04893	-0.05
50.45542	-1.85
54.85868	-2.15
59.25871	-0.15
63.6555	114.95
68.04907	121.15
72.43941	124.65
76.82654	133.85
81.21044	139.25
85.59113	142.55
89.96862	145.85
94.34289	149.45
98.71396	159.15
103.08183	166.65
107.4465	166.25
111.80798	166.25
116.16626	177.65
120.52136	184.15
124.87327	189.85
129.222	195.95
133.56755	205.45
137.90993	224.55
142.24913	247.95
146.58517	274.95
150.91804	319.25
155.24774	373.95
159.57429	463.85
163.89768	599.85
168.21792	787.75
172.53501	1071.95
176.84895	1482.25
181.15975	2094.35
185.46741	2926.25
189.77193	4028.65
194.07331	5393.45
198.37157	6941.05
202.6667	8560.55
206.9587	10151.55
211.24758	11752.35
215.53334	13333.25
219.81599	14992.45
224.09553	16873.15
228.37195	18921.55
232.64527	21192.15
236.91549	23587.85
241.18261	25962.55
245.44663	28228.75
249.70755	30176.35
253.96539	31960.95
258.22014	33435.95
262.4718	34707.85
266.72039	35590.45
270.96589	36107.05
275.20832	36206.05
279.44768	35998.55
283.68397	35677.75
287.91719	35354.15
292.14735	35112.75
296.37445	35078.95
300.59849	35222.35
304.81948	35463.05
309.03742	35441.85
313.25231	35214.45
317.46415	34393.45
321.67296	33431.25
325.87872	32597.55
330.08145	32291.95
334.28114	32387.95
338.47781	32688.95
342.67145	33197.25
346.86207	33801.65
351.04966	34549.35
355.23424	35405.35
359.4158	36182.95
363.59435	36730.95
367.76989	37054.55
371.94243	37247.65
376.11196	37406.25
380.27849	37460.35
384.44203	37505.55
388.60257	37696.15
392.76012	37961.35
396.91468	38364.85
401.06626	39036.15
405.21485	39518.35
409.36047	39317.95
413.50311	38675.25
417.64277	38123.75
421.77947	37905.15
425.9132	37970.05
430.04396	38163.65
434.17176	38387.95
438.2966	38700.45
442.41849	39239.15
446.53742	40123.05
450.6534	41172.35
454.76644	41933.95
458.87653	42353.75
462.98368	42187.95
467.08789	41803.85
471.18916	41259.15
475.2875	40634.15
479.38291	40268.05
483.4754	39911.15
487.56496	39498.25
491.6516	39034.95
495.73531	38766.95
499.81612	38779.95
503.89401	39001.35
507.96899	39269.25
512.04106	39371.15
516.11023	39318.45
520.1765	39150.15
524.23987	38922.85
528.30034	38666.45
532.35792	38243.65
536.41261	37808.95
540.46441	37368.05
544.51333	37311.85
548.55936	37648.45
552.60252	38349.05
556.64279	39023.65
560.6802	39401.65
564.71473	39630.35
568.7464	40131.55
572.7752	40839.95
576.80114	41429.65
580.82422	41944.05
584.84444	42458.55
588.86181	42938.35
592.87633	43496.55
596.888	44113.35
600.89682	44743.25
604.9028	46607.95
608.90594	50662.35
612.90624	54394.75
616.90371	50982.75
620.89834	43118.15
624.89015	39786.35
628.87913	39517.45
632.86528	39647.05
636.84862	39506.05
640.82913	39040.25
644.80683	38035.15
648.78172	37281.55
652.75379	37209.95
656.72306	37691.35
660.68952	38339.65
664.65319	38121.15
668.61405	37491.25
672.57211	37277.45
676.52738	37264.45
680.47986	37175.75
684.42955	37031.25
688.37646	36973.35
692.32058	37158.25
696.26192	37489.45
700.20048	37896.35
704.13626	38188.25
708.06928	38139.65
711.99952	37894.45
715.927	37859.35
719.85171	37960.05
723.77365	37865.25
727.69284	37464.45
731.60928	37123.75
735.52295	36984.45
739.43388	36951.85
743.34206	37035.35
747.24749	37235.35
751.15017	37561.15
755.05012	38141.75
758.94733	39145.65
762.8418	41072.05
766.73354	44104.35
770.62254	46930.35
774.50882	47578.35
778.39237	45560.15
782.27321	42303.45
786.15132	39652.35
790.02671	38136.95
793.89938	37383.35
797.76935	37144.25
801.6366	37047.55
805.50115	36967.05
809.36299	36786.55
813.22213	36456.75
817.07857	36370.35
820.93231	36264.45
824.78336	36176.05
828.63172	36209.35
832.47738	36276.25
836.32036	36366.75
840.16066	36461.15
843.99827	36621.15
847.8332	36520.75
851.66546	36364.75
855.49504	36353.25
859.32195	36379.65
863.1462	36263.35
866.96777	36132.05
870.78668	36042.55
874.60293	36027.95
878.41652	36049.75
882.22745	36156.15
886.03573	36229.65
889.84136	36222.45
893.64433	36066.25
897.44466	35902.15
901.24235	35845.35
905.0374	35784.65
908.8298	35758.35
912.61957	35774.05
916.40671	36088.65
920.19121	36489.45
923.97308	36929.85
927.75233	37042.55
931.52895	36895.35
935.30295	36547.15
939.07433	35974.85
942.84309	35543.95
946.60924	35398.95
950.37278	35311.55
954.13371	35234.95
957.89203	35092.85
961.64774	34972.65
965.40086	34913.65
969.15137	34797.85
972.89929	34719.05
976.64461	34732.95
980.38733	34830.25
984.12747	35031.15
987.86502	35390.05
991.59999	35881.25
995.33237	36514.55
999.06217	37465.55
1002.78939	38481.75
1006.51404	39112.05
1010.23611	39545.65
1013.95561	39851.75
1017.67255	39751.55
1021.38692	39190.75
1025.09872	38796.85
1028.80796	38907.35
1032.51465	39913.65
1036.21877	40892.15
1039.92035	41048.75
1043.61937	40606.25
1047.31584	39845.15
1051.00976	38994.55
1054.70114	38683.35
1058.38998	38713.35
1062.07627	39112.55
1065.76003	39658.85
1069.44126	40303.15
1073.11995	41172.05
1076.79611	41889.15
1080.46974	42267.45
1084.14085	42285.25
1087.80943	42395.55
1091.47549	42368.45
1095.13903	42031.05
1098.80005	41405.15
1102.45857	40608.65
1106.11456	40091.55
1109.76805	39882.25
1113.41903	39988.15
1117.06751	40176.15
1120.71348	40523.75
1124.35696	40824.95
1127.99793	41283.05
1131.63641	41475.25
1135.2724	41162.55
1138.90589	40908.35
1142.5369	40729.35
1146.16542	40623.95
1149.79145	40585.15
1153.415	40819.15
1157.03607	41287.95
1160.65467	42147.05
1164.27079	43690.35
1167.88443	45678.75
1171.49561	48246.85
1175.10432	51630.55
1178.71056	55882.25
1182.31434	59827.25
1185.91565	61816.35
1189.51451	61401.15
1193.11091	59282.15
1196.70485	56534.85
1200.29634	54056.05
1203.88538	52327.75
1207.47197	51088.95
1211.05612	50203.05
1214.63782	49487.45
1218.21708	49029.25
1221.79391	48658.45
1225.36829	48544.55
1228.94024	48120.45
1232.50976	47485.25
1236.07685	46941.35
1239.6415	46745.45
1243.20374	46725.75
1246.76355	46956.25
1250.32093	47564.55
1253.8759	48576.05
1257.42845	49823.35
1260.97859	51109.95
1264.52631	52292.75
1268.07163	53547.55
1271.61453	54894.25
1275.15503	56443.05
1278.69312	58001.35
1282.22882	59209.05
1285.76211	60312.85
1289.29301	61497.05
1292.82151	63059.15
1296.34761	65155.65
1299.87133	68074.85
1303.39266	71810.95
1306.9116	76244.35
1310.42815	80562.65
1313.94233	83289.55
1317.45412	83492.25
1320.96354	81944.45
1324.47058	80199.45
1327.97525	78554.55
1331.47754	77445.15
1334.97747	77003.25
1338.47502	76949.75
1341.97022	76833.95
1345.46305	76237.35
1348.95352	75253.85
1352.44163	74887.85
1355.92738	75973.15
1359.41078	79217.75
1362.89183	82429.45
1366.37053	81102.75
1369.84688	74796.55
1373.32088	67388.55
1376.79254	62263.45
1380.26186	59985.55
1383.72883	59398.05
1387.19347	59007.45
1390.65578	58210.55
1394.11575	57702.95
1397.57339	57910.05
1401.0287	58842.85
1404.48168	59904.65
1407.93234	60397.65
1411.38068	60174.25
1414.82669	58965.05
1418.27039	57140.85
1421.71177	55051.75
1425.15083	53234.05
1428.58758	52339.25
1432.02203	52442.55
1435.45416	53351.35
1438.88399	54646.95
1442.31151	55860.55
1445.73673	56757.75
1449.15965	57556.05
1452.58027	57954.45
1455.9986	58008.25
1459.41463	58368.55
1462.82837	59342.75
1466.23982	60560.35
1469.64898	61818.05
1473.05586	62536.15
1476.46045	62718.45
1479.86276	62372.15
1483.26279	61886.25
1486.66054	61429.55
1490.05602	61363.95
1493.44922	61621.45
1496.84016	62086.75
1500.22882	63166.15
1503.61521	65157.75
1506.99934	67667.25
1510.38121	69793.25
1513.76081	70646.95
1517.13816	69169.05
1520.51324	66206.25
1523.88607	63321.15
1527.25665	61451.65
1530.62498	60539.25
1533.99105	60044.75
1537.35488	59580.65
1540.71647	59068.95
1544.07581	58431.85
1547.4329	57648.45
1550.78776	56952.05
1554.14038	56427.45
1557.49077	56154.75
1560.83892	56122.55
1564.18484	56143.95
1567.52853	56437.35
1570.86999	57046.95
1574.20922	58150.35
1577.54624	59244.65
1580.88103	59636.85
1584.2136	59880.45
1587.54395	60591.75
1590.87208	62202.75
1594.19801	64993.45
1597.52172	68262.25
1600.84321	69214.75
1604.16251	66704.55
1607.47959	62225.35
1610.79447	57530.15
1614.10715	53219.35
1617.41763	49596.55
1620.7259	47084.85
1624.03199	45761.65
1627.33587	45713.45
1630.63757	46797.55
1633.93707	49223.85
1637.23439	53273.55
1640.52951	58684.65
1643.82246	64516.25
1647.11321	69111.55
1650.40179	69888.75
1653.68819	65755.65
1656.97241	58267.55
1660.25446	50869.25
1663.53433	45256.15
1666.81203	41701.75
1670.08756	39378.45
1673.36092	37946.15
1676.63211	36932.25
1679.90115	36281.95
1683.16801	35764.15
1686.43272	35401.05
1689.69527	35088.65
1692.95567	34900.25
1696.2139	34736.55
1699.46999	34679.85
1702.72392	34567.75
1705.97571	34483.45
1709.22535	34392.65
1712.47284	34306.15
1715.71819	34365.35
1718.96139	34204.45
1722.20246	34106.75
1725.44139	34030.95
1728.67818	33858.15
1731.91284	33650.35
1735.14537	33444.85
1738.37576	33357.75
1741.60403	33250.35
1744.83017	33158.25
1748.05418	33140.85
1751.27607	33035.45
1754.49584	32904.75
1757.71349	32912.25
1760.92903	32938.85
1764.14244	32900.05
1767.35375	32899.25
1770.56294	32858.05
1773.77002	32809.15
1776.97499	32773.25
1780.17785	32749.15
1783.37861	32648.65
1786.57727	32607.65
1789.77382	32516.25
1792.96828	32484.75
1796.16064	32466.05
1799.3509	32419.25
1802.53907	32358.65
1805.72514	32231.95
1808.90913	32171.55
1812.09102	32096.15
1815.27083	32075.55
1818.44856	32052.75
1821.6242	32013.65
1824.79776	31950.65
1827.96924	31959.25
1831.13864	31935.75
1834.30597	31985.45
1837.47122	31958.65
1840.6344	31960.15
1843.7955	31907.75
1846.95454	31899.45
1850.11151	31897.95
1853.26642	31884.95
1856.41926	31896.15
1859.57004	31913.65
1862.71876	31833.85
1865.86542	31846.55
1869.01003	31860.95
1872.15258	31803.05
1875.29308	31861.15
1878.43152	31789.65
1881.56792	31820.95
1884.70227	31780.75
1887.83457	31767.45
1890.96482	31745.95
1894.09304	31720.35
1897.21921	31774.85
1900.34335	31724.65
1903.46544	31659.95
1906.58551	31673.75
1909.70353	31650.75
1912.81953	31619.75
1915.93349	31544.35
1919.04543	31466.05
1922.15534	31418.25
1925.26322	31425.15
1928.36908	31287.65
1931.47292	31252.55
1934.57473	31136.45
1937.67453	31078.05
1940.77232	31008.65
1943.86808	30890.95
1946.96184	30780.65
1950.05358	30692.35
1953.14331	30623.35
1956.23103	30536.85
1959.31675	30531.15
1962.40046	30391.75
1965.48217	30309.35
1968.56188	30220.75
1971.63959	30173.15
1974.7153	30017.65
1977.78901	29928.35
1980.86073	29892.15
1983.93046	29846.05
1986.99819	29712.15
1990.06394	29660.65
1993.1277	29578.75
1996.18947	29459.75
1999.24925	29396.35
2002.30706	29271.25
2005.36288	29214.65
2008.41672	29134.85
2011.46859	29055.15
2014.51848	29022.95
2017.56639	28998.55
2020.61233	28909.05
2023.6563	28864.85
2026.6983	28796.75
2029.73833	28754.35
2032.7764	28728.45
2035.8125	28659.55
2038.84664	28607.45
2041.87881	28556.75
2044.90903	28525.35
2047.93729	28410.15
2050.96359	28437.15
2053.98794	28407.05
2057.01034	28383.75
2060.03078	28385.75
2063.04927	28353.55
2066.06582	28348.45
2069.08042	28305.55
2072.09307	28287.25
2075.10378	28323.45
2078.11255	28237.65
2081.11938	28250.75
2084.12426	28184.65
2087.12722	28256.55
2090.12824	28228.65
2093.12732	28233.85
2096.12447	28244.95
2099.11969	28204.75
2102.11299	28235.75
2105.10435	28222.95
2108.09379	28265.35
2111.08131	28299.85
2114.0669	28278.35
2117.05057	28341.95
2120.03233	28300.35
2123.01216	28344.75
2125.99008	28359.15
2128.96609	28398.05
2131.94018	28419.55
2134.91236	28423.65
2137.88263	28457.05
2140.851	28460.85
2143.81746	28497.05
2146.78201	28469.65
2149.74466	28494.85
2152.7054	28521.55
2155.66425	28504.25
2158.6212	28584.05
2161.57625	28506.55
2164.52941	28543.25
2167.48067	28541.35
2170.43004	28519.65
2173.37752	28484.65
2176.32311	28536.15
2179.26681	28497.85
2182.20863	28482.25
2185.14856	28487.55
2188.08661	28549.05
2191.02278	28510.55
2193.95707	28461.15
2196.88948	28454.55
2199.82001	28532.45
2202.74867	28464.75
2205.67545	28448.75
2208.60037	28427.05
2211.52341	28410.55
2214.44458	28418.85
2217.36388	28365.85
2220.28132	28362.15
2223.1969	28318.85
2226.11061	28292.25
2229.02246	28165.75
2231.93245	28114.85
2234.84058	28031.95
2237.74686	28032.75
2240.65128	28011.25
2243.55385	27945.05
2246.45456	27939.65
2249.35343	27883.45
2252.25044	27854.65
2255.14561	27788.05
2258.03893	27808.45
2260.93041	27759.95
2263.82004	27710.65
2266.70783	27655.45
2269.59378	27605.45
2272.4779	27507.95
2275.36017	27439.15
2278.24061	27350.15
2281.11922	27336.45
2283.996	27297.75
2286.87094	27268.05
2289.74405	27180.55
2292.61534	27240.85
2295.4848	27142.95
2298.35243	27177.85
2301.21824	27169.55
2304.08223	27169.15
2306.94439	27187.35
2309.80474	27200.55
2312.66327	27191.05
2315.51999	27194.45
2318.37489	27237.55
2321.22797	27175.35
2324.07925	27167.25
2326.92871	27107.55
2329.77637	27100.45
2332.62222	27123.75
2335.46626	27093.55
2338.3085	27063.95
2341.14893	27092.85
2343.98756	27112.95
2346.8244	27059.05
2349.65943	27100.05
2352.49267	27048.55
2355.32411	27024.55
2358.15376	27037.95
2360.98161	26960.85
2363.80768	26999.45
2366.63195	26944.25
2369.45444	26898.35
2372.27514	26855.15
2375.09405	26809.95
2377.91118	26810.95
2380.72652	26731.25
2383.54009	26699.35
2386.35187	26663.35
2389.16188	26548.25
2391.97011	26543.65
2394.77657	26510.95
2397.58125	26525.35
2400.38416	26484.95
2403.18529	26425.45
2405.98466	26373.85
2408.78226	26326.75
2411.57809	26266.85
2414.37216	26207.55
2417.16446	26210.95
2419.955	26173.75
2422.74378	26145.05
2425.5308	26106.95
2428.31606	26117.15
2431.09956	26104.85
2433.88131	26057.85
2436.6613	26066.05
2439.43954	26050.65
2442.21603	26002.35
2444.99077	26042.45
2447.76377	26038.75
2450.53501	26021.25
2453.30451	26011.45
2456.07226	26014.25
2458.83827	25974.45
2461.60254	26019.75
2464.36507	25962.35
2467.12586	25947.95
2469.88492	25929.35
2472.64224	25923.15
2475.39782	25969.85
2478.15167	25993.65
2480.90379	26004.05
2483.65417	26002.35
2486.40283	25981.55
2489.14976	25965.45
2491.89497	26011.75
2494.63845	26052.85
2497.3802	26018.25
2500.12024	26036.15
2502.85855	25993.85
2505.59514	26015.45
2508.33002	25964.75
2511.06318	25914.15
2513.79462	25925.05
2516.52435	25859.85
2519.25237	25844.85
2521.97867	25832.95
2524.70327	25835.95
2527.42616	25831.75
2530.14734	25826.15
2532.86681	25757.65
2535.58458	25742.65
2538.30065	25722.55
2541.01501	25735.95
2543.72768	25709.25
2546.43864	25708.05
2549.14791	25646.35
2551.85548	25654.75
2554.56136	25601.45
2557.26554	25574.75
2559.96803	25565.35
2562.66883	25569.55
2565.36794	25551.25
2568.06536	25545.95
2570.7611	25529.55
2573.45514	25437.55
2576.14751	25477.65
2578.83819	25454.25
2581.52719	25431.05
2584.21451	25428.05
2586.90015	25450.85
2589.58411	25356.55
2592.2664	25363.65
2594.94701	25324.45
2597.62594	25345.45
2600.30321	25299.15
2602.9788	25287.95
2605.65273	25255.75
2608.32498	25269.05
2610.99557	25214.55
2613.66449	25267.35
2616.33175	25231.35
2618.99734	25245.75
2621.66128	25218.75
2624.32355	25226.75
2626.98416	25246.45
2629.64311	25190.15
2632.30041	25195.35
2634.95605	25212.45
2637.61004	25198.25
2640.26238	25119.45
2642.91306	25091.85
2645.56209	25126.95
2648.20948	25119.85
2650.85521	25068.85
2653.4993	25077.45
2656.14175	25074.85
2658.78255	25055.25
2661.42171	25093.35
2664.05923	25114.25
2666.6951	25106.05
2669.32934	25122.85
2671.96194	25125.55
2674.59291	25118.75
2677.22224	25132.65
2679.84993	25140.35
2682.476	25061.45
2685.10043	25067.25
2687.72324	25024.85
2690.34441	25080.75
2692.96396	25029.15
2695.58188	25058.05
2698.19818	25000.15
2700.81285	25014.55
2703.4259	25052.85
2706.03733	25094.95
2708.64714	25097.15
2711.25533	25074.45
2713.86191	25135.95
2716.46687	25148.85
2719.07021	25117.65
2721.67194	25124.65
2724.27206	25101.95
2726.87057	25116.95
2729.46747	25140.35
2732.06276	25151.15
2734.65644	25124.45
2737.24852	25150.35
2739.83899	25100.35
2742.42786	25122.65
2745.01513	25068.75
2747.60079	25108.45
2750.18486	25080.35
2752.76733	25064.05
2755.3482	25049.15
2757.92747	25057.05
2760.50515	25037.05
2763.08123	25025.85
2765.65573	24959.25
2768.22863	24958.15
2770.79994	24934.45
2773.36967	24918.05
2775.9378	24941.55
2778.50435	24914.65
2781.06932	24875.25
2783.6327	24932.05
2786.1945	24890.25
2788.75471	24849.85
2791.31335	24842.75
2793.87041	24773.75
2796.42589	24717.85
2798.97979	24710.55
2801.53212	24659.25
2804.08288	24661.45
2806.63206	24602.55
2809.17967	24512.35
2811.72571	24441.25
2814.27018	24475.65
2816.81308	24422.25
2819.35442	24396.15
2821.89419	24370.65
2824.43239	24373.55
2826.96904	24318.95
2829.50412	24290.45
2832.03763	24274.15
2834.56959	24260.85
2837.1	24190.85
2839.62884	24172.25
2842.15613	24138.25
2844.68186	24158.95
2847.20604	24081.65
2849.72867	24101.45
2852.24974	24092.95
2854.76927	24035.45
2857.28724	24016.15
2859.80367	24034.35
2862.31855	23971.95
2864.83189	23990.35
2867.34368	23957.05
2869.85393	23977.65
2872.36264	23921.65
2874.8698	23918.35
2877.37543	23970.95
2879.87952	23940.75
2882.38207	23917.75
2884.88308	23940.15
2887.38256	23948.75
2889.88051	23934.55
2892.37692	23956.75
2894.8718	23925.85
2897.36515	23935.35
2899.85698	23938.65
2902.34727	24041.75
2904.83604	24012.55
2907.32328	24092.15
2909.809	24045.75
2912.29319	24124.45
2914.77587	24136.65
2917.25702	24142.75
2919.73665	24067.75
2922.21476	24099.55
2924.69136	24083.45
2927.16644	24051.65
2929.64	23973.55
2932.11205	23955.05
2934.58258	23849.65
2937.05161	23901.35
2939.51912	23948.05
2941.98513	23924.95
2944.44962	23854.15
2946.91261	23792.55
2949.37409	23828.75
2951.83407	23811.05
2954.29254	23759.35
2956.74951	23756.35
2959.20498	23724.95
2961.65895	23709.65
2964.11142	23710.15
2966.56239	23692.75
2969.01186	23679.05
2971.45984	23581.85
2973.90632	23579.15
2976.35131	23500.35
2978.7948	23425.35
2981.23681	23447.25
2983.67732	23400.35
2986.11635	23348.45
2988.55388	23271.95
2990.98993	23220.85
2993.4245	23196.45
2995.85758	23151.95
2998.28917	23089.45
3000.71928	23075.95
3003.14791	23008.95
3005.57506	22986.25
3008.00073	22924.85
3010.42493	22956.55
3012.84764	22900.45
3015.26888	22918.35
3017.68865	22849.45
3020.10694	22806.75
3022.52376	22794.05
3024.9391	22742.05
3027.35298	22741.35
3029.76539	22699.85
3032.17632	22667.55
3034.5858	22677.85
3036.9938	22640.15
3039.40034	22602.75
3041.80542	22556.65
3044.20903	22511.75
3046.61118	22500.45
3049.01187	22426.75
3051.4111	22425.05
3053.80888	22322.35
3056.20519	22322.95
3058.60005	22271.95
3060.99345	22243.65
3063.3854	22202.75
3065.7759	22141.55
3068.16494	22109.65
3070.55254	22024.35
3072.93868	22022.45
3075.32338	21959.25
3077.70662	21924.55
3080.08842	21859.35
3082.46878	21828.05
3084.84769	21829.05
3087.22515	21795.95
3089.60118	21745.95
3091.97576	21746.95
3094.3489	21745.65
3096.72061	21725.95
3099.09087	21723.05
3101.4597	21674.05
3103.82709	21680.55
3106.19305	21631.35
3108.55757	21618.25
3110.92066	21565.45
3113.28232	21532.05
3115.64255	21507.25
3118.00134	21426.15
3120.35871	21415.95
3122.71466	21395.85
3125.06917	21349.95
3127.42226	21328.85
3129.77393	21335.65
3132.12417	21305.45
3134.47299	21285.85
3136.82039	21256.35
3139.16636	21255.25
3141.51092	21216.15
3143.85406	21225.35
3146.19579	21264.55
3148.53609	21256.45
3150.87499	21250.45
3153.21246	21251.95
3155.54853	21297.25
3157.88318	21214.25
3160.21642	21240.85
3162.54826	21228.15
3164.87868	21198.75
3167.2077	21148.15
3169.5353	21153.55
3171.86151	21152.65
3174.18631	21119.25
3176.5097	21018.65
3178.83169	21037.75
3181.15228	21065.75
3183.47147	21019.25
3185.78926	21008.35
3188.10565	20982.05
3190.42065	20974.55
3192.73424	20967.85
3195.04645	20945.25
3197.35725	20965.45
3199.66667	20986.45
3201.97469	20993.25
3204.28132	20931.35
3206.58656	20954.85
3208.8904	20944.45
3211.19287	20938.05
3213.49394	20902.35
3215.79363	20925.65
3218.09193	20976.85
3220.38884	20931.75
3222.68438	20993.15
3224.97853	20960.85
3227.2713	20917.55
3229.56269	20879.85
3231.8527	20876.75
3234.14133	20805.55
3236.42858	20793.05
3238.71446	20798.65
