Data from AgNP_FTO_APTES_CRN_200uM_R6G_10uM_NaF_0.1M_Addition_RamanShift__9__19-27-28-168.txt Node

Date: Wed Dec 15 19:27:28 GMT 2021
User: TCL
Spectrometer: QEP01345
Trigger mode: 4
Integration Time (sec): 7.000000E0
Scans to average: 10
Electric dark correction enabled: true
Nonlinearity correction enabled: false
Boxcar width: 0
XAxis mode: Raman Shifts
Number of Pixels in Spectrum: 1044
>>>>>Begin Spectral Data<<<<<
46.04893	0.975
50.45542	-2.125
54.85868	-1.325
59.25871	-0.825
63.6555	51.475
68.04907	60.275
72.43941	60.375
76.82654	66.375
81.21044	69.175
85.59113	73.175
89.96862	75.975
94.34289	71.275
98.71396	79.075
103.08183	86.075
107.4465	85.175
111.80798	88.675
116.16626	85.075
120.52136	93.475
124.87327	88.875
129.222	94.275
133.56755	97.075
137.90993	101.375
142.24913	111.175
146.58517	121.075
150.91804	136.675
155.24774	161.075
159.57429	198.775
163.89768	247.775
168.21792	321.575
172.53501	431.075
176.84895	593.775
181.15975	828.575
185.46741	1161.675
189.77193	1599.375
194.07331	2129.975
198.37157	2749.775
202.6667	3397.175
206.9587	4025.175
211.24758	4669.475
215.53334	5285.175
219.81599	5943.675
224.09553	6645.375
228.37195	7439.075
232.64527	8312.375
236.91549	9225.375
241.18261	10193.175
245.44663	11087.975
249.70755	11928.475
253.96539	12667.475
258.22014	13284.175
262.4718	13791.575
266.72039	14089.875
270.96589	14266.575
275.20832	14358.375
279.44768	14262.775
283.68397	14148.375
287.91719	14036.475
292.14735	13999.475
296.37445	13955.475
300.59849	13928.675
304.81948	13914.975
309.03742	13837.275
313.25231	13720.375
317.46415	13490.375
321.67296	13210.975
325.87872	12959.075
330.08145	12866.775
334.28114	12829.875
338.47781	12953.375
342.67145	13071.775
346.86207	13226.675
351.04966	13425.375
355.23424	13592.175
359.4158	13735.575
363.59435	13841.175
367.76989	13890.375
371.94243	13937.775
376.11196	13966.075
380.27849	14010.575
384.44203	14058.275
388.60257	14201.675
392.76012	14337.875
396.91468	14502.875
401.06626	14712.775
405.21485	14888.875
409.36047	14863.875
413.50311	14763.375
417.64277	14673.975
421.77947	14683.775
425.9132	14727.475
430.04396	14813.175
434.17176	14872.575
438.2966	14965.675
442.41849	15082.175
446.53742	15236.275
450.6534	15500.575
454.76644	15704.675
458.87653	15787.275
462.98368	15852.275
467.08789	15819.375
471.18916	15796.575
475.2875	15758.775
479.38291	15751.775
483.4754	15695.675
487.56496	15532.575
491.6516	15333.175
495.73531	15158.375
499.81612	15111.375
503.89401	15186.875
507.96899	15268.375
512.04106	15290.775
516.11023	15259.275
520.1765	15239.775
524.23987	15153.075
528.30034	15028.775
532.35792	14930.575
536.41261	14822.475
540.46441	14711.875
544.51333	14735.875
548.55936	14888.475
552.60252	15136.575
556.64279	15389.575
560.6802	15543.775
564.71473	15633.475
568.7464	15799.975
572.7752	16133.875
576.80114	16487.475
580.82422	16836.075
584.84444	17211.275
588.86181	17445.575
592.87633	17528.775
596.888	17377.575
600.89682	17034.175
604.9028	17032.975
608.90594	17598.375
612.90624	18264.275
616.90371	17411.475
620.89834	15661.175
624.89015	14859.875
628.87913	14789.575
632.86528	14928.175
636.84862	14979.275
640.82913	14881.775
644.80683	14714.275
648.78172	14558.875
652.75379	14506.675
656.72306	14563.775
660.68952	14688.475
664.65319	14683.875
668.61405	14550.775
672.57211	14570.775
676.52738	14622.575
680.47986	14619.275
684.42955	14613.475
688.37646	14563.275
692.32058	14572.475
696.26192	14654.375
700.20048	14781.275
704.13626	14909.075
708.06928	14968.375
711.99952	14982.075
715.927	14971.675
719.85171	14963.475
723.77365	14833.675
727.69284	14671.075
731.60928	14569.675
735.52295	14499.175
739.43388	14500.975
743.34206	14495.875
747.24749	14582.975
751.15017	14650.575
755.05012	14849.975
758.94733	15122.775
762.8418	15633.975
766.73354	16429.575
770.62254	17150.275
774.50882	17194.875
778.39237	16613.775
782.27321	15792.675
786.15132	15113.175
790.02671	14727.475
793.89938	14545.175
797.76935	14418.075
801.6366	14423.975
805.50115	14395.075
809.36299	14357.075
813.22213	14321.475
817.07857	14295.575
820.93231	14295.875
824.78336	14242.675
828.63172	14223.675
832.47738	14210.075
836.32036	14223.575
840.16066	14220.075
843.99827	14193.175
847.8332	14154.675
851.66546	14135.375
855.49504	14118.875
859.32195	14129.875
863.1462	14106.975
866.96777	14129.775
870.78668	14102.175
874.60293	14130.875
878.41652	14115.175
882.22745	14139.675
886.03573	14174.675
889.84136	14211.075
893.64433	14205.675
897.44466	14153.875
901.24235	14143.175
905.0374	14114.875
908.8298	14123.175
912.61957	14139.775
916.40671	14237.275
920.19121	14354.075
923.97308	14418.875
927.75233	14381.675
931.52895	14314.075
935.30295	14136.275
939.07433	13928.575
942.84309	13774.075
946.60924	13728.075
950.37278	13647.975
954.13371	13643.275
957.89203	13632.775
961.64774	13636.675
965.40086	13622.975
969.15137	13604.875
972.89929	13530.075
976.64461	13479.675
980.38733	13433.275
984.12747	13452.275
987.86502	13459.275
991.59999	13492.575
995.33237	13537.775
999.06217	13668.575
1002.78939	13808.775
1006.51404	13941.175
1010.23611	14112.775
1013.95561	14263.575
1017.67255	14228.975
1021.38692	14203.575
1025.09872	14060.875
1028.80796	13978.875
1032.51465	13912.275
1036.21877	13955.375
1039.92035	14005.675
1043.61937	14081.475
1047.31584	14174.875
1051.00976	14295.875
1054.70114	14438.575
1058.38998	14612.775
1062.07627	14942.475
1065.76003	15299.775
1069.44126	15700.175
1073.11995	16020.775
1076.79611	16131.175
1080.46974	15916.675
1084.14085	15612.375
1087.80943	15378.975
1091.47549	15286.675
1095.13903	15262.475
1098.80005	15102.375
1102.45857	14848.175
1106.11456	14542.875
1109.76805	14385.275
1113.41903	14348.675
1117.06751	14344.875
1120.71348	14474.975
1124.35696	14632.975
1127.99793	14823.475
1131.63641	14980.775
1135.2724	14886.075
1138.90589	14835.275
1142.5369	14796.775
1146.16542	14805.975
1149.79145	14916.975
1153.415	15028.375
1157.03607	15119.575
1160.65467	15361.575
1164.27079	15821.875
1167.88443	16389.175
1171.49561	17063.675
1175.10432	17922.575
1178.71056	18938.375
1182.31434	19856.475
1185.91565	20329.575
1189.51451	20332.575
1193.11091	20013.975
1196.70485	19441.175
1200.29634	18808.275
1203.88538	18345.575
1207.47197	18044.275
1211.05612	17858.375
1214.63782	17568.775
1218.21708	17214.175
1221.79391	16775.075
1225.36829	16471.975
1228.94024	16295.175
1232.50976	16214.575
1236.07685	16174.675
1239.6415	16124.275
1243.20374	16164.075
1246.76355	16229.975
1250.32093	16374.575
1253.8759	16602.575
1257.42845	16909.775
1260.97859	17224.975
1264.52631	17555.975
1268.07163	17858.275
1271.61453	18123.775
1275.15503	18464.575
1278.69312	18812.275
1282.22882	19191.175
1285.76211	19633.075
1289.29301	20227.875
1292.82151	20926.575
1296.34761	21703.975
1299.87133	22543.075
1303.39266	23365.875
1306.9116	24073.975
1310.42815	24634.875
1313.94233	24964.375
1317.45412	24934.275
1320.96354	24779.975
1324.47058	24685.775
1327.97525	24645.975
1331.47754	24633.575
1334.97747	24616.075
1338.47502	24642.975
1341.97022	24696.675
1345.46305	24673.575
1348.95352	24593.875
1352.44163	24573.775
1355.92738	24707.275
1359.41078	25024.475
1362.89183	25363.575
1366.37053	24986.875
1369.84688	23663.975
1373.32088	21931.775
1376.79254	20601.875
1380.26186	20003.675
1383.72883	19828.675
1387.19347	19758.775
1390.65578	19616.775
1394.11575	19489.275
1397.57339	19522.775
1401.0287	19586.575
1404.48168	19568.775
1407.93234	19424.275
1411.38068	19051.475
1414.82669	18529.475
1418.27039	17903.575
1421.71177	17339.475
1425.15083	16865.775
1428.58758	16649.275
1432.02203	16686.675
1435.45416	16910.275
1438.88399	17208.275
1442.31151	17416.375
1445.73673	17611.475
1449.15965	17794.275
1452.58027	17959.375
1455.9986	18098.175
1459.41463	18284.575
1462.82837	18520.275
1466.23982	18794.975
1469.64898	19021.675
1473.05586	19190.975
1476.46045	19284.575
1479.86276	19223.775
1483.26279	19204.875
1486.66054	19149.975
1490.05602	19263.475
1493.44922	19548.875
1496.84016	19902.875
1500.22882	20432.275
1503.61521	21124.675
1506.99934	21776.775
1510.38121	22281.275
1513.76081	22275.675
1517.13816	21890.675
1520.51324	21355.775
1523.88607	20928.175
1527.25665	20674.775
1530.62498	20576.975
1533.99105	20422.675
1537.35488	20175.075
1540.71647	19817.575
1544.07581	19357.575
1547.4329	18904.875
1550.78776	18547.175
1554.14038	18298.975
1557.49077	18196.075
1560.83892	18176.775
1564.18484	18233.975
1567.52853	18481.175
1570.86999	18835.075
1574.20922	19358.275
1577.54624	19976.575
1580.88103	20271.075
1584.2136	20228.175
1587.54395	20046.875
1590.87208	19974.575
1594.19801	20215.475
1597.52172	20702.975
1600.84321	20733.675
1604.16251	20175.075
1607.47959	19222.575
1610.79447	18149.875
1614.10715	17110.475
1617.41763	16209.475
1620.7259	15533.775
1624.03199	15130.875
1627.33587	15001.575
1630.63757	15192.375
1633.93707	15733.575
1637.23439	16727.975
1640.52951	18186.975
1643.82246	19934.275
1647.11321	21547.175
1650.40179	22143.175
1653.68819	21264.675
1656.97241	19437.275
1660.25446	17422.875
1663.53433	15779.575
1666.81203	14622.675
1670.08756	13865.875
1673.36092	13329.175
1676.63211	12999.875
1679.90115	12782.475
1683.16801	12604.475
1686.43272	12488.175
1689.69527	12379.475
1692.95567	12328.175
1696.2139	12304.375
1699.46999	12271.375
1702.72392	12251.275
1705.97571	12175.575
1709.22535	12134.375
1712.47284	12101.975
1715.71819	12080.375
1718.96139	12059.775
1722.20246	12049.075
1725.44139	11980.575
1728.67818	11922.075
1731.91284	11892.675
1735.14537	11820.175
1738.37576	11789.875
1741.60403	11751.675
1744.83017	11747.175
1748.05418	11718.275
1751.27607	11691.375
1754.49584	11674.175
1757.71349	11704.075
1760.92903	11688.275
1764.14244	11681.475
1767.35375	11663.775
1770.56294	11649.075
1773.77002	11621.675
1776.97499	11594.375
1780.17785	11564.875
1783.37861	11525.475
1786.57727	11510.875
1789.77382	11457.775
1792.96828	11461.475
1796.16064	11437.375
1799.3509	11386.875
1802.53907	11377.775
1805.72514	11324.375
1808.90913	11294.675
1812.09102	11286.875
1815.27083	11282.675
1818.44856	11256.375
1821.6242	11252.575
1824.79776	11226.175
1827.96924	11219.775
1831.13864	11217.275
1834.30597	11202.275
1837.47122	11204.675
1840.6344	11180.875
1843.7955	11214.775
1846.95454	11182.875
1850.11151	11157.975
1853.26642	11153.375
1856.41926	11144.375
1859.57004	11157.275
1862.71876	11094.275
1865.86542	11103.975
1869.01003	11097.275
1872.15258	11079.075
1875.29308	11066.075
1878.43152	11058.975
1881.56792	11026.175
1884.70227	11005.475
1887.83457	10988.975
1890.96482	10967.375
1894.09304	10942.175
1897.21921	10933.575
1900.34335	10937.175
1903.46544	10914.275
1906.58551	10897.975
1909.70353	10887.375
1912.81953	10864.475
1915.93349	10830.075
1919.04543	10824.775
1922.15534	10808.175
1925.26322	10787.675
1928.36908	10767.575
1931.47292	10770.975
1934.57473	10712.375
1937.67453	10699.775
1940.77232	10673.475
1943.86808	10660.275
1946.96184	10613.175
1950.05358	10589.375
1953.14331	10557.475
1956.23103	10521.075
1959.31675	10501.975
1962.40046	10454.175
1965.48217	10431.275
1968.56188	10392.675
1971.63959	10374.175
1974.7153	10330.275
1977.78901	10318.275
1980.86073	10273.875
1983.93046	10235.275
1986.99819	10186.775
1990.06394	10177.475
1993.1277	10154.875
1996.18947	10103.375
1999.24925	10077.175
2002.30706	10063.675
2005.36288	10047.575
2008.41672	10005.075
2011.46859	9982.375
2014.51848	9961.675
2017.56639	9923.175
2020.61233	9905.475
2023.6563	9887.475
2026.6983	9871.075
2029.73833	9846.875
2032.7764	9830.075
2035.8125	9779.875
2038.84664	9738.275
2041.87881	9731.175
2044.90903	9717.275
2047.93729	9694.475
2050.96359	9674.675
2053.98794	9662.875
2057.01034	9647.175
2060.03078	9643.375
2063.04927	9639.475
2066.06582	9629.975
2069.08042	9630.775
2072.09307	9628.275
2075.10378	9613.275
2078.11255	9608.975
2081.11938	9576.975
2084.12426	9600.275
2087.12722	9597.275
2090.12824	9599.875
2093.12732	9620.375
2096.12447	9597.575
2099.11969	9603.775
2102.11299	9582.875
2105.10435	9600.475
2108.09379	9601.675
2111.08131	9597.775
2114.0669	9588.475
2117.05057	9615.575
2120.03233	9603.875
2123.01216	9626.375
2125.99008	9623.475
2128.96609	9647.075
2131.94018	9644.775
2134.91236	9622.275
2137.88263	9641.875
2140.851	9665.475
2143.81746	9641.175
2146.78201	9645.775
2149.74466	9659.775
2152.7054	9667.775
2155.66425	9657.375
2158.6212	9676.375
2161.57625	9661.075
2164.52941	9634.775
2167.48067	9625.875
2170.43004	9631.475
2173.37752	9616.175
2176.32311	9630.675
2179.26681	9627.575
2182.20863	9595.475
2185.14856	9613.475
2188.08661	9606.075
2191.02278	9599.775
2193.95707	9575.575
2196.88948	9562.275
2199.82001	9589.275
2202.74867	9533.975
2205.67545	9551.775
2208.60037	9552.675
2211.52341	9522.575
2214.44458	9519.675
2217.36388	9481.575
2220.28132	9474.175
2223.1969	9429.275
2226.11061	9434.975
2229.02246	9406.675
2231.93245	9389.575
2234.84058	9373.075
2237.74686	9375.075
2240.65128	9373.975
2243.55385	9339.575
2246.45456	9327.175
2249.35343	9313.675
2252.25044	9316.675
2255.14561	9268.075
2258.03893	9253.975
2260.93041	9287.375
2263.82004	9218.375
2266.70783	9198.075
2269.59378	9198.775
2272.4779	9164.075
2275.36017	9144.075
2278.24061	9105.775
2281.11922	9079.775
2283.996	9074.375
2286.87094	9076.775
2289.74405	9043.375
2292.61534	9031.375
2295.4848	9029.175
2298.35243	9013.775
2301.21824	9016.075
2304.08223	8977.975
2306.94439	8987.275
2309.80474	8979.475
2312.66327	8990.575
2315.51999	8974.375
2318.37489	8968.075
2321.22797	8948.475
2324.07925	8915.275
2326.92871	8914.975
2329.77637	8897.875
2332.62222	8893.575
2335.46626	8864.375
2338.3085	8853.975
2341.14893	8836.675
2343.98756	8842.275
2346.8244	8832.775
2349.65943	8805.575
2352.49267	8836.075
2355.32411	8797.475
2358.15376	8801.175
2360.98161	8804.675
2363.80768	8800.675
2366.63195	8782.875
2369.45444	8806.475
2372.27514	8778.075
2375.09405	8779.375
2377.91118	8740.475
2380.72652	8727.575
2383.54009	8704.975
2386.35187	8694.075
2389.16188	8650.175
2391.97011	8647.075
2394.77657	8607.775
2397.58125	8620.275
2400.38416	8608.775
2403.18529	8587.775
2405.98466	8571.375
2408.78226	8576.175
2411.57809	8565.275
2414.37216	8535.375
2417.16446	8550.275
2419.955	8511.375
2422.74378	8511.675
2425.5308	8508.875
2428.31606	8483.375
2431.09956	8474.475
2433.88131	8475.275
2436.6613	8460.375
2439.43954	8454.575
2442.21603	8431.575
2444.99077	8436.775
2447.76377	8439.975
2450.53501	8421.075
2453.30451	8418.475
2456.07226	8410.275
2458.83827	8394.575
2461.60254	8369.275
2464.36507	8373.475
2467.12586	8361.275
2469.88492	8370.775
2472.64224	8358.375
2475.39782	8335.475
2478.15167	8355.575
2480.90379	8343.275
2483.65417	8344.475
2486.40283	8336.175
2489.14976	8322.575
2491.89497	8331.875
2494.63845	8339.175
2497.3802	8299.875
2500.12024	8311.975
2502.85855	8295.775
2505.59514	8295.675
2508.33002	8274.975
2511.06318	8260.675
2513.79462	8253.375
2516.52435	8260.775
2519.25237	8245.575
2521.97867	8232.675
2524.70327	8223.875
2527.42616	8217.075
2530.14734	8191.375
2532.86681	8193.175
2535.58458	8168.475
2538.30065	8161.275
2541.01501	8140.175
2543.72768	8158.275
2546.43864	8116.075
2549.14791	8108.575
2551.85548	8094.475
2554.56136	8071.275
2557.26554	8054.175
2559.96803	8052.575
2562.66883	8027.075
2565.36794	8024.375
2568.06536	8025.475
2570.7611	8021.675
2573.45514	8007.975
2576.14751	8003.075
2578.83819	7965.075
2581.52719	7957.775
2584.21451	7951.475
2586.90015	7939.575
2589.58411	7905.575
2592.2664	7899.775
2594.94701	7896.575
2597.62594	7889.775
2600.30321	7868.075
2602.9788	7859.275
2605.65273	7829.075
2608.32498	7827.075
2610.99557	7825.175
2613.66449	7820.875
2616.33175	7791.775
2618.99734	7792.175
2621.66128	7772.075
2624.32355	7765.175
2626.98416	7770.375
2629.64311	7741.875
2632.30041	7756.575
2634.95605	7729.275
2637.61004	7726.475
2640.26238	7727.375
2642.91306	7703.575
2645.56209	7701.875
2648.20948	7715.975
2650.85521	7687.775
2653.4993	7698.275
2656.14175	7682.475
2658.78255	7677.675
2661.42171	7697.375
2664.05923	7679.975
2666.6951	7688.175
2669.32934	7686.175
2671.96194	7680.975
2674.59291	7670.575
2677.22224	7658.375
2679.84993	7677.475
2682.476	7680.975
2685.10043	7680.575
2687.72324	7653.875
2690.34441	7677.275
2692.96396	7664.875
2695.58188	7675.975
2698.19818	7683.675
2700.81285	7676.975
2703.4259	7685.275
2706.03733	7719.875
2708.64714	7700.075
2711.25533	7705.875
2713.86191	7685.675
2716.46687	7686.675
2719.07021	7666.475
2721.67194	7671.875
2724.27206	7647.875
2726.87057	7673.575
2729.46747	7657.975
2732.06276	7669.975
2734.65644	7664.375
2737.24852	7646.375
2739.83899	7622.075
2742.42786	7626.775
2745.01513	7618.675
2747.60079	7596.275
2750.18486	7594.275
2752.76733	7573.175
2755.3482	7587.075
2757.92747	7581.575
2760.50515	7571.775
2763.08123	7547.175
2765.65573	7558.675
2768.22863	7541.175
2770.79994	7533.175
2773.36967	7521.275
2775.9378	7534.375
2778.50435	7515.075
2781.06932	7479.875
2783.6327	7488.875
2786.1945	7479.675
2788.75471	7451.775
2791.31335	7465.975
2793.87041	7439.775
2796.42589	7426.175
2798.97979	7417.975
2801.53212	7400.975
2804.08288	7395.275
2806.63206	7378.175
2809.17967	7375.975
2811.72571	7334.275
2814.27018	7341.375
2816.81308	7324.075
2819.35442	7307.775
2821.89419	7297.875
2824.43239	7300.375
2826.96904	7277.675
2829.50412	7272.275
2832.03763	7276.475
2834.56959	7265.875
2837.1	7267.475
2839.62884	7274.875
2842.15613	7280.875
2844.68186	7297.475
2847.20604	7312.675
2849.72867	7323.075
2852.24974	7312.275
2854.76927	7320.575
2857.28724	7312.675
2859.80367	7284.175
2862.31855	7275.275
2864.83189	7262.075
2867.34368	7254.175
2869.85393	7248.075
2872.36264	7229.975
2874.8698	7220.975
2877.37543	7212.375
2879.87952	7235.675
2882.38207	7223.875
2884.88308	7223.775
2887.38256	7211.775
2889.88051	7221.675
2892.37692	7204.675
2894.8718	7199.775
2897.36515	7206.975
2899.85698	7213.475
2902.34727	7225.475
2904.83604	7222.575
2907.32328	7218.975
2909.809	7239.575
2912.29319	7232.475
2914.77587	7213.675
2917.25702	7214.275
2919.73665	7214.275
2922.21476	7218.675
2924.69136	7211.175
2927.16644	7204.175
2929.64	7204.575
2932.11205	7186.275
2934.58258	7159.075
2937.05161	7191.875
2939.51912	7180.875
2941.98513	7186.275
2944.44962	7158.775
2946.91261	7148.275
2949.37409	7136.375
2951.83407	7118.775
2954.29254	7113.375
2956.74951	7081.575
2959.20498	7091.975
2961.65895	7074.075
2964.11142	7067.275
2966.56239	7037.175
2969.01186	7043.575
2971.45984	7020.675
2973.90632	7019.275
2976.35131	6984.675
2978.7948	6975.475
2981.23681	6956.575
2983.67732	6959.375
2986.11635	6933.275
2988.55388	6905.975
2990.98993	6891.675
2993.4245	6905.975
2995.85758	6869.675
2998.28917	6874.475
3000.71928	6847.275
3003.14791	6836.075
3005.57506	6834.875
3008.00073	6837.475
3010.42493	6808.475
3012.84764	6788.675
3015.26888	6802.375
3017.68865	6775.975
3020.10694	6772.275
3022.52376	6757.975
3024.9391	6738.575
3027.35298	6733.875
3029.76539	6743.575
3032.17632	6729.475
3034.5858	6703.875
3036.9938	6716.375
3039.40034	6712.575
3041.80542	6689.575
3044.20903	6688.875
3046.61118	6679.775
3049.01187	6673.075
3051.4111	6656.775
3053.80888	6670.575
3056.20519	6642.575
3058.60005	6630.675
3060.99345	6622.175
3063.3854	6598.075
3065.7759	6584.875
3068.16494	6578.075
3070.55254	6569.175
3072.93868	6572.175
3075.32338	6550.575
3077.70662	6547.375
3080.08842	6498.675
3082.46878	6501.475
3084.84769	6525.075
3087.22515	6523.575
3089.60118	6531.875
3091.97576	6523.575
3094.3489	6532.075
3096.72061	6519.275
3099.09087	6528.775
3101.4597	6513.975
3103.82709	6514.975
3106.19305	6499.375
3108.55757	6493.375
3110.92066	6458.775
3113.28232	6464.775
3115.64255	6465.875
3118.00134	6459.475
3120.35871	6432.275
3122.71466	6435.775
3125.06917	6421.775
3127.42226	6424.375
3129.77393	6425.075
3132.12417	6429.275
3134.47299	6422.075
3136.82039	6442.975
3139.16636	6442.475
3141.51092	6442.375
3143.85406	6441.475
3146.19579	6435.075
3148.53609	6429.975
3150.87499	6478.575
3153.21246	6471.275
3155.54853	6470.375
3157.88318	6469.975
3160.21642	6464.975
3162.54826	6455.775
3164.87868	6474.575
3167.2077	6462.375
3169.5353	6465.175
3171.86151	6476.975
3174.18631	6470.375
3176.5097	6475.275
3178.83169	6451.275
