Data from AgNP_FTO_APTES_CRN_2uM_R6G_10uM_NaF_0.1M_Addition_RamanShift__22__15-00-39-352.txt Node

Date: Wed Dec 15 15:00:39 GMT 2021
User: TCL
Spectrometer: QEP01345
Trigger mode: 4
Integration Time (sec): 7.000000E0
Scans to average: 10
Electric dark correction enabled: true
Nonlinearity correction enabled: false
Boxcar width: 0
XAxis mode: Raman Shifts
Number of Pixels in Spectrum: 1044
>>>>>Begin Spectral Data<<<<<
46.04893	0.55
50.45542	-2.15
54.85868	-1.25
59.25871	-2.25
63.6555	128.35
68.04907	137.65
72.43941	141.35
76.82654	147.15
81.21044	151.25
85.59113	162.05
89.96862	164.05
94.34289	166.95
98.71396	175.95
103.08183	180.25
107.4465	183.25
111.80798	190.25
116.16626	192.55
120.52136	203.25
124.87327	202.25
129.222	218.35
133.56755	229.05
137.90993	248.65
142.24913	276.75
146.58517	303.35
150.91804	351.25
155.24774	415.95
159.57429	518.45
163.89768	651.85
168.21792	860.25
172.53501	1168.45
176.84895	1632.45
181.15975	2277.65
185.46741	3189.15
189.77193	4375.95
194.07331	5846.35
198.37157	7521.55
202.6667	9294.65
206.9587	11008.65
211.24758	12713.95
215.53334	14425.15
219.81599	16273.25
224.09553	18298.05
228.37195	20555.85
232.64527	23029.45
236.91549	25668.35
241.18261	28278.55
245.44663	30679.05
249.70755	32755.65
253.96539	34542.15
258.22014	36151.95
262.4718	37482.25
266.72039	38502.25
270.96589	38983.45
275.20832	39065.75
279.44768	38951.95
283.68397	38643.05
287.91719	38332.15
292.14735	38123.45
296.37445	38173.25
300.59849	38409.65
304.81948	38652.35
309.03742	38676.25
313.25231	38350.15
317.46415	37493.55
321.67296	36399.75
325.87872	35481.15
330.08145	35066.35
334.28114	35021.35
338.47781	35327.45
342.67145	35877.05
346.86207	36559.95
351.04966	37418.95
355.23424	38364.75
359.4158	39205.75
363.59435	39772.05
367.76989	40073.55
371.94243	40244.25
376.11196	40345.65
380.27849	40439.55
384.44203	40477.85
388.60257	40697.75
392.76012	41037.15
396.91468	41500.95
401.06626	42289.85
405.21485	42785.95
409.36047	42671.75
413.50311	41960.45
417.64277	41379.65
421.77947	41193.25
425.9132	41289.45
430.04396	41576.65
434.17176	41840.25
438.2966	42262.65
442.41849	42916.25
446.53742	43935.15
450.6534	45234.05
454.76644	46261.15
458.87653	46679.45
462.98368	46492.65
467.08789	45862.65
471.18916	45090.65
475.2875	44276.25
479.38291	43771.55
483.4754	43277.85
487.56496	42765.05
491.6516	42216.85
495.73531	41911.75
499.81612	41804.45
503.89401	42120.25
507.96899	42357.45
512.04106	42388.75
516.11023	42333.65
520.1765	42146.55
524.23987	41947.65
528.30034	41665.25
532.35792	41200.65
536.41261	40616.45
540.46441	39983.95
544.51333	39904.55
548.55936	40346.45
552.60252	41132.75
556.64279	41976.85
560.6802	42408.25
564.71473	42631.05
568.7464	43292.25
572.7752	44187.75
576.80114	44845.65
580.82422	45564.45
584.84444	46304.75
588.86181	46906.45
592.87633	47681.65
596.888	48424.15
600.89682	49171.35
604.9028	51286.05
608.90594	56174.75
612.90624	60565.95
616.90371	56531.55
620.89834	47200.35
624.89015	43345.45
628.87913	43072.15
632.86528	42982.05
636.84862	42544.35
640.82913	41687.85
644.80683	40391.05
648.78172	39609.75
652.75379	39449.75
656.72306	40034.85
660.68952	40785.75
664.65319	40601.85
668.61405	39902.25
672.57211	39623.55
676.52738	39576.55
680.47986	39528.85
684.42955	39366.95
688.37646	39280.25
692.32058	39513.25
696.26192	39957.45
700.20048	40437.85
704.13626	40714.25
708.06928	40623.95
711.99952	40324.75
715.927	40256.75
719.85171	40317.95
723.77365	40144.35
727.69284	39657.65
731.60928	39222.15
735.52295	39060.25
739.43388	39102.05
743.34206	39257.45
747.24749	39493.55
751.15017	39941.25
755.05012	40634.15
758.94733	41980.95
762.8418	44265.05
766.73354	47944.35
770.62254	51299.65
774.50882	52043.65
778.39237	49362.55
782.27321	45444.55
786.15132	42301.55
790.02671	40570.95
793.89938	39744.95
797.76935	39450.15
801.6366	39400.55
805.50115	39292.65
809.36299	39072.25
813.22213	38714.35
817.07857	38524.45
820.93231	38424.75
824.78336	38335.95
828.63172	38395.15
832.47738	38401.35
836.32036	38594.45
840.16066	38852.65
843.99827	39025.95
847.8332	38869.85
851.66546	38654.55
855.49504	38555.25
859.32195	38468.75
863.1462	38261.55
866.96777	38083.35
870.78668	37921.55
874.60293	37888.45
878.41652	37899.95
882.22745	38117.65
886.03573	38170.45
889.84136	38127.95
893.64433	37928.25
897.44466	37833.65
901.24235	37698.15
905.0374	37661.05
908.8298	37643.35
912.61957	37741.75
916.40671	38107.85
920.19121	38758.65
923.97308	39413.75
927.75233	39697.15
931.52895	39510.95
935.30295	38915.55
939.07433	38140.05
942.84309	37590.25
946.60924	37466.85
950.37278	37338.55
954.13371	37097.25
957.89203	36855.25
961.64774	36720.75
965.40086	36623.75
969.15137	36518.65
972.89929	36394.45
976.64461	36363.35
980.38733	36475.15
984.12747	36693.05
987.86502	37123.35
991.59999	37729.75
995.33237	38702.15
999.06217	40208.85
1002.78939	41837.15
1006.51404	42840.25
1010.23611	43360.85
1013.95561	43702.75
1017.67255	43522.75
1021.38692	42845.25
1025.09872	42621.25
1028.80796	43283.85
1032.51465	45137.85
1036.21877	46849.85
1039.92035	47029.95
1043.61937	46111.15
1047.31584	44484.55
1051.00976	42877.45
1054.70114	41967.25
1058.38998	41818.25
1062.07627	42152.15
1065.76003	42625.55
1069.44126	43370.75
1073.11995	44386.45
1076.79611	45286.35
1080.46974	45665.85
1084.14085	45765.05
1087.80943	45711.95
1091.47549	45415.95
1095.13903	44895.35
1098.80005	43956.25
1102.45857	42906.15
1106.11456	42359.95
1109.76805	42217.65
1113.41903	42400.05
1117.06751	42676.15
1120.71348	43135.05
1124.35696	43549.45
1127.99793	44035.75
1131.63641	44257.35
1135.2724	44034.95
1138.90589	43725.45
1142.5369	43465.95
1146.16542	43319.25
1149.79145	43339.15
1153.415	43669.85
1157.03607	44252.45
1160.65467	45387.25
1164.27079	47192.25
1167.88443	49742.35
1171.49561	53132.85
1175.10432	57534.45
1178.71056	63046.85
1182.31434	68179.15
1185.91565	70823.25
1189.51451	70489.15
1193.11091	67660.75
1196.70485	63994.65
1200.29634	60744.65
1203.88538	58251.25
1207.47197	56636.35
1211.05612	55385.35
1214.63782	54600.55
1218.21708	54082.25
1221.79391	53964.05
1225.36829	53929.65
1228.94024	53521.55
1232.50976	52577.75
1236.07685	51811.95
1239.6415	51315.95
1243.20374	51358.35
1246.76355	51655.85
1250.32093	52404.55
1253.8759	53765.15
1257.42845	55475.55
1260.97859	57098.75
1264.52631	58660.35
1268.07163	60311.05
1271.61453	62192.05
1275.15503	64290.35
1278.69312	66564.95
1282.22882	68324.65
1285.76211	69741.45
1289.29301	71045.85
1292.82151	72910.95
1296.34761	75505.85
1299.87133	79351.15
1303.39266	84429.65
1306.9116	90483.75
1310.42815	96374.25
1313.94233	100017.85
1317.45412	100163.05
1320.96354	97877.75
1324.47058	95005.55
1327.97525	92504.75
1331.47754	90662.55
1334.97747	89895.15
1338.47502	89703.55
1341.97022	89625.45
1345.46305	88766.15
1348.95352	87426.55
1352.44163	86918.55
1355.92738	88547.35
1359.41078	93028.85
1362.89183	97262.35
1366.37053	95622.45
1369.84688	87606.75
1373.32088	78308.25
1376.79254	71826.65
1380.26186	68891.15
1383.72883	68101.25
1387.19347	67490.65
1390.65578	66517.75
1394.11575	65900.75
1397.57339	66222.55
1401.0287	67576.75
1404.48168	68951.95
1407.93234	69717.65
1411.38068	69623.35
1414.82669	68286.05
1418.27039	65914.15
1421.71177	63328.85
1425.15083	61016.15
1428.58758	59712.05
1432.02203	59719.65
1435.45416	60779.45
1438.88399	62254.45
1442.31151	63621.15
1445.73673	64648.95
1449.15965	65582.25
1452.58027	65952.65
1455.9986	65904.55
1459.41463	66270.35
1462.82837	67345.65
1466.23982	68842.75
1469.64898	70395.95
1473.05586	71307.65
1476.46045	71670.65
1479.86276	71478.45
1483.26279	71052.05
1486.66054	70579.45
1490.05602	70711.35
1493.44922	71092.55
1496.84016	71455.85
1500.22882	72468.45
1503.61521	74409.65
1506.99934	77156.55
1510.38121	79659.15
1513.76081	80702.45
1517.13816	79112.25
1520.51324	75956.95
1523.88607	72735.15
1527.25665	70607.85
1530.62498	69496.45
1533.99105	68905.55
1537.35488	68459.25
1540.71647	67849.65
1544.07581	67047.65
1547.4329	65923.15
1550.78776	64910.45
1554.14038	64127.55
1557.49077	63718.35
1560.83892	63355.75
1564.18484	63413.55
1567.52853	63578.45
1570.86999	64161.45
1574.20922	65384.35
1577.54624	66884.85
1580.88103	67565.75
1584.2136	68175.15
1587.54395	69417.85
1590.87208	71925.65
1594.19801	75856.65
1597.52172	80264.15
1600.84321	81727.35
1604.16251	78275.85
1607.47959	72026.15
1610.79447	65648.75
1614.10715	59861.45
1617.41763	55213.55
1620.7259	52015.25
1624.03199	50508.25
1627.33587	50537.75
1630.63757	52087.55
1633.93707	55278.15
1637.23439	60325.85
1640.52951	66928.55
1643.82246	73868.95
1647.11321	78990.55
1650.40179	79418.35
1653.68819	74146.65
1656.97241	65044.45
1660.25446	55976.25
1663.53433	49299.45
1666.81203	44934.25
1670.08756	42215.85
1673.36092	40494.65
1676.63211	39285.65
1679.90115	38476.55
1683.16801	37849.95
1686.43272	37344.05
1689.69527	37086.05
1692.95567	36814.45
1696.2139	36662.35
1699.46999	36545.85
1702.72392	36501.25
1705.97571	36331.55
1709.22535	36284.45
1712.47284	36212.95
1715.71819	36214.35
1718.96139	36139.25
1722.20246	35981.15
1725.44139	35803.95
1728.67818	35627.55
1731.91284	35412.25
1735.14537	35240.85
1738.37576	35021.85
1741.60403	34945.45
1744.83017	34853.55
1748.05418	34752.45
1751.27607	34642.65
1754.49584	34602.45
1757.71349	34564.75
1760.92903	34536.25
1764.14244	34487.25
1767.35375	34486.45
1770.56294	34496.75
1773.77002	34428.95
1776.97499	34402.15
1780.17785	34361.75
1783.37861	34312.55
1786.57727	34228.45
1789.77382	34171.15
1792.96828	34127.65
1796.16064	34066.05
1799.3509	34024.45
1802.53907	33947.25
1805.72514	33872.75
1808.90913	33841.55
1812.09102	33755.15
1815.27083	33703.15
1818.44856	33624.25
1821.6242	33570.35
1824.79776	33618.25
1827.96924	33530.25
1831.13864	33532.65
1834.30597	33579.35
1837.47122	33536.75
1840.6344	33534.25
1843.7955	33570.65
1846.95454	33587.25
1850.11151	33540.75
1853.26642	33539.95
1856.41926	33576.95
1859.57004	33584.15
1862.71876	33562.55
1865.86542	33539.05
1869.01003	33600.15
1872.15258	33552.85
1875.29308	33560.75
1878.43152	33558.65
1881.56792	33538.45
1884.70227	33522.35
1887.83457	33546.25
1890.96482	33553.55
1894.09304	33539.05
1897.21921	33576.45
1900.34335	33505.25
1903.46544	33484.75
1906.58551	33531.05
1909.70353	33453.95
1912.81953	33456.85
1915.93349	33385.65
1919.04543	33291.25
1922.15534	33286.55
1925.26322	33204.45
1928.36908	33121.15
1931.47292	33055.75
1934.57473	32926.65
1937.67453	32844.65
1940.77232	32770.15
1943.86808	32623.25
1946.96184	32525.15
1950.05358	32388.15
1953.14331	32279.25
1956.23103	32178.75
1959.31675	32129.25
1962.40046	32035.25
1965.48217	31937.05
1968.56188	31829.35
1971.63959	31778.75
1974.7153	31701.95
1977.78901	31575.85
1980.86073	31494.65
1983.93046	31397.65
1986.99819	31304.35
1990.06394	31287.95
1993.1277	31192.95
1996.18947	31071.75
1999.24925	30972.15
2002.30706	30852.05
2005.36288	30768.65
2008.41672	30685.15
2011.46859	30645.25
2014.51848	30582.15
2017.56639	30524.85
2020.61233	30494.85
2023.6563	30410.15
2026.6983	30390.75
2029.73833	30348.55
2032.7764	30272.75
2035.8125	30226.15
2038.84664	30166.15
2041.87881	30169.65
2044.90903	30162.85
2047.93729	30095.15
2050.96359	30018.45
2053.98794	30052.25
2057.01034	30024.95
2060.03078	30003.15
2063.04927	29987.35
2066.06582	29980.65
2069.08042	29963.45
2072.09307	29905.15
2075.10378	29853.95
2078.11255	29826.55
2081.11938	29847.55
2084.12426	29800.25
2087.12722	29761.25
2090.12824	29805.25
2093.12732	29784.75
2096.12447	29771.25
2099.11969	29700.85
2102.11299	29763.25
2105.10435	29766.45
2108.09379	29888.85
2111.08131	29849.25
2114.0669	29856.55
2117.05057	29860.15
2120.03233	29921.25
2123.01216	29905.65
2125.99008	29902.25
2128.96609	29918.65
2131.94018	29914.65
2134.91236	29979.75
2137.88263	30027.35
2140.851	30021.75
2143.81746	30039.95
2146.78201	30052.25
2149.74466	30073.85
2152.7054	30057.55
2155.66425	30095.05
2158.6212	30105.55
2161.57625	30106.55
2164.52941	30097.35
2167.48067	30041.75
2170.43004	30056.45
2173.37752	30108.35
2176.32311	30087.65
2179.26681	30061.35
2182.20863	30049.25
2185.14856	30077.25
2188.08661	30102.65
2191.02278	30120.15
2193.95707	30119.35
2196.88948	30110.35
2199.82001	30141.05
2202.74867	30080.85
2205.67545	30115.95
2208.60037	30076.25
2211.52341	30074.85
2214.44458	30061.45
2217.36388	30061.55
2220.28132	30048.55
2223.1969	30030.85
2226.11061	30011.05
2229.02246	29901.45
2231.93245	29832.95
2234.84058	29736.75
2237.74686	29689.55
2240.65128	29666.85
2243.55385	29628.95
2246.45456	29594.55
2249.35343	29524.05
2252.25044	29484.95
2255.14561	29449.65
2258.03893	29450.15
2260.93041	29415.05
2263.82004	29335.05
2266.70783	29273.95
2269.59378	29201.25
2272.4779	29126.95
2275.36017	29108.65
2278.24061	29013.45
2281.11922	28946.85
2283.996	28944.45
2286.87094	28930.85
2289.74405	28859.25
2292.61534	28876.25
2295.4848	28841.65
2298.35243	28866.75
2301.21824	28871.05
2304.08223	28915.05
2306.94439	28914.65
2309.80474	28967.65
2312.66327	29024.65
2315.51999	28992.95
2318.37489	29016.65
2321.22797	28993.85
2324.07925	29012.25
2326.92871	28916.85
2329.77637	28959.85
2332.62222	28981.25
2335.46626	28945.55
2338.3085	28941.75
2341.14893	29010.65
2343.98756	29057.75
2346.8244	29068.95
2349.65943	29049.25
2352.49267	29037.85
2355.32411	29033.65
2358.15376	29000.25
2360.98161	28928.75
2363.80768	28941.15
2366.63195	28909.25
2369.45444	28836.85
2372.27514	28761.35
2375.09405	28736.85
2377.91118	28692.15
2380.72652	28595.55
2383.54009	28547.95
2386.35187	28527.35
2389.16188	28446.05
2391.97011	28449.45
2394.77657	28417.45
2397.58125	28403.65
2400.38416	28343.25
2403.18529	28274.05
2405.98466	28277.35
2408.78226	28159.85
2411.57809	28090.65
2414.37216	28016.45
2417.16446	28040.05
2419.955	27971.15
2422.74378	27954.05
2425.5308	27879.05
2428.31606	27892.55
2431.09956	27914.65
2433.88131	27858.25
2436.6613	27886.15
2439.43954	27849.95
2442.21603	27830.65
2444.99077	27857.85
2447.76377	27854.95
2450.53501	27829.75
2453.30451	27843.05
2456.07226	27814.15
2458.83827	27830.55
2461.60254	27828.95
2464.36507	27775.95
2467.12586	27771.55
2469.88492	27779.75
2472.64224	27842.85
2475.39782	27811.55
2478.15167	27897.05
2480.90379	27920.65
2483.65417	27895.25
2486.40283	27947.25
2489.14976	27938.75
2491.89497	27953.25
2494.63845	28039.65
2497.3802	28014.45
2500.12024	28071.65
2502.85855	28056.65
2505.59514	28007.85
2508.33002	28014.25
2511.06318	27955.35
2513.79462	27989.65
2516.52435	27912.65
2519.25237	27895.25
2521.97867	27905.15
2524.70327	27877.45
2527.42616	27824.05
2530.14734	27871.25
2532.86681	27776.25
2535.58458	27805.05
2538.30065	27778.85
2541.01501	27809.75
2543.72768	27763.25
2546.43864	27806.85
2549.14791	27733.75
2551.85548	27729.85
2554.56136	27688.75
2557.26554	27687.55
2559.96803	27622.25
2562.66883	27688.05
2565.36794	27638.45
2568.06536	27615.75
2570.7611	27622.65
2573.45514	27621.95
2576.14751	27595.85
2578.83819	27607.65
2581.52719	27662.95
2584.21451	27577.95
2586.90015	27620.65
2589.58411	27612.35
2592.2664	27617.45
2594.94701	27586.85
2597.62594	27586.05
2600.30321	27578.75
2602.9788	27590.15
2605.65273	27549.45
2608.32498	27541.55
2610.99557	27506.25
2613.66449	27523.25
2616.33175	27510.05
2618.99734	27570.45
2621.66128	27528.15
2624.32355	27598.05
2626.98416	27590.75
2629.64311	27630.55
2632.30041	27627.15
2634.95605	27576.85
2637.61004	27555.45
2640.26238	27565.05
2642.91306	27507.15
2645.56209	27481.25
2648.20948	27484.35
2650.85521	27371.35
2653.4993	27418.15
2656.14175	27410.25
2658.78255	27394.75
2661.42171	27433.55
2664.05923	27480.65
2666.6951	27463.15
2669.32934	27525.65
2671.96194	27504.65
2674.59291	27481.15
2677.22224	27526.45
2679.84993	27491.45
2682.476	27449.25
2685.10043	27423.45
2687.72324	27409.65
2690.34441	27405.35
2692.96396	27368.35
2695.58188	27405.05
2698.19818	27321.05
2700.81285	27298.65
2703.4259	27298.65
2706.03733	27369.95
2708.64714	27405.75
2711.25533	27408.75
2713.86191	27409.55
2716.46687	27460.05
2719.07021	27437.95
2721.67194	27422.95
2724.27206	27438.05
2726.87057	27438.65
2729.46747	27482.05
2732.06276	27524.55
2734.65644	27483.05
2737.24852	27487.65
2739.83899	27461.45
2742.42786	27456.55
2745.01513	27435.35
2747.60079	27435.15
2750.18486	27423.45
2752.76733	27477.55
2755.3482	27438.55
2757.92747	27460.55
2760.50515	27427.05
2763.08123	27384.35
2765.65573	27388.75
2768.22863	27368.95
2770.79994	27362.95
2773.36967	27366.35
2775.9378	27313.95
2778.50435	27302.75
2781.06932	27329.35
2783.6327	27334.65
2786.1945	27319.55
2788.75471	27259.65
2791.31335	27190.65
2793.87041	27207.45
2796.42589	27095.25
2798.97979	27154.85
2801.53212	27106.85
2804.08288	27044.85
2806.63206	26978.95
2809.17967	26955.85
2811.72571	26898.35
2814.27018	26856.85
2816.81308	26821.65
2819.35442	26801.05
2821.89419	26808.95
2824.43239	26812.45
2826.96904	26776.05
2829.50412	26786.95
2832.03763	26747.65
2834.56959	26776.55
2837.1	26655.05
2839.62884	26657.35
2842.15613	26589.55
2844.68186	26595.35
2847.20604	26544.45
2849.72867	26565.35
2852.24974	26524.45
2854.76927	26525.65
2857.28724	26500.25
2859.80367	26470.85
2862.31855	26434.25
2864.83189	26424.45
2867.34368	26394.55
2869.85393	26411.55
2872.36264	26376.05
2874.8698	26431.35
2877.37543	26442.65
2879.87952	26484.95
2882.38207	26431.75
2884.88308	26439.35
2887.38256	26449.35
2889.88051	26402.85
2892.37692	26447.85
2894.8718	26449.55
2897.36515	26455.55
2899.85698	26521.75
2902.34727	26587.65
2904.83604	26539.95
2907.32328	26635.25
2909.809	26678.05
2912.29319	26712.15
2914.77587	26676.95
2917.25702	26692.75
2919.73665	26674.25
2922.21476	26696.95
2924.69136	26622.45
2927.16644	26601.55
2929.64	26560.35
2932.11205	26518.85
2934.58258	26438.85
2937.05161	26502.45
2939.51912	26515.35
2941.98513	26485.45
2944.44962	26421.65
2946.91261	26281.75
2949.37409	26390.45
2951.83407	26362.65
2954.29254	26352.95
2956.74951	26306.45
2959.20498	26263.25
2961.65895	26243.65
2964.11142	26262.45
2966.56239	26165.05
2969.01186	26118.65
2971.45984	26084.25
2973.90632	25989.65
2976.35131	25979.45
2978.7948	25917.75
2981.23681	25886.45
2983.67732	25820.65
2986.11635	25756.05
2988.55388	25686.45
2990.98993	25647.35
2993.4245	25642.95
2995.85758	25552.25
2998.28917	25515.95
3000.71928	25500.25
3003.14791	25421.15
3005.57506	25407.65
3008.00073	25376.35
3010.42493	25312.65
3012.84764	25298.85
3015.26888	25295.25
3017.68865	25208.05
3020.10694	25179.55
3022.52376	25096.75
3024.9391	25124.85
3027.35298	25101.95
3029.76539	25070.55
3032.17632	25048.55
3034.5858	25001.45
3036.9938	24976.25
3039.40034	24966.95
3041.80542	24909.45
3044.20903	24849.85
3046.61118	24895.25
3049.01187	24783.35
3051.4111	24769.05
3053.80888	24722.15
3056.20519	24680.45
3058.60005	24641.45
3060.99345	24580.75
3063.3854	24529.35
3065.7759	24428.75
3068.16494	24409.05
3070.55254	24361.65
3072.93868	24310.45
3075.32338	24248.15
3077.70662	24216.35
3080.08842	24093.85
3082.46878	24145.65
3084.84769	24074.05
3087.22515	24039.75
3089.60118	24031.85
3091.97576	24036.65
3094.3489	23991.65
3096.72061	23980.15
3099.09087	24015.25
3101.4597	23949.35
3103.82709	23953.45
3106.19305	23871.95
3108.55757	23853.25
3110.92066	23808.35
3113.28232	23745.15
3115.64255	23708.85
3118.00134	23709.45
3120.35871	23666.05
3122.71466	23621.35
3125.06917	23611.45
3127.42226	23586.85
3129.77393	23600.85
3132.12417	23547.95
3134.47299	23524.35
3136.82039	23484.05
3139.16636	23499.95
3141.51092	23483.25
3143.85406	23473.35
3146.19579	23450.15
3148.53609	23480.15
3150.87499	23491.55
3153.21246	23513.45
3155.54853	23504.75
3157.88318	23435.85
3160.21642	23458.35
3162.54826	23451.65
3164.87868	23456.75
3167.2077	23391.55
3169.5353	23414.55
3171.86151	23372.65
3174.18631	23335.15
3176.5097	23280.35
3178.83169	23266.75
3181.15228	23275.15
3183.47147	23232.65
3185.78926	23240.75
3188.10565	23218.55
3190.42065	23218.85
3192.73424	23192.95
3195.04645	23216.95
3197.35725	23219.85
3199.66667	23217.95
3201.97469	23243.95
3204.28132	23190.75
3206.58656	23197.65
3208.8904	23220.95
3211.19287	23206.35
3213.49394	23163.45
3215.79363	23211.65
3218.09193	23211.35
3220.38884	23225.35
3222.68438	23239.05
3224.97853	23225.05
3227.2713	23218.95
3229.56269	23144.35
3231.8527	23128.45
3234.14133	23064.45
3236.42858	23071.35
3238.71446	23023.15
