Data from AgNP_FTO_APTES_CRN_200uM_R6G_10uM_NaF_0.1M_Addition_RamanShift__13__19-32-08-174.txt Node

Date: Wed Dec 15 19:32:08 GMT 2021
User: TCL
Spectrometer: QEP01345
Trigger mode: 4
Integration Time (sec): 7.000000E0
Scans to average: 10
Electric dark correction enabled: true
Nonlinearity correction enabled: false
Boxcar width: 0
XAxis mode: Raman Shifts
Number of Pixels in Spectrum: 1044
>>>>>Begin Spectral Data<<<<<
46.04893	0.3875
50.45542	-1.3125
54.85868	-0.2125
59.25871	-0.5125
63.6555	49.6875
68.04907	55.0875
72.43941	54.1875
76.82654	58.3875
81.21044	59.6875
85.59113	62.4875
89.96862	64.9875
94.34289	63.4875
98.71396	72.4875
103.08183	74.8875
107.4465	78.5875
111.80798	73.7875
116.16626	78.3875
120.52136	79.4875
124.87327	80.0875
129.222	83.4875
133.56755	84.6875
137.90993	91.5875
142.24913	101.7875
146.58517	106.0875
150.91804	124.6875
155.24774	139.1875
159.57429	170.2875
163.89768	211.5875
168.21792	269.9875
172.53501	374.2875
176.84895	506.4875
181.15975	712.1875
185.46741	986.8875
189.77193	1372.2875
194.07331	1841.0875
198.37157	2368.1875
202.6667	2941.5875
206.9587	3487.6875
211.24758	4051.5875
215.53334	4604.6875
219.81599	5165.0875
224.09553	5787.9875
228.37195	6494.0875
232.64527	7267.5875
236.91549	8079.9875
241.18261	8902.9875
245.44663	9726.8875
249.70755	10447.1875
253.96539	11060.1875
258.22014	11602.3875
262.4718	11984.6875
266.72039	12237.7875
270.96589	12355.9875
275.20832	12365.8875
279.44768	12287.6875
283.68397	12189.5875
287.91719	12127.3875
292.14735	12050.8875
296.37445	12011.5875
300.59849	11941.7875
304.81948	11906.7875
309.03742	11796.3875
313.25231	11691.1875
317.46415	11500.6875
321.67296	11283.9875
325.87872	11085.7875
330.08145	10995.2875
334.28114	10994.0875
338.47781	11058.4875
342.67145	11168.0875
346.86207	11277.2875
351.04966	11423.8875
355.23424	11567.9875
359.4158	11652.0875
363.59435	11755.0875
367.76989	11819.7875
371.94243	11871.3875
376.11196	11923.0875
380.27849	11983.9875
384.44203	12020.6875
388.60257	12137.1875
392.76012	12224.8875
396.91468	12361.3875
401.06626	12550.2875
405.21485	12678.3875
409.36047	12716.9875
413.50311	12655.1875
417.64277	12546.6875
421.77947	12518.1875
425.9132	12576.0875
430.04396	12628.0875
434.17176	12707.7875
438.2966	12763.4875
442.41849	12866.7875
446.53742	13003.8875
450.6534	13156.7875
454.76644	13285.6875
458.87653	13381.0875
462.98368	13444.6875
467.08789	13443.3875
471.18916	13412.0875
475.2875	13384.8875
479.38291	13342.6875
483.4754	13299.0875
487.56496	13224.7875
491.6516	13143.8875
495.73531	13108.0875
499.81612	13101.6875
503.89401	13123.9875
507.96899	13157.1875
512.04106	13200.4875
516.11023	13202.5875
520.1765	13184.7875
524.23987	13162.4875
528.30034	13068.8875
532.35792	12988.2875
536.41261	12945.7875
540.46441	12870.2875
544.51333	12908.3875
548.55936	13017.6875
552.60252	13197.0875
556.64279	13400.6875
560.6802	13488.0875
564.71473	13551.9875
568.7464	13675.3875
572.7752	13866.5875
576.80114	14065.4875
580.82422	14319.3875
584.84444	14486.8875
588.86181	14566.3875
592.87633	14473.8875
596.888	14352.3875
600.89682	14329.1875
604.9028	14460.5875
608.90594	15010.9875
612.90624	15525.2875
616.90371	14993.9875
620.89834	13719.5875
624.89015	13145.3875
628.87913	13072.5875
632.86528	13168.4875
636.84862	13248.9875
640.82913	13202.3875
644.80683	13085.5875
648.78172	12928.8875
652.75379	12905.0875
656.72306	12964.6875
660.68952	13062.5875
664.65319	13082.3875
668.61405	13009.9875
672.57211	13028.6875
676.52738	13064.2875
680.47986	13070.9875
684.42955	13061.7875
688.37646	13025.4875
692.32058	13055.9875
696.26192	13118.5875
700.20048	13171.8875
704.13626	13272.4875
708.06928	13306.0875
711.99952	13332.6875
715.927	13301.8875
719.85171	13260.4875
723.77365	13169.9875
727.69284	13103.6875
731.60928	13004.5875
735.52295	12929.8875
739.43388	12925.0875
743.34206	12939.6875
747.24749	12970.0875
751.15017	13026.9875
755.05012	13149.8875
758.94733	13341.2875
762.8418	13744.6875
766.73354	14388.5875
770.62254	14933.8875
774.50882	15014.8875
778.39237	14559.7875
782.27321	13965.2875
786.15132	13445.2875
790.02671	13137.6875
793.89938	12934.7875
797.76935	12858.1875
801.6366	12822.8875
805.50115	12806.1875
809.36299	12770.9875
813.22213	12724.4875
817.07857	12745.6875
820.93231	12739.4875
824.78336	12763.3875
828.63172	12769.0875
832.47738	12757.2875
836.32036	12744.8875
840.16066	12746.9875
843.99827	12709.1875
847.8332	12715.7875
851.66546	12673.6875
855.49504	12717.0875
859.32195	12688.3875
863.1462	12675.7875
866.96777	12696.6875
870.78668	12690.8875
874.60293	12679.6875
878.41652	12705.4875
882.22745	12742.6875
886.03573	12760.1875
889.84136	12773.2875
893.64433	12791.8875
897.44466	12778.3875
901.24235	12773.7875
905.0374	12752.7875
908.8298	12737.5875
912.61957	12778.4875
916.40671	12855.3875
920.19121	12939.7875
923.97308	12972.2875
927.75233	12968.1875
931.52895	12891.5875
935.30295	12778.6875
939.07433	12665.2875
942.84309	12542.1875
946.60924	12465.3875
950.37278	12400.9875
954.13371	12371.4875
957.89203	12350.6875
961.64774	12328.8875
965.40086	12326.3875
969.15137	12292.5875
972.89929	12284.2875
976.64461	12247.4875
980.38733	12215.8875
984.12747	12212.7875
987.86502	12222.0875
991.59999	12258.4875
995.33237	12287.3875
999.06217	12362.6875
1002.78939	12459.2875
1006.51404	12520.5875
1010.23611	12622.0875
1013.95561	12695.5875
1017.67255	12714.1875
1021.38692	12679.6875
1025.09872	12610.5875
1028.80796	12531.8875
1032.51465	12548.3875
1036.21877	12568.0875
1039.92035	12591.9875
1043.61937	12643.9875
1047.31584	12707.2875
1051.00976	12780.2875
1054.70114	12877.9875
1058.38998	12992.4875
1062.07627	13168.2875
1065.76003	13407.2875
1069.44126	13655.3875
1073.11995	13839.5875
1076.79611	13965.3875
1080.46974	13876.0875
1084.14085	13733.8875
1087.80943	13618.2875
1091.47549	13560.3875
1095.13903	13565.7875
1098.80005	13496.9875
1102.45857	13330.3875
1106.11456	13120.1875
1109.76805	12930.0875
1113.41903	12874.6875
1117.06751	12880.6875
1120.71348	12962.8875
1124.35696	13069.5875
1127.99793	13199.1875
1131.63641	13310.2875
1135.2724	13270.7875
1138.90589	13164.0875
1142.5369	13125.4875
1146.16542	13088.6875
1149.79145	13165.7875
1153.415	13215.7875
1157.03607	13306.3875
1160.65467	13436.5875
1164.27079	13672.9875
1167.88443	13969.7875
1171.49561	14362.5875
1175.10432	14887.9875
1178.71056	15526.7875
1182.31434	16139.7875
1185.91565	16525.7875
1189.51451	16701.2875
1193.11091	16617.6875
1196.70485	16321.4875
1200.29634	15897.2875
1203.88538	15473.1875
1207.47197	15107.0875
1211.05612	14840.9875
1214.63782	14632.7875
1218.21708	14433.6875
1221.79391	14201.9875
1225.36829	14077.1875
1228.94024	14002.7875
1232.50976	13951.0875
1236.07685	13948.1875
1239.6415	13975.7875
1243.20374	13983.4875
1246.76355	14038.3875
1250.32093	14100.9875
1253.8759	14260.8875
1257.42845	14453.7875
1260.97859	14651.3875
1264.52631	14838.2875
1268.07163	15054.6875
1271.61453	15240.5875
1275.15503	15401.8875
1278.69312	15600.4875
1282.22882	15771.1875
1285.76211	15967.7875
1289.29301	16199.5875
1292.82151	16494.7875
1296.34761	16836.0875
1299.87133	17225.8875
1303.39266	17640.6875
1306.9116	18070.4875
1310.42815	18481.5875
1313.94233	18727.5875
1317.45412	18766.8875
1320.96354	18729.1875
1324.47058	18738.8875
1327.97525	18743.5875
1331.47754	18845.2875
1334.97747	18940.4875
1338.47502	19157.5875
1341.97022	19405.4875
1345.46305	19639.0875
1348.95352	19778.1875
1352.44163	19773.0875
1355.92738	19645.1875
1359.41078	19685.3875
1362.89183	19737.8875
1366.37053	19362.3875
1369.84688	18474.8875
1373.32088	17435.5875
1376.79254	16633.5875
1380.26186	16149.7875
1383.72883	15900.7875
1387.19347	15758.1875
1390.65578	15602.1875
1394.11575	15460.7875
1397.57339	15342.7875
1401.0287	15260.5875
1404.48168	15180.3875
1407.93234	15109.5875
1411.38068	14976.9875
1414.82669	14732.2875
1418.27039	14430.0875
1421.71177	14096.2875
1425.15083	13839.8875
1428.58758	13675.2875
1432.02203	13625.5875
1435.45416	13712.0875
1438.88399	13807.2875
1442.31151	13901.3875
1445.73673	13997.8875
1449.15965	14121.3875
1452.58027	14240.5875
1455.9986	14387.4875
1459.41463	14551.8875
1462.82837	14753.0875
1466.23982	14964.7875
1469.64898	15180.1875
1473.05586	15365.2875
1476.46045	15461.6875
1479.86276	15525.5875
1483.26279	15595.1875
1486.66054	15647.0875
1490.05602	15785.4875
1493.44922	16039.9875
1496.84016	16433.3875
1500.22882	16976.5875
1503.61521	17635.1875
1506.99934	18235.1875
1510.38121	18621.0875
1513.76081	18598.5875
1517.13816	18251.0875
1520.51324	17721.3875
1523.88607	17275.4875
1527.25665	16990.5875
1530.62498	16722.1875
1533.99105	16507.0875
1537.35488	16289.0875
1540.71647	16014.3875
1544.07581	15754.8875
1547.4329	15514.3875
1550.78776	15307.9875
1554.14038	15173.0875
1557.49077	15131.3875
1560.83892	15206.2875
1564.18484	15319.8875
1567.52853	15426.0875
1570.86999	15574.6875
1574.20922	15776.8875
1577.54624	15923.4875
1580.88103	15974.3875
1584.2136	15843.6875
1587.54395	15708.3875
1590.87208	15608.4875
1594.19801	15688.1875
1597.52172	15891.3875
1600.84321	15920.9875
1604.16251	15662.9875
1607.47959	15252.4875
1610.79447	14781.6875
1614.10715	14257.1875
1617.41763	13743.9875
1620.7259	13284.6875
1624.03199	12994.4875
1627.33587	12871.1875
1630.63757	12892.6875
1633.93707	13096.5875
1637.23439	13536.0875
1640.52951	14210.7875
1643.82246	15115.7875
1647.11321	16048.0875
1650.40179	16665.7875
1653.68819	16603.0875
1656.97241	15860.6875
1660.25446	14733.7875
1663.53433	13695.5875
1666.81203	12862.7875
1670.08756	12263.0875
1673.36092	11879.4875
1676.63211	11615.8875
1679.90115	11446.0875
1683.16801	11272.0875
1686.43272	11169.5875
1689.69527	11119.0875
1692.95567	11071.3875
1696.2139	11045.5875
1699.46999	11022.5875
1702.72392	11003.5875
1705.97571	10967.9875
1709.22535	10917.1875
1712.47284	10910.7875
1715.71819	10897.9875
1718.96139	10857.1875
1722.20246	10807.0875
1725.44139	10780.2875
1728.67818	10760.0875
1731.91284	10714.4875
1735.14537	10666.9875
1738.37576	10661.3875
1741.60403	10612.3875
1744.83017	10584.1875
1748.05418	10579.4875
1751.27607	10561.1875
1754.49584	10548.4875
1757.71349	10548.1875
1760.92903	10555.7875
1764.14244	10534.2875
1767.35375	10546.2875
1770.56294	10506.5875
1773.77002	10496.7875
1776.97499	10464.7875
1780.17785	10421.3875
1783.37861	10410.2875
1786.57727	10377.2875
1789.77382	10332.5875
1792.96828	10330.4875
1796.16064	10304.9875
1799.3509	10291.1875
1802.53907	10285.4875
1805.72514	10201.7875
1808.90913	10217.9875
1812.09102	10195.6875
1815.27083	10167.2875
1818.44856	10147.8875
1821.6242	10121.4875
1824.79776	10125.8875
1827.96924	10082.2875
1831.13864	10112.6875
1834.30597	10094.7875
1837.47122	10068.6875
1840.6344	10069.7875
1843.7955	10062.0875
1846.95454	10063.9875
1850.11151	10037.1875
1853.26642	10031.8875
1856.41926	10035.0875
1859.57004	10007.2875
1862.71876	10000.2875
1865.86542	9990.3875
1869.01003	9972.6875
1872.15258	9988.8875
1875.29308	9960.1875
1878.43152	9924.4875
1881.56792	9899.6875
1884.70227	9903.0875
1887.83457	9907.3875
1890.96482	9857.1875
1894.09304	9845.6875
1897.21921	9836.1875
1900.34335	9829.4875
1903.46544	9803.7875
1906.58551	9794.1875
1909.70353	9766.9875
1912.81953	9762.8875
1915.93349	9740.6875
1919.04543	9735.9875
1922.15534	9721.8875
1925.26322	9711.2875
1928.36908	9685.0875
1931.47292	9677.4875
1934.57473	9651.2875
1937.67453	9633.8875
1940.77232	9587.3875
1943.86808	9567.8875
1946.96184	9532.4875
1950.05358	9516.3875
1953.14331	9492.3875
1956.23103	9457.6875
1959.31675	9421.7875
1962.40046	9391.3875
1965.48217	9383.3875
1968.56188	9356.8875
1971.63959	9315.7875
1974.7153	9275.0875
1977.78901	9249.2875
1980.86073	9208.3875
1983.93046	9191.8875
1986.99819	9166.5875
1990.06394	9146.3875
1993.1277	9100.4875
1996.18947	9067.7875
1999.24925	9042.2875
2002.30706	9036.1875
2005.36288	9008.4875
2008.41672	8966.7875
2011.46859	8939.1875
2014.51848	8922.0875
2017.56639	8881.4875
2020.61233	8866.0875
2023.6563	8854.1875
2026.6983	8839.7875
2029.73833	8811.4875
2032.7764	8804.0875
2035.8125	8738.9875
2038.84664	8752.3875
2041.87881	8720.1875
2044.90903	8692.2875
2047.93729	8670.5875
2050.96359	8670.8875
2053.98794	8652.4875
2057.01034	8637.5875
2060.03078	8633.8875
2063.04927	8609.1875
2066.06582	8602.5875
2069.08042	8618.7875
2072.09307	8589.0875
2075.10378	8590.0875
2078.11255	8570.3875
2081.11938	8576.6875
2084.12426	8585.9875
2087.12722	8568.4875
2090.12824	8563.1875
2093.12732	8580.8875
2096.12447	8568.8875
2099.11969	8559.2875
2102.11299	8577.2875
2105.10435	8573.4875
2108.09379	8557.1875
2111.08131	8562.7875
2114.0669	8566.4875
2117.05057	8568.9875
2120.03233	8578.9875
2123.01216	8593.8875
2125.99008	8594.1875
2128.96609	8576.2875
2131.94018	8605.0875
2134.91236	8603.0875
2137.88263	8597.6875
2140.851	8593.7875
2143.81746	8620.8875
2146.78201	8604.4875
2149.74466	8626.0875
2152.7054	8602.7875
2155.66425	8635.8875
2158.6212	8637.1875
2161.57625	8618.9875
2164.52941	8583.9875
2167.48067	8582.3875
2170.43004	8575.7875
2173.37752	8555.0875
2176.32311	8567.2875
2179.26681	8573.0875
2182.20863	8551.7875
2185.14856	8569.3875
2188.08661	8538.7875
2191.02278	8551.4875
2193.95707	8526.6875
2196.88948	8522.6875
2199.82001	8516.0875
2202.74867	8512.0875
2205.67545	8497.0875
2208.60037	8505.4875
2211.52341	8472.6875
2214.44458	8454.7875
2217.36388	8427.3875
2220.28132	8409.8875
2223.1969	8391.8875
2226.11061	8384.1875
2229.02246	8353.2875
2231.93245	8360.5875
2234.84058	8313.5875
2237.74686	8316.0875
2240.65128	8327.0875
2243.55385	8292.9875
2246.45456	8276.1875
2249.35343	8272.0875
2252.25044	8256.6875
2255.14561	8216.5875
2258.03893	8245.2875
2260.93041	8217.0875
2263.82004	8173.7875
2266.70783	8183.1875
2269.59378	8155.7875
2272.4779	8150.2875
2275.36017	8099.0875
2278.24061	8085.5875
2281.11922	8076.0875
2283.996	8052.2875
2286.87094	8044.5875
2289.74405	8009.0875
2292.61534	8005.7875
2295.4848	7999.8875
2298.35243	7977.7875
2301.21824	7973.4875
2304.08223	7958.1875
2306.94439	7955.1875
2309.80474	7946.7875
2312.66327	7943.6875
2315.51999	7940.5875
2318.37489	7917.3875
2321.22797	7906.0875
2324.07925	7905.2875
2326.92871	7891.6875
2329.77637	7880.7875
2332.62222	7879.1875
2335.46626	7836.1875
2338.3085	7835.1875
2341.14893	7804.6875
2343.98756	7814.6875
2346.8244	7786.8875
2349.65943	7806.7875
2352.49267	7783.9875
2355.32411	7769.0875
2358.15376	7756.6875
2360.98161	7774.3875
2363.80768	7783.2875
2366.63195	7758.3875
2369.45444	7740.7875
2372.27514	7740.3875
2375.09405	7736.8875
2377.91118	7730.1875
2380.72652	7705.7875
2383.54009	7679.3875
2386.35187	7661.5875
2389.16188	7633.0875
2391.97011	7611.9875
2394.77657	7594.8875
2397.58125	7584.5875
2400.38416	7579.4875
2403.18529	7573.8875
2405.98466	7547.3875
2408.78226	7545.5875
2411.57809	7510.4875
2414.37216	7522.8875
2417.16446	7504.2875
2419.955	7490.5875
2422.74378	7485.2875
2425.5308	7482.7875
2428.31606	7459.0875
2431.09956	7451.2875
2433.88131	7433.3875
2436.6613	7427.9875
2439.43954	7411.1875
2442.21603	7433.9875
2444.99077	7410.0875
2447.76377	7408.1875
2450.53501	7417.3875
2453.30451	7366.0875
2456.07226	7368.3875
2458.83827	7361.4875
2461.60254	7371.9875
2464.36507	7335.6875
2467.12586	7332.3875
2469.88492	7329.0875
2472.64224	7320.2875
2475.39782	7322.4875
2478.15167	7301.2875
2480.90379	7297.0875
2483.65417	7301.4875
2486.40283	7279.1875
2489.14976	7293.9875
2491.89497	7264.8875
2494.63845	7272.2875
2497.3802	7257.0875
2500.12024	7259.9875
2502.85855	7242.7875
2505.59514	7225.9875
2508.33002	7215.2875
2511.06318	7219.4875
2513.79462	7199.9875
2516.52435	7203.3875
2519.25237	7190.1875
2521.97867	7197.9875
2524.70327	7163.6875
2527.42616	7153.8875
2530.14734	7145.6875
2532.86681	7113.8875
2535.58458	7120.5875
2538.30065	7087.1875
2541.01501	7088.9875
2543.72768	7092.1875
2546.43864	7077.7875
2549.14791	7045.9875
2551.85548	7044.1875
2554.56136	7032.3875
2557.26554	7004.9875
2559.96803	6979.0875
2562.66883	6982.2875
2565.36794	6960.3875
2568.06536	6957.2875
2570.7611	6952.9875
2573.45514	6946.1875
2576.14751	6916.7875
2578.83819	6903.9875
2581.52719	6906.5875
2584.21451	6896.3875
2586.90015	6878.9875
2589.58411	6869.5875
2592.2664	6853.9875
2594.94701	6824.7875
2597.62594	6832.0875
2600.30321	6790.6875
2602.9788	6791.8875
2605.65273	6755.0875
2608.32498	6761.3875
2610.99557	6746.6875
2613.66449	6742.7875
2616.33175	6723.7875
2618.99734	6698.5875
2621.66128	6696.0875
2624.32355	6671.6875
2626.98416	6669.1875
2629.64311	6673.9875
2632.30041	6655.9875
2634.95605	6678.0875
2637.61004	6623.2875
2640.26238	6645.4875
2642.91306	6636.4875
2645.56209	6620.5875
2648.20948	6616.3875
2650.85521	6604.8875
2653.4993	6617.3875
2656.14175	6608.2875
2658.78255	6596.5875
2661.42171	6594.1875
2664.05923	6619.0875
2666.6951	6589.8875
2669.32934	6611.3875
2671.96194	6583.1875
2674.59291	6579.8875
2677.22224	6577.8875
2679.84993	6590.1875
2682.476	6570.1875
2685.10043	6563.8875
2687.72324	6569.2875
2690.34441	6575.3875
2692.96396	6569.8875
2695.58188	6574.6875
2698.19818	6553.0875
2700.81285	6582.8875
2703.4259	6599.5875
2706.03733	6620.0875
2708.64714	6575.1875
2711.25533	6589.3875
2713.86191	6565.7875
2716.46687	6579.7875
2719.07021	6575.7875
2721.67194	6556.1875
2724.27206	6542.4875
2726.87057	6538.9875
2729.46747	6534.8875
2732.06276	6557.1875
2734.65644	6520.6875
2737.24852	6508.7875
2739.83899	6509.7875
2742.42786	6502.0875
2745.01513	6496.0875
2747.60079	6481.8875
2750.18486	6463.0875
2752.76733	6451.0875
2755.3482	6455.8875
2757.92747	6473.8875
2760.50515	6443.5875
2763.08123	6435.7875
2765.65573	6430.6875
2768.22863	6417.2875
2770.79994	6414.4875
2773.36967	6400.7875
2775.9378	6382.6875
2778.50435	6393.9875
2781.06932	6376.1875
2783.6327	6376.0875
2786.1945	6352.2875
2788.75471	6344.0875
2791.31335	6331.1875
2793.87041	6300.4875
2796.42589	6308.6875
2798.97979	6309.2875
2801.53212	6270.0875
2804.08288	6253.0875
2806.63206	6246.3875
2809.17967	6231.1875
2811.72571	6200.6875
2814.27018	6207.3875
2816.81308	6214.2875
2819.35442	6199.2875
2821.89419	6173.2875
2824.43239	6171.3875
2826.96904	6167.9875
2829.50412	6163.4875
2832.03763	6137.5875
2834.56959	6141.1875
2837.1	6130.5875
2839.62884	6148.3875
2842.15613	6128.2875
2844.68186	6182.9875
2847.20604	6172.1875
2849.72867	6161.5875
2852.24974	6154.8875
2854.76927	6158.9875
2857.28724	6158.0875
2859.80367	6137.0875
2862.31855	6130.3875
2864.83189	6109.2875
2867.34368	6100.1875
2869.85393	6097.1875
2872.36264	6085.9875
2874.8698	6092.7875
2877.37543	6076.2875
2879.87952	6076.0875
2882.38207	6099.1875
2884.88308	6063.8875
2887.38256	6062.0875
2889.88051	6082.3875
2892.37692	6059.4875
2894.8718	6055.8875
2897.36515	6045.7875
2899.85698	6068.0875
2902.34727	6072.0875
2904.83604	6046.1875
2907.32328	6066.2875
2909.809	6057.4875
2912.29319	6069.0875
2914.77587	6067.1875
2917.25702	6044.5875
2919.73665	6031.1875
2922.21476	6058.4875
2924.69136	6043.4875
2927.16644	6039.1875
2929.64	6036.3875
2932.11205	6021.8875
2934.58258	6017.2875
2937.05161	6030.5875
2939.51912	6024.3875
2941.98513	6028.2875
2944.44962	6009.5875
2946.91261	5967.1875
2949.37409	5992.7875
2951.83407	5953.3875
2954.29254	5963.9875
2956.74951	5954.4875
2959.20498	5946.7875
2961.65895	5940.0875
2964.11142	5942.5875
2966.56239	5915.4875
2969.01186	5920.7875
2971.45984	5883.8875
2973.90632	5901.1875
2976.35131	5875.4875
2978.7948	5854.2875
2981.23681	5847.4875
2983.67732	5859.4875
2986.11635	5824.5875
2988.55388	5811.0875
2990.98993	5802.7875
2993.4245	5792.1875
2995.85758	5771.7875
2998.28917	5765.5875
3000.71928	5750.8875
3003.14791	5735.5875
3005.57506	5739.5875
3008.00073	5733.0875
3010.42493	5718.2875
3012.84764	5709.8875
3015.26888	5699.4875
3017.68865	5698.4875
3020.10694	5696.8875
3022.52376	5679.8875
3024.9391	5663.1875
3027.35298	5650.7875
3029.76539	5656.4875
3032.17632	5664.5875
3034.5858	5652.2875
3036.9938	5637.6875
3039.40034	5637.4875
3041.80542	5636.3875
3044.20903	5612.6875
3046.61118	5616.3875
3049.01187	5599.6875
3051.4111	5596.4875
3053.80888	5582.1875
3056.20519	5585.4875
3058.60005	5567.0875
3060.99345	5559.2875
3063.3854	5563.6875
3065.7759	5532.0875
3068.16494	5553.2875
3070.55254	5526.9875
3072.93868	5510.0875
3075.32338	5510.6875
