Data from AgNP_FTO_APTES_CRN_1uM_R6G_10uM_NaF_0.1M_Addition_RamanShift__6__13-52-30-785.txt Node

Date: Wed Dec 15 13:52:30 GMT 2021
User: TCL
Spectrometer: QEP01345
Trigger mode: 4
Integration Time (sec): 7.000000E0
Scans to average: 10
Electric dark correction enabled: true
Nonlinearity correction enabled: false
Boxcar width: 0
XAxis mode: Raman Shifts
Number of Pixels in Spectrum: 1044
>>>>>Begin Spectral Data<<<<<
46.04893	0.025
50.45542	-1.875
54.85868	-2.075
59.25871	-2.775
63.6555	167.825
68.04907	178.125
72.43941	184.825
76.82654	195.925
81.21044	202.125
85.59113	212.725
89.96862	224.225
94.34289	220.125
98.71396	234.525
103.08183	238.525
107.4465	248.225
111.80798	252.625
116.16626	256.325
120.52136	266.825
124.87327	277.825
129.222	284.825
133.56755	301.725
137.90993	325.325
142.24913	356.025
146.58517	397.025
150.91804	453.525
155.24774	533.425
159.57429	659.225
163.89768	843.725
168.21792	1106.425
172.53501	1494.325
176.84895	2062.525
181.15975	2888.025
185.46741	4048.725
189.77193	5549.225
194.07331	7402.425
198.37157	9494.125
202.6667	11717.125
206.9587	13900.825
211.24758	16049.525
215.53334	18241.325
219.81599	20537.725
224.09553	23088.625
228.37195	25888.725
232.64527	29003.725
236.91549	32141.325
241.18261	35376.725
245.44663	38392.825
249.70755	41120.225
253.96539	43464.825
258.22014	45434.625
262.4718	47007.425
266.72039	48046.625
270.96589	48560.025
275.20832	48516.925
279.44768	48244.325
283.68397	47697.225
287.91719	47250.325
292.14735	46951.825
296.37445	46840.925
300.59849	46871.925
304.81948	47111.025
309.03742	47227.725
313.25231	47218.625
317.46415	46928.825
321.67296	46388.525
325.87872	45948.025
330.08145	45722.125
334.28114	45695.125
338.47781	45982.925
342.67145	46493.625
346.86207	47147.525
351.04966	47938.425
355.23424	48773.025
359.4158	49581.225
363.59435	50232.225
367.76989	50685.425
371.94243	50935.825
376.11196	51085.225
380.27849	51222.625
384.44203	51466.125
388.60257	51979.025
392.76012	52572.325
396.91468	53297.025
401.06626	54160.525
405.21485	54768.525
409.36047	54961.525
413.50311	54976.125
417.64277	55376.325
421.77947	55985.125
425.9132	56499.525
430.04396	56793.325
434.17176	56954.325
438.2966	57088.125
442.41849	57738.525
446.53742	59295.325
450.6534	61097.125
454.76644	62345.525
458.87653	62559.525
462.98368	61845.825
467.08789	60614.025
471.18916	59112.725
475.2875	57534.925
479.38291	56311.925
483.4754	55589.425
487.56496	55071.725
491.6516	54644.825
495.73531	54469.925
499.81612	54605.125
503.89401	55255.025
507.96899	55751.025
512.04106	55813.825
516.11023	55367.125
520.1765	54755.825
524.23987	54256.725
528.30034	53789.225
532.35792	53239.025
536.41261	52459.125
540.46441	51877.525
544.51333	51767.725
548.55936	52169.725
552.60252	53034.825
556.64279	54183.625
560.6802	55141.825
564.71473	55788.325
568.7464	56638.225
572.7752	58278.825
576.80114	60669.225
580.82422	63963.425
584.84444	68315.525
588.86181	73528.825
592.87633	77160.925
596.888	75780.525
600.89682	70482.825
604.9028	67795.725
608.90594	69630.425
612.90624	71504.325
616.90371	66772.725
620.89834	58633.225
624.89015	55064.425
628.87913	54631.725
632.86528	54776.925
636.84862	54140.025
640.82913	52942.125
644.80683	51697.925
648.78172	51258.225
652.75379	51587.525
656.72306	52282.625
660.68952	52824.025
664.65319	52307.025
668.61405	51481.325
672.57211	51534.525
676.52738	51891.625
680.47986	51798.825
684.42955	51366.725
688.37646	51145.025
692.32058	51673.325
696.26192	52760.725
700.20048	53760.125
704.13626	54255.425
708.06928	54245.725
711.99952	54063.625
715.927	54290.825
719.85171	54738.625
723.77365	54465.325
727.69284	53370.825
731.60928	52334.025
735.52295	51911.325
739.43388	51814.225
743.34206	52033.125
747.24749	52463.425
751.15017	53065.525
755.05012	54013.325
758.94733	55469.825
762.8418	57663.525
766.73354	60573.925
770.62254	62788.725
774.50882	62340.425
778.39237	59515.125
782.27321	56393.425
786.15132	54019.725
790.02671	52686.525
793.89938	52064.925
797.76935	51872.525
801.6366	51879.725
805.50115	51949.125
809.36299	51684.125
813.22213	51242.425
817.07857	50778.525
820.93231	50389.225
824.78336	50147.525
828.63172	49980.725
832.47738	49872.825
836.32036	49989.225
840.16066	50183.525
843.99827	50440.325
847.8332	50358.825
851.66546	50335.425
855.49504	50333.525
859.32195	50304.625
863.1462	50148.525
866.96777	49978.625
870.78668	49898.725
874.60293	49913.425
878.41652	49976.425
882.22745	50185.725
886.03573	50375.525
889.84136	50338.425
893.64433	50026.525
897.44466	49786.925
901.24235	49683.125
905.0374	49675.325
908.8298	49681.925
912.61957	49820.725
916.40671	50318.725
920.19121	51201.725
923.97308	52071.025
927.75233	52246.825
931.52895	51716.525
935.30295	50720.425
939.07433	49771.725
942.84309	49276.225
946.60924	49150.725
950.37278	49157.825
954.13371	49224.225
957.89203	49097.225
961.64774	49029.925
965.40086	49079.525
969.15137	49124.725
972.89929	48944.525
976.64461	48901.125
980.38733	49038.325
984.12747	49245.625
987.86502	49495.425
991.59999	49919.325
995.33237	50675.625
999.06217	51886.825
1002.78939	53555.425
1006.51404	55155.825
1010.23611	56462.625
1013.95561	57111.525
1017.67255	56863.725
1021.38692	55958.725
1025.09872	54837.625
1028.80796	54566.325
1032.51465	55436.725
1036.21877	56473.325
1039.92035	56860.825
1043.61937	56491.125
1047.31584	55712.525
1051.00976	54777.425
1054.70114	54335.025
1058.38998	54513.925
1062.07627	54990.625
1065.76003	55702.525
1069.44126	56778.425
1073.11995	58364.325
1076.79611	59564.325
1080.46974	59877.825
1084.14085	59826.025
1087.80943	59943.325
1091.47549	59968.325
1095.13903	59663.325
1098.80005	58674.525
1102.45857	57137.325
1106.11456	55968.925
1109.76805	55526.125
1113.41903	55377.625
1117.06751	55489.425
1120.71348	55672.725
1124.35696	55992.825
1127.99793	56460.125
1131.63641	56961.425
1135.2724	57115.625
1138.90589	57437.225
1142.5369	57858.125
1146.16542	58409.025
1149.79145	59038.325
1153.415	59627.125
1157.03607	60678.125
1160.65467	62991.425
1164.27079	66597.025
1167.88443	70446.425
1171.49561	73823.625
1175.10432	77408.825
1178.71056	82238.125
1182.31434	87175.925
1185.91565	89369.425
1189.51451	88386.625
1193.11091	85939.725
1196.70485	83165.525
1200.29634	80774.125
1203.88538	79557.125
1207.47197	79474.325
1211.05612	79288.425
1214.63782	78321.225
1218.21708	76420.825
1221.79391	74106.725
1225.36829	72297.425
1228.94024	71126.525
1232.50976	69874.525
1236.07685	68627.725
1239.6415	67793.925
1243.20374	67665.825
1246.76355	68389.325
1250.32093	69834.025
1253.8759	71620.825
1257.42845	73789.925
1260.97859	76119.825
1264.52631	78616.925
1268.07163	81269.025
1271.61453	83866.925
1275.15503	86639.825
1278.69312	89517.225
1282.22882	92500.525
1285.76211	95996.725
1289.29301	99995.325
1292.82151	104395.925
1296.34761	109911.525
1299.87133	116987.425
1303.39266	124332.125
1306.9116	130274.925
1310.42815	133931.325
1313.94233	134878.125
1317.45412	133270.025
1320.96354	130413.125
1324.47058	128290.225
1327.97525	127579.525
1331.47754	127475.025
1334.97747	126994.325
1338.47502	125227.425
1341.97022	121748.725
1345.46305	117423.925
1348.95352	114362.325
1352.44163	114061.125
1355.92738	117893.825
1359.41078	124211.725
1362.89183	128854.125
1366.37053	128218.625
1369.84688	120169.625
1373.32088	107350.825
1376.79254	97466.525
1380.26186	94031.325
1383.72883	94581.925
1387.19347	95109.725
1390.65578	93653.025
1394.11575	92842.525
1397.57339	93777.725
1401.0287	96438.125
1404.48168	98906.525
1407.93234	99894.625
1411.38068	98877.125
1414.82669	96030.825
1418.27039	92010.625
1421.71177	87848.525
1425.15083	84419.625
1428.58758	83145.825
1432.02203	84452.525
1435.45416	87788.625
1438.88399	91405.325
1442.31151	93770.725
1445.73673	94526.225
1449.15965	94250.525
1452.58027	93046.325
1455.9986	91628.825
1459.41463	91254.125
1462.82837	92556.525
1466.23982	94939.125
1469.64898	97396.825
1473.05586	99142.125
1476.46045	99970.925
1479.86276	99657.325
1483.26279	98488.225
1486.66054	97788.325
1490.05602	97900.525
1493.44922	98019.725
1496.84016	97691.625
1500.22882	97101.925
1503.61521	96828.225
1506.99934	96904.625
1510.38121	97108.825
1513.76081	96575.625
1517.13816	95595.625
1520.51324	94843.025
1523.88607	94987.925
1527.25665	96408.825
1530.62498	97668.525
1533.99105	98020.525
1537.35488	96886.625
1540.71647	94527.825
1544.07581	91723.025
1547.4329	88961.225
1550.78776	86301.425
1554.14038	84437.625
1557.49077	83000.325
1560.83892	82081.625
1564.18484	81278.525
1567.52853	80979.625
1570.86999	81771.625
1574.20922	83660.425
1577.54624	86072.025
1580.88103	88145.625
1584.2136	91057.925
1587.54395	96023.525
1590.87208	102982.125
1594.19801	111008.225
1597.52172	117649.225
1600.84321	118556.625
1604.16251	111297.925
1607.47959	99796.725
1610.79447	88535.925
1614.10715	79214.625
1617.41763	72644.825
1620.7259	68717.425
1624.03199	67049.725
1627.33587	67600.825
1630.63757	70282.325
1633.93707	75750.825
1637.23439	84755.525
1640.52951	97928.525
1643.82246	113238.025
1647.11321	124066.925
1650.40179	123030.925
1653.68819	110028.525
1656.97241	92272.625
1660.25446	77130.625
1663.53433	66970.125
1666.81203	60879.825
1670.08756	57099.925
1673.36092	54809.325
1676.63211	53245.525
1679.90115	52178.525
1683.16801	51280.125
1686.43272	50643.625
1689.69527	50212.125
1692.95567	49870.125
1696.2139	49656.225
1699.46999	49474.725
1702.72392	49294.925
1705.97571	49202.425
1709.22535	49042.525
1712.47284	49113.025
1715.71819	49003.925
1718.96139	48853.825
1722.20246	48652.125
1725.44139	48441.225
1728.67818	48232.925
1731.91284	47887.025
1735.14537	47653.325
1738.37576	47417.525
1741.60403	47200.925
1744.83017	47058.425
1748.05418	46950.325
1751.27607	46875.625
1754.49584	46813.325
1757.71349	46741.325
1760.92903	46661.125
1764.14244	46712.325
1767.35375	46637.225
1770.56294	46598.625
1773.77002	46548.025
1776.97499	46536.925
1780.17785	46430.625
1783.37861	46373.525
1786.57727	46356.025
1789.77382	46209.225
1792.96828	46148.325
1796.16064	46080.125
1799.3509	46006.425
1802.53907	45917.425
1805.72514	45733.725
1808.90913	45694.425
1812.09102	45671.225
1815.27083	45518.225
1818.44856	45505.125
1821.6242	45463.625
1824.79776	45397.925
1827.96924	45415.525
1831.13864	45433.225
1834.30597	45434.925
1837.47122	45481.925
1840.6344	45372.225
1843.7955	45449.625
1846.95454	45438.025
1850.11151	45364.325
1853.26642	45316.825
1856.41926	45331.025
1859.57004	45299.025
1862.71876	45285.325
1865.86542	45226.825
1869.01003	45315.225
1872.15258	45268.925
1875.29308	45231.725
1878.43152	45128.325
1881.56792	45113.425
1884.70227	45104.325
1887.83457	45104.925
1890.96482	45086.825
1894.09304	45002.325
1897.21921	44937.825
1900.34335	44872.925
1903.46544	44811.525
1906.58551	44819.425
1909.70353	44785.725
1912.81953	44737.925
1915.93349	44638.525
1919.04543	44558.625
1922.15534	44521.725
1925.26322	44426.025
1928.36908	44309.425
1931.47292	44257.225
1934.57473	44122.225
1937.67453	44038.325
1940.77232	43891.325
1943.86808	43795.525
1946.96184	43708.225
1950.05358	43587.825
1953.14331	43489.525
1956.23103	43388.925
1959.31675	43335.725
1962.40046	43221.225
1965.48217	43028.025
1968.56188	42973.525
1971.63959	42802.325
1974.7153	42647.825
1977.78901	42560.925
1980.86073	42483.125
1983.93046	42305.125
1986.99819	42230.025
1990.06394	42132.025
1993.1277	42096.725
1996.18947	41958.225
1999.24925	41819.625
2002.30706	41669.425
2005.36288	41585.025
2008.41672	41515.425
2011.46859	41369.325
2014.51848	41313.825
2017.56639	41257.925
2020.61233	41151.025
2023.6563	41096.825
2026.6983	40988.125
2029.73833	40943.925
2032.7764	40942.025
2035.8125	40845.125
2038.84664	40817.025
2041.87881	40778.525
2044.90903	40617.425
2047.93729	40621.625
2050.96359	40555.725
2053.98794	40547.025
2057.01034	40457.225
2060.03078	40444.025
2063.04927	40422.325
2066.06582	40462.125
2069.08042	40364.925
2072.09307	40383.025
2075.10378	40315.025
2078.11255	40263.925
2081.11938	40293.325
2084.12426	40208.525
2087.12722	40227.925
2090.12824	40144.225
2093.12732	40234.825
2096.12447	40222.125
2099.11969	40265.425
2102.11299	40256.625
2105.10435	40251.525
2108.09379	40274.025
2111.08131	40306.525
2114.0669	40337.425
2117.05057	40338.525
2120.03233	40392.325
2123.01216	40442.225
2125.99008	40475.725
2128.96609	40465.425
2131.94018	40493.725
2134.91236	40558.325
2137.88263	40537.225
2140.851	40534.725
2143.81746	40620.925
2146.78201	40540.125
2149.74466	40614.625
2152.7054	40656.325
2155.66425	40649.625
2158.6212	40687.325
2161.57625	40700.425
2164.52941	40683.625
2167.48067	40687.825
2170.43004	40647.525
2173.37752	40574.625
2176.32311	40632.425
2179.26681	40652.225
2182.20863	40652.125
2185.14856	40688.525
2188.08661	40691.825
2191.02278	40677.325
2193.95707	40647.425
2196.88948	40678.925
2199.82001	40626.725
2202.74867	40595.525
2205.67545	40539.225
2208.60037	40522.425
2211.52341	40492.625
2214.44458	40430.425
2217.36388	40372.225
2220.28132	40343.225
2223.1969	40252.125
2226.11061	40203.825
2229.02246	40157.825
2231.93245	40164.725
2234.84058	40095.825
2237.74686	40027.625
2240.65128	40053.125
2243.55385	39993.725
2246.45456	39892.925
2249.35343	39854.525
2252.25044	39786.825
2255.14561	39641.725
2258.03893	39634.925
2260.93041	39560.125
2263.82004	39417.825
2266.70783	39366.925
2269.59378	39273.125
2272.4779	39195.325
2275.36017	39117.225
2278.24061	39035.725
2281.11922	39033.925
2283.996	38954.525
2286.87094	38876.725
2289.74405	38831.225
2292.61534	38833.625
2295.4848	38861.125
2298.35243	38913.125
2301.21824	38892.325
2304.08223	38921.725
2306.94439	38906.625
2309.80474	38955.925
2312.66327	38870.925
2315.51999	38901.025
2318.37489	38857.325
2321.22797	38913.325
2324.07925	38874.625
2326.92871	38882.525
2329.77637	38843.925
2332.62222	38775.325
2335.46626	38753.225
2338.3085	38807.925
2341.14893	38769.225
2343.98756	38810.525
2346.8244	38784.825
2349.65943	38722.825
2352.49267	38709.025
2355.32411	38709.625
2358.15376	38688.825
2360.98161	38609.425
2363.80768	38614.725
2366.63195	38546.325
2369.45444	38506.225
2372.27514	38465.525
2375.09405	38468.125
2377.91118	38314.925
2380.72652	38255.325
2383.54009	38155.925
2386.35187	38177.725
2389.16188	38084.925
2391.97011	38042.125
2394.77657	38059.625
2397.58125	37980.225
2400.38416	37991.925
2403.18529	37908.925
2405.98466	37857.325
2408.78226	37852.625
2411.57809	37755.225
2414.37216	37741.225
2417.16446	37736.425
2419.955	37679.325
2422.74378	37709.825
2425.5308	37623.625
2428.31606	37582.125
2431.09956	37576.625
2433.88131	37535.425
2436.6613	37540.825
2439.43954	37508.825
2442.21603	37510.725
2444.99077	37499.325
2447.76377	37521.025
2450.53501	37489.725
2453.30451	37518.425
2456.07226	37474.825
2458.83827	37505.625
2461.60254	37483.025
2464.36507	37507.125
2467.12586	37522.025
2469.88492	37480.625
2472.64224	37491.625
2475.39782	37475.025
2478.15167	37551.425
2480.90379	37614.325
2483.65417	37629.825
2486.40283	37577.925
2489.14976	37586.625
2491.89497	37537.625
2494.63845	37552.925
2497.3802	37540.625
2500.12024	37581.325
2502.85855	37589.125
2505.59514	37579.225
2508.33002	37599.625
2511.06318	37532.925
2513.79462	37467.825
2516.52435	37504.225
2519.25237	37529.825
2521.97867	37535.725
2524.70327	37489.325
2527.42616	37494.325
2530.14734	37464.825
2532.86681	37420.525
2535.58458	37427.025
2538.30065	37383.725
2541.01501	37418.225
2543.72768	37332.825
2546.43864	37292.925
2549.14791	37264.125
2551.85548	37308.825
2554.56136	37293.025
2557.26554	37275.125
2559.96803	37255.625
2562.66883	37234.325
2565.36794	37214.625
2568.06536	37215.425
2570.7611	37195.825
2573.45514	37232.225
2576.14751	37155.025
2578.83819	37137.925
2581.52719	37154.125
2584.21451	37118.625
2586.90015	37125.925
2589.58411	37046.225
2592.2664	37104.825
2594.94701	37006.725
2597.62594	36955.025
2600.30321	37004.025
2602.9788	37029.225
2605.65273	36998.225
2608.32498	36990.325
2610.99557	37040.725
2613.66449	37055.325
2616.33175	37033.325
2618.99734	37005.825
2621.66128	36967.825
2624.32355	37001.625
2626.98416	36950.325
2629.64311	36895.125
2632.30041	36835.925
2634.95605	36832.525
2637.61004	36833.225
2640.26238	36788.025
2642.91306	36797.525
2645.56209	36742.825
2648.20948	36799.025
2650.85521	36797.825
2653.4993	36798.625
2656.14175	36843.425
2658.78255	36838.625
2661.42171	36900.425
2664.05923	36879.125
2666.6951	36877.025
2669.32934	36950.625
2671.96194	36954.225
2674.59291	37025.925
2677.22224	36979.425
2679.84993	37016.025
2682.476	36957.925
2685.10043	36935.625
2687.72324	36945.925
2690.34441	36955.925
2692.96396	36913.425
2695.58188	36966.325
2698.19818	36920.725
2700.81285	36956.325
2703.4259	36959.925
2706.03733	36997.125
2708.64714	37020.625
2711.25533	37039.325
2713.86191	36989.425
2716.46687	37096.425
2719.07021	37089.425
2721.67194	37150.625
2724.27206	37105.925
2726.87057	37114.925
2729.46747	37155.625
2732.06276	37226.025
2734.65644	37206.625
2737.24852	37191.225
2739.83899	37211.725
2742.42786	37274.725
2745.01513	37278.125
2747.60079	37335.925
2750.18486	37278.225
2752.76733	37327.325
2755.3482	37266.325
2757.92747	37203.925
2760.50515	37164.525
2763.08123	37181.425
2765.65573	37141.925
2768.22863	37169.325
2770.79994	37129.025
2773.36967	37215.225
2775.9378	37149.325
2778.50435	37144.125
2781.06932	37085.625
2783.6327	37065.825
2786.1945	37077.025
2788.75471	37016.625
2791.31335	37009.525
2793.87041	36996.725
2796.42589	36808.725
2798.97979	36829.925
2801.53212	36687.325
2804.08288	36765.825
2806.63206	36614.925
2809.17967	36637.125
2811.72571	36523.425
2814.27018	36545.425
2816.81308	36511.525
2819.35442	36420.825
2821.89419	36362.225
2824.43239	36302.225
2826.96904	36210.425
2829.50412	36194.325
2832.03763	36107.125
2834.56959	36104.025
2837.1	36076.725
2839.62884	36122.025
2842.15613	35965.425
2844.68186	36044.625
2847.20604	35945.925
2849.72867	35996.125
2852.24974	35938.925
2854.76927	35872.625
2857.28724	35878.925
2859.80367	35840.425
2862.31855	35815.725
2864.83189	35715.825
2867.34368	35691.625
2869.85393	35734.925
2872.36264	35694.825
2874.8698	35628.525
2877.37543	35689.725
2879.87952	35688.325
2882.38207	35705.125
2884.88308	35684.925
2887.38256	35772.325
2889.88051	35723.025
2892.37692	35750.225
2894.8718	35770.925
2897.36515	35842.425
2899.85698	35839.025
2902.34727	35876.325
2904.83604	35857.025
2907.32328	35916.225
2909.809	35922.325
2912.29319	35947.325
2914.77587	35974.525
2917.25702	35906.425
2919.73665	35861.925
2922.21476	35882.325
2924.69136	35856.025
2927.16644	35907.625
2929.64	35895.625
2932.11205	35849.725
2934.58258	35711.325
2937.05161	35765.325
2939.51912	35750.925
2941.98513	35759.625
2944.44962	35678.125
2946.91261	35586.825
2949.37409	35679.925
2951.83407	35635.525
2954.29254	35624.225
2956.74951	35578.025
2959.20498	35604.425
2961.65895	35540.825
2964.11142	35460.125
2966.56239	35443.525
2969.01186	35438.225
2971.45984	35310.325
2973.90632	35291.625
2976.35131	35153.225
2978.7948	35091.025
2981.23681	35025.525
2983.67732	34953.025
2986.11635	34895.025
2988.55388	34755.625
2990.98993	34675.025
2993.4245	34579.925
2995.85758	34534.325
2998.28917	34472.625
3000.71928	34465.725
3003.14791	34351.925
3005.57506	34324.425
3008.00073	34251.625
3010.42493	34267.725
3012.84764	34189.525
3015.26888	34162.925
3017.68865	34036.725
3020.10694	33958.125
3022.52376	33893.825
3024.9391	33879.625
3027.35298	33835.925
3029.76539	33776.125
3032.17632	33729.025
3034.5858	33678.625
3036.9938	33643.625
3039.40034	33606.125
3041.80542	33623.025
3044.20903	33540.825
3046.61118	33487.625
3049.01187	33399.225
3051.4111	33419.025
3053.80888	33333.325
3056.20519	33270.725
3058.60005	33202.425
3060.99345	33155.925
3063.3854	33091.425
3065.7759	33007.825
3068.16494	32938.825
3070.55254	32797.125
3072.93868	32764.425
3075.32338	32647.425
3077.70662	32574.825
3080.08842	32460.225
3082.46878	32450.325
3084.84769	32353.925
3087.22515	32399.025
3089.60118	32371.125
3091.97576	32340.525
3094.3489	32313.125
3096.72061	32293.825
3099.09087	32258.425
3101.4597	32203.125
3103.82709	32194.225
3106.19305	32138.525
3108.55757	32150.525
3110.92066	32044.325
3113.28232	31925.525
3115.64255	31835.725
3118.00134	31776.625
3120.35871	31711.525
3122.71466	31651.525
