Data from AgNP_FTO_APTES_CRN_10uM_R6G_10uM_NaF_0.1M_Addition_RamanShift__25__16-44-07-986.txt Node

Date: Wed Dec 15 16:44:07 GMT 2021
User: TCL
Spectrometer: QEP01345
Trigger mode: 4
Integration Time (sec): 7.000000E0
Scans to average: 10
Electric dark correction enabled: true
Nonlinearity correction enabled: false
Boxcar width: 0
XAxis mode: Raman Shifts
Number of Pixels in Spectrum: 1044
>>>>>Begin Spectral Data<<<<<
46.04893	0.775
50.45542	-1.125
54.85868	-0.425
59.25871	-0.925
63.6555	84.775
68.04907	90.675
72.43941	94.675
76.82654	98.175
81.21044	105.075
85.59113	104.175
89.96862	111.375
94.34289	112.675
98.71396	120.075
103.08183	124.175
107.4465	129.175
111.80798	128.575
116.16626	130.575
120.52136	135.275
124.87327	138.975
129.222	146.375
133.56755	151.475
137.90993	165.175
142.24913	178.875
146.58517	199.875
150.91804	228.575
155.24774	275.675
159.57429	333.075
163.89768	430.275
168.21792	566.975
172.53501	769.575
176.84895	1056.475
181.15975	1483.475
185.46741	2072.675
189.77193	2843.975
194.07331	3814.775
198.37157	4918.875
202.6667	6053.175
206.9587	7224.375
211.24758	8370.775
215.53334	9493.675
219.81599	10719.175
224.09553	12103.775
228.37195	13625.375
232.64527	15244.175
236.91549	16990.975
241.18261	18661.575
245.44663	20216.675
249.70755	21617.675
253.96539	22724.775
258.22014	23775.175
262.4718	24631.875
266.72039	25272.075
270.96589	25677.775
275.20832	25759.475
279.44768	25590.575
283.68397	25338.475
287.91719	25162.375
292.14735	25130.175
296.37445	25280.275
300.59849	25566.975
304.81948	25902.475
309.03742	26017.575
313.25231	25770.075
317.46415	25024.375
321.67296	23966.575
325.87872	23099.775
330.08145	22667.375
334.28114	22614.875
338.47781	22861.375
342.67145	23214.175
346.86207	23816.975
351.04966	24611.175
355.23424	25433.375
359.4158	26081.375
363.59435	26453.075
367.76989	26628.075
371.94243	26672.675
376.11196	26605.075
380.27849	26567.875
384.44203	26517.275
388.60257	26479.475
392.76012	26563.975
396.91468	26851.375
401.06626	27291.675
405.21485	27620.375
409.36047	27429.275
413.50311	26707.675
417.64277	26059.675
421.77947	25756.275
425.9132	25698.975
430.04396	25802.175
434.17176	25984.875
438.2966	26257.575
442.41849	26747.675
446.53742	27460.175
450.6534	28159.375
454.76644	28780.775
458.87653	28965.075
462.98368	28864.075
467.08789	28500.675
471.18916	28112.475
475.2875	27639.675
479.38291	27290.775
483.4754	26962.175
487.56496	26616.475
491.6516	26251.275
495.73531	25979.175
499.81612	25877.675
503.89401	26058.175
507.96899	26255.075
512.04106	26456.975
516.11023	26700.975
520.1765	26911.275
524.23987	26955.675
528.30034	26818.075
532.35792	26430.775
536.41261	25906.975
540.46441	25340.575
544.51333	25189.475
548.55936	25303.975
552.60252	25762.675
556.64279	26267.675
560.6802	26585.475
564.71473	26744.175
568.7464	27158.975
572.7752	27614.175
576.80114	27641.775
580.82422	27589.275
584.84444	27667.075
588.86181	27996.275
592.87633	28458.675
596.888	29028.975
600.89682	29632.875
604.9028	31198.875
608.90594	35011.075
612.90624	39652.975
616.90371	37750.075
620.89834	30105.275
624.89015	26526.975
628.87913	26015.775
632.86528	26063.275
636.84862	26091.175
640.82913	25720.675
644.80683	24861.275
648.78172	24283.775
652.75379	24226.575
656.72306	24610.175
660.68952	25208.475
664.65319	25131.475
668.61405	24471.775
672.57211	24203.475
676.52738	24185.875
680.47986	24191.275
684.42955	24124.375
688.37646	24015.775
692.32058	24097.875
696.26192	24321.275
700.20048	24584.575
704.13626	24745.075
708.06928	24724.875
711.99952	24598.675
715.927	24517.375
719.85171	24575.275
723.77365	24482.075
727.69284	24229.875
731.60928	23994.375
735.52295	23941.675
739.43388	23942.275
743.34206	24025.975
747.24749	24161.275
751.15017	24299.175
755.05012	24697.175
758.94733	25455.075
762.8418	27121.075
766.73354	29870.775
770.62254	32707.975
774.50882	33723.975
778.39237	32054.875
782.27321	29086.575
786.15132	26474.675
790.02671	24912.975
793.89938	24217.775
797.76935	23977.175
801.6366	23868.475
805.50115	23756.475
809.36299	23666.975
813.22213	23535.075
817.07857	23469.975
820.93231	23450.875
824.78336	23459.475
828.63172	23513.375
832.47738	23625.275
836.32036	23735.575
840.16066	23814.575
843.99827	23786.175
847.8332	23650.275
851.66546	23473.675
855.49504	23372.275
859.32195	23347.775
863.1462	23245.875
866.96777	23109.975
870.78668	23031.675
874.60293	23046.275
878.41652	23059.875
882.22745	23148.075
886.03573	23210.475
889.84136	23170.775
893.64433	23099.275
897.44466	22976.775
901.24235	22917.775
905.0374	22886.375
908.8298	22860.975
912.61957	22898.575
916.40671	23091.275
920.19121	23372.175
923.97308	23586.275
927.75233	23757.075
931.52895	23814.475
935.30295	23560.275
939.07433	23068.975
942.84309	22673.675
946.60924	22429.375
950.37278	22305.175
954.13371	22176.475
957.89203	22078.575
961.64774	22022.575
965.40086	21956.875
969.15137	21871.975
972.89929	21788.675
976.64461	21735.575
980.38733	21750.575
984.12747	21861.975
987.86502	22024.475
991.59999	22313.475
995.33237	22705.775
999.06217	23360.075
1002.78939	24166.475
1006.51404	24689.875
1010.23611	25077.975
1013.95561	25366.975
1017.67255	25257.475
1021.38692	24877.375
1025.09872	24618.375
1028.80796	24820.175
1032.51465	25510.375
1036.21877	26198.375
1039.92035	26371.975
1043.61937	26047.275
1047.31584	25546.175
1051.00976	25032.075
1054.70114	24827.975
1058.38998	24956.275
1062.07627	25288.875
1065.76003	25884.275
1069.44126	26752.475
1073.11995	27882.075
1076.79611	28798.375
1080.46974	29166.175
1084.14085	28818.475
1087.80943	28158.075
1091.47549	27374.175
1095.13903	26533.275
1098.80005	25640.875
1102.45857	24881.675
1106.11456	24511.275
1109.76805	24440.975
1113.41903	24644.675
1117.06751	24971.075
1120.71348	25399.575
1124.35696	25855.975
1127.99793	26335.875
1131.63641	26535.675
1135.2724	26175.775
1138.90589	25735.975
1142.5369	25324.375
1146.16542	25059.675
1149.79145	24912.975
1153.415	25021.775
1157.03607	25346.475
1160.65467	25837.075
1164.27079	26771.475
1167.88443	28193.675
1171.49561	30201.375
1175.10432	33167.575
1178.71056	36855.875
1182.31434	39993.075
1185.91565	41184.675
1189.51451	40533.675
1193.11091	38681.075
1196.70485	36318.875
1200.29634	34244.175
1203.88538	32717.475
1207.47197	31564.575
1211.05612	30550.675
1214.63782	29905.775
1218.21708	29648.975
1221.79391	29652.475
1225.36829	29594.575
1228.94024	29493.475
1232.50976	29157.875
1236.07685	28851.175
1239.6415	28709.075
1243.20374	28708.675
1246.76355	28827.275
1250.32093	29262.175
1253.8759	29938.675
1257.42845	30769.175
1260.97859	31629.775
1264.52631	32386.375
1268.07163	33288.575
1271.61453	34207.375
1275.15503	35232.975
1278.69312	36097.575
1282.22882	36821.675
1285.76211	37570.375
1289.29301	38473.775
1292.82151	39588.875
1296.34761	41037.875
1299.87133	43094.375
1303.39266	45769.875
1306.9116	49236.975
1310.42815	53007.975
1313.94233	55514.575
1317.45412	55530.775
1320.96354	53819.475
1324.47058	51729.475
1327.97525	49746.175
1331.47754	48303.675
1334.97747	47665.275
1338.47502	47692.775
1341.97022	47987.875
1345.46305	48120.075
1348.95352	48294.275
1352.44163	49118.775
1355.92738	51135.975
1359.41078	55060.475
1362.89183	59187.775
1366.37053	58654.475
1369.84688	52878.275
1373.32088	46221.275
1376.79254	41594.575
1380.26186	39387.275
1383.72883	38529.275
1387.19347	37852.075
1390.65578	37072.675
1394.11575	36576.475
1397.57339	36603.475
1401.0287	37128.675
1404.48168	37642.875
1407.93234	38054.375
1411.38068	37936.975
1414.82669	37202.775
1418.27039	35936.575
1421.71177	34709.775
1425.15083	33560.475
1428.58758	32819.875
1432.02203	32734.675
1435.45416	33130.275
1438.88399	33691.375
1442.31151	34215.175
1445.73673	34633.575
1449.15965	35122.975
1452.58027	35396.775
1455.9986	35490.775
1459.41463	35775.875
1462.82837	36345.675
1466.23982	37127.475
1469.64898	37928.775
1473.05586	38347.575
1476.46045	38455.375
1479.86276	38444.975
1483.26279	38392.175
1486.66054	38396.875
1490.05602	38751.075
1493.44922	39310.875
1496.84016	40074.875
1500.22882	41329.775
1503.61521	43344.675
1506.99934	45964.275
1510.38121	48645.175
1513.76081	50026.975
1517.13816	48797.175
1520.51324	45694.375
1523.88607	42443.575
1527.25665	39987.975
1530.62498	38634.175
1533.99105	37844.575
1537.35488	37318.475
1540.71647	36919.575
1544.07581	36523.775
1547.4329	35996.175
1550.78776	35663.375
1554.14038	35428.975
1557.49077	35494.875
1560.83892	35689.875
1564.18484	36092.675
1567.52853	36732.075
1570.86999	37555.875
1574.20922	38887.575
1577.54624	40419.175
1580.88103	41396.275
1584.2136	41445.075
1587.54395	40901.875
1590.87208	40404.775
1594.19801	41068.475
1597.52172	42738.675
1600.84321	43280.775
1604.16251	41671.275
1607.47959	38712.975
1610.79447	35502.275
1614.10715	32583.375
1617.41763	30178.975
1620.7259	28610.475
1624.03199	27799.275
1627.33587	27806.875
1630.63757	28527.475
1633.93707	30103.275
1637.23439	32463.875
1640.52951	35791.175
1643.82246	39610.475
1647.11321	42918.675
1650.40179	44277.975
1653.68819	42266.275
1656.97241	37357.575
1660.25446	32044.775
1663.53433	28081.975
1666.81203	25540.675
1670.08756	23948.175
1673.36092	22942.075
1676.63211	22283.475
1679.90115	21827.575
1683.16801	21506.075
1686.43272	21290.875
1689.69527	21115.675
1692.95567	20948.975
1696.2139	20917.775
1699.46999	20881.375
1702.72392	20814.375
1705.97571	20752.075
1709.22535	20663.775
1712.47284	20633.975
1715.71819	20600.475
1718.96139	20577.275
1722.20246	20480.075
1725.44139	20404.175
1728.67818	20294.875
1731.91284	20159.475
1735.14537	20069.175
1738.37576	19964.075
1741.60403	19927.275
1744.83017	19890.875
1748.05418	19832.375
1751.27607	19779.475
1754.49584	19747.575
1757.71349	19757.975
1760.92903	19755.775
1764.14244	19731.275
1767.35375	19717.775
1770.56294	19681.075
1773.77002	19673.875
1776.97499	19625.575
1780.17785	19562.875
1783.37861	19530.075
1786.57727	19468.875
1789.77382	19472.575
1792.96828	19458.775
1796.16064	19410.675
1799.3509	19375.975
1802.53907	19354.475
1805.72514	19287.875
1808.90913	19252.175
1812.09102	19184.175
1815.27083	19159.475
1818.44856	19142.675
1821.6242	19114.875
1824.79776	19084.875
1827.96924	19078.875
1831.13864	19071.475
1834.30597	19098.975
1837.47122	19073.475
1840.6344	19065.175
1843.7955	19066.975
1846.95454	19074.575
1850.11151	19052.875
1853.26642	19083.475
1856.41926	19065.675
1859.57004	19047.375
1862.71876	19080.475
1865.86542	19067.675
1869.01003	19058.575
1872.15258	19046.875
1875.29308	19053.975
1878.43152	19022.175
1881.56792	19026.175
1884.70227	18980.875
1887.83457	19013.175
1890.96482	18991.475
1894.09304	18983.175
1897.21921	18972.375
1900.34335	18988.175
1903.46544	18940.175
1906.58551	18953.075
1909.70353	18940.075
1912.81953	18916.775
1915.93349	18907.275
1919.04543	18889.975
1922.15534	18833.375
1925.26322	18810.175
1928.36908	18767.275
1931.47292	18688.875
1934.57473	18644.275
1937.67453	18578.575
1940.77232	18566.275
1943.86808	18508.875
1946.96184	18397.275
1950.05358	18348.875
1953.14331	18299.675
1956.23103	18248.775
1959.31675	18225.675
1962.40046	18154.475
1965.48217	18084.575
1968.56188	18058.675
1971.63959	18014.975
1974.7153	17955.975
1977.78901	17874.875
1980.86073	17773.275
1983.93046	17761.575
1986.99819	17733.475
1990.06394	17670.475
1993.1277	17599.675
1996.18947	17533.975
1999.24925	17506.375
2002.30706	17459.075
2005.36288	17401.575
2008.41672	17370.975
2011.46859	17336.075
2014.51848	17278.175
2017.56639	17215.675
2020.61233	17179.075
2023.6563	17150.375
2026.6983	17114.875
2029.73833	17116.675
2032.7764	17061.775
2035.8125	17041.075
2038.84664	16997.775
2041.87881	16982.575
2044.90903	16936.775
2047.93729	16929.775
2050.96359	16920.775
2053.98794	16899.875
2057.01034	16905.775
2060.03078	16843.775
2063.04927	16885.875
2066.06582	16844.575
2069.08042	16831.475
2072.09307	16795.775
2075.10378	16786.075
2078.11255	16751.175
2081.11938	16761.875
2084.12426	16776.875
2087.12722	16769.375
2090.12824	16754.275
2093.12732	16718.875
2096.12447	16786.275
2099.11969	16737.475
2102.11299	16787.175
2105.10435	16766.975
2108.09379	16777.075
2111.08131	16793.375
2114.0669	16809.875
2117.05057	16812.675
2120.03233	16814.675
2123.01216	16824.775
2125.99008	16807.275
2128.96609	16857.275
2131.94018	16878.275
2134.91236	16886.075
2137.88263	16866.475
2140.851	16891.275
2143.81746	16923.275
2146.78201	16894.075
2149.74466	16906.975
2152.7054	16935.775
2155.66425	16912.775
2158.6212	16941.475
2161.57625	16915.975
2164.52941	16911.675
2167.48067	16914.775
2170.43004	16899.475
2173.37752	16891.975
2176.32311	16916.075
2179.26681	16872.175
2182.20863	16918.275
2185.14856	16928.475
2188.08661	16911.675
2191.02278	16910.075
2193.95707	16885.575
2196.88948	16879.875
2199.82001	16879.175
2202.74867	16869.675
2205.67545	16898.275
2208.60037	16920.075
2211.52341	16894.775
2214.44458	16852.575
2217.36388	16843.075
2220.28132	16770.075
2223.1969	16776.975
2226.11061	16763.875
2229.02246	16748.275
2231.93245	16694.875
2234.84058	16666.875
2237.74686	16646.775
2240.65128	16649.075
2243.55385	16600.275
2246.45456	16571.975
2249.35343	16545.575
2252.25044	16516.775
2255.14561	16485.375
2258.03893	16519.275
2260.93041	16508.275
2263.82004	16453.075
2266.70783	16419.275
2269.59378	16372.675
2272.4779	16357.975
2275.36017	16321.175
2278.24061	16257.775
2281.11922	16231.275
2283.996	16214.575
2286.87094	16202.575
2289.74405	16147.675
2292.61534	16169.975
2295.4848	16165.375
2298.35243	16188.875
2301.21824	16137.775
2304.08223	16138.675
2306.94439	16146.275
2309.80474	16164.875
2312.66327	16147.775
2315.51999	16147.575
2318.37489	16180.375
2321.22797	16140.075
2324.07925	16149.875
2326.92871	16132.875
2329.77637	16137.175
2332.62222	16137.575
2335.46626	16107.675
2338.3085	16100.575
2341.14893	16135.975
2343.98756	16140.175
2346.8244	16111.875
2349.65943	16143.275
2352.49267	16147.275
2355.32411	16158.375
2358.15376	16096.975
2360.98161	16099.375
2363.80768	16066.275
2366.63195	16092.975
2369.45444	16053.575
2372.27514	16026.375
2375.09405	16008.375
2377.91118	15951.175
2380.72652	15933.975
2383.54009	15871.775
2386.35187	15878.375
2389.16188	15804.875
2391.97011	15816.275
2394.77657	15785.575
2397.58125	15741.075
2400.38416	15723.875
2403.18529	15673.575
2405.98466	15662.275
2408.78226	15631.375
2411.57809	15611.575
2414.37216	15582.475
2417.16446	15566.975
2419.955	15539.275
2422.74378	15517.075
2425.5308	15509.175
2428.31606	15503.275
2431.09956	15494.975
2433.88131	15494.675
2436.6613	15497.475
2439.43954	15482.975
2442.21603	15463.675
2444.99077	15476.075
2447.76377	15500.975
2450.53501	15466.275
2453.30451	15448.375
2456.07226	15438.375
2458.83827	15423.375
2461.60254	15440.875
2464.36507	15420.275
2467.12586	15426.375
2469.88492	15448.475
2472.64224	15439.875
2475.39782	15464.175
2478.15167	15492.875
2480.90379	15480.875
2483.65417	15479.775
2486.40283	15511.375
2489.14976	15525.375
2491.89497	15519.175
2494.63845	15558.475
2497.3802	15555.875
2500.12024	15546.975
2502.85855	15531.175
2505.59514	15534.675
2508.33002	15495.475
2511.06318	15460.975
2513.79462	15411.975
2516.52435	15417.175
2519.25237	15406.475
2521.97867	15387.675
2524.70327	15355.975
2527.42616	15355.075
2530.14734	15359.675
2532.86681	15330.175
2535.58458	15346.075
2538.30065	15286.475
2541.01501	15332.975
2543.72768	15297.075
2546.43864	15308.175
2549.14791	15275.575
2551.85548	15254.075
2554.56136	15225.475
2557.26554	15242.275
2559.96803	15232.075
2562.66883	15224.475
2565.36794	15233.075
2568.06536	15212.075
2570.7611	15210.075
2573.45514	15226.775
2576.14751	15181.875
2578.83819	15193.275
2581.52719	15185.475
2584.21451	15170.675
2586.90015	15174.875
2589.58411	15141.775
2592.2664	15163.775
2594.94701	15101.075
2597.62594	15124.475
2600.30321	15065.675
2602.9788	15103.175
2605.65273	15089.375
2608.32498	15076.375
2610.99557	15036.375
2613.66449	15085.075
2616.33175	15072.375
2618.99734	15082.775
2621.66128	15076.775
2624.32355	15072.975
2626.98416	15053.875
2629.64311	15078.175
2632.30041	15080.875
2634.95605	15042.775
2637.61004	15020.375
2640.26238	15003.075
2642.91306	14966.975
2645.56209	14989.075
2648.20948	14987.875
2650.85521	14943.475
2653.4993	14966.175
2656.14175	14960.575
2658.78255	14971.775
2661.42171	14946.375
2664.05923	14976.475
2666.6951	14989.275
2669.32934	14983.875
2671.96194	14981.875
2674.59291	15002.375
2677.22224	14994.675
2679.84993	15005.775
2682.476	14988.475
2685.10043	14960.175
2687.72324	14961.075
2690.34441	15003.475
2692.96396	14974.575
2695.58188	14990.575
2698.19818	14962.575
2700.81285	14984.275
2703.4259	14972.275
2706.03733	15044.075
2708.64714	15020.575
2711.25533	15022.475
2713.86191	15007.875
2716.46687	15046.275
2719.07021	15024.875
2721.67194	15040.775
2724.27206	15024.475
2726.87057	15030.375
2729.46747	15014.275
2732.06276	15015.675
2734.65644	15002.275
2737.24852	15043.575
2739.83899	15006.675
2742.42786	15023.675
2745.01513	14978.975
2747.60079	14969.575
2750.18486	14948.475
2752.76733	15014.375
2755.3482	15024.675
2757.92747	15005.775
2760.50515	14995.375
2763.08123	14975.575
2765.65573	14951.475
2768.22863	14966.875
2770.79994	14922.075
2773.36967	14941.875
2775.9378	14924.575
2778.50435	14902.375
2781.06932	14922.575
2783.6327	14921.275
2786.1945	14885.375
2788.75471	14876.475
2791.31335	14862.875
2793.87041	14807.775
2796.42589	14770.675
2798.97979	14811.475
2801.53212	14781.675
2804.08288	14814.275
2806.63206	14729.775
2809.17967	14709.675
2811.72571	14661.775
2814.27018	14701.875
2816.81308	14674.175
2819.35442	14657.575
2821.89419	14633.275
2824.43239	14667.575
2826.96904	14657.975
2829.50412	14650.875
2832.03763	14633.375
2834.56959	14618.775
2837.1	14579.275
2839.62884	14602.675
2842.15613	14609.875
2844.68186	14657.175
2847.20604	14621.975
2849.72867	14656.975
2852.24974	14641.475
2854.76927	14657.775
2857.28724	14642.375
2859.80367	14644.275
2862.31855	14604.675
2864.83189	14568.875
2867.34368	14588.175
2869.85393	14593.075
2872.36264	14602.175
2874.8698	14596.775
2877.37543	14596.975
2879.87952	14619.775
2882.38207	14590.375
2884.88308	14599.275
2887.38256	14621.975
2889.88051	14600.075
2892.37692	14604.775
2894.8718	14583.375
2897.36515	14626.375
2899.85698	14628.475
2902.34727	14647.375
2904.83604	14640.375
2907.32328	14675.375
2909.809	14667.475
2912.29319	14691.175
2914.77587	14694.375
2917.25702	14688.675
2919.73665	14676.175
2922.21476	14671.175
2924.69136	14656.875
2927.16644	14662.875
2929.64	14627.975
2932.11205	14616.575
2934.58258	14590.375
2937.05161	14633.075
2939.51912	14588.275
2941.98513	14582.475
2944.44962	14519.275
2946.91261	14468.575
2949.37409	14506.475
2951.83407	14463.775
2954.29254	14466.775
2956.74951	14427.975
2959.20498	14434.475
2961.65895	14423.675
2964.11142	14434.475
2966.56239	14384.675
2969.01186	14370.075
2971.45984	14325.975
2973.90632	14271.975
2976.35131	14244.375
2978.7948	14199.875
2981.23681	14174.075
2983.67732	14182.275
2986.11635	14151.175
2988.55388	14126.175
2990.98993	14086.475
2993.4245	14047.375
2995.85758	14031.775
2998.28917	14008.275
3000.71928	13973.975
3003.14791	13948.275
3005.57506	13942.175
3008.00073	13896.675
3010.42493	13913.775
3012.84764	13834.675
3015.26888	13871.275
3017.68865	13844.075
3020.10694	13802.875
3022.52376	13774.175
3024.9391	13811.875
3027.35298	13799.875
3029.76539	13796.075
3032.17632	13765.375
3034.5858	13723.275
3036.9938	13720.075
3039.40034	13716.875
3041.80542	13696.275
3044.20903	13648.075
3046.61118	13671.175
3049.01187	13654.175
3051.4111	13633.475
3053.80888	13602.875
3056.20519	13581.375
3058.60005	13580.775
3060.99345	13531.375
3063.3854	13506.775
3065.7759	13461.075
3068.16494	13433.975
3070.55254	13402.675
3072.93868	13395.975
3075.32338	13345.575
3077.70662	13330.875
3080.08842	13283.175
3082.46878	13281.375
3084.84769	13281.275
3087.22515	13247.075
3089.60118	13254.775
3091.97576	13262.475
3094.3489	13258.175
3096.72061	13224.975
3099.09087	13230.875
3101.4597	13227.575
3103.82709	13211.075
3106.19305	13184.175
3108.55757	13200.475
3110.92066	13137.975
3113.28232	13134.875
3115.64255	13095.475
3118.00134	13079.275
3120.35871	13049.675
3122.71466	13052.675
3125.06917	13028.875
3127.42226	12992.175
