Data from AgNP_FTO_APTES_CRN_10uM_R6G_10uM_NaF_0.1M_Addition_RamanShift__34__16-54-37-996.txt Node

Date: Wed Dec 15 16:54:37 GMT 2021
User: TCL
Spectrometer: QEP01345
Trigger mode: 4
Integration Time (sec): 7.000000E0
Scans to average: 10
Electric dark correction enabled: true
Nonlinearity correction enabled: false
Boxcar width: 0
XAxis mode: Raman Shifts
Number of Pixels in Spectrum: 1044
>>>>>Begin Spectral Data<<<<<
46.04893	0.525
50.45542	-0.275
54.85868	-1.075
59.25871	0.625
63.6555	51.325
68.04907	59.425
72.43941	61.325
76.82654	64.425
81.21044	66.725
85.59113	72.325
89.96862	75.725
94.34289	71.225
98.71396	79.225
103.08183	86.625
107.4465	85.125
111.80798	85.525
116.16626	86.725
120.52136	89.125
124.87327	87.825
129.222	94.925
133.56755	91.725
137.90993	97.225
142.24913	106.825
146.58517	111.225
150.91804	124.925
155.24774	143.225
159.57429	172.525
163.89768	212.225
168.21792	267.125
172.53501	357.325
176.84895	484.025
181.15975	676.025
185.46741	934.725
189.77193	1281.125
194.07331	1706.425
198.37157	2197.825
202.6667	2714.925
206.9587	3237.925
211.24758	3760.825
215.53334	4312.925
219.81599	4941.925
224.09553	5631.525
228.37195	6399.525
232.64527	7246.225
236.91549	8030.925
241.18261	8733.725
245.44663	9305.125
249.70755	9712.925
253.96539	10065.125
258.22014	10397.225
262.4718	10712.525
266.72039	10974.225
270.96589	11125.925
275.20832	11157.825
279.44768	11034.725
283.68397	10864.625
287.91719	10809.525
292.14735	10926.625
296.37445	11206.125
300.59849	11707.725
304.81948	12313.625
309.03742	12839.225
313.25231	12849.925
317.46415	12210.525
321.67296	11135.525
325.87872	10182.325
330.08145	9730.225
334.28114	9646.525
338.47781	9821.725
342.67145	10137.525
346.86207	10636.825
351.04966	11383.725
355.23424	12263.625
359.4158	12900.725
363.59435	13150.725
367.76989	13171.425
371.94243	13029.025
376.11196	12866.525
380.27849	12736.325
384.44203	12485.825
388.60257	12283.725
392.76012	12129.325
396.91468	12259.025
401.06626	12586.625
405.21485	12880.025
409.36047	12588.625
413.50311	11796.025
417.64277	11060.025
421.77947	10615.625
425.9132	10452.025
430.04396	10380.825
434.17176	10431.025
438.2966	10551.725
442.41849	10795.225
446.53742	11124.825
450.6534	11433.825
454.76644	11602.025
458.87653	11631.825
462.98368	11507.925
467.08789	11318.225
471.18916	11045.425
475.2875	10742.025
479.38291	10473.125
483.4754	10275.425
487.56496	10126.425
491.6516	10040.625
495.73531	10028.925
499.81612	10066.225
503.89401	10237.725
507.96899	10389.525
512.04106	10637.625
516.11023	10910.425
520.1765	11107.425
524.23987	11124.125
528.30034	10905.725
532.35792	10566.425
536.41261	10235.025
540.46441	9915.825
544.51333	9761.725
548.55936	9806.425
552.60252	10067.125
556.64279	10373.025
560.6802	10521.625
564.71473	10761.625
568.7464	11282.825
572.7752	11603.225
576.80114	11205.725
580.82422	10710.325
584.84444	10455.325
588.86181	10365.025
592.87633	10399.925
596.888	10560.825
600.89682	11067.525
604.9028	12651.325
608.90594	16799.825
612.90624	22312.825
616.90371	21579.625
620.89834	14363.825
624.89015	10803.225
628.87913	10115.125
632.86528	10210.525
636.84862	10430.925
640.82913	10279.725
644.80683	9769.725
648.78172	9418.925
652.75379	9493.225
656.72306	10030.925
660.68952	10627.925
664.65319	10516.825
668.61405	9853.425
672.57211	9500.425
676.52738	9476.325
680.47986	9483.525
684.42955	9380.525
688.37646	9336.625
692.32058	9375.025
696.26192	9475.425
700.20048	9651.325
704.13626	9779.825
708.06928	9789.325
711.99952	9689.025
715.927	9654.525
719.85171	9633.125
723.77365	9622.925
727.69284	9514.525
731.60928	9377.925
735.52295	9375.625
739.43388	9407.925
743.34206	9458.925
747.24749	9484.925
751.15017	9569.225
755.05012	9809.925
758.94733	10374.025
762.8418	11775.525
766.73354	14167.425
770.62254	16705.525
774.50882	17920.025
778.39237	17049.025
782.27321	14530.725
786.15132	11993.325
790.02671	10512.625
793.89938	9845.925
797.76935	9591.325
801.6366	9448.825
805.50115	9370.425
809.36299	9314.125
813.22213	9256.725
817.07857	9227.525
820.93231	9244.925
824.78336	9269.025
828.63172	9347.025
832.47738	9399.125
836.32036	9416.325
840.16066	9342.025
843.99827	9259.825
847.8332	9175.725
851.66546	9152.825
855.49504	9173.825
859.32195	9131.425
863.1462	9060.025
866.96777	9030.225
870.78668	9021.125
874.60293	9040.925
878.41652	9034.625
882.22745	9094.925
886.03573	9131.225
889.84136	9104.525
893.64433	9057.125
897.44466	9043.925
901.24235	9057.725
905.0374	9040.325
908.8298	9004.825
912.61957	8998.125
916.40671	9034.425
920.19121	9112.925
923.97308	9180.825
927.75233	9311.125
931.52895	9459.725
935.30295	9355.625
939.07433	9055.525
942.84309	8746.625
946.60924	8573.025
950.37278	8487.325
954.13371	8416.725
957.89203	8375.525
961.64774	8352.525
965.40086	8333.225
969.15137	8313.725
972.89929	8280.625
976.64461	8269.925
980.38733	8272.225
984.12747	8279.225
987.86502	8290.225
991.59999	8302.425
995.33237	8425.525
999.06217	8583.425
1002.78939	8782.025
1006.51404	9003.525
1010.23611	9243.125
1013.95561	9397.225
1017.67255	9343.225
1021.38692	9177.225
1025.09872	9028.525
1028.80796	8937.025
1032.51465	8969.825
1036.21877	9132.625
1039.92035	9251.125
1043.61937	9333.225
1047.31584	9314.725
1051.00976	9297.325
1054.70114	9273.425
1058.38998	9274.625
1062.07627	9378.125
1065.76003	9526.525
1069.44126	9757.925
1073.11995	10072.625
1076.79611	10390.525
1080.46974	10639.025
1084.14085	10842.225
1087.80943	10961.025
1091.47549	10853.925
1095.13903	10464.925
1098.80005	9941.425
1102.45857	9546.425
1106.11456	9361.725
1109.76805	9433.725
1113.41903	9629.025
1117.06751	9979.325
1120.71348	10517.025
1124.35696	11099.225
1127.99793	11594.825
1131.63641	11588.525
1135.2724	10932.825
1138.90589	10296.025
1142.5369	9910.625
1146.16542	9646.025
1149.79145	9489.025
1153.415	9493.525
1157.03607	9572.125
1160.65467	9822.425
1164.27079	10216.025
1167.88443	10858.125
1171.49561	11932.825
1175.10432	13744.125
1178.71056	16099.125
1182.31434	17605.225
1185.91565	17699.825
1189.51451	16906.525
1193.11091	15590.525
1196.70485	14188.825
1200.29634	13122.625
1203.88538	12431.425
1207.47197	11568.425
1211.05612	10829.425
1214.63782	10431.625
1218.21708	10280.925
1221.79391	10283.325
1225.36829	10338.425
1228.94024	10416.725
1232.50976	10492.625
1236.07685	10542.425
1239.6415	10602.025
1243.20374	10653.825
1246.76355	10696.225
1250.32093	10843.825
1253.8759	11104.625
1257.42845	11431.625
1260.97859	11824.725
1264.52631	12270.125
1268.07163	12702.925
1271.61453	13092.525
1275.15503	13340.125
1278.69312	13376.325
1282.22882	13417.725
1285.76211	13686.025
1289.29301	14133.925
1292.82151	14643.425
1296.34761	15064.525
1299.87133	15820.325
1303.39266	17177.825
1306.9116	19357.825
1310.42815	22014.025
1313.94233	23736.725
1317.45412	23267.425
1320.96354	21415.325
1324.47058	19289.525
1327.97525	17562.525
1331.47754	16486.525
1334.97747	16070.925
1338.47502	16108.525
1341.97022	16467.125
1345.46305	17214.425
1348.95352	18511.725
1352.44163	20358.925
1355.92738	22828.725
1359.41078	26678.525
1362.89183	30632.725
1366.37053	30151.025
1369.84688	25256.025
1373.32088	20170.725
1376.79254	16971.725
1380.26186	15357.725
1383.72883	14503.725
1387.19347	13837.325
1390.65578	13122.525
1394.11575	12522.225
1397.57339	12158.225
1401.0287	12081.925
1404.48168	12144.825
1407.93234	12227.225
1411.38068	12296.225
1414.82669	12268.725
1418.27039	12145.225
1421.71177	11951.025
1425.15083	11768.225
1428.58758	11599.625
1432.02203	11617.525
1435.45416	11741.925
1438.88399	11818.525
1442.31151	11833.425
1445.73673	11840.725
1449.15965	11911.525
1452.58027	11883.025
1455.9986	11739.525
1459.41463	11681.025
1462.82837	11801.125
1466.23982	12058.825
1469.64898	12347.225
1473.05586	12597.725
1476.46045	12747.025
1479.86276	13033.525
1483.26279	13381.025
1486.66054	13854.725
1490.05602	14384.825
1493.44922	15193.425
1496.84016	16428.425
1500.22882	18350.825
1503.61521	20946.625
1506.99934	23838.025
1510.38121	26815.425
1513.76081	28400.225
1517.13816	27252.325
1520.51324	23717.725
1523.88607	19953.625
1527.25665	17224.825
1530.62498	15670.325
1533.99105	14740.925
1537.35488	14129.525
1540.71647	13735.725
1544.07581	13564.925
1547.4329	13432.325
1550.78776	13372.925
1554.14038	13424.225
1557.49077	13566.625
1560.83892	13919.625
1564.18484	14498.325
1567.52853	15151.925
1570.86999	15819.525
1574.20922	16314.725
1577.54624	16478.625
1580.88103	15887.925
1584.2136	14656.825
1587.54395	13636.525
1590.87208	13305.325
1594.19801	13671.525
1597.52172	14534.825
1600.84321	14910.325
1604.16251	14301.125
1607.47959	13337.625
1610.79447	12353.025
1614.10715	11432.525
1617.41763	10656.625
1620.7259	10198.125
1624.03199	9980.425
1627.33587	9997.725
1630.63757	10212.425
1633.93707	10695.325
1637.23439	11481.325
1640.52951	12642.425
1643.82246	14311.325
1647.11321	16495.525
1650.40179	18369.025
1653.68819	18289.725
1656.97241	15978.425
1660.25446	13102.825
1663.53433	11012.225
1666.81203	9755.925
1670.08756	9020.125
1673.36092	8606.925
1676.63211	8319.525
1679.90115	8141.925
1683.16801	8005.325
1686.43272	7911.625
1689.69527	7848.525
1692.95567	7801.825
1696.2139	7805.025
1699.46999	7797.025
1702.72392	7784.225
1705.97571	7752.625
1709.22535	7711.525
1712.47284	7686.725
1715.71819	7706.625
1718.96139	7682.825
1722.20246	7682.425
1725.44139	7651.625
1728.67818	7589.125
1731.91284	7483.925
1735.14537	7454.325
1738.37576	7389.025
1741.60403	7340.025
1744.83017	7320.125
1748.05418	7303.325
1751.27607	7314.525
1754.49584	7285.125
1757.71349	7305.325
1760.92903	7280.525
1764.14244	7261.225
1767.35375	7260.625
1770.56294	7217.425
1773.77002	7203.325
1776.97499	7144.025
1780.17785	7124.925
1783.37861	7083.325
1786.57727	7061.625
1789.77382	7043.725
1792.96828	7034.425
1796.16064	7026.525
1799.3509	6998.425
1802.53907	7005.625
1805.72514	6961.625
1808.90913	6941.725
1812.09102	6919.225
1815.27083	6898.725
1818.44856	6901.625
1821.6242	6868.325
1824.79776	6868.325
1827.96924	6857.325
1831.13864	6841.425
1834.30597	6850.725
1837.47122	6838.525
1840.6344	6813.025
1843.7955	6819.725
1846.95454	6825.125
1850.11151	6800.725
1853.26642	6798.725
1856.41926	6820.725
1859.57004	6805.925
1862.71876	6821.125
1865.86542	6821.425
1869.01003	6828.425
1872.15258	6797.525
1875.29308	6815.525
1878.43152	6809.525
1881.56792	6807.525
1884.70227	6780.225
1887.83457	6787.525
1890.96482	6781.325
1894.09304	6777.725
1897.21921	6782.525
1900.34335	6784.425
1903.46544	6784.325
1906.58551	6765.325
1909.70353	6760.725
1912.81953	6755.225
1915.93349	6740.025
1919.04543	6754.925
1922.15534	6717.125
1925.26322	6706.925
1928.36908	6704.625
1931.47292	6652.925
1934.57473	6626.325
1937.67453	6613.325
1940.77232	6584.725
1943.86808	6569.125
1946.96184	6548.525
1950.05358	6536.025
1953.14331	6491.225
1956.23103	6465.025
1959.31675	6456.425
1962.40046	6425.425
1965.48217	6398.525
1968.56188	6403.225
1971.63959	6377.825
1974.7153	6360.325
1977.78901	6325.125
1980.86073	6327.025
1983.93046	6278.025
1986.99819	6261.925
1990.06394	6245.425
1993.1277	6208.225
1996.18947	6191.625
1999.24925	6168.725
2002.30706	6162.925
2005.36288	6122.625
2008.41672	6116.425
2011.46859	6100.525
2014.51848	6082.425
2017.56639	6062.125
2020.61233	6027.825
2023.6563	6007.225
2026.6983	6026.425
2029.73833	5998.725
2032.7764	5983.025
2035.8125	5973.325
2038.84664	5929.025
2041.87881	5934.725
2044.90903	5917.425
2047.93729	5929.025
2050.96359	5909.025
2053.98794	5883.225
2057.01034	5880.925
2060.03078	5866.025
2063.04927	5870.825
2066.06582	5883.625
2069.08042	5860.025
2072.09307	5837.925
2075.10378	5833.925
2078.11255	5832.625
2081.11938	5829.525
2084.12426	5827.525
2087.12722	5822.725
2090.12824	5807.725
2093.12732	5812.825
2096.12447	5827.225
2099.11969	5841.025
2102.11299	5815.425
2105.10435	5822.025
2108.09379	5836.225
2111.08131	5845.025
2114.0669	5839.125
2117.05057	5831.225
2120.03233	5845.125
2123.01216	5838.725
2125.99008	5850.225
2128.96609	5848.925
2131.94018	5861.925
2134.91236	5853.925
2137.88263	5834.825
2140.851	5855.725
2143.81746	5865.825
2146.78201	5856.425
2149.74466	5858.625
2152.7054	5839.025
2155.66425	5853.325
2158.6212	5842.725
2161.57625	5828.825
2164.52941	5826.225
2167.48067	5811.525
2170.43004	5819.225
2173.37752	5822.625
2176.32311	5811.925
2179.26681	5798.525
2182.20863	5809.025
2185.14856	5794.725
2188.08661	5796.725
2191.02278	5814.925
2193.95707	5803.725
2196.88948	5776.025
2199.82001	5771.125
2202.74867	5751.925
2205.67545	5748.425
2208.60037	5765.325
2211.52341	5755.125
2214.44458	5741.225
2217.36388	5745.925
2220.28132	5721.825
2223.1969	5682.225
2226.11061	5683.225
2229.02246	5677.125
2231.93245	5682.325
2234.84058	5663.025
2237.74686	5632.225
2240.65128	5636.325
2243.55385	5637.325
2246.45456	5627.125
2249.35343	5617.425
2252.25044	5608.725
2255.14561	5613.325
2258.03893	5627.825
2260.93041	5624.925
2263.82004	5604.825
2266.70783	5590.125
2269.59378	5575.625
2272.4779	5546.825
2275.36017	5559.725
2278.24061	5538.625
2281.11922	5493.725
2283.996	5497.825
2286.87094	5495.825
2289.74405	5473.425
2292.61534	5468.125
2295.4848	5429.625
2298.35243	5457.425
2301.21824	5430.725
2304.08223	5431.025
2306.94439	5416.325
2309.80474	5418.025
2312.66327	5409.825
2315.51999	5408.525
2318.37489	5407.625
2321.22797	5417.425
2324.07925	5400.625
2326.92871	5388.925
2329.77637	5387.925
2332.62222	5394.225
2335.46626	5367.325
2338.3085	5354.025
2341.14893	5364.125
2343.98756	5362.825
2346.8244	5357.425
2349.65943	5362.525
2352.49267	5371.825
2355.32411	5397.425
2358.15376	5394.525
2360.98161	5392.325
2363.80768	5406.525
2366.63195	5432.925
2369.45444	5417.325
2372.27514	5411.525
2375.09405	5406.825
2377.91118	5391.025
2380.72652	5360.225
2383.54009	5349.025
2386.35187	5308.525
2389.16188	5273.225
2391.97011	5263.925
2394.77657	5233.325
2397.58125	5232.125
2400.38416	5218.725
2403.18529	5199.425
2405.98466	5190.625
2408.78226	5186.525
2411.57809	5163.625
2414.37216	5157.125
2417.16446	5172.225
2419.955	5158.825
2422.74378	5154.725
2425.5308	5144.425
2428.31606	5139.525
2431.09956	5128.325
2433.88131	5142.425
2436.6613	5139.425
2439.43954	5141.025
2442.21603	5114.525
2444.99077	5116.725
2447.76377	5126.425
2450.53501	5126.825
2453.30451	5124.625
2456.07226	5126.325
2458.83827	5128.125
2461.60254	5117.225
2464.36507	5102.325
2467.12586	5116.925
2469.88492	5105.225
2472.64224	5110.125
2475.39782	5100.625
2478.15167	5109.625
2480.90379	5128.825
2483.65417	5120.925
2486.40283	5143.525
2489.14976	5160.525
2491.89497	5160.425
2494.63845	5178.225
2497.3802	5173.225
2500.12024	5142.525
2502.85855	5146.025
2505.59514	5135.325
2508.33002	5097.425
2511.06318	5065.825
2513.79462	5051.425
2516.52435	5042.125
2519.25237	5018.125
2521.97867	4979.325
2524.70327	4977.325
2527.42616	4981.525
2530.14734	4974.625
2532.86681	4953.625
2535.58458	4951.225
2538.30065	4960.025
2541.01501	4932.225
2543.72768	4949.025
2546.43864	4928.825
2549.14791	4945.725
2551.85548	4936.825
2554.56136	4918.825
2557.26554	4907.825
2559.96803	4919.025
2562.66883	4918.725
2565.36794	4907.225
2568.06536	4899.825
2570.7611	4894.525
2573.45514	4885.225
2576.14751	4870.725
2578.83819	4868.125
2581.52719	4851.825
2584.21451	4856.325
2586.90015	4846.325
2589.58411	4837.425
2592.2664	4812.125
2594.94701	4810.925
2597.62594	4797.325
2600.30321	4785.525
2602.9788	4788.325
2605.65273	4783.525
2608.32498	4786.025
2610.99557	4772.025
2613.66449	4767.025
2616.33175	4781.625
2618.99734	4771.125
2621.66128	4765.225
2624.32355	4767.625
2626.98416	4760.125
2629.64311	4752.625
2632.30041	4725.025
2634.95605	4736.125
2637.61004	4711.325
2640.26238	4717.825
2642.91306	4700.625
2645.56209	4688.825
2648.20948	4684.925
2650.85521	4686.925
2653.4993	4686.425
2656.14175	4673.125
2658.78255	4691.825
2661.42171	4694.425
2664.05923	4697.525
2666.6951	4685.625
2669.32934	4711.925
2671.96194	4710.825
2674.59291	4713.425
2677.22224	4706.725
2679.84993	4721.325
2682.476	4701.625
2685.10043	4715.125
2687.72324	4726.325
2690.34441	4717.925
2692.96396	4706.125
2695.58188	4699.825
2698.19818	4699.125
2700.81285	4725.525
2703.4259	4733.525
2706.03733	4808.325
2708.64714	4765.025
2711.25533	4755.325
2713.86191	4730.825
2716.46687	4739.025
2719.07021	4746.325
2721.67194	4748.825
2724.27206	4727.925
2726.87057	4719.925
2729.46747	4725.025
2732.06276	4722.325
2734.65644	4707.325
2737.24852	4718.925
2739.83899	4695.325
2742.42786	4698.025
2745.01513	4666.225
2747.60079	4662.925
2750.18486	4660.325
2752.76733	4671.925
2755.3482	4657.825
2757.92747	4647.725
2760.50515	4639.525
2763.08123	4621.725
2765.65573	4615.425
2768.22863	4617.125
2770.79994	4603.725
2773.36967	4598.825
2775.9378	4600.925
2778.50435	4591.925
2781.06932	4570.625
2783.6327	4580.325
2786.1945	4594.725
2788.75471	4571.325
2791.31335	4578.725
2793.87041	4567.325
2796.42589	4560.725
2798.97979	4564.725
2801.53212	4547.625
2804.08288	4565.125
2806.63206	4548.925
2809.17967	4554.125
2811.72571	4549.225
2814.27018	4561.825
2816.81308	4576.025
2819.35442	4553.725
2821.89419	4568.325
2824.43239	4586.125
2826.96904	4590.025
2829.50412	4587.125
2832.03763	4573.925
2834.56959	4606.125
2837.1	4595.425
2839.62884	4626.025
2842.15613	4639.025
2844.68186	4688.025
2847.20604	4727.625
2849.72867	4805.025
2852.24974	4814.425
2854.76927	4834.725
2857.28724	4834.625
2859.80367	4797.925
2862.31855	4797.225
2864.83189	4776.825
2867.34368	4766.825
2869.85393	4744.625
2872.36264	4759.825
2874.8698	4751.625
2877.37543	4758.525
2879.87952	4754.525
2882.38207	4734.425
2884.88308	4734.925
2887.38256	4725.025
2889.88051	4731.825
2892.37692	4718.625
2894.8718	4722.725
2897.36515	4731.125
2899.85698	4721.525
2902.34727	4736.725
2904.83604	4741.925
2907.32328	4734.625
2909.809	4741.725
2912.29319	4725.525
2914.77587	4748.325
2917.25702	4714.425
2919.73665	4727.025
2922.21476	4719.325
2924.69136	4707.925
2927.16644	4708.725
2929.64	4700.025
2932.11205	4675.325
2934.58258	4663.725
2937.05161	4662.625
2939.51912	4638.925
2941.98513	4591.625
2944.44962	4568.325
2946.91261	4529.925
2949.37409	4507.925
2951.83407	4485.425
2954.29254	4468.025
2956.74951	4447.225
2959.20498	4434.225
2961.65895	4427.225
2964.11142	4417.925
2966.56239	4396.125
2969.01186	4404.125
2971.45984	4371.425
2973.90632	4366.125
2976.35131	4337.225
2978.7948	4324.525
2981.23681	4325.725
2983.67732	4301.825
2986.11635	4295.125
2988.55388	4283.825
2990.98993	4275.425
2993.4245	4258.025
2995.85758	4261.125
2998.28917	4232.325
3000.71928	4246.225
3003.14791	4225.025
3005.57506	4218.825
3008.00073	4220.025
3010.42493	4213.825
3012.84764	4208.625
3015.26888	4191.225
3017.68865	4184.425
3020.10694	4183.625
3022.52376	4183.125
3024.9391	4183.425
3027.35298	4181.325
3029.76539	4170.625
3032.17632	4161.325
3034.5858	4159.425
3036.9938	4165.725
3039.40034	4146.825
3041.80542	4146.125
3044.20903	4110.125
3046.61118	4144.725
3049.01187	4138.525
3051.4111	4131.725
3053.80888	4119.425
3056.20519	4110.725
3058.60005	4114.825
3060.99345	4117.525
3063.3854	4085.425
3065.7759	4096.825
3068.16494	4091.125
3070.55254	4067.025
3072.93868	4088.525
3075.32338	4055.425
3077.70662	4048.625
3080.08842	4041.425
3082.46878	4035.525
3084.84769	4016.725
3087.22515	4028.425
3089.60118	4012.925
3091.97576	3999.525
3094.3489	3998.225
3096.72061	4013.525
3099.09087	4017.525
3101.4597	4008.725
3103.82709	3998.525
3106.19305	3994.625
3108.55757	4003.925
3110.92066	3997.825
3113.28232	3989.025
3115.64255	3990.625
3118.00134	3978.925
3120.35871	3974.225
3122.71466	3962.325
3125.06917	3970.725
3127.42226	3961.925
3129.77393	3992.425
3132.12417	3993.925
3134.47299	3989.225
3136.82039	4008.625
3139.16636	4001.725
3141.51092	4016.425
3143.85406	4018.025
3146.19579	4024.525
3148.53609	4037.225
3150.87499	4041.125
3153.21246	4038.225
3155.54853	4050.825
3157.88318	4062.125
3160.21642	4077.925
3162.54826	4058.525
3164.87868	4068.925
3167.2077	4065.425
3169.5353	4062.725
3171.86151	4077.025
3174.18631	4078.425
3176.5097	4076.625
3178.83169	4071.825
3181.15228	4077.925
3183.47147	4063.225
3185.78926	4074.425
3188.10565	4080.625
3190.42065	4084.625
3192.73424	4081.325
3195.04645	4090.925
3197.35725	4094.825
3199.66667	4093.625
3201.97469	4113.225
3204.28132	4111.925
3206.58656	4130.525
