Data from AgNP_FTO_APTES_CRN_500uM_R6G_10uM_NaF_0.1M_Addition_RamanShift__4__20-08-18-215.txt Node

Date: Wed Dec 15 20:08:18 GMT 2021
User: TCL
Spectrometer: QEP01345
Trigger mode: 4
Integration Time (sec): 7.000000E0
Scans to average: 10
Electric dark correction enabled: true
Nonlinearity correction enabled: false
Boxcar width: 0
XAxis mode: Raman Shifts
Number of Pixels in Spectrum: 1044
>>>>>Begin Spectral Data<<<<<
46.04893	-0.825
50.45542	-2.225
54.85868	-1.425
59.25871	-1.325
63.6555	62.975
68.04907	69.875
72.43941	74.475
76.82654	73.075
81.21044	78.575
85.59113	84.075
89.96862	85.475
94.34289	83.275
98.71396	93.075
103.08183	96.075
107.4465	100.375
111.80798	98.675
116.16626	104.575
120.52136	109.075
124.87327	106.275
129.222	113.875
133.56755	117.675
137.90993	127.775
142.24913	134.775
146.58517	151.275
150.91804	169.875
155.24774	206.275
159.57429	258.075
163.89768	327.575
168.21792	426.575
172.53501	580.175
176.84895	805.175
181.15975	1133.075
185.46741	1588.175
189.77193	2189.175
194.07331	2934.175
198.37157	3787.475
202.6667	4680.375
206.9587	5576.975
211.24758	6410.675
215.53334	7268.875
219.81599	8190.175
224.09553	9158.875
228.37195	10254.275
232.64527	11448.775
236.91549	12713.675
241.18261	14033.875
245.44663	15254.875
249.70755	16395.175
253.96539	17377.075
258.22014	18213.775
262.4718	18911.975
266.72039	19357.775
270.96589	19584.775
275.20832	19642.875
279.44768	19544.275
283.68397	19378.775
287.91719	19168.575
292.14735	19035.675
296.37445	18941.475
300.59849	18961.775
304.81948	18967.775
309.03742	18911.975
313.25231	18838.275
317.46415	18562.075
321.67296	18254.375
325.87872	18008.275
330.08145	17898.575
334.28114	17913.775
338.47781	18004.775
342.67145	18214.975
346.86207	18450.775
351.04966	18784.775
355.23424	19026.075
359.4158	19292.175
363.59435	19484.775
367.76989	19645.275
371.94243	19724.575
376.11196	19802.575
380.27849	19907.875
384.44203	20041.475
388.60257	20185.275
392.76012	20345.075
396.91468	20566.275
401.06626	20826.975
405.21485	21019.375
409.36047	20987.975
413.50311	20860.775
417.64277	20726.075
421.77947	20752.675
425.9132	20811.375
430.04396	20948.175
434.17176	21111.875
438.2966	21257.975
442.41849	21546.575
446.53742	21968.075
450.6534	22397.575
454.76644	22737.875
458.87653	22790.975
462.98368	22764.175
467.08789	22570.575
471.18916	22419.175
475.2875	22295.375
479.38291	22220.175
483.4754	22134.975
487.56496	21855.475
491.6516	21625.175
495.73531	21399.675
499.81612	21311.475
503.89401	21397.375
507.96899	21509.875
512.04106	21519.575
516.11023	21475.975
520.1765	21401.975
524.23987	21353.375
528.30034	21277.375
532.35792	21104.175
536.41261	20976.275
540.46441	20790.975
544.51333	20772.375
548.55936	20975.675
552.60252	21264.675
556.64279	21646.475
560.6802	21906.175
564.71473	22039.675
568.7464	22248.575
572.7752	22640.675
576.80114	23027.075
580.82422	23418.675
584.84444	23896.575
588.86181	24522.275
592.87633	25047.775
596.888	24998.375
600.89682	24437.175
604.9028	24360.575
608.90594	25272.975
612.90624	26301.175
616.90371	25200.475
620.89834	22417.875
624.89015	21255.275
628.87913	21096.675
632.86528	21144.475
636.84862	21200.175
640.82913	21021.675
644.80683	20747.775
648.78172	20554.475
652.75379	20537.775
656.72306	20658.375
660.68952	20868.575
664.65319	20774.975
668.61405	20532.475
672.57211	20560.175
676.52738	20619.675
680.47986	20688.075
684.42955	20607.375
688.37646	20530.475
692.32058	20590.375
696.26192	20742.575
700.20048	20917.975
704.13626	21046.975
708.06928	21068.975
711.99952	21048.875
715.927	21043.875
719.85171	21065.075
723.77365	21005.875
727.69284	20756.375
731.60928	20613.775
735.52295	20529.475
739.43388	20526.375
743.34206	20558.375
747.24749	20623.175
751.15017	20785.975
755.05012	20992.575
758.94733	21307.275
762.8418	22037.675
766.73354	23081.375
770.62254	24107.175
774.50882	24300.675
778.39237	23547.975
782.27321	22414.175
786.15132	21408.775
790.02671	20795.375
793.89938	20522.075
797.76935	20423.575
801.6366	20377.975
805.50115	20340.375
809.36299	20277.175
813.22213	20204.575
817.07857	20174.275
820.93231	20143.675
824.78336	20085.175
828.63172	20050.275
832.47738	20026.575
836.32036	20072.575
840.16066	20074.075
843.99827	20041.875
847.8332	20051.175
851.66546	20020.575
855.49504	20007.875
859.32195	20033.775
863.1462	19973.475
866.96777	19975.275
870.78668	19962.475
874.60293	19955.775
878.41652	19961.675
882.22745	20003.975
886.03573	20064.475
889.84136	20043.875
893.64433	20040.475
897.44466	19990.975
901.24235	19905.375
905.0374	19847.575
908.8298	19831.675
912.61957	19865.775
916.40671	19975.775
920.19121	20108.675
923.97308	20233.975
927.75233	20239.975
931.52895	20156.675
935.30295	19934.475
939.07433	19707.675
942.84309	19515.475
946.60924	19415.875
950.37278	19372.775
954.13371	19314.575
957.89203	19289.075
961.64774	19286.875
965.40086	19278.275
969.15137	19220.975
972.89929	19132.175
976.64461	19101.975
980.38733	19086.075
984.12747	19114.775
987.86502	19184.075
991.59999	19281.975
995.33237	19425.875
999.06217	19674.975
1002.78939	19975.575
1006.51404	20171.075
1010.23611	20423.275
1013.95561	20566.975
1017.67255	20594.575
1021.38692	20458.075
1025.09872	20256.875
1028.80796	20107.975
1032.51465	20161.175
1036.21877	20384.575
1039.92035	20447.575
1043.61937	20419.975
1047.31584	20402.875
1051.00976	20366.175
1054.70114	20371.475
1058.38998	20501.275
1062.07627	20773.275
1065.76003	21143.175
1069.44126	21510.475
1073.11995	21902.775
1076.79611	22148.075
1080.46974	22047.975
1084.14085	21784.575
1087.80943	21594.075
1091.47549	21546.075
1095.13903	21406.775
1098.80005	21200.975
1102.45857	20846.475
1106.11456	20590.375
1109.76805	20466.875
1113.41903	20494.375
1117.06751	20566.075
1120.71348	20704.475
1124.35696	20922.175
1127.99793	21123.975
1131.63641	21279.875
1135.2724	21188.575
1138.90589	21051.275
1142.5369	21012.975
1146.16542	21049.175
1149.79145	21140.075
1153.415	21284.375
1157.03607	21458.675
1160.65467	21869.375
1164.27079	22547.475
1167.88443	23439.875
1171.49561	24426.975
1175.10432	25673.975
1178.71056	27240.675
1182.31434	28694.275
1185.91565	29273.575
1189.51451	28984.875
1193.11091	28323.475
1196.70485	27495.575
1200.29634	26686.075
1203.88538	26033.175
1207.47197	25727.375
1211.05612	25424.675
1214.63782	25031.675
1218.21708	24592.775
1221.79391	24151.875
1225.36829	23903.275
1228.94024	23754.375
1232.50976	23521.775
1236.07685	23253.975
1239.6415	23154.975
1243.20374	23141.275
1246.76355	23246.175
1250.32093	23413.775
1253.8759	23744.475
1257.42845	24176.475
1260.97859	24635.575
1264.52631	25074.675
1268.07163	25559.975
1271.61453	26024.075
1275.15503	26541.075
1278.69312	27091.375
1282.22882	27611.575
1285.76211	28326.375
1289.29301	29161.675
1292.82151	30252.875
1296.34761	31586.075
1299.87133	33086.475
1303.39266	34597.675
1306.9116	36090.875
1310.42815	37208.675
1313.94233	37834.375
1317.45412	37649.075
1320.96354	37042.475
1324.47058	36428.975
1327.97525	35884.475
1331.47754	35487.475
1334.97747	35220.175
1338.47502	34978.675
1341.97022	34734.675
1345.46305	34450.675
1348.95352	34304.475
1352.44163	34485.975
1355.92738	35197.275
1359.41078	36386.875
1362.89183	37387.975
1366.37053	36820.375
1369.84688	34445.675
1373.32088	31470.675
1376.79254	29410.275
1380.26186	28577.775
1383.72883	28527.475
1387.19347	28451.475
1390.65578	28219.775
1394.11575	28156.375
1397.57339	28372.375
1401.0287	28665.975
1404.48168	28905.475
1407.93234	28790.875
1411.38068	28285.075
1414.82669	27509.375
1418.27039	26597.375
1421.71177	25745.075
1425.15083	24988.375
1428.58758	24590.875
1432.02203	24726.575
1435.45416	25175.475
1438.88399	25728.475
1442.31151	26073.275
1445.73673	26388.275
1449.15965	26579.175
1452.58027	26680.075
1455.9986	26719.475
1459.41463	26804.875
1462.82837	27080.775
1466.23982	27517.575
1469.64898	27841.775
1473.05586	28034.175
1476.46045	28154.075
1479.86276	28075.975
1483.26279	27896.075
1486.66054	27841.075
1490.05602	27930.875
1493.44922	28175.475
1496.84016	28508.675
1500.22882	28957.775
1503.61521	29707.575
1506.99934	30496.875
1510.38121	31042.075
1513.76081	31083.775
1517.13816	30515.375
1520.51324	29589.375
1523.88607	28973.275
1527.25665	28674.575
1530.62498	28636.175
1533.99105	28590.275
1537.35488	28369.275
1540.71647	27992.675
1544.07581	27458.275
1547.4329	26847.075
1550.78776	26340.175
1554.14038	25963.875
1557.49077	25799.975
1560.83892	25696.975
1564.18484	25769.775
1567.52853	26060.675
1570.86999	26517.075
1574.20922	27245.775
1577.54624	27972.075
1580.88103	28362.375
1584.2136	28444.775
1587.54395	28520.375
1590.87208	29011.275
1594.19801	29850.375
1597.52172	30808.175
1600.84321	31082.175
1604.16251	30166.375
1607.47959	28366.875
1610.79447	26480.075
1614.10715	24716.275
1617.41763	23330.175
1620.7259	22356.175
1624.03199	21858.675
1627.33587	21829.975
1630.63757	22231.775
1633.93707	23231.575
1637.23439	24890.075
1640.52951	27350.975
1643.82246	30204.575
1647.11321	32488.475
1650.40179	32882.075
1653.68819	31015.475
1656.97241	27796.175
1660.25446	24622.475
1663.53433	22303.075
1666.81203	20778.175
1670.08756	19760.275
1673.36092	19127.775
1676.63211	18700.975
1679.90115	18453.875
1683.16801	18186.575
1686.43272	18043.475
1689.69527	17920.575
1692.95567	17809.375
1696.2139	17783.775
1699.46999	17751.275
1702.72392	17725.675
1705.97571	17674.075
1709.22535	17623.775
1712.47284	17593.775
1715.71819	17573.175
1718.96139	17529.875
1722.20246	17489.375
1725.44139	17441.475
1728.67818	17332.775
1731.91284	17257.175
1735.14537	17192.775
1738.37576	17155.075
1741.60403	17109.775
1744.83017	17061.875
1748.05418	17044.475
1751.27607	17049.875
1754.49584	16971.075
1757.71349	17006.275
1760.92903	16969.575
1764.14244	17001.475
1767.35375	16970.175
1770.56294	16931.175
1773.77002	16935.975
1776.97499	16906.975
1780.17785	16851.975
1783.37861	16823.975
1786.57727	16772.475
1789.77382	16728.275
1792.96828	16726.075
1796.16064	16701.775
1799.3509	16652.975
1802.53907	16606.975
1805.72514	16533.975
1808.90913	16503.075
1812.09102	16479.575
1815.27083	16508.375
1818.44856	16442.575
1821.6242	16446.775
1824.79776	16403.675
1827.96924	16416.475
1831.13864	16355.975
1834.30597	16378.875
1837.47122	16377.075
1840.6344	16368.675
1843.7955	16366.175
1846.95454	16362.675
1850.11151	16328.875
1853.26642	16331.975
1856.41926	16296.275
1859.57004	16317.075
1862.71876	16273.775
1865.86542	16229.275
1869.01003	16236.575
1872.15258	16234.875
1875.29308	16232.475
1878.43152	16182.175
1881.56792	16187.975
1884.70227	16195.675
1887.83457	16163.275
1890.96482	16152.375
1894.09304	16125.775
1897.21921	16117.975
1900.34335	16095.075
1903.46544	16086.175
1906.58551	16059.675
1909.70353	16020.975
1912.81953	16011.075
1915.93349	15978.675
1919.04543	15969.075
1922.15534	15924.375
1925.26322	15876.875
1928.36908	15899.875
1931.47292	15863.675
1934.57473	15795.975
1937.67453	15760.375
1940.77232	15710.375
1943.86808	15699.775
1946.96184	15639.675
1950.05358	15612.575
1953.14331	15564.975
1956.23103	15563.475
1959.31675	15508.575
1962.40046	15496.575
1965.48217	15421.375
1968.56188	15412.075
1971.63959	15331.975
1974.7153	15273.975
1977.78901	15228.475
1980.86073	15183.375
1983.93046	15172.775
1986.99819	15128.475
1990.06394	15063.975
1993.1277	15011.575
1996.18947	15001.375
1999.24925	14952.775
2002.30706	14910.475
2005.36288	14848.075
2008.41672	14810.575
2011.46859	14763.275
2014.51848	14749.275
2017.56639	14703.675
2020.61233	14679.475
2023.6563	14639.875
2026.6983	14624.575
2029.73833	14584.875
2032.7764	14564.775
2035.8125	14536.275
2038.84664	14491.675
2041.87881	14450.875
2044.90903	14435.675
2047.93729	14412.375
2050.96359	14405.975
2053.98794	14378.375
2057.01034	14388.575
2060.03078	14392.175
2063.04927	14346.375
2066.06582	14319.875
2069.08042	14365.475
2072.09307	14333.375
2075.10378	14310.275
2078.11255	14292.275
2081.11938	14318.775
2084.12426	14306.675
2087.12722	14284.875
2090.12824	14301.875
2093.12732	14293.475
2096.12447	14305.975
2099.11969	14307.075
2102.11299	14323.975
2105.10435	14324.975
2108.09379	14292.075
2111.08131	14322.475
2114.0669	14307.375
2117.05057	14332.275
2120.03233	14352.275
2123.01216	14364.275
2125.99008	14364.475
2128.96609	14378.175
2131.94018	14383.775
2134.91236	14403.875
2137.88263	14395.175
2140.851	14407.375
2143.81746	14433.375
2146.78201	14411.275
2149.74466	14415.475
2152.7054	14420.475
2155.66425	14427.375
2158.6212	14422.475
2161.57625	14453.075
2164.52941	14427.075
2167.48067	14414.275
2170.43004	14402.875
2173.37752	14376.275
2176.32311	14371.075
2179.26681	14406.075
2182.20863	14378.275
2185.14856	14411.675
2188.08661	14373.475
2191.02278	14369.075
2193.95707	14359.175
2196.88948	14330.775
2199.82001	14321.075
2202.74867	14328.375
2205.67545	14305.375
2208.60037	14328.675
2211.52341	14281.575
2214.44458	14262.175
2217.36388	14219.575
2220.28132	14235.475
2223.1969	14170.675
2226.11061	14157.675
2229.02246	14123.575
2231.93245	14129.975
2234.84058	14103.775
2237.74686	14075.975
2240.65128	14074.175
2243.55385	14015.375
2246.45456	14006.375
2249.35343	13990.375
2252.25044	13967.775
2255.14561	13934.875
2258.03893	13910.875
2260.93041	13917.375
2263.82004	13877.875
2266.70783	13852.775
2269.59378	13824.075
2272.4779	13754.575
2275.36017	13735.975
2278.24061	13720.175
2281.11922	13684.275
2283.996	13682.475
2286.87094	13674.775
2289.74405	13619.075
2292.61534	13612.675
2295.4848	13593.275
2298.35243	13609.475
2301.21824	13584.575
2304.08223	13571.175
2306.94439	13569.375
2309.80474	13547.475
2312.66327	13554.775
2315.51999	13528.475
2318.37489	13517.175
2321.22797	13527.575
2324.07925	13545.675
2326.92871	13499.575
2329.77637	13458.775
2332.62222	13454.175
2335.46626	13434.575
2338.3085	13431.475
2341.14893	13424.575
2343.98756	13390.575
2346.8244	13376.675
2349.65943	13390.475
2352.49267	13376.675
2355.32411	13363.375
2358.15376	13345.075
2360.98161	13328.075
2363.80768	13337.375
2366.63195	13316.575
2369.45444	13304.075
2372.27514	13277.475
2375.09405	13293.875
2377.91118	13250.775
2380.72652	13217.975
2383.54009	13187.575
2386.35187	13183.975
2389.16188	13169.075
2391.97011	13128.675
2394.77657	13092.575
2397.58125	13083.275
2400.38416	13080.775
2403.18529	13058.575
2405.98466	13040.675
2408.78226	13002.075
2411.57809	13022.975
2414.37216	12975.975
2417.16446	12970.575
2419.955	12971.375
2422.74378	12919.775
2425.5308	12896.175
2428.31606	12905.075
2431.09956	12896.775
2433.88131	12885.775
2436.6613	12885.075
2439.43954	12871.475
2442.21603	12845.775
2444.99077	12860.275
2447.76377	12850.475
2450.53501	12856.175
2453.30451	12813.875
2456.07226	12809.275
2458.83827	12798.875
2461.60254	12783.775
2464.36507	12771.175
2467.12586	12788.075
2469.88492	12775.475
2472.64224	12737.375
2475.39782	12735.475
2478.15167	12752.375
2480.90379	12726.775
2483.65417	12733.175
2486.40283	12749.475
2489.14976	12748.975
2491.89497	12733.475
2494.63845	12742.675
2497.3802	12709.675
2500.12024	12701.575
2502.85855	12737.375
2505.59514	12684.575
2508.33002	12700.475
2511.06318	12643.775
2513.79462	12640.175
2516.52435	12627.375
2519.25237	12619.775
2521.97867	12592.375
2524.70327	12604.475
2527.42616	12565.375
2530.14734	12570.875
2532.86681	12537.975
2535.58458	12555.275
2538.30065	12512.575
2541.01501	12524.475
2543.72768	12513.875
2546.43864	12521.675
2549.14791	12465.075
2551.85548	12435.175
2554.56136	12420.475
2557.26554	12398.075
2559.96803	12384.475
2562.66883	12360.475
2565.36794	12381.175
2568.06536	12350.375
2570.7611	12352.875
2573.45514	12366.075
2576.14751	12329.975
2578.83819	12301.475
2581.52719	12262.275
2584.21451	12239.775
2586.90015	12263.075
2589.58411	12223.075
2592.2664	12210.475
2594.94701	12166.375
2597.62594	12182.975
2600.30321	12146.475
2602.9788	12142.175
2605.65273	12123.475
2608.32498	12107.675
2610.99557	12093.375
2613.66449	12089.575
2616.33175	12048.775
2618.99734	12024.375
2621.66128	12063.675
2624.32355	12042.275
2626.98416	12054.475
2629.64311	12017.875
2632.30041	12010.475
2634.95605	12025.475
2637.61004	11993.275
2640.26238	11965.375
2642.91306	11984.275
2645.56209	11961.675
2648.20948	11973.675
2650.85521	11955.775
2653.4993	11939.775
2656.14175	11976.075
2658.78255	11953.975
2661.42171	11937.075
2664.05923	11928.175
2666.6951	11960.875
2669.32934	11936.775
2671.96194	11944.475
2674.59291	11948.275
2677.22224	11937.375
2679.84993	11948.875
2682.476	11946.175
2685.10043	11913.175
2687.72324	11907.775
2690.34441	11933.275
2692.96396	11933.075
2695.58188	11922.175
2698.19818	11929.075
2700.81285	11921.675
2703.4259	11949.675
2706.03733	12001.075
2708.64714	11965.975
2711.25533	11981.875
2713.86191	11929.275
2716.46687	11969.675
2719.07021	11970.475
2721.67194	11949.275
2724.27206	11943.675
2726.87057	11947.875
2729.46747	11938.375
2732.06276	11933.975
2734.65644	11914.475
2737.24852	11911.475
2739.83899	11902.775
2742.42786	11907.775
2745.01513	11903.475
2747.60079	11888.075
2750.18486	11853.275
2752.76733	11882.775
2755.3482	11867.875
2757.92747	11856.375
2760.50515	11824.575
2763.08123	11821.175
2765.65573	11831.075
2768.22863	11826.475
2770.79994	11799.275
2773.36967	11806.075
2775.9378	11795.875
2778.50435	11775.175
2781.06932	11758.675
2783.6327	11743.775
2786.1945	11730.675
2788.75471	11708.675
2791.31335	11687.475
2793.87041	11655.075
2796.42589	11628.675
2798.97979	11647.675
2801.53212	11605.975
2804.08288	11601.375
2806.63206	11567.575
2809.17967	11524.075
2811.72571	11525.875
2814.27018	11518.375
2816.81308	11464.675
2819.35442	11475.275
2821.89419	11449.775
2824.43239	11461.875
2826.96904	11418.675
2829.50412	11429.075
2832.03763	11395.075
2834.56959	11410.175
2837.1	11400.175
2839.62884	11405.975
2842.15613	11427.975
2844.68186	11414.275
2847.20604	11422.675
2849.72867	11442.475
2852.24974	11402.475
2854.76927	11390.075
2857.28724	11380.375
2859.80367	11344.075
2862.31855	11344.975
2864.83189	11328.275
2867.34368	11327.075
2869.85393	11339.175
2872.36264	11309.175
2874.8698	11303.475
2877.37543	11303.075
2879.87952	11300.675
2882.38207	11316.675
2884.88308	11307.875
2887.38256	11315.975
2889.88051	11286.775
2892.37692	11280.075
2894.8718	11313.275
2897.36515	11294.675
2899.85698	11322.475
2902.34727	11320.075
2904.83604	11319.375
2907.32328	11351.575
2909.809	11331.075
2912.29319	11324.775
2914.77587	11350.775
2917.25702	11332.775
2919.73665	11312.675
2922.21476	11321.475
2924.69136	11320.775
2927.16644	11291.375
2929.64	11307.475
2932.11205	11283.975
2934.58258	11252.775
2937.05161	11293.875
2939.51912	11289.475
2941.98513	11280.175
2944.44962	11245.575
2946.91261	11197.475
2949.37409	11225.175
2951.83407	11199.775
2954.29254	11194.275
2956.74951	11183.275
2959.20498	11144.175
2961.65895	11141.175
2964.11142	11140.675
2966.56239	11137.675
2969.01186	11145.175
2971.45984	11091.875
2973.90632	11078.175
2976.35131	11055.475
2978.7948	11031.175
2981.23681	11012.075
2983.67732	10980.675
2986.11635	10955.175
2988.55388	10950.675
2990.98993	10922.975
2993.4245	10901.875
2995.85758	10912.775
2998.28917	10867.375
3000.71928	10857.775
3003.14791	10826.775
3005.57506	10823.475
3008.00073	10804.575
3010.42493	10794.575
3012.84764	10775.575
3015.26888	10759.175
3017.68865	10739.575
3020.10694	10739.375
3022.52376	10731.475
3024.9391	10663.875
3027.35298	10701.975
3029.76539	10684.775
3032.17632	10677.975
3034.5858	10661.675
3036.9938	10620.475
3039.40034	10630.775
3041.80542	10623.175
3044.20903	10591.175
3046.61118	10612.975
3049.01187	10550.875
3051.4111	10560.675
3053.80888	10545.975
3056.20519	10554.375
3058.60005	10506.875
3060.99345	10492.175
3063.3854	10490.875
3065.7759	10447.675
3068.16494	10442.075
3070.55254	10397.775
3072.93868	10423.575
3075.32338	10380.775
3077.70662	10350.575
3080.08842	10311.575
3082.46878	10350.575
3084.84769	10309.875
3087.22515	10323.975
3089.60118	10327.275
3091.97576	10337.075
3094.3489	10327.375
3096.72061	10340.575
3099.09087	10334.275
3101.4597	10307.975
3103.82709	10301.375
3106.19305	10296.575
3108.55757	10295.375
3110.92066	10257.775
3113.28232	10240.875
3115.64255	10228.575
3118.00134	10216.075
3120.35871	10217.975
3122.71466	10185.475
3125.06917	10169.175
3127.42226	10150.375
3129.77393	10169.175
