Data from AgNP_FTO_APTES_CRN_200uM_R6G_10uM_NaF_0.1M_Addition_RamanShift__4__19-21-38-162.txt Node

Date: Wed Dec 15 19:21:38 GMT 2021
User: TCL
Spectrometer: QEP01345
Trigger mode: 4
Integration Time (sec): 7.000000E0
Scans to average: 10
Electric dark correction enabled: true
Nonlinearity correction enabled: false
Boxcar width: 0
XAxis mode: Raman Shifts
Number of Pixels in Spectrum: 1044
>>>>>Begin Spectral Data<<<<<
46.04893	0.375
50.45542	-2.525
54.85868	-0.225
59.25871	-0.925
63.6555	58.775
68.04907	62.275
72.43941	68.075
76.82654	68.475
81.21044	71.275
85.59113	75.775
89.96862	79.275
94.34289	78.375
98.71396	83.075
103.08183	86.975
107.4465	88.975
111.80798	90.275
116.16626	91.975
120.52136	96.175
124.87327	96.575
129.222	104.375
133.56755	106.475
137.90993	113.575
142.24913	122.875
146.58517	135.775
150.91804	154.675
155.24774	175.775
159.57429	218.475
163.89768	276.275
168.21792	358.175
172.53501	481.875
176.84895	671.275
181.15975	939.875
185.46741	1312.175
189.77193	1819.775
194.07331	2418.675
198.37157	3111.675
202.6667	3846.675
206.9587	4579.575
211.24758	5292.575
215.53334	6008.875
219.81599	6745.375
224.09553	7546.575
228.37195	8432.475
232.64527	9447.975
236.91549	10501.475
241.18261	11541.375
245.44663	12567.875
249.70755	13561.875
253.96539	14377.475
258.22014	15084.575
262.4718	15650.175
266.72039	16016.075
270.96589	16177.075
275.20832	16189.775
279.44768	16108.775
283.68397	15915.575
287.91719	15767.175
292.14735	15665.075
296.37445	15594.375
300.59849	15566.575
304.81948	15603.375
309.03742	15533.375
313.25231	15442.675
317.46415	15215.075
321.67296	14951.175
325.87872	14688.675
330.08145	14565.175
334.28114	14540.175
338.47781	14647.975
342.67145	14781.975
346.86207	14991.975
351.04966	15208.575
355.23424	15455.575
359.4158	15618.875
363.59435	15744.075
367.76989	15849.575
371.94243	15908.975
376.11196	15952.275
380.27849	16021.075
384.44203	16115.575
388.60257	16274.775
392.76012	16460.575
396.91468	16664.975
401.06626	16881.175
405.21485	17054.075
409.36047	17008.475
413.50311	16900.175
417.64277	16767.375
421.77947	16799.975
425.9132	16856.275
430.04396	16953.075
434.17176	17044.575
438.2966	17132.075
442.41849	17316.275
446.53742	17634.375
450.6534	18005.875
454.76644	18265.575
458.87653	18336.775
462.98368	18298.175
467.08789	18203.975
471.18916	18111.875
475.2875	18032.875
479.38291	18008.675
483.4754	17928.975
487.56496	17742.375
491.6516	17481.775
495.73531	17260.275
499.81612	17186.175
503.89401	17279.075
507.96899	17366.075
512.04106	17367.775
516.11023	17345.275
520.1765	17281.375
524.23987	17204.975
528.30034	17102.675
532.35792	16938.275
536.41261	16824.475
540.46441	16683.975
544.51333	16681.975
548.55936	16837.775
552.60252	17135.575
556.64279	17443.375
560.6802	17653.275
564.71473	17759.975
568.7464	17911.375
572.7752	18230.775
576.80114	18597.775
580.82422	18985.875
584.84444	19492.175
588.86181	20011.975
592.87633	20349.875
596.888	20294.875
600.89682	19797.375
604.9028	19670.775
608.90594	20434.675
612.90624	21288.775
616.90371	20280.175
620.89834	18068.075
624.89015	16985.975
628.87913	16897.875
632.86528	16969.275
636.84862	16995.075
640.82913	16857.075
644.80683	16587.475
648.78172	16412.875
652.75379	16409.575
656.72306	16461.175
660.68952	16641.975
664.65319	16556.775
668.61405	16377.975
672.57211	16375.275
676.52738	16448.775
680.47986	16486.875
684.42955	16423.075
688.37646	16372.575
692.32058	16392.875
696.26192	16563.475
700.20048	16703.775
704.13626	16833.475
708.06928	16864.675
711.99952	16882.275
715.927	16863.775
719.85171	16873.075
723.77365	16797.675
727.69284	16642.875
731.60928	16490.075
735.52295	16444.175
739.43388	16439.375
743.34206	16457.175
747.24749	16519.975
751.15017	16621.675
755.05012	16781.875
758.94733	17176.475
762.8418	17760.875
766.73354	18653.675
770.62254	19540.375
774.50882	19670.075
778.39237	18977.275
782.27321	18021.875
786.15132	17203.075
790.02671	16720.075
793.89938	16473.075
797.76935	16393.375
801.6366	16360.875
805.50115	16387.975
809.36299	16291.275
813.22213	16228.075
817.07857	16222.675
820.93231	16169.475
824.78336	16125.875
828.63172	16097.875
832.47738	16106.175
836.32036	16157.675
840.16066	16226.375
843.99827	16185.275
847.8332	16141.275
851.66546	16082.175
855.49504	16040.975
859.32195	16053.475
863.1462	16032.475
866.96777	15991.775
870.78668	16005.075
874.60293	16025.775
878.41652	15999.375
882.22745	16060.675
886.03573	16069.875
889.84136	16100.575
893.64433	16074.275
897.44466	16019.675
901.24235	15976.475
905.0374	15968.075
908.8298	15901.075
912.61957	15961.675
916.40671	16071.475
920.19121	16197.475
923.97308	16341.375
927.75233	16375.675
931.52895	16281.675
935.30295	16124.575
939.07433	15907.875
942.84309	15691.575
946.60924	15600.275
950.37278	15533.275
954.13371	15540.675
957.89203	15525.675
961.64774	15506.875
965.40086	15474.375
969.15137	15440.875
972.89929	15377.375
976.64461	15335.475
980.38733	15313.275
984.12747	15357.775
987.86502	15430.575
991.59999	15496.675
995.33237	15653.075
999.06217	15886.975
1002.78939	16167.675
1006.51404	16316.375
1010.23611	16516.975
1013.95561	16627.175
1017.67255	16655.375
1021.38692	16529.375
1025.09872	16394.475
1028.80796	16328.475
1032.51465	16481.975
1036.21877	16678.475
1039.92035	16782.375
1043.61937	16764.075
1047.31584	16707.275
1051.00976	16624.875
1054.70114	16653.475
1058.38998	16790.875
1062.07627	17062.775
1065.76003	17431.975
1069.44126	17849.975
1073.11995	18303.875
1076.79611	18458.175
1080.46974	18319.575
1084.14085	18001.875
1087.80943	17740.375
1091.47549	17598.275
1095.13903	17551.075
1098.80005	17333.075
1102.45857	16991.575
1106.11456	16743.775
1109.76805	16601.475
1113.41903	16589.075
1117.06751	16652.275
1120.71348	16761.575
1124.35696	16930.975
1127.99793	17154.075
1131.63641	17294.175
1135.2724	17241.175
1138.90589	17119.075
1142.5369	17093.475
1146.16542	17130.075
1149.79145	17206.175
1153.415	17316.275
1157.03607	17459.775
1160.65467	17831.175
1164.27079	18422.375
1167.88443	19196.975
1171.49561	20082.975
1175.10432	21240.175
1178.71056	22660.375
1182.31434	23929.475
1185.91565	24422.675
1189.51451	24217.175
1193.11091	23526.075
1196.70485	22765.975
1200.29634	21944.075
1203.88538	21402.075
1207.47197	21075.575
1211.05612	20887.775
1214.63782	20547.575
1218.21708	20156.675
1221.79391	19750.175
1225.36829	19486.275
1228.94024	19286.375
1232.50976	19114.775
1236.07685	18850.075
1239.6415	18801.075
1243.20374	18783.075
1246.76355	18886.475
1250.32093	19138.375
1253.8759	19413.875
1257.42845	19805.475
1260.97859	20235.775
1264.52631	20629.775
1268.07163	21072.075
1271.61453	21515.675
1275.15503	22033.275
1278.69312	22590.675
1282.22882	23072.275
1285.76211	23712.775
1289.29301	24409.075
1292.82151	25329.875
1296.34761	26445.375
1299.87133	27668.875
1303.39266	28962.775
1306.9116	30187.175
1310.42815	31223.575
1313.94233	31774.475
1317.45412	31633.675
1320.96354	31111.275
1324.47058	30593.575
1327.97525	30186.775
1331.47754	29839.375
1334.97747	29634.675
1338.47502	29450.975
1341.97022	29235.375
1345.46305	28997.075
1348.95352	28813.875
1352.44163	28980.275
1355.92738	29543.175
1359.41078	30515.375
1362.89183	31366.375
1366.37053	30963.775
1369.84688	29039.075
1373.32088	26519.275
1376.79254	24685.475
1380.26186	23872.375
1383.72883	23739.675
1387.19347	23598.775
1390.65578	23354.175
1394.11575	23340.975
1397.57339	23492.975
1401.0287	23780.875
1404.48168	23946.575
1407.93234	23842.375
1411.38068	23484.675
1414.82669	22844.075
1418.27039	22044.875
1421.71177	21271.675
1425.15083	20596.175
1428.58758	20255.575
1432.02203	20336.075
1435.45416	20689.275
1438.88399	21128.075
1442.31151	21452.675
1445.73673	21679.375
1449.15965	21883.875
1452.58027	22043.375
1455.9986	22101.475
1459.41463	22249.875
1462.82837	22583.175
1466.23982	22957.375
1469.64898	23256.275
1473.05586	23535.375
1476.46045	23627.675
1479.86276	23586.475
1483.26279	23466.975
1486.66054	23441.175
1490.05602	23602.275
1493.44922	23839.375
1496.84016	24123.275
1500.22882	24551.275
1503.61521	25191.775
1506.99934	25847.875
1510.38121	26384.375
1513.76081	26376.975
1517.13816	25844.375
1520.51324	25063.875
1523.88607	24490.375
1527.25665	24155.675
1530.62498	24038.875
1533.99105	23949.175
1537.35488	23746.075
1540.71647	23370.375
1544.07581	22934.475
1547.4329	22425.075
1550.78776	22017.375
1554.14038	21702.775
1557.49077	21535.075
1560.83892	21500.275
1564.18484	21577.075
1567.52853	21830.375
1570.86999	22247.375
1574.20922	22940.975
1577.54624	23625.975
1580.88103	23999.675
1584.2136	24047.575
1587.54395	24063.275
1590.87208	24322.475
1594.19801	24993.075
1597.52172	25884.475
1600.84321	26164.075
1604.16251	25328.675
1607.47959	23818.175
1610.79447	22153.875
1614.10715	20592.075
1617.41763	19335.075
1620.7259	18466.175
1624.03199	18037.975
1627.33587	17978.875
1630.63757	18313.075
1633.93707	19115.475
1637.23439	20511.075
1640.52951	22528.675
1643.82246	25032.975
1647.11321	27153.775
1650.40179	27720.775
1653.68819	26263.075
1656.97241	23613.575
1660.25446	20884.075
1663.53433	18757.375
1666.81203	17345.675
1670.08756	16460.275
1673.36092	15862.675
1676.63211	15479.475
1679.90115	15224.975
1683.16801	15017.275
1686.43272	14830.475
1689.69527	14767.175
1692.95567	14684.175
1696.2139	14650.175
1699.46999	14634.075
1702.72392	14610.075
1705.97571	14541.175
1709.22535	14508.175
1712.47284	14479.875
1715.71819	14464.575
1718.96139	14439.075
1722.20246	14393.375
1725.44139	14335.175
1728.67818	14296.675
1731.91284	14200.875
1735.14537	14177.175
1738.37576	14119.875
1741.60403	14077.275
1744.83017	14059.775
1748.05418	14038.175
1751.27607	14029.675
1754.49584	14003.775
1757.71349	14060.175
1760.92903	14020.775
1764.14244	14005.375
1767.35375	13991.675
1770.56294	13983.075
1773.77002	13959.975
1776.97499	13939.375
1780.17785	13897.675
1783.37861	13896.975
1786.57727	13835.875
1789.77382	13804.075
1792.96828	13802.375
1796.16064	13777.975
1799.3509	13763.275
1802.53907	13737.075
1805.72514	13662.175
1808.90913	13677.575
1812.09102	13631.775
1815.27083	13615.175
1818.44856	13581.675
1821.6242	13585.075
1824.79776	13566.375
1827.96924	13550.375
1831.13864	13546.575
1834.30597	13598.475
1837.47122	13540.675
1840.6344	13542.375
1843.7955	13543.275
1846.95454	13544.175
1850.11151	13535.775
1853.26642	13530.275
1856.41926	13511.075
1859.57004	13497.675
1862.71876	13512.575
1865.86542	13493.175
1869.01003	13479.275
1872.15258	13461.175
1875.29308	13445.075
1878.43152	13413.375
1881.56792	13403.175
1884.70227	13387.675
1887.83457	13370.075
1890.96482	13374.075
1894.09304	13367.175
1897.21921	13351.975
1900.34335	13347.275
1903.46544	13317.175
1906.58551	13314.775
1909.70353	13268.175
1912.81953	13271.175
1915.93349	13253.575
1919.04543	13223.775
1922.15534	13184.075
1925.26322	13170.075
1928.36908	13153.975
1931.47292	13177.475
1934.57473	13124.775
1937.67453	13101.575
1940.77232	13061.375
1943.86808	13044.075
1946.96184	13023.275
1950.05358	12959.975
1953.14331	12945.475
1956.23103	12880.875
1959.31675	12916.475
1962.40046	12841.075
1965.48217	12788.175
1968.56188	12792.575
1971.63959	12743.275
1974.7153	12691.975
1977.78901	12674.875
1980.86073	12605.075
1983.93046	12590.075
1986.99819	12555.675
1990.06394	12539.875
1993.1277	12477.475
1996.18947	12456.075
1999.24925	12437.675
2002.30706	12390.375
2005.36288	12359.375
2008.41672	12349.675
2011.46859	12298.175
2014.51848	12278.975
2017.56639	12228.675
2020.61233	12223.575
2023.6563	12192.575
2026.6983	12170.175
2029.73833	12160.075
2032.7764	12132.575
2035.8125	12134.375
2038.84664	12078.675
2041.87881	12090.675
2044.90903	12052.075
2047.93729	12021.975
2050.96359	12014.375
2053.98794	11983.075
2057.01034	11989.675
2060.03078	11980.775
2063.04927	11975.975
2066.06582	11973.675
2069.08042	11963.175
2072.09307	11974.675
2075.10378	11940.175
2078.11255	11926.375
2081.11938	11938.275
2084.12426	11939.875
2087.12722	11926.975
2090.12824	11929.575
2093.12732	11955.575
2096.12447	11972.675
2099.11969	11949.275
2102.11299	11952.575
2105.10435	11963.575
2108.09379	11961.675
2111.08131	11967.975
2114.0669	11976.875
2117.05057	11987.275
2120.03233	11984.375
2123.01216	12011.275
2125.99008	12016.875
2128.96609	12044.475
2131.94018	12056.975
2134.91236	12039.975
2137.88263	12037.475
2140.851	12063.575
2143.81746	12071.675
2146.78201	12074.375
2149.74466	12083.975
2152.7054	12081.675
2155.66425	12131.175
2158.6212	12101.075
2161.57625	12099.275
2164.52941	12072.575
2167.48067	12095.575
2170.43004	12085.275
2173.37752	12043.775
2176.32311	12066.375
2179.26681	12065.475
2182.20863	12087.075
2185.14856	12056.575
2188.08661	12064.575
2191.02278	12047.075
2193.95707	12071.475
2196.88948	12059.275
2199.82001	12051.975
2202.74867	12043.875
2205.67545	12041.975
2208.60037	12034.275
2211.52341	12038.875
2214.44458	11981.375
2217.36388	11968.575
2220.28132	11951.675
2223.1969	11924.375
2226.11061	11891.075
2229.02246	11903.675
2231.93245	11859.475
2234.84058	11873.875
2237.74686	11866.375
2240.65128	11824.475
2243.55385	11858.675
2246.45456	11833.075
2249.35343	11767.475
2252.25044	11769.675
2255.14561	11785.075
2258.03893	11754.275
2260.93041	11736.675
2263.82004	11711.775
2266.70783	11676.975
2269.59378	11660.575
2272.4779	11626.275
2275.36017	11623.375
2278.24061	11587.475
2281.11922	11554.275
2283.996	11534.975
2286.87094	11533.075
2289.74405	11514.475
2292.61534	11512.375
2295.4848	11518.375
2298.35243	11515.175
2301.21824	11490.375
2304.08223	11466.375
2306.94439	11469.875
2309.80474	11474.875
2312.66327	11509.775
2315.51999	11465.175
2318.37489	11458.975
2321.22797	11458.475
2324.07925	11473.375
2326.92871	11424.075
2329.77637	11423.675
2332.62222	11417.975
2335.46626	11414.075
2338.3085	11377.875
2341.14893	11378.175
2343.98756	11381.675
2346.8244	11353.475
2349.65943	11362.675
2352.49267	11311.675
2355.32411	11332.675
2358.15376	11315.975
2360.98161	11293.775
2363.80768	11320.875
2366.63195	11327.775
2369.45444	11315.275
2372.27514	11291.875
2375.09405	11314.075
2377.91118	11262.675
2380.72652	11234.775
2383.54009	11219.875
2386.35187	11204.375
2389.16188	11180.175
2391.97011	11142.975
2394.77657	11146.775
2397.58125	11140.275
2400.38416	11110.875
2403.18529	11103.075
2405.98466	11116.175
2408.78226	11092.375
2411.57809	11064.175
2414.37216	11028.975
2417.16446	11048.275
2419.955	11052.175
2422.74378	11026.575
2425.5308	10994.475
2428.31606	11010.275
2431.09956	10982.275
2433.88131	10967.975
2436.6613	10980.675
2439.43954	10987.375
2442.21603	10980.375
2444.99077	10975.975
2447.76377	10957.475
2450.53501	10966.175
2453.30451	10926.275
2456.07226	10952.175
2458.83827	10945.675
2461.60254	10942.275
2464.36507	10916.375
2467.12586	10913.675
2469.88492	10913.675
2472.64224	10894.375
2475.39782	10894.075
2478.15167	10898.975
2480.90379	10911.875
2483.65417	10908.275
2486.40283	10904.875
2489.14976	10927.075
2491.89497	10920.675
2494.63845	10895.675
2497.3802	10891.275
2500.12024	10859.775
2502.85855	10870.675
2505.59514	10875.375
2508.33002	10864.575
2511.06318	10862.475
2513.79462	10835.875
2516.52435	10821.975
2519.25237	10852.875
2521.97867	10805.575
2524.70327	10809.575
2527.42616	10792.675
2530.14734	10785.375
2532.86681	10767.475
2535.58458	10756.175
2538.30065	10752.675
2541.01501	10747.275
2543.72768	10746.775
2546.43864	10726.275
2549.14791	10702.875
2551.85548	10698.375
2554.56136	10667.175
2557.26554	10627.375
2559.96803	10668.875
2562.66883	10632.175
2565.36794	10627.175
2568.06536	10659.175
2570.7611	10638.675
2573.45514	10669.575
2576.14751	10626.575
2578.83819	10581.875
2581.52719	10538.675
2584.21451	10574.675
2586.90015	10606.075
2589.58411	10552.075
2592.2664	10521.175
2594.94701	10515.575
2597.62594	10528.075
2600.30321	10507.575
2602.9788	10485.975
2605.65273	10460.275
2608.32498	10440.975
2610.99557	10442.875
2613.66449	10436.875
2616.33175	10423.675
2618.99734	10426.175
2621.66128	10402.875
2624.32355	10404.475
2626.98416	10401.375
2629.64311	10376.075
2632.30041	10383.275
2634.95605	10362.375
2637.61004	10354.675
2640.26238	10346.875
2642.91306	10370.975
2645.56209	10329.875
2648.20948	10333.875
2650.85521	10316.475
2653.4993	10353.375
2656.14175	10341.575
2658.78255	10336.175
2661.42171	10341.575
2664.05923	10359.775
2666.6951	10338.175
2669.32934	10344.175
2671.96194	10360.675
2674.59291	10331.575
2677.22224	10347.775
2679.84993	10339.175
2682.476	10347.075
2685.10043	10329.375
2687.72324	10306.775
2690.34441	10367.875
2692.96396	10337.375
2695.58188	10332.875
2698.19818	10332.975
2700.81285	10352.475
2703.4259	10354.375
2706.03733	10407.675
2708.64714	10403.575
2711.25533	10394.975
2713.86191	10386.775
2716.46687	10369.975
2719.07021	10390.075
2721.67194	10381.175
2724.27206	10359.975
2726.87057	10377.875
2729.46747	10391.975
2732.06276	10404.475
2734.65644	10368.275
2737.24852	10368.375
2739.83899	10351.375
2742.42786	10348.575
2745.01513	10346.275
2747.60079	10330.875
2750.18486	10338.975
2752.76733	10323.375
2755.3482	10332.975
2757.92747	10330.675
2760.50515	10306.075
2763.08123	10311.475
2765.65573	10286.775
2768.22863	10291.575
2770.79994	10289.075
2773.36967	10268.575
2775.9378	10265.275
2778.50435	10254.875
2781.06932	10259.775
2783.6327	10240.075
2786.1945	10242.275
2788.75471	10238.875
2791.31335	10211.675
2793.87041	10229.975
2796.42589	10178.075
2798.97979	10180.675
2801.53212	10166.275
2804.08288	10143.775
2806.63206	10126.975
2809.17967	10096.775
2811.72571	10074.675
2814.27018	10078.775
2816.81308	10061.175
2819.35442	10039.275
2821.89419	10022.675
2824.43239	10024.975
2826.96904	9991.375
2829.50412	10035.475
2832.03763	9997.275
2834.56959	9999.675
2837.1	10010.375
2839.62884	10006.775
2842.15613	10014.875
2844.68186	10047.175
2847.20604	10032.875
2849.72867	10043.375
2852.24974	10046.575
2854.76927	10028.575
2857.28724	10044.075
2859.80367	10013.775
2862.31855	9984.775
2864.83189	9980.275
2867.34368	9958.575
2869.85393	9969.175
2872.36264	9969.675
2874.8698	9960.475
2877.37543	9980.375
2879.87952	9977.975
2882.38207	9975.775
2884.88308	9972.175
2887.38256	9985.675
2889.88051	9986.275
2892.37692	9971.875
2894.8718	9970.775
2897.36515	9999.275
2899.85698	9972.475
2902.34727	9987.475
2904.83604	10007.275
2907.32328	10010.775
2909.809	10008.475
2912.29319	10015.575
2914.77587	10011.075
2917.25702	10012.175
2919.73665	9991.275
2922.21476	10020.775
2924.69136	10025.875
2927.16644	9995.175
2929.64	9992.075
2932.11205	9992.975
2934.58258	9983.375
2937.05161	9995.675
2939.51912	9979.775
2941.98513	10003.275
2944.44962	9966.575
2946.91261	9951.375
2949.37409	9964.075
2951.83407	9940.575
2954.29254	9940.175
2956.74951	9892.375
2959.20498	9879.875
2961.65895	9869.275
2964.11142	9904.175
2966.56239	9877.175
2969.01186	9851.875
2971.45984	9811.675
2973.90632	9808.975
2976.35131	9788.575
2978.7948	9762.275
2981.23681	9759.375
2983.67732	9755.275
2986.11635	9738.075
2988.55388	9736.975
2990.98993	9679.375
2993.4245	9671.875
2995.85758	9654.075
2998.28917	9646.775
3000.71928	9624.575
3003.14791	9626.075
3005.57506	9625.375
3008.00073	9597.875
3010.42493	9610.575
3012.84764	9568.575
3015.26888	9567.475
3017.68865	9552.675
3020.10694	9618.375
3022.52376	9585.475
3024.9391	9521.675
3027.35298	9511.075
3029.76539	9485.475
3032.17632	9485.975
3034.5858	9491.275
3036.9938	9466.475
3039.40034	9463.575
3041.80542	9471.475
3044.20903	9449.175
3046.61118	9454.075
3049.01187	9414.275
3051.4111	9436.575
3053.80888	9423.975
3056.20519	9406.475
3058.60005	9393.875
3060.99345	9379.375
3063.3854	9348.975
3065.7759	9342.775
3068.16494	9325.675
3070.55254	9321.475
3072.93868	9306.675
3075.32338	9262.475
3077.70662	9259.075
3080.08842	9232.075
3082.46878	9273.675
3084.84769	9236.375
3087.22515	9240.475
3089.60118	9248.875
3091.97576	9275.075
3094.3489	9254.475
3096.72061	9243.775
3099.09087	9264.075
3101.4597	9246.975
3103.82709	9257.875
3106.19305	9235.175
3108.55757	9249.975
3110.92066	9219.075
3113.28232	9203.775
3115.64255	9189.975
3118.00134	9173.275
3120.35871	9167.375
3122.71466	9133.175
3125.06917	9166.075
3127.42226	9111.375
3129.77393	9140.175
3132.12417	9128.075
3134.47299	9149.375
3136.82039	9163.675
3139.16636	9165.875
3141.51092	9152.775
