Data from AgNP_FTO_APTES_CRN_50uM_R6G_10uM_NaF_0.1M_Addition_RamanShift__17__18-05-48-076.txt Node

Date: Wed Dec 15 18:05:48 GMT 2021
User: TCL
Spectrometer: QEP01345
Trigger mode: 4
Integration Time (sec): 7.000000E0
Scans to average: 10
Electric dark correction enabled: true
Nonlinearity correction enabled: false
Boxcar width: 0
XAxis mode: Raman Shifts
Number of Pixels in Spectrum: 1044
>>>>>Begin Spectral Data<<<<<
46.04893	0.8625
50.45542	-1.2375
54.85868	-2.2375
59.25871	0.0625
63.6555	57.1625
68.04907	68.4625
72.43941	67.4625
76.82654	75.5625
81.21044	73.0625
85.59113	77.3625
89.96862	81.7625
94.34289	78.0625
98.71396	82.8625
103.08183	89.8625
107.4465	90.6625
111.80798	90.2625
116.16626	97.0625
120.52136	100.5625
124.87327	98.4625
129.222	105.4625
133.56755	104.4625
137.90993	113.3625
142.24913	122.2625
146.58517	133.0625
150.91804	153.0625
155.24774	177.0625
159.57429	219.0625
163.89768	277.0625
168.21792	358.1625
172.53501	486.4625
176.84895	678.4625
181.15975	949.0625
185.46741	1328.7625
189.77193	1837.3625
194.07331	2455.8625
198.37157	3169.0625
202.6667	3931.9625
206.9587	4652.5625
211.24758	5409.7625
215.53334	6120.7625
219.81599	6877.6625
224.09553	7750.1625
228.37195	8649.3625
232.64527	9673.4625
236.91549	10765.4625
241.18261	11875.8625
245.44663	12964.8625
249.70755	13964.0625
253.96539	14802.8625
258.22014	15555.5625
262.4718	16123.6625
266.72039	16564.7625
270.96589	16772.0625
275.20832	16832.2625
279.44768	16727.4625
283.68397	16595.2625
287.91719	16431.6625
292.14735	16328.1625
296.37445	16250.5625
300.59849	16281.7625
304.81948	16264.8625
309.03742	16191.3625
313.25231	16048.7625
317.46415	15792.3625
321.67296	15523.8625
325.87872	15226.3625
330.08145	15135.6625
334.28114	15184.7625
338.47781	15290.7625
342.67145	15484.8625
346.86207	15699.7625
351.04966	15985.3625
355.23424	16272.9625
359.4158	16506.6625
363.59435	16716.9625
367.76989	16834.2625
371.94243	16957.4625
376.11196	17064.2625
380.27849	17176.0625
384.44203	17275.7625
388.60257	17406.6625
392.76012	17538.7625
396.91468	17726.6625
401.06626	18003.4625
405.21485	18160.2625
409.36047	18198.7625
413.50311	18027.5625
417.64277	17869.9625
421.77947	17806.2625
425.9132	17804.5625
430.04396	17918.0625
434.17176	18031.1625
438.2966	18126.0625
442.41849	18387.1625
446.53742	18693.0625
450.6534	19040.1625
454.76644	19317.0625
458.87653	19463.5625
462.98368	19456.4625
467.08789	19373.5625
471.18916	19233.9625
475.2875	19117.8625
479.38291	19026.7625
483.4754	18953.9625
487.56496	18840.1625
491.6516	18695.7625
495.73531	18556.7625
499.81612	18521.0625
503.89401	18575.6625
507.96899	18623.4625
512.04106	18650.9625
516.11023	18633.0625
520.1765	18604.7625
524.23987	18611.0625
528.30034	18520.2625
532.35792	18438.2625
536.41261	18343.1625
540.46441	18190.1625
544.51333	18244.4625
548.55936	18347.8625
552.60252	18593.4625
556.64279	18882.0625
560.6802	19023.3625
564.71473	19073.5625
568.7464	19232.1625
572.7752	19434.9625
576.80114	19608.2625
580.82422	19761.5625
584.84444	19978.1625
588.86181	20169.1625
592.87633	20350.3625
596.888	20482.7625
600.89682	20519.5625
604.9028	20888.5625
608.90594	22099.3625
612.90624	23362.1625
616.90371	22513.2625
620.89834	20083.2625
624.89015	18966.3625
628.87913	18862.0625
632.86528	18931.7625
636.84862	19027.4625
640.82913	18918.0625
644.80683	18620.5625
648.78172	18417.1625
652.75379	18369.6625
656.72306	18534.8625
660.68952	18749.9625
664.65319	18733.4625
668.61405	18529.1625
672.57211	18467.7625
676.52738	18496.0625
680.47986	18527.2625
684.42955	18469.1625
688.37646	18466.0625
692.32058	18546.7625
696.26192	18630.1625
700.20048	18779.4625
704.13626	18889.0625
708.06928	18927.8625
711.99952	18863.1625
715.927	18827.7625
719.85171	18841.4625
723.77365	18791.9625
727.69284	18717.4625
731.60928	18572.7625
735.52295	18599.9625
739.43388	18582.7625
743.34206	18593.0625
747.24749	18681.8625
751.15017	18771.9625
755.05012	18932.0625
758.94733	19253.5625
762.8418	19875.3625
766.73354	20777.4625
770.62254	21761.6625
774.50882	22089.1625
778.39237	21462.8625
782.27321	20417.3625
786.15132	19510.7625
790.02671	18963.3625
793.89938	18679.4625
797.76935	18572.9625
801.6366	18542.4625
805.50115	18504.2625
809.36299	18493.5625
813.22213	18415.4625
817.07857	18430.7625
820.93231	18427.3625
824.78336	18420.6625
828.63172	18448.2625
832.47738	18470.0625
836.32036	18483.0625
840.16066	18499.5625
843.99827	18521.6625
847.8332	18519.5625
851.66546	18469.2625
855.49504	18482.2625
859.32195	18485.1625
863.1462	18484.6625
866.96777	18487.6625
870.78668	18458.8625
874.60293	18466.8625
878.41652	18457.5625
882.22745	18501.4625
886.03573	18538.1625
889.84136	18538.9625
893.64433	18509.7625
897.44466	18469.7625
901.24235	18425.2625
905.0374	18405.1625
908.8298	18379.7625
912.61957	18409.6625
916.40671	18502.1625
920.19121	18594.8625
923.97308	18697.2625
927.75233	18700.1625
931.52895	18681.0625
935.30295	18565.4625
939.07433	18399.0625
942.84309	18212.8625
946.60924	18151.3625
950.37278	18099.6625
954.13371	18064.3625
957.89203	18009.3625
961.64774	17999.5625
965.40086	17979.5625
969.15137	17930.6625
972.89929	17884.6625
976.64461	17874.0625
980.38733	17893.5625
984.12747	17958.2625
987.86502	18050.3625
991.59999	18167.1625
995.33237	18324.6625
999.06217	18546.2625
1002.78939	18783.3625
1006.51404	18883.4625
1010.23611	19015.4625
1013.95561	19163.4625
1017.67255	19154.8625
1021.38692	19017.4625
1025.09872	18880.1625
1028.80796	18857.5625
1032.51465	18971.4625
1036.21877	19128.8625
1039.92035	19217.4625
1043.61937	19167.3625
1047.31584	19081.0625
1051.00976	18967.7625
1054.70114	19006.0625
1058.38998	19081.3625
1062.07627	19246.0625
1065.76003	19448.3625
1069.44126	19700.2625
1073.11995	19936.8625
1076.79611	20085.8625
1080.46974	20118.6625
1084.14085	20083.1625
1087.80943	20061.1625
1091.47549	20108.2625
1095.13903	20040.7625
1098.80005	19871.9625
1102.45857	19580.9625
1106.11456	19416.8625
1109.76805	19315.4625
1113.41903	19293.5625
1117.06751	19400.5625
1120.71348	19495.4625
1124.35696	19643.9625
1127.99793	19873.8625
1131.63641	19862.1625
1135.2724	19725.1625
1138.90589	19590.2625
1142.5369	19503.2625
1146.16542	19469.7625
1149.79145	19505.3625
1153.415	19538.7625
1157.03607	19641.9625
1160.65467	19876.2625
1164.27079	20247.7625
1167.88443	20790.4625
1171.49561	21530.7625
1175.10432	22508.0625
1178.71056	23767.7625
1182.31434	24856.5625
1185.91565	25320.3625
1189.51451	25200.9625
1193.11091	24704.6625
1196.70485	23951.9625
1200.29634	23262.1625
1203.88538	22780.6625
1207.47197	22385.4625
1211.05612	22072.6625
1214.63782	21792.4625
1218.21708	21645.5625
1221.79391	21462.8625
1225.36829	21393.9625
1228.94024	21288.0625
1232.50976	21140.1625
1236.07685	21051.3625
1239.6415	20983.7625
1243.20374	21076.0625
1246.76355	21125.6625
1250.32093	21350.2625
1253.8759	21585.5625
1257.42845	21959.2625
1260.97859	22233.1625
1264.52631	22535.7625
1268.07163	22823.7625
1271.61453	23140.6625
1275.15503	23444.7625
1278.69312	23803.4625
1282.22882	24171.5625
1285.76211	24505.8625
1289.29301	24970.4625
1292.82151	25489.6625
1296.34761	26139.0625
1299.87133	26966.1625
1303.39266	27930.0625
1306.9116	29025.0625
1310.42815	30110.1625
1313.94233	30904.7625
1317.45412	31004.1625
1320.96354	30568.1625
1324.47058	30181.6625
1327.97525	29675.5625
1331.47754	29267.4625
1334.97747	29173.0625
1338.47502	29175.5625
1341.97022	29230.4625
1345.46305	29204.3625
1348.95352	29080.1625
1352.44163	29148.9625
1355.92738	29483.2625
1359.41078	30468.6625
1362.89183	31330.9625
1366.37053	31000.3625
1369.84688	29118.8625
1373.32088	26921.4625
1376.79254	25372.6625
1380.26186	24632.7625
1383.72883	24378.8625
1387.19347	24221.8625
1390.65578	23986.3625
1394.11575	23900.8625
1397.57339	23902.0625
1401.0287	24072.6625
1404.48168	24250.2625
1407.93234	24281.4625
1411.38068	24127.1625
1414.82669	23769.8625
1418.27039	23182.4625
1421.71177	22612.8625
1425.15083	22101.0625
1428.58758	21795.4625
1432.02203	21813.2625
1435.45416	22008.4625
1438.88399	22306.8625
1442.31151	22535.5625
1445.73673	22763.6625
1449.15965	22965.2625
1452.58027	23136.4625
1455.9986	23209.5625
1459.41463	23350.2625
1462.82837	23630.7625
1466.23982	24005.9625
1469.64898	24312.2625
1473.05586	24547.6625
1476.46045	24618.8625
1479.86276	24606.8625
1483.26279	24619.8625
1486.66054	24608.7625
1490.05602	24698.2625
1493.44922	24919.6625
1496.84016	25218.8625
1500.22882	25764.7625
1503.61521	26541.9625
1506.99934	27486.3625
1510.38121	28192.5625
1513.76081	28321.7625
1517.13816	27806.4625
1520.51324	26805.3625
1523.88607	25818.3625
1527.25665	25167.2625
1530.62498	24844.0625
1533.99105	24691.0625
1537.35488	24498.8625
1540.71647	24270.5625
1544.07581	24049.5625
1547.4329	23785.0625
1550.78776	23577.7625
1554.14038	23419.8625
1557.49077	23354.7625
1560.83892	23372.0625
1564.18484	23474.6625
1567.52853	23646.2625
1570.86999	23919.3625
1574.20922	24212.0625
1577.54624	24462.4625
1580.88103	24412.1625
1584.2136	24309.7625
1587.54395	24288.7625
1590.87208	24584.4625
1594.19801	25193.6625
1597.52172	26083.1625
1600.84321	26392.1625
1604.16251	25832.7625
1607.47959	24739.3625
1610.79447	23507.4625
1614.10715	22334.7625
1617.41763	21342.0625
1620.7259	20664.7625
1624.03199	20319.7625
1627.33587	20213.1625
1630.63757	20463.2625
1633.93707	20976.5625
1637.23439	21967.8625
1640.52951	23405.2625
1643.82246	25060.5625
1647.11321	26564.5625
1650.40179	27111.0625
1653.68819	26282.7625
1656.97241	24314.7625
1660.25446	22261.4625
1663.53433	20602.5625
1666.81203	19472.8625
1670.08756	18726.7625
1673.36092	18253.4625
1676.63211	17948.6625
1679.90115	17706.8625
1683.16801	17503.0625
1686.43272	17427.3625
1689.69527	17324.8625
1692.95567	17253.9625
1696.2139	17245.2625
1699.46999	17231.1625
1702.72392	17187.4625
1705.97571	17195.7625
1709.22535	17161.7625
1712.47284	17115.6625
1715.71819	17100.7625
1718.96139	17061.4625
1722.20246	17022.7625
1725.44139	17006.9625
1728.67818	16918.3625
1731.91284	16868.1625
1735.14537	16833.6625
1738.37576	16766.3625
1741.60403	16732.7625
1744.83017	16703.4625
1748.05418	16718.0625
1751.27607	16694.8625
1754.49584	16628.7625
1757.71349	16649.9625
1760.92903	16650.4625
1764.14244	16624.0625
1767.35375	16634.8625
1770.56294	16605.9625
1773.77002	16591.2625
1776.97499	16565.5625
1780.17785	16555.1625
1783.37861	16531.8625
1786.57727	16499.0625
1789.77382	16434.5625
1792.96828	16438.0625
1796.16064	16413.8625
1799.3509	16397.7625
1802.53907	16347.3625
1805.72514	16308.8625
1808.90913	16297.4625
1812.09102	16268.7625
1815.27083	16223.6625
1818.44856	16225.9625
1821.6242	16189.8625
1824.79776	16173.5625
1827.96924	16154.8625
1831.13864	16148.7625
1834.30597	16179.1625
1837.47122	16137.0625
1840.6344	16139.0625
1843.7955	16131.4625
1846.95454	16114.6625
1850.11151	16100.7625
1853.26642	16100.4625
1856.41926	16101.7625
1859.57004	16092.3625
1862.71876	16097.3625
1865.86542	16039.9625
1869.01003	16037.1625
1872.15258	16042.1625
1875.29308	16021.7625
1878.43152	15989.5625
1881.56792	15975.1625
1884.70227	15948.2625
1887.83457	15964.9625
1890.96482	15950.5625
1894.09304	15933.4625
1897.21921	15903.0625
1900.34335	15895.1625
1903.46544	15869.8625
1906.58551	15865.4625
1909.70353	15852.4625
1912.81953	15828.4625
1915.93349	15793.3625
1919.04543	15755.7625
1922.15534	15737.3625
1925.26322	15737.6625
1928.36908	15716.1625
1931.47292	15673.0625
1934.57473	15639.3625
1937.67453	15572.3625
1940.77232	15597.7625
1943.86808	15553.1625
1946.96184	15527.2625
1950.05358	15499.2625
1953.14331	15453.0625
1956.23103	15397.9625
1959.31675	15348.9625
1962.40046	15310.2625
1965.48217	15293.6625
1968.56188	15240.5625
1971.63959	15167.6625
1974.7153	15118.0625
1977.78901	15119.8625
1980.86073	15053.3625
1983.93046	15015.8625
1986.99819	14975.5625
1990.06394	14954.7625
1993.1277	14891.6625
1996.18947	14821.0625
1999.24925	14787.4625
2002.30706	14769.4625
2005.36288	14716.9625
2008.41672	14684.4625
2011.46859	14644.6625
2014.51848	14613.7625
2017.56639	14563.9625
2020.61233	14517.7625
2023.6563	14504.0625
2026.6983	14465.2625
2029.73833	14453.8625
2032.7764	14395.3625
2035.8125	14410.2625
2038.84664	14354.8625
2041.87881	14332.8625
2044.90903	14305.7625
2047.93729	14292.1625
2050.96359	14251.8625
2053.98794	14252.2625
2057.01034	14237.2625
2060.03078	14192.8625
2063.04927	14204.0625
2066.06582	14205.1625
2069.08042	14202.6625
2072.09307	14187.2625
2075.10378	14149.6625
2078.11255	14161.7625
2081.11938	14166.6625
2084.12426	14139.2625
2087.12722	14169.0625
2090.12824	14165.7625
2093.12732	14180.0625
2096.12447	14168.4625
2099.11969	14136.6625
2102.11299	14141.8625
2105.10435	14176.9625
2108.09379	14169.5625
2111.08131	14192.6625
2114.0669	14193.8625
2117.05057	14191.4625
2120.03233	14201.2625
2123.01216	14223.7625
2125.99008	14193.9625
2128.96609	14236.1625
2131.94018	14255.5625
2134.91236	14230.1625
2137.88263	14259.2625
2140.851	14253.0625
2143.81746	14305.2625
2146.78201	14307.5625
2149.74466	14286.2625
2152.7054	14294.9625
2155.66425	14289.9625
2158.6212	14325.1625
2161.57625	14301.4625
2164.52941	14311.0625
2167.48067	14277.4625
2170.43004	14285.7625
2173.37752	14312.6625
2176.32311	14268.1625
2179.26681	14241.7625
2182.20863	14285.5625
2185.14856	14280.9625
2188.08661	14239.7625
2191.02278	14260.9625
2193.95707	14231.8625
2196.88948	14254.3625
2199.82001	14194.4625
2202.74867	14219.3625
2205.67545	14185.8625
2208.60037	14181.3625
2211.52341	14208.0625
2214.44458	14162.5625
2217.36388	14152.9625
2220.28132	14123.4625
2223.1969	14080.0625
2226.11061	14091.9625
2229.02246	14055.9625
2231.93245	14004.1625
2234.84058	14004.7625
2237.74686	13969.9625
2240.65128	13969.8625
2243.55385	13943.8625
2246.45456	13891.1625
2249.35343	13868.1625
2252.25044	13873.1625
2255.14561	13870.9625
2258.03893	13818.8625
2260.93041	13855.8625
2263.82004	13791.4625
2266.70783	13774.7625
2269.59378	13732.5625
2272.4779	13693.4625
2275.36017	13642.5625
2278.24061	13640.4625
2281.11922	13603.1625
2283.996	13573.8625
2286.87094	13586.6625
2289.74405	13531.0625
2292.61534	13539.4625
2295.4848	13527.6625
2298.35243	13535.2625
2301.21824	13506.2625
2304.08223	13494.3625
2306.94439	13486.9625
2309.80474	13441.7625
2312.66327	13443.7625
2315.51999	13428.6625
2318.37489	13448.9625
2321.22797	13421.5625
2324.07925	13395.0625
2326.92871	13390.6625
2329.77637	13390.7625
2332.62222	13346.9625
2335.46626	13336.1625
2338.3085	13340.0625
2341.14893	13309.6625
2343.98756	13312.1625
2346.8244	13290.7625
2349.65943	13255.5625
2352.49267	13264.6625
2355.32411	13252.2625
2358.15376	13257.6625
2360.98161	13230.8625
2363.80768	13255.7625
2366.63195	13258.5625
2369.45444	13203.8625
2372.27514	13183.5625
2375.09405	13175.6625
2377.91118	13139.6625
2380.72652	13139.2625
2383.54009	13111.6625
2386.35187	13110.9625
2389.16188	13081.1625
2391.97011	13012.9625
2394.77657	12992.5625
2397.58125	12999.8625
2400.38416	12991.3625
2403.18529	12971.0625
2405.98466	12954.3625
2408.78226	12912.3625
2411.57809	12893.6625
2414.37216	12870.6625
2417.16446	12853.5625
2419.955	12858.4625
2422.74378	12843.4625
2425.5308	12799.1625
2428.31606	12779.6625
2431.09956	12772.1625
2433.88131	12775.8625
2436.6613	12780.0625
2439.43954	12750.2625
2442.21603	12731.2625
2444.99077	12726.4625
2447.76377	12720.1625
2450.53501	12690.9625
2453.30451	12683.1625
2456.07226	12665.6625
2458.83827	12665.5625
2461.60254	12622.4625
2464.36507	12649.9625
2467.12586	12622.4625
2469.88492	12623.5625
2472.64224	12612.0625
2475.39782	12603.2625
2478.15167	12611.2625
2480.90379	12603.0625
2483.65417	12587.0625
2486.40283	12628.4625
2489.14976	12621.6625
2491.89497	12573.4625
2494.63845	12620.3625
2497.3802	12588.7625
2500.12024	12556.4625
2502.85855	12557.8625
2505.59514	12558.3625
2508.33002	12525.3625
2511.06318	12507.2625
2513.79462	12498.9625
2516.52435	12474.1625
2519.25237	12473.8625
2521.97867	12443.1625
2524.70327	12485.6625
2527.42616	12438.6625
2530.14734	12432.1625
2532.86681	12410.4625
2535.58458	12373.2625
2538.30065	12365.8625
2541.01501	12344.9625
2543.72768	12339.3625
2546.43864	12345.9625
2549.14791	12284.6625
2551.85548	12281.3625
2554.56136	12256.9625
2557.26554	12243.4625
2559.96803	12229.9625
2562.66883	12228.3625
2565.36794	12201.4625
2568.06536	12206.4625
2570.7611	12162.3625
2573.45514	12192.7625
2576.14751	12114.2625
2578.83819	12099.2625
2581.52719	12108.9625
2584.21451	12096.6625
2586.90015	12081.3625
2589.58411	12017.1625
2592.2664	12031.8625
2594.94701	11972.2625
2597.62594	11991.1625
2600.30321	11972.9625
2602.9788	11935.0625
2605.65273	11928.5625
2608.32498	11918.4625
2610.99557	11906.4625
2613.66449	11911.9625
2616.33175	11895.5625
2618.99734	11877.9625
2621.66128	11873.5625
2624.32355	11854.5625
2626.98416	11855.1625
2629.64311	11859.2625
2632.30041	11833.1625
2634.95605	11839.0625
2637.61004	11817.2625
2640.26238	11784.6625
2642.91306	11802.0625
2645.56209	11774.6625
2648.20948	11752.6625
2650.85521	11734.7625
2653.4993	11765.7625
2656.14175	11735.4625
2658.78255	11764.2625
2661.42171	11733.7625
2664.05923	11733.9625
2666.6951	11737.8625
2669.32934	11745.4625
2671.96194	11722.2625
2674.59291	11712.0625
2677.22224	11721.6625
2679.84993	11736.5625
2682.476	11713.0625
2685.10043	11693.7625
2687.72324	11731.8625
2690.34441	11716.4625
2692.96396	11699.7625
2695.58188	11701.5625
2698.19818	11689.7625
2700.81285	11690.6625
2703.4259	11728.0625
2706.03733	11762.9625
2708.64714	11738.3625
2711.25533	11744.0625
2713.86191	11718.3625
2716.46687	11745.4625
2719.07021	11711.8625
2721.67194	11691.2625
2724.27206	11691.6625
2726.87057	11678.6625
2729.46747	11695.9625
2732.06276	11666.7625
2734.65644	11637.1625
2737.24852	11677.1625
2739.83899	11662.7625
2742.42786	11662.8625
2745.01513	11626.9625
2747.60079	11622.1625
2750.18486	11614.6625
2752.76733	11628.9625
2755.3482	11612.3625
2757.92747	11594.9625
2760.50515	11574.4625
2763.08123	11615.9625
2765.65573	11564.5625
2768.22863	11551.4625
2770.79994	11527.5625
2773.36967	11539.2625
2775.9378	11513.2625
2778.50435	11506.2625
2781.06932	11449.1625
2783.6327	11472.5625
2786.1945	11455.1625
2788.75471	11429.1625
2791.31335	11412.5625
2793.87041	11382.2625
2796.42589	11374.6625
2798.97979	11370.2625
2801.53212	11351.6625
2804.08288	11326.1625
2806.63206	11302.1625
2809.17967	11254.6625
2811.72571	11243.3625
2814.27018	11230.6625
2816.81308	11213.0625
2819.35442	11187.5625
2821.89419	11147.1625
2824.43239	11151.0625
2826.96904	11156.9625
2829.50412	11182.0625
2832.03763	11113.2625
2834.56959	11132.6625
2837.1	11084.0625
2839.62884	11085.5625
2842.15613	11058.1625
2844.68186	11078.7625
2847.20604	11073.1625
2849.72867	11089.6625
2852.24974	11056.5625
2854.76927	11068.6625
2857.28724	11008.2625
2859.80367	10997.7625
2862.31855	11021.4625
2864.83189	10965.6625
2867.34368	10964.2625
2869.85393	10977.1625
2872.36264	10940.2625
2874.8698	10969.8625
2877.37543	10950.8625
2879.87952	10977.4625
2882.38207	10974.5625
2884.88308	10962.1625
2887.38256	10959.5625
2889.88051	10967.1625
2892.37692	10954.4625
2894.8718	10931.3625
2897.36515	10950.3625
2899.85698	10951.8625
2902.34727	10946.1625
2904.83604	10962.8625
2907.32328	10962.0625
2909.809	10954.1625
2912.29319	10942.2625
2914.77587	10934.2625
2917.25702	10936.6625
2919.73665	10923.7625
2922.21476	10963.9625
2924.69136	10908.5625
2927.16644	10948.6625
2929.64	10930.8625
2932.11205	10932.5625
2934.58258	10873.8625
2937.05161	10878.5625
2939.51912	10904.3625
2941.98513	10873.8625
2944.44962	10874.5625
2946.91261	10831.8625
2949.37409	10867.5625
2951.83407	10851.0625
2954.29254	10849.1625
2956.74951	10805.1625
2959.20498	10819.4625
2961.65895	10839.2625
2964.11142	10832.3625
2966.56239	10819.2625
2969.01186	10796.9625
2971.45984	10767.9625
2973.90632	10735.4625
2976.35131	10737.1625
2978.7948	10686.6625
2981.23681	10709.3625
2983.67732	10663.2625
2986.11635	10657.9625
2988.55388	10647.0625
2990.98993	10597.3625
2993.4245	10595.8625
2995.85758	10583.2625
2998.28917	10539.6625
3000.71928	10544.3625
3003.14791	10521.5625
3005.57506	10508.6625
3008.00073	10509.1625
3010.42493	10497.7625
3012.84764	10474.2625
3015.26888	10462.5625
3017.68865	10418.8625
3020.10694	10414.3625
3022.52376	10395.0625
3024.9391	10396.0625
