Data from AgNP_FTO_APTES_CRN_20uM_R6G_10uM_NaF_0.1M_Addition_RamanShift__19__17-22-38-028.txt Node

Date: Wed Dec 15 17:22:38 GMT 2021
User: TCL
Spectrometer: QEP01345
Trigger mode: 4
Integration Time (sec): 7.000000E0
Scans to average: 10
Electric dark correction enabled: true
Nonlinearity correction enabled: false
Boxcar width: 0
XAxis mode: Raman Shifts
Number of Pixels in Spectrum: 1044
>>>>>Begin Spectral Data<<<<<
46.04893	1.075
50.45542	-2.025
54.85868	-1.725
59.25871	-0.925
63.6555	59.575
68.04907	65.375
72.43941	69.375
76.82654	74.875
81.21044	77.475
85.59113	80.875
89.96862	84.775
94.34289	84.075
98.71396	91.375
103.08183	91.975
107.4465	95.875
111.80798	96.375
116.16626	99.875
120.52136	104.075
124.87327	101.775
129.222	108.075
133.56755	109.275
137.90993	118.875
142.24913	127.675
146.58517	140.975
150.91804	155.375
155.24774	181.575
159.57429	221.975
163.89768	281.675
168.21792	364.875
172.53501	497.475
176.84895	683.375
181.15975	959.875
185.46741	1334.775
189.77193	1838.975
194.07331	2448.575
198.37157	3165.675
202.6667	3902.275
206.9587	4641.775
211.24758	5379.275
215.53334	6085.475
219.81599	6837.275
224.09553	7693.875
228.37195	8608.675
232.64527	9647.975
236.91549	10729.475
241.18261	11846.875
245.44663	12874.175
249.70755	13854.075
253.96539	14677.975
258.22014	15419.675
262.4718	15943.075
266.72039	16376.975
270.96589	16608.075
275.20832	16632.975
279.44768	16519.475
283.68397	16377.375
287.91719	16226.675
292.14735	16136.275
296.37445	16107.875
300.59849	16127.875
304.81948	16143.875
309.03742	16092.475
313.25231	15935.375
317.46415	15616.975
321.67296	15245.875
325.87872	14949.675
330.08145	14761.475
334.28114	14783.775
338.47781	14881.575
342.67145	15083.175
346.86207	15320.775
351.04966	15561.375
355.23424	15937.575
359.4158	16214.475
363.59435	16362.275
367.76989	16524.975
371.94243	16626.575
376.11196	16665.775
380.27849	16775.875
384.44203	16813.575
388.60257	16913.575
392.76012	17091.775
396.91468	17276.975
401.06626	17520.575
405.21485	17683.775
409.36047	17699.475
413.50311	17449.075
417.64277	17262.575
421.77947	17154.575
425.9132	17180.375
430.04396	17301.875
434.17176	17400.975
438.2966	17548.575
442.41849	17763.375
446.53742	18139.775
450.6534	18577.975
454.76644	18997.075
458.87653	19141.175
462.98368	19081.275
467.08789	18903.875
471.18916	18713.275
475.2875	18533.675
479.38291	18445.575
483.4754	18311.175
487.56496	18114.875
491.6516	17864.975
495.73531	17629.375
499.81612	17540.975
503.89401	17652.775
507.96899	17712.575
512.04106	17724.875
516.11023	17676.675
520.1765	17608.375
524.23987	17548.975
528.30034	17465.175
532.35792	17309.675
536.41261	17131.775
540.46441	16921.475
544.51333	16906.475
548.55936	17051.275
552.60252	17350.275
556.64279	17618.575
560.6802	17813.475
564.71473	17913.275
568.7464	18108.675
572.7752	18332.275
576.80114	18570.175
580.82422	18810.775
584.84444	19122.675
588.86181	19471.975
592.87633	19731.275
596.888	20034.675
600.89682	20152.375
604.9028	20688.775
608.90594	21950.575
612.90624	23241.175
616.90371	22048.075
620.89834	19033.775
624.89015	17716.975
628.87913	17632.775
632.86528	17704.075
636.84862	17681.775
640.82913	17445.875
644.80683	17041.175
648.78172	16751.275
652.75379	16674.575
656.72306	16815.575
660.68952	16998.875
664.65319	16948.075
668.61405	16723.475
672.57211	16616.175
676.52738	16615.875
680.47986	16607.475
684.42955	16559.875
688.37646	16546.975
692.32058	16558.675
696.26192	16682.675
700.20048	16892.575
704.13626	17007.375
708.06928	17028.075
711.99952	16933.775
715.927	16899.575
719.85171	16914.775
723.77365	16862.475
727.69284	16721.475
731.60928	16534.675
735.52295	16556.275
739.43388	16567.875
743.34206	16549.375
747.24749	16627.175
751.15017	16733.475
755.05012	16962.675
758.94733	17345.075
762.8418	18106.575
766.73354	19242.375
770.62254	20380.475
774.50882	20643.075
778.39237	19850.275
782.27321	18551.475
786.15132	17505.775
790.02671	16879.975
793.89938	16577.475
797.76935	16524.875
801.6366	16471.975
805.50115	16422.475
809.36299	16341.775
813.22213	16245.775
817.07857	16226.075
820.93231	16198.375
824.78336	16130.875
828.63172	16170.175
832.47738	16168.175
836.32036	16216.375
840.16066	16306.075
843.99827	16334.775
847.8332	16278.075
851.66546	16193.675
855.49504	16146.375
859.32195	16139.275
863.1462	16109.875
866.96777	16040.575
870.78668	15996.675
874.60293	15986.175
878.41652	16007.075
882.22745	16036.375
886.03573	16037.475
889.84136	16081.075
893.64433	15967.075
897.44466	15910.075
901.24235	15858.775
905.0374	15852.175
908.8298	15813.075
912.61957	15869.975
916.40671	15972.875
920.19121	16178.875
923.97308	16308.675
927.75233	16376.375
931.52895	16343.975
935.30295	16183.475
939.07433	15930.275
942.84309	15739.475
946.60924	15645.575
950.37278	15600.275
954.13371	15554.375
957.89203	15500.475
961.64774	15470.375
965.40086	15414.375
969.15137	15381.575
972.89929	15310.575
976.64461	15271.475
980.38733	15298.075
984.12747	15390.675
987.86502	15518.675
991.59999	15698.375
995.33237	15960.375
999.06217	16354.175
1002.78939	16790.375
1006.51404	17014.375
1010.23611	17205.375
1013.95561	17316.575
1017.67255	17284.775
1021.38692	17083.775
1025.09872	16897.475
1028.80796	17014.275
1032.51465	17443.275
1036.21877	17841.275
1039.92035	17918.875
1043.61937	17722.075
1047.31584	17407.975
1051.00976	17071.475
1054.70114	16948.175
1058.38998	17040.275
1062.07627	17222.975
1065.76003	17463.775
1069.44126	17796.075
1073.11995	18198.975
1076.79611	18480.575
1080.46974	18553.675
1084.14085	18393.375
1087.80943	18300.575
1091.47549	18140.175
1095.13903	18008.375
1098.80005	17739.275
1102.45857	17400.675
1106.11456	17141.075
1109.76805	17098.475
1113.41903	17084.575
1117.06751	17201.875
1120.71348	17322.975
1124.35696	17452.675
1127.99793	17650.275
1131.63641	17757.975
1135.2724	17665.175
1138.90589	17500.175
1142.5369	17450.375
1146.16542	17431.575
1149.79145	17470.975
1153.415	17568.775
1157.03607	17795.675
1160.65467	18111.175
1164.27079	18695.075
1167.88443	19551.975
1171.49561	20613.475
1175.10432	22043.075
1178.71056	23762.775
1182.31434	25289.875
1185.91565	26010.175
1189.51451	25753.175
1193.11091	24884.075
1196.70485	23789.375
1200.29634	22761.775
1203.88538	22137.775
1207.47197	21738.475
1211.05612	21403.675
1214.63782	21135.875
1218.21708	20913.975
1221.79391	20698.775
1225.36829	20575.075
1228.94024	20432.175
1232.50976	20107.875
1236.07685	19865.275
1239.6415	19719.375
1243.20374	19720.475
1246.76355	19824.975
1250.32093	20138.475
1253.8759	20526.875
1257.42845	20992.975
1260.97859	21435.875
1264.52631	21881.975
1268.07163	22386.275
1271.61453	22973.275
1275.15503	23601.175
1278.69312	24225.375
1282.22882	24828.575
1285.76211	25322.175
1289.29301	25867.375
1292.82151	26615.975
1296.34761	27652.075
1299.87133	28979.275
1303.39266	30585.575
1306.9116	32342.875
1310.42815	34018.675
1313.94233	35057.975
1317.45412	35148.075
1320.96354	34585.575
1324.47058	33884.775
1327.97525	33191.175
1331.47754	32589.075
1334.97747	32253.475
1338.47502	32099.075
1341.97022	31915.475
1345.46305	31493.475
1348.95352	31079.975
1352.44163	30952.375
1355.92738	31492.975
1359.41078	32805.075
1362.89183	34071.275
1366.37053	33658.275
1369.84688	31314.575
1373.32088	28405.375
1376.79254	26277.575
1380.26186	25400.975
1383.72883	25174.475
1387.19347	25039.475
1390.65578	24767.075
1394.11575	24680.175
1397.57339	24863.275
1401.0287	25313.475
1404.48168	25759.375
1407.93234	25858.075
1411.38068	25557.575
1414.82669	24840.975
1418.27039	23912.975
1421.71177	22973.075
1425.15083	22205.475
1428.58758	21764.375
1432.02203	21801.275
1435.45416	22166.975
1438.88399	22717.375
1442.31151	23245.675
1445.73673	23618.675
1449.15965	23941.275
1452.58027	24216.275
1455.9986	24284.575
1459.41463	24481.575
1462.82837	24931.175
1466.23982	25514.875
1469.64898	25997.575
1473.05586	26279.775
1476.46045	26363.975
1479.86276	26174.675
1483.26279	25943.275
1486.66054	25631.975
1490.05602	25601.075
1493.44922	25633.875
1496.84016	25775.175
1500.22882	26166.475
1503.61521	26845.275
1506.99934	27693.975
1510.38121	28507.475
1513.76081	28703.275
1517.13816	28143.175
1520.51324	27159.375
1523.88607	26131.175
1527.25665	25503.675
1530.62498	25213.675
1533.99105	25144.475
1537.35488	25012.075
1540.71647	24788.275
1544.07581	24456.775
1547.4329	24064.875
1550.78776	23689.275
1554.14038	23543.175
1557.49077	23351.175
1560.83892	23319.075
1564.18484	23362.475
1567.52853	23532.375
1570.86999	23899.675
1574.20922	24478.375
1577.54624	24996.175
1580.88103	25346.175
1584.2136	25497.675
1587.54395	25710.775
1590.87208	26185.275
1594.19801	27182.175
1597.52172	28449.275
1600.84321	28877.575
1604.16251	27859.775
1607.47959	25964.575
1610.79447	23969.975
1614.10715	22150.975
1617.41763	20701.275
1620.7259	19733.275
1624.03199	19198.175
1627.33587	19155.175
1630.63757	19612.975
1633.93707	20530.675
1637.23439	22132.875
1640.52951	24355.575
1643.82246	26914.775
1647.11321	28909.375
1650.40179	29347.175
1653.68819	27730.675
1656.97241	24699.075
1660.25446	21657.075
1663.53433	19332.675
1666.81203	17819.375
1670.08756	16841.575
1673.36092	16236.875
1676.63211	15776.375
1679.90115	15496.675
1683.16801	15276.375
1686.43272	15115.875
1689.69527	15018.475
1692.95567	14930.275
1696.2139	14906.175
1699.46999	14853.875
1702.72392	14813.175
1705.97571	14751.475
1709.22535	14760.075
1712.47284	14706.575
1715.71819	14688.575
1718.96139	14648.575
1722.20246	14600.375
1725.44139	14555.675
1728.67818	14491.975
1731.91284	14410.975
1735.14537	14344.275
1738.37576	14284.175
1741.60403	14246.775
1744.83017	14210.275
1748.05418	14187.575
1751.27607	14168.375
1754.49584	14128.275
1757.71349	14145.375
1760.92903	14127.375
1764.14244	14148.475
1767.35375	14122.975
1770.56294	14091.975
1773.77002	14074.475
1776.97499	14076.675
1780.17785	14027.175
1783.37861	14021.075
1786.57727	13984.775
1789.77382	13946.575
1792.96828	13913.075
1796.16064	13918.675
1799.3509	13849.575
1802.53907	13869.875
1805.72514	13825.975
1808.90913	13789.475
1812.09102	13768.475
1815.27083	13726.275
1818.44856	13688.475
1821.6242	13702.375
1824.79776	13674.875
1827.96924	13681.275
1831.13864	13679.775
1834.30597	13696.875
1837.47122	13668.175
1840.6344	13661.275
1843.7955	13674.875
1846.95454	13644.775
1850.11151	13651.275
1853.26642	13637.175
1856.41926	13673.175
1859.57004	13623.675
1862.71876	13624.375
1865.86542	13623.375
1869.01003	13640.175
1872.15258	13590.775
1875.29308	13602.075
1878.43152	13570.975
1881.56792	13539.275
1884.70227	13533.775
1887.83457	13555.175
1890.96482	13542.575
1894.09304	13513.275
1897.21921	13545.775
1900.34335	13493.275
1903.46544	13492.375
1906.58551	13482.275
1909.70353	13483.775
1912.81953	13464.275
1915.93349	13424.875
1919.04543	13444.375
1922.15534	13377.475
1925.26322	13382.775
1928.36908	13357.075
1931.47292	13345.175
1934.57473	13308.475
1937.67453	13283.475
1940.77232	13236.375
1943.86808	13203.775
1946.96184	13181.675
1950.05358	13116.675
1953.14331	13081.875
1956.23103	13053.375
1959.31675	13041.875
1962.40046	12992.475
1965.48217	12968.175
1968.56188	12928.375
1971.63959	12900.675
1974.7153	12865.175
1977.78901	12819.875
1980.86073	12783.975
1983.93046	12738.175
1986.99819	12704.175
1990.06394	12679.875
1993.1277	12641.675
1996.18947	12598.875
1999.24925	12565.375
2002.30706	12507.575
2005.36288	12486.975
2008.41672	12478.675
2011.46859	12462.275
2014.51848	12419.375
2017.56639	12378.975
2020.61233	12354.975
2023.6563	12347.375
2026.6983	12309.075
2029.73833	12284.375
2032.7764	12276.075
2035.8125	12254.275
2038.84664	12225.975
2041.87881	12208.775
2044.90903	12216.875
2047.93729	12170.075
2050.96359	12165.575
2053.98794	12137.475
2057.01034	12164.975
2060.03078	12159.575
2063.04927	12133.375
2066.06582	12128.475
2069.08042	12136.375
2072.09307	12094.975
2075.10378	12101.675
2078.11255	12077.775
2081.11938	12079.875
2084.12426	12083.875
2087.12722	12066.275
2090.12824	12082.575
2093.12732	12081.175
2096.12447	12111.075
2099.11969	12076.875
2102.11299	12105.775
2105.10435	12093.475
2108.09379	12088.575
2111.08131	12140.475
2114.0669	12142.475
2117.05057	12133.275
2120.03233	12125.775
2123.01216	12142.375
2125.99008	12150.275
2128.96609	12160.075
2131.94018	12181.175
2134.91236	12204.775
2137.88263	12188.775
2140.851	12196.975
2143.81746	12225.975
2146.78201	12215.175
2149.74466	12212.975
2152.7054	12233.475
2155.66425	12251.575
2158.6212	12251.775
2161.57625	12235.075
2164.52941	12235.475
2167.48067	12243.075
2170.43004	12210.575
2173.37752	12223.675
2176.32311	12222.475
2179.26681	12208.175
2182.20863	12212.875
2185.14856	12239.475
2188.08661	12197.275
2191.02278	12204.575
2193.95707	12206.775
2196.88948	12207.475
2199.82001	12201.275
2202.74867	12195.275
2205.67545	12213.375
2208.60037	12207.675
2211.52341	12180.875
2214.44458	12178.475
2217.36388	12162.375
2220.28132	12141.875
2223.1969	12108.475
2226.11061	12111.175
2229.02246	12096.875
2231.93245	12067.975
2234.84058	12035.775
2237.74686	12009.675
2240.65128	12010.875
2243.55385	11997.075
2246.45456	11944.475
2249.35343	11960.975
2252.25044	11929.875
2255.14561	11935.475
2258.03893	11916.975
2260.93041	11899.975
2263.82004	11874.175
2266.70783	11858.675
2269.59378	11817.975
2272.4779	11812.275
2275.36017	11781.375
2278.24061	11738.875
2281.11922	11718.675
2283.996	11703.875
2286.87094	11703.175
2289.74405	11684.375
2292.61534	11665.875
2295.4848	11675.175
2298.35243	11688.575
2301.21824	11666.675
2304.08223	11676.475
2306.94439	11651.375
2309.80474	11681.075
2312.66327	11689.275
2315.51999	11699.675
2318.37489	11688.075
2321.22797	11649.975
2324.07925	11658.575
2326.92871	11638.575
2329.77637	11638.975
2332.62222	11630.975
2335.46626	11621.675
2338.3085	11607.675
2341.14893	11633.675
2343.98756	11640.675
2346.8244	11589.675
2349.65943	11613.175
2352.49267	11622.075
2355.32411	11591.775
2358.15376	11583.175
2360.98161	11585.575
2363.80768	11591.275
2366.63195	11575.475
2369.45444	11550.275
2372.27514	11532.075
2375.09405	11517.975
2377.91118	11493.575
2380.72652	11457.275
2383.54009	11455.475
2386.35187	11435.175
2389.16188	11417.875
2391.97011	11396.175
2394.77657	11373.175
2397.58125	11364.975
2400.38416	11395.875
2403.18529	11348.675
2405.98466	11319.975
2408.78226	11306.175
2411.57809	11281.275
2414.37216	11269.275
2417.16446	11260.375
2419.955	11225.375
2422.74378	11233.975
2425.5308	11220.275
2428.31606	11211.475
2431.09956	11188.875
2433.88131	11202.375
2436.6613	11202.775
2439.43954	11200.575
2442.21603	11164.475
2444.99077	11154.775
2447.76377	11172.475
2450.53501	11148.675
2453.30451	11131.275
2456.07226	11135.175
2458.83827	11142.675
2461.60254	11142.275
2464.36507	11140.775
2467.12586	11105.775
2469.88492	11141.875
2472.64224	11150.975
2475.39782	11132.675
2478.15167	11142.475
2480.90379	11154.075
2483.65417	11154.575
2486.40283	11170.275
2489.14976	11185.675
2491.89497	11153.075
2494.63845	11194.475
2497.3802	11177.175
2500.12024	11159.075
2502.85855	11180.875
2505.59514	11165.675
2508.33002	11139.675
2511.06318	11129.375
2513.79462	11122.975
2516.52435	11102.875
2519.25237	11092.875
2521.97867	11107.175
2524.70327	11085.475
2527.42616	11085.375
2530.14734	11080.075
2532.86681	11068.575
2535.58458	11024.575
2538.30065	11046.675
2541.01501	11032.575
2543.72768	11027.775
2546.43864	11049.075
2549.14791	11016.775
2551.85548	11020.175
2554.56136	10977.875
2557.26554	10977.975
2559.96803	10967.775
2562.66883	10954.575
2565.36794	10967.075
2568.06536	10986.375
2570.7611	10956.875
2573.45514	10945.075
2576.14751	10963.375
2578.83819	10917.475
2581.52719	10916.875
2584.21451	10922.775
2586.90015	10942.475
2589.58411	10901.375
2592.2664	10879.775
2594.94701	10852.475
2597.62594	10879.875
2600.30321	10859.975
2602.9788	10857.775
2605.65273	10832.975
2608.32498	10810.275
2610.99557	10816.975
2613.66449	10837.575
2616.33175	10832.975
2618.99734	10829.775
2621.66128	10823.375
2624.32355	10839.075
2626.98416	10804.475
2629.64311	10825.075
2632.30041	10817.275
2634.95605	10827.975
2637.61004	10806.275
2640.26238	10779.975
2642.91306	10798.275
2645.56209	10789.175
2648.20948	10776.475
2650.85521	10736.675
2653.4993	10727.875
2656.14175	10760.675
2658.78255	10752.275
2661.42171	10748.975
2664.05923	10779.475
2666.6951	10754.675
2669.32934	10773.675
2671.96194	10768.875
2674.59291	10777.075
2677.22224	10754.375
2679.84993	10765.875
2682.476	10776.075
2685.10043	10743.175
2687.72324	10772.275
2690.34441	10773.475
2692.96396	10762.975
2695.58188	10779.375
2698.19818	10728.675
2700.81285	10754.575
2703.4259	10754.975
2706.03733	10831.375
2708.64714	10789.375
2711.25533	10800.975
2713.86191	10794.475
2716.46687	10807.175
2719.07021	10790.975
2721.67194	10811.875
2724.27206	10789.875
2726.87057	10768.775
2729.46747	10786.475
2732.06276	10797.175
2734.65644	10799.275
2737.24852	10810.175
2739.83899	10807.075
2742.42786	10794.975
2745.01513	10781.575
2747.60079	10766.275
2750.18486	10766.575
2752.76733	10800.075
2755.3482	10791.475
2757.92747	10769.975
2760.50515	10752.775
2763.08123	10760.275
2765.65573	10748.875
2768.22863	10738.975
2770.79994	10742.675
2773.36967	10729.275
2775.9378	10739.575
2778.50435	10722.475
2781.06932	10687.075
2783.6327	10716.675
2786.1945	10706.275
2788.75471	10692.575
2791.31335	10647.175
2793.87041	10662.575
2796.42589	10613.575
2798.97979	10622.875
2801.53212	10620.075
2804.08288	10609.775
2806.63206	10594.475
2809.17967	10539.175
2811.72571	10528.475
2814.27018	10539.075
2816.81308	10511.075
2819.35442	10517.275
2821.89419	10501.075
2824.43239	10487.275
2826.96904	10466.575
2829.50412	10463.675
2832.03763	10427.275
2834.56959	10442.675
2837.1	10414.875
2839.62884	10408.675
2842.15613	10410.275
2844.68186	10440.675
2847.20604	10429.875
2849.72867	10442.875
2852.24974	10421.775
2854.76927	10439.275
2857.28724	10403.675
2859.80367	10388.975
2862.31855	10394.475
2864.83189	10354.775
2867.34368	10379.975
2869.85393	10373.775
2872.36264	10364.075
2874.8698	10373.675
2877.37543	10361.775
2879.87952	10359.875
2882.38207	10365.075
2884.88308	10389.175
2887.38256	10401.375
2889.88051	10368.075
2892.37692	10388.575
2894.8718	10377.475
2897.36515	10392.775
2899.85698	10409.775
2902.34727	10413.975
2904.83604	10405.475
2907.32328	10441.775
2909.809	10442.975
2912.29319	10450.175
2914.77587	10452.475
2917.25702	10451.075
2919.73665	10408.075
2922.21476	10430.775
2924.69136	10452.575
2927.16644	10446.375
2929.64	10392.175
2932.11205	10396.075
2934.58258	10363.175
2937.05161	10408.575
2939.51912	10415.875
2941.98513	10396.075
2944.44962	10376.475
2946.91261	10333.675
2949.37409	10355.075
2951.83407	10354.475
2954.29254	10352.075
2956.74951	10300.975
2959.20498	10336.275
2961.65895	10345.375
2964.11142	10319.575
2966.56239	10300.175
2969.01186	10309.775
2971.45984	10236.875
2973.90632	10237.875
2976.35131	10219.375
2978.7948	10201.175
2981.23681	10172.975
2983.67732	10191.675
2986.11635	10160.675
2988.55388	10139.175
2990.98993	10113.775
2993.4245	10074.575
2995.85758	10100.075
2998.28917	10057.275
3000.71928	10039.475
3003.14791	10043.575
3005.57506	10018.475
3008.00073	10016.575
3010.42493	10011.775
3012.84764	9967.075
3015.26888	9966.575
3017.68865	9946.875
3020.10694	9948.475
3022.52376	9932.275
3024.9391	9929.075
3027.35298	9911.775
3029.76539	9917.775
3032.17632	9932.475
3034.5858	9925.275
3036.9938	9897.775
3039.40034	9907.975
3041.80542	9887.075
3044.20903	9889.575
3046.61118	9894.175
3049.01187	9846.275
3051.4111	9835.675
3053.80888	9832.875
3056.20519	9803.775
3058.60005	9793.775
3060.99345	9792.375
3063.3854	9772.675
3065.7759	9729.875
3068.16494	9731.275
3070.55254	9699.875
3072.93868	9700.275
3075.32338	9642.175
3077.70662	9633.175
3080.08842	9618.275
3082.46878	9628.275
3084.84769	9626.475
3087.22515	9607.575
3089.60118	9603.975
3091.97576	9617.975
3094.3489	9642.775
3096.72061	9599.275
3099.09087	9625.075
3101.4597	9605.275
3103.82709	9608.175
3106.19305	9576.375
3108.55757	9591.175
3110.92066	9572.975
3113.28232	9560.075
3115.64255	9535.875
3118.00134	9518.475
3120.35871	9517.475
3122.71466	9488.275
3125.06917	9487.275
3127.42226	9494.875
3129.77393	9497.775
3132.12417	9490.075
3134.47299	9494.875
