Data from AgNP_FTO_APTES_CRN_0uM_R6G_10uM_NaF_0.1M_Addition_RamanShift__19__11-51-52-918.txt Node

Date: Wed Dec 15 11:51:52 GMT 2021
User: TCL
Spectrometer: QEP01345
Trigger mode: 4
Integration Time (sec): 7.000000E0
Scans to average: 10
Electric dark correction enabled: true
Nonlinearity correction enabled: false
Boxcar width: 0
XAxis mode: Raman Shifts
Number of Pixels in Spectrum: 1044
>>>>>Begin Spectral Data<<<<<
46.04893	1.0125
50.45542	-0.7875
54.85868	0.9125
59.25871	0.8125
63.6555	61.8125
68.04907	66.1125
72.43941	70.6125
76.82654	75.1125
81.21044	79.2125
85.59113	84.9125
89.96862	91.3125
94.34289	90.1125
98.71396	94.8125
103.08183	101.6125
107.4465	100.9125
111.80798	99.2125
116.16626	104.2125
120.52136	103.5125
124.87327	103.0125
129.222	103.3125
133.56755	104.8125
137.90993	111.9125
142.24913	113.6125
146.58517	114.8125
150.91804	126.4125
155.24774	144.2125
159.57429	162.8125
163.89768	196.8125
168.21792	243.8125
172.53501	314.8125
176.84895	420.6125
181.15975	567.9125
185.46741	776.2125
189.77193	1055.5125
194.07331	1418.6125
198.37157	1812.3125
202.6667	2235.3125
206.9587	2678.0125
211.24758	3119.0125
215.53334	3547.9125
219.81599	4033.3125
224.09553	4561.5125
228.37195	5154.1125
232.64527	5775.5125
236.91549	6386.6125
241.18261	6942.3125
245.44663	7375.4125
249.70755	7716.0125
253.96539	7936.1125
258.22014	8149.5125
262.4718	8346.2125
266.72039	8468.3125
270.96589	8482.8125
275.20832	8415.2125
279.44768	8240.1125
283.68397	8029.8125
287.91719	7844.1125
292.14735	7790.5125
296.37445	7837.2125
300.59849	8060.4125
304.81948	8325.9125
309.03742	8613.0125
313.25231	8696.2125
317.46415	8543.6125
321.67296	8191.4125
325.87872	7865.9125
330.08145	7690.7125
334.28114	7673.8125
338.47781	7700.1125
342.67145	7837.4125
346.86207	7985.9125
351.04966	8230.5125
355.23424	8540.2125
359.4158	8743.0125
363.59435	8865.4125
367.76989	8868.9125
371.94243	8824.7125
376.11196	8747.0125
380.27849	8744.7125
384.44203	8696.6125
388.60257	8605.9125
392.76012	8528.1125
396.91468	8565.9125
401.06626	8684.9125
405.21485	8775.6125
409.36047	8651.0125
413.50311	8223.9125
417.64277	7866.4125
421.77947	7693.2125
425.9132	7666.8125
430.04396	7694.1125
434.17176	7788.2125
438.2966	7966.5125
442.41849	8284.2125
446.53742	8715.1125
450.6534	9127.2125
454.76644	9258.2125
458.87653	9051.1125
462.98368	8723.1125
467.08789	8363.2125
471.18916	8091.2125
475.2875	7793.3125
479.38291	7574.1125
483.4754	7422.2125
487.56496	7359.1125
491.6516	7338.0125
495.73531	7383.9125
499.81612	7434.2125
503.89401	7568.6125
507.96899	7688.6125
512.04106	7807.4125
516.11023	7973.0125
520.1765	8126.7125
524.23987	8203.8125
528.30034	8201.4125
532.35792	8143.1125
536.41261	7941.6125
540.46441	7677.6125
544.51333	7506.3125
548.55936	7518.1125
552.60252	7699.4125
556.64279	7969.5125
560.6802	8174.2125
564.71473	8151.0125
568.7464	8157.7125
572.7752	8201.0125
576.80114	8024.1125
580.82422	7878.2125
584.84444	8010.5125
588.86181	8631.9125
592.87633	9635.5125
596.888	10309.1125
600.89682	9919.1125
604.9028	9763.0125
608.90594	11279.0125
612.90624	13795.6125
616.90371	13371.6125
620.89834	9691.9125
624.89015	7710.6125
628.87913	7262.6125
632.86528	7255.9125
636.84862	7317.2125
640.82913	7233.3125
644.80683	6965.8125
648.78172	6784.5125
652.75379	6790.9125
656.72306	7048.2125
660.68952	7336.2125
664.65319	7227.7125
668.61405	6864.2125
672.57211	6689.7125
676.52738	6709.9125
680.47986	6712.9125
684.42955	6626.2125
688.37646	6563.7125
692.32058	6540.5125
696.26192	6612.6125
700.20048	6748.5125
704.13626	6812.1125
708.06928	6801.9125
711.99952	6804.8125
715.927	6842.5125
719.85171	6902.2125
723.77365	6903.2125
727.69284	6849.5125
731.60928	6790.2125
735.52295	6805.3125
739.43388	6853.4125
743.34206	6878.0125
747.24749	6880.4125
751.15017	6902.2125
755.05012	7011.0125
758.94733	7258.5125
762.8418	7964.8125
766.73354	9266.5125
770.62254	10728.7125
774.50882	11447.3125
778.39237	10866.5125
782.27321	9470.6125
786.15132	8129.0125
790.02671	7336.9125
793.89938	6952.2125
797.76935	6793.6125
801.6366	6697.6125
805.50115	6618.6125
809.36299	6515.5125
813.22213	6508.7125
817.07857	6450.1125
820.93231	6430.8125
824.78336	6420.1125
828.63172	6420.6125
832.47738	6422.7125
836.32036	6439.7125
840.16066	6446.0125
843.99827	6436.7125
847.8332	6421.3125
851.66546	6430.1125
855.49504	6437.5125
859.32195	6408.3125
863.1462	6368.5125
866.96777	6353.2125
870.78668	6350.0125
874.60293	6342.5125
878.41652	6368.1125
882.22745	6425.9125
886.03573	6465.5125
889.84136	6488.6125
893.64433	6490.9125
897.44466	6509.6125
901.24235	6571.0125
905.0374	6579.1125
908.8298	6594.8125
912.61957	6658.5125
916.40671	6766.7125
920.19121	6890.2125
923.97308	7031.0125
927.75233	7172.8125
931.52895	7196.4125
935.30295	7064.0125
939.07433	6822.5125
942.84309	6587.9125
946.60924	6416.7125
950.37278	6324.2125
954.13371	6236.0125
957.89203	6158.2125
961.64774	6069.2125
965.40086	6056.7125
969.15137	5977.7125
972.89929	5957.4125
976.64461	5940.8125
980.38733	5929.2125
984.12747	5925.8125
987.86502	5978.2125
991.59999	6008.0125
995.33237	6107.0125
999.06217	6249.6125
1002.78939	6412.3125
1006.51404	6588.2125
1010.23611	6762.4125
1013.95561	6834.5125
1017.67255	6839.6125
1021.38692	6688.5125
1025.09872	6459.9125
1028.80796	6280.4125
1032.51465	6201.2125
1036.21877	6218.3125
1039.92035	6289.8125
1043.61937	6353.5125
1047.31584	6422.2125
1051.00976	6487.3125
1054.70114	6536.8125
1058.38998	6566.0125
1062.07627	6612.7125
1065.76003	6678.6125
1069.44126	6749.2125
1073.11995	6857.3125
1076.79611	6988.6125
1080.46974	7076.9125
1084.14085	7139.9125
1087.80943	7186.6125
1091.47549	7163.9125
1095.13903	6960.4125
1098.80005	6642.7125
1102.45857	6377.1125
1106.11456	6290.2125
1109.76805	6293.7125
1113.41903	6416.4125
1117.06751	6612.0125
1120.71348	6839.2125
1124.35696	7084.5125
1127.99793	7300.2125
1131.63641	7343.4125
1135.2724	7057.5125
1138.90589	6726.5125
1142.5369	6507.2125
1146.16542	6375.0125
1149.79145	6324.4125
1153.415	6284.4125
1157.03607	6300.3125
1160.65467	6400.2125
1164.27079	6680.6125
1167.88443	7167.0125
1171.49561	7997.4125
1175.10432	9225.8125
1178.71056	10880.4125
1182.31434	12292.9125
1185.91565	12582.4125
1189.51451	11814.6125
1193.11091	10680.4125
1196.70485	9688.9125
1200.29634	8915.2125
1203.88538	8254.2125
1207.47197	7590.8125
1211.05612	7087.8125
1214.63782	6828.6125
1218.21708	6838.6125
1221.79391	7048.0125
1225.36829	7296.8125
1228.94024	7366.3125
1232.50976	7153.0125
1236.07685	6860.8125
1239.6415	6665.9125
1243.20374	6541.0125
1246.76355	6486.0125
1250.32093	6546.5125
1253.8759	6653.3125
1257.42845	6879.0125
1260.97859	7111.3125
1264.52631	7418.4125
1268.07163	7715.6125
1271.61453	7924.6125
1275.15503	8166.1125
1278.69312	8315.1125
1282.22882	8506.9125
1285.76211	8898.1125
1289.29301	9467.7125
1292.82151	10051.5125
1296.34761	10664.9125
1299.87133	11382.8125
1303.39266	12389.0125
1306.9116	13759.6125
1310.42815	15560.6125
1313.94233	16860.8125
1317.45412	16710.5125
1320.96354	15296.7125
1324.47058	13456.8125
1327.97525	11830.6125
1331.47754	10661.8125
1334.97747	10116.3125
1338.47502	9917.4125
1341.97022	9888.3125
1345.46305	10130.8125
1348.95352	10958.4125
1352.44163	12396.0125
1355.92738	14433.8125
1359.41078	17124.3125
1362.89183	19733.2125
1366.37053	20091.0125
1369.84688	17232.6125
1373.32088	13406.3125
1376.79254	10903.5125
1380.26186	9793.1125
1383.72883	9432.7125
1387.19347	9091.4125
1390.65578	8660.3125
1394.11575	8428.3125
1397.57339	8400.8125
1401.0287	8504.2125
1404.48168	8565.9125
1407.93234	8493.2125
1411.38068	8358.0125
1414.82669	8195.7125
1418.27039	8031.3125
1421.71177	7882.8125
1425.15083	7660.8125
1428.58758	7558.8125
1432.02203	7646.2125
1435.45416	7871.9125
1438.88399	8057.0125
1442.31151	8107.4125
1445.73673	8111.6125
1449.15965	8074.8125
1452.58027	7947.1125
1455.9986	7687.1125
1459.41463	7507.4125
1462.82837	7542.4125
1466.23982	7763.8125
1469.64898	8054.6125
1473.05586	8240.9125
1476.46045	8372.9125
1479.86276	8531.7125
1483.26279	8631.3125
1486.66054	8752.2125
1490.05602	8973.9125
1493.44922	9240.6125
1496.84016	9670.3125
1500.22882	10475.2125
1503.61521	11693.0125
1506.99934	13254.6125
1510.38121	14762.2125
1513.76081	15465.7125
1517.13816	14712.5125
1520.51324	12866.3125
1523.88607	11002.5125
1527.25665	9808.6125
1530.62498	9258.0125
1533.99105	8931.6125
1537.35488	8641.4125
1540.71647	8348.6125
1544.07581	8095.1125
1547.4329	7893.6125
1550.78776	7704.6125
1554.14038	7587.1125
1557.49077	7580.3125
1560.83892	7645.7125
1564.18484	7874.5125
1567.52853	8236.7125
1570.86999	8698.0125
1574.20922	9117.7125
1577.54624	9354.7125
1580.88103	9062.0125
1584.2136	8445.0125
1587.54395	7934.6125
1590.87208	7844.8125
1594.19801	8317.6125
1597.52172	9218.4125
1600.84321	9892.9125
1604.16251	9711.1125
1607.47959	8816.9125
1610.79447	7741.1125
1614.10715	6791.5125
1617.41763	6155.1125
1620.7259	5786.1125
1624.03199	5610.8125
1627.33587	5632.3125
1630.63757	5782.2125
1633.93707	6157.6125
1637.23439	6895.9125
1640.52951	8137.4125
1643.82246	9964.7125
1647.11321	11921.0125
1650.40179	12886.6125
1653.68819	12044.8125
1656.97241	9929.9125
1660.25446	7772.2125
1663.53433	6324.0125
1666.81203	5485.6125
1670.08756	5020.9125
1673.36092	4731.1125
1676.63211	4562.9125
1679.90115	4459.3125
1683.16801	4367.2125
1686.43272	4296.7125
1689.69527	4250.8125
1692.95567	4203.7125
1696.2139	4159.8125
1699.46999	4148.3125
1702.72392	4131.4125
1705.97571	4139.5125
1709.22535	4111.0125
1712.47284	4118.4125
1715.71819	4113.5125
1718.96139	4098.3125
1722.20246	4073.2125
1725.44139	4039.5125
1728.67818	3988.1125
1731.91284	3976.8125
1735.14537	3926.0125
1738.37576	3897.4125
1741.60403	3871.0125
1744.83017	3863.9125
1748.05418	3841.0125
1751.27607	3815.9125
1754.49584	3804.9125
1757.71349	3769.6125
1760.92903	3751.6125
1764.14244	3736.3125
1767.35375	3739.2125
1770.56294	3723.9125
1773.77002	3710.7125
1776.97499	3711.6125
1780.17785	3682.9125
1783.37861	3681.5125
1786.57727	3666.5125
1789.77382	3646.2125
1792.96828	3649.6125
1796.16064	3631.1125
1799.3509	3618.9125
1802.53907	3607.3125
1805.72514	3593.7125
1808.90913	3575.4125
1812.09102	3568.1125
1815.27083	3557.7125
1818.44856	3537.0125
1821.6242	3546.4125
1824.79776	3529.1125
1827.96924	3514.9125
1831.13864	3505.9125
1834.30597	3507.7125
1837.47122	3508.4125
1840.6344	3491.8125
1843.7955	3491.1125
1846.95454	3497.5125
1850.11151	3478.7125
1853.26642	3465.2125
1856.41926	3447.0125
1859.57004	3452.0125
1862.71876	3441.3125
1865.86542	3433.2125
1869.01003	3444.8125
1872.15258	3427.1125
1875.29308	3430.7125
1878.43152	3424.8125
1881.56792	3428.9125
1884.70227	3430.0125
1887.83457	3428.0125
1890.96482	3424.3125
1894.09304	3427.4125
1897.21921	3411.9125
1900.34335	3414.2125
1903.46544	3408.7125
1906.58551	3387.5125
1909.70353	3404.4125
1912.81953	3388.3125
1915.93349	3385.8125
1919.04543	3371.2125
1922.15534	3354.6125
1925.26322	3338.6125
1928.36908	3322.3125
1931.47292	3308.5125
1934.57473	3298.5125
1937.67453	3275.4125
1940.77232	3251.5125
1943.86808	3253.5125
1946.96184	3249.0125
1950.05358	3238.2125
1953.14331	3227.9125
1956.23103	3191.1125
1959.31675	3195.6125
1962.40046	3183.5125
1965.48217	3175.0125
1968.56188	3171.5125
1971.63959	3172.5125
1974.7153	3126.9125
1977.78901	3137.8125
1980.86073	3128.1125
1983.93046	3109.3125
1986.99819	3097.7125
1990.06394	3082.9125
1993.1277	3075.4125
1996.18947	3055.6125
1999.24925	3042.0125
2002.30706	3043.6125
2005.36288	3032.0125
2008.41672	3023.6125
2011.46859	3009.6125
2014.51848	2990.0125
2017.56639	2983.5125
2020.61233	2977.3125
2023.6563	2952.6125
2026.6983	2945.4125
2029.73833	2935.9125
2032.7764	2941.0125
2035.8125	2924.3125
2038.84664	2919.9125
2041.87881	2923.5125
2044.90903	2913.5125
2047.93729	2900.4125
2050.96359	2892.5125
2053.98794	2893.4125
2057.01034	2876.9125
2060.03078	2881.9125
2063.04927	2873.0125
2066.06582	2874.4125
2069.08042	2868.4125
2072.09307	2860.1125
2075.10378	2862.0125
2078.11255	2852.5125
2081.11938	2850.9125
2084.12426	2851.6125
2087.12722	2852.4125
2090.12824	2854.2125
2093.12732	2841.0125
2096.12447	2846.9125
2099.11969	2832.9125
2102.11299	2839.6125
2105.10435	2838.1125
2108.09379	2838.9125
2111.08131	2838.2125
2114.0669	2838.8125
2117.05057	2829.1125
2120.03233	2821.5125
2123.01216	2832.5125
2125.99008	2826.2125
2128.96609	2829.2125
2131.94018	2834.0125
2134.91236	2831.0125
2137.88263	2830.8125
2140.851	2825.0125
2143.81746	2828.3125
2146.78201	2819.3125
2149.74466	2814.2125
2152.7054	2823.1125
2155.66425	2813.2125
2158.6212	2807.0125
2161.57625	2805.8125
2164.52941	2791.1125
2167.48067	2799.1125
2170.43004	2793.0125
2173.37752	2786.4125
2176.32311	2786.4125
2179.26681	2790.7125
2182.20863	2786.8125
2185.14856	2784.6125
2188.08661	2778.7125
2191.02278	2794.5125
2193.95707	2786.3125
2196.88948	2783.7125
2199.82001	2785.6125
2202.74867	2770.4125
2205.67545	2759.4125
2208.60037	2746.6125
2211.52341	2749.6125
2214.44458	2739.8125
2217.36388	2726.2125
2220.28132	2739.0125
2223.1969	2728.5125
2226.11061	2714.1125
2229.02246	2708.5125
2231.93245	2703.7125
2234.84058	2686.8125
2237.74686	2691.0125
2240.65128	2689.1125
2243.55385	2693.5125
2246.45456	2672.4125
2249.35343	2673.0125
2252.25044	2679.9125
2255.14561	2657.9125
2258.03893	2660.3125
2260.93041	2663.6125
2263.82004	2655.8125
2266.70783	2650.2125
2269.59378	2625.5125
2272.4779	2645.1125
2275.36017	2629.9125
2278.24061	2605.6125
2281.11922	2603.7125
2283.996	2597.8125
2286.87094	2592.8125
2289.74405	2576.8125
2292.61534	2576.7125
2295.4848	2551.9125
2298.35243	2565.0125
2301.21824	2555.9125
2304.08223	2552.1125
2306.94439	2552.4125
2309.80474	2549.2125
2312.66327	2549.8125
2315.51999	2541.0125
2318.37489	2540.7125
2321.22797	2535.9125
2324.07925	2528.6125
2326.92871	2524.2125
2329.77637	2523.8125
2332.62222	2526.4125
2335.46626	2515.8125
2338.3085	2509.2125
2341.14893	2506.4125
2343.98756	2516.1125
2346.8244	2495.5125
2349.65943	2494.6125
2352.49267	2502.8125
2355.32411	2496.3125
2358.15376	2502.7125
2360.98161	2507.9125
2363.80768	2522.1125
2366.63195	2518.6125
2369.45444	2529.8125
2372.27514	2518.0125
2375.09405	2515.7125
2377.91118	2511.6125
2380.72652	2494.6125
2383.54009	2476.1125
2386.35187	2473.6125
2389.16188	2448.4125
2391.97011	2451.2125
2394.77657	2438.3125
2397.58125	2433.7125
2400.38416	2422.2125
2403.18529	2416.2125
2405.98466	2398.3125
2408.78226	2390.3125
2411.57809	2396.8125
2414.37216	2386.4125
2417.16446	2383.3125
2419.955	2383.5125
2422.74378	2383.5125
2425.5308	2375.6125
2428.31606	2384.5125
2431.09956	2364.9125
2433.88131	2365.9125
2436.6613	2359.9125
2439.43954	2374.8125
2442.21603	2371.6125
2444.99077	2365.6125
2447.76377	2365.3125
2450.53501	2367.4125
2453.30451	2363.1125
2456.07226	2369.7125
2458.83827	2362.1125
2461.60254	2364.9125
2464.36507	2354.2125
2467.12586	2358.2125
2469.88492	2348.0125
2472.64224	2348.7125
2475.39782	2346.2125
2478.15167	2351.3125
2480.90379	2362.5125
2483.65417	2353.4125
2486.40283	2363.3125
2489.14976	2360.0125
2491.89497	2368.2125
2494.63845	2372.5125
2497.3802	2372.2125
2500.12024	2363.2125
2502.85855	2362.9125
2505.59514	2346.6125
2508.33002	2334.7125
2511.06318	2310.6125
2513.79462	2312.4125
2516.52435	2296.5125
2519.25237	2286.6125
2521.97867	2285.6125
2524.70327	2270.3125
2527.42616	2265.0125
2530.14734	2258.8125
2532.86681	2264.9125
2535.58458	2255.1125
2538.30065	2251.4125
2541.01501	2256.9125
2543.72768	2254.0125
2546.43864	2241.0125
2549.14791	2246.5125
2551.85548	2256.1125
2554.56136	2239.1125
2557.26554	2239.4125
2559.96803	2234.4125
2562.66883	2238.4125
2565.36794	2233.9125
2568.06536	2246.8125
2570.7611	2235.1125
2573.45514	2226.2125
2576.14751	2233.6125
2578.83819	2228.9125
2581.52719	2220.0125
2584.21451	2208.2125
2586.90015	2204.8125
2589.58411	2207.9125
2592.2664	2199.7125
2594.94701	2190.6125
2597.62594	2192.8125
2600.30321	2190.9125
2602.9788	2178.6125
2605.65273	2181.4125
2608.32498	2173.6125
2610.99557	2179.0125
2613.66449	2180.4125
2616.33175	2172.7125
2618.99734	2187.3125
2621.66128	2162.7125
2624.32355	2167.4125
2626.98416	2168.4125
2629.64311	2170.3125
2632.30041	2155.0125
2634.95605	2158.2125
2637.61004	2144.5125
2640.26238	2143.4125
2642.91306	2142.5125
2645.56209	2147.8125
2648.20948	2146.0125
2650.85521	2144.8125
2653.4993	2130.0125
2656.14175	2149.1125
2658.78255	2160.4125
2661.42171	2144.5125
2664.05923	2159.0125
2666.6951	2163.6125
2669.32934	2164.2125
2671.96194	2144.6125
2674.59291	2153.8125
2677.22224	2161.3125
2679.84993	2156.7125
2682.476	2170.7125
2685.10043	2160.5125
2687.72324	2158.7125
2690.34441	2162.4125
2692.96396	2155.7125
2695.58188	2153.9125
2698.19818	2156.5125
2700.81285	2163.3125
2703.4259	2156.2125
2706.03733	2147.1125
2708.64714	2154.3125
2711.25533	2174.4125
2713.86191	2169.8125
2716.46687	2179.7125
2719.07021	2199.1125
2721.67194	2193.5125
2724.27206	2193.5125
2726.87057	2203.0125
2729.46747	2205.3125
2732.06276	2214.1125
2734.65644	2219.6125
2737.24852	2220.7125
2739.83899	2208.6125
2742.42786	2233.4125
2745.01513	2218.5125
2747.60079	2235.3125
2750.18486	2225.2125
2752.76733	2243.5125
2755.3482	2248.3125
2757.92747	2253.4125
2760.50515	2257.5125
2763.08123	2260.7125
2765.65573	2251.0125
2768.22863	2251.0125
2770.79994	2247.0125
2773.36967	2251.4125
2775.9378	2245.9125
2778.50435	2253.7125
2781.06932	2247.2125
2783.6327	2261.9125
2786.1945	2260.2125
2788.75471	2265.9125
2791.31335	2262.2125
2793.87041	2267.6125
2796.42589	2272.1125
2798.97979	2270.0125
2801.53212	2276.8125
2804.08288	2275.1125
2806.63206	2273.8125
2809.17967	2266.9125
2811.72571	2273.1125
2814.27018	2274.9125
2816.81308	2273.7125
2819.35442	2277.1125
2821.89419	2266.5125
2824.43239	2279.1125
2826.96904	2280.5125
2829.50412	2289.8125
2832.03763	2299.0125
2834.56959	2293.6125
2837.1	2320.7125
2839.62884	2325.4125
2842.15613	2345.3125
2844.68186	2386.2125
2847.20604	2404.5125
2849.72867	2450.1125
2852.24974	2469.1125
2854.76927	2489.3125
2857.28724	2503.2125
2859.80367	2535.5125
2862.31855	2555.2125
2864.83189	2576.6125
2867.34368	2607.2125
2869.85393	2621.5125
2872.36264	2624.9125
2874.8698	2661.9125
2877.37543	2682.9125
2879.87952	2694.7125
2882.38207	2720.1125
2884.88308	2722.2125
2887.38256	2738.0125
2889.88051	2745.6125
2892.37692	2751.1125
2894.8718	2757.6125
2897.36515	2745.1125
2899.85698	2767.7125
2902.34727	2762.1125
2904.83604	2746.2125
2907.32328	2748.9125
2909.809	2758.9125
2912.29319	2749.2125
2914.77587	2755.1125
2917.25702	2759.3125
2919.73665	2737.5125
2922.21476	2740.6125
2924.69136	2738.8125
2927.16644	2726.7125
2929.64	2705.1125
2932.11205	2694.2125
2934.58258	2674.6125
2937.05161	2658.6125
2939.51912	2635.1125
2941.98513	2594.6125
2944.44962	2553.8125
2946.91261	2514.0125
2949.37409	2488.2125
2951.83407	2452.7125
2954.29254	2414.2125
2956.74951	2384.8125
2959.20498	2367.3125
2961.65895	2330.3125
2964.11142	2299.7125
2966.56239	2266.3125
2969.01186	2243.9125
2971.45984	2214.4125
2973.90632	2193.2125
2976.35131	2165.3125
2978.7948	2137.3125
2981.23681	2124.7125
2983.67732	2101.2125
2986.11635	2079.2125
2988.55388	2063.4125
2990.98993	2040.8125
2993.4245	2036.2125
2995.85758	2025.0125
2998.28917	2018.7125
3000.71928	2011.6125
3003.14791	2009.0125
3005.57506	2004.0125
3008.00073	1996.2125
3010.42493	1993.0125
3012.84764	1980.5125
3015.26888	1968.9125
3017.68865	1970.0125
3020.10694	1958.6125
3022.52376	1947.0125
3024.9391	1951.5125
3027.35298	1948.0125
3029.76539	1950.3125
3032.17632	1934.7125
3034.5858	1932.8125
3036.9938	1923.1125
3039.40034	1932.4125
3041.80542	1934.3125
3044.20903	1924.3125
3046.61118	1928.2125
3049.01187	1922.3125
3051.4111	1911.9125
3053.80888	1903.8125
3056.20519	1911.6125
3058.60005	1922.5125
3060.99345	1928.3125
3063.3854	1925.7125
3065.7759	1908.8125
3068.16494	1923.9125
3070.55254	1924.3125
3072.93868	1908.0125
3075.32338	1910.3125
3077.70662	1910.2125
3080.08842	1897.1125
3082.46878	1913.3125
3084.84769	1909.3125
3087.22515	1901.1125
3089.60118	1911.7125
3091.97576	1908.7125
3094.3489	1905.2125
3096.72061	1908.0125
3099.09087	1919.0125
3101.4597	1915.5125
3103.82709	1928.6125
3106.19305	1919.7125
3108.55757	1931.0125
3110.92066	1924.7125
3113.28232	1918.9125
3115.64255	1924.5125
3118.00134	1927.4125
3120.35871	1930.3125
