Data from AgNP_FTO_APTES_CRN_1000uM_R6G_10uM_NaF_0.1M_Addition_RamanShift__15__21-07-48-282.txt Node

Date: Wed Dec 15 21:07:48 GMT 2021
User: TCL
Spectrometer: QEP01345
Trigger mode: 4
Integration Time (sec): 7.000000E0
Scans to average: 10
Electric dark correction enabled: true
Nonlinearity correction enabled: false
Boxcar width: 0
XAxis mode: Raman Shifts
Number of Pixels in Spectrum: 1044
>>>>>Begin Spectral Data<<<<<
46.04893	1.175
50.45542	-1.625
54.85868	-0.225
59.25871	-0.225
63.6555	42.475
68.04907	46.475
72.43941	48.675
76.82654	52.975
81.21044	56.075
85.59113	55.975
89.96862	61.375
94.34289	59.475
98.71396	63.875
103.08183	66.975
107.4465	72.675
111.80798	72.175
116.16626	79.275
120.52136	75.775
124.87327	73.075
129.222	80.675
133.56755	79.475
137.90993	88.475
142.24913	94.875
146.58517	106.275
150.91804	121.375
155.24774	139.475
159.57429	174.075
163.89768	214.275
168.21792	284.875
172.53501	379.475
176.84895	531.175
181.15975	744.275
185.46741	1043.575
189.77193	1434.675
194.07331	1939.875
198.37157	2525.075
202.6667	3143.775
206.9587	3755.975
211.24758	4337.875
215.53334	4924.375
219.81599	5555.075
224.09553	6224.275
228.37195	6963.175
232.64527	7775.175
236.91549	8644.575
241.18261	9521.375
245.44663	10382.775
249.70755	11128.575
253.96539	11735.575
258.22014	12210.975
262.4718	12573.375
266.72039	12757.675
270.96589	12869.875
275.20832	12830.575
279.44768	12732.975
283.68397	12601.075
287.91719	12474.375
292.14735	12394.375
296.37445	12315.175
300.59849	12253.175
304.81948	12191.975
309.03742	12084.975
313.25231	11974.075
317.46415	11813.475
321.67296	11575.175
325.87872	11421.075
330.08145	11359.275
334.28114	11398.675
338.47781	11478.575
342.67145	11590.475
346.86207	11685.075
351.04966	11847.775
355.23424	11958.875
359.4158	12078.775
363.59435	12200.975
367.76989	12264.275
371.94243	12328.175
376.11196	12368.775
380.27849	12477.075
384.44203	12552.175
388.60257	12607.775
392.76012	12730.275
396.91468	12862.575
401.06626	13027.075
405.21485	13150.075
409.36047	13217.275
413.50311	13155.775
417.64277	13081.275
421.77947	13045.675
425.9132	13081.575
430.04396	13165.775
434.17176	13231.375
438.2966	13338.575
442.41849	13464.675
446.53742	13598.375
450.6534	13794.375
454.76644	13922.475
458.87653	14003.575
462.98368	14070.975
467.08789	14083.775
471.18916	14083.375
475.2875	14062.275
479.38291	14011.275
483.4754	13988.275
487.56496	13910.775
491.6516	13847.575
495.73531	13824.475
499.81612	13781.775
503.89401	13855.875
507.96899	13853.775
512.04106	13914.275
516.11023	13926.175
520.1765	13935.175
524.23987	13905.275
528.30034	13869.475
532.35792	13801.175
536.41261	13732.675
540.46441	13688.775
544.51333	13726.475
548.55936	13834.875
552.60252	14017.375
556.64279	14140.675
560.6802	14246.275
564.71473	14331.075
568.7464	14454.675
572.7752	14641.575
576.80114	14787.275
580.82422	14974.175
584.84444	15072.575
588.86181	15056.775
592.87633	14954.775
596.888	14890.075
600.89682	14969.775
604.9028	15144.575
608.90594	15706.075
612.90624	16287.675
616.90371	15751.175
620.89834	14534.375
624.89015	13959.875
628.87913	13865.375
632.86528	13965.175
636.84862	14048.875
640.82913	13995.075
644.80683	13852.775
648.78172	13751.875
652.75379	13735.075
656.72306	13768.775
660.68952	13931.275
664.65319	13946.975
668.61405	13907.975
672.57211	13959.575
676.52738	14030.775
680.47986	14087.475
684.42955	14098.675
688.37646	14101.575
692.32058	14094.875
696.26192	14107.275
700.20048	14144.775
704.13626	14175.275
708.06928	14214.375
711.99952	14201.575
715.927	14121.675
719.85171	14101.175
723.77365	13998.375
727.69284	13946.375
731.60928	13793.675
735.52295	13731.275
739.43388	13709.375
743.34206	13719.475
747.24749	13739.475
751.15017	13791.275
755.05012	13865.975
758.94733	14055.175
762.8418	14403.475
766.73354	15000.775
770.62254	15490.375
774.50882	15600.675
778.39237	15224.375
782.27321	14651.875
786.15132	14163.475
790.02671	13834.775
793.89938	13647.875
797.76935	13550.675
801.6366	13519.475
805.50115	13481.575
809.36299	13469.175
813.22213	13420.175
817.07857	13439.175
820.93231	13437.075
824.78336	13436.275
828.63172	13409.275
832.47738	13407.675
836.32036	13404.975
840.16066	13392.175
843.99827	13349.175
847.8332	13347.675
851.66546	13372.075
855.49504	13372.875
859.32195	13372.875
863.1462	13376.575
866.96777	13354.075
870.78668	13372.175
874.60293	13361.275
878.41652	13384.275
882.22745	13429.275
886.03573	13437.675
889.84136	13439.075
893.64433	13455.175
897.44466	13427.375
901.24235	13397.075
905.0374	13390.875
908.8298	13409.975
912.61957	13411.075
916.40671	13483.375
920.19121	13541.775
923.97308	13553.975
927.75233	13544.975
931.52895	13531.475
935.30295	13421.175
939.07433	13311.675
942.84309	13203.475
946.60924	13124.975
950.37278	13072.775
954.13371	13043.575
957.89203	13005.175
961.64774	12996.175
965.40086	13002.375
969.15137	12966.575
972.89929	12925.575
976.64461	12898.575
980.38733	12875.975
984.12747	12899.375
987.86502	12927.375
991.59999	12922.075
995.33237	12948.575
999.06217	13018.975
1002.78939	13104.675
1006.51404	13147.175
1010.23611	13263.975
1013.95561	13332.175
1017.67255	13324.675
1021.38692	13312.075
1025.09872	13264.675
1028.80796	13174.775
1032.51465	13185.675
1036.21877	13181.375
1039.92035	13219.675
1043.61937	13285.275
1047.31584	13324.775
1051.00976	13414.575
1054.70114	13467.375
1058.38998	13556.875
1062.07627	13688.275
1065.76003	13906.875
1069.44126	14071.275
1073.11995	14281.675
1076.79611	14358.575
1080.46974	14362.175
1084.14085	14221.175
1087.80943	14156.375
1091.47549	14098.575
1095.13903	14099.975
1098.80005	14013.975
1102.45857	13884.575
1106.11456	13713.275
1109.76805	13571.075
1113.41903	13516.675
1117.06751	13535.375
1120.71348	13593.375
1124.35696	13680.575
1127.99793	13837.775
1131.63641	13890.375
1135.2724	13829.975
1138.90589	13756.775
1142.5369	13707.675
1146.16542	13700.075
1149.79145	13712.975
1153.415	13763.475
1157.03607	13860.875
1160.65467	14001.075
1164.27079	14229.575
1167.88443	14457.475
1171.49561	14819.475
1175.10432	15279.575
1178.71056	15871.575
1182.31434	16469.275
1185.91565	16838.075
1189.51451	16987.875
1193.11091	16975.375
1196.70485	16748.875
1200.29634	16359.575
1203.88538	16025.575
1207.47197	15647.575
1211.05612	15385.775
1214.63782	15188.175
1218.21708	15008.275
1221.79391	14806.575
1225.36829	14637.375
1228.94024	14584.175
1232.50976	14593.475
1236.07685	14579.175
1239.6415	14622.475
1243.20374	14639.775
1246.76355	14694.675
1250.32093	14740.175
1253.8759	14879.875
1257.42845	15066.475
1260.97859	15279.475
1264.52631	15459.775
1268.07163	15628.075
1271.61453	15774.475
1275.15503	15946.675
1278.69312	16073.375
1282.22882	16183.675
1285.76211	16337.175
1289.29301	16572.475
1292.82151	16818.675
1296.34761	17112.075
1299.87133	17477.275
1303.39266	17871.375
1306.9116	18302.975
1310.42815	18690.575
1313.94233	18898.575
1317.45412	18895.275
1320.96354	18843.575
1324.47058	18764.075
1327.97525	18752.475
1331.47754	18803.375
1334.97747	18927.875
1338.47502	19158.575
1341.97022	19436.875
1345.46305	19710.675
1348.95352	19843.775
1352.44163	19852.675
1355.92738	19801.375
1359.41078	19826.975
1362.89183	19888.075
1366.37053	19525.375
1369.84688	18639.675
1373.32088	17658.275
1376.79254	16927.175
1380.26186	16518.975
1383.72883	16334.975
1387.19347	16195.175
1390.65578	16090.075
1394.11575	15929.275
1397.57339	15797.175
1401.0287	15729.375
1404.48168	15611.875
1407.93234	15537.275
1411.38068	15379.575
1414.82669	15177.175
1418.27039	14898.075
1421.71177	14636.275
1425.15083	14350.975
1428.58758	14191.575
1432.02203	14179.375
1435.45416	14228.175
1438.88399	14319.275
1442.31151	14357.575
1445.73673	14488.475
1449.15965	14604.775
1452.58027	14703.475
1455.9986	14829.575
1459.41463	14955.675
1462.82837	15136.075
1466.23982	15328.875
1469.64898	15489.175
1473.05586	15622.875
1476.46045	15680.175
1479.86276	15755.875
1483.26279	15773.475
1486.66054	15866.875
1490.05602	15981.875
1493.44922	16197.375
1496.84016	16497.475
1500.22882	17050.075
1503.61521	17649.575
1506.99934	18234.275
1510.38121	18595.475
1513.76081	18591.575
1517.13816	18211.575
1520.51324	17729.675
1523.88607	17347.975
1527.25665	17082.875
1530.62498	16853.175
1533.99105	16689.475
1537.35488	16513.075
1540.71647	16312.075
1544.07581	16103.975
1547.4329	15847.475
1550.78776	15705.875
1554.14038	15582.775
1557.49077	15570.075
1560.83892	15608.875
1564.18484	15669.375
1567.52853	15816.275
1570.86999	15945.175
1574.20922	16097.675
1577.54624	16211.175
1580.88103	16237.475
1584.2136	16120.175
1587.54395	15994.575
1590.87208	15944.475
1594.19801	16025.775
1597.52172	16181.175
1600.84321	16226.375
1604.16251	15981.475
1607.47959	15599.675
1610.79447	15170.275
1614.10715	14684.875
1617.41763	14182.175
1620.7259	13798.875
1624.03199	13500.675
1627.33587	13375.575
1630.63757	13369.475
1633.93707	13584.175
1637.23439	13943.375
1640.52951	14560.375
1643.82246	15329.775
1647.11321	16138.575
1650.40179	16627.975
1653.68819	16585.375
1656.97241	15849.375
1660.25446	14862.175
1663.53433	13923.875
1666.81203	13181.275
1670.08756	12670.875
1673.36092	12313.875
1676.63211	12066.475
1679.90115	11913.975
1683.16801	11778.575
1686.43272	11695.575
1689.69527	11625.575
1692.95567	11566.975
1696.2139	11533.575
1699.46999	11529.675
1702.72392	11486.475
1705.97571	11465.275
1709.22535	11412.575
1712.47284	11405.475
1715.71819	11393.375
1718.96139	11373.375
1722.20246	11338.975
1725.44139	11286.975
1728.67818	11243.075
1731.91284	11209.075
1735.14537	11133.775
1738.37576	11131.875
1741.60403	11075.175
1744.83017	11055.475
1748.05418	11049.975
1751.27607	11036.475
1754.49584	11022.975
1757.71349	11031.475
1760.92903	11042.175
1764.14244	11030.475
1767.35375	11043.075
1770.56294	11004.175
1773.77002	10958.275
1776.97499	10912.475
1780.17785	10862.975
1783.37861	10828.275
1786.57727	10785.875
1789.77382	10743.375
1792.96828	10705.375
1796.16064	10688.275
1799.3509	10652.375
1802.53907	10651.075
1805.72514	10594.275
1808.90913	10542.575
1812.09102	10543.875
1815.27083	10499.175
1818.44856	10486.975
1821.6242	10468.575
1824.79776	10467.975
1827.96924	10444.975
1831.13864	10425.475
1834.30597	10449.475
1837.47122	10406.875
1840.6344	10405.075
1843.7955	10389.675
1846.95454	10360.275
1850.11151	10366.075
1853.26642	10370.375
1856.41926	10344.975
1859.57004	10333.875
1862.71876	10325.175
1865.86542	10287.875
1869.01003	10297.575
1872.15258	10274.375
1875.29308	10283.175
1878.43152	10247.275
1881.56792	10228.275
1884.70227	10216.275
1887.83457	10232.175
1890.96482	10187.175
1894.09304	10161.875
1897.21921	10156.275
1900.34335	10147.275
1903.46544	10119.375
1906.58551	10108.275
1909.70353	10092.575
1912.81953	10071.775
1915.93349	10066.275
1919.04543	10057.275
1922.15534	10011.675
1925.26322	9995.175
1928.36908	9981.875
1931.47292	10000.575
1934.57473	9967.975
1937.67453	9955.075
1940.77232	9892.775
1943.86808	9856.775
1946.96184	9848.375
1950.05358	9810.175
1953.14331	9780.275
1956.23103	9757.875
1959.31675	9720.075
1962.40046	9701.175
1965.48217	9661.975
1968.56188	9640.475
1971.63959	9598.875
1974.7153	9579.775
1977.78901	9550.475
1980.86073	9518.775
1983.93046	9468.375
1986.99819	9442.975
1990.06394	9426.575
1993.1277	9403.375
1996.18947	9361.575
1999.24925	9330.575
2002.30706	9302.575
2005.36288	9274.075
2008.41672	9246.375
2011.46859	9204.775
2014.51848	9176.375
2017.56639	9173.175
2020.61233	9158.975
2023.6563	9140.775
2026.6983	9100.275
2029.73833	9061.675
2032.7764	9037.675
2035.8125	9004.375
2038.84664	8972.775
2041.87881	8969.275
2044.90903	8954.175
2047.93729	8934.675
2050.96359	8885.375
2053.98794	8898.575
2057.01034	8893.875
2060.03078	8857.375
2063.04927	8867.675
2066.06582	8834.775
2069.08042	8841.375
2072.09307	8858.575
2075.10378	8841.375
2078.11255	8807.075
2081.11938	8817.575
2084.12426	8816.875
2087.12722	8791.275
2090.12824	8803.775
2093.12732	8794.875
2096.12447	8805.875
2099.11969	8814.075
2102.11299	8801.775
2105.10435	8803.675
2108.09379	8809.275
2111.08131	8798.775
2114.0669	8786.075
2117.05057	8775.175
2120.03233	8793.475
2123.01216	8829.375
2125.99008	8835.775
2128.96609	8829.275
2131.94018	8836.375
2134.91236	8829.075
2137.88263	8819.675
2140.851	8839.875
2143.81746	8835.275
2146.78201	8822.875
2149.74466	8818.475
2152.7054	8821.775
2155.66425	8849.975
2158.6212	8817.775
2161.57625	8833.175
2164.52941	8816.775
2167.48067	8815.875
2170.43004	8795.875
2173.37752	8772.575
2176.32311	8790.275
2179.26681	8794.675
2182.20863	8785.475
2185.14856	8780.475
2188.08661	8748.475
2191.02278	8759.375
2193.95707	8740.375
2196.88948	8732.775
2199.82001	8715.275
2202.74867	8703.675
2205.67545	8692.175
2208.60037	8687.575
2211.52341	8678.675
2214.44458	8673.575
2217.36388	8605.875
2220.28132	8627.875
2223.1969	8567.675
2226.11061	8581.875
2229.02246	8550.075
2231.93245	8554.075
2234.84058	8523.375
2237.74686	8494.975
2240.65128	8510.475
2243.55385	8462.675
2246.45456	8445.375
2249.35343	8469.575
2252.25044	8420.475
2255.14561	8415.775
2258.03893	8422.275
2260.93041	8409.275
2263.82004	8367.175
2266.70783	8341.375
2269.59378	8315.075
2272.4779	8308.475
2275.36017	8266.575
2278.24061	8271.275
2281.11922	8221.175
2283.996	8215.475
2286.87094	8216.175
2289.74405	8183.875
2292.61534	8181.975
2295.4848	8125.775
2298.35243	8150.775
2301.21824	8127.975
2304.08223	8113.875
2306.94439	8100.375
2309.80474	8102.375
2312.66327	8089.775
2315.51999	8079.475
2318.37489	8069.975
2321.22797	8070.775
2324.07925	8065.575
2326.92871	8045.875
2329.77637	8048.975
2332.62222	8019.575
2335.46626	7981.275
2338.3085	7989.275
2341.14893	7962.875
2343.98756	7966.875
2346.8244	7954.775
2349.65943	7937.775
2352.49267	7909.575
2355.32411	7916.775
2358.15376	7904.475
2360.98161	7894.775
2363.80768	7880.975
2366.63195	7880.775
2369.45444	7869.275
2372.27514	7870.375
2375.09405	7847.175
2377.91118	7845.875
2380.72652	7821.275
2383.54009	7803.175
2386.35187	7794.975
2389.16188	7779.475
2391.97011	7772.275
2394.77657	7732.575
2397.58125	7705.475
2400.38416	7707.275
2403.18529	7683.275
2405.98466	7690.275
2408.78226	7669.875
2411.57809	7651.375
2414.37216	7635.175
2417.16446	7618.675
2419.955	7606.575
2422.74378	7580.275
2425.5308	7573.375
2428.31606	7577.475
2431.09956	7575.575
2433.88131	7582.975
2436.6613	7564.375
2439.43954	7553.475
2442.21603	7537.875
2444.99077	7504.975
2447.76377	7514.075
2450.53501	7506.575
2453.30451	7483.275
2456.07226	7474.175
2458.83827	7461.075
2461.60254	7464.975
2464.36507	7444.975
2467.12586	7439.675
2469.88492	7417.575
2472.64224	7418.375
2475.39782	7414.375
2478.15167	7398.875
2480.90379	7388.375
2483.65417	7412.375
2486.40283	7387.975
2489.14976	7398.675
2491.89497	7378.675
2494.63845	7385.375
2497.3802	7340.775
2500.12024	7355.375
2502.85855	7363.875
2505.59514	7317.175
2508.33002	7318.675
2511.06318	7306.775
2513.79462	7282.775
2516.52435	7299.975
2519.25237	7274.575
2521.97867	7257.175
2524.70327	7261.075
2527.42616	7241.475
2530.14734	7230.075
2532.86681	7201.175
2535.58458	7193.775
2538.30065	7210.975
2541.01501	7174.575
2543.72768	7173.475
2546.43864	7162.975
2549.14791	7144.375
2551.85548	7131.275
2554.56136	7096.575
2557.26554	7100.875
2559.96803	7077.875
2562.66883	7066.775
2565.36794	7053.675
2568.06536	7040.375
2570.7611	7033.575
2573.45514	7014.175
2576.14751	7014.875
2578.83819	6994.975
2581.52719	6974.575
2584.21451	6938.575
2586.90015	6956.575
2589.58411	6929.175
2592.2664	6904.675
2594.94701	6898.375
2597.62594	6881.675
2600.30321	6870.675
2602.9788	6847.975
2605.65273	6845.175
2608.32498	6825.975
2610.99557	6810.875
2613.66449	6806.075
2616.33175	6775.775
2618.99734	6763.375
2621.66128	6758.275
2624.32355	6755.075
2626.98416	6759.375
2629.64311	6759.175
2632.30041	6734.675
2634.95605	6722.375
2637.61004	6706.675
2640.26238	6706.775
2642.91306	6695.275
2645.56209	6678.075
2648.20948	6681.275
2650.85521	6682.075
2653.4993	6677.275
2656.14175	6665.475
2658.78255	6670.375
2661.42171	6653.475
2664.05923	6641.975
2666.6951	6647.575
2669.32934	6642.175
2671.96194	6640.575
2674.59291	6635.275
2677.22224	6645.075
2679.84993	6661.875
2682.476	6640.675
2685.10043	6638.075
2687.72324	6613.875
2690.34441	6625.375
2692.96396	6619.375
2695.58188	6620.775
2698.19818	6625.975
2700.81285	6624.475
2703.4259	6604.375
2706.03733	6662.575
2708.64714	6645.375
2711.25533	6633.775
2713.86191	6618.475
2716.46687	6615.675
2719.07021	6595.075
2721.67194	6593.075
2724.27206	6586.275
2726.87057	6582.475
2729.46747	6590.775
2732.06276	6574.875
2734.65644	6570.375
2737.24852	6553.575
2739.83899	6552.075
2742.42786	6535.375
2745.01513	6529.275
2747.60079	6526.975
2750.18486	6521.375
2752.76733	6525.175
2755.3482	6512.275
2757.92747	6488.675
2760.50515	6473.175
2763.08123	6485.075
2765.65573	6460.575
2768.22863	6460.775
2770.79994	6444.875
2773.36967	6462.775
2775.9378	6433.475
2778.50435	6427.175
2781.06932	6397.375
2783.6327	6402.175
2786.1945	6396.375
2788.75471	6375.075
2791.31335	6353.175
2793.87041	6334.775
2796.42589	6329.375
2798.97979	6326.475
2801.53212	6315.175
2804.08288	6290.575
2806.63206	6261.275
2809.17967	6264.375
2811.72571	6245.475
2814.27018	6236.075
2816.81308	6234.275
2819.35442	6222.875
2821.89419	6218.875
2824.43239	6186.975
2826.96904	6193.275
2829.50412	6169.175
2832.03763	6164.975
2834.56959	6170.775
2837.1	6153.075
2839.62884	6156.575
2842.15613	6159.175
2844.68186	6168.775
2847.20604	6179.575
2849.72867	6175.675
2852.24974	6167.675
2854.76927	6166.775
2857.28724	6161.175
2859.80367	6141.675
2862.31855	6137.775
2864.83189	6121.175
2867.34368	6104.475
2869.85393	6106.375
2872.36264	6098.475
2874.8698	6089.075
2877.37543	6080.875
2879.87952	6076.175
2882.38207	6066.375
2884.88308	6078.675
2887.38256	6076.375
2889.88051	6069.675
2892.37692	6067.375
2894.8718	6054.775
2897.36515	6065.575
2899.85698	6070.075
2902.34727	6069.875
2904.83604	6077.675
2907.32328	6091.275
2909.809	6092.075
2912.29319	6078.875
2914.77587	6082.375
2917.25702	6076.775
2919.73665	6065.675
2922.21476	6088.975
2924.69136	6072.475
2927.16644	6079.875
2929.64	6091.375
2932.11205	6064.675
2934.58258	6053.375
2937.05161	6079.775
2939.51912	6064.075
2941.98513	6056.975
2944.44962	6034.575
2946.91261	6004.175
2949.37409	6007.575
2951.83407	5990.175
2954.29254	6002.675
2956.74951	5972.175
2959.20498	5962.575
2961.65895	5958.375
2964.11142	5963.775
2966.56239	5941.875
2969.01186	5934.775
2971.45984	5895.975
2973.90632	5900.375
2976.35131	5889.375
2978.7948	5876.575
2981.23681	5853.975
2983.67732	5860.975
2986.11635	5839.275
2988.55388	5809.875
2990.98993	5800.275
2993.4245	5807.775
2995.85758	5784.075
2998.28917	5746.975
3000.71928	5744.275
3003.14791	5738.475
3005.57506	5733.575
3008.00073	5732.975
3010.42493	5735.775
3012.84764	5698.075
3015.26888	5708.175
3017.68865	5679.275
3020.10694	5685.875
3022.52376	5664.375
3024.9391	5660.475
3027.35298	5664.775
3029.76539	5658.075
3032.17632	5676.275
3034.5858	5640.375
3036.9938	5638.575
3039.40034	5618.375
3041.80542	5599.175
3044.20903	5602.675
3046.61118	5583.275
3049.01187	5580.175
3051.4111	5584.375
3053.80888	5563.675
3056.20519	5562.075
3058.60005	5548.475
3060.99345	5535.675
3063.3854	5517.275
3065.7759	5521.975
3068.16494	5519.775
3070.55254	5516.275
3072.93868	5498.375
3075.32338	5473.175
3077.70662	5489.075
3080.08842	5469.575
3082.46878	5468.975
3084.84769	5449.475
3087.22515	5469.675
3089.60118	5468.975
3091.97576	5464.475
3094.3489	5480.675
3096.72061	5469.375
3099.09087	5479.475
3101.4597	5477.075
3103.82709	5472.875
3106.19305	5464.275
3108.55757	5451.675
3110.92066	5453.275
3113.28232	5439.175
3115.64255	5418.375
3118.00134	5400.175
3120.35871	5428.975
3122.71466	5419.775
3125.06917	5399.275
3127.42226	5404.875
3129.77393	5417.975
3132.12417	5426.375
3134.47299	5420.875
3136.82039	5415.675
3139.16636	5445.075
3141.51092	5442.775
3143.85406	5436.775
3146.19579	5422.175
3148.53609	5452.775
3150.87499	5444.175
3153.21246	5451.775
3155.54853	5466.875
3157.88318	5457.275
3160.21642	5458.475
3162.54826	5463.275
3164.87868	5463.075
3167.2077	5468.975
3169.5353	5463.875
3171.86151	5464.675
3174.18631	5472.075
3176.5097	5473.975
3178.83169	5444.275
3181.15228	5461.275
3183.47147	5458.575
