Data from AgNP_FTO_APTES_CRN_100uM_R6G_10uM_NaF_0.1M_Addition_RamanShift__21__18-55-58-133.txt Node

Date: Wed Dec 15 18:55:58 GMT 2021
User: TCL
Spectrometer: QEP01345
Trigger mode: 4
Integration Time (sec): 7.000000E0
Scans to average: 10
Electric dark correction enabled: true
Nonlinearity correction enabled: false
Boxcar width: 0
XAxis mode: Raman Shifts
Number of Pixels in Spectrum: 1044
>>>>>Begin Spectral Data<<<<<
46.04893	0.8125
50.45542	-2.1875
54.85868	-1.1875
59.25871	0.7125
63.6555	52.8125
68.04907	57.5125
72.43941	62.5125
76.82654	66.0125
81.21044	65.2125
85.59113	67.7125
89.96862	75.1125
94.34289	74.0125
98.71396	80.7125
103.08183	84.4125
107.4465	81.9125
111.80798	83.4125
116.16626	84.8125
120.52136	90.5125
124.87327	90.7125
129.222	93.9125
133.56755	96.0125
137.90993	106.0125
142.24913	116.5125
146.58517	124.2125
150.91804	143.3125
155.24774	164.3125
159.57429	203.7125
163.89768	256.6125
168.21792	337.9125
172.53501	452.9125
176.84895	633.8125
181.15975	882.2125
185.46741	1233.1125
189.77193	1692.8125
194.07331	2258.4125
198.37157	2906.5125
202.6667	3599.2125
206.9587	4282.4125
211.24758	4943.8125
215.53334	5609.8125
219.81599	6318.2125
224.09553	7081.1125
228.37195	7910.7125
232.64527	8835.4125
236.91549	9841.6125
241.18261	10816.5125
245.44663	11774.3125
249.70755	12650.7125
253.96539	13391.5125
258.22014	14059.9125
262.4718	14591.8125
266.72039	14943.4125
270.96589	15131.4125
275.20832	15195.3125
279.44768	15109.3125
283.68397	14943.7125
287.91719	14804.7125
292.14735	14728.9125
296.37445	14685.7125
300.59849	14675.7125
304.81948	14640.0125
309.03742	14569.0125
313.25231	14416.7125
317.46415	14178.0125
321.67296	13902.1125
325.87872	13699.0125
330.08145	13620.0125
334.28114	13619.6125
338.47781	13724.1125
342.67145	13853.3125
346.86207	14030.8125
351.04966	14269.3125
355.23424	14483.1125
359.4158	14679.1125
363.59435	14814.9125
367.76989	14954.7125
371.94243	15048.1125
376.11196	15134.7125
380.27849	15235.4125
384.44203	15341.2125
388.60257	15444.5125
392.76012	15619.9125
396.91468	15775.0125
401.06626	15967.6125
405.21485	16104.1125
409.36047	16103.7125
413.50311	15950.9125
417.64277	15835.7125
421.77947	15804.1125
425.9132	15844.0125
430.04396	15907.9125
434.17176	16085.1125
438.2966	16265.3125
442.41849	16498.6125
446.53742	16904.4125
450.6534	17338.5125
454.76644	17695.2125
458.87653	17813.0125
462.98368	17739.5125
467.08789	17586.0125
471.18916	17449.5125
475.2875	17376.3125
479.38291	17376.2125
483.4754	17256.0125
487.56496	17077.6125
491.6516	16788.5125
495.73531	16573.7125
499.81612	16412.1125
503.89401	16479.3125
507.96899	16484.5125
512.04106	16500.9125
516.11023	16487.4125
520.1765	16437.9125
524.23987	16405.3125
528.30034	16392.2125
532.35792	16270.0125
536.41261	16146.5125
540.46441	15999.6125
544.51333	15994.5125
548.55936	16145.8125
552.60252	16364.4125
556.64279	16710.2125
560.6802	16938.4125
564.71473	17057.6125
568.7464	17232.4125
572.7752	17462.4125
576.80114	17625.5125
580.82422	17860.5125
584.84444	18024.7125
588.86181	18402.7125
592.87633	18904.7125
596.888	19165.0125
600.89682	19056.2125
604.9028	19157.7125
608.90594	19918.0125
612.90624	20711.9125
616.90371	19660.4125
620.89834	17376.6125
624.89015	16406.6125
628.87913	16318.6125
632.86528	16422.8125
636.84862	16460.7125
640.82913	16294.5125
644.80683	15997.3125
648.78172	15784.9125
652.75379	15713.2125
656.72306	15787.2125
660.68952	15915.6125
664.65319	15885.1125
668.61405	15745.8125
672.57211	15707.4125
676.52738	15728.1125
680.47986	15736.3125
684.42955	15738.8125
688.37646	15700.8125
692.32058	15754.3125
696.26192	15803.8125
700.20048	15939.0125
704.13626	16042.8125
708.06928	16052.4125
711.99952	16008.6125
715.927	15976.2125
719.85171	15962.8125
723.77365	15934.9125
727.69284	15821.0125
731.60928	15714.0125
735.52295	15678.8125
739.43388	15715.6125
743.34206	15727.9125
747.24749	15782.4125
751.15017	15866.7125
755.05012	16030.7125
758.94733	16339.2125
762.8418	16921.5125
766.73354	17786.6125
770.62254	18648.0125
774.50882	18837.5125
778.39237	18195.0125
782.27321	17161.7125
786.15132	16281.9125
790.02671	15805.3125
793.89938	15571.2125
797.76935	15494.1125
801.6366	15493.0125
805.50115	15474.5125
809.36299	15458.6125
813.22213	15381.9125
817.07857	15374.3125
820.93231	15335.2125
824.78336	15296.1125
828.63172	15285.8125
832.47738	15259.0125
836.32036	15301.3125
840.16066	15292.6125
843.99827	15313.5125
847.8332	15281.5125
851.66546	15237.6125
855.49504	15205.4125
859.32195	15204.0125
863.1462	15191.4125
866.96777	15188.6125
870.78668	15153.8125
874.60293	15142.0125
878.41652	15194.6125
882.22745	15188.1125
886.03573	15211.0125
889.84136	15213.9125
893.64433	15169.2125
897.44466	15118.0125
901.24235	15059.9125
905.0374	15016.0125
908.8298	14999.8125
912.61957	15055.5125
916.40671	15162.1125
920.19121	15261.2125
923.97308	15378.2125
927.75233	15387.1125
931.52895	15349.7125
935.30295	15166.6125
939.07433	15003.2125
942.84309	14806.0125
946.60924	14742.3125
950.37278	14707.0125
954.13371	14656.7125
957.89203	14655.6125
961.64774	14646.2125
965.40086	14615.8125
969.15137	14559.8125
972.89929	14467.1125
976.64461	14462.1125
980.38733	14440.9125
984.12747	14498.9125
987.86502	14577.0125
991.59999	14642.5125
995.33237	14815.6125
999.06217	15068.3125
1002.78939	15359.2125
1006.51404	15536.2125
1010.23611	15648.9125
1013.95561	15764.1125
1017.67255	15756.2125
1021.38692	15617.3125
1025.09872	15479.2125
1028.80796	15435.3125
1032.51465	15552.8125
1036.21877	15770.6125
1039.92035	15819.8125
1043.61937	15782.6125
1047.31584	15677.8125
1051.00976	15592.2125
1054.70114	15565.1125
1058.38998	15691.9125
1062.07627	15864.8125
1065.76003	16169.7125
1069.44126	16460.2125
1073.11995	16806.2125
1076.79611	17063.8125
1080.46974	17002.9125
1084.14085	16819.8125
1087.80943	16626.3125
1091.47549	16499.1125
1095.13903	16404.0125
1098.80005	16203.0125
1102.45857	15892.7125
1106.11456	15722.4125
1109.76805	15636.3125
1113.41903	15665.2125
1117.06751	15749.3125
1120.71348	15878.2125
1124.35696	16004.8125
1127.99793	16213.1125
1131.63641	16296.0125
1135.2724	16229.2125
1138.90589	16129.2125
1142.5369	16067.5125
1146.16542	16120.0125
1149.79145	16182.5125
1153.415	16322.7125
1157.03607	16537.1125
1160.65467	16858.7125
1164.27079	17366.8125
1167.88443	18104.7125
1171.49561	19036.0125
1175.10432	20212.8125
1178.71056	21646.2125
1182.31434	22856.0125
1185.91565	23286.3125
1189.51451	22895.1125
1193.11091	22176.7125
1196.70485	21409.1125
1200.29634	20687.6125
1203.88538	20221.2125
1207.47197	19906.7125
1211.05612	19668.6125
1214.63782	19416.9125
1218.21708	19161.1125
1221.79391	18945.8125
1225.36829	18743.6125
1228.94024	18599.0125
1232.50976	18336.2125
1236.07685	18136.5125
1239.6415	18051.4125
1243.20374	18033.7125
1246.76355	18154.0125
1250.32093	18377.3125
1253.8759	18621.3125
1257.42845	18986.4125
1260.97859	19355.8125
1264.52631	19702.3125
1268.07163	20086.2125
1271.61453	20478.7125
1275.15503	20952.2125
1278.69312	21382.4125
1282.22882	21965.1125
1285.76211	22557.9125
1289.29301	23236.6125
1292.82151	24143.5125
1296.34761	25190.1125
1299.87133	26435.1125
1303.39266	27701.2125
1306.9116	29024.6125
1310.42815	30262.0125
1313.94233	31134.5125
1317.45412	31325.2125
1320.96354	31026.4125
1324.47058	30499.2125
1327.97525	29900.4125
1331.47754	29445.3125
1334.97747	29147.9125
1338.47502	28910.9125
1341.97022	28621.6125
1345.46305	28137.2125
1348.95352	27652.1125
1352.44163	27592.4125
1355.92738	28014.4125
1359.41078	29132.3125
1362.89183	30129.3125
1366.37053	29876.0125
1369.84688	28052.8125
1373.32088	25569.4125
1376.79254	23791.9125
1380.26186	23145.7125
1383.72883	23089.3125
1387.19347	23065.7125
1390.65578	22961.4125
1394.11575	23020.9125
1397.57339	23306.5125
1401.0287	23836.6125
1404.48168	24160.8125
1407.93234	24224.7125
1411.38068	23751.2125
1414.82669	22997.4125
1418.27039	22080.7125
1421.71177	21158.0125
1425.15083	20360.8125
1428.58758	19915.4125
1432.02203	19974.2125
1435.45416	20323.7125
1438.88399	20816.4125
1442.31151	21260.6125
1445.73673	21643.2125
1449.15965	21954.2125
1452.58027	22227.4125
1455.9986	22320.6125
1459.41463	22389.0125
1462.82837	22731.5125
1466.23982	23124.9125
1469.64898	23459.6125
1473.05586	23691.0125
1476.46045	23681.6125
1479.86276	23556.0125
1483.26279	23340.7125
1486.66054	23123.9125
1490.05602	23052.0125
1493.44922	23062.0125
1496.84016	23046.0125
1500.22882	23225.7125
1503.61521	23623.8125
1506.99934	24199.3125
1510.38121	24701.7125
1513.76081	24907.2125
1517.13816	24511.2125
1520.51324	23769.5125
1523.88607	23172.9125
1527.25665	22824.1125
1530.62498	22741.1125
1533.99105	22723.4125
1537.35488	22655.8125
1540.71647	22411.0125
1544.07581	22059.1125
1547.4329	21661.5125
1550.78776	21316.2125
1554.14038	21066.4125
1557.49077	20918.6125
1560.83892	20884.1125
1564.18484	20909.6125
1567.52853	21181.1125
1570.86999	21558.5125
1574.20922	22129.0125
1577.54624	22785.2125
1580.88103	23149.7125
1584.2136	23266.8125
1587.54395	23379.3125
1590.87208	23799.3125
1594.19801	24559.8125
1597.52172	25539.5125
1600.84321	25853.4125
1604.16251	24976.0125
1607.47959	23377.9125
1610.79447	21528.7125
1614.10715	19908.4125
1617.41763	18641.0125
1620.7259	17830.1125
1624.03199	17389.9125
1627.33587	17424.7125
1630.63757	17815.2125
1633.93707	18676.8125
1637.23439	20199.4125
1640.52951	22259.1125
1643.82246	24683.4125
1647.11321	26632.1125
1650.40179	26981.9125
1653.68819	25406.6125
1656.97241	22607.6125
1660.25446	19863.1125
1663.53433	17782.7125
1666.81203	16390.8125
1670.08756	15568.7125
1673.36092	14994.5125
1676.63211	14616.1125
1679.90115	14373.6125
1683.16801	14174.6125
1686.43272	14038.0125
1689.69527	13910.2125
1692.95567	13842.9125
1696.2139	13829.6125
1699.46999	13769.9125
1702.72392	13721.4125
1705.97571	13716.3125
1709.22535	13670.6125
1712.47284	13650.0125
1715.71819	13611.6125
1718.96139	13579.1125
1722.20246	13516.0125
1725.44139	13486.0125
1728.67818	13447.7125
1731.91284	13380.1125
1735.14537	13337.9125
1738.37576	13267.6125
1741.60403	13253.5125
1744.83017	13215.7125
1748.05418	13198.4125
1751.27607	13161.3125
1754.49584	13148.8125
1757.71349	13134.6125
1760.92903	13136.8125
1764.14244	13140.5125
1767.35375	13133.6125
1770.56294	13074.9125
1773.77002	13069.7125
1776.97499	13071.8125
1780.17785	13023.6125
1783.37861	12996.7125
1786.57727	12955.9125
1789.77382	12948.3125
1792.96828	12951.0125
1796.16064	12913.6125
1799.3509	12893.6125
1802.53907	12851.4125
1805.72514	12824.4125
1808.90913	12781.4125
1812.09102	12790.1125
1815.27083	12746.2125
1818.44856	12712.9125
1821.6242	12694.8125
1824.79776	12672.1125
1827.96924	12658.2125
1831.13864	12684.8125
1834.30597	12670.3125
1837.47122	12664.4125
1840.6344	12640.7125
1843.7955	12637.9125
1846.95454	12632.3125
1850.11151	12630.7125
1853.26642	12633.3125
1856.41926	12624.4125
1859.57004	12617.6125
1862.71876	12601.9125
1865.86542	12594.3125
1869.01003	12587.8125
1872.15258	12605.3125
1875.29308	12583.7125
1878.43152	12526.7125
1881.56792	12533.7125
1884.70227	12511.0125
1887.83457	12520.9125
1890.96482	12539.8125
1894.09304	12513.1125
1897.21921	12505.7125
1900.34335	12478.6125
1903.46544	12480.7125
1906.58551	12503.6125
1909.70353	12460.5125
1912.81953	12444.0125
1915.93349	12452.4125
1919.04543	12394.2125
1922.15534	12351.9125
1925.26322	12365.6125
1928.36908	12339.6125
1931.47292	12303.9125
1934.57473	12288.5125
1937.67453	12271.2125
1940.77232	12235.2125
1943.86808	12220.1125
1946.96184	12173.8125
1950.05358	12136.7125
1953.14331	12098.5125
1956.23103	12083.4125
1959.31675	12045.7125
1962.40046	12008.7125
1965.48217	11980.7125
1968.56188	11943.1125
1971.63959	11923.8125
1974.7153	11874.8125
1977.78901	11842.9125
1980.86073	11815.0125
1983.93046	11748.0125
1986.99819	11747.3125
1990.06394	11734.4125
1993.1277	11698.8125
1996.18947	11628.0125
1999.24925	11610.1125
2002.30706	11613.6125
2005.36288	11558.7125
2008.41672	11511.6125
2011.46859	11488.8125
2014.51848	11462.6125
2017.56639	11444.4125
2020.61233	11406.8125
2023.6563	11388.4125
2026.6983	11386.6125
2029.73833	11371.6125
2032.7764	11313.1125
2035.8125	11288.3125
2038.84664	11260.9125
2041.87881	11253.8125
2044.90903	11242.4125
2047.93729	11227.8125
2050.96359	11230.5125
2053.98794	11196.8125
2057.01034	11190.0125
2060.03078	11198.9125
2063.04927	11184.8125
2066.06582	11198.7125
2069.08042	11174.8125
2072.09307	11167.4125
2075.10378	11153.1125
2078.11255	11144.0125
2081.11938	11134.9125
2084.12426	11143.5125
2087.12722	11134.1125
2090.12824	11141.2125
2093.12732	11131.1125
2096.12447	11160.8125
2099.11969	11141.9125
2102.11299	11151.7125
2105.10435	11174.5125
2108.09379	11165.6125
2111.08131	11174.0125
2114.0669	11160.1125
2117.05057	11142.7125
2120.03233	11166.4125
2123.01216	11179.1125
2125.99008	11184.6125
2128.96609	11222.5125
2131.94018	11215.6125
2134.91236	11207.5125
2137.88263	11235.4125
2140.851	11218.5125
2143.81746	11260.2125
2146.78201	11267.2125
2149.74466	11238.5125
2152.7054	11259.2125
2155.66425	11267.2125
2158.6212	11278.6125
2161.57625	11276.8125
2164.52941	11248.2125
2167.48067	11262.8125
2170.43004	11247.1125
2173.37752	11253.9125
2176.32311	11253.2125
2179.26681	11253.8125
2182.20863	11243.4125
2185.14856	11230.4125
2188.08661	11201.9125
2191.02278	11228.8125
2193.95707	11230.9125
2196.88948	11219.8125
2199.82001	11222.8125
2202.74867	11203.8125
2205.67545	11190.4125
2208.60037	11192.8125
2211.52341	11188.1125
2214.44458	11150.7125
2217.36388	11137.4125
2220.28132	11138.8125
2223.1969	11108.1125
2226.11061	11074.2125
2229.02246	11092.9125
2231.93245	11047.3125
2234.84058	11010.7125
2237.74686	11050.5125
2240.65128	11022.7125
2243.55385	11005.5125
2246.45456	10953.6125
2249.35343	10979.2125
2252.25044	10950.5125
2255.14561	10905.2125
2258.03893	10935.3125
2260.93041	10920.2125
2263.82004	10876.4125
2266.70783	10857.1125
2269.59378	10832.1125
2272.4779	10815.1125
2275.36017	10796.1125
2278.24061	10758.7125
2281.11922	10729.5125
2283.996	10716.9125
2286.87094	10709.6125
2289.74405	10693.5125
2292.61534	10709.0125
2295.4848	10679.2125
2298.35243	10695.3125
2301.21824	10654.4125
2304.08223	10659.7125
2306.94439	10666.0125
2309.80474	10643.4125
2312.66327	10682.0125
2315.51999	10647.4125
2318.37489	10649.9125
2321.22797	10639.8125
2324.07925	10617.3125
2326.92871	10613.8125
2329.77637	10623.6125
2332.62222	10606.6125
2335.46626	10575.6125
2338.3085	10573.1125
2341.14893	10560.5125
2343.98756	10562.6125
2346.8244	10556.4125
2349.65943	10552.3125
2352.49267	10528.7125
2355.32411	10556.5125
2358.15376	10542.0125
2360.98161	10500.9125
2363.80768	10477.6125
2366.63195	10498.7125
2369.45444	10489.8125
2372.27514	10475.8125
2375.09405	10473.0125
2377.91118	10467.4125
2380.72652	10415.7125
2383.54009	10426.3125
2386.35187	10410.1125
2389.16188	10376.2125
2391.97011	10381.8125
2394.77657	10339.1125
2397.58125	10333.4125
2400.38416	10318.7125
2403.18529	10314.4125
2405.98466	10292.2125
2408.78226	10281.9125
2411.57809	10276.2125
2414.37216	10244.9125
2417.16446	10234.3125
2419.955	10223.2125
2422.74378	10212.7125
2425.5308	10211.7125
2428.31606	10185.5125
2431.09956	10178.0125
2433.88131	10159.8125
2436.6613	10194.0125
2439.43954	10150.8125
2442.21603	10145.5125
2444.99077	10124.1125
2447.76377	10152.9125
2450.53501	10134.9125
2453.30451	10136.8125
2456.07226	10117.0125
2458.83827	10104.3125
2461.60254	10105.4125
2464.36507	10097.1125
2467.12586	10127.8125
2469.88492	10118.5125
2472.64224	10095.5125
2475.39782	10095.3125
2478.15167	10104.2125
2480.90379	10122.6125
2483.65417	10096.5125
2486.40283	10112.9125
2489.14976	10107.0125
2491.89497	10116.8125
2494.63845	10109.1125
2497.3802	10101.7125
2500.12024	10073.1125
2502.85855	10081.1125
2505.59514	10101.9125
2508.33002	10064.0125
2511.06318	10059.8125
2513.79462	10045.8125
2516.52435	10025.5125
2519.25237	10029.2125
2521.97867	10026.0125
2524.70327	10004.1125
2527.42616	10003.9125
2530.14734	10018.5125
2532.86681	9998.9125
2535.58458	9973.4125
2538.30065	9953.9125
2541.01501	9951.3125
2543.72768	9955.7125
2546.43864	9937.7125
2549.14791	9923.0125
2551.85548	9909.3125
2554.56136	9889.2125
2557.26554	9886.3125
2559.96803	9881.0125
2562.66883	9844.8125
2565.36794	9873.5125
2568.06536	9872.5125
2570.7611	9848.4125
2573.45514	9871.9125
2576.14751	9836.4125
2578.83819	9792.9125
2581.52719	9814.6125
2584.21451	9795.1125
2586.90015	9807.8125
2589.58411	9785.2125
2592.2664	9769.7125
2594.94701	9754.3125
2597.62594	9736.8125
2600.30321	9738.5125
2602.9788	9725.2125
2605.65273	9730.8125
2608.32498	9700.2125
2610.99557	9696.8125
2613.66449	9687.9125
2616.33175	9686.6125
2618.99734	9684.1125
2621.66128	9681.4125
2624.32355	9679.3125
2626.98416	9677.9125
2629.64311	9685.2125
2632.30041	9670.1125
2634.95605	9663.6125
2637.61004	9665.5125
2640.26238	9636.8125
2642.91306	9660.1125
2645.56209	9614.6125
2648.20948	9648.2125
2650.85521	9611.0125
2653.4993	9622.9125
2656.14175	9612.6125
2658.78255	9617.3125
2661.42171	9609.8125
2664.05923	9637.0125
2666.6951	9638.7125
2669.32934	9626.3125
2671.96194	9615.4125
2674.59291	9615.1125
2677.22224	9626.9125
2679.84993	9619.0125
2682.476	9618.9125
2685.10043	9630.0125
2687.72324	9602.2125
2690.34441	9606.8125
2692.96396	9628.0125
2695.58188	9629.5125
2698.19818	9590.3125
2700.81285	9611.4125
2703.4259	9636.4125
2706.03733	9668.1125
2708.64714	9636.7125
2711.25533	9664.6125
2713.86191	9650.3125
2716.46687	9667.1125
2719.07021	9645.5125
2721.67194	9643.7125
2724.27206	9635.8125
2726.87057	9669.1125
2729.46747	9647.7125
2732.06276	9631.0125
2734.65644	9630.5125
2737.24852	9638.4125
2739.83899	9637.0125
2742.42786	9629.8125
2745.01513	9622.8125
2747.60079	9621.8125
2750.18486	9607.4125
2752.76733	9603.8125
2755.3482	9636.0125
2757.92747	9619.6125
2760.50515	9606.4125
2763.08123	9602.2125
2765.65573	9586.4125
2768.22863	9554.5125
2770.79994	9568.1125
2773.36967	9589.3125
2775.9378	9552.7125
2778.50435	9567.7125
2781.06932	9539.2125
2783.6327	9554.5125
2786.1945	9539.1125
2788.75471	9517.3125
2791.31335	9497.1125
2793.87041	9488.6125
2796.42589	9467.6125
2798.97979	9462.2125
2801.53212	9444.9125
2804.08288	9441.5125
2806.63206	9430.1125
2809.17967	9399.5125
2811.72571	9378.9125
2814.27018	9370.6125
2816.81308	9348.3125
2819.35442	9350.5125
2821.89419	9355.0125
2824.43239	9313.0125
2826.96904	9330.2125
2829.50412	9321.5125
2832.03763	9295.0125
2834.56959	9285.5125
2837.1	9276.4125
2839.62884	9272.1125
2842.15613	9284.6125
2844.68186	9298.9125
2847.20604	9298.4125
2849.72867	9316.2125
2852.24974	9279.3125
2854.76927	9313.1125
2857.28724	9270.4125
2859.80367	9275.3125
2862.31855	9266.7125
2864.83189	9254.4125
2867.34368	9207.9125
2869.85393	9229.6125
2872.36264	9204.9125
2874.8698	9219.2125
2877.37543	9219.2125
2879.87952	9239.7125
2882.38207	9247.6125
2884.88308	9221.4125
2887.38256	9235.8125
2889.88051	9241.9125
2892.37692	9221.8125
2894.8718	9218.3125
2897.36515	9230.5125
2899.85698	9227.7125
2902.34727	9272.7125
2904.83604	9268.0125
2907.32328	9278.2125
2909.809	9259.9125
2912.29319	9276.2125
2914.77587	9268.0125
2917.25702	9282.6125
2919.73665	9264.9125
2922.21476	9279.7125
2924.69136	9253.5125
2927.16644	9259.0125
2929.64	9259.2125
2932.11205	9253.6125
2934.58258	9219.8125
2937.05161	9256.9125
2939.51912	9233.7125
2941.98513	9233.3125
2944.44962	9210.5125
2946.91261	9170.6125
2949.37409	9211.5125
2951.83407	9184.9125
2954.29254	9181.1125
2956.74951	9182.4125
2959.20498	9169.9125
2961.65895	9151.7125
2964.11142	9157.7125
2966.56239	9151.4125
2969.01186	9131.9125
2971.45984	9088.7125
2973.90632	9081.8125
2976.35131	9033.0125
2978.7948	9025.2125
2981.23681	9022.9125
2983.67732	9005.5125
2986.11635	8984.4125
2988.55388	8982.0125
2990.98993	8946.0125
2993.4245	8944.0125
2995.85758	8917.7125
2998.28917	8899.8125
3000.71928	8881.0125
3003.14791	8861.6125
3005.57506	8871.7125
3008.00073	8857.3125
3010.42493	8882.6125
3012.84764	8828.3125
3015.26888	8795.1125
3017.68865	8800.9125
3020.10694	8774.5125
3022.52376	8763.2125
3024.9391	8775.9125
3027.35298	8757.1125
3029.76539	8777.4125
3032.17632	8761.7125
3034.5858	8754.3125
3036.9938	8737.9125
3039.40034	8714.3125
3041.80542	8714.0125
3044.20903	8692.2125
3046.61118	8715.1125
3049.01187	8685.8125
