Data from AgNP_FTO_APTES_CRN_50uM_R6G_10uM_NaF_0.1M_Addition_RamanShift__37__18-29-08-103.txt Node

Date: Wed Dec 15 18:29:08 GMT 2021
User: TCL
Spectrometer: QEP01345
Trigger mode: 4
Integration Time (sec): 7.000000E0
Scans to average: 10
Electric dark correction enabled: true
Nonlinearity correction enabled: false
Boxcar width: 0
XAxis mode: Raman Shifts
Number of Pixels in Spectrum: 1044
>>>>>Begin Spectral Data<<<<<
46.04893	1.575
50.45542	-0.625
54.85868	-0.725
59.25871	-0.625
63.6555	35.675
68.04907	44.975
72.43941	44.475
76.82654	47.775
81.21044	50.475
85.59113	54.075
89.96862	58.175
94.34289	55.175
98.71396	59.675
103.08183	65.975
107.4465	65.175
111.80798	63.075
116.16626	64.475
120.52136	65.175
124.87327	64.275
129.222	66.575
133.56755	65.275
137.90993	69.575
142.24913	72.375
146.58517	80.075
150.91804	86.275
155.24774	98.275
159.57429	117.675
163.89768	150.375
168.21792	187.775
172.53501	251.975
176.84895	341.075
181.15975	470.175
185.46741	645.875
189.77193	883.175
194.07331	1179.275
198.37157	1518.775
202.6667	1865.775
206.9587	2222.475
211.24758	2574.175
215.53334	2941.775
219.81599	3351.575
224.09553	3824.275
228.37195	4327.675
232.64527	4887.875
236.91549	5435.075
241.18261	5930.375
245.44663	6315.375
249.70755	6645.375
253.96539	6896.375
258.22014	7157.775
262.4718	7383.375
266.72039	7565.775
270.96589	7651.675
275.20832	7659.775
279.44768	7593.775
283.68397	7472.875
287.91719	7420.575
292.14735	7433.975
296.37445	7611.575
300.59849	7915.675
304.81948	8278.175
309.03742	8505.975
313.25231	8505.775
317.46415	8137.075
321.67296	7499.675
325.87872	6972.375
330.08145	6707.875
334.28114	6685.175
338.47781	6817.075
342.67145	6995.175
346.86207	7326.675
351.04966	7791.175
355.23424	8291.875
359.4158	8691.275
363.59435	8852.475
367.76989	8907.275
371.94243	8850.275
376.11196	8813.375
380.27849	8710.875
384.44203	8624.675
388.60257	8493.675
392.76012	8445.575
396.91468	8541.975
401.06626	8743.075
405.21485	8939.875
409.36047	8761.675
413.50311	8293.375
417.64277	7867.575
421.77947	7612.175
425.9132	7531.875
430.04396	7524.475
434.17176	7532.475
438.2966	7645.775
442.41849	7851.475
446.53742	8104.575
450.6534	8313.075
454.76644	8468.575
458.87653	8487.875
462.98368	8401.275
467.08789	8265.175
471.18916	8085.275
475.2875	7894.275
479.38291	7709.975
483.4754	7568.075
487.56496	7466.175
491.6516	7379.575
495.73531	7363.075
499.81612	7362.475
503.89401	7469.975
507.96899	7589.575
512.04106	7712.375
516.11023	7878.375
520.1765	8021.175
524.23987	8013.075
528.30034	7859.575
532.35792	7710.075
536.41261	7501.775
540.46441	7311.275
544.51333	7208.575
548.55936	7234.075
552.60252	7388.775
556.64279	7609.575
560.6802	7705.675
564.71473	7827.475
568.7464	8126.175
572.7752	8326.875
576.80114	8082.175
580.82422	7765.075
584.84444	7636.775
588.86181	7634.275
592.87633	7720.975
596.888	7851.375
600.89682	8105.475
604.9028	9002.675
608.90594	11573.575
612.90624	14914.875
616.90371	14368.275
620.89834	9966.175
624.89015	7889.975
628.87913	7491.275
632.86528	7537.075
636.84862	7646.875
640.82913	7598.275
644.80683	7277.875
648.78172	7084.575
652.75379	7141.275
656.72306	7472.375
660.68952	7835.575
664.65319	7747.175
668.61405	7385.875
672.57211	7186.075
676.52738	7179.975
680.47986	7178.775
684.42955	7140.675
688.37646	7111.075
692.32058	7153.375
696.26192	7207.275
700.20048	7279.775
704.13626	7347.875
708.06928	7330.775
711.99952	7273.075
715.927	7241.675
719.85171	7243.975
723.77365	7217.275
727.69284	7150.475
731.60928	7095.675
735.52295	7088.475
739.43388	7115.775
743.34206	7119.775
747.24749	7153.675
751.15017	7184.775
755.05012	7339.575
758.94733	7689.575
762.8418	8531.475
766.73354	9922.875
770.62254	11484.975
774.50882	12275.075
778.39237	11770.075
782.27321	10179.875
786.15132	8624.575
790.02671	7737.875
793.89938	7326.275
797.76935	7183.275
801.6366	7102.275
805.50115	7052.175
809.36299	7007.975
813.22213	6980.375
817.07857	6974.675
820.93231	6972.675
824.78336	7006.775
828.63172	7075.675
832.47738	7075.975
836.32036	7064.275
840.16066	7018.075
843.99827	6987.575
847.8332	6925.975
851.66546	6943.975
855.49504	6931.075
859.32195	6920.375
863.1462	6876.475
866.96777	6851.075
870.78668	6830.475
874.60293	6845.375
878.41652	6859.275
882.22745	6902.475
886.03573	6931.575
889.84136	6906.475
893.64433	6880.275
897.44466	6861.775
901.24235	6864.575
905.0374	6851.975
908.8298	6815.075
912.61957	6806.575
916.40671	6840.175
920.19121	6877.075
923.97308	6931.575
927.75233	6997.175
931.52895	7072.175
935.30295	7007.675
939.07433	6819.075
942.84309	6648.075
946.60924	6524.175
950.37278	6475.375
954.13371	6445.775
957.89203	6422.275
961.64774	6395.775
965.40086	6366.675
969.15137	6349.975
972.89929	6319.675
976.64461	6330.475
980.38733	6333.775
984.12747	6349.975
987.86502	6352.475
991.59999	6394.075
995.33237	6445.375
999.06217	6568.875
1002.78939	6675.275
1006.51404	6803.175
1010.23611	6955.675
1013.95561	7071.275
1017.67255	7045.975
1021.38692	6950.575
1025.09872	6830.075
1028.80796	6784.975
1032.51465	6765.875
1036.21877	6854.175
1039.92035	6924.275
1043.61937	6975.775
1047.31584	6976.075
1051.00976	6973.475
1054.70114	6951.675
1058.38998	6933.875
1062.07627	7006.875
1065.76003	7087.375
1069.44126	7188.775
1073.11995	7360.375
1076.79611	7497.875
1080.46974	7644.575
1084.14085	7751.875
1087.80943	7874.475
1091.47549	7849.775
1095.13903	7658.075
1098.80005	7356.875
1102.45857	7125.575
1106.11456	7037.475
1109.76805	7072.975
1113.41903	7227.275
1117.06751	7461.175
1120.71348	7762.075
1124.35696	8113.675
1127.99793	8412.975
1131.63641	8367.575
1135.2724	7951.775
1138.90589	7580.575
1142.5369	7349.375
1146.16542	7185.875
1149.79145	7111.775
1153.415	7132.675
1157.03607	7166.275
1160.65467	7322.375
1164.27079	7577.075
1167.88443	7952.575
1171.49561	8616.175
1175.10432	9729.675
1178.71056	11169.875
1182.31434	12085.475
1185.91565	12139.475
1189.51451	11697.875
1193.11091	10914.975
1196.70485	10070.675
1200.29634	9446.575
1203.88538	9002.475
1207.47197	8470.175
1211.05612	8042.575
1214.63782	7778.775
1218.21708	7712.275
1221.79391	7709.875
1225.36829	7733.575
1228.94024	7759.375
1232.50976	7769.775
1236.07685	7817.175
1239.6415	7901.875
1243.20374	7941.975
1246.76355	8000.975
1250.32093	8090.775
1253.8759	8248.175
1257.42845	8491.475
1260.97859	8719.475
1264.52631	8970.775
1268.07163	9215.275
1271.61453	9423.175
1275.15503	9540.775
1278.69312	9588.875
1282.22882	9576.675
1285.76211	9736.875
1289.29301	10052.575
1292.82151	10383.175
1296.34761	10678.675
1299.87133	11162.875
1303.39266	11971.575
1306.9116	13279.475
1310.42815	14875.575
1313.94233	15832.775
1317.45412	15558.775
1320.96354	14474.075
1324.47058	13184.275
1327.97525	12130.075
1331.47754	11510.175
1334.97747	11340.375
1338.47502	11430.875
1341.97022	11736.475
1345.46305	12207.875
1348.95352	12954.675
1352.44163	14006.475
1355.92738	15552.275
1359.41078	17869.675
1362.89183	20171.875
1366.37053	19716.375
1369.84688	16664.475
1373.32088	13628.575
1376.79254	11684.175
1380.26186	10717.275
1383.72883	10195.275
1387.19347	9868.075
1390.65578	9428.575
1394.11575	9033.975
1397.57339	8833.575
1401.0287	8839.575
1404.48168	8901.775
1407.93234	9011.575
1411.38068	9086.475
1414.82669	9119.675
1418.27039	8985.675
1421.71177	8841.975
1425.15083	8704.075
1428.58758	8626.775
1432.02203	8642.075
1435.45416	8724.775
1438.88399	8794.775
1442.31151	8803.475
1445.73673	8813.575
1449.15965	8856.375
1452.58027	8830.675
1455.9986	8703.975
1459.41463	8650.975
1462.82837	8725.275
1466.23982	8918.775
1469.64898	9110.475
1473.05586	9293.375
1476.46045	9423.875
1479.86276	9631.275
1483.26279	9863.675
1486.66054	10167.075
1490.05602	10494.175
1493.44922	10968.575
1496.84016	11639.575
1500.22882	12725.575
1503.61521	14233.875
1506.99934	15989.975
1510.38121	17656.775
1513.76081	18566.375
1517.13816	17801.775
1520.51324	15643.075
1523.88607	13350.775
1527.25665	11778.075
1530.62498	10898.175
1533.99105	10386.875
1537.35488	10069.775
1540.71647	9867.275
1544.07581	9771.675
1547.4329	9697.475
1550.78776	9690.675
1554.14038	9640.775
1557.49077	9696.475
1560.83892	9889.975
1564.18484	10190.475
1567.52853	10520.975
1570.86999	10902.475
1574.20922	11169.675
1577.54624	11222.175
1580.88103	10805.175
1584.2136	10051.175
1587.54395	9505.875
1590.87208	9419.775
1594.19801	9767.275
1597.52172	10401.375
1600.84321	10736.275
1604.16251	10431.875
1607.47959	9825.175
1610.79447	9151.775
1614.10715	8464.875
1617.41763	7915.875
1620.7259	7598.875
1624.03199	7436.975
1627.33587	7427.075
1630.63757	7554.375
1633.93707	7848.075
1637.23439	8316.175
1640.52951	9053.875
1643.82246	10121.275
1647.11321	11463.475
1650.40179	12588.475
1653.68819	12430.175
1656.97241	10943.975
1660.25446	9145.175
1663.53433	7908.875
1666.81203	7145.975
1670.08756	6688.775
1673.36092	6451.775
1676.63211	6278.875
1679.90115	6168.975
1683.16801	6070.375
1686.43272	6014.975
1689.69527	5977.175
1692.95567	5960.175
1696.2139	5935.575
1699.46999	5945.575
1702.72392	5913.875
1705.97571	5905.375
1709.22535	5884.575
1712.47284	5883.875
1715.71819	5860.575
1718.96139	5872.375
1722.20246	5855.575
1725.44139	5817.375
1728.67818	5790.875
1731.91284	5750.675
1735.14537	5702.375
1738.37576	5675.475
1741.60403	5662.075
1744.83017	5651.475
1748.05418	5620.575
1751.27607	5611.175
1754.49584	5597.975
1757.71349	5598.175
1760.92903	5592.175
1764.14244	5588.175
1767.35375	5586.075
1770.56294	5574.475
1773.77002	5544.375
1776.97499	5508.475
1780.17785	5484.375
1783.37861	5471.175
1786.57727	5467.575
1789.77382	5447.075
1792.96828	5447.575
1796.16064	5445.075
1799.3509	5429.875
1802.53907	5410.175
1805.72514	5400.375
1808.90913	5374.875
1812.09102	5362.175
1815.27083	5332.675
1818.44856	5336.575
1821.6242	5322.275
1824.79776	5325.575
1827.96924	5301.775
1831.13864	5302.475
1834.30597	5309.175
1837.47122	5301.175
1840.6344	5294.375
1843.7955	5280.375
1846.95454	5266.775
1850.11151	5270.875
1853.26642	5282.875
1856.41926	5269.675
1859.57004	5254.875
1862.71876	5254.075
1865.86542	5245.575
1869.01003	5244.475
1872.15258	5251.475
1875.29308	5259.575
1878.43152	5237.175
1881.56792	5233.175
1884.70227	5234.775
1887.83457	5219.775
1890.96482	5224.075
1894.09304	5222.275
1897.21921	5218.775
1900.34335	5210.575
1903.46544	5190.575
1906.58551	5203.875
1909.70353	5180.675
1912.81953	5192.475
1915.93349	5181.775
1919.04543	5172.675
1922.15534	5146.975
1925.26322	5157.675
1928.36908	5140.875
1931.47292	5154.175
1934.57473	5103.875
1937.67453	5094.875
1940.77232	5091.675
1943.86808	5070.275
1946.96184	5044.375
1950.05358	5044.175
1953.14331	5034.175
1956.23103	5013.275
1959.31675	5001.675
1962.40046	4983.875
1965.48217	4968.275
1968.56188	4953.475
1971.63959	4951.875
1974.7153	4928.975
1977.78901	4909.475
1980.86073	4907.875
1983.93046	4882.575
1986.99819	4850.875
1990.06394	4851.875
1993.1277	4817.575
1996.18947	4814.275
1999.24925	4788.775
2002.30706	4773.575
2005.36288	4772.875
2008.41672	4751.475
2011.46859	4724.375
2014.51848	4719.675
2017.56639	4705.575
2020.61233	4683.875
2023.6563	4686.975
2026.6983	4673.875
2029.73833	4657.575
2032.7764	4643.275
2035.8125	4648.275
2038.84664	4628.675
2041.87881	4625.875
2044.90903	4604.675
2047.93729	4588.675
2050.96359	4597.475
2053.98794	4577.875
2057.01034	4585.475
2060.03078	4571.075
2063.04927	4564.475
2066.06582	4548.775
2069.08042	4551.675
2072.09307	4558.775
2075.10378	4542.775
2078.11255	4541.875
2081.11938	4544.075
2084.12426	4529.375
2087.12722	4538.175
2090.12824	4537.375
2093.12732	4522.375
2096.12447	4531.375
2099.11969	4536.375
2102.11299	4528.075
2105.10435	4534.675
2108.09379	4535.375
2111.08131	4547.075
2114.0669	4557.175
2117.05057	4525.175
2120.03233	4549.075
2123.01216	4539.175
2125.99008	4559.175
2128.96609	4562.975
2131.94018	4551.375
2134.91236	4558.275
2137.88263	4541.875
2140.851	4561.175
2143.81746	4556.375
2146.78201	4560.975
2149.74466	4544.675
2152.7054	4555.375
2155.66425	4537.775
2158.6212	4540.175
2161.57625	4548.275
2164.52941	4532.975
2167.48067	4529.175
2170.43004	4520.275
2173.37752	4507.075
2176.32311	4523.975
2179.26681	4513.175
2182.20863	4531.675
2185.14856	4527.975
2188.08661	4509.475
2191.02278	4508.075
2193.95707	4507.175
2196.88948	4511.475
2199.82001	4495.275
2202.74867	4480.875
2205.67545	4479.475
2208.60037	4484.475
2211.52341	4474.775
2214.44458	4450.175
2217.36388	4440.875
2220.28132	4451.275
2223.1969	4433.375
2226.11061	4427.275
2229.02246	4402.075
2231.93245	4402.075
2234.84058	4396.575
2237.74686	4379.275
2240.65128	4380.675
2243.55385	4374.575
2246.45456	4362.775
2249.35343	4351.375
2252.25044	4362.375
2255.14561	4361.275
2258.03893	4372.175
2260.93041	4378.275
2263.82004	4346.575
2266.70783	4328.175
2269.59378	4323.575
2272.4779	4301.175
2275.36017	4296.575
2278.24061	4287.375
2281.11922	4270.575
2283.996	4273.975
2286.87094	4272.875
2289.74405	4257.075
2292.61534	4233.475
2295.4848	4223.675
2298.35243	4236.575
2301.21824	4217.875
2304.08223	4213.875
2306.94439	4200.375
2309.80474	4208.875
2312.66327	4200.775
2315.51999	4194.775
2318.37489	4199.475
2321.22797	4188.375
2324.07925	4174.675
2326.92871	4171.675
2329.77637	4190.275
2332.62222	4177.475
2335.46626	4156.375
2338.3085	4153.975
2341.14893	4154.075
2343.98756	4144.775
2346.8244	4152.275
2349.65943	4143.375
2352.49267	4151.675
2355.32411	4158.775
2358.15376	4158.075
2360.98161	4167.575
2363.80768	4170.075
2366.63195	4174.275
2369.45444	4169.475
2372.27514	4160.875
2375.09405	4148.475
2377.91118	4139.975
2380.72652	4124.675
2383.54009	4111.675
2386.35187	4096.775
2389.16188	4085.275
2391.97011	4070.175
2394.77657	4046.175
2397.58125	4040.175
2400.38416	4039.375
2403.18529	4029.775
2405.98466	4007.875
2408.78226	4013.275
2411.57809	4011.275
2414.37216	3990.575
2417.16446	3988.975
2419.955	3985.575
2422.74378	3976.975
2425.5308	3967.175
2428.31606	3962.775
2431.09956	3964.275
2433.88131	3965.875
2436.6613	3954.575
2439.43954	3962.475
2442.21603	3963.475
2444.99077	3952.675
2447.76377	3967.975
2450.53501	3961.575
2453.30451	3959.275
2456.07226	3939.075
2458.83827	3930.375
2461.60254	3951.475
2464.36507	3954.075
2467.12586	3945.275
2469.88492	3919.775
2472.64224	3926.875
2475.39782	3919.975
2478.15167	3937.975
2480.90379	3929.875
2483.65417	3938.975
2486.40283	3932.275
2489.14976	3961.775
2491.89497	3940.475
2494.63845	3971.375
2497.3802	3957.575
2500.12024	3951.675
2502.85855	3940.075
2505.59514	3943.275
2508.33002	3904.975
2511.06318	3877.175
2513.79462	3876.075
2516.52435	3865.275
2519.25237	3853.575
2521.97867	3849.375
2524.70327	3837.675
2527.42616	3814.875
2530.14734	3822.275
2532.86681	3807.575
2535.58458	3805.575
2538.30065	3815.175
2541.01501	3810.575
2543.72768	3807.675
2546.43864	3794.775
2549.14791	3786.175
2551.85548	3798.475
2554.56136	3777.675
2557.26554	3778.975
2559.96803	3775.875
2562.66883	3772.275
2565.36794	3752.975
2568.06536	3767.875
2570.7611	3747.475
2573.45514	3743.375
2576.14751	3742.875
2578.83819	3725.175
2581.52719	3713.875
2584.21451	3720.475
2586.90015	3720.875
2589.58411	3697.275
2592.2664	3702.175
2594.94701	3687.775
2597.62594	3683.775
2600.30321	3680.875
2602.9788	3670.975
2605.65273	3667.075
2608.32498	3649.775
2610.99557	3655.375
2613.66449	3652.775
2616.33175	3648.775
2618.99734	3645.175
2621.66128	3635.775
2624.32355	3640.075
2626.98416	3628.275
2629.64311	3625.775
2632.30041	3627.775
2634.95605	3616.275
2637.61004	3612.675
2640.26238	3601.575
2642.91306	3607.575
2645.56209	3598.375
2648.20948	3593.775
2650.85521	3588.975
2653.4993	3586.075
2656.14175	3581.075
2658.78255	3579.975
2661.42171	3585.375
2664.05923	3584.475
2666.6951	3586.775
2669.32934	3600.775
2671.96194	3587.975
2674.59291	3603.575
2677.22224	3590.975
2679.84993	3607.575
2682.476	3595.475
2685.10043	3610.975
2687.72324	3609.375
2690.34441	3593.475
2692.96396	3594.175
2695.58188	3601.675
2698.19818	3598.975
2700.81285	3608.775
2703.4259	3607.575
2706.03733	3661.275
2708.64714	3624.675
2711.25533	3617.575
2713.86191	3621.175
2716.46687	3630.575
2719.07021	3613.875
2721.67194	3608.875
2724.27206	3597.975
2726.87057	3607.075
2729.46747	3609.775
2732.06276	3596.675
2734.65644	3591.575
2737.24852	3588.675
2739.83899	3591.575
2742.42786	3583.475
2745.01513	3578.175
2747.60079	3575.175
2750.18486	3561.075
2752.76733	3561.075
2755.3482	3563.075
2757.92747	3553.075
2760.50515	3548.975
2763.08123	3545.675
2765.65573	3531.275
2768.22863	3528.875
2770.79994	3533.975
2773.36967	3528.875
2775.9378	3532.675
2778.50435	3515.075
2781.06932	3504.375
2783.6327	3483.775
2786.1945	3503.575
2788.75471	3502.475
2791.31335	3495.575
2793.87041	3485.975
2796.42589	3483.975
2798.97979	3485.175
2801.53212	3491.375
2804.08288	3484.775
2806.63206	3482.475
2809.17967	3466.075
2811.72571	3469.375
2814.27018	3470.975
2816.81308	3478.675
2819.35442	3463.375
2821.89419	3471.475
2824.43239	3470.075
2826.96904	3466.175
2829.50412	3477.875
2832.03763	3474.975
2834.56959	3473.075
2837.1	3479.675
2839.62884	3495.675
2842.15613	3517.875
2844.68186	3553.975
2847.20604	3571.675
2849.72867	3600.075
2852.24974	3608.375
2854.76927	3622.875
2857.28724	3620.475
2859.80367	3610.475
2862.31855	3603.475
2864.83189	3572.975
2867.34368	3565.475
2869.85393	3571.575
2872.36264	3554.375
2874.8698	3561.275
2877.37543	3545.775
2879.87952	3555.975
2882.38207	3550.675
2884.88308	3548.475
2887.38256	3558.775
2889.88051	3548.675
2892.37692	3552.075
2894.8718	3542.775
2897.36515	3548.475
2899.85698	3543.275
2902.34727	3546.275
2904.83604	3538.775
2907.32328	3561.375
2909.809	3552.875
2912.29319	3538.675
2914.77587	3552.275
2917.25702	3528.075
2919.73665	3520.475
2922.21476	3535.375
2924.69136	3528.575
2927.16644	3528.775
2929.64	3523.375
2932.11205	3508.975
2934.58258	3482.075
2937.05161	3494.475
2939.51912	3474.875
2941.98513	3475.675
2944.44962	3434.975
2946.91261	3403.475
2949.37409	3379.675
2951.83407	3380.475
2954.29254	3366.375
2956.74951	3351.175
2959.20498	3362.175
2961.65895	3343.975
2964.11142	3356.375
2966.56239	3328.775
2969.01186	3334.775
2971.45984	3318.975
2973.90632	3311.875
2976.35131	3282.275
2978.7948	3270.675
2981.23681	3284.575
2983.67732	3260.275
2986.11635	3260.275
2988.55388	3264.075
2990.98993	3234.175
2993.4245	3236.975
2995.85758	3224.775
2998.28917	3218.975
3000.71928	3211.675
3003.14791	3217.375
3005.57506	3213.975
3008.00073	3193.275
3010.42493	3202.875
3012.84764	3191.975
3015.26888	3201.175
3017.68865	3190.375
3020.10694	3182.375
3022.52376	3179.075
3024.9391	3178.975
3027.35298	3180.575
3029.76539	3166.375
3032.17632	3173.575
3034.5858	3160.775
3036.9938	3163.775
3039.40034	3150.875
3041.80542	3147.775
3044.20903	3146.875
3046.61118	3135.675
3049.01187	3133.475
3051.4111	3135.975
3053.80888	3132.075
3056.20519	3128.475
3058.60005	3115.975
3060.99345	3110.375
3063.3854	3104.275
3065.7759	3092.875
3068.16494	3093.875
3070.55254	3085.675
3072.93868	3092.975
3075.32338	3086.175
3077.70662	3076.075
3080.08842	3060.375
3082.46878	3072.675
3084.84769	3051.075
3087.22515	3053.275
3089.60118	3048.775
3091.97576	3044.775
3094.3489	3057.975
3096.72061	3053.575
3099.09087	3056.575
3101.4597	3045.575
3103.82709	3043.175
3106.19305	3041.475
3108.55757	3032.175
3110.92066	3041.175
3113.28232	3029.275
3115.64255	3024.175
3118.00134	3023.775
3120.35871	3021.075
3122.71466	3021.775
3125.06917	3020.875
3127.42226	3024.475
3129.77393	3038.575
3132.12417	3022.675
3134.47299	3034.875
3136.82039	3034.375
3139.16636	3045.575
3141.51092	3043.475
3143.85406	3038.075
3146.19579	3051.775
3148.53609	3056.175
3150.87499	3077.275
3153.21246	3060.975
3155.54853	3072.875
3157.88318	3068.075
3160.21642	3086.075
3162.54826	3076.775
3164.87868	3073.775
3167.2077	3084.975
3169.5353	3072.175
3171.86151	3083.975
3174.18631	3076.675
3176.5097	3091.675
3178.83169	3067.075
3181.15228	3080.575
3183.47147	3083.575
3185.78926	3086.275
3188.10565	3095.175
3190.42065	3099.075
3192.73424	3101.675
3195.04645	3103.875
3197.35725	3109.775
3199.66667	3105.775
3201.97469	3110.775
3204.28132	3124.375
3206.58656	3120.075
3208.8904	3109.275
3211.19287	3118.675
3213.49394	3133.775
3215.79363	3128.875
3218.09193	3122.375
3220.38884	3135.975
3222.68438	3145.375
3224.97853	3126.975
3227.2713	3137.775
3229.56269	3123.875
