Data from AgNP_FTO_APTES_CRN_500uM_R6G_10uM_NaF_0.1M_Addition_RamanShift__1__20-04-48-211.txt Node

Date: Wed Dec 15 20:04:48 GMT 2021
User: TCL
Spectrometer: QEP01345
Trigger mode: 4
Integration Time (sec): 7.000000E0
Scans to average: 10
Electric dark correction enabled: true
Nonlinearity correction enabled: false
Boxcar width: 0
XAxis mode: Raman Shifts
Number of Pixels in Spectrum: 1044
>>>>>Begin Spectral Data<<<<<
46.04893	0.925
50.45542	-2.275
54.85868	-1.375
59.25871	-0.575
63.6555	68.525
68.04907	75.325
72.43941	77.125
76.82654	81.125
81.21044	86.025
85.59113	88.525
89.96862	91.225
94.34289	91.325
98.71396	98.325
103.08183	97.625
107.4465	106.525
111.80798	104.025
116.16626	109.125
120.52136	113.825
124.87327	114.525
129.222	122.125
133.56755	127.925
137.90993	136.225
142.24913	148.025
146.58517	161.825
150.91804	184.325
155.24774	221.125
159.57429	272.325
163.89768	342.725
168.21792	450.525
172.53501	613.025
176.84895	845.525
181.15975	1196.025
185.46741	1665.725
189.77193	2310.725
194.07331	3107.425
198.37157	4006.225
202.6667	4954.625
206.9587	5893.025
211.24758	6807.525
215.53334	7718.025
219.81599	8689.225
224.09553	9740.625
228.37195	10898.225
232.64527	12184.225
236.91549	13536.225
241.18261	14903.925
245.44663	16240.625
249.70755	17452.425
253.96539	18478.725
258.22014	19378.525
262.4718	20085.525
266.72039	20623.125
270.96589	20833.725
275.20832	20882.725
279.44768	20724.725
283.68397	20518.425
287.91719	20276.225
292.14735	20180.625
296.37445	20046.325
300.59849	20081.025
304.81948	20141.025
309.03742	20179.825
313.25231	20078.725
317.46415	19877.625
321.67296	19558.625
325.87872	19296.925
330.08145	19164.925
334.28114	19205.225
338.47781	19344.225
342.67145	19545.225
346.86207	19839.625
351.04966	20215.125
355.23424	20572.425
359.4158	20883.825
363.59435	21057.125
367.76989	21197.925
371.94243	21293.425
376.11196	21425.425
380.27849	21510.925
384.44203	21651.925
388.60257	21813.125
392.76012	22024.025
396.91468	22261.725
401.06626	22540.525
405.21485	22767.225
409.36047	22768.325
413.50311	22571.325
417.64277	22406.025
421.77947	22300.225
425.9132	22378.725
430.04396	22463.025
434.17176	22606.525
438.2966	22855.825
442.41849	23168.025
446.53742	23597.425
450.6534	24019.425
454.76644	24381.425
458.87653	24462.525
462.98368	24449.325
467.08789	24260.425
471.18916	24162.425
475.2875	24001.525
479.38291	23892.425
483.4754	23756.325
487.56496	23553.725
491.6516	23333.025
495.73531	23127.625
499.81612	23062.025
503.89401	23178.925
507.96899	23214.825
512.04106	23243.525
516.11023	23305.225
520.1765	23295.925
524.23987	23248.725
528.30034	23246.225
532.35792	23135.725
536.41261	22993.225
540.46441	22784.625
544.51333	22757.225
548.55936	22908.625
552.60252	23226.525
556.64279	23541.525
560.6802	23833.125
564.71473	23968.625
568.7464	24135.825
572.7752	24497.425
576.80114	24766.225
580.82422	25008.625
584.84444	25397.025
588.86181	26028.925
592.87633	26614.325
596.888	26715.525
600.89682	26323.425
604.9028	26401.025
608.90594	27647.125
612.90624	29267.825
616.90371	28128.825
620.89834	25028.325
624.89015	23525.625
628.87913	23379.125
632.86528	23443.725
636.84862	23514.125
640.82913	23339.925
644.80683	23019.725
648.78172	22818.825
652.75379	22829.425
656.72306	23029.225
660.68952	23282.825
664.65319	23197.325
668.61405	22944.225
672.57211	22953.325
676.52738	23065.625
680.47986	23046.925
684.42955	22974.625
688.37646	22899.425
692.32058	23006.125
696.26192	23159.925
700.20048	23373.025
704.13626	23499.025
708.06928	23539.125
711.99952	23497.125
715.927	23529.725
719.85171	23561.525
723.77365	23466.225
727.69284	23263.225
731.60928	23066.125
735.52295	23042.125
739.43388	23063.125
743.34206	23101.225
747.24749	23136.525
751.15017	23266.425
755.05012	23446.925
758.94733	23872.525
762.8418	24615.325
766.73354	25827.325
770.62254	26956.225
774.50882	27337.025
778.39237	26571.725
782.27321	25334.225
786.15132	24214.325
790.02671	23523.525
793.89938	23218.425
797.76935	23072.225
801.6366	23023.225
805.50115	22942.225
809.36299	22927.825
813.22213	22879.225
817.07857	22815.225
820.93231	22837.325
824.78336	22792.025
828.63172	22818.025
832.47738	22814.225
836.32036	22827.825
840.16066	22862.025
843.99827	22853.925
847.8332	22802.425
851.66546	22796.825
855.49504	22830.825
859.32195	22830.925
863.1462	22808.625
866.96777	22774.925
870.78668	22743.225
874.60293	22809.125
878.41652	22822.025
882.22745	22847.625
886.03573	22922.625
889.84136	22939.125
893.64433	22895.925
897.44466	22856.225
901.24235	22771.525
905.0374	22715.825
908.8298	22740.525
912.61957	22739.025
916.40671	22841.825
920.19121	22968.925
923.97308	23071.525
927.75233	23169.825
931.52895	23127.325
935.30295	22903.925
939.07433	22678.725
942.84309	22508.425
946.60924	22402.425
950.37278	22387.025
954.13371	22286.025
957.89203	22276.125
961.64774	22268.325
965.40086	22241.125
969.15137	22205.225
972.89929	22144.125
976.64461	22131.025
980.38733	22109.825
984.12747	22216.725
987.86502	22311.525
991.59999	22422.925
995.33237	22557.625
999.06217	22740.425
1002.78939	23044.925
1006.51404	23278.925
1010.23611	23549.925
1013.95561	23705.625
1017.67255	23686.125
1021.38692	23608.025
1025.09872	23415.725
1028.80796	23295.925
1032.51465	23324.725
1036.21877	23475.525
1039.92035	23564.025
1043.61937	23612.225
1047.31584	23598.225
1051.00976	23564.925
1054.70114	23622.025
1058.38998	23727.325
1062.07627	23928.525
1065.76003	24305.925
1069.44126	24719.025
1073.11995	25142.225
1076.79611	25398.025
1080.46974	25260.425
1084.14085	25048.625
1087.80943	24919.925
1091.47549	24854.525
1095.13903	24764.325
1098.80005	24522.925
1102.45857	24199.125
1106.11456	23937.725
1109.76805	23788.325
1113.41903	23846.525
1117.06751	23978.125
1120.71348	24135.825
1124.35696	24361.525
1127.99793	24616.525
1131.63641	24740.925
1135.2724	24547.025
1138.90589	24380.425
1142.5369	24288.025
1146.16542	24305.325
1149.79145	24387.725
1153.415	24482.325
1157.03607	24570.925
1160.65467	24840.325
1164.27079	25446.225
1167.88443	26239.725
1171.49561	27195.025
1175.10432	28524.325
1178.71056	30113.325
1182.31434	31490.325
1185.91565	32075.525
1189.51451	31832.325
1193.11091	31182.425
1196.70485	30372.125
1200.29634	29556.325
1203.88538	28970.225
1207.47197	28489.525
1211.05612	28053.725
1214.63782	27685.925
1218.21708	27279.725
1221.79391	27001.425
1225.36829	26821.925
1228.94024	26753.025
1232.50976	26564.825
1236.07685	26366.925
1239.6415	26256.125
1243.20374	26253.025
1246.76355	26384.125
1250.32093	26619.325
1253.8759	26856.125
1257.42845	27358.125
1260.97859	27794.125
1264.52631	28198.225
1268.07163	28617.525
1271.61453	29040.925
1275.15503	29567.725
1278.69312	30040.125
1282.22882	30465.725
1285.76211	31097.325
1289.29301	31899.525
1292.82151	32933.625
1296.34761	34031.225
1299.87133	35278.625
1303.39266	36630.725
1306.9116	37980.425
1310.42815	39266.125
1313.94233	39943.925
1317.45412	39707.025
1320.96354	39069.925
1324.47058	38240.825
1327.97525	37501.925
1331.47754	36922.825
1334.97747	36520.125
1338.47502	36346.625
1341.97022	36199.125
1345.46305	36110.125
1348.95352	36280.925
1352.44163	36853.825
1355.92738	37942.325
1359.41078	39525.425
1362.89183	40812.325
1366.37053	40266.425
1369.84688	37611.925
1373.32088	34399.425
1376.79254	32210.525
1380.26186	31309.525
1383.72883	31059.025
1387.19347	30895.125
1390.65578	30589.725
1394.11575	30328.725
1397.57339	30319.825
1401.0287	30397.025
1404.48168	30488.425
1407.93234	30344.425
1411.38068	29919.925
1414.82669	29407.325
1418.27039	28753.725
1421.71177	28101.525
1425.15083	27556.925
1428.58758	27243.525
1432.02203	27326.325
1435.45416	27654.925
1438.88399	28071.725
1442.31151	28355.025
1445.73673	28543.325
1449.15965	28742.725
1452.58027	28779.925
1455.9986	28794.925
1459.41463	28871.325
1462.82837	29098.425
1466.23982	29531.325
1469.64898	29908.925
1473.05586	30229.125
1476.46045	30345.225
1479.86276	30396.125
1483.26279	30416.525
1486.66054	30467.725
1490.05602	30698.025
1493.44922	31152.425
1496.84016	31678.125
1500.22882	32403.125
1503.61521	33474.225
1506.99934	34550.225
1510.38121	35347.625
1513.76081	35363.925
1517.13816	34587.225
1520.51324	33276.425
1523.88607	32269.825
1527.25665	31642.225
1530.62498	31442.325
1533.99105	31272.625
1537.35488	31033.925
1540.71647	30656.125
1544.07581	30166.125
1547.4329	29701.725
1550.78776	29264.025
1554.14038	28965.825
1557.49077	28832.825
1560.83892	28792.025
1564.18484	28964.225
1567.52853	29296.025
1570.86999	29765.025
1574.20922	30458.725
1577.54624	31094.625
1580.88103	31246.525
1584.2136	31082.425
1587.54395	31012.225
1590.87208	31274.225
1594.19801	31992.025
1597.52172	32903.725
1600.84321	33225.225
1604.16251	32400.425
1607.47959	30876.325
1610.79447	29202.025
1614.10715	27636.025
1617.41763	26359.125
1620.7259	25522.425
1624.03199	25088.425
1627.33587	25103.225
1630.63757	25430.525
1633.93707	26281.725
1637.23439	27714.125
1640.52951	29847.525
1643.82246	32438.825
1647.11321	34718.325
1650.40179	35366.325
1653.68819	33851.025
1656.97241	30840.925
1660.25446	27851.425
1663.53433	25608.725
1666.81203	24227.425
1670.08756	23246.525
1673.36092	22654.025
1676.63211	22280.825
1679.90115	22007.425
1683.16801	21770.725
1686.43272	21644.325
1689.69527	21510.325
1692.95567	21425.025
1696.2139	21416.925
1699.46999	21422.625
1702.72392	21356.725
1705.97571	21354.725
1709.22535	21303.725
1712.47284	21270.025
1715.71819	21265.625
1718.96139	21237.925
1722.20246	21180.725
1725.44139	21146.025
1728.67818	21089.525
1731.91284	20993.125
1735.14537	20904.025
1738.37576	20886.825
1741.60403	20823.225
1744.83017	20767.325
1748.05418	20788.225
1751.27607	20700.125
1754.49584	20669.125
1757.71349	20712.825
1760.92903	20674.725
1764.14244	20675.125
1767.35375	20702.625
1770.56294	20669.225
1773.77002	20660.725
1776.97499	20619.825
1780.17785	20579.425
1783.37861	20542.025
1786.57727	20525.025
1789.77382	20481.525
1792.96828	20456.325
1796.16064	20468.525
1799.3509	20396.925
1802.53907	20374.225
1805.72514	20322.025
1808.90913	20252.725
1812.09102	20211.025
1815.27083	20213.925
1818.44856	20180.525
1821.6242	20190.925
1824.79776	20149.825
1827.96924	20117.025
1831.13864	20094.725
1834.30597	20149.525
1837.47122	20109.425
1840.6344	20078.025
1843.7955	20092.025
1846.95454	20066.725
1850.11151	20071.325
1853.26642	20055.925
1856.41926	20043.125
1859.57004	20029.925
1862.71876	20037.925
1865.86542	20015.125
1869.01003	19992.625
1872.15258	19990.925
1875.29308	19950.025
1878.43152	19916.125
1881.56792	19936.725
1884.70227	19909.725
1887.83457	19898.925
1890.96482	19889.725
1894.09304	19875.525
1897.21921	19879.625
1900.34335	19850.825
1903.46544	19834.225
1906.58551	19818.025
1909.70353	19770.525
1912.81953	19774.125
1915.93349	19754.025
1919.04543	19673.625
1922.15534	19668.025
1925.26322	19646.725
1928.36908	19632.325
1931.47292	19630.225
1934.57473	19543.525
1937.67453	19489.725
1940.77232	19470.125
1943.86808	19430.225
1946.96184	19391.725
1950.05358	19363.325
1953.14331	19287.425
1956.23103	19269.725
1959.31675	19226.325
1962.40046	19199.025
1965.48217	19135.925
1968.56188	19105.325
1971.63959	19001.325
1974.7153	18981.925
1977.78901	18908.125
1980.86073	18852.025
1983.93046	18807.025
1986.99819	18781.725
1990.06394	18731.525
1993.1277	18678.125
1996.18947	18615.225
1999.24925	18589.525
2002.30706	18516.125
2005.36288	18460.125
2008.41672	18426.525
2011.46859	18373.525
2014.51848	18339.525
2017.56639	18302.425
2020.61233	18263.025
2023.6563	18229.525
2026.6983	18187.125
2029.73833	18166.425
2032.7764	18117.525
2035.8125	18074.625
2038.84664	18026.525
2041.87881	18035.225
2044.90903	17963.725
2047.93729	17963.025
2050.96359	17961.325
2053.98794	17934.025
2057.01034	17899.725
2060.03078	17929.725
2063.04927	17857.525
2066.06582	17911.425
2069.08042	17882.125
2072.09307	17867.825
2075.10378	17855.225
2078.11255	17828.525
2081.11938	17800.425
2084.12426	17829.025
2087.12722	17827.925
2090.12824	17837.225
2093.12732	17842.625
2096.12447	17843.125
2099.11969	17883.725
2102.11299	17889.225
2105.10435	17879.925
2108.09379	17879.525
2111.08131	17910.425
2114.0669	17928.325
2117.05057	17914.525
2120.03233	17962.025
2123.01216	17975.125
2125.99008	17963.225
2128.96609	18012.525
2131.94018	18025.125
2134.91236	18045.925
2137.88263	18062.925
2140.851	18061.925
2143.81746	18105.925
2146.78201	18077.525
2149.74466	18076.725
2152.7054	18081.925
2155.66425	18128.225
2158.6212	18145.625
2161.57625	18106.725
2164.52941	18121.925
2167.48067	18093.025
2170.43004	18044.925
2173.37752	18049.625
2176.32311	18089.325
2179.26681	18085.425
2182.20863	18080.325
2185.14856	18116.325
2188.08661	18033.825
2191.02278	18060.125
2193.95707	18072.425
2196.88948	18025.925
2199.82001	18020.825
2202.74867	18022.725
2205.67545	18031.525
2208.60037	18015.125
2211.52341	17989.525
2214.44458	17955.925
2217.36388	17906.625
2220.28132	17903.525
2223.1969	17828.125
2226.11061	17862.325
2229.02246	17798.925
2231.93245	17782.925
2234.84058	17773.925
2237.74686	17756.025
2240.65128	17699.425
2243.55385	17687.625
2246.45456	17626.725
2249.35343	17641.825
2252.25044	17625.825
2255.14561	17597.725
2258.03893	17587.525
2260.93041	17552.725
2263.82004	17506.625
2266.70783	17495.225
2269.59378	17414.125
2272.4779	17415.125
2275.36017	17376.625
2278.24061	17323.725
2281.11922	17295.325
2283.996	17298.825
2286.87094	17273.825
2289.74405	17243.025
2292.61534	17213.325
2295.4848	17201.425
2298.35243	17214.225
2301.21824	17211.225
2304.08223	17177.025
2306.94439	17177.925
2309.80474	17149.125
2312.66327	17165.325
2315.51999	17153.025
2318.37489	17132.325
2321.22797	17121.125
2324.07925	17139.825
2326.92871	17070.425
2329.77637	17062.625
2332.62222	17044.025
2335.46626	17055.525
2338.3085	17024.725
2341.14893	17001.225
2343.98756	16974.525
2346.8244	16961.925
2349.65943	16954.025
2352.49267	16953.525
2355.32411	16952.625
2358.15376	16908.925
2360.98161	16902.125
2363.80768	16906.425
2366.63195	16890.925
2369.45444	16869.925
2372.27514	16850.725
2375.09405	16859.425
2377.91118	16811.025
2380.72652	16749.925
2383.54009	16749.225
2386.35187	16739.125
2389.16188	16681.225
2391.97011	16637.425
2394.77657	16659.825
2397.58125	16634.925
2400.38416	16599.925
2403.18529	16577.725
2405.98466	16546.625
2408.78226	16534.325
2411.57809	16480.125
2414.37216	16465.025
2417.16446	16457.225
2419.955	16441.925
2422.74378	16422.025
2425.5308	16391.825
2428.31606	16384.625
2431.09956	16371.925
2433.88131	16357.025
2436.6613	16359.225
2439.43954	16357.025
2442.21603	16338.425
2444.99077	16337.125
2447.76377	16347.725
2450.53501	16339.725
2453.30451	16306.825
2456.07226	16272.225
2458.83827	16279.425
2461.60254	16283.425
2464.36507	16230.725
2467.12586	16222.025
2469.88492	16217.525
2472.64224	16212.325
2475.39782	16219.125
2478.15167	16210.825
2480.90379	16177.425
2483.65417	16187.125
2486.40283	16170.325
2489.14976	16238.325
2491.89497	16190.125
2494.63845	16177.225
2497.3802	16165.225
2500.12024	16130.525
2502.85855	16133.825
2505.59514	16123.025
2508.33002	16096.025
2511.06318	16079.525
2513.79462	16079.325
2516.52435	16054.825
2519.25237	16070.125
2521.97867	16021.825
2524.70327	16036.425
2527.42616	16004.825
2530.14734	15998.725
2532.86681	15979.825
2535.58458	15945.525
2538.30065	15896.025
2541.01501	15892.825
2543.72768	15895.225
2546.43864	15905.325
2549.14791	15850.925
2551.85548	15800.725
2554.56136	15801.025
2557.26554	15734.825
2559.96803	15755.125
2562.66883	15754.425
2565.36794	15720.925
2568.06536	15706.725
2570.7611	15717.325
2573.45514	15685.925
2576.14751	15674.425
2578.83819	15631.025
2581.52719	15614.625
2584.21451	15576.225
2586.90015	15580.525
2589.58411	15565.725
2592.2664	15516.225
2594.94701	15456.925
2597.62594	15478.325
2600.30321	15429.225
2602.9788	15400.825
2605.65273	15377.225
2608.32498	15366.525
2610.99557	15312.925
2613.66449	15334.525
2616.33175	15305.125
2618.99734	15313.325
2621.66128	15305.425
2624.32355	15283.025
2626.98416	15279.725
2629.64311	15265.025
2632.30041	15245.825
2634.95605	15218.425
2637.61004	15179.525
2640.26238	15192.525
2642.91306	15175.825
2645.56209	15143.925
2648.20948	15165.625
2650.85521	15131.825
2653.4993	15152.425
2656.14175	15127.125
2658.78255	15148.625
2661.42171	15134.325
2664.05923	15141.925
2666.6951	15170.425
2669.32934	15168.125
2671.96194	15126.825
2674.59291	15148.925
2677.22224	15138.525
2679.84993	15157.725
2682.476	15158.025
2685.10043	15154.725
2687.72324	15121.625
2690.34441	15159.025
2692.96396	15121.525
2695.58188	15146.325
2698.19818	15134.325
2700.81285	15134.725
2703.4259	15139.625
2706.03733	15206.925
2708.64714	15178.625
2711.25533	15183.725
2713.86191	15174.225
2716.46687	15201.825
2719.07021	15177.825
2721.67194	15161.525
2724.27206	15134.625
2726.87057	15142.825
2729.46747	15132.225
2732.06276	15144.025
2734.65644	15123.125
2737.24852	15147.325
2739.83899	15093.225
2742.42786	15096.625
2745.01513	15049.925
2747.60079	15071.925
2750.18486	15033.225
2752.76733	15054.925
2755.3482	15034.925
2757.92747	15018.225
2760.50515	15028.325
2763.08123	15011.425
2765.65573	14983.825
2768.22863	14971.925
2770.79994	14955.925
2773.36967	14975.825
2775.9378	14934.225
2778.50435	14925.825
2781.06932	14864.725
2783.6327	14881.225
2786.1945	14839.825
2788.75471	14834.925
2791.31335	14799.325
2793.87041	14765.625
2796.42589	14690.325
2798.97979	14733.725
2801.53212	14685.025
2804.08288	14673.725
2806.63206	14610.625
2809.17967	14582.525
2811.72571	14568.925
2814.27018	14583.325
2816.81308	14558.425
2819.35442	14512.025
2821.89419	14505.925
2824.43239	14494.825
2826.96904	14447.625
2829.50412	14478.625
2832.03763	14434.525
2834.56959	14448.925
2837.1	14414.425
2839.62884	14432.225
2842.15613	14418.325
2844.68186	14433.425
2847.20604	14422.025
2849.72867	14454.325
2852.24974	14407.925
2854.76927	14421.925
2857.28724	14368.525
2859.80367	14339.625
2862.31855	14330.625
2864.83189	14302.125
2867.34368	14262.225
2869.85393	14296.425
2872.36264	14271.825
2874.8698	14279.225
2877.37543	14298.225
2879.87952	14316.225
2882.38207	14280.625
2884.88308	14266.825
2887.38256	14272.025
2889.88051	14251.925
2892.37692	14269.725
2894.8718	14243.325
2897.36515	14261.225
2899.85698	14277.625
2902.34727	14275.725
2904.83604	14282.525
2907.32328	14303.225
2909.809	14255.125
2912.29319	14293.825
2914.77587	14264.525
2917.25702	14280.525
2919.73665	14270.825
2922.21476	14287.125
2924.69136	14286.225
2927.16644	14261.825
2929.64	14244.625
2932.11205	14249.825
2934.58258	14217.625
2937.05161	14271.025
2939.51912	14238.425
2941.98513	14265.425
2944.44962	14196.725
2946.91261	14132.725
2949.37409	14164.325
2951.83407	14153.825
2954.29254	14121.925
2956.74951	14106.125
2959.20498	14098.925
2961.65895	14074.425
2964.11142	14080.225
2966.56239	14056.425
2969.01186	14070.825
2971.45984	14043.225
2973.90632	14014.125
2976.35131	13977.525
2978.7948	13970.425
2981.23681	13930.325
2983.67732	13909.525
2986.11635	13862.525
2988.55388	13834.925
2990.98993	13842.725
2993.4245	13825.425
2995.85758	13782.325
2998.28917	13750.125
3000.71928	13746.525
3003.14791	13707.025
3005.57506	13710.325
3008.00073	13667.625
3010.42493	13695.825
3012.84764	13662.825
3015.26888	13655.225
3017.68865	13644.825
3020.10694	13608.425
3022.52376	13577.725
3024.9391	13558.125
3027.35298	13553.025
3029.76539	13551.825
3032.17632	13547.825
3034.5858	13521.425
3036.9938	13482.925
3039.40034	13475.725
3041.80542	13454.525
3044.20903	13442.325
3046.61118	13411.325
3049.01187	13399.925
3051.4111	13383.525
3053.80888	13369.925
3056.20519	13344.525
3058.60005	13319.825
3060.99345	13261.625
3063.3854	13278.025
3065.7759	13252.125
3068.16494	13237.525
3070.55254	13202.725
3072.93868	13195.925
3075.32338	13121.825
3077.70662	13120.225
3080.08842	13081.025
3082.46878	13101.425
3084.84769	13070.025
3087.22515	13080.325
3089.60118	13070.725
3091.97576	13118.525
3094.3489	13104.025
3096.72061	13085.425
3099.09087	13088.725
3101.4597	13086.725
3103.82709	13077.625
3106.19305	13044.025
3108.55757	13037.425
3110.92066	13020.525
3113.28232	12998.225
3115.64255	12942.625
3118.00134	12944.225
3120.35871	12930.425
3122.71466	12920.025
3125.06917	12855.125
3127.42226	12850.025
3129.77393	12870.225
