Data from AgNP_FTO_APTES_CRN_5uM_R6G_10uM_NaF_0.1M_Addition_RamanShift__38__16-10-17-945.txt Node

Date: Wed Dec 15 16:10:17 GMT 2021
User: TCL
Spectrometer: QEP01345
Trigger mode: 4
Integration Time (sec): 7.000000E0
Scans to average: 10
Electric dark correction enabled: true
Nonlinearity correction enabled: false
Boxcar width: 0
XAxis mode: Raman Shifts
Number of Pixels in Spectrum: 1044
>>>>>Begin Spectral Data<<<<<
46.04893	0.6375
50.45542	-2.7625
54.85868	-0.9625
59.25871	-1.4625
63.6555	102.8375
68.04907	112.5375
72.43941	117.0375
76.82654	119.5375
81.21044	123.9375
85.59113	130.0375
89.96862	135.8375
94.34289	135.9375
98.71396	145.0375
103.08183	150.1375
107.4465	153.5375
111.80798	159.2375
116.16626	162.1375
120.52136	168.1375
124.87327	168.8375
129.222	173.1375
133.56755	184.3375
137.90993	200.1375
142.24913	217.6375
146.58517	240.7375
150.91804	272.5375
155.24774	322.4375
159.57429	402.9375
163.89768	502.6375
168.21792	656.8375
172.53501	889.3375
176.84895	1236.0375
181.15975	1742.5375
185.46741	2433.2375
189.77193	3351.9375
194.07331	4485.6375
198.37157	5764.2375
202.6667	7175.7375
206.9587	8512.6375
211.24758	9852.6375
215.53334	11184.3375
219.81599	12631.3375
224.09553	14222.9375
228.37195	15959.3375
232.64527	17914.5375
236.91549	19910.8375
241.18261	21910.6375
245.44663	23718.3375
249.70755	25351.9375
253.96539	26814.5375
258.22014	28084.7375
262.4718	29171.1375
266.72039	29933.9375
270.96589	30359.2375
275.20832	30384.3375
279.44768	30194.6375
283.68397	29795.3375
287.91719	29452.0375
292.14735	29196.9375
296.37445	29223.8375
300.59849	29402.1375
304.81948	29718.5375
309.03742	29902.9375
313.25231	29816.0375
317.46415	29318.9375
321.67296	28639.9375
325.87872	28049.6375
330.08145	27774.4375
334.28114	27890.5375
338.47781	28177.8375
342.67145	28558.8375
346.86207	29082.7375
351.04966	29784.6375
355.23424	30558.4375
359.4158	31189.4375
363.59435	31738.4375
367.76989	31978.4375
371.94243	32252.8375
376.11196	32406.9375
380.27849	32523.7375
384.44203	32622.4375
388.60257	32736.9375
392.76012	32914.0375
396.91468	33202.2375
401.06626	33749.7375
405.21485	34168.2375
409.36047	34007.2375
413.50311	33527.6375
417.64277	33046.9375
421.77947	32869.6375
425.9132	32917.6375
430.04396	33088.1375
434.17176	33382.8375
438.2966	33878.4375
442.41849	34626.4375
446.53742	35814.3375
450.6534	37074.4375
454.76644	37911.3375
458.87653	38039.2375
462.98368	37547.8375
467.08789	36812.3375
471.18916	36074.8375
475.2875	35277.2375
479.38291	34684.5375
483.4754	34176.4375
487.56496	33856.9375
491.6516	33575.0375
495.73531	33435.4375
499.81612	33357.2375
503.89401	33544.4375
507.96899	33680.6375
512.04106	33787.3375
516.11023	33836.4375
520.1765	33865.3375
524.23987	33995.3375
528.30034	33956.6375
532.35792	33808.6375
536.41261	33432.4375
540.46441	32949.6375
544.51333	32700.6375
548.55936	32839.0375
552.60252	33358.6375
556.64279	34046.6375
560.6802	34508.0375
564.71473	34604.1375
568.7464	34858.9375
572.7752	35297.4375
576.80114	35477.4375
580.82422	35754.5375
584.84444	36419.3375
588.86181	37586.0375
592.87633	39013.6375
596.888	39970.2375
600.89682	39683.1375
604.9028	40459.9375
608.90594	44043.5375
612.90624	48051.8375
616.90371	45587.4375
620.89834	38414.3375
624.89015	35235.2375
628.87913	34719.9375
632.86528	34642.8375
636.84862	34434.1375
640.82913	33916.7375
644.80683	33134.4375
648.78172	32662.8375
652.75379	32769.1375
656.72306	33329.3375
660.68952	34022.1375
664.65319	33867.7375
668.61405	33271.5375
672.57211	33134.4375
676.52738	33202.9375
680.47986	33064.0375
684.42955	32920.4375
688.37646	32883.2375
692.32058	33096.2375
696.26192	33459.3375
700.20048	33881.5375
704.13626	34089.9375
708.06928	33971.0375
711.99952	33697.7375
715.927	33767.9375
719.85171	33873.2375
723.77365	33831.5375
727.69284	33577.3375
731.60928	33293.9375
735.52295	33285.2375
739.43388	33306.7375
743.34206	33404.9375
747.24749	33606.9375
751.15017	33763.8375
755.05012	34144.6375
758.94733	34903.5375
762.8418	36428.0375
766.73354	38876.9375
770.62254	41355.9375
774.50882	42284.6375
778.39237	40893.7375
782.27321	38299.0375
786.15132	35948.0375
790.02671	34557.4375
793.89938	33961.2375
797.76935	33700.3375
801.6366	33637.9375
805.50115	33588.1375
809.36299	33477.7375
813.22213	33351.5375
817.07857	33220.3375
820.93231	33151.5375
824.78336	33157.5375
828.63172	33227.8375
832.47738	33334.0375
836.32036	33451.9375
840.16066	33580.1375
843.99827	33621.8375
847.8332	33531.7375
851.66546	33425.1375
855.49504	33430.7375
859.32195	33346.8375
863.1462	33305.1375
866.96777	33203.5375
870.78668	33218.0375
874.60293	33206.2375
878.41652	33295.1375
882.22745	33420.9375
886.03573	33500.7375
889.84136	33514.2375
893.64433	33334.3375
897.44466	33224.1375
901.24235	33192.1375
905.0374	33099.8375
908.8298	33109.0375
912.61957	33090.7375
916.40671	33300.9375
920.19121	33565.5375
923.97308	33865.0375
927.75233	34044.0375
931.52895	34035.8375
935.30295	33828.9375
939.07433	33476.8375
942.84309	33095.5375
946.60924	32959.2375
950.37278	32904.8375
954.13371	32760.1375
957.89203	32632.2375
961.64774	32574.6375
965.40086	32528.4375
969.15137	32446.7375
972.89929	32419.0375
976.64461	32434.5375
980.38733	32540.9375
984.12747	32769.5375
987.86502	33033.1375
991.59999	33472.7375
995.33237	33956.7375
999.06217	34742.8375
1002.78939	35585.5375
1006.51404	36158.0375
1010.23611	36460.8375
1013.95561	36753.5375
1017.67255	36752.0375
1021.38692	36381.4375
1025.09872	36006.6375
1028.80796	36135.9375
1032.51465	36886.7375
1036.21877	37670.8375
1039.92035	37732.3375
1043.61937	37347.0375
1047.31584	36696.8375
1051.00976	36024.9375
1054.70114	35624.7375
1058.38998	35513.4375
1062.07627	35592.8375
1065.76003	35819.1375
1069.44126	36147.3375
1073.11995	36596.2375
1076.79611	37145.6375
1080.46974	37474.2375
1084.14085	37714.3375
1087.80943	37905.8375
1091.47549	37945.7375
1095.13903	37606.0375
1098.80005	37062.8375
1102.45857	36510.8375
1106.11456	36340.4375
1109.76805	36367.5375
1113.41903	36605.8375
1117.06751	36890.4375
1120.71348	37295.6375
1124.35696	37693.8375
1127.99793	38008.2375
1131.63641	38103.9375
1135.2724	37643.3375
1138.90589	37226.8375
1142.5369	36993.4375
1146.16542	36825.2375
1149.79145	36738.5375
1153.415	36859.6375
1157.03607	37192.6375
1160.65467	37775.9375
1164.27079	38880.8375
1167.88443	40416.8375
1171.49561	42442.0375
1175.10432	45285.3375
1178.71056	48971.7375
1182.31434	52398.9375
1185.91565	53986.7375
1189.51451	53365.6375
1193.11091	51198.5375
1196.70485	48915.4375
1200.29634	46835.7375
1203.88538	45349.8375
1207.47197	44161.6375
1211.05612	43268.1375
1214.63782	42597.0375
1218.21708	42453.0375
1221.79391	42600.9375
1225.36829	42759.1375
1228.94024	42519.7375
1232.50976	41819.5375
1236.07685	41207.6375
1239.6415	40889.9375
1243.20374	40949.2375
1246.76355	41225.1375
1250.32093	41801.8375
1253.8759	42559.0375
1257.42845	43581.3375
1260.97859	44574.8375
1264.52631	45510.2375
1268.07163	46541.3375
1271.61453	47503.1375
1275.15503	48553.3375
1278.69312	49529.6375
1282.22882	50332.5375
1285.76211	51320.8375
1289.29301	52481.0375
1292.82151	53776.5375
1296.34761	55488.0375
1299.87133	57839.6375
1303.39266	60996.5375
1306.9116	64885.3375
1310.42815	68900.7375
1313.94233	71432.4375
1317.45412	71444.8375
1320.96354	69394.9375
1324.47058	66728.4375
1327.97525	64200.9375
1331.47754	62404.6375
1334.97747	61553.5375
1338.47502	61264.1375
1341.97022	60902.4375
1345.46305	60402.1375
1348.95352	60625.4375
1352.44163	62075.3375
1355.92738	65098.9375
1359.41078	69508.1375
1362.89183	73270.1375
1366.37053	72333.9375
1369.84688	66063.3375
1373.32088	58568.2375
1376.79254	53421.4375
1380.26186	51395.5375
1383.72883	50890.8375
1387.19347	50399.4375
1390.65578	49356.9375
1394.11575	48587.8375
1397.57339	48570.7375
1401.0287	49232.0375
1404.48168	50085.9375
1407.93234	50635.2375
1411.38068	50927.1375
1414.82669	50584.9375
1418.27039	49543.8375
1421.71177	48195.6375
1425.15083	46888.3375
1428.58758	46114.6375
1432.02203	46365.9375
1435.45416	47146.3375
1438.88399	48062.9375
1442.31151	48748.3375
1445.73673	49187.8375
1449.15965	49520.8375
1452.58027	49452.2375
1455.9986	48941.0375
1459.41463	48712.6375
1462.82837	49193.2375
1466.23982	50303.8375
1469.64898	51546.9375
1473.05586	52436.4375
1476.46045	53088.2375
1479.86276	53498.6375
1483.26279	53644.1375
1486.66054	53692.7375
1490.05602	53983.3375
1493.44922	54364.2375
1496.84016	54714.6375
1500.22882	55554.3375
1503.61521	57153.9375
1506.99934	59291.9375
1510.38121	61209.4375
1513.76081	61856.3375
1517.13816	60349.9375
1520.51324	57309.6375
1523.88607	54286.8375
1527.25665	52304.3375
1530.62498	51360.1375
1533.99105	50955.9375
1537.35488	50592.9375
1540.71647	50167.6375
1544.07581	49794.2375
1547.4329	49232.6375
1550.78776	48692.1375
1554.14038	48073.7375
1557.49077	47768.4375
1560.83892	47625.4375
1564.18484	47758.3375
1567.52853	48035.5375
1570.86999	48630.4375
1574.20922	49336.9375
1577.54624	49966.9375
1580.88103	49872.9375
1584.2136	49708.0375
1587.54395	50220.1375
1590.87208	52032.7375
1594.19801	54906.3375
1597.52172	58286.7375
1600.84321	60030.5375
1604.16251	58699.9375
1607.47959	55004.7375
1610.79447	50412.9375
1614.10715	46299.7375
1617.41763	43254.4375
1620.7259	41427.3375
1624.03199	40670.6375
1627.33587	40779.4375
1630.63757	41688.2375
1633.93707	43482.6375
1637.23439	46484.0375
1640.52951	50776.8375
1643.82246	55980.0375
1647.11321	60434.6375
1650.40179	61396.9375
1653.68819	57777.9375
1656.97241	51216.3375
1660.25446	45068.6375
1663.53433	40791.6375
1666.81203	38122.4375
1670.08756	36597.6375
1673.36092	35659.2375
1676.63211	35004.8375
1679.90115	34537.8375
1683.16801	34218.1375
1686.43272	33975.6375
1689.69527	33794.3375
1692.95567	33684.7375
1696.2139	33633.5375
1699.46999	33625.8375
1702.72392	33561.8375
1705.97571	33537.2375
1709.22535	33502.1375
1712.47284	33474.1375
1715.71819	33490.9375
1718.96139	33377.2375
1722.20246	33365.9375
1725.44139	33258.5375
1728.67818	33146.5375
1731.91284	33070.8375
1735.14537	32875.9375
1738.37576	32806.0375
1741.60403	32687.9375
1744.83017	32606.1375
1748.05418	32619.8375
1751.27607	32494.3375
1754.49584	32529.1375
1757.71349	32479.1375
1760.92903	32506.4375
1764.14244	32516.1375
1767.35375	32527.3375
1770.56294	32527.8375
1773.77002	32504.1375
1776.97499	32471.5375
1780.17785	32443.9375
1783.37861	32404.8375
1786.57727	32331.1375
1789.77382	32299.8375
1792.96828	32293.1375
1796.16064	32267.6375
1799.3509	32178.0375
1802.53907	32232.9375
1805.72514	32145.5375
1808.90913	32088.8375
1812.09102	32048.5375
1815.27083	31948.5375
1818.44856	31924.3375
1821.6242	31915.2375
1824.79776	31869.5375
1827.96924	31869.2375
1831.13864	31822.1375
1834.30597	31827.6375
1837.47122	31863.9375
1840.6344	31839.9375
1843.7955	31841.2375
1846.95454	31766.5375
1850.11151	31831.6375
1853.26642	31834.6375
1856.41926	31875.0375
1859.57004	31861.1375
1862.71876	31811.7375
1865.86542	31844.8375
1869.01003	31853.0375
1872.15258	31819.5375
1875.29308	31846.2375
1878.43152	31788.5375
1881.56792	31806.3375
1884.70227	31821.9375
1887.83457	31793.3375
1890.96482	31796.6375
1894.09304	31773.7375
1897.21921	31811.6375
1900.34335	31755.0375
1903.46544	31713.5375
1906.58551	31707.7375
1909.70353	31691.6375
1912.81953	31681.9375
1915.93349	31652.8375
1919.04543	31578.4375
1922.15534	31566.5375
1925.26322	31552.3375
1928.36908	31467.3375
1931.47292	31454.5375
1934.57473	31377.2375
1937.67453	31344.5375
1940.77232	31261.1375
1943.86808	31183.4375
1946.96184	31137.2375
1950.05358	31053.6375
1953.14331	30991.1375
1956.23103	30933.1375
1959.31675	30862.4375
1962.40046	30827.6375
1965.48217	30685.8375
1968.56188	30624.7375
1971.63959	30582.8375
1974.7153	30480.5375
1977.78901	30375.0375
1980.86073	30310.7375
1983.93046	30294.4375
1986.99819	30228.5375
1990.06394	30148.2375
1993.1277	30057.5375
1996.18947	29962.0375
1999.24925	29898.2375
2002.30706	29770.1375
2005.36288	29724.3375
2008.41672	29734.7375
2011.46859	29614.9375
2014.51848	29613.2375
2017.56639	29534.1375
2020.61233	29489.9375
2023.6563	29398.0375
2026.6983	29384.6375
2029.73833	29351.2375
2032.7764	29307.4375
2035.8125	29222.4375
2038.84664	29198.9375
2041.87881	29162.8375
2044.90903	29110.0375
2047.93729	29110.5375
2050.96359	29063.3375
2053.98794	29062.5375
2057.01034	29052.7375
2060.03078	29033.7375
2063.04927	29039.1375
2066.06582	29021.5375
2069.08042	29031.8375
2072.09307	29006.1375
2075.10378	28978.0375
2078.11255	28964.9375
2081.11938	28926.2375
2084.12426	28952.7375
2087.12722	28956.2375
2090.12824	28958.1375
2093.12732	28976.8375
2096.12447	29019.6375
2099.11969	28968.7375
2102.11299	28990.0375
2105.10435	29018.2375
2108.09379	29048.2375
2111.08131	29116.4375
2114.0669	29134.2375
2117.05057	29133.5375
2120.03233	29163.1375
2123.01216	29162.8375
2125.99008	29192.3375
2128.96609	29183.1375
2131.94018	29260.7375
2134.91236	29288.2375
2137.88263	29293.9375
2140.851	29340.9375
2143.81746	29384.3375
2146.78201	29406.2375
2149.74466	29419.3375
2152.7054	29448.1375
2155.66425	29464.5375
2158.6212	29483.7375
2161.57625	29445.7375
2164.52941	29502.2375
2167.48067	29483.3375
2170.43004	29496.8375
2173.37752	29477.0375
2176.32311	29489.0375
2179.26681	29496.4375
2182.20863	29472.5375
2185.14856	29496.1375
2188.08661	29510.2375
2191.02278	29544.3375
2193.95707	29495.6375
2196.88948	29507.6375
2199.82001	29548.1375
2202.74867	29552.1375
2205.67545	29527.2375
2208.60037	29480.7375
2211.52341	29484.3375
2214.44458	29446.4375
2217.36388	29399.5375
2220.28132	29410.7375
2223.1969	29368.3375
2226.11061	29343.1375
2229.02246	29311.5375
2231.93245	29231.4375
2234.84058	29145.1375
2237.74686	29136.4375
2240.65128	29122.7375
2243.55385	29079.4375
2246.45456	29076.2375
2249.35343	29023.6375
2252.25044	28960.2375
2255.14561	28938.0375
2258.03893	28923.9375
2260.93041	28924.2375
2263.82004	28860.1375
2266.70783	28826.8375
2269.59378	28764.1375
2272.4779	28700.5375
2275.36017	28631.7375
2278.24061	28556.9375
2281.11922	28514.4375
2283.996	28515.3375
2286.87094	28471.2375
2289.74405	28458.5375
2292.61534	28433.5375
2295.4848	28373.6375
2298.35243	28424.3375
2301.21824	28413.2375
2304.08223	28403.2375
2306.94439	28402.5375
2309.80474	28474.4375
2312.66327	28464.5375
2315.51999	28454.7375
2318.37489	28436.6375
2321.22797	28468.5375
2324.07925	28373.4375
2326.92871	28356.8375
2329.77637	28285.9375
2332.62222	28357.5375
2335.46626	28312.1375
2338.3085	28292.8375
2341.14893	28286.3375
2343.98756	28326.2375
2346.8244	28320.7375
2349.65943	28276.9375
2352.49267	28224.8375
2355.32411	28232.1375
2358.15376	28216.6375
2360.98161	28202.8375
2363.80768	28226.9375
2366.63195	28171.6375
2369.45444	28180.7375
2372.27514	28101.6375
2375.09405	28100.0375
2377.91118	28021.5375
2380.72652	28029.3375
2383.54009	28026.5375
2386.35187	27947.0375
2389.16188	27925.1375
2391.97011	27862.1375
2394.77657	27845.4375
2397.58125	27808.9375
2400.38416	27766.8375
2403.18529	27733.8375
2405.98466	27678.0375
2408.78226	27634.3375
2411.57809	27569.9375
2414.37216	27520.8375
2417.16446	27552.0375
2419.955	27503.2375
2422.74378	27484.0375
2425.5308	27460.9375
2428.31606	27442.8375
2431.09956	27447.4375
2433.88131	27397.8375
2436.6613	27443.1375
2439.43954	27366.7375
2442.21603	27368.0375
2444.99077	27382.5375
2447.76377	27372.5375
2450.53501	27329.1375
2453.30451	27356.3375
2456.07226	27319.8375
2458.83827	27300.2375
2461.60254	27332.8375
2464.36507	27317.8375
2467.12586	27307.6375
2469.88492	27258.0375
2472.64224	27260.2375
2475.39782	27292.8375
2478.15167	27307.4375
2480.90379	27310.8375
2483.65417	27322.3375
2486.40283	27316.2375
2489.14976	27326.9375
2491.89497	27329.2375
2494.63845	27363.1375
2497.3802	27358.6375
2500.12024	27353.6375
2502.85855	27346.4375
2505.59514	27371.4375
2508.33002	27287.0375
2511.06318	27227.9375
2513.79462	27238.8375
2516.52435	27217.3375
2519.25237	27231.8375
2521.97867	27145.6375
2524.70327	27100.6375
2527.42616	27127.6375
2530.14734	27043.4375
2532.86681	27045.1375
2535.58458	27044.4375
2538.30065	26970.5375
2541.01501	26986.8375
2543.72768	27014.1375
2546.43864	26962.0375
2549.14791	26932.4375
2551.85548	26903.6375
2554.56136	26893.4375
2557.26554	26823.1375
2559.96803	26841.7375
2562.66883	26809.9375
2565.36794	26835.7375
2568.06536	26790.5375
2570.7611	26794.5375
2573.45514	26750.0375
2576.14751	26708.2375
2578.83819	26735.8375
2581.52719	26719.3375
2584.21451	26651.9375
2586.90015	26630.2375
2589.58411	26594.5375
2592.2664	26560.1375
2594.94701	26538.1375
2597.62594	26542.6375
2600.30321	26486.9375
2602.9788	26483.0375
2605.65273	26454.5375
2608.32498	26445.2375
2610.99557	26381.1375
2613.66449	26402.8375
2616.33175	26398.0375
2618.99734	26369.7375
2621.66128	26345.6375
2624.32355	26394.0375
2626.98416	26359.6375
2629.64311	26303.6375
2632.30041	26302.3375
2634.95605	26274.9375
2637.61004	26228.3375
2640.26238	26231.3375
2642.91306	26187.4375
2645.56209	26195.8375
2648.20948	26214.7375
2650.85521	26148.6375
2653.4993	26174.3375
2656.14175	26182.9375
2658.78255	26174.5375
2661.42171	26155.9375
2664.05923	26232.5375
2666.6951	26239.0375
2669.32934	26237.5375
2671.96194	26214.9375
2674.59291	26304.8375
2677.22224	26231.8375
2679.84993	26230.5375
2682.476	26209.7375
2685.10043	26186.3375
2687.72324	26174.2375
2690.34441	26210.0375
2692.96396	26183.5375
2695.58188	26217.4375
2698.19818	26204.7375
2700.81285	26187.5375
2703.4259	26202.6375
2706.03733	26260.7375
2708.64714	26289.1375
2711.25533	26286.7375
2713.86191	26356.7375
2716.46687	26337.8375
2719.07021	26325.9375
2721.67194	26355.3375
2724.27206	26284.5375
2726.87057	26326.3375
2729.46747	26349.7375
2732.06276	26390.6375
2734.65644	26333.1375
2737.24852	26379.7375
2739.83899	26320.6375
2742.42786	26314.4375
2745.01513	26311.3375
2747.60079	26245.3375
2750.18486	26234.3375
2752.76733	26210.1375
2755.3482	26272.4375
2757.92747	26289.0375
2760.50515	26211.3375
2763.08123	26196.7375
2765.65573	26159.8375
2768.22863	26137.8375
2770.79994	26105.2375
2773.36967	26117.2375
2775.9378	26090.2375
2778.50435	26006.7375
2781.06932	26043.0375
2783.6327	26076.5375
2786.1945	26051.4375
2788.75471	25992.4375
2791.31335	25920.9375
2793.87041	25893.8375
2796.42589	25848.9375
2798.97979	25877.4375
2801.53212	25836.0375
2804.08288	25814.1375
2806.63206	25718.0375
2809.17967	25658.0375
2811.72571	25641.6375
2814.27018	25613.0375
2816.81308	25556.2375
2819.35442	25570.6375
2821.89419	25520.8375
2824.43239	25524.6375
2826.96904	25492.2375
2829.50412	25480.3375
2832.03763	25439.8375
2834.56959	25448.0375
2837.1	25399.7375
2839.62884	25378.2375
2842.15613	25362.1375
2844.68186	25383.4375
2847.20604	25331.1375
2849.72867	25308.0375
2852.24974	25319.7375
2854.76927	25290.3375
2857.28724	25259.6375
2859.80367	25220.8375
2862.31855	25226.4375
2864.83189	25189.9375
2867.34368	25145.4375
2869.85393	25165.9375
2872.36264	25118.7375
2874.8698	25153.1375
2877.37543	25159.5375
2879.87952	25163.8375
2882.38207	25194.6375
2884.88308	25151.9375
2887.38256	25208.8375
2889.88051	25171.0375
2892.37692	25189.6375
2894.8718	25144.7375
2897.36515	25207.2375
2899.85698	25164.3375
2902.34727	25260.6375
2904.83604	25241.6375
2907.32328	25316.0375
2909.809	25321.6375
2912.29319	25364.7375
2914.77587	25366.5375
2917.25702	25352.0375
2919.73665	25321.5375
2922.21476	25363.1375
2924.69136	25335.5375
2927.16644	25295.8375
2929.64	25261.9375
2932.11205	25214.7375
2934.58258	25114.9375
2937.05161	25212.7375
2939.51912	25234.5375
2941.98513	25262.3375
2944.44962	25149.8375
2946.91261	25066.8375
2949.37409	25088.1375
2951.83407	25148.9375
2954.29254	25125.6375
2956.74951	25098.6375
2959.20498	25118.8375
2961.65895	25100.8375
2964.11142	25096.8375
2966.56239	25065.7375
2969.01186	25018.7375
2971.45984	24971.0375
2973.90632	24966.5375
2976.35131	24886.8375
2978.7948	24927.0375
2981.23681	24884.3375
2983.67732	24826.1375
2986.11635	24789.6375
2988.55388	24745.8375
2990.98993	24652.9375
2993.4245	24678.6375
2995.85758	24606.3375
2998.28917	24585.2375
3000.71928	24532.8375
3003.14791	24529.1375
3005.57506	24489.2375
3008.00073	24443.8375
3010.42493	24397.2375
3012.84764	24434.3375
3015.26888	24425.4375
3017.68865	24377.5375
3020.10694	24358.0375
3022.52376	24343.9375
