Data from AgNP_FTO_APTES_CRN_1000uM_R6G_10uM_NaF_0.1M_Addition_RamanShift__31__21-26-28-304.txt Node

Date: Wed Dec 15 21:26:28 GMT 2021
User: TCL
Spectrometer: QEP01345
Trigger mode: 4
Integration Time (sec): 7.000000E0
Scans to average: 10
Electric dark correction enabled: true
Nonlinearity correction enabled: false
Boxcar width: 0
XAxis mode: Raman Shifts
Number of Pixels in Spectrum: 1044
>>>>>Begin Spectral Data<<<<<
46.04893	0.65
50.45542	-0.35
54.85868	-0.45
59.25871	-1.15
63.6555	62.75
68.04907	71.15
72.43941	72.55
76.82654	76.55
81.21044	74.95
85.59113	84.05
89.96862	86.65
94.34289	81.45
98.71396	90.15
103.08183	94.55
107.4465	97.55
111.80798	100.15
116.16626	99.65
120.52136	108.25
124.87327	107.95
129.222	118.05
133.56755	116.65
137.90993	133.55
142.24913	149.45
146.58517	164.75
150.91804	189.15
155.24774	230.95
159.57429	289.45
163.89768	374.25
168.21792	493.85
172.53501	683.05
176.84895	948.15
181.15975	1328.05
185.46741	1853.35
189.77193	2567.05
194.07331	3440.35
198.37157	4427.85
202.6667	5493.35
206.9587	6548.55
211.24758	7600.35
215.53334	8688.45
219.81599	9833.35
224.09553	11125.95
228.37195	12580.65
232.64527	14084.05
236.91549	15645.05
241.18261	17113.25
245.44663	18376.05
249.70755	19405.85
253.96539	20335.35
258.22014	21154.75
262.4718	21820.25
266.72039	22346.25
270.96589	22576.45
275.20832	22529.85
279.44768	22333.95
283.68397	21968.85
287.91719	21739.15
292.14735	21712.75
296.37445	21973.35
300.59849	22508.45
304.81948	23162.05
309.03742	23639.25
313.25231	23544.75
317.46415	22714.65
321.67296	21434.15
325.87872	20335.15
330.08145	19800.25
334.28114	19816.35
338.47781	20051.65
342.67145	20553.65
346.86207	21222.95
351.04966	22266.65
355.23424	23362.85
359.4158	24207.15
363.59435	24634.55
367.76989	24779.45
371.94243	24770.25
376.11196	24680.85
380.27849	24600.85
384.44203	24448.95
388.60257	24257.95
392.76012	24131.95
396.91468	24259.05
401.06626	24677.05
405.21485	25084.75
409.36047	24762.55
413.50311	23827.85
417.64277	22891.15
421.77947	22316.75
425.9132	22157.35
430.04396	22194.35
434.17176	22449.15
438.2966	22836.55
442.41849	23473.75
446.53742	24193.05
450.6534	24914.85
454.76644	25353.75
458.87653	25407.95
462.98368	25111.95
467.08789	24685.55
471.18916	24220.35
475.2875	23820.25
479.38291	23362.45
483.4754	22957.35
487.56496	22592.45
491.6516	22295.65
495.73531	22121.45
499.81612	22140.15
503.89401	22386.45
507.96899	22674.85
512.04106	23152.65
516.11023	23653.85
520.1765	24133.95
524.23987	24312.15
528.30034	24113.45
532.35792	23804.85
536.41261	23323.95
540.46441	22880.95
544.51333	22669.65
548.55936	22734.35
552.60252	23057.85
556.64279	23535.25
560.6802	23809.25
564.71473	24052.45
568.7464	24738.75
572.7752	25126.55
576.80114	24552.45
580.82422	23661.05
584.84444	23251.25
588.86181	23418.85
592.87633	23917.25
596.888	24350.35
600.89682	24758.25
604.9028	26598.05
608.90594	32071.75
612.90624	39158.25
616.90371	37720.65
620.89834	28045.85
624.89015	23429.55
628.87913	22472.75
632.86528	22489.15
636.84862	22737.95
640.82913	22513.75
644.80683	21848.05
648.78172	21436.95
652.75379	21530.55
656.72306	22116.25
660.68952	22907.05
664.65319	22766.15
668.61405	21896.15
672.57211	21552.75
676.52738	21575.15
680.47986	21569.15
684.42955	21428.85
688.37646	21370.05
692.32058	21406.05
696.26192	21559.45
700.20048	21799.55
704.13626	21895.95
708.06928	21818.55
711.99952	21548.55
715.927	21494.65
719.85171	21468.95
723.77365	21367.65
727.69284	21147.05
731.60928	20907.45
735.52295	20919.95
739.43388	20900.15
743.34206	20934.55
747.24749	20911.05
751.15017	20914.75
755.05012	21183.45
758.94733	21960.35
762.8418	23792.75
766.73354	26883.55
770.62254	30161.55
774.50882	31757.35
778.39237	30487.75
782.27321	27031.95
786.15132	23687.35
790.02671	21722.35
793.89938	20846.85
797.76935	20474.05
801.6366	20297.75
805.50115	20182.15
809.36299	20144.05
813.22213	20033.95
817.07857	20058.05
820.93231	20054.25
824.78336	20092.85
828.63172	20216.45
832.47738	20244.05
836.32036	20258.25
840.16066	20158.15
843.99827	20052.95
847.8332	19977.85
851.66546	19919.45
855.49504	19943.55
859.32195	19906.05
863.1462	19886.75
866.96777	19784.35
870.78668	19698.65
874.60293	19628.55
878.41652	19620.15
882.22745	19703.95
886.03573	19749.55
889.84136	19677.75
893.64433	19561.95
897.44466	19529.35
901.24235	19508.15
905.0374	19456.05
908.8298	19406.05
912.61957	19396.65
916.40671	19474.75
920.19121	19550.05
923.97308	19722.85
927.75233	19869.75
931.52895	20147.75
935.30295	19951.85
939.07433	19550.35
942.84309	19085.65
946.60924	18789.65
950.37278	18623.65
954.13371	18530.15
957.89203	18443.05
961.64774	18411.15
965.40086	18313.85
969.15137	18293.35
972.89929	18236.65
976.64461	18194.35
980.38733	18181.85
984.12747	18214.75
987.86502	18297.35
991.59999	18414.45
995.33237	18623.65
999.06217	18939.65
1002.78939	19348.45
1006.51404	19689.35
1010.23611	20015.65
1013.95561	20248.45
1017.67255	20151.75
1021.38692	19853.25
1025.09872	19539.95
1028.80796	19439.55
1032.51465	19517.05
1036.21877	19731.95
1039.92035	19842.95
1043.61937	19880.35
1047.31584	19855.15
1051.00976	19817.15
1054.70114	19812.95
1058.38998	19921.25
1062.07627	20202.95
1065.76003	20649.15
1069.44126	21260.25
1073.11995	22155.55
1076.79611	22942.25
1080.46974	23294.25
1084.14085	23119.65
1087.80943	22706.55
1091.47549	22140.85
1095.13903	21370.65
1098.80005	20571.65
1102.45857	19980.65
1106.11456	19811.95
1109.76805	19902.95
1113.41903	20231.75
1117.06751	20769.95
1120.71348	21449.15
1124.35696	22190.05
1127.99793	22809.35
1131.63641	22803.35
1135.2724	22050.35
1138.90589	21283.15
1142.5369	20719.85
1146.16542	20261.15
1149.79145	20033.35
1153.415	20064.05
1157.03607	20159.15
1160.65467	20509.05
1164.27079	21193.75
1167.88443	22291.45
1171.49561	24061.85
1175.10432	26761.65
1178.71056	30111.15
1182.31434	32518.45
1185.91565	32972.25
1189.51451	31979.25
1193.11091	30055.85
1196.70485	27985.45
1200.29634	26480.85
1203.88538	25279.45
1207.47197	24036.75
1211.05612	23017.45
1214.63782	22539.25
1218.21708	22448.65
1221.79391	22465.15
1225.36829	22371.95
1228.94024	22232.55
1232.50976	21974.05
1236.07685	21980.95
1239.6415	22066.05
1243.20374	22230.25
1246.76355	22395.95
1250.32093	22690.05
1253.8759	23049.45
1257.42845	23643.45
1260.97859	24264.55
1264.52631	24837.15
1268.07163	25445.65
1271.61453	26004.45
1275.15503	26339.75
1278.69312	26474.65
1282.22882	26531.65
1285.76211	26958.05
1289.29301	27783.25
1292.82151	28729.85
1296.34761	29778.55
1299.87133	31209.15
1303.39266	33436.35
1306.9116	36759.05
1310.42815	40521.65
1313.94233	42758.65
1317.45412	42163.55
1320.96354	39752.55
1324.47058	36957.25
1327.97525	34511.05
1331.47754	32994.15
1334.97747	32531.85
1338.47502	32916.25
1341.97022	33638.75
1345.46305	34584.35
1348.95352	36015.45
1352.44163	38476.35
1355.92738	41966.35
1359.41078	47201.65
1362.89183	52109.05
1366.37053	50859.05
1369.84688	44113.25
1373.32088	37060.35
1376.79254	32615.55
1380.26186	30454.45
1383.72883	29293.95
1387.19347	28443.65
1390.65578	27479.25
1394.11575	26720.55
1397.57339	26420.15
1401.0287	26548.85
1404.48168	26808.45
1407.93234	27113.15
1411.38068	27294.45
1414.82669	27072.65
1418.27039	26581.95
1421.71177	25936.75
1425.15083	25259.15
1428.58758	24900.45
1432.02203	25027.15
1435.45416	25296.35
1438.88399	25468.45
1442.31151	25546.85
1445.73673	25674.85
1449.15965	25918.35
1452.58027	25896.85
1455.9986	25752.65
1459.41463	25674.05
1462.82837	25928.75
1466.23982	26533.95
1469.64898	27120.55
1473.05586	27508.75
1476.46045	27792.25
1479.86276	28073.85
1483.26279	28342.75
1486.66054	28754.75
1490.05602	29337.65
1493.44922	30081.55
1496.84016	31149.35
1500.22882	32974.95
1503.61521	35787.35
1506.99934	39440.65
1510.38121	42890.35
1513.76081	44499.75
1517.13816	42636.95
1520.51324	38220.65
1523.88607	33706.75
1527.25665	30709.45
1530.62498	29169.65
1533.99105	28333.45
1537.35488	28064.45
1540.71647	27876.05
1544.07581	27778.05
1547.4329	27651.25
1550.78776	27486.05
1554.14038	27297.85
1557.49077	27283.15
1560.83892	27544.75
1564.18484	28090.95
1567.52853	28902.35
1570.86999	29901.75
1574.20922	31126.05
1577.54624	32114.85
1580.88103	31823.15
1584.2136	30330.65
1587.54395	28685.25
1590.87208	27945.25
1594.19801	28700.35
1597.52172	30298.25
1600.84321	31182.35
1604.16251	30396.85
1607.47959	28433.55
1610.79447	26092.95
1614.10715	23929.25
1617.41763	22242.85
1620.7259	21202.85
1624.03199	20734.95
1627.33587	20702.75
1630.63757	21126.15
1633.93707	22036.75
1637.23439	23545.35
1640.52951	25824.75
1643.82246	28863.55
1647.11321	32211.05
1650.40179	34242.65
1653.68819	33103.95
1656.97241	29013.25
1660.25446	24596.15
1663.53433	21451.45
1666.81203	19602.95
1670.08756	18466.05
1673.36092	17786.85
1676.63211	17341.25
1679.90115	17011.75
1683.16801	16779.55
1686.43272	16608.55
1689.69527	16479.25
1692.95567	16412.55
1696.2139	16370.55
1699.46999	16308.15
1702.72392	16251.45
1705.97571	16238.25
1709.22535	16192.05
1712.47284	16176.65
1715.71819	16197.35
1718.96139	16131.65
1722.20246	16101.25
1725.44139	16019.55
1728.67818	15904.25
1731.91284	15799.55
1735.14537	15703.95
1738.37576	15624.85
1741.60403	15595.95
1744.83017	15524.35
1748.05418	15483.15
1751.27607	15464.45
1754.49584	15405.85
1757.71349	15382.15
1760.92903	15372.25
1764.14244	15343.05
1767.35375	15334.05
1770.56294	15279.85
1773.77002	15277.85
1776.97499	15235.75
1780.17785	15191.65
1783.37861	15160.35
1786.57727	15136.05
1789.77382	15084.55
1792.96828	15069.15
1796.16064	15053.85
1799.3509	15006.35
1802.53907	14976.85
1805.72514	14903.55
1808.90913	14883.95
1812.09102	14850.45
1815.27083	14831.35
1818.44856	14800.75
1821.6242	14753.45
1824.79776	14734.25
1827.96924	14722.25
1831.13864	14680.55
1834.30597	14681.05
1837.47122	14659.75
1840.6344	14628.45
1843.7955	14644.35
1846.95454	14581.95
1850.11151	14564.35
1853.26642	14557.85
1856.41926	14547.15
1859.57004	14567.75
1862.71876	14569.55
1865.86542	14540.75
1869.01003	14527.35
1872.15258	14510.85
1875.29308	14578.55
1878.43152	14527.25
1881.56792	14509.15
1884.70227	14512.75
1887.83457	14507.65
1890.96482	14497.55
1894.09304	14477.95
1897.21921	14497.75
1900.34335	14495.15
1903.46544	14480.35
1906.58551	14466.85
1909.70353	14421.75
1912.81953	14422.95
1915.93349	14396.85
1919.04543	14368.25
1922.15534	14321.45
1925.26322	14313.55
1928.36908	14290.45
1931.47292	14290.75
1934.57473	14229.15
1937.67453	14153.05
1940.77232	14134.55
1943.86808	14102.35
1946.96184	14047.85
1950.05358	13986.05
1953.14331	13958.25
1956.23103	13903.65
1959.31675	13885.15
1962.40046	13870.15
1965.48217	13830.15
1968.56188	13792.85
1971.63959	13758.05
1974.7153	13697.55
1977.78901	13650.55
1980.86073	13621.35
1983.93046	13586.85
1986.99819	13527.05
1990.06394	13479.45
1993.1277	13460.25
1996.18947	13381.25
1999.24925	13362.35
2002.30706	13307.95
2005.36288	13268.25
2008.41672	13238.75
2011.46859	13172.25
2014.51848	13148.85
2017.56639	13147.45
2020.61233	13057.75
2023.6563	13061.15
2026.6983	13035.95
2029.73833	12999.75
2032.7764	12981.75
2035.8125	12928.85
2038.84664	12929.05
2041.87881	12903.25
2044.90903	12878.65
2047.93729	12851.65
2050.96359	12831.75
2053.98794	12810.15
2057.01034	12765.35
2060.03078	12805.05
2063.04927	12773.85
2066.06582	12749.05
2069.08042	12766.25
2072.09307	12747.35
2075.10378	12729.85
2078.11255	12713.85
2081.11938	12705.25
2084.12426	12724.05
2087.12722	12724.05
2090.12824	12701.35
2093.12732	12720.65
2096.12447	12701.35
2099.11969	12708.35
2102.11299	12695.85
2105.10435	12693.65
2108.09379	12692.45
2111.08131	12675.25
2114.0669	12706.05
2117.05057	12669.25
2120.03233	12714.95
2123.01216	12718.35
2125.99008	12716.35
2128.96609	12743.55
2131.94018	12735.75
2134.91236	12758.25
2137.88263	12751.15
2140.851	12736.85
2143.81746	12762.05
2146.78201	12741.15
2149.74466	12736.15
2152.7054	12748.25
2155.66425	12755.45
2158.6212	12761.05
2161.57625	12751.65
2164.52941	12726.85
2167.48067	12702.35
2170.43004	12713.35
2173.37752	12692.95
2176.32311	12654.85
2179.26681	12683.65
2182.20863	12692.85
2185.14856	12682.15
2188.08661	12661.55
2191.02278	12654.45
2193.95707	12635.45
2196.88948	12633.45
2199.82001	12621.35
2202.74867	12599.35
2205.67545	12594.05
2208.60037	12591.65
2211.52341	12568.35
2214.44458	12557.25
2217.36388	12515.65
2220.28132	12502.85
2223.1969	12459.45
2226.11061	12421.65
2229.02246	12438.35
2231.93245	12397.75
2234.84058	12375.85
2237.74686	12332.35
2240.65128	12330.15
2243.55385	12280.65
2246.45456	12276.25
2249.35343	12279.95
2252.25044	12277.55
2255.14561	12236.25
2258.03893	12233.55
2260.93041	12216.45
2263.82004	12177.85
2266.70783	12201.35
2269.59378	12130.65
2272.4779	12105.55
2275.36017	12096.35
2278.24061	12061.05
2281.11922	12010.95
2283.996	12001.25
2286.87094	11973.85
2289.74405	11972.25
2292.61534	11922.95
2295.4848	11905.05
2298.35243	11920.45
2301.21824	11907.05
2304.08223	11875.45
2306.94439	11872.45
2309.80474	11874.05
2312.66327	11872.75
2315.51999	11851.25
2318.37489	11873.75
2321.22797	11846.65
2324.07925	11844.75
2326.92871	11978.85
2329.77637	11902.15
2332.62222	11811.85
2335.46626	11777.35
2338.3085	11761.75
2341.14893	11751.55
2343.98756	11741.65
2346.8244	11746.25
2349.65943	11749.35
2352.49267	11735.45
2355.32411	11736.25
2358.15376	11730.45
2360.98161	11756.45
2363.80768	11735.85
2366.63195	11740.95
2369.45444	11720.25
2372.27514	11710.55
2375.09405	11703.95
2377.91118	11670.25
2380.72652	11641.15
2383.54009	11608.55
2386.35187	11566.95
2389.16188	11532.25
2391.97011	11532.15
2394.77657	11470.35
2397.58125	11442.45
2400.38416	11426.45
2403.18529	11412.15
2405.98466	11387.75
2408.78226	11386.45
2411.57809	11361.85
2414.37216	11300.65
2417.16446	11311.55
2419.955	11285.15
2422.74378	11263.25
2425.5308	11243.45
2428.31606	11239.85
2431.09956	11231.95
2433.88131	11240.75
2436.6613	11250.45
2439.43954	11245.75
2442.21603	11227.15
2444.99077	11253.55
2447.76377	11238.45
2450.53501	11232.65
2453.30451	11200.95
2456.07226	11189.45
2458.83827	11185.15
2461.60254	11187.55
2464.36507	11150.75
2467.12586	11150.35
2469.88492	11144.15
2472.64224	11127.85
2475.39782	11122.65
2478.15167	11149.95
2480.90379	11158.15
2483.65417	11172.45
2486.40283	11195.65
2489.14976	11202.75
2491.89497	11213.55
2494.63845	11188.05
2497.3802	11169.65
2500.12024	11155.85
2502.85855	11138.55
2505.59514	11137.55
2508.33002	11093.15
2511.06318	11082.75
2513.79462	11041.05
2516.52435	11005.75
2519.25237	11000.35
2521.97867	10963.95
2524.70327	10946.15
2527.42616	10945.45
2530.14734	10932.15
2532.86681	10891.05
2535.58458	10895.45
2538.30065	10905.45
2541.01501	10893.95
2543.72768	10875.55
2546.43864	10890.35
2549.14791	10844.85
2551.85548	10836.15
2554.56136	10806.15
2557.26554	10783.85
2559.96803	10791.15
2562.66883	10777.45
2565.36794	10772.65
2568.06536	10782.15
2570.7611	10754.65
2573.45514	10730.75
2576.14751	10740.05
2578.83819	10680.85
2581.52719	10660.35
2584.21451	10653.55
2586.90015	10637.15
2589.58411	10597.55
2592.2664	10603.05
2594.94701	10578.55
2597.62594	10566.05
2600.30321	10545.25
2602.9788	10539.45
2605.65273	10527.95
2608.32498	10519.25
2610.99557	10505.15
2613.66449	10498.55
2616.33175	10465.25
2618.99734	10493.55
2621.66128	10479.55
2624.32355	10471.05
2626.98416	10461.75
2629.64311	10462.75
2632.30041	10448.65
2634.95605	10432.35
2637.61004	10410.95
2640.26238	10390.25
2642.91306	10379.65
2645.56209	10390.55
2648.20948	10371.05
2650.85521	10369.25
2653.4993	10397.25
2656.14175	10383.55
2658.78255	10392.45
2661.42171	10365.35
2664.05923	10367.85
2666.6951	10366.45
2669.32934	10385.45
2671.96194	10362.45
2674.59291	10405.55
2677.22224	10396.85
2679.84993	10397.05
2682.476	10396.35
2685.10043	10387.65
2687.72324	10364.05
2690.34441	10383.05
2692.96396	10384.55
2695.58188	10379.65
2698.19818	10362.25
2700.81285	10369.05
2703.4259	10386.25
2706.03733	10444.65
2708.64714	10438.05
2711.25533	10429.45
2713.86191	10400.05
2716.46687	10441.75
2719.07021	10425.25
2721.67194	10404.75
2724.27206	10420.15
2726.87057	10427.95
2729.46747	10404.05
2732.06276	10415.15
2734.65644	10365.05
2737.24852	10367.15
2739.83899	10361.35
2742.42786	10340.35
2745.01513	10336.75
2747.60079	10324.15
2750.18486	10285.75
2752.76733	10320.15
2755.3482	10299.05
2757.92747	10294.55
2760.50515	10272.95
2763.08123	10277.25
2765.65573	10244.85
2768.22863	10254.05
2770.79994	10225.05
2773.36967	10232.15
2775.9378	10208.15
2778.50435	10192.35
2781.06932	10169.15
2783.6327	10167.75
2786.1945	10178.15
2788.75471	10167.45
2791.31335	10147.95
2793.87041	10125.25
2796.42589	10104.75
2798.97979	10124.15
2801.53212	10097.35
2804.08288	10091.35
2806.63206	10091.95
2809.17967	10064.45
2811.72571	10042.45
2814.27018	10048.85
2816.81308	10053.65
2819.35442	10068.55
2821.89419	10066.95
2824.43239	10043.85
2826.96904	10052.05
2829.50412	10053.25
2832.03763	10047.55
2834.56959	10044.15
2837.1	10034.65
2839.62884	10070.75
2842.15613	10067.45
2844.68186	10144.35
2847.20604	10164.05
2849.72867	10180.25
2852.24974	10198.75
2854.76927	10205.25
2857.28724	10193.05
2859.80367	10155.25
2862.31855	10129.55
2864.83189	10142.55
2867.34368	10097.25
2869.85393	10125.75
2872.36264	10119.25
2874.8698	10113.05
2877.37543	10140.95
2879.87952	10136.05
2882.38207	10141.45
2884.88308	10129.25
2887.38256	10145.85
2889.88051	10146.05
2892.37692	10152.25
2894.8718	10113.75
2897.36515	10145.35
2899.85698	10160.05
2902.34727	10155.65
2904.83604	10186.45
2907.32328	10191.05
2909.809	10176.85
2912.29319	10186.95
2914.77587	10185.35
2917.25702	10172.35
2919.73665	10168.25
2922.21476	10201.45
2924.69136	10178.65
2927.16644	10179.75
2929.64	10145.45
2932.11205	10151.95
2934.58258	10065.25
2937.05161	10087.05
2939.51912	10065.75
2941.98513	10044.55
2944.44962	9986.65
2946.91261	9888.15
2949.37409	9890.75
2951.83407	9856.15
2954.29254	9822.65
2956.74951	9789.45
2959.20498	9759.65
2961.65895	9739.85
2964.11142	9723.95
2966.56239	9697.15
2969.01186	9687.15
2971.45984	9650.55
2973.90632	9629.35
2976.35131	9584.15
2978.7948	9567.05
2981.23681	9512.75
2983.67732	9510.15
2986.11635	9522.25
2988.55388	9459.55
2990.98993	9447.25
2993.4245	9428.75
2995.85758	9379.95
2998.28917	9367.75
3000.71928	9373.85
3003.14791	9336.25
3005.57506	9335.35
3008.00073	9294.35
3010.42493	9312.45
3012.84764	9284.55
3015.26888	9282.15
3017.68865	9251.05
3020.10694	9266.45
3022.52376	9207.65
3024.9391	9197.65
3027.35298	9195.65
3029.76539	9194.45
3032.17632	9181.25
3034.5858	9134.25
3036.9938	9153.35
3039.40034	9109.45
3041.80542	9112.15
3044.20903	9096.55
3046.61118	9086.85
3049.01187	9036.15
3051.4111	9038.45
3053.80888	9020.95
3056.20519	9015.65
3058.60005	8991.15
3060.99345	8986.15
3063.3854	8949.75
3065.7759	8948.85
3068.16494	8930.25
3070.55254	8916.85
3072.93868	8894.55
3075.32338	8849.05
3077.70662	8840.25
3080.08842	8803.45
3082.46878	8795.25
3084.84769	8783.35
3087.22515	8799.35
3089.60118	8815.85
3091.97576	8811.25
3094.3489	8794.65
3096.72061	8794.15
3099.09087	8804.85
3101.4597	8759.55
3103.82709	8727.75
3106.19305	8743.35
3108.55757	8724.75
3110.92066	8714.95
3113.28232	8703.35
3115.64255	8659.35
3118.00134	8664.75
3120.35871	8643.55
3122.71466	8637.55
3125.06917	8621.45
3127.42226	8582.05
3129.77393	8611.25
3132.12417	8615.25
3134.47299	8629.65
3136.82039	8618.35
3139.16636	8631.65
3141.51092	8625.45
3143.85406	8642.65
3146.19579	8641.95
3148.53609	8615.55
3150.87499	8626.35
3153.21246	8630.25
3155.54853	8641.85
3157.88318	8642.25
3160.21642	8635.55
3162.54826	8623.65
3164.87868	8619.05
3167.2077	8603.05
3169.5353	8616.15
3171.86151	8614.35
3174.18631	8614.95
3176.5097	8612.15
3178.83169	8595.05
3181.15228	8588.05
3183.47147	8578.65
3185.78926	8575.65
3188.10565	8557.45
3190.42065	8560.55
3192.73424	8550.95
3195.04645	8546.95
3197.35725	8577.05
3199.66667	8553.85
3201.97469	8580.95
3204.28132	8581.15
3206.58656	8574.25
3208.8904	8571.25
3211.19287	8574.35
3213.49394	8580.45
3215.79363	8590.75
3218.09193	8560.55
3220.38884	8583.25
3222.68438	8579.85
3224.97853	8592.05
3227.2713	8549.35
3229.56269	8549.25
3231.8527	8545.65
3234.14133	8530.45
3236.42858	8486.55
3238.71446	8518.85
3240.99896	8480.15
3243.28209	8484.05
3245.56384	8497.75
3247.84423	8503.35
3250.12324	8495.05
3252.40088	8487.35
3254.67715	8465.25
