Data from AgNP_FTO_APTES_CRN_50uM_R6G_10uM_NaF_0.1M_Addition_RamanShift__18__18-06-58-078.txt Node

Date: Wed Dec 15 18:06:58 GMT 2021
User: TCL
Spectrometer: QEP01345
Trigger mode: 4
Integration Time (sec): 7.000000E0
Scans to average: 10
Electric dark correction enabled: true
Nonlinearity correction enabled: false
Boxcar width: 0
XAxis mode: Raman Shifts
Number of Pixels in Spectrum: 1044
>>>>>Begin Spectral Data<<<<<
46.04893	0.875
50.45542	-2.525
54.85868	-0.725
59.25871	-0.825
63.6555	55.375
68.04907	62.075
72.43941	67.475
76.82654	70.075
81.21044	72.275
85.59113	72.875
89.96862	78.875
94.34289	76.575
98.71396	84.075
103.08183	87.075
107.4465	91.275
111.80798	90.675
116.16626	90.175
120.52136	95.875
124.87327	93.875
129.222	102.175
133.56755	102.875
137.90993	109.375
142.24913	118.975
146.58517	130.375
150.91804	148.975
155.24774	170.975
159.57429	211.275
163.89768	266.675
168.21792	347.975
172.53501	471.675
176.84895	648.275
181.15975	906.175
185.46741	1264.575
189.77193	1753.475
194.07331	2347.975
198.37157	3017.375
202.6667	3717.175
206.9587	4417.075
211.24758	5108.875
215.53334	5792.175
219.81599	6537.575
224.09553	7341.575
228.37195	8199.475
232.64527	9148.775
236.91549	10191.675
241.18261	11252.575
245.44663	12271.375
249.70755	13181.475
253.96539	13970.075
258.22014	14664.075
262.4718	15217.575
266.72039	15622.375
270.96589	15809.675
275.20832	15881.075
279.44768	15764.475
283.68397	15602.775
287.91719	15474.375
292.14735	15351.575
296.37445	15322.775
300.59849	15321.375
304.81948	15333.475
309.03742	15273.375
313.25231	15122.775
317.46415	14867.775
321.67296	14550.275
325.87872	14288.175
330.08145	14143.875
334.28114	14171.975
338.47781	14308.375
342.67145	14455.375
346.86207	14674.575
351.04966	14908.275
355.23424	15205.075
359.4158	15420.175
363.59435	15610.575
367.76989	15730.275
371.94243	15821.575
376.11196	15919.275
380.27849	16027.475
384.44203	16137.375
388.60257	16248.075
392.76012	16417.775
396.91468	16578.275
401.06626	16817.375
405.21485	16997.975
409.36047	16970.575
413.50311	16754.075
417.64277	16567.775
421.77947	16536.275
425.9132	16536.675
430.04396	16644.875
434.17176	16713.875
438.2966	16861.175
442.41849	17119.975
446.53742	17500.775
450.6534	17882.775
454.76644	18256.475
458.87653	18351.875
462.98368	18320.075
467.08789	18209.875
471.18916	18031.375
475.2875	17904.775
479.38291	17852.375
483.4754	17749.375
487.56496	17563.275
491.6516	17350.375
495.73531	17185.275
499.81612	17105.275
503.89401	17144.575
507.96899	17199.475
512.04106	17187.475
516.11023	17145.775
520.1765	17104.675
524.23987	17053.975
528.30034	16976.975
532.35792	16863.275
536.41261	16762.175
540.46441	16582.975
544.51333	16614.875
548.55936	16736.375
552.60252	17038.375
556.64279	17325.375
560.6802	17509.875
564.71473	17617.775
568.7464	17754.075
572.7752	17973.675
576.80114	18143.375
580.82422	18299.775
584.84444	18513.275
588.86181	18802.075
592.87633	19149.875
596.888	19365.475
600.89682	19389.175
604.9028	19762.975
608.90594	20827.175
612.90624	22009.875
616.90371	20999.775
620.89834	18385.275
624.89015	17268.875
628.87913	17216.575
632.86528	17293.775
636.84862	17310.875
640.82913	17157.875
644.80683	16824.475
648.78172	16601.775
652.75379	16535.875
656.72306	16642.575
660.68952	16844.675
664.65319	16785.475
668.61405	16615.575
672.57211	16522.775
676.52738	16527.975
680.47986	16536.775
684.42955	16481.275
688.37646	16482.275
692.32058	16555.675
696.26192	16660.675
700.20048	16811.575
704.13626	16902.375
708.06928	16916.675
711.99952	16830.075
715.927	16809.475
719.85171	16833.575
723.77365	16813.675
727.69284	16675.075
731.60928	16619.475
735.52295	16550.175
739.43388	16575.175
743.34206	16617.775
747.24749	16621.575
751.15017	16732.875
755.05012	16935.675
758.94733	17255.875
762.8418	17839.875
766.73354	18835.175
770.62254	19844.075
774.50882	20110.275
778.39237	19423.475
782.27321	18317.275
786.15132	17369.675
790.02671	16850.175
793.89938	16589.475
797.76935	16483.875
801.6366	16466.975
805.50115	16445.575
809.36299	16363.875
813.22213	16315.075
817.07857	16284.575
820.93231	16268.175
824.78336	16261.675
828.63172	16258.875
832.47738	16275.875
836.32036	16315.975
840.16066	16352.075
843.99827	16345.975
847.8332	16336.475
851.66546	16311.175
855.49504	16283.775
859.32195	16273.275
863.1462	16236.575
866.96777	16252.875
870.78668	16201.775
874.60293	16203.775
878.41652	16207.775
882.22745	16227.475
886.03573	16260.675
889.84136	16254.575
893.64433	16216.375
897.44466	16160.075
901.24235	16097.675
905.0374	16082.275
908.8298	16082.775
912.61957	16099.375
916.40671	16211.175
920.19121	16339.775
923.97308	16430.475
927.75233	16474.575
931.52895	16415.675
935.30295	16297.975
939.07433	16105.875
942.84309	15923.075
946.60924	15842.575
950.37278	15802.875
954.13371	15794.875
957.89203	15732.275
961.64774	15700.575
965.40086	15678.475
969.15137	15613.875
972.89929	15600.175
976.64461	15557.175
980.38733	15553.475
984.12747	15664.475
987.86502	15746.675
991.59999	15867.775
995.33237	16085.175
999.06217	16380.175
1002.78939	16690.275
1006.51404	16827.775
1010.23611	16953.675
1013.95561	17070.075
1017.67255	17051.775
1021.38692	16927.575
1025.09872	16730.375
1028.80796	16770.375
1032.51465	16973.375
1036.21877	17270.275
1039.92035	17293.675
1043.61937	17219.775
1047.31584	17065.575
1051.00976	16864.875
1054.70114	16831.975
1058.38998	16871.075
1062.07627	17032.275
1065.76003	17256.675
1069.44126	17477.275
1073.11995	17737.475
1076.79611	17942.175
1080.46974	17965.475
1084.14085	17876.975
1087.80943	17854.875
1091.47549	17870.475
1095.13903	17782.975
1098.80005	17589.175
1102.45857	17346.775
1106.11456	17125.975
1109.76805	17043.675
1113.41903	17049.675
1117.06751	17159.475
1120.71348	17321.675
1124.35696	17429.675
1127.99793	17587.975
1131.63641	17677.075
1135.2724	17554.075
1138.90589	17423.175
1142.5369	17341.975
1146.16542	17349.975
1149.79145	17398.675
1153.415	17479.975
1157.03607	17629.575
1160.65467	17952.675
1164.27079	18418.375
1167.88443	19079.075
1171.49561	19972.175
1175.10432	21168.675
1178.71056	22593.575
1182.31434	23864.475
1185.91565	24359.075
1189.51451	24094.575
1193.11091	23344.275
1196.70485	22464.275
1200.29634	21698.775
1203.88538	21180.575
1207.47197	20843.275
1211.05612	20597.175
1214.63782	20317.075
1218.21708	20115.875
1221.79391	19953.575
1225.36829	19856.675
1228.94024	19715.775
1232.50976	19503.075
1236.07685	19276.375
1239.6415	19152.075
1243.20374	19206.575
1246.76355	19352.875
1250.32093	19562.775
1253.8759	19860.175
1257.42845	20251.975
1260.97859	20591.775
1264.52631	20960.375
1268.07163	21307.075
1271.61453	21707.275
1275.15503	22198.675
1278.69312	22655.475
1282.22882	23088.975
1285.76211	23561.175
1289.29301	24176.575
1292.82151	24836.275
1296.34761	25741.875
1299.87133	26822.275
1303.39266	28095.275
1306.9116	29444.575
1310.42815	30842.575
1313.94233	31740.175
1317.45412	31906.275
1320.96354	31457.775
1324.47058	30896.375
1327.97525	30254.575
1331.47754	29753.675
1334.97747	29452.075
1338.47502	29265.175
1341.97022	29087.075
1345.46305	28742.275
1348.95352	28391.775
1352.44163	28359.175
1355.92738	28871.375
1359.41078	30003.375
1362.89183	31161.875
1366.37053	30804.975
1369.84688	28744.875
1373.32088	26231.775
1376.79254	24554.075
1380.26186	23809.975
1383.72883	23608.175
1387.19347	23546.475
1390.65578	23388.475
1394.11575	23300.575
1397.57339	23487.975
1401.0287	23853.775
1404.48168	24168.775
1407.93234	24208.975
1411.38068	23881.175
1414.82669	23281.875
1418.27039	22514.075
1421.71177	21719.175
1425.15083	21067.175
1428.58758	20721.175
1432.02203	20701.575
1435.45416	20997.475
1438.88399	21467.175
1442.31151	21852.375
1445.73673	22194.175
1449.15965	22446.775
1452.58027	22688.175
1455.9986	22778.875
1459.41463	22953.975
1462.82837	23247.675
1466.23982	23669.675
1469.64898	24046.275
1473.05586	24252.575
1476.46045	24300.075
1479.86276	24153.175
1483.26279	24054.075
1486.66054	23878.575
1490.05602	23871.675
1493.44922	23948.075
1496.84016	24093.975
1500.22882	24502.075
1503.61521	25144.275
1506.99934	25925.975
1510.38121	26636.875
1513.76081	26830.075
1517.13816	26303.975
1520.51324	25383.575
1523.88607	24482.875
1527.25665	23934.475
1530.62498	23673.975
1533.99105	23571.875
1537.35488	23446.275
1540.71647	23262.175
1544.07581	22953.375
1547.4329	22603.875
1550.78776	22332.075
1554.14038	22102.275
1557.49077	22040.175
1560.83892	22024.775
1564.18484	22089.175
1567.52853	22242.275
1570.86999	22563.075
1574.20922	23007.875
1577.54624	23413.175
1580.88103	23555.375
1584.2136	23550.475
1587.54395	23698.275
1590.87208	24153.275
1594.19801	25060.375
1597.52172	26063.375
1600.84321	26439.375
1604.16251	25605.375
1607.47959	24130.375
1610.79447	22503.775
1614.10715	20981.975
1617.41763	19844.775
1620.7259	19070.275
1624.03199	18593.975
1627.33587	18647.975
1630.63757	18985.675
1633.93707	19700.375
1637.23439	21026.375
1640.52951	22858.575
1643.82246	25031.575
1647.11321	26808.875
1650.40179	27275.575
1653.68819	25995.175
1656.97241	23395.775
1660.25446	20801.575
1663.53433	18862.575
1666.81203	17567.675
1670.08756	16749.175
1673.36092	16241.575
1676.63211	15866.875
1679.90115	15642.075
1683.16801	15417.875
1686.43272	15298.575
1689.69527	15190.275
1692.95567	15152.875
1696.2139	15102.175
1699.46999	15067.275
1702.72392	15054.575
1705.97571	15003.175
1709.22535	14968.375
1712.47284	14941.975
1715.71819	14932.875
1718.96139	14908.775
1722.20246	14846.575
1725.44139	14807.375
1728.67818	14729.975
1731.91284	14710.475
1735.14537	14650.875
1738.37576	14564.275
1741.60403	14547.275
1744.83017	14535.775
1748.05418	14507.675
1751.27607	14479.375
1754.49584	14444.875
1757.71349	14447.675
1760.92903	14453.375
1764.14244	14453.675
1767.35375	14466.475
1770.56294	14416.275
1773.77002	14421.675
1776.97499	14380.275
1780.17785	14350.075
1783.37861	14322.375
1786.57727	14313.775
1789.77382	14276.475
1792.96828	14252.175
1796.16064	14254.775
1799.3509	14229.275
1802.53907	14195.775
1805.72514	14158.475
1808.90913	14127.975
1812.09102	14096.175
1815.27083	14052.275
1818.44856	14075.275
1821.6242	14006.975
1824.79776	14015.375
1827.96924	14016.575
1831.13864	14024.275
1834.30597	14011.875
1837.47122	14012.675
1840.6344	14000.075
1843.7955	13981.475
1846.95454	13958.375
1850.11151	13958.775
1853.26642	13968.275
1856.41926	13966.475
1859.57004	13947.175
1862.71876	13963.675
1865.86542	13915.475
1869.01003	13915.375
1872.15258	13912.275
1875.29308	13906.275
1878.43152	13890.675
1881.56792	13879.675
1884.70227	13873.075
1887.83457	13846.375
1890.96482	13837.675
1894.09304	13845.275
1897.21921	13823.875
1900.34335	13810.575
1903.46544	13780.075
1906.58551	13811.075
1909.70353	13793.875
1912.81953	13770.975
1915.93349	13753.475
1919.04543	13727.375
1922.15534	13701.475
1925.26322	13673.075
1928.36908	13627.675
1931.47292	13629.175
1934.57473	13595.975
1937.67453	13565.475
1940.77232	13574.475
1943.86808	13513.775
1946.96184	13500.475
1950.05358	13465.675
1953.14331	13435.175
1956.23103	13384.375
1959.31675	13359.575
1962.40046	13315.675
1965.48217	13282.275
1968.56188	13275.875
1971.63959	13214.975
1974.7153	13192.175
1977.78901	13142.575
1980.86073	13108.775
1983.93046	13055.675
1986.99819	13040.775
1990.06394	13001.475
1993.1277	12981.675
1996.18947	12902.975
1999.24925	12896.875
2002.30706	12851.375
2005.36288	12812.875
2008.41672	12779.275
2011.46859	12764.975
2014.51848	12750.775
2017.56639	12696.675
2020.61233	12659.275
2023.6563	12665.275
2026.6983	12600.375
2029.73833	12578.175
2032.7764	12571.375
2035.8125	12550.175
2038.84664	12503.575
2041.87881	12454.675
2044.90903	12494.075
2047.93729	12456.275
2050.96359	12437.275
2053.98794	12436.475
2057.01034	12427.975
2060.03078	12411.175
2063.04927	12420.275
2066.06582	12402.475
2069.08042	12387.175
2072.09307	12397.175
2075.10378	12386.575
2078.11255	12364.875
2081.11938	12367.775
2084.12426	12379.375
2087.12722	12368.075
2090.12824	12343.075
2093.12732	12401.175
2096.12447	12348.775
2099.11969	12349.575
2102.11299	12373.275
2105.10435	12379.275
2108.09379	12402.875
2111.08131	12419.375
2114.0669	12436.775
2117.05057	12409.475
2120.03233	12405.875
2123.01216	12434.275
2125.99008	12432.175
2128.96609	12455.575
2131.94018	12453.575
2134.91236	12447.375
2137.88263	12470.575
2140.851	12480.375
2143.81746	12498.775
2146.78201	12518.775
2149.74466	12524.775
2152.7054	12532.875
2155.66425	12551.675
2158.6212	12537.575
2161.57625	12543.175
2164.52941	12533.575
2167.48067	12563.375
2170.43004	12507.375
2173.37752	12513.875
2176.32311	12497.575
2179.26681	12496.775
2182.20863	12506.275
2185.14856	12521.275
2188.08661	12486.675
2191.02278	12496.975
2193.95707	12490.275
2196.88948	12491.475
2199.82001	12449.975
2202.74867	12482.275
2205.67545	12456.975
2208.60037	12478.675
2211.52341	12473.275
2214.44458	12468.075
2217.36388	12439.775
2220.28132	12425.175
2223.1969	12362.675
2226.11061	12380.175
2229.02246	12371.475
2231.93245	12331.375
2234.84058	12299.275
2237.74686	12296.375
2240.65128	12269.575
2243.55385	12232.875
2246.45456	12206.475
2249.35343	12226.075
2252.25044	12180.075
2255.14561	12182.175
2258.03893	12199.175
2260.93041	12182.475
2263.82004	12128.675
2266.70783	12100.575
2269.59378	12076.375
2272.4779	12051.975
2275.36017	12016.775
2278.24061	12011.575
2281.11922	11981.575
2283.996	11964.875
2286.87094	11941.575
2289.74405	11936.275
2292.61534	11910.175
2295.4848	11932.875
2298.35243	11918.275
2301.21824	11903.675
2304.08223	11899.275
2306.94439	11877.275
2309.80474	11901.075
2312.66327	11914.575
2315.51999	11892.375
2318.37489	11885.575
2321.22797	11866.775
2324.07925	11857.375
2326.92871	11854.575
2329.77637	11860.775
2332.62222	11826.275
2335.46626	11804.775
2338.3085	11794.775
2341.14893	11812.375
2343.98756	11808.175
2346.8244	11801.475
2349.65943	11773.175
2352.49267	11773.075
2355.32411	11756.575
2358.15376	11734.175
2360.98161	11745.175
2363.80768	11755.375
2366.63195	11730.575
2369.45444	11706.475
2372.27514	11694.175
2375.09405	11685.075
2377.91118	11691.675
2380.72652	11648.975
2383.54009	11645.775
2386.35187	11622.075
2389.16188	11594.375
2391.97011	11562.875
2394.77657	11587.275
2397.58125	11547.775
2400.38416	11532.375
2403.18529	11507.175
2405.98466	11491.375
2408.78226	11475.775
2411.57809	11462.075
2414.37216	11449.175
2417.16446	11423.875
2419.955	11410.475
2422.74378	11423.775
2425.5308	11401.175
2428.31606	11377.075
2431.09956	11361.675
2433.88131	11336.975
2436.6613	11356.275
2439.43954	11358.775
2442.21603	11308.575
2444.99077	11328.875
2447.76377	11332.375
2450.53501	11325.075
2453.30451	11318.075
2456.07226	11292.075
2458.83827	11289.675
2461.60254	11279.375
2464.36507	11282.475
2467.12586	11289.875
2469.88492	11270.175
2472.64224	11272.875
2475.39782	11265.575
2478.15167	11276.275
2480.90379	11283.875
2483.65417	11293.175
2486.40283	11283.875
2489.14976	11296.475
2491.89497	11300.675
2494.63845	11293.775
2497.3802	11294.075
2500.12024	11283.075
2502.85855	11266.975
2505.59514	11269.275
2508.33002	11246.775
2511.06318	11240.275
2513.79462	11217.275
2516.52435	11236.375
2519.25237	11195.275
2521.97867	11194.775
2524.70327	11197.475
2527.42616	11169.075
2530.14734	11171.175
2532.86681	11141.475
2535.58458	11146.575
2538.30065	11138.275
2541.01501	11126.775
2543.72768	11099.075
2546.43864	11105.075
2549.14791	11092.475
2551.85548	11081.875
2554.56136	11043.575
2557.26554	11030.975
2559.96803	11041.475
2562.66883	11038.675
2565.36794	11040.375
2568.06536	11017.375
2570.7611	11023.475
2573.45514	11001.175
2576.14751	10985.475
2578.83819	10983.075
2581.52719	10966.975
2584.21451	10943.075
2586.90015	10942.975
2589.58411	10917.575
2592.2664	10890.575
2594.94701	10903.375
2597.62594	10869.275
2600.30321	10880.275
2602.9788	10861.275
2605.65273	10848.375
2608.32498	10840.875
2610.99557	10854.675
2613.66449	10819.175
2616.33175	10826.275
2618.99734	10799.475
2621.66128	10786.775
2624.32355	10793.475
2626.98416	10794.575
2629.64311	10799.775
2632.30041	10799.575
2634.95605	10789.875
2637.61004	10761.575
2640.26238	10769.075
2642.91306	10765.175
2645.56209	10770.075
2648.20948	10753.775
2650.85521	10739.275
2653.4993	10726.275
2656.14175	10710.875
2658.78255	10731.975
2661.42171	10729.275
2664.05923	10744.375
2666.6951	10740.875
2669.32934	10740.575
2671.96194	10737.075
2674.59291	10720.375
2677.22224	10726.975
2679.84993	10751.975
2682.476	10730.875
2685.10043	10714.875
2687.72324	10710.175
2690.34441	10738.475
2692.96396	10706.875
2695.58188	10736.675
2698.19818	10697.975
2700.81285	10710.175
2703.4259	10740.175
2706.03733	10782.975
2708.64714	10760.975
2711.25533	10763.275
2713.86191	10758.675
2716.46687	10782.475
2719.07021	10752.775
2721.67194	10754.075
2724.27206	10745.075
2726.87057	10745.675
2729.46747	10732.575
2732.06276	10747.575
2734.65644	10720.475
2737.24852	10741.075
2739.83899	10722.475
2742.42786	10732.475
2745.01513	10727.175
2747.60079	10707.675
2750.18486	10699.875
2752.76733	10724.075
2755.3482	10703.875
2757.92747	10700.375
2760.50515	10686.275
2763.08123	10670.075
2765.65573	10648.775
2768.22863	10678.575
2770.79994	10670.975
2773.36967	10663.175
2775.9378	10647.675
2778.50435	10611.775
2781.06932	10604.775
2783.6327	10607.575
2786.1945	10597.975
2788.75471	10595.675
2791.31335	10579.475
2793.87041	10559.175
2796.42589	10521.575
2798.97979	10553.275
2801.53212	10539.875
2804.08288	10499.175
2806.63206	10477.575
2809.17967	10445.975
2811.72571	10397.075
2814.27018	10463.875
2816.81308	10415.875
2819.35442	10419.175
2821.89419	10379.475
2824.43239	10397.875
2826.96904	10380.475
2829.50412	10383.575
2832.03763	10335.875
2834.56959	10346.275
2837.1	10324.875
2839.62884	10296.675
2842.15613	10321.375
2844.68186	10318.975
2847.20604	10322.475
2849.72867	10301.775
2852.24974	10316.275
2854.76927	10293.675
2857.28724	10278.975
2859.80367	10287.375
2862.31855	10256.375
2864.83189	10249.375
2867.34368	10250.175
2869.85393	10257.175
2872.36264	10254.375
2874.8698	10251.375
2877.37543	10248.275
2879.87952	10245.775
2882.38207	10250.375
2884.88308	10221.575
2887.38256	10236.975
2889.88051	10251.375
2892.37692	10252.475
2894.8718	10256.975
2897.36515	10258.375
2899.85698	10248.675
2902.34727	10257.075
2904.83604	10252.275
2907.32328	10274.475
2909.809	10284.075
2912.29319	10286.075
2914.77587	10278.275
2917.25702	10251.375
2919.73665	10263.075
2922.21476	10278.475
2924.69136	10275.475
2927.16644	10273.875
2929.64	10262.775
2932.11205	10209.375
2934.58258	10233.375
2937.05161	10255.575
2939.51912	10247.475
2941.98513	10234.775
2944.44962	10212.175
2946.91261	10167.175
2949.37409	10211.075
2951.83407	10193.775
2954.29254	10207.975
2956.74951	10167.675
2959.20498	10177.675
2961.65895	10179.775
2964.11142	10195.475
2966.56239	10153.075
2969.01186	10146.375
2971.45984	10140.675
2973.90632	10091.075
2976.35131	10059.375
2978.7948	10052.075
2981.23681	10029.975
2983.67732	10030.475
2986.11635	10032.775
2988.55388	10004.275
2990.98993	9995.875
2993.4245	9964.675
2995.85758	9945.975
2998.28917	9933.775
3000.71928	9908.575
3003.14791	9888.975
3005.57506	9882.475
3008.00073	9902.575
3010.42493	9881.275
3012.84764	9854.375
3015.26888	9850.875
3017.68865	9825.875
3020.10694	9827.775
3022.52376	9791.175
3024.9391	9792.675
3027.35298	9795.375
3029.76539	9793.575
3032.17632	9796.475
3034.5858	9754.775
3036.9938	9774.375
3039.40034	9769.975
3041.80542	9746.875
3044.20903	9725.075
3046.61118	9720.975
3049.01187	9698.175
3051.4111	9703.275
3053.80888	9689.575
3056.20519	9680.775
3058.60005	9675.475
3060.99345	9618.475
3063.3854	9605.175
3065.7759	9610.575
3068.16494	9593.175
3070.55254	9562.275
3072.93868	9570.175
3075.32338	9525.075
3077.70662	9512.075
3080.08842	9485.675
3082.46878	9511.075
3084.84769	9473.675
3087.22515	9485.575
3089.60118	9484.375
3091.97576	9493.575
3094.3489	9475.575
3096.72061	9468.775
3099.09087	9495.175
3101.4597	9462.675
3103.82709	9478.675
3106.19305	9471.375
3108.55757	9455.075
3110.92066	9444.475
3113.28232	9421.575
3115.64255	9390.775
3118.00134	9374.575
3120.35871	9387.075
3122.71466	9390.975
3125.06917	9335.275
3127.42226	9331.375
3129.77393	9342.075
3132.12417	9343.775
3134.47299	9355.075
3136.82039	9365.575
