Data from AgNP_FTO_APTES_CRN_0uM_R6G_10uM_NaF_0.1M_Addition_RamanShift__4__11-34-22-897.txt Node

Date: Wed Dec 15 11:34:22 GMT 2021
User: TCL
Spectrometer: QEP01345
Trigger mode: 4
Integration Time (sec): 7.000000E0
Scans to average: 10
Electric dark correction enabled: true
Nonlinearity correction enabled: false
Boxcar width: 0
XAxis mode: Raman Shifts
Number of Pixels in Spectrum: 1044
>>>>>Begin Spectral Data<<<<<
46.04893	1.5625
50.45542	-1.4375
54.85868	0.2625
59.25871	-0.0375
63.6555	78.7625
68.04907	88.3625
72.43941	94.6625
76.82654	103.7625
81.21044	108.6625
85.59113	119.3625
89.96862	125.5625
94.34289	127.4625
98.71396	131.6625
103.08183	137.9625
107.4465	140.2625
111.80798	138.8625
116.16626	141.1625
120.52136	136.8625
124.87327	134.8625
129.222	134.3625
133.56755	133.7625
137.90993	135.9625
142.24913	139.2625
146.58517	133.1625
150.91804	143.6625
155.24774	147.9625
159.57429	162.0625
163.89768	183.0625
168.21792	205.3625
172.53501	249.2625
176.84895	307.0625
181.15975	385.5625
185.46741	517.7625
189.77193	701.6625
194.07331	931.4625
198.37157	1207.2625
202.6667	1512.3625
206.9587	1823.9625
211.24758	2136.9625
215.53334	2442.8625
219.81599	2774.7625
224.09553	3118.4625
228.37195	3482.6625
232.64527	3878.3625
236.91549	4289.4625
241.18261	4678.4625
245.44663	5041.2625
249.70755	5330.3625
253.96539	5539.3625
258.22014	5665.4625
262.4718	5744.9625
266.72039	5702.3625
270.96589	5620.9625
275.20832	5450.8625
279.44768	5261.8625
283.68397	5073.9625
287.91719	4899.9625
292.14735	4735.6625
296.37445	4614.6625
300.59849	4531.9625
304.81948	4487.0625
309.03742	4450.3625
313.25231	4403.8625
317.46415	4364.6625
321.67296	4315.1625
325.87872	4259.4625
330.08145	4229.9625
334.28114	4206.6625
338.47781	4189.8625
342.67145	4153.5625
346.86207	4112.4625
351.04966	4068.2625
355.23424	4028.7625
359.4158	3981.8625
363.59435	3941.3625
367.76989	3877.5625
371.94243	3836.3625
376.11196	3799.7625
380.27849	3753.0625
384.44203	3744.8625
388.60257	3727.0625
392.76012	3702.9625
396.91468	3713.5625
401.06626	3720.9625
405.21485	3745.5625
409.36047	3736.8625
413.50311	3711.4625
417.64277	3681.8625
421.77947	3675.7625
425.9132	3684.4625
430.04396	3697.3625
434.17176	3718.6625
438.2966	3750.2625
442.41849	3796.0625
446.53742	3828.2625
450.6534	3836.5625
454.76644	3868.2625
458.87653	3892.6625
462.98368	3903.8625
467.08789	3889.8625
471.18916	3899.5625
475.2875	3897.9625
479.38291	3896.2625
483.4754	3902.5625
487.56496	3906.9625
491.6516	3921.1625
495.73531	3942.7625
499.81612	3967.6625
503.89401	4010.2625
507.96899	4043.2625
512.04106	4097.4625
516.11023	4136.7625
520.1765	4160.9625
524.23987	4154.0625
528.30034	4135.8625
532.35792	4101.0625
536.41261	4060.1625
540.46441	4021.9625
544.51333	4023.5625
548.55936	4018.6625
552.60252	4056.4625
556.64279	4106.1625
560.6802	4119.6625
564.71473	4131.8625
568.7464	4080.8625
572.7752	4044.4625
576.80114	3988.5625
580.82422	3934.2625
584.84444	3920.9625
588.86181	3958.2625
592.87633	4020.3625
596.888	4130.3625
600.89682	4331.6625
604.9028	4616.3625
608.90594	5050.8625
612.90624	5454.0625
616.90371	5354.1625
620.89834	4718.9625
624.89015	4214.2625
628.87913	3953.9625
632.86528	3832.4625
636.84862	3765.3625
640.82913	3739.4625
644.80683	3716.0625
648.78172	3691.2625
652.75379	3716.8625
656.72306	3737.7625
660.68952	3782.4625
664.65319	3798.3625
668.61405	3781.1625
672.57211	3786.9625
676.52738	3786.7625
680.47986	3813.9625
684.42955	3817.0625
688.37646	3815.7625
692.32058	3823.0625
696.26192	3837.0625
700.20048	3864.8625
704.13626	3904.4625
708.06928	3926.0625
711.99952	3984.6625
715.927	4003.2625
719.85171	4031.5625
723.77365	4046.2625
727.69284	4049.5625
731.60928	4069.1625
735.52295	4086.2625
739.43388	4068.3625
743.34206	4044.0625
747.24749	4045.5625
751.15017	4040.0625
755.05012	4054.2625
758.94733	4085.7625
762.8418	4161.2625
766.73354	4271.5625
770.62254	4418.0625
774.50882	4501.4625
778.39237	4441.5625
782.27321	4274.0625
786.15132	4104.2625
790.02671	4011.3625
793.89938	3967.2625
797.76935	3971.9625
801.6366	3936.2625
805.50115	3939.3625
809.36299	3912.0625
813.22213	3882.6625
817.07857	3866.8625
820.93231	3855.0625
824.78336	3830.4625
828.63172	3837.3625
832.47738	3832.3625
836.32036	3831.5625
840.16066	3857.7625
843.99827	3881.7625
847.8332	3878.6625
851.66546	3878.4625
855.49504	3861.6625
859.32195	3843.5625
863.1462	3861.0625
866.96777	3865.2625
870.78668	3866.4625
874.60293	3890.5625
878.41652	3911.4625
882.22745	3948.2625
886.03573	4010.7625
889.84136	4093.9625
893.64433	4188.0625
897.44466	4301.7625
901.24235	4423.5625
905.0374	4539.5625
908.8298	4708.0625
912.61957	4924.3625
916.40671	5139.8625
920.19121	5359.7625
923.97308	5552.4625
927.75233	5622.6625
931.52895	5583.0625
935.30295	5428.1625
939.07433	5195.2625
942.84309	4963.1625
946.60924	4755.2625
950.37278	4614.2625
954.13371	4471.5625
957.89203	4338.5625
961.64774	4198.4625
965.40086	4101.1625
969.15137	3985.1625
972.89929	3924.4625
976.64461	3867.0625
980.38733	3825.3625
984.12747	3783.5625
987.86502	3811.1625
991.59999	3837.3625
995.33237	3896.3625
999.06217	3970.5625
1002.78939	4029.7625
1006.51404	4087.5625
1010.23611	4112.3625
1013.95561	4100.4625
1017.67255	4054.6625
1021.38692	3990.9625
1025.09872	3942.0625
1028.80796	3920.0625
1032.51465	3941.0625
1036.21877	3991.0625
1039.92035	4049.3625
1043.61937	4143.8625
1047.31584	4211.0625
1051.00976	4306.1625
1054.70114	4402.3625
1058.38998	4487.4625
1062.07627	4538.0625
1065.76003	4561.0625
1069.44126	4545.4625
1073.11995	4539.2625
1076.79611	4530.8625
1080.46974	4507.0625
1084.14085	4433.9625
1087.80943	4394.8625
1091.47549	4338.2625
1095.13903	4251.2625
1098.80005	4157.5625
1102.45857	4082.9625
1106.11456	4012.0625
1109.76805	3984.9625
1113.41903	3976.2625
1117.06751	3986.1625
1120.71348	3991.1625
1124.35696	3982.6625
1127.99793	3972.5625
1131.63641	3935.5625
1135.2724	3878.8625
1138.90589	3756.3625
1142.5369	3685.3625
1146.16542	3598.0625
1149.79145	3515.8625
1153.415	3471.7625
1157.03607	3437.4625
1160.65467	3433.5625
1164.27079	3445.8625
1167.88443	3523.0625
1171.49561	3648.6625
1175.10432	3865.1625
1178.71056	4201.2625
1182.31434	4576.0625
1185.91565	4887.4625
1189.51451	5045.8625
1193.11091	5017.4625
1196.70485	4825.7625
1200.29634	4559.3625
1203.88538	4274.3625
1207.47197	3991.3625
1211.05612	3780.5625
1214.63782	3645.2625
1218.21708	3616.9625
1221.79391	3627.2625
1225.36829	3680.3625
1228.94024	3744.3625
1232.50976	3759.8625
1236.07685	3736.8625
1239.6415	3653.2625
1243.20374	3594.5625
1246.76355	3531.5625
1250.32093	3515.4625
1253.8759	3513.0625
1257.42845	3564.6625
1260.97859	3593.5625
1264.52631	3675.6625
1268.07163	3749.3625
1271.61453	3802.0625
1275.15503	3877.6625
1278.69312	3923.7625
1282.22882	3978.1625
1285.76211	4074.2625
1289.29301	4193.4625
1292.82151	4310.5625
1296.34761	4371.0625
1299.87133	4404.1625
1303.39266	4447.0625
1306.9116	4498.6625
1310.42815	4575.6625
1313.94233	4560.2625
1317.45412	4472.4625
1320.96354	4323.7625
1324.47058	4149.0625
1327.97525	4032.1625
1331.47754	3978.6625
1334.97747	3977.7625
1338.47502	4011.6625
1341.97022	4066.3625
1345.46305	4159.3625
1348.95352	4299.8625
1352.44163	4512.1625
1355.92738	4746.9625
1359.41078	5051.9625
1362.89183	5369.2625
1366.37053	5431.8625
1369.84688	5135.5625
1373.32088	4755.6625
1376.79254	4481.8625
1380.26186	4344.7625
1383.72883	4275.2625
1387.19347	4220.2625
1390.65578	4187.1625
1394.11575	4115.6625
1397.57339	4076.2625
1401.0287	4052.8625
1404.48168	4003.1625
1407.93234	3988.6625
1411.38068	3957.4625
1414.82669	3913.7625
1418.27039	3871.8625
1421.71177	3816.6625
1425.15083	3769.9625
1428.58758	3699.4625
1432.02203	3655.4625
1435.45416	3635.5625
1438.88399	3663.3625
1442.31151	3694.6625
1445.73673	3726.3625
1449.15965	3732.9625
1452.58027	3698.0625
1455.9986	3643.5625
1459.41463	3603.8625
1462.82837	3575.4625
1466.23982	3595.8625
1469.64898	3597.8625
1473.05586	3621.5625
1476.46045	3638.7625
1479.86276	3682.2625
1483.26279	3694.9625
1486.66054	3724.5625
1490.05602	3732.7625
1493.44922	3748.9625
1496.84016	3791.0625
1500.22882	3860.5625
1503.61521	4017.3625
1506.99934	4198.2625
1510.38121	4342.9625
1513.76081	4384.5625
1517.13816	4274.1625
1520.51324	4032.7625
1523.88607	3799.1625
1527.25665	3614.3625
1530.62498	3503.1625
1533.99105	3462.5625
1537.35488	3433.5625
1540.71647	3413.5625
1544.07581	3380.4625
1547.4329	3374.7625
1550.78776	3363.9625
1554.14038	3363.9625
1557.49077	3355.8625
1560.83892	3358.9625
1564.18484	3371.1625
1567.52853	3374.6625
1570.86999	3407.1625
1574.20922	3424.9625
1577.54624	3442.6625
1580.88103	3401.2625
1584.2136	3324.5625
1587.54395	3252.1625
1590.87208	3202.7625
1594.19801	3186.6625
1597.52172	3207.8625
1600.84321	3224.1625
1604.16251	3187.6625
1607.47959	3142.5625
1610.79447	3114.3625
1614.10715	3073.4625
1617.41763	3045.1625
1620.7259	3016.9625
1624.03199	3023.6625
1627.33587	3014.9625
1630.63757	3012.0625
1633.93707	3028.5625
1637.23439	3040.0625
1640.52951	3070.3625
1643.82246	3126.5625
1647.11321	3227.4625
1650.40179	3296.8625
1653.68819	3266.5625
1656.97241	3092.0625
1660.25446	2886.5625
1663.53433	2714.4625
1666.81203	2598.5625
1670.08756	2524.7625
1673.36092	2454.1625
1676.63211	2414.7625
1679.90115	2379.2625
1683.16801	2345.1625
1686.43272	2313.9625
1689.69527	2302.5625
1692.95567	2276.2625
1696.2139	2247.9625
1699.46999	2229.7625
1702.72392	2213.1625
1705.97571	2205.7625
1709.22535	2194.7625
1712.47284	2191.1625
1715.71819	2169.8625
1718.96139	2151.0625
1722.20246	2134.2625
1725.44139	2125.1625
1728.67818	2112.7625
1731.91284	2095.0625
1735.14537	2090.3625
1738.37576	2073.3625
1741.60403	2064.6625
1744.83017	2049.0625
1748.05418	2039.9625
1751.27607	2031.8625
1754.49584	2012.4625
1757.71349	2004.8625
1760.92903	1999.8625
1764.14244	1991.0625
1767.35375	1993.4625
1770.56294	1987.7625
1773.77002	1964.5625
1776.97499	1977.1625
1780.17785	1964.9625
1783.37861	1980.0625
1786.57727	1971.4625
1789.77382	1959.5625
1792.96828	1959.9625
1796.16064	1959.7625
1799.3509	1946.7625
1802.53907	1949.2625
1805.72514	1936.6625
1808.90913	1923.3625
1812.09102	1924.3625
1815.27083	1932.6625
1818.44856	1923.9625
1821.6242	1911.9625
1824.79776	1923.6625
1827.96924	1905.2625
1831.13864	1914.1625
1834.30597	1909.8625
1837.47122	1901.0625
1840.6344	1900.1625
1843.7955	1898.7625
1846.95454	1895.7625
1850.11151	1886.9625
1853.26642	1868.2625
1856.41926	1878.3625
1859.57004	1873.1625
1862.71876	1862.3625
1865.86542	1867.6625
1869.01003	1850.8625
1872.15258	1858.6625
1875.29308	1850.9625
1878.43152	1839.2625
1881.56792	1841.1625
1884.70227	1828.8625
1887.83457	1832.9625
1890.96482	1825.0625
1894.09304	1816.6625
1897.21921	1827.2625
1900.34335	1810.4625
1903.46544	1813.9625
1906.58551	1807.0625
1909.70353	1803.6625
1912.81953	1806.6625
1915.93349	1795.3625
1919.04543	1795.1625
1922.15534	1784.4625
1925.26322	1771.4625
1928.36908	1774.4625
1931.47292	1769.3625
1934.57473	1772.2625
1937.67453	1758.6625
1940.77232	1753.6625
1943.86808	1753.3625
1946.96184	1739.9625
1950.05358	1752.1625
1953.14331	1725.2625
1956.23103	1728.3625
1959.31675	1729.9625
1962.40046	1714.3625
1965.48217	1714.3625
1968.56188	1699.2625
1971.63959	1696.4625
1974.7153	1700.8625
1977.78901	1685.0625
1980.86073	1684.4625
1983.93046	1686.6625
1986.99819	1672.1625
1990.06394	1662.6625
1993.1277	1659.6625
1996.18947	1659.7625
1999.24925	1656.9625
2002.30706	1652.3625
2005.36288	1635.2625
2008.41672	1640.8625
2011.46859	1625.5625
2014.51848	1617.4625
2017.56639	1620.7625
2020.61233	1599.4625
2023.6563	1605.9625
2026.6983	1592.7625
2029.73833	1593.6625
2032.7764	1588.0625
2035.8125	1587.9625
2038.84664	1574.9625
2041.87881	1568.5625
2044.90903	1571.2625
2047.93729	1570.5625
2050.96359	1560.4625
2053.98794	1560.1625
2057.01034	1547.3625
2060.03078	1559.7625
2063.04927	1545.4625
2066.06582	1548.9625
2069.08042	1549.7625
2072.09307	1557.4625
2075.10378	1553.1625
2078.11255	1547.1625
2081.11938	1546.1625
2084.12426	1545.7625
2087.12722	1548.2625
2090.12824	1545.5625
2093.12732	1537.5625
2096.12447	1540.6625
2099.11969	1527.3625
2102.11299	1544.5625
2105.10435	1548.1625
2108.09379	1540.9625
2111.08131	1544.4625
2114.0669	1549.9625
2117.05057	1531.7625
2120.03233	1538.8625
2123.01216	1547.1625
2125.99008	1542.3625
2128.96609	1537.8625
2131.94018	1536.6625
2134.91236	1533.2625
2137.88263	1528.9625
2140.851	1535.6625
2143.81746	1530.2625
2146.78201	1534.0625
2149.74466	1533.8625
2152.7054	1525.3625
2155.66425	1532.2625
2158.6212	1525.1625
2161.57625	1539.0625
2164.52941	1521.2625
2167.48067	1530.5625
2170.43004	1516.2625
2173.37752	1522.4625
2176.32311	1512.0625
2179.26681	1514.6625
2182.20863	1502.8625
2185.14856	1502.3625
2188.08661	1499.6625
2191.02278	1516.1625
2193.95707	1503.6625
2196.88948	1497.5625
2199.82001	1504.7625
2202.74867	1507.8625
2205.67545	1498.7625
2208.60037	1494.9625
2211.52341	1496.4625
2214.44458	1494.5625
2217.36388	1483.9625
2220.28132	1480.1625
2223.1969	1480.4625
2226.11061	1480.5625
2229.02246	1471.0625
2231.93245	1466.5625
2234.84058	1456.9625
2237.74686	1457.7625
2240.65128	1464.4625
2243.55385	1449.9625
2246.45456	1452.3625
2249.35343	1439.5625
2252.25044	1441.1625
2255.14561	1435.5625
2258.03893	1442.4625
2260.93041	1424.5625
2263.82004	1429.6625
2266.70783	1418.4625
2269.59378	1415.8625
2272.4779	1416.5625
2275.36017	1415.6625
2278.24061	1414.2625
2281.11922	1397.6625
2283.996	1398.3625
2286.87094	1397.3625
2289.74405	1389.6625
2292.61534	1384.1625
2295.4848	1376.5625
2298.35243	1393.8625
2301.21824	1381.3625
2304.08223	1376.8625
2306.94439	1369.0625
2309.80474	1373.4625
2312.66327	1371.6625
2315.51999	1375.2625
2318.37489	1367.7625
2321.22797	1365.3625
2324.07925	1364.3625
2326.92871	1362.5625
2329.77637	1360.5625
2332.62222	1360.7625
2335.46626	1348.6625
2338.3085	1354.0625
2341.14893	1351.8625
2343.98756	1339.0625
2346.8244	1332.1625
2349.65943	1335.4625
2352.49267	1344.6625
2355.32411	1347.8625
2358.15376	1341.9625
2360.98161	1336.5625
2363.80768	1334.1625
2366.63195	1344.7625
2369.45444	1339.7625
2372.27514	1328.4625
2375.09405	1336.3625
2377.91118	1328.3625
2380.72652	1331.1625
2383.54009	1327.3625
2386.35187	1327.6625
2389.16188	1315.3625
2391.97011	1314.5625
2394.77657	1310.3625
2397.58125	1304.6625
2400.38416	1308.0625
2403.18529	1300.0625
2405.98466	1292.9625
2408.78226	1286.9625
2411.57809	1279.9625
2414.37216	1287.4625
2417.16446	1290.1625
2419.955	1280.4625
2422.74378	1275.2625
2425.5308	1282.4625
2428.31606	1281.9625
2431.09956	1270.5625
2433.88131	1273.6625
2436.6613	1269.4625
2439.43954	1257.6625
2442.21603	1255.6625
2444.99077	1251.1625
2447.76377	1254.3625
2450.53501	1255.7625
2453.30451	1252.1625
2456.07226	1242.0625
2458.83827	1238.9625
2461.60254	1236.0625
2464.36507	1232.0625
2467.12586	1233.7625
2469.88492	1227.9625
2472.64224	1229.9625
2475.39782	1224.7625
2478.15167	1223.5625
2480.90379	1225.7625
2483.65417	1223.8625
2486.40283	1225.6625
2489.14976	1223.9625
2491.89497	1217.6625
2494.63845	1219.6625
2497.3802	1224.6625
2500.12024	1224.9625
2502.85855	1217.8625
2505.59514	1214.4625
2508.33002	1214.1625
2511.06318	1206.4625
2513.79462	1200.3625
2516.52435	1203.2625
2519.25237	1206.1625
2521.97867	1199.3625
2524.70327	1198.0625
2527.42616	1187.0625
2530.14734	1191.2625
2532.86681	1185.1625
2535.58458	1191.1625
2538.30065	1177.9625
2541.01501	1179.5625
2543.72768	1180.3625
2546.43864	1178.5625
2549.14791	1175.4625
2551.85548	1175.9625
2554.56136	1164.3625
2557.26554	1165.1625
2559.96803	1160.4625
2562.66883	1162.8625
2565.36794	1164.0625
2568.06536	1163.3625
2570.7611	1154.1625
2573.45514	1158.2625
2576.14751	1166.5625
2578.83819	1157.9625
2581.52719	1151.2625
2584.21451	1151.1625
2586.90015	1154.9625
2589.58411	1144.2625
2592.2664	1139.2625
2594.94701	1138.5625
2597.62594	1138.3625
2600.30321	1135.3625
2602.9788	1140.0625
2605.65273	1127.6625
2608.32498	1120.8625
2610.99557	1126.2625
2613.66449	1124.1625
2616.33175	1131.9625
2618.99734	1119.2625
2621.66128	1110.3625
2624.32355	1120.2625
2626.98416	1119.8625
2629.64311	1123.5625
2632.30041	1115.1625
2634.95605	1122.9625
2637.61004	1123.6625
2640.26238	1122.5625
2642.91306	1119.1625
2645.56209	1114.6625
2648.20948	1122.2625
2650.85521	1115.9625
2653.4993	1122.1625
2656.14175	1118.0625
2658.78255	1118.4625
2661.42171	1132.5625
2664.05923	1121.9625
2666.6951	1122.1625
2669.32934	1117.0625
2671.96194	1124.9625
2674.59291	1124.5625
2677.22224	1127.7625
2679.84993	1126.8625
2682.476	1122.3625
2685.10043	1135.0625
2687.72324	1129.2625
2690.34441	1124.8625
2692.96396	1130.7625
2695.58188	1131.9625
2698.19818	1122.6625
2700.81285	1143.2625
2703.4259	1124.8625
2706.03733	1123.9625
2708.64714	1130.3625
2711.25533	1133.8625
2713.86191	1131.6625
2716.46687	1142.7625
2719.07021	1141.3625
2721.67194	1147.6625
2724.27206	1138.6625
2726.87057	1141.7625
2729.46747	1140.6625
2732.06276	1140.8625
2734.65644	1155.8625
2737.24852	1155.4625
2739.83899	1155.5625
2742.42786	1154.2625
2745.01513	1159.5625
2747.60079	1175.2625
2750.18486	1175.0625
2752.76733	1182.2625
2755.3482	1186.1625
2757.92747	1199.1625
2760.50515	1206.5625
2763.08123	1207.7625
2765.65573	1209.3625
2768.22863	1223.1625
2770.79994	1211.9625
2773.36967	1212.7625
2775.9378	1213.8625
2778.50435	1217.9625
2781.06932	1208.8625
2783.6327	1222.8625
2786.1945	1227.7625
2788.75471	1226.5625
2791.31335	1237.6625
2793.87041	1239.8625
2796.42589	1237.1625
2798.97979	1244.2625
2801.53212	1250.7625
2804.08288	1240.2625
2806.63206	1247.7625
2809.17967	1232.6625
2811.72571	1238.8625
2814.27018	1226.1625
2816.81308	1224.4625
2819.35442	1221.1625
2821.89419	1213.7625
2824.43239	1215.4625
2826.96904	1216.8625
2829.50412	1206.9625
2832.03763	1212.5625
2834.56959	1217.9625
2837.1	1225.7625
2839.62884	1222.9625
2842.15613	1246.2625
2844.68186	1257.8625
2847.20604	1290.6625
2849.72867	1308.6625
2852.24974	1329.7625
2854.76927	1370.3625
2857.28724	1395.2625
2859.80367	1439.6625
2862.31855	1476.8625
2864.83189	1512.1625
2867.34368	1546.0625
2869.85393	1583.2625
2872.36264	1616.9625
2874.8698	1644.9625
2877.37543	1687.3625
2879.87952	1726.4625
2882.38207	1762.3625
2884.88308	1782.0625
2887.38256	1810.7625
2889.88051	1836.9625
2892.37692	1844.3625
2894.8718	1855.2625
2897.36515	1860.2625
2899.85698	1861.0625
2902.34727	1863.4625
2904.83604	1847.9625
2907.32328	1851.5625
2909.809	1859.7625
2912.29319	1854.4625
2914.77587	1857.2625
2917.25702	1860.0625
2919.73665	1856.0625
2922.21476	1866.6625
2924.69136	1859.1625
2927.16644	1859.3625
2929.64	1850.5625
2932.11205	1845.2625
2934.58258	1838.7625
2937.05161	1831.6625
2939.51912	1813.6625
2941.98513	1786.3625
2944.44962	1749.2625
2946.91261	1716.6625
2949.37409	1686.9625
2951.83407	1652.3625
2954.29254	1605.7625
2956.74951	1566.1625
2959.20498	1536.0625
2961.65895	1500.6625
2964.11142	1462.8625
2966.56239	1430.3625
2969.01186	1413.3625
2971.45984	1382.5625
2973.90632	1360.8625
2976.35131	1324.7625
2978.7948	1301.7625
2981.23681	1285.6625
2983.67732	1271.4625
2986.11635	1248.1625
2988.55388	1224.9625
2990.98993	1212.3625
2993.4245	1203.0625
2995.85758	1180.0625
2998.28917	1176.4625
3000.71928	1165.1625
3003.14791	1161.3625
3005.57506	1149.1625
3008.00073	1146.7625
3010.42493	1145.4625
3012.84764	1143.2625
3015.26888	1135.8625
3017.68865	1138.7625
3020.10694	1131.6625
3022.52376	1123.8625
3024.9391	1119.8625
3027.35298	1127.7625
3029.76539	1121.0625
3032.17632	1121.0625
3034.5858	1116.6625
3036.9938	1114.0625
3039.40034	1118.9625
3041.80542	1121.4625
3044.20903	1111.8625
3046.61118	1120.0625
3049.01187	1117.8625
3051.4111	1116.4625
3053.80888	1117.6625
3056.20519	1117.2625
3058.60005	1128.6625
3060.99345	1121.9625
3063.3854	1134.5625
3065.7759	1121.7625
3068.16494	1133.7625
3070.55254	1142.6625
3072.93868	1147.9625
3075.32338	1140.1625
3077.70662	1139.0625
3080.08842	1139.6625
3082.46878	1151.3625
3084.84769	1156.2625
3087.22515	1161.5625
3089.60118	1168.2625
3091.97576	1175.8625
3094.3489	1175.1625
3096.72061	1184.8625
3099.09087	1190.9625
3101.4597	1200.4625
3103.82709	1198.2625
3106.19305	1200.0625
3108.55757	1211.5625
3110.92066	1214.5625
3113.28232	1228.8625
3115.64255	1230.9625
3118.00134	1224.5625
3120.35871	1235.7625
3122.71466	1235.8625
3125.06917	1259.3625
