Data from AgNP_FTO_APTES_CRN_10uM_R6G_10uM_NaF_0.1M_Addition_RamanShift__8__16-24-17-961.txt Node

Date: Wed Dec 15 16:24:17 GMT 2021
User: TCL
Spectrometer: QEP01345
Trigger mode: 4
Integration Time (sec): 7.000000E0
Scans to average: 10
Electric dark correction enabled: true
Nonlinearity correction enabled: false
Boxcar width: 0
XAxis mode: Raman Shifts
Number of Pixels in Spectrum: 1044
>>>>>Begin Spectral Data<<<<<
46.04893	2.55
50.45542	-1.75
54.85868	-0.85
59.25871	-0.55
63.6555	75.95
68.04907	83.55
72.43941	84.55
76.82654	90.75
81.21044	95.05
85.59113	100.65
89.96862	103.05
94.34289	101.25
98.71396	110.75
103.08183	115.35
107.4465	120.55
111.80798	118.85
116.16626	123.55
120.52136	130.45
124.87327	130.05
129.222	137.15
133.56755	143.65
137.90993	151.95
142.24913	169.55
146.58517	189.55
150.91804	213.25
155.24774	258.35
159.57429	317.25
163.89768	408.95
168.21792	536.95
172.53501	733.25
176.84895	1003.45
181.15975	1402.65
185.46741	1963.15
189.77193	2721.75
194.07331	3622.35
198.37157	4673.45
202.6667	5798.35
206.9587	6900.55
211.24758	7979.45
215.53334	9072.75
219.81599	10216.65
224.09553	11464.65
228.37195	12844.05
232.64527	14365.45
236.91549	15957.65
241.18261	17587.95
245.44663	19138.55
249.70755	20495.05
253.96539	21737.45
258.22014	22743.35
262.4718	23525.15
266.72039	24036.25
270.96589	24317.15
275.20832	24354.65
279.44768	24209.75
283.68397	23993.75
287.91719	23883.75
292.14735	23807.85
296.37445	23832.65
300.59849	23829.55
304.81948	23904.45
309.03742	23892.05
313.25231	23728.25
317.46415	23305.45
321.67296	22699.15
325.87872	22205.95
330.08145	21925.55
334.28114	21896.55
338.47781	22025.65
342.67145	22272.15
346.86207	22628.45
351.04966	23027.75
355.23424	23385.55
359.4158	23683.75
363.59435	23829.85
367.76989	23934.35
371.94243	23939.05
376.11196	23920.75
380.27849	23912.15
384.44203	23924.75
388.60257	24052.75
392.76012	24319.45
396.91468	24641.35
401.06626	25044.05
405.21485	25261.15
409.36047	25252.35
413.50311	25018.75
417.64277	24902.25
421.77947	24942.35
425.9132	25177.05
430.04396	25285.65
434.17176	25367.25
438.2966	25416.05
442.41849	25556.75
446.53742	25992.15
450.6534	26499.45
454.76644	26879.25
458.87653	27052.05
462.98368	27050.75
467.08789	26897.05
471.18916	26717.75
475.2875	26449.15
479.38291	26318.25
483.4754	26145.35
487.56496	25813.55
491.6516	25488.45
495.73531	25158.15
499.81612	25067.95
503.89401	25286.85
507.96899	25462.35
512.04106	25571.55
516.11023	25567.55
520.1765	25424.05
524.23987	25208.05
528.30034	24965.95
532.35792	24672.75
536.41261	24328.35
540.46441	24123.45
544.51333	24101.85
548.55936	24375.55
552.60252	24893.45
556.64279	25380.15
560.6802	25715.15
564.71473	25917.15
568.7464	26302.65
572.7752	27057.25
576.80114	27961.95
580.82422	28930.35
584.84444	29934.05
588.86181	30894.25
592.87633	31433.25
596.888	31026.35
600.89682	29856.15
604.9028	29502.75
608.90594	30625.05
612.90624	31925.05
616.90371	30041.25
620.89834	26162.15
624.89015	24411.85
628.87913	24280.75
632.86528	24481.55
636.84862	24550.95
640.82913	24238.35
644.80683	23755.55
648.78172	23412.05
652.75379	23375.85
656.72306	23503.05
660.68952	23736.75
664.65319	23676.15
668.61405	23400.45
672.57211	23354.05
676.52738	23422.35
680.47986	23374.05
684.42955	23262.55
688.37646	23172.25
692.32058	23291.95
696.26192	23556.05
700.20048	23879.25
704.13626	24143.05
708.06928	24250.95
711.99952	24312.55
715.927	24300.25
719.85171	24200.25
723.77365	24000.75
727.69284	23595.35
731.60928	23287.45
735.52295	23125.45
739.43388	23120.55
743.34206	23181.75
747.24749	23326.65
751.15017	23541.45
755.05012	23944.25
758.94733	24631.55
762.8418	25761.05
766.73354	27523.15
770.62254	28950.95
774.50882	29000.05
778.39237	27679.15
782.27321	26031.35
786.15132	24687.55
790.02671	23855.35
793.89938	23327.35
797.76935	23169.85
801.6366	23117.65
805.50115	23084.65
809.36299	22967.95
813.22213	22801.75
817.07857	22737.35
820.93231	22651.65
824.78336	22553.35
828.63172	22460.75
832.47738	22469.55
836.32036	22499.05
840.16066	22538.55
843.99827	22515.65
847.8332	22444.25
851.66546	22410.35
855.49504	22402.65
859.32195	22397.45
863.1462	22320.25
866.96777	22262.15
870.78668	22221.45
874.60293	22246.35
878.41652	22288.25
882.22745	22316.45
886.03573	22408.45
889.84136	22430.75
893.64433	22417.15
897.44466	22404.65
901.24235	22381.65
905.0374	22285.15
908.8298	22273.85
912.61957	22344.35
916.40671	22584.55
920.19121	22843.85
923.97308	23037.05
927.75233	23019.45
931.52895	22815.95
935.30295	22446.15
939.07433	22111.75
942.84309	21779.55
946.60924	21608.25
950.37278	21533.25
954.13371	21477.75
957.89203	21455.35
961.64774	21491.85
965.40086	21486.65
969.15137	21407.15
972.89929	21320.75
976.64461	21229.95
980.38733	21181.75
984.12747	21258.65
987.86502	21288.95
991.59999	21440.35
995.33237	21606.25
999.06217	21886.75
1002.78939	22268.95
1006.51404	22714.95
1010.23611	23190.75
1013.95561	23526.85
1017.67255	23485.05
1021.38692	23185.95
1025.09872	22852.85
1028.80796	22586.35
1032.51465	22580.25
1036.21877	22674.05
1039.92035	22811.35
1043.61937	22954.85
1047.31584	23112.55
1051.00976	23203.65
1054.70114	23449.65
1058.38998	23820.55
1062.07627	24456.75
1065.76003	25318.65
1069.44126	26332.45
1073.11995	27282.35
1076.79611	27723.75
1080.46974	27495.65
1084.14085	26838.25
1087.80943	26269.05
1091.47549	25929.15
1095.13903	25690.75
1098.80005	25226.95
1102.45857	24556.65
1106.11456	23940.35
1109.76805	23582.45
1113.41903	23467.55
1117.06751	23526.55
1120.71348	23735.45
1124.35696	24006.65
1127.99793	24336.45
1131.63641	24630.55
1135.2724	24636.25
1138.90589	24546.55
1142.5369	24637.85
1146.16542	24726.25
1149.79145	24863.95
1153.415	25057.45
1157.03607	25411.15
1160.65467	26043.35
1164.27079	27144.85
1167.88443	28576.75
1171.49561	30178.65
1175.10432	32153.35
1178.71056	34526.45
1182.31434	36684.85
1185.91565	37869.65
1189.51451	37778.95
1193.11091	37025.05
1196.70485	35769.15
1200.29634	34296.25
1203.88538	33173.85
1207.47197	32547.95
1211.05612	32227.15
1214.63782	31705.65
1218.21708	30813.55
1221.79391	29802.45
1225.36829	29036.65
1228.94024	28661.55
1232.50976	28444.75
1236.07685	28181.45
1239.6415	28077.25
1243.20374	28015.95
1246.76355	28183.15
1250.32093	28567.95
1253.8759	29125.85
1257.42845	29939.65
1260.97859	30878.05
1264.52631	31774.65
1268.07163	32559.45
1271.61453	33416.95
1275.15503	34186.15
1278.69312	34985.25
1282.22882	35946.85
1285.76211	37088.45
1289.29301	38369.95
1292.82151	39973.55
1296.34761	41846.25
1299.87133	44009.85
1303.39266	46184.15
1306.9116	48111.25
1310.42815	49533.35
1313.94233	50210.25
1317.45412	50044.85
1320.96354	49611.55
1324.47058	49356.75
1327.97525	49493.55
1331.47754	49585.85
1334.97747	49608.95
1338.47502	49510.45
1341.97022	49383.15
1345.46305	49176.15
1348.95352	48814.35
1352.44163	48444.95
1355.92738	48548.85
1359.41078	49420.95
1362.89183	50182.45
1366.37053	49377.05
1369.84688	46324.75
1373.32088	42259.85
1376.79254	39208.25
1380.26186	37857.15
1383.72883	37621.75
1387.19347	37423.85
1390.65578	37057.75
1394.11575	36871.85
1397.57339	36955.45
1401.0287	37247.75
1404.48168	37467.35
1407.93234	37205.15
1411.38068	36371.75
1414.82669	35099.95
1418.27039	33610.05
1421.71177	32258.35
1425.15083	31261.25
1428.58758	30797.95
1432.02203	31137.85
1435.45416	31827.95
1438.88399	32745.45
1442.31151	33407.85
1445.73673	33787.55
1449.15965	34195.65
1452.58027	34471.15
1455.9986	34571.95
1459.41463	34907.95
1462.82837	35451.25
1466.23982	36040.05
1469.64898	36522.45
1473.05586	36810.25
1476.46045	36890.25
1479.86276	36724.35
1483.26279	36491.35
1486.66054	36413.85
1490.05602	36618.65
1493.44922	37145.45
1496.84016	37834.65
1500.22882	38843.85
1503.61521	40198.15
1506.99934	41573.85
1510.38121	42425.05
1513.76081	42416.35
1517.13816	41579.25
1520.51324	40576.65
1523.88607	39787.25
1527.25665	39409.25
1530.62498	39362.95
1533.99105	39117.85
1537.35488	38544.95
1540.71647	37604.15
1544.07581	36497.35
1547.4329	35504.55
1550.78776	34569.15
1554.14038	34033.95
1557.49077	33724.55
1560.83892	33643.65
1564.18484	33722.35
1567.52853	34083.45
1570.86999	34827.75
1574.20922	36152.95
1577.54624	37667.95
1580.88103	38850.95
1584.2136	39284.95
1587.54395	39320.35
1590.87208	39325.75
1594.19801	40054.45
1597.52172	41161.65
1600.84321	41268.35
1604.16251	39561.05
1607.47959	36864.75
1610.79447	34047.05
1614.10715	31428.85
1617.41763	29167.45
1620.7259	27525.85
1624.03199	26620.65
1627.33587	26551.15
1630.63757	27255.55
1633.93707	28779.65
1637.23439	31516.25
1640.52951	35503.25
1643.82246	40098.85
1647.11321	43813.85
1650.40179	44571.55
1653.68819	41761.05
1656.97241	36715.95
1660.25446	31629.45
1663.53433	27700.95
1666.81203	25091.85
1670.08756	23382.25
1673.36092	22287.55
1676.63211	21586.55
1679.90115	21132.15
1683.16801	20749.35
1686.43272	20515.35
1689.69527	20302.25
1692.95567	20124.65
1696.2139	20113.55
1699.46999	20044.85
1702.72392	19961.95
1705.97571	19876.65
1709.22535	19798.55
1712.47284	19731.05
1715.71819	19703.15
1718.96139	19632.55
1722.20246	19526.45
1725.44139	19449.05
1728.67818	19338.05
1731.91284	19246.95
1735.14537	19181.15
1738.37576	19038.55
1741.60403	19002.85
1744.83017	18983.95
1748.05418	18898.55
1751.27607	18883.75
1754.49584	18853.35
1757.71349	18859.55
1760.92903	18845.95
1764.14244	18833.65
1767.35375	18797.05
1770.56294	18788.65
1773.77002	18745.25
1776.97499	18712.45
1780.17785	18610.55
1783.37861	18566.95
1786.57727	18522.65
1789.77382	18487.95
1792.96828	18450.15
1796.16064	18412.35
1799.3509	18382.55
1802.53907	18340.15
1805.72514	18269.95
1808.90913	18255.45
1812.09102	18191.25
1815.27083	18175.85
1818.44856	18150.35
1821.6242	18145.45
1824.79776	18120.85
1827.96924	18141.85
1831.13864	18125.45
1834.30597	18181.65
1837.47122	18196.15
1840.6344	18170.55
1843.7955	18191.05
1846.95454	18205.35
1850.11151	18187.05
1853.26642	18146.75
1856.41926	18131.55
1859.57004	18104.55
1862.71876	18112.75
1865.86542	18060.35
1869.01003	18048.75
1872.15258	18020.15
1875.29308	17953.85
1878.43152	17886.55
1881.56792	17847.45
1884.70227	17842.95
1887.83457	17796.45
1890.96482	17780.95
1894.09304	17764.15
1897.21921	17721.15
1900.34335	17687.75
1903.46544	17661.45
1906.58551	17641.65
1909.70353	17635.05
1912.81953	17572.55
1915.93349	17543.95
1919.04543	17506.35
1922.15534	17471.75
1925.26322	17420.35
1928.36908	17395.95
1931.47292	17336.25
1934.57473	17306.35
1937.67453	17277.25
1940.77232	17185.35
1943.86808	17149.55
1946.96184	17119.05
1950.05358	17079.95
1953.14331	17049.35
1956.23103	17003.35
1959.31675	16975.05
1962.40046	16928.75
1965.48217	16858.65
1968.56188	16811.55
1971.63959	16775.25
1974.7153	16679.15
1977.78901	16628.15
1980.86073	16619.65
1983.93046	16542.55
1986.99819	16489.05
1990.06394	16450.95
1993.1277	16405.85
1996.18947	16329.55
1999.24925	16301.65
2002.30706	16268.85
2005.36288	16201.15
2008.41672	16169.55
2011.46859	16105.05
2014.51848	16057.75
2017.56639	16034.05
2020.61233	15969.95
2023.6563	15932.45
2026.6983	15917.35
2029.73833	15895.95
2032.7764	15854.05
2035.8125	15811.45
2038.84664	15777.25
2041.87881	15750.35
2044.90903	15704.35
2047.93729	15656.55
2050.96359	15683.45
2053.98794	15641.85
2057.01034	15659.95
2060.03078	15633.35
2063.04927	15616.55
2066.06582	15605.55
2069.08042	15558.45
2072.09307	15562.15
2075.10378	15538.85
2078.11255	15567.35
2081.11938	15560.15
2084.12426	15559.95
2087.12722	15523.75
2090.12824	15527.85
2093.12732	15530.45
2096.12447	15540.55
2099.11969	15512.05
2102.11299	15545.65
2105.10435	15533.65
2108.09379	15561.05
2111.08131	15576.05
2114.0669	15595.45
2117.05057	15605.35
2120.03233	15611.05
2123.01216	15605.75
2125.99008	15591.55
2128.96609	15638.35
2131.94018	15648.05
2134.91236	15622.55
2137.88263	15646.55
2140.851	15624.75
2143.81746	15666.15
2146.78201	15644.05
2149.74466	15665.65
2152.7054	15679.55
2155.66425	15652.65
2158.6212	15637.35
2161.57625	15654.15
2164.52941	15652.45
2167.48067	15632.95
2170.43004	15619.15
2173.37752	15614.45
2176.32311	15634.95
2179.26681	15577.65
2182.20863	15625.55
2185.14856	15621.05
2188.08661	15567.85
2191.02278	15589.45
2193.95707	15559.15
2196.88948	15547.85
2199.82001	15548.95
2202.74867	15513.85
2205.67545	15473.55
2208.60037	15520.25
2211.52341	15469.75
2214.44458	15475.45
2217.36388	15415.45
2220.28132	15383.75
2223.1969	15387.25
2226.11061	15379.75
2229.02246	15340.85
2231.93245	15331.25
2234.84058	15304.45
2237.74686	15265.95
2240.65128	15277.85
2243.55385	15235.65
2246.45456	15181.05
2249.35343	15185.35
2252.25044	15142.15
2255.14561	15121.25
2258.03893	15070.25
2260.93041	15089.45
2263.82004	15043.35
2266.70783	15013.05
2269.59378	14946.75
2272.4779	14928.45
2275.36017	14883.75
2278.24061	14852.15
2281.11922	14810.35
2283.996	14819.75
2286.87094	14781.65
2289.74405	14758.15
2292.61534	14735.45
2295.4848	14728.75
2298.35243	14727.15
2301.21824	14697.85
2304.08223	14693.15
2306.94439	14661.25
2309.80474	14648.05
2312.66327	14675.65
2315.51999	14648.25
2318.37489	14633.15
2321.22797	14614.25
2324.07925	14603.75
2326.92871	14585.45
2329.77637	14586.85
2332.62222	14548.75
2335.46626	14536.05
2338.3085	14559.55
2341.14893	14501.45
2343.98756	14521.45
2346.8244	14493.95
2349.65943	14492.35
2352.49267	14496.05
2355.32411	14484.95
2358.15376	14494.65
2360.98161	14463.55
2363.80768	14453.05
2366.63195	14440.45
2369.45444	14450.35
2372.27514	14430.55
2375.09405	14428.75
2377.91118	14396.55
2380.72652	14354.55
2383.54009	14316.85
2386.35187	14322.65
2389.16188	14278.05
2391.97011	14236.45
2394.77657	14244.05
2397.58125	14203.35
2400.38416	14172.15
2403.18529	14149.05
2405.98466	14154.15
2408.78226	14111.45
2411.57809	14102.25
2414.37216	14082.25
2417.16446	14098.55
2419.955	14068.85
2422.74378	14072.25
2425.5308	14047.25
2428.31606	14029.75
2431.09956	14016.45
2433.88131	14002.05
2436.6613	14008.15
2439.43954	14008.95
2442.21603	13990.55
2444.99077	13961.25
2447.76377	13992.95
2450.53501	13983.35
2453.30451	13971.45
2456.07226	13940.45
2458.83827	13938.35
2461.60254	13910.75
2464.36507	13893.15
2467.12586	13885.45
2469.88492	13903.95
2472.64224	13930.15
2475.39782	13900.85
2478.15167	13883.35
2480.90379	13876.35
2483.65417	13905.55
2486.40283	13860.55
2489.14976	13900.95
2491.89497	13881.45
2494.63845	13928.85
2497.3802	13912.35
2500.12024	13873.55
2502.85855	13862.35
2505.59514	13868.65
2508.33002	13840.05
2511.06318	13820.65
2513.79462	13816.05
2516.52435	13782.75
2519.25237	13782.25
2521.97867	13728.95
2524.70327	13788.15
2527.42616	13755.55
2530.14734	13753.25
2532.86681	13723.35
2535.58458	13701.35
2538.30065	13696.85
2541.01501	13670.65
2543.72768	13684.95
2546.43864	13640.55
2549.14791	13641.35
2551.85548	13616.25
2554.56136	13581.55
2557.26554	13600.45
2559.96803	13583.85
2562.66883	13570.25
2565.36794	13582.35
2568.06536	13587.55
2570.7611	13527.75
2573.45514	13497.25
2576.14751	13522.65
2578.83819	13478.65
2581.52719	13477.55
2584.21451	13483.65
2586.90015	13470.55
2589.58411	13403.55
2592.2664	13397.55
2594.94701	13374.05
2597.62594	13380.75
2600.30321	13320.55
2602.9788	13346.55
2605.65273	13318.35
2608.32498	13319.55
2610.99557	13297.85
2613.66449	13308.75
2616.33175	13248.65
2618.99734	13269.15
2621.66128	13250.95
2624.32355	13266.35
2626.98416	13225.65
2629.64311	13239.25
2632.30041	13237.05
2634.95605	13237.55
2637.61004	13182.35
2640.26238	13178.05
2642.91306	13183.25
2645.56209	13184.65
2648.20948	13198.25
2650.85521	13175.45
2653.4993	13164.15
2656.14175	13177.05
2658.78255	13204.65
2661.42171	13151.45
2664.05923	13186.25
2666.6951	13184.05
2669.32934	13209.95
2671.96194	13186.45
2674.59291	13190.15
2677.22224	13191.45
2679.84993	13194.25
2682.476	13158.45
2685.10043	13185.15
2687.72324	13184.95
2690.34441	13196.15
2692.96396	13179.95
2695.58188	13185.45
2698.19818	13165.75
2700.81285	13204.45
2703.4259	13220.95
2706.03733	13276.75
2708.64714	13236.75
2711.25533	13249.85
2713.86191	13203.15
2716.46687	13240.85
2719.07021	13226.95
2721.67194	13220.05
2724.27206	13219.35
2726.87057	13207.95
2729.46747	13213.95
2732.06276	13200.65
2734.65644	13216.95
2737.24852	13235.95
2739.83899	13219.75
2742.42786	13214.65
2745.01513	13151.85
2747.60079	13144.45
2750.18486	13179.95
2752.76733	13176.35
2755.3482	13194.15
2757.92747	13183.15
2760.50515	13166.65
2763.08123	13161.25
2765.65573	13134.95
2768.22863	13075.85
2770.79994	13113.95
2773.36967	13103.45
2775.9378	13064.45
2778.50435	13066.05
2781.06932	13048.35
2783.6327	13037.15
2786.1945	13018.95
2788.75471	13015.05
2791.31335	12983.45
2793.87041	12958.75
2796.42589	12934.55
2798.97979	12934.65
2801.53212	12900.45
2804.08288	12885.85
2806.63206	12875.45
2809.17967	12851.85
2811.72571	12829.05
2814.27018	12812.45
2816.81308	12773.95
2819.35442	12756.55
2821.89419	12728.65
2824.43239	12752.65
2826.96904	12739.25
2829.50412	12727.15
2832.03763	12692.65
2834.56959	12715.45
2837.1	12675.45
2839.62884	12686.25
2842.15613	12690.45
2844.68186	12716.95
2847.20604	12730.25
2849.72867	12699.65
2852.24974	12700.25
2854.76927	12707.95
2857.28724	12712.85
2859.80367	12659.45
2862.31855	12692.95
2864.83189	12676.85
2867.34368	12646.55
2869.85393	12635.95
2872.36264	12661.95
2874.8698	12651.85
2877.37543	12614.65
2879.87952	12655.85
2882.38207	12610.15
2884.88308	12598.85
2887.38256	12652.05
2889.88051	12647.65
2892.37692	12620.95
2894.8718	12621.75
2897.36515	12631.45
2899.85698	12633.25
2902.34727	12642.15
2904.83604	12670.85
2907.32328	12662.95
2909.809	12648.15
2912.29319	12665.15
2914.77587	12662.95
2917.25702	12662.05
2919.73665	12630.65
2922.21476	12671.75
2924.69136	12627.55
2927.16644	12646.75
2929.64	12645.95
2932.11205	12628.55
2934.58258	12616.35
2937.05161	12629.05
2939.51912	12621.25
2941.98513	12581.65
2944.44962	12527.75
2946.91261	12485.95
2949.37409	12542.15
2951.83407	12523.75
2954.29254	12519.55
2956.74951	12489.75
2959.20498	12480.95
2961.65895	12424.45
2964.11142	12445.65
2966.56239	12397.45
2969.01186	12392.05
2971.45984	12365.35
2973.90632	12302.85
2976.35131	12287.05
2978.7948	12278.85
2981.23681	12256.15
2983.67732	12212.15
2986.11635	12203.55
2988.55388	12174.35
2990.98993	12155.85
2993.4245	12107.15
2995.85758	12107.95
2998.28917	12065.95
3000.71928	12066.95
3003.14791	12000.85
3005.57506	12008.85
3008.00073	11972.35
3010.42493	11965.95
3012.84764	11926.55
3015.26888	11927.35
3017.68865	11886.75
3020.10694	11880.65
3022.52376	11846.55
3024.9391	11843.65
3027.35298	11838.45
3029.76539	11865.25
3032.17632	11827.45
3034.5858	11797.75
3036.9938	11760.75
3039.40034	11770.45
3041.80542	11761.05
3044.20903	11739.75
3046.61118	11728.35
3049.01187	11699.55
3051.4111	11721.75
3053.80888	11699.85
3056.20519	11674.65
3058.60005	11640.35
3060.99345	11599.45
3063.3854	11578.35
3065.7759	11587.95
3068.16494	11515.65
3070.55254	11499.75
3072.93868	11502.45
3075.32338	11448.25
3077.70662	11416.35
3080.08842	11381.75
3082.46878	11383.55
3084.84769	11373.85
3087.22515	11376.45
3089.60118	11362.15
3091.97576	11350.45
3094.3489	11369.45
3096.72061	11361.25
3099.09087	11329.85
3101.4597	11317.35
3103.82709	11298.75
3106.19305	11282.05
3108.55757	11261.05
3110.92066	11248.75
3113.28232	11224.65
3115.64255	11176.65
3118.00134	11175.15
3120.35871	11156.25
3122.71466	11156.25
3125.06917	11143.35
3127.42226	11113.25
3129.77393	11143.25
3132.12417	11119.85
3134.47299	11134.45
3136.82039	11147.05
3139.16636	11118.85
3141.51092	11121.35
3143.85406	11130.75
3146.19579	11109.25
3148.53609	11152.25
3150.87499	11137.85
3153.21246	11141.65
3155.54853	11150.05
3157.88318	11137.85
3160.21642	11160.85
3162.54826	11162.75
3164.87868	11136.35
3167.2077	11140.65
3169.5353	11137.05
3171.86151	11118.75
3174.18631	11105.65
3176.5097	11118.55
3178.83169	11045.65
3181.15228	11076.35
3183.47147	11056.55
3185.78926	11059.05
3188.10565	11029.85
3190.42065	11036.05
3192.73424	11027.55
3195.04645	11026.45
3197.35725	11026.55
3199.66667	11018.15
3201.97469	11041.15
3204.28132	11033.95
3206.58656	11056.35
3208.8904	11021.45
3211.19287	11043.85
3213.49394	11030.25
3215.79363	11030.45
3218.09193	11024.15
3220.38884	11040.05
3222.68438	11037.35
3224.97853	11005.25
3227.2713	10990.25
3229.56269	10963.45
3231.8527	10975.45
3234.14133	10934.75
3236.42858	10934.75
3238.71446	10925.35
