Data from AgNP_FTO_APTES_CRN_5uM_R6G_10uM_NaF_0.1M_Addition_RamanShift__24__15-53-57-927.txt Node

Date: Wed Dec 15 15:53:57 GMT 2021
User: TCL
Spectrometer: QEP01345
Trigger mode: 4
Integration Time (sec): 7.000000E0
Scans to average: 10
Electric dark correction enabled: true
Nonlinearity correction enabled: false
Boxcar width: 0
XAxis mode: Raman Shifts
Number of Pixels in Spectrum: 1044
>>>>>Begin Spectral Data<<<<<
46.04893	-0.025
50.45542	-2.125
54.85868	-2.225
59.25871	-0.925
63.6555	108.075
68.04907	120.075
72.43941	123.175
76.82654	128.775
81.21044	132.875
85.59113	137.175
89.96862	139.575
94.34289	142.275
98.71396	152.275
103.08183	157.575
107.4465	164.875
111.80798	160.975
116.16626	170.975
120.52136	176.775
124.87327	179.875
129.222	187.475
133.56755	201.775
137.90993	218.875
142.24913	243.575
146.58517	265.075
150.91804	304.775
155.24774	364.375
159.57429	446.175
163.89768	572.375
168.21792	754.575
172.53501	1022.675
176.84895	1424.275
181.15975	1986.575
185.46741	2775.675
189.77193	3831.775
194.07331	5115.075
198.37157	6597.275
202.6667	8121.275
206.9587	9689.375
211.24758	11151.275
215.53334	12640.375
219.81599	14269.775
224.09553	16037.275
228.37195	18004.075
232.64527	20260.475
236.91549	22569.675
241.18261	24841.975
245.44663	26949.575
249.70755	28782.875
253.96539	30360.975
258.22014	31772.375
262.4718	32947.575
266.72039	33815.975
270.96589	34368.075
275.20832	34431.875
279.44768	34329.175
283.68397	34050.475
287.91719	33808.075
292.14735	33653.675
296.37445	33705.975
300.59849	33902.775
304.81948	34190.775
309.03742	34242.375
313.25231	33949.375
317.46415	33165.975
321.67296	32122.275
325.87872	31221.475
330.08145	30860.875
334.28114	30920.575
338.47781	31222.975
342.67145	31715.575
346.86207	32357.875
351.04966	33196.375
355.23424	34103.175
359.4158	34909.775
363.59435	35460.775
367.76989	35757.875
371.94243	35935.375
376.11196	35985.475
380.27849	36045.975
384.44203	36109.075
388.60257	36255.175
392.76012	36484.575
396.91468	36922.875
401.06626	37637.175
405.21485	38095.775
409.36047	37977.875
413.50311	37288.075
417.64277	36665.875
421.77947	36497.175
425.9132	36546.475
430.04396	36834.875
434.17176	37084.975
438.2966	37450.775
442.41849	38041.575
446.53742	38998.375
450.6534	40158.375
454.76644	41069.175
458.87653	41433.375
462.98368	41293.675
467.08789	40781.975
471.18916	40006.175
475.2875	39223.875
479.38291	38713.175
483.4754	38196.875
487.56496	37806.875
491.6516	37310.175
495.73531	36960.275
499.81612	36960.475
503.89401	37222.675
507.96899	37416.875
512.04106	37510.875
516.11023	37606.075
520.1765	37579.775
524.23987	37467.775
528.30034	37187.375
532.35792	36778.775
536.41261	36191.775
540.46441	35671.775
544.51333	35568.775
548.55936	35935.375
552.60252	36565.475
556.64279	37280.175
560.6802	37579.675
564.71473	37790.675
568.7464	38337.175
572.7752	39066.275
576.80114	39508.375
580.82422	39863.575
584.84444	40346.875
588.86181	40805.275
592.87633	41447.575
596.888	42164.475
600.89682	42889.175
604.9028	44949.975
608.90594	49704.675
612.90624	54407.875
616.90371	51025.175
620.89834	42298.475
624.89015	38642.075
628.87913	38270.175
632.86528	38154.375
636.84862	37832.075
640.82913	37041.675
644.80683	36012.575
648.78172	35270.175
652.75379	35214.475
656.72306	35787.075
660.68952	36530.275
664.65319	36335.675
668.61405	35689.475
672.57211	35413.375
676.52738	35357.175
680.47986	35336.275
684.42955	35210.975
688.37646	35177.675
692.32058	35396.175
696.26192	35757.775
700.20048	36099.275
704.13626	36336.475
708.06928	36232.875
711.99952	35994.975
715.927	35872.475
719.85171	35949.275
723.77365	35826.475
727.69284	35432.475
731.60928	35113.275
735.52295	35013.775
739.43388	35071.175
743.34206	35208.075
747.24749	35433.975
751.15017	35803.475
755.05012	36462.675
758.94733	37618.175
762.8418	39732.775
766.73354	43073.375
770.62254	46182.375
774.50882	47013.175
778.39237	44643.975
782.27321	41045.075
786.15132	38056.975
790.02671	36424.275
793.89938	35677.775
797.76935	35378.875
801.6366	35306.675
805.50115	35208.875
809.36299	35016.475
813.22213	34746.475
817.07857	34675.375
820.93231	34596.275
824.78336	34540.175
828.63172	34670.775
832.47738	34718.775
836.32036	34860.975
840.16066	35116.975
843.99827	35210.175
847.8332	35116.575
851.66546	34853.675
855.49504	34787.375
859.32195	34672.375
863.1462	34449.475
866.96777	34294.875
870.78668	34180.575
874.60293	34218.675
878.41652	34204.575
882.22745	34349.575
886.03573	34431.675
889.84136	34429.775
893.64433	34179.975
897.44466	34064.375
901.24235	34077.575
905.0374	34013.975
908.8298	33977.875
912.61957	34080.775
916.40671	34447.575
920.19121	34986.875
923.97308	35502.375
927.75233	35740.675
931.52895	35637.275
935.30295	35211.075
939.07433	34514.975
942.84309	34033.375
946.60924	33924.675
950.37278	33780.275
954.13371	33510.475
957.89203	33258.975
961.64774	33152.075
965.40086	33067.475
969.15137	32919.275
972.89929	32844.175
976.64461	32766.475
980.38733	32865.475
984.12747	33107.175
987.86502	33415.875
991.59999	33968.275
995.33237	34807.575
999.06217	36171.375
1002.78939	37724.075
1006.51404	38563.775
1010.23611	39030.675
1013.95561	39377.275
1017.67255	39291.975
1021.38692	38731.975
1025.09872	38540.075
1028.80796	39306.775
1032.51465	40975.375
1036.21877	42480.375
1039.92035	42635.175
1043.61937	41751.075
1047.31584	40326.275
1051.00976	38787.275
1054.70114	37971.175
1058.38998	37733.975
1062.07627	37959.675
1065.76003	38342.975
1069.44126	39043.875
1073.11995	39878.575
1076.79611	40723.875
1080.46974	41160.175
1084.14085	41141.975
1087.80943	40994.175
1091.47549	40595.875
1095.13903	39955.975
1098.80005	39022.175
1102.45857	38186.175
1106.11456	37714.375
1109.76805	37719.275
1113.41903	38016.575
1117.06751	38400.475
1120.71348	38826.075
1124.35696	39203.375
1127.99793	39638.675
1131.63641	39828.775
1135.2724	39562.175
1138.90589	39214.775
1142.5369	38913.075
1146.16542	38650.075
1149.79145	38582.475
1153.415	38867.275
1157.03607	39354.075
1160.65467	40207.775
1164.27079	41721.875
1167.88443	43727.275
1171.49561	46634.575
1175.10432	50570.475
1178.71056	55530.175
1182.31434	60064.975
1185.91565	62393.775
1189.51451	62050.475
1193.11091	59538.875
1196.70485	56230.975
1200.29634	53283.075
1203.88538	51118.275
1207.47197	49448.675
1211.05612	48177.875
1214.63782	47393.575
1218.21708	47182.375
1221.79391	47354.975
1225.36829	47474.275
1228.94024	47155.875
1232.50976	46462.875
1236.07685	45862.075
1239.6415	45624.575
1243.20374	45572.075
1246.76355	45868.975
1250.32093	46551.075
1253.8759	47655.075
1257.42845	49159.975
1260.97859	50509.175
1264.52631	51703.175
1268.07163	52937.375
1271.61453	54554.575
1275.15503	56335.075
1278.69312	58166.775
1282.22882	59561.075
1285.76211	60646.375
1289.29301	61729.875
1292.82151	63114.575
1296.34761	65178.075
1299.87133	68328.775
1303.39266	72515.075
1306.9116	77699.075
1310.42815	83087.175
1313.94233	86404.575
1317.45412	86446.275
1320.96354	84337.975
1324.47058	81511.575
1327.97525	78990.075
1331.47754	77365.075
1334.97747	76760.175
1338.47502	77071.975
1341.97022	77441.475
1345.46305	77343.475
1348.95352	76574.075
1352.44163	76404.375
1355.92738	78077.375
1359.41078	82438.075
1362.89183	86603.975
1366.37053	85146.775
1369.84688	77600.075
1373.32088	69082.875
1376.79254	63248.075
1380.26186	60481.875
1383.72883	59552.575
1387.19347	58834.175
1390.65578	57977.575
1394.11575	57449.075
1397.57339	57746.075
1401.0287	58817.375
1404.48168	60019.775
1407.93234	60992.475
1411.38068	61314.075
1414.82669	60563.575
1418.27039	58722.175
1421.71177	56514.475
1425.15083	54471.175
1428.58758	53274.275
1432.02203	53249.775
1435.45416	53886.475
1438.88399	54852.575
1442.31151	55851.575
1445.73673	56576.975
1449.15965	57324.375
1452.58027	57665.675
1455.9986	57662.475
1459.41463	57932.375
1462.82837	58718.675
1466.23982	59969.275
1469.64898	61246.375
1473.05586	62106.275
1476.46045	62475.275
1479.86276	62606.575
1483.26279	62484.275
1486.66054	62390.375
1490.05602	62796.175
1493.44922	63299.675
1496.84016	63793.075
1500.22882	64736.175
1503.61521	66463.775
1506.99934	68996.775
1510.38121	71558.475
1513.76081	72689.775
1517.13816	71368.975
1520.51324	68189.075
1523.88607	64922.075
1527.25665	62617.675
1530.62498	61389.375
1533.99105	60690.975
1537.35488	60122.375
1540.71647	59658.075
1544.07581	59163.475
1547.4329	58444.175
1550.78776	57625.775
1554.14038	57023.875
1557.49077	56793.975
1560.83892	56748.875
1564.18484	56781.775
1567.52853	56886.675
1570.86999	57345.275
1574.20922	58409.175
1577.54624	59693.875
1580.88103	60315.275
1584.2136	60627.375
1587.54395	61445.775
1590.87208	63150.675
1594.19801	66293.475
1597.52172	70013.775
1600.84321	71403.075
1604.16251	68674.675
1607.47959	63608.575
1610.79447	58308.675
1614.10715	53398.575
1617.41763	49541.575
1620.7259	46820.275
1624.03199	45445.975
1627.33587	45575.175
1630.63757	46870.375
1633.93707	49478.375
1637.23439	53444.275
1640.52951	58401.575
1643.82246	63637.675
1647.11321	67571.275
1650.40179	68243.075
1653.68819	64201.375
1656.97241	56899.675
1660.25446	49554.175
1663.53433	44004.075
1666.81203	40385.375
1670.08756	38170.575
1673.36092	36790.375
1676.63211	35826.275
1679.90115	35118.175
1683.16801	34569.775
1686.43272	34245.675
1689.69527	33971.675
1692.95567	33755.575
1696.2139	33632.175
1699.46999	33598.475
1702.72392	33490.475
1705.97571	33420.675
1709.22535	33318.675
1712.47284	33232.375
1715.71819	33280.975
1718.96139	33201.175
1722.20246	33085.375
1725.44139	32943.675
1728.67818	32786.775
1731.91284	32634.675
1735.14537	32428.475
1738.37576	32325.975
1741.60403	32221.875
1744.83017	32146.975
1748.05418	32057.675
1751.27607	31990.975
1754.49584	31897.275
1757.71349	31957.875
1760.92903	31911.075
1764.14244	31868.275
1767.35375	31858.275
1770.56294	31899.775
1773.77002	31821.675
1776.97499	31789.475
1780.17785	31796.475
1783.37861	31743.275
1786.57727	31656.775
1789.77382	31576.675
1792.96828	31576.475
1796.16064	31542.775
1799.3509	31536.175
1802.53907	31453.475
1805.72514	31384.375
1808.90913	31326.875
1812.09102	31267.575
1815.27083	31217.375
1818.44856	31186.575
1821.6242	31172.975
1824.79776	31117.675
1827.96924	31070.375
1831.13864	31094.075
1834.30597	31115.275
1837.47122	31141.275
1840.6344	31128.175
1843.7955	31131.875
1846.95454	31088.075
1850.11151	31112.275
1853.26642	31142.975
1856.41926	31192.575
1859.57004	31166.175
1862.71876	31138.575
1865.86542	31135.175
1869.01003	31174.475
1872.15258	31167.675
1875.29308	31173.375
1878.43152	31166.575
1881.56792	31176.175
1884.70227	31176.775
1887.83457	31199.275
1890.96482	31179.375
1894.09304	31186.175
1897.21921	31195.875
1900.34335	31157.575
1903.46544	31129.475
1906.58551	31112.475
1909.70353	31099.375
1912.81953	31100.575
1915.93349	31084.775
1919.04543	31000.075
1922.15534	30985.075
1925.26322	30915.075
1928.36908	30858.775
1931.47292	30770.075
1934.57473	30669.475
1937.67453	30558.575
1940.77232	30488.875
1943.86808	30357.675
1946.96184	30284.575
1950.05358	30195.675
1953.14331	30058.875
1956.23103	29999.175
1959.31675	29928.075
1962.40046	29859.875
1965.48217	29754.875
1968.56188	29687.275
1971.63959	29611.975
1974.7153	29502.075
1977.78901	29431.375
1980.86073	29367.475
1983.93046	29307.475
1986.99819	29171.475
1990.06394	29120.475
1993.1277	29048.575
1996.18947	28933.875
1999.24925	28823.675
2002.30706	28749.175
2005.36288	28690.075
2008.41672	28641.875
2011.46859	28590.275
2014.51848	28485.775
2017.56639	28458.175
2020.61233	28412.575
2023.6563	28346.175
2026.6983	28290.675
2029.73833	28266.175
2032.7764	28256.375
2035.8125	28181.275
2038.84664	28104.075
2041.87881	28154.975
2044.90903	28094.275
2047.93729	28040.175
2050.96359	28020.875
2053.98794	27993.975
2057.01034	27986.975
2060.03078	27927.075
2063.04927	27943.075
2066.06582	27940.775
2069.08042	27869.575
2072.09307	27866.475
2075.10378	27830.075
2078.11255	27785.175
2081.11938	27789.275
2084.12426	27767.675
2087.12722	27724.975
2090.12824	27732.175
2093.12732	27768.575
2096.12447	27739.875
2099.11969	27698.875
2102.11299	27717.575
2105.10435	27755.075
2108.09379	27775.275
2111.08131	27803.675
2114.0669	27845.775
2117.05057	27819.175
2120.03233	27854.475
2123.01216	27867.675
2125.99008	27886.175
2128.96609	27872.875
2131.94018	27898.575
2134.91236	27921.775
2137.88263	27977.775
2140.851	27982.975
2143.81746	28008.675
2146.78201	28035.275
2149.74466	28040.875
2152.7054	28083.275
2155.66425	28051.175
2158.6212	28058.475
2161.57625	28020.475
2164.52941	28039.575
2167.48067	28059.775
2170.43004	28039.675
2173.37752	28067.075
2176.32311	28021.875
2179.26681	27987.775
2182.20863	28062.975
2185.14856	28072.475
2188.08661	28047.775
2191.02278	28053.175
2193.95707	28080.775
2196.88948	28069.875
2199.82001	28119.775
2202.74867	28096.275
2205.67545	28083.775
2208.60037	28051.875
2211.52341	28077.875
2214.44458	28045.875
2217.36388	28033.775
2220.28132	28025.775
2223.1969	27979.175
2226.11061	27910.775
2229.02246	27915.275
2231.93245	27779.675
2234.84058	27713.575
2237.74686	27701.275
2240.65128	27702.075
2243.55385	27606.675
2246.45456	27556.375
2249.35343	27548.675
2252.25044	27517.975
2255.14561	27476.675
2258.03893	27457.775
2260.93041	27491.575
2263.82004	27370.475
2266.70783	27346.075
2269.59378	27220.675
2272.4779	27185.475
2275.36017	27103.975
2278.24061	27041.775
2281.11922	26984.075
2283.996	27005.275
2286.87094	27003.575
2289.74405	26947.875
2292.61534	26951.875
2295.4848	26916.375
2298.35243	26926.475
2301.21824	26914.075
2304.08223	26958.675
2306.94439	26974.575
2309.80474	27006.375
2312.66327	27058.675
2315.51999	27052.175
2318.37489	27052.075
2321.22797	27051.275
2324.07925	27051.975
2326.92871	27031.475
2329.77637	27001.975
2332.62222	27060.175
2335.46626	27058.375
2338.3085	27029.575
2341.14893	27060.575
2343.98756	27141.375
2346.8244	27101.575
2349.65943	27092.175
2352.49267	27110.675
2355.32411	27069.975
2358.15376	27032.275
2360.98161	27010.375
2363.80768	27019.975
2366.63195	26979.175
2369.45444	26928.175
2372.27514	26837.275
2375.09405	26783.875
2377.91118	26729.175
2380.72652	26695.375
2383.54009	26653.575
2386.35187	26598.375
2389.16188	26570.775
2391.97011	26544.975
2394.77657	26507.275
2397.58125	26497.375
2400.38416	26415.775
2403.18529	26392.875
2405.98466	26353.875
2408.78226	26276.275
2411.57809	26198.775
2414.37216	26140.275
2417.16446	26158.975
2419.955	26052.375
2422.74378	26120.075
2425.5308	26003.975
2428.31606	26013.175
2431.09956	25993.075
2433.88131	25955.575
2436.6613	25998.675
2439.43954	25941.975
2442.21603	25932.075
2444.99077	25891.575
2447.76377	25999.175
2450.53501	25927.875
2453.30451	25966.975
2456.07226	25941.775
2458.83827	25910.275
2461.60254	25906.875
2464.36507	25883.875
2467.12586	25911.275
2469.88492	25903.575
2472.64224	25902.075
2475.39782	25969.075
2478.15167	25980.775
2480.90379	26021.475
2483.65417	26011.475
2486.40283	26017.175
2489.14976	26069.075
2491.89497	26077.675
2494.63845	26106.475
2497.3802	26110.475
2500.12024	26105.175
2502.85855	26151.875
2505.59514	26135.875
2508.33002	26122.175
2511.06318	26073.875
2513.79462	26018.875
2516.52435	25991.475
2519.25237	26016.975
2521.97867	25923.575
2524.70327	25945.275
2527.42616	25916.675
2530.14734	25949.175
2532.86681	25836.675
2535.58458	25898.975
2538.30065	25867.675
2541.01501	25853.775
2543.72768	25875.575
2546.43864	25845.475
2549.14791	25824.475
2551.85548	25803.975
2554.56136	25763.275
2557.26554	25759.275
2559.96803	25742.675
2562.66883	25738.375
2565.36794	25752.575
2568.06536	25762.975
2570.7611	25681.675
2573.45514	25679.675
2576.14751	25730.475
2578.83819	25666.275
2581.52719	25754.975
2584.21451	25655.775
2586.90015	25704.675
2589.58411	25664.875
2592.2664	25673.175
2594.94701	25685.475
2597.62594	25686.675
2600.30321	25635.275
2602.9788	25620.075
2605.65273	25627.375
2608.32498	25617.675
2610.99557	25603.475
2613.66449	25640.175
2616.33175	25632.075
2618.99734	25665.775
2621.66128	25642.275
2624.32355	25688.975
2626.98416	25683.775
2629.64311	25647.375
2632.30041	25678.175
2634.95605	25683.075
2637.61004	25677.175
2640.26238	25625.975
2642.91306	25632.375
2645.56209	25583.475
2648.20948	25572.175
2650.85521	25473.075
2653.4993	25467.075
2656.14175	25485.075
2658.78255	25495.275
2661.42171	25477.275
2664.05923	25500.875
2666.6951	25557.675
2669.32934	25528.975
2671.96194	25567.375
2674.59291	25579.575
2677.22224	25602.675
2679.84993	25575.075
2682.476	25540.475
2685.10043	25529.275
2687.72324	25486.575
2690.34441	25526.375
2692.96396	25497.575
2695.58188	25508.475
2698.19818	25448.175
2700.81285	25402.675
2703.4259	25432.175
2706.03733	25518.175
2708.64714	25464.875
2711.25533	25524.575
2713.86191	25492.075
2716.46687	25537.775
2719.07021	25492.775
2721.67194	25520.875
2724.27206	25519.275
2726.87057	25535.375
2729.46747	25569.275
2732.06276	25564.975
2734.65644	25541.675
2737.24852	25584.375
2739.83899	25530.375
2742.42786	25602.375
2745.01513	25515.775
2747.60079	25530.375
2750.18486	25480.475
2752.76733	25546.675
2755.3482	25543.975
2757.92747	25568.875
2760.50515	25509.975
2763.08123	25474.575
2765.65573	25465.375
2768.22863	25478.875
2770.79994	25420.275
2773.36967	25432.375
2775.9378	25424.675
2778.50435	25378.975
2781.06932	25401.675
2783.6327	25420.075
2786.1945	25392.475
2788.75471	25359.875
2791.31335	25323.475
2793.87041	25266.975
2796.42589	25243.775
2798.97979	25191.375
2801.53212	25181.175
2804.08288	25165.575
2806.63206	25117.075
2809.17967	25055.775
2811.72571	25031.575
2814.27018	25000.375
2816.81308	24989.775
2819.35442	24959.075
2821.89419	24954.175
2824.43239	24962.275
2826.96904	24921.275
2829.50412	24898.875
2832.03763	24880.275
2834.56959	24910.375
2837.1	24814.475
2839.62884	24819.775
2842.15613	24743.075
2844.68186	24802.775
2847.20604	24733.975
2849.72867	24749.875
2852.24974	24715.875
2854.76927	24726.575
2857.28724	24692.975
2859.80367	24655.775
2862.31855	24637.975
2864.83189	24602.675
2867.34368	24555.175
2869.85393	24631.675
2872.36264	24574.675
2874.8698	24582.675
2877.37543	24637.875
2879.87952	24628.475
2882.38207	24610.875
2884.88308	24628.075
2887.38256	24659.775
2889.88051	24614.375
2892.37692	24620.875
2894.8718	24642.175
2897.36515	24644.775
2899.85698	24650.475
2902.34727	24718.475
2904.83604	24725.575
2907.32328	24758.975
2909.809	24839.375
2912.29319	24894.275
2914.77587	24831.075
2917.25702	24849.975
2919.73665	24812.175
2922.21476	24827.575
2924.69136	24766.975
2927.16644	24782.275
2929.64	24687.775
2932.11205	24662.675
2934.58258	24569.275
2937.05161	24642.375
2939.51912	24666.275
2941.98513	24652.775
2944.44962	24565.375
2946.91261	24521.275
2949.37409	24545.075
2951.83407	24564.375
2954.29254	24534.575
2956.74951	24483.875
2959.20498	24485.875
2961.65895	24438.875
2964.11142	24461.675
2966.56239	24387.275
2969.01186	24329.075
2971.45984	24285.275
2973.90632	24266.575
2976.35131	24176.875
2978.7948	24160.775
2981.23681	24080.175
2983.67732	24082.875
2986.11635	24033.375
2988.55388	23966.675
2990.98993	23941.475
2993.4245	23839.475
2995.85758	23832.775
2998.28917	23739.975
3000.71928	23759.175
3003.14791	23679.675
3005.57506	23706.375
3008.00073	23616.575
3010.42493	23626.375
3012.84764	23564.375
3015.26888	23566.375
3017.68865	23505.975
3020.10694	23493.175
3022.52376	23429.775
3024.9391	23409.275
3027.35298	23431.075
3029.76539	23363.875
3032.17632	23335.075
3034.5858	23300.975
3036.9938	23293.975
3039.40034	23278.475
3041.80542	23233.875
3044.20903	23190.475
3046.61118	23162.475
3049.01187	23113.775
3051.4111	23105.575
3053.80888	23031.075
3056.20519	23031.675
3058.60005	22925.675
3060.99345	22906.275
3063.3854	22825.075
3065.7759	22791.875
3068.16494	22717.875
3070.55254	22681.375
3072.93868	22655.775
3075.32338	22560.375
3077.70662	22546.375
3080.08842	22475.475
3082.46878	22473.375
3084.84769	22419.475
3087.22515	22408.075
3089.60118	22432.275
3091.97576	22414.175
3094.3489	22394.775
3096.72061	22372.075
3099.09087	22351.475
3101.4597	22325.675
3103.82709	22335.675
3106.19305	22253.075
3108.55757	22275.175
3110.92066	22217.075
3113.28232	22164.275
3115.64255	22089.275
3118.00134	22073.075
3120.35871	22033.075
3122.71466	22059.475
3125.06917	22029.675
3127.42226	21938.575
