Data from AgNP_FTO_APTES_CRN_2uM_R6G_10uM_NaF_0.1M_Addition_RamanShift__24__15-02-59-355.txt Node

Date: Wed Dec 15 15:02:59 GMT 2021
User: TCL
Spectrometer: QEP01345
Trigger mode: 4
Integration Time (sec): 7.000000E0
Scans to average: 10
Electric dark correction enabled: true
Nonlinearity correction enabled: false
Boxcar width: 0
XAxis mode: Raman Shifts
Number of Pixels in Spectrum: 1044
>>>>>Begin Spectral Data<<<<<
46.04893	0.75
50.45542	-1.85
54.85868	-0.85
59.25871	-1.45
63.6555	127.55
68.04907	137.85
72.43941	145.85
76.82654	150.05
81.21044	153.25
85.59113	159.15
89.96862	166.35
94.34289	168.35
98.71396	175.95
103.08183	181.95
107.4465	187.55
111.80798	191.45
116.16626	196.65
120.52136	203.95
124.87327	209.85
129.222	219.95
133.56755	229.75
137.90993	253.05
142.24913	281.45
146.58517	306.45
150.91804	363.45
155.24774	423.45
159.57429	530.05
163.89768	671.85
168.21792	885.95
172.53501	1217.15
176.84895	1686.45
181.15975	2365.85
185.46741	3301.55
189.77193	4539.25
194.07331	6073.85
198.37157	7822.45
202.6667	9653.05
206.9587	11469.75
211.24758	13222.85
215.53334	15036.35
219.81599	16960.65
224.09553	19072.65
228.37195	21435.65
232.64527	24111.35
236.91549	26837.25
241.18261	29513.35
245.44663	32071.85
249.70755	34201.15
253.96539	36109.05
258.22014	37747.95
262.4718	39195.35
266.72039	40218.35
270.96589	40789.55
275.20832	40951.35
279.44768	40818.85
283.68397	40482.45
287.91719	40120.15
292.14735	40006.15
296.37445	40008.95
300.59849	40295.75
304.81948	40614.65
309.03742	40797.15
313.25231	40447.85
317.46415	39479.95
321.67296	38217.55
325.87872	37131.55
330.08145	36628.55
334.28114	36721.85
338.47781	37026.25
342.67145	37588.15
346.86207	38365.75
351.04966	39398.85
355.23424	40502.75
359.4158	41516.85
363.59435	42103.05
367.76989	42448.85
371.94243	42600.05
376.11196	42677.15
380.27849	42718.65
384.44203	42819.05
388.60257	42963.25
392.76012	43276.85
396.91468	43822.15
401.06626	44692.55
405.21485	45244.85
409.36047	45071.75
413.50311	44374.15
417.64277	43628.15
421.77947	43392.45
425.9132	43500.45
430.04396	43713.65
434.17176	44033.85
438.2966	44469.35
442.41849	45177.35
446.53742	46270.35
450.6534	47600.35
454.76644	48719.45
458.87653	49157.45
462.98368	48970.25
467.08789	48361.75
471.18916	47512.45
475.2875	46540.15
479.38291	45929.35
483.4754	45352.75
487.56496	44857.65
491.6516	44367.45
495.73531	43967.95
499.81612	43890.05
503.89401	44180.95
507.96899	44414.05
512.04106	44487.85
516.11023	44481.95
520.1765	44422.65
524.23987	44282.95
528.30034	43970.35
532.35792	43480.55
536.41261	42764.85
540.46441	42186.25
544.51333	42058.15
548.55936	42418.35
552.60252	43264.55
556.64279	44109.85
560.6802	44532.45
564.71473	44760.35
568.7464	45466.65
572.7752	46326.95
576.80114	46937.65
580.82422	47386.35
584.84444	47943.25
588.86181	48484.95
592.87633	49183.55
596.888	50017.15
600.89682	50902.85
604.9028	53459.35
608.90594	59281.65
612.90624	64977.75
616.90371	60941.15
620.89834	50401.15
624.89015	45920.75
628.87913	45390.15
632.86528	45247.15
636.84862	44813.35
640.82913	44018.65
644.80683	42666.15
648.78172	41733.15
652.75379	41627.95
656.72306	42409.45
660.68952	43213.05
664.65319	43130.85
668.61405	42275.25
672.57211	41928.85
676.52738	41869.25
680.47986	41816.55
684.42955	41633.85
688.37646	41603.95
692.32058	41850.65
696.26192	42274.55
700.20048	42782.15
704.13626	43063.15
708.06928	42952.95
711.99952	42582.65
715.927	42511.05
719.85171	42550.65
723.77365	42397.15
727.69284	41935.25
731.60928	41471.15
735.52295	41377.85
739.43388	41393.55
743.34206	41627.05
747.24749	41925.45
751.15017	42380.45
755.05012	43149.95
758.94733	44547.75
762.8418	47061.65
766.73354	51091.95
770.62254	54955.55
774.50882	55877.65
778.39237	53082.25
782.27321	48626.75
786.15132	45103.75
790.02671	43131.25
793.89938	42194.75
797.76935	41880.75
801.6366	41798.35
805.50115	41649.95
809.36299	41377.45
813.22213	41068.45
817.07857	41003.35
820.93231	40898.05
824.78336	40868.15
828.63172	40883.15
832.47738	41012.95
836.32036	41189.95
840.16066	41457.85
843.99827	41603.35
847.8332	41450.55
851.66546	41199.15
855.49504	41128.25
859.32195	40989.45
863.1462	40784.65
866.96777	40548.35
870.78668	40397.75
874.60293	40389.15
878.41652	40370.05
882.22745	40547.95
886.03573	40661.65
889.84136	40592.25
893.64433	40398.35
897.44466	40244.95
901.24235	40202.15
905.0374	40168.45
908.8298	40163.85
912.61957	40278.65
916.40671	40602.85
920.19121	41256.05
923.97308	41900.25
927.75233	42268.85
931.52895	42137.15
935.30295	41596.45
939.07433	40749.05
942.84309	40108.45
946.60924	39926.95
950.37278	39782.85
954.13371	39503.95
957.89203	39244.15
961.64774	39051.85
965.40086	38956.45
969.15137	38794.65
972.89929	38642.35
976.64461	38666.25
980.38733	38788.75
984.12747	39061.65
987.86502	39411.55
991.59999	40083.15
995.33237	41106.35
999.06217	42694.25
1002.78939	44574.15
1006.51404	45624.75
1010.23611	46214.65
1013.95561	46603.35
1017.67255	46393.75
1021.38692	45748.35
1025.09872	45519.95
1028.80796	46404.35
1032.51465	48470.95
1036.21877	50215.25
1039.92035	50499.25
1043.61937	49439.35
1047.31584	47587.45
1051.00976	45719.65
1054.70114	44652.25
1058.38998	44362.05
1062.07627	44624.85
1065.76003	45056.55
1069.44126	45746.65
1073.11995	46722.95
1076.79611	47639.45
1080.46974	48072.55
1084.14085	48166.35
1087.80943	48117.35
1091.47549	47811.05
1095.13903	47098.15
1098.80005	46083.15
1102.45857	45054.35
1106.11456	44505.75
1109.76805	44432.65
1113.41903	44800.65
1117.06751	45136.75
1120.71348	45697.55
1124.35696	46173.85
1127.99793	46760.85
1131.63641	46998.85
1135.2724	46568.15
1138.90589	46102.85
1142.5369	45781.65
1146.16542	45465.95
1149.79145	45407.05
1153.415	45710.75
1157.03607	46364.85
1160.65467	47370.15
1164.27079	49097.15
1167.88443	51643.45
1171.49561	54923.65
1175.10432	59732.85
1178.71056	65732.05
1182.31434	70962.95
1185.91565	73784.35
1189.51451	73363.35
1193.11091	70445.15
1196.70485	66468.65
1200.29634	62936.35
1203.88538	60335.65
1207.47197	58339.65
1211.05612	56868.95
1214.63782	55980.25
1218.21708	55712.15
1221.79391	55782.95
1225.36829	55998.05
1228.94024	55614.05
1232.50976	54810.25
1236.07685	54130.35
1239.6415	53798.55
1243.20374	53819.25
1246.76355	54071.25
1250.32093	54865.85
1253.8759	56326.25
1257.42845	58084.95
1260.97859	59691.95
1264.52631	61102.15
1268.07163	62624.65
1271.61453	64477.15
1275.15503	66694.65
1278.69312	68860.15
1282.22882	70554.15
1285.76211	71965.75
1289.29301	73288.05
1292.82151	74986.75
1296.34761	77377.95
1299.87133	81055.65
1303.39266	86043.95
1306.9116	92262.25
1310.42815	98521.95
1313.94233	102431.95
1317.45412	102601.65
1320.96354	100015.35
1324.47058	96823.85
1327.97525	93774.05
1331.47754	91760.15
1334.97747	91076.65
1338.47502	91373.85
1341.97022	91773.35
1345.46305	91442.35
1348.95352	90432.25
1352.44163	90032.85
1355.92738	92073.05
1359.41078	97240.65
1362.89183	102284.25
1366.37053	100672.55
1369.84688	91725.75
1373.32088	81712.35
1376.79254	74671.05
1380.26186	71313.55
1383.72883	70114.25
1387.19347	69328.85
1390.65578	68334.65
1394.11575	67609.15
1397.57339	68011.45
1401.0287	69261.15
1404.48168	70720.65
1407.93234	71890.25
1411.38068	72302.95
1414.82669	71487.95
1418.27039	69295.95
1421.71177	66614.75
1425.15083	64256.35
1428.58758	62805.55
1432.02203	62697.85
1435.45416	63455.85
1438.88399	64616.65
1442.31151	65736.95
1445.73673	66647.55
1449.15965	67476.25
1452.58027	67937.45
1455.9986	67788.45
1459.41463	68005.15
1462.82837	68850.35
1466.23982	70330.15
1469.64898	71816.25
1473.05586	72925.85
1476.46045	73380.45
1479.86276	73578.25
1483.26279	73506.15
1486.66054	73508.95
1490.05602	73983.05
1493.44922	74656.35
1496.84016	75331.35
1500.22882	76512.75
1503.61521	78622.45
1506.99934	81669.25
1510.38121	84734.05
1513.76081	86220.65
1517.13816	84652.45
1520.51324	80844.55
1523.88607	76867.65
1527.25665	74006.05
1530.62498	72437.15
1533.99105	71460.45
1537.35488	70892.25
1540.71647	70255.35
1544.07581	69550.15
1547.4329	68644.05
1550.78776	67636.45
1554.14038	66935.65
1557.49077	66638.45
1560.83892	66575.55
1564.18484	66629.05
1567.52853	66649.95
1570.86999	67151.55
1574.20922	68233.75
1577.54624	69549.45
1580.88103	70160.55
1584.2136	70431.75
1587.54395	71441.45
1590.87208	73897.45
1594.19801	77922.25
1597.52172	82416.05
1600.84321	84124.85
1604.16251	80832.25
1607.47959	74734.85
1610.79447	68284.35
1614.10715	62409.15
1617.41763	57758.75
1620.7259	54660.15
1624.03199	53123.05
1627.33587	53186.35
1630.63757	54756.85
1633.93707	57914.75
1637.23439	62560.05
1640.52951	68508.05
1643.82246	74731.75
1647.11321	79539.35
1650.40179	80366.55
1653.68819	75593.85
1656.97241	66854.45
1660.25446	57975.05
1663.53433	51394.65
1666.81203	47106.25
1670.08756	44437.95
1673.36092	42750.25
1676.63211	41554.75
1679.90115	40763.75
1683.16801	40180.55
1686.43272	39745.35
1689.69527	39464.35
1692.95567	39193.45
1696.2139	39050.05
1699.46999	38958.65
1702.72392	38892.25
1705.97571	38775.25
1709.22535	38658.35
1712.47284	38643.05
1715.71819	38648.25
1718.96139	38524.65
1722.20246	38432.55
1725.44139	38249.45
1728.67818	38059.15
1731.91284	37827.95
1735.14537	37663.15
1738.37576	37494.95
1741.60403	37380.25
1744.83017	37289.05
1748.05418	37196.05
1751.27607	37083.05
1754.49584	37005.65
1757.71349	36956.25
1760.92903	36959.75
1764.14244	36946.25
1767.35375	36997.65
1770.56294	36972.65
1773.77002	36906.55
1776.97499	36881.55
1780.17785	36790.15
1783.37861	36764.45
1786.57727	36685.45
1789.77382	36594.55
1792.96828	36565.45
1796.16064	36542.85
1799.3509	36488.15
1802.53907	36460.05
1805.72514	36367.05
1808.90913	36287.45
1812.09102	36219.35
1815.27083	36171.65
1818.44856	36166.45
1821.6242	36089.15
1824.79776	36005.15
1827.96924	35998.05
1831.13864	35999.05
1834.30597	36016.75
1837.47122	36037.25
1840.6344	36028.35
1843.7955	36037.15
1846.95454	36009.95
1850.11151	36052.05
1853.26642	36019.55
1856.41926	36082.85
1859.57004	36075.25
1862.71876	36045.75
1865.86542	36048.75
1869.01003	36045.65
1872.15258	36036.85
1875.29308	36080.95
1878.43152	36061.15
1881.56792	36087.15
1884.70227	36060.25
1887.83457	36089.75
1890.96482	36075.25
1894.09304	36064.45
1897.21921	36066.75
1900.34335	36021.95
1903.46544	36022.45
1906.58551	36032.65
1909.70353	36038.35
1912.81953	35984.15
1915.93349	35965.05
1919.04543	35887.15
1922.15534	35828.95
1925.26322	35781.85
1928.36908	35677.65
1931.47292	35557.15
1934.57473	35480.75
1937.67453	35360.45
1940.77232	35259.35
1943.86808	35131.65
1946.96184	34989.45
1950.05358	34868.35
1953.14331	34701.45
1956.23103	34657.85
1959.31675	34562.25
1962.40046	34457.65
1965.48217	34353.55
1968.56188	34296.55
1971.63959	34136.35
1974.7153	34064.85
1977.78901	33975.35
1980.86073	33868.15
1983.93046	33799.05
1986.99819	33671.15
1990.06394	33600.05
1993.1277	33519.75
1996.18947	33375.55
1999.24925	33275.75
2002.30706	33122.25
2005.36288	33066.05
2008.41672	33057.35
2011.46859	32931.25
2014.51848	32874.05
2017.56639	32805.55
2020.61233	32751.35
2023.6563	32685.35
2026.6983	32647.35
2029.73833	32583.35
2032.7764	32520.25
2035.8125	32479.05
2038.84664	32418.45
2041.87881	32426.15
2044.90903	32385.45
2047.93729	32315.75
2050.96359	32282.25
2053.98794	32264.55
2057.01034	32258.25
2060.03078	32169.75
2063.04927	32177.95
2066.06582	32176.85
2069.08042	32106.65
2072.09307	32093.95
2075.10378	32040.95
2078.11255	32043.35
2081.11938	32024.65
2084.12426	31990.35
2087.12722	31961.55
2090.12824	31985.75
2093.12732	31962.85
2096.12447	31968.25
2099.11969	31876.65
2102.11299	31895.85
2105.10435	31920.35
2108.09379	31948.65
2111.08131	32035.85
2114.0669	31987.25
2117.05057	32028.15
2120.03233	32052.25
2123.01216	32061.85
2125.99008	32059.35
2128.96609	32066.05
2131.94018	32071.15
2134.91236	32112.85
2137.88263	32173.45
2140.851	32194.35
2143.81746	32202.65
2146.78201	32242.65
2149.74466	32218.85
2152.7054	32233.25
2155.66425	32252.05
2158.6212	32227.05
2161.57625	32233.85
2164.52941	32245.95
2167.48067	32254.35
2170.43004	32229.15
2173.37752	32235.25
2176.32311	32229.25
2179.26681	32167.05
2182.20863	32217.85
2185.14856	32216.15
2188.08661	32224.65
2191.02278	32275.15
2193.95707	32225.55
2196.88948	32257.15
2199.82001	32235.75
2202.74867	32267.05
2205.67545	32276.65
2208.60037	32235.15
2211.52341	32227.75
2214.44458	32249.75
2217.36388	32180.85
2220.28132	32186.35
2223.1969	32148.75
2226.11061	32111.75
2229.02246	32055.85
2231.93245	31931.95
2234.84058	31869.85
2237.74686	31842.75
2240.65128	31802.65
2243.55385	31696.15
2246.45456	31683.55
2249.35343	31633.65
2252.25044	31578.85
2255.14561	31505.35
2258.03893	31490.55
2260.93041	31500.65
2263.82004	31422.95
2266.70783	31332.35
2269.59378	31282.65
2272.4779	31209.75
2275.36017	31087.25
2278.24061	31041.95
2281.11922	30960.75
2283.996	30968.55
2286.87094	30936.65
2289.74405	30923.35
2292.61534	30918.25
2295.4848	30896.75
2298.35243	30883.65
2301.21824	30902.55
2304.08223	30947.25
2306.94439	31004.35
2309.80474	30970.55
2312.66327	31074.25
2315.51999	31069.15
2318.37489	31061.35
2321.22797	31044.55
2324.07925	31012.85
2326.92871	30999.45
2329.77637	30977.95
2332.62222	30982.05
2335.46626	31018.95
2338.3085	30989.75
2341.14893	31067.35
2343.98756	31119.35
2346.8244	31113.25
2349.65943	31115.25
2352.49267	31098.15
2355.32411	31027.45
2358.15376	30983.65
2360.98161	30990.55
2363.80768	30941.75
2366.63195	30892.15
2369.45444	30830.55
2372.27514	30755.75
2375.09405	30720.15
2377.91118	30655.15
2380.72652	30610.75
2383.54009	30495.45
2386.35187	30484.15
2389.16188	30383.75
2391.97011	30426.35
2394.77657	30356.25
2397.58125	30326.05
2400.38416	30268.55
2403.18529	30219.65
2405.98466	30193.45
2408.78226	30079.15
2411.57809	29976.95
2414.37216	29968.25
2417.16446	29928.25
2419.955	29892.85
2422.74378	29843.95
2425.5308	29791.05
2428.31606	29757.95
2431.09956	29759.85
2433.88131	29750.35
2436.6613	29748.35
2439.43954	29735.75
2442.21603	29670.65
2444.99077	29666.05
2447.76377	29701.65
2450.53501	29707.95
2453.30451	29695.45
2456.07226	29662.05
2458.83827	29620.15
2461.60254	29641.25
2464.36507	29683.65
2467.12586	29618.05
2469.88492	29656.05
2472.64224	29644.85
2475.39782	29670.75
2478.15167	29727.25
2480.90379	29774.65
2483.65417	29773.65
2486.40283	29783.75
2489.14976	29825.45
2491.89497	29771.05
2494.63845	29884.95
2497.3802	29837.85
2500.12024	29921.75
2502.85855	29889.15
2505.59514	29897.35
2508.33002	29835.55
2511.06318	29754.85
2513.79462	29789.55
2516.52435	29773.75
2519.25237	29694.85
2521.97867	29666.05
2524.70327	29674.65
2527.42616	29622.65
2530.14734	29622.05
2532.86681	29578.45
2535.58458	29597.85
2538.30065	29576.25
2541.01501	29589.75
2543.72768	29550.65
2546.43864	29559.75
2549.14791	29487.85
2551.85548	29520.65
2554.56136	29484.95
2557.26554	29420.25
2559.96803	29458.25
2562.66883	29386.95
2565.36794	29403.25
2568.06536	29376.85
2570.7611	29366.45
2573.45514	29338.75
2576.14751	29337.25
2578.83819	29356.65
2581.52719	29394.95
2584.21451	29351.85
2586.90015	29342.15
2589.58411	29296.35
2592.2664	29318.85
2594.94701	29309.55
2597.62594	29326.95
2600.30321	29306.95
2602.9788	29290.05
2605.65273	29232.55
2608.32498	29241.15
2610.99557	29213.15
2613.66449	29209.75
2616.33175	29243.75
2618.99734	29282.45
2621.66128	29273.95
2624.32355	29337.05
2626.98416	29330.75
2629.64311	29346.45
2632.30041	29307.85
2634.95605	29279.25
2637.61004	29267.05
2640.26238	29215.05
2642.91306	29214.85
2645.56209	29168.45
2648.20948	29115.65
2650.85521	29073.45
2653.4993	29070.05
2656.14175	29071.35
2658.78255	29063.35
2661.42171	29095.45
2664.05923	29128.85
2666.6951	29142.25
2669.32934	29192.45
2671.96194	29189.25
2674.59291	29192.75
2677.22224	29181.25
2679.84993	29163.35
2682.476	29105.95
2685.10043	29110.25
2687.72324	29073.15
2690.34441	29043.55
2692.96396	29064.35
2695.58188	29081.95
2698.19818	28979.95
2700.81285	29011.95
2703.4259	28942.65
2706.03733	29057.85
2708.64714	29014.55
2711.25533	29081.15
2713.86191	29073.55
2716.46687	29122.15
2719.07021	29101.25
2721.67194	29133.25
2724.27206	29106.45
2726.87057	29134.75
2729.46747	29121.25
2732.06276	29199.65
2734.65644	29104.95
2737.24852	29137.55
2739.83899	29133.15
2742.42786	29135.05
2745.01513	29055.85
2747.60079	29071.65
2750.18486	29079.35
2752.76733	29088.95
2755.3482	29118.55
2757.92747	29099.05
2760.50515	29081.35
2763.08123	29015.65
2765.65573	28996.35
2768.22863	29024.05
2770.79994	28941.35
2773.36967	28923.95
2775.9378	28915.45
2778.50435	28883.25
2781.06932	28895.55
2783.6327	28967.55
2786.1945	28896.75
2788.75471	28827.05
2791.31335	28801.85
2793.87041	28780.65
2796.42589	28744.15
2798.97979	28709.45
2801.53212	28685.45
2804.08288	28685.05
2806.63206	28551.75
2809.17967	28525.55
2811.72571	28463.35
2814.27018	28462.35
2816.81308	28479.15
2819.35442	28430.45
2821.89419	28417.25
2824.43239	28444.25
2826.96904	28402.15
2829.50412	28381.35
2832.03763	28374.95
2834.56959	28329.45
2837.1	28253.05
2839.62884	28263.85
2842.15613	28205.15
2844.68186	28209.25
2847.20604	28165.05
2849.72867	28163.25
2852.24974	28131.65
2854.76927	28126.45
2857.28724	28054.05
2859.80367	28024.65
2862.31855	28026.95
2864.83189	27978.15
2867.34368	27939.75
2869.85393	27986.35
2872.36264	27984.45
2874.8698	27959.35
2877.37543	27995.35
2879.87952	28030.75
2882.38207	28020.25
2884.88308	28001.65
2887.38256	28027.95
2889.88051	28027.65
2892.37692	28026.65
2894.8718	28010.95
2897.36515	28078.35
2899.85698	28054.25
2902.34727	28139.85
2904.83604	28132.85
2907.32328	28179.55
2909.809	28195.25
2912.29319	28230.95
2914.77587	28239.25
2917.25702	28230.15
2919.73665	28202.55
2922.21476	28250.55
2924.69136	28192.95
2927.16644	28161.35
2929.64	28058.45
2932.11205	28008.05
2934.58258	27926.45
2937.05161	27973.15
2939.51912	28017.45
2941.98513	28015.35
2944.44962	27926.85
2946.91261	27829.85
2949.37409	27898.35
2951.83407	27901.75
2954.29254	27868.25
2956.74951	27772.35
2959.20498	27759.65
2961.65895	27783.85
2964.11142	27794.75
2966.56239	27631.15
2969.01186	27661.25
2971.45984	27553.25
2973.90632	27514.35
2976.35131	27429.75
2978.7948	27392.55
2981.23681	27354.15
2983.67732	27306.55
2986.11635	27264.55
2988.55388	27161.25
2990.98993	27138.35
2993.4245	27065.55
2995.85758	27037.15
2998.28917	26962.95
3000.71928	26931.55
3003.14791	26867.15
3005.57506	26905.25
3008.00073	26725.55
3010.42493	26782.25
3012.84764	26738.45
3015.26888	26727.15
3017.68865	26637.85
3020.10694	26605.65
3022.52376	26572.45
3024.9391	26551.05
3027.35298	26494.35
3029.76539	26488.95
3032.17632	26483.95
3034.5858	26428.85
3036.9938	26393.25
3039.40034	26354.15
3041.80542	26308.15
3044.20903	26277.45
3046.61118	26259.65
3049.01187	26183.05
3051.4111	26139.35
3053.80888	26061.15
3056.20519	26036.85
3058.60005	25976.05
3060.99345	25938.15
3063.3854	25878.75
3065.7759	25765.35
3068.16494	25728.15
3070.55254	25645.95
3072.93868	25588.85
3075.32338	25525.35
3077.70662	25513.05
3080.08842	25428.75
3082.46878	25412.55
3084.84769	25397.65
3087.22515	25318.55
3089.60118	25356.25
3091.97576	25324.65
3094.3489	25301.35
3096.72061	25279.35
3099.09087	25305.05
3101.4597	25248.85
3103.82709	25218.55
3106.19305	25140.55
3108.55757	25112.05
3110.92066	25011.85
3113.28232	25000.95
3115.64255	24930.45
3118.00134	24919.35
3120.35871	24929.35
3122.71466	24861.95
3125.06917	24822.65
3127.42226	24784.05
3129.77393	24814.05
3132.12417	24732.45
3134.47299	24746.05
3136.82039	24706.65
3139.16636	24727.75
3141.51092	24669.35
3143.85406	24694.75
3146.19579	24719.95
3148.53609	24675.95
3150.87499	24664.05
3153.21246	24683.45
3155.54853	24685.65
3157.88318	24641.35
3160.21642	24648.65
3162.54826	24633.75
3164.87868	24582.45
3167.2077	24572.75
3169.5353	24530.85
3171.86151	24537.65
3174.18631	24486.95
3176.5097	24460.15
3178.83169	24416.45
3181.15228	24404.95
3183.47147	24423.35
3185.78926	24415.95
3188.10565	24390.85
3190.42065	24339.45
3192.73424	24349.25
3195.04645	24366.85
3197.35725	24350.75
3199.66667	24322.25
3201.97469	24394.65
3204.28132	24332.15
3206.58656	24354.95
3208.8904	24363.45
3211.19287	24346.45
3213.49394	24331.15
3215.79363	24348.65
3218.09193	24337.85
3220.38884	24338.65
3222.68438	24416.15
3224.97853	24369.75
3227.2713	24359.75
3229.56269	24271.75
3231.8527	24262.95
3234.14133	24215.25
3236.42858	24167.05
3238.71446	24182.75
