Data from AgNP_FTO_APTES_CRN_500uM_R6G_10uM_NaF_0.1M_Addition_RamanShift__7__20-11-48-219.txt Node

Date: Wed Dec 15 20:11:48 GMT 2021
User: TCL
Spectrometer: QEP01345
Trigger mode: 4
Integration Time (sec): 7.000000E0
Scans to average: 10
Electric dark correction enabled: true
Nonlinearity correction enabled: false
Boxcar width: 0
XAxis mode: Raman Shifts
Number of Pixels in Spectrum: 1044
>>>>>Begin Spectral Data<<<<<
46.04893	-0.075
50.45542	-0.575
54.85868	-1.875
59.25871	-1.475
63.6555	62.725
68.04907	67.625
72.43941	70.325
76.82654	78.325
81.21044	77.725
85.59113	82.025
89.96862	84.525
94.34289	84.225
98.71396	92.225
103.08183	98.125
107.4465	99.825
111.80798	101.425
116.16626	99.925
120.52136	106.625
124.87327	108.525
129.222	112.025
133.56755	114.325
137.90993	126.325
142.24913	138.425
146.58517	154.725
150.91804	177.725
155.24774	209.125
159.57429	255.325
163.89768	324.625
168.21792	421.925
172.53501	575.225
176.84895	801.025
181.15975	1117.025
185.46741	1576.725
189.77193	2171.325
194.07331	2907.125
198.37157	3750.925
202.6667	4642.025
206.9587	5512.125
211.24758	6367.725
215.53334	7219.925
219.81599	8075.125
224.09553	9045.725
228.37195	10115.525
232.64527	11297.925
236.91549	12524.225
241.18261	13838.125
245.44663	15069.125
249.70755	16211.125
253.96539	17207.825
258.22014	18075.625
262.4718	18750.225
266.72039	19252.425
270.96589	19477.325
275.20832	19548.925
279.44768	19426.125
283.68397	19294.025
287.91719	19130.525
292.14735	18965.525
296.37445	18921.825
300.59849	18892.825
304.81948	18865.825
309.03742	18771.925
313.25231	18634.025
317.46415	18373.925
321.67296	18117.725
325.87872	17884.825
330.08145	17811.825
334.28114	17817.225
338.47781	17944.525
342.67145	18125.825
346.86207	18383.825
351.04966	18641.425
355.23424	18895.825
359.4158	19073.225
363.59435	19298.925
367.76989	19457.925
371.94243	19539.625
376.11196	19601.125
380.27849	19694.325
384.44203	19828.725
388.60257	19987.825
392.76012	20188.225
396.91468	20405.025
401.06626	20615.225
405.21485	20762.725
409.36047	20814.725
413.50311	20729.125
417.64277	20668.225
421.77947	20771.125
425.9132	20850.625
430.04396	21012.025
434.17176	21162.125
438.2966	21317.425
442.41849	21537.525
446.53742	21946.525
450.6534	22325.025
454.76644	22623.325
458.87653	22791.625
462.98368	22726.125
467.08789	22638.525
471.18916	22482.925
475.2875	22457.325
479.38291	22364.925
483.4754	22311.325
487.56496	22059.325
491.6516	21758.225
495.73531	21513.225
499.81612	21416.725
503.89401	21508.225
507.96899	21623.925
512.04106	21658.125
516.11023	21593.725
520.1765	21464.125
524.23987	21335.525
528.30034	21245.525
532.35792	21125.225
536.41261	20958.625
540.46441	20854.125
544.51333	20888.125
548.55936	21040.425
552.60252	21365.725
556.64279	21703.425
560.6802	21972.025
564.71473	22135.125
568.7464	22344.225
572.7752	22816.225
576.80114	23242.625
580.82422	23727.425
584.84444	24223.725
588.86181	24851.325
592.87633	25293.725
596.888	25123.025
600.89682	24566.025
604.9028	24315.625
608.90594	24861.525
612.90624	25521.825
616.90371	24451.025
620.89834	22193.025
624.89015	21168.425
628.87913	21062.425
632.86528	21200.625
636.84862	21261.325
640.82913	21086.325
644.80683	20807.525
648.78172	20695.125
652.75379	20716.725
656.72306	20801.425
660.68952	20906.525
664.65319	20833.925
668.61405	20678.625
672.57211	20649.725
676.52738	20751.225
680.47986	20821.725
684.42955	20725.525
688.37646	20669.925
692.32058	20687.025
696.26192	20861.625
700.20048	21048.925
704.13626	21194.925
708.06928	21239.525
711.99952	21258.225
715.927	21244.625
719.85171	21230.625
723.77365	21135.525
727.69284	20958.925
731.60928	20787.825
735.52295	20729.725
739.43388	20668.025
743.34206	20748.425
747.24749	20819.425
751.15017	20927.325
755.05012	21154.125
758.94733	21514.625
762.8418	22115.525
766.73354	22994.725
770.62254	23802.525
774.50882	23892.625
778.39237	23204.125
782.27321	22192.425
786.15132	21369.825
790.02671	20882.025
793.89938	20649.225
797.76935	20563.125
801.6366	20485.525
805.50115	20511.425
809.36299	20483.425
813.22213	20415.525
817.07857	20339.125
820.93231	20302.525
824.78336	20256.525
828.63172	20197.225
832.47738	20115.625
836.32036	20185.125
840.16066	20135.425
843.99827	20175.425
847.8332	20124.725
851.66546	20133.325
855.49504	20115.825
859.32195	20123.025
863.1462	20134.825
866.96777	20081.925
870.78668	20083.925
874.60293	20119.225
878.41652	20118.625
882.22745	20161.925
886.03573	20190.625
889.84136	20191.425
893.64433	20142.425
897.44466	20111.125
901.24235	20052.725
905.0374	20007.025
908.8298	20001.525
912.61957	20016.025
916.40671	20133.325
920.19121	20276.225
923.97308	20372.025
927.75233	20345.025
931.52895	20244.025
935.30295	20006.125
939.07433	19784.425
942.84309	19614.925
946.60924	19529.325
950.37278	19485.025
954.13371	19465.025
957.89203	19472.125
961.64774	19456.725
965.40086	19440.125
969.15137	19372.025
972.89929	19259.625
976.64461	19207.825
980.38733	19167.125
984.12747	19198.225
987.86502	19213.425
991.59999	19287.725
995.33237	19336.925
999.06217	19533.425
1002.78939	19763.725
1006.51404	19981.025
1010.23611	20241.525
1013.95561	20405.425
1017.67255	20422.425
1021.38692	20327.225
1025.09872	20143.225
1028.80796	19934.525
1032.51465	19878.925
1036.21877	19926.225
1039.92035	19997.825
1043.61937	20059.925
1047.31584	20119.425
1051.00976	20168.725
1054.70114	20271.625
1058.38998	20415.325
1062.07627	20676.725
1065.76003	21064.925
1069.44126	21475.125
1073.11995	21820.125
1076.79611	22011.225
1080.46974	21870.625
1084.14085	21622.225
1087.80943	21444.625
1091.47549	21366.425
1095.13903	21357.425
1098.80005	21172.825
1102.45857	20847.125
1106.11456	20569.325
1109.76805	20441.125
1113.41903	20392.525
1117.06751	20457.425
1120.71348	20612.125
1124.35696	20765.425
1127.99793	20944.725
1131.63641	21140.825
1135.2724	21066.725
1138.90589	20958.425
1142.5369	20972.025
1146.16542	21079.925
1149.79145	21235.825
1153.415	21392.325
1157.03607	21533.625
1160.65467	21982.225
1164.27079	22682.425
1167.88443	23519.625
1171.49561	24467.525
1175.10432	25583.025
1178.71056	26912.225
1182.31434	28134.525
1185.91565	28594.925
1189.51451	28363.425
1193.11091	27867.425
1196.70485	27226.625
1200.29634	26518.725
1203.88538	26059.325
1207.47197	25877.625
1211.05612	25666.525
1214.63782	25321.025
1218.21708	24776.225
1221.79391	24245.325
1225.36829	23881.625
1228.94024	23627.525
1232.50976	23429.425
1236.07685	23182.525
1239.6415	23130.625
1243.20374	23123.725
1246.76355	23181.925
1250.32093	23405.325
1253.8759	23715.625
1257.42845	24117.825
1260.97859	24535.225
1264.52631	24960.425
1268.07163	25378.525
1271.61453	25820.925
1275.15503	26292.425
1278.69312	26894.225
1282.22882	27428.425
1285.76211	28181.225
1289.29301	29146.725
1292.82151	30238.325
1296.34761	31632.525
1299.87133	33072.325
1303.39266	34461.425
1306.9116	35564.225
1310.42815	36441.425
1313.94233	36882.425
1317.45412	36765.625
1320.96354	36403.325
1324.47058	36123.225
1327.97525	35826.325
1331.47754	35600.125
1334.97747	35462.325
1338.47502	35251.225
1341.97022	34969.725
1345.46305	34564.925
1348.95352	34277.025
1352.44163	34170.925
1355.92738	34542.925
1359.41078	35277.625
1362.89183	35887.425
1366.37053	35410.025
1369.84688	33441.525
1373.32088	30869.625
1376.79254	29003.625
1380.26186	28386.925
1383.72883	28416.825
1387.19347	28471.225
1390.65578	28377.325
1394.11575	28407.125
1397.57339	28561.525
1401.0287	28943.825
1404.48168	29140.025
1407.93234	28973.625
1411.38068	28378.925
1414.82669	27512.825
1418.27039	26563.525
1421.71177	25581.725
1425.15083	24845.625
1428.58758	24447.625
1432.02203	24533.025
1435.45416	24991.525
1438.88399	25617.125
1442.31151	26072.225
1445.73673	26344.025
1449.15965	26595.325
1452.58027	26697.325
1455.9986	26757.925
1459.41463	26915.125
1462.82837	27142.725
1466.23982	27549.225
1469.64898	27885.025
1473.05586	28051.125
1476.46045	28060.525
1479.86276	27910.525
1483.26279	27650.325
1486.66054	27512.825
1490.05602	27556.925
1493.44922	27735.325
1496.84016	27919.125
1500.22882	28229.325
1503.61521	28671.525
1506.99934	29296.325
1510.38121	29644.825
1513.76081	29729.025
1517.13816	29319.225
1520.51324	28882.525
1523.88607	28581.125
1527.25665	28544.225
1530.62498	28584.925
1533.99105	28588.625
1537.35488	28420.425
1540.71647	27933.325
1544.07581	27325.425
1547.4329	26709.925
1550.78776	26224.625
1554.14038	25786.925
1557.49077	25589.725
1560.83892	25455.325
1564.18484	25487.425
1567.52853	25688.325
1570.86999	26102.125
1574.20922	26834.425
1577.54624	27609.925
1580.88103	28072.725
1584.2136	28319.325
1587.54395	28552.225
1590.87208	29029.725
1594.19801	29838.625
1597.52172	30685.525
1600.84321	30810.325
1604.16251	29764.325
1607.47959	28028.725
1610.79447	26210.225
1614.10715	24512.325
1617.41763	23145.625
1620.7259	22187.325
1624.03199	21721.425
1627.33587	21725.225
1630.63757	22148.625
1633.93707	23116.325
1637.23439	24867.425
1640.52951	27329.725
1643.82246	30208.425
1647.11321	32354.525
1650.40179	32635.625
1653.68819	30629.725
1656.97241	27441.025
1660.25446	24366.625
1663.53433	22076.725
1666.81203	20570.625
1670.08756	19589.425
1673.36092	18950.125
1676.63211	18520.925
1679.90115	18205.925
1683.16801	17976.925
1686.43272	17834.125
1689.69527	17699.625
1692.95567	17602.425
1696.2139	17566.425
1699.46999	17509.425
1702.72392	17459.825
1705.97571	17407.625
1709.22535	17367.725
1712.47284	17354.725
1715.71819	17288.225
1718.96139	17286.925
1722.20246	17239.625
1725.44139	17171.425
1728.67818	17104.225
1731.91284	17020.725
1735.14537	16952.625
1738.37576	16884.025
1741.60403	16870.925
1744.83017	16807.825
1748.05418	16774.725
1751.27607	16747.625
1754.49584	16698.325
1757.71349	16722.125
1760.92903	16714.025
1764.14244	16693.725
1767.35375	16663.025
1770.56294	16675.525
1773.77002	16609.125
1776.97499	16599.325
1780.17785	16574.325
1783.37861	16518.925
1786.57727	16491.525
1789.77382	16444.625
1792.96828	16418.625
1796.16064	16377.225
1799.3509	16366.425
1802.53907	16314.525
1805.72514	16260.425
1808.90913	16221.725
1812.09102	16196.725
1815.27083	16163.325
1818.44856	16127.825
1821.6242	16131.425
1824.79776	16114.025
1827.96924	16073.225
1831.13864	16101.025
1834.30597	16087.525
1837.47122	16067.125
1840.6344	16020.025
1843.7955	16017.025
1846.95454	16031.625
1850.11151	16005.625
1853.26642	15990.925
1856.41926	16000.925
1859.57004	15959.325
1862.71876	15949.225
1865.86542	15914.425
1869.01003	15904.825
1872.15258	15898.425
1875.29308	15872.625
1878.43152	15834.025
1881.56792	15828.025
1884.70227	15820.925
1887.83457	15819.425
1890.96482	15798.325
1894.09304	15768.525
1897.21921	15759.525
1900.34335	15749.125
1903.46544	15712.125
1906.58551	15666.725
1909.70353	15633.025
1912.81953	15625.925
1915.93349	15606.825
1919.04543	15537.825
1922.15534	15533.125
1925.26322	15488.625
1928.36908	15475.325
1931.47292	15470.825
1934.57473	15424.225
1937.67453	15367.425
1940.77232	15318.925
1943.86808	15321.225
1946.96184	15259.425
1950.05358	15235.225
1953.14331	15162.425
1956.23103	15134.225
1959.31675	15108.525
1962.40046	15042.725
1965.48217	15024.625
1968.56188	14974.725
1971.63959	14922.825
1974.7153	14860.025
1977.78901	14819.325
1980.86073	14772.925
1983.93046	14753.625
1986.99819	14676.225
1990.06394	14664.325
1993.1277	14604.925
1996.18947	14554.325
1999.24925	14524.725
2002.30706	14475.525
2005.36288	14420.625
2008.41672	14384.125
2011.46859	14329.625
2014.51848	14300.325
2017.56639	14267.725
2020.61233	14229.925
2023.6563	14214.925
2026.6983	14181.725
2029.73833	14153.925
2032.7764	14097.525
2035.8125	14057.125
2038.84664	14022.025
2041.87881	14001.125
2044.90903	13980.825
2047.93729	13969.825
2050.96359	13925.825
2053.98794	13926.525
2057.01034	13934.525
2060.03078	13889.025
2063.04927	13868.825
2066.06582	13902.525
2069.08042	13856.925
2072.09307	13849.125
2075.10378	13829.825
2078.11255	13821.025
2081.11938	13813.725
2084.12426	13818.025
2087.12722	13830.525
2090.12824	13810.625
2093.12732	13832.025
2096.12447	13817.325
2099.11969	13820.825
2102.11299	13805.525
2105.10435	13835.925
2108.09379	13821.325
2111.08131	13829.025
2114.0669	13805.325
2117.05057	13798.825
2120.03233	13824.725
2123.01216	13854.325
2125.99008	13867.525
2128.96609	13878.625
2131.94018	13863.725
2134.91236	13867.925
2137.88263	13864.325
2140.851	13891.225
2143.81746	13883.025
2146.78201	13879.125
2149.74466	13878.425
2152.7054	13881.625
2155.66425	13881.425
2158.6212	13914.825
2161.57625	13912.325
2164.52941	13883.625
2167.48067	13849.025
2170.43004	13856.125
2173.37752	13840.225
2176.32311	13848.025
2179.26681	13854.025
2182.20863	13839.625
2185.14856	13806.425
2188.08661	13814.325
2191.02278	13800.425
2193.95707	13785.425
2196.88948	13778.625
2199.82001	13761.425
2202.74867	13759.925
2205.67545	13739.725
2208.60037	13735.925
2211.52341	13701.225
2214.44458	13676.425
2217.36388	13648.625
2220.28132	13608.025
2223.1969	13571.025
2226.11061	13568.825
2229.02246	13553.025
2231.93245	13533.425
2234.84058	13502.625
2237.74686	13471.025
2240.65128	13460.125
2243.55385	13452.125
2246.45456	13399.025
2249.35343	13401.325
2252.25044	13376.525
2255.14561	13341.125
2258.03893	13307.325
2260.93041	13307.525
2263.82004	13243.425
2266.70783	13225.525
2269.59378	13163.525
2272.4779	13171.025
2275.36017	13129.525
2278.24061	13068.725
2281.11922	13060.825
2283.996	13043.925
2286.87094	13035.125
2289.74405	12987.925
2292.61534	12992.625
2295.4848	12944.825
2298.35243	12981.425
2301.21824	12934.325
2304.08223	12914.925
2306.94439	12930.525
2309.80474	12888.425
2312.66327	12888.225
2315.51999	12886.225
2318.37489	12866.325
2321.22797	12850.825
2324.07925	12848.725
2326.92871	12843.225
2329.77637	12813.125
2332.62222	12798.125
2335.46626	12756.825
2338.3085	12741.825
2341.14893	12715.725
2343.98756	12704.225
2346.8244	12676.625
2349.65943	12667.725
2352.49267	12667.725
2355.32411	12670.325
2358.15376	12663.025
2360.98161	12624.725
2363.80768	12631.725
2366.63195	12627.825
2369.45444	12594.325
2372.27514	12605.825
2375.09405	12583.325
2377.91118	12570.125
2380.72652	12526.025
2383.54009	12511.425
2386.35187	12496.825
2389.16188	12431.825
2391.97011	12420.425
2394.77657	12392.225
2397.58125	12392.725
2400.38416	12367.425
2403.18529	12346.125
2405.98466	12343.625
2408.78226	12290.825
2411.57809	12300.425
2414.37216	12271.225
2417.16446	12261.625
2419.955	12262.925
2422.74378	12213.125
2425.5308	12226.425
2428.31606	12158.425
2431.09956	12167.925
2433.88131	12159.025
2436.6613	12187.125
2439.43954	12141.425
2442.21603	12131.925
2444.99077	12133.625
2447.76377	12147.825
2450.53501	12097.325
2453.30451	12119.625
2456.07226	12060.225
2458.83827	12051.025
2461.60254	12066.325
2464.36507	12051.025
2467.12586	12018.225
2469.88492	11999.425
2472.64224	11957.125
2475.39782	11979.225
2478.15167	11987.425
2480.90379	11978.625
2483.65417	11977.725
2486.40283	11980.525
2489.14976	11963.125
2491.89497	11970.325
2494.63845	11978.425
2497.3802	11915.925
2500.12024	11926.725
2502.85855	11927.725
2505.59514	11913.525
2508.33002	11897.025
2511.06318	11883.325
2513.79462	11879.825
2516.52435	11863.325
2519.25237	11842.525
2521.97867	11838.425
2524.70327	11820.825
2527.42616	11795.925
2530.14734	11776.725
2532.86681	11762.725
2535.58458	11766.425
2538.30065	11754.425
2541.01501	11748.325
2543.72768	11740.225
2546.43864	11693.425
2549.14791	11654.925
2551.85548	11664.325
2554.56136	11619.125
2557.26554	11606.425
2559.96803	11575.225
2562.66883	11583.325
2565.36794	11547.925
2568.06536	11568.325
2570.7611	11557.525
2573.45514	11547.625
2576.14751	11510.025
2578.83819	11484.925
2581.52719	11466.925
2584.21451	11446.025
2586.90015	11438.925
2589.58411	11388.825
2592.2664	11381.525
2594.94701	11365.425
2597.62594	11349.425
2600.30321	11316.825
2602.9788	11298.625
2605.65273	11298.225
2608.32498	11285.725
2610.99557	11302.625
2613.66449	11283.825
2616.33175	11238.925
2618.99734	11223.925
2621.66128	11219.525
2624.32355	11230.225
2626.98416	11198.625
2629.64311	11199.525
2632.30041	11177.525
2634.95605	11180.325
2637.61004	11155.125
2640.26238	11139.425
2642.91306	11165.125
2645.56209	11129.625
2648.20948	11125.125
2650.85521	11121.425
2653.4993	11092.425
2656.14175	11111.225
2658.78255	11096.525
2661.42171	11095.625
2664.05923	11116.225
2666.6951	11105.025
2669.32934	11120.625
2671.96194	11087.025
2674.59291	11080.425
2677.22224	11098.325
2679.84993	11122.425
2682.476	11075.225
2685.10043	11054.725
2687.72324	11069.125
2690.34441	11083.425
2692.96396	11074.525
2695.58188	11073.725
2698.19818	11056.325
2700.81285	11058.125
2703.4259	11083.025
2706.03733	11110.325
2708.64714	11118.925
2711.25533	11120.625
2713.86191	11093.125
2716.46687	11080.625
2719.07021	11084.725
2721.67194	11099.725
2724.27206	11063.625
2726.87057	11069.625
2729.46747	11069.125
2732.06276	11069.925
2734.65644	11037.125
2737.24852	11047.525
2739.83899	11013.025
2742.42786	11030.825
2745.01513	10995.725
2747.60079	11010.825
2750.18486	10998.025
2752.76733	11001.025
2755.3482	10968.825
2757.92747	10966.325
2760.50515	10958.925
2763.08123	10953.625
2765.65573	10925.425
2768.22863	10923.925
2770.79994	10894.925
2773.36967	10923.825
2775.9378	10878.925
2778.50435	10877.625
2781.06932	10867.525
2783.6327	10860.525
2786.1945	10821.225
2788.75471	10815.425
2791.31335	10795.525
2793.87041	10772.925
2796.42589	10745.225
2798.97979	10747.725
2801.53212	10727.825
2804.08288	10682.025
2806.63206	10671.225
2809.17967	10649.125
2811.72571	10582.525
2814.27018	10611.525
2816.81308	10593.125
2819.35442	10576.625
2821.89419	10577.525
2824.43239	10570.425
2826.96904	10527.225
2829.50412	10537.825
2832.03763	10492.125
2834.56959	10504.425
2837.1	10490.025
2839.62884	10491.725
2842.15613	10487.325
2844.68186	10498.225
2847.20604	10474.025
2849.72867	10494.825
2852.24974	10470.225
2854.76927	10465.625
2857.28724	10432.825
2859.80367	10431.025
2862.31855	10446.925
2864.83189	10403.825
2867.34368	10368.125
2869.85393	10395.825
2872.36264	10383.825
2874.8698	10359.425
2877.37543	10371.225
2879.87952	10371.925
2882.38207	10363.625
2884.88308	10351.825
2887.38256	10368.525
2889.88051	10360.825
2892.37692	10350.725
2894.8718	10346.325
2897.36515	10356.725
2899.85698	10346.325
2902.34727	10363.125
2904.83604	10359.625
2907.32328	10384.025
2909.809	10345.725
2912.29319	10363.725
2914.77587	10356.125
2917.25702	10341.725
2919.73665	10330.125
2922.21476	10357.425
2924.69136	10314.825
2927.16644	10360.825
2929.64	10328.425
2932.11205	10320.025
2934.58258	10305.625
2937.05161	10314.925
2939.51912	10318.325
2941.98513	10289.525
2944.44962	10268.725
2946.91261	10214.925
2949.37409	10242.625
2951.83407	10243.325
2954.29254	10241.825
2956.74951	10177.225
2959.20498	10176.925
2961.65895	10145.425
2964.11142	10152.025
2966.56239	10124.425
2969.01186	10126.025
2971.45984	10115.425
2973.90632	10077.425
2976.35131	10074.625
2978.7948	10057.525
2981.23681	10011.325
2983.67732	10006.125
2986.11635	9990.425
2988.55388	9955.925
2990.98993	9921.525
2993.4245	9914.725
2995.85758	9893.525
2998.28917	9861.325
3000.71928	9868.925
3003.14791	9830.925
3005.57506	9838.225
3008.00073	9811.225
3010.42493	9800.225
3012.84764	9770.125
3015.26888	9777.325
3017.68865	9746.225
3020.10694	9716.425
3022.52376	9705.825
3024.9391	9670.225
3027.35298	9680.125
3029.76539	9671.725
3032.17632	9672.225
3034.5858	9635.825
3036.9938	9650.325
3039.40034	9635.825
3041.80542	9612.425
3044.20903	9598.325
3046.61118	9593.125
3049.01187	9563.425
3051.4111	9550.425
3053.80888	9558.325
3056.20519	9526.925
3058.60005	9500.925
3060.99345	9486.425
3063.3854	9456.025
3065.7759	9457.225
3068.16494	9435.525
3070.55254	9400.225
3072.93868	9391.825
3075.32338	9354.825
3077.70662	9352.625
3080.08842	9313.425
3082.46878	9308.125
3084.84769	9286.625
3087.22515	9320.425
3089.60118	9297.825
3091.97576	9312.925
3094.3489	9308.125
3096.72061	9309.025
3099.09087	9289.325
3101.4597	9274.825
3103.82709	9256.525
3106.19305	9271.225
3108.55757	9262.725
3110.92066	9225.725
3113.28232	9193.025
3115.64255	9189.025
3118.00134	9166.725
3120.35871	9171.925
3122.71466	9152.725
3125.06917	9135.525
3127.42226	9115.625
3129.77393	9119.825
3132.12417	9118.225
3134.47299	9139.225
3136.82039	9157.525
