Data from AgNP_FTO_APTES_CRN_0uM_R6G_10uM_NaF_0.1M_Addition_RamanShift__76__12-58-22-993.txt Node

Date: Wed Dec 15 12:58:22 GMT 2021
User: TCL
Spectrometer: QEP01345
Trigger mode: 4
Integration Time (sec): 7.000000E0
Scans to average: 10
Electric dark correction enabled: true
Nonlinearity correction enabled: false
Boxcar width: 0
XAxis mode: Raman Shifts
Number of Pixels in Spectrum: 1044
>>>>>Begin Spectral Data<<<<<
46.04893	-0
50.45542	-1
54.85868	-0.5
59.25871	-0
63.6555	84.7
68.04907	93.6
72.43941	100
76.82654	103.2
81.21044	113.3
85.59113	117.5
89.96862	126.3
94.34289	123.2
98.71396	129.3
103.08183	133.6
107.4465	139.4
111.80798	137.4
116.16626	143.9
120.52136	144
124.87327	142.1
129.222	147.3
133.56755	149.5
137.90993	153.2
142.24913	161.9
146.58517	168
150.91804	190.2
155.24774	208.8
159.57429	244.5
163.89768	296.8
168.21792	369.8
172.53501	481.8
176.84895	651.6
181.15975	888.2
185.46741	1218.5
189.77193	1657.8
194.07331	2197.3
198.37157	2818.3
202.6667	3470.6
206.9587	4110.6
211.24758	4750.5
215.53334	5426.7
219.81599	6196.2
224.09553	7073.2
228.37195	8015.2
232.64527	9029.3
236.91549	9999.3
241.18261	10938.2
245.44663	11641.4
249.70755	12176
253.96539	12623.2
258.22014	13039.4
262.4718	13508.7
266.72039	13870.9
270.96589	14066.6
275.20832	14080.5
279.44768	13938.3
283.68397	13760.7
287.91719	13597.8
292.14735	13635.2
296.37445	13910.9
300.59849	14504
304.81948	15208.5
309.03742	15778.9
313.25231	15742.9
317.46415	15011.3
321.67296	13747.5
325.87872	12729.5
330.08145	12286.1
334.28114	12224
338.47781	12439
342.67145	12840.9
346.86207	13434.5
351.04966	14346.4
355.23424	15372.5
359.4158	16187.4
363.59435	16539.7
367.76989	16631.5
371.94243	16538.3
376.11196	16402.3
380.27849	16291
384.44203	16097.2
388.60257	15860.6
392.76012	15741.6
396.91468	15889.7
401.06626	16347.6
405.21485	16775.8
409.36047	16488
413.50311	15621.4
417.64277	14765.8
421.77947	14271
425.9132	14111.9
430.04396	14051.4
434.17176	14148.3
438.2966	14380.6
442.41849	14811.8
446.53742	15367.8
450.6534	15913.9
454.76644	16253.5
458.87653	16317.6
462.98368	16133.5
467.08789	15747.1
471.18916	15251.8
475.2875	14743.5
479.38291	14340.3
483.4754	14074.3
487.56496	13811.6
491.6516	13666
495.73531	13570.5
499.81612	13600.2
503.89401	13780.7
507.96899	13955.5
512.04106	14251.9
516.11023	14533.3
520.1765	14733.4
524.23987	14730.6
528.30034	14432.3
532.35792	14097.1
536.41261	13681.1
540.46441	13267.2
544.51333	13047.6
548.55936	13112.2
552.60252	13418.8
556.64279	13774.1
560.6802	13948.2
564.71473	14207
568.7464	14815.3
572.7752	15275.2
576.80114	14934.6
580.82422	14462.6
584.84444	14317.1
588.86181	14339.9
592.87633	14472.8
596.888	14811.8
600.89682	15488.2
604.9028	17471.8
608.90594	22554.8
612.90624	28952.7
616.90371	27597
620.89834	18911.6
624.89015	14735.5
628.87913	13915.2
632.86528	13965
636.84862	14130.4
640.82913	13865.6
644.80683	13214.1
648.78172	12803.7
652.75379	12925.9
656.72306	13648.4
660.68952	14405.1
664.65319	14231
668.61405	13394.6
672.57211	12964.1
676.52738	12897.3
680.47986	12882.4
684.42955	12777.3
688.37646	12701.7
692.32058	12771.5
696.26192	12907.4
700.20048	13125.8
704.13626	13323
708.06928	13303.9
711.99952	13108.7
715.927	13069.6
719.85171	13069.3
723.77365	12998
727.69284	12827.2
731.60928	12688.1
735.52295	12699.4
739.43388	12790.8
743.34206	12896.6
747.24749	13039.3
751.15017	13188.3
755.05012	13501.1
758.94733	14236.4
762.8418	15901.8
766.73354	18738.7
770.62254	21718.2
774.50882	23232.6
778.39237	22264.3
782.27321	19172.1
786.15132	16053.1
790.02671	14243.5
793.89938	13465.9
797.76935	13133
801.6366	12975.4
805.50115	12871.5
809.36299	12790.3
813.22213	12695.2
817.07857	12684
820.93231	12684.6
824.78336	12729.6
828.63172	12827.1
832.47738	12910.2
836.32036	12879.5
840.16066	12793.5
843.99827	12717.9
847.8332	12669.7
851.66546	12647.4
855.49504	12623.7
859.32195	12564.5
863.1462	12465
866.96777	12387.5
870.78668	12375.8
874.60293	12406.8
878.41652	12440.2
882.22745	12540.3
886.03573	12587
889.84136	12568.4
893.64433	12510.3
897.44466	12456.8
901.24235	12483.1
905.0374	12462.9
908.8298	12395.5
912.61957	12391.6
916.40671	12510.8
920.19121	12639.3
923.97308	12817.3
927.75233	13019.1
931.52895	13100.1
935.30295	12919.9
939.07433	12533.6
942.84309	12224.2
946.60924	12031.6
950.37278	11943.1
954.13371	11822
957.89203	11758.3
961.64774	11703
965.40086	11676.9
969.15137	11626.6
972.89929	11578.2
976.64461	11583
980.38733	11607.8
984.12747	11625.7
987.86502	11713.2
991.59999	11774.3
995.33237	11983.8
999.06217	12330.1
1002.78939	12762.9
1006.51404	13238.7
1010.23611	13663.1
1013.95561	13886.7
1017.67255	13820.1
1021.38692	13558
1025.09872	13271.6
1028.80796	13167.8
1032.51465	13366.1
1036.21877	13610
1039.92035	13798.7
1043.61937	13792.6
1047.31584	13589.7
1051.00976	13324.5
1054.70114	13154.3
1058.38998	13050.1
1062.07627	13110.2
1065.76003	13194.5
1069.44126	13379.3
1073.11995	13684.5
1076.79611	13984.1
1080.46974	14226.9
1084.14085	14523
1087.80943	14808.1
1091.47549	14848.1
1095.13903	14492.1
1098.80005	13877.2
1102.45857	13357.8
1106.11456	13157.6
1109.76805	13203.8
1113.41903	13524.4
1117.06751	13925.2
1120.71348	14517.3
1124.35696	15219.4
1127.99793	15807.5
1131.63641	15800.7
1135.2724	15061.6
1138.90589	14350.6
1142.5369	13902.4
1146.16542	13583.6
1149.79145	13414.4
1153.415	13444.1
1157.03607	13612.4
1160.65467	13973.6
1164.27079	14493.7
1167.88443	15376.4
1171.49561	16810.2
1175.10432	19150.4
1178.71056	22246.7
1182.31434	24591.5
1185.91565	25313.5
1189.51451	24728
1193.11091	23074.3
1196.70485	21030.9
1200.29634	19435
1203.88538	18229.9
1207.47197	17007.8
1211.05612	16030
1214.63782	15501.3
1218.21708	15381.9
1221.79391	15432.5
1225.36829	15573.8
1228.94024	15728.9
1232.50976	15852.7
1236.07685	15949.1
1239.6415	16008
1243.20374	16034.3
1246.76355	16062.3
1250.32093	16250
1253.8759	16632.3
1257.42845	17202.2
1260.97859	17797.5
1264.52631	18391.2
1268.07163	18972.6
1271.61453	19512.4
1275.15503	19947
1278.69312	20145.2
1282.22882	20385.4
1285.76211	20890.2
1289.29301	21629.6
1292.82151	22407.9
1296.34761	23142.2
1299.87133	24104.4
1303.39266	25930.5
1306.9116	28755.2
1310.42815	32096.8
1313.94233	34295.1
1317.45412	33950.3
1320.96354	31957.1
1324.47058	29515.8
1327.97525	27520.8
1331.47754	26421.2
1334.97747	26141.2
1338.47502	26282.8
1341.97022	26685.2
1345.46305	27407.3
1348.95352	28618.1
1352.44163	30491.2
1355.92738	33321.2
1359.41078	37788.4
1362.89183	42225.1
1366.37053	41507.5
1369.84688	35629.9
1373.32088	29292.2
1376.79254	25117
1380.26186	22970.3
1383.72883	21918.8
1387.19347	21120.3
1390.65578	20205.2
1394.11575	19450.5
1397.57339	19123.7
1401.0287	19320.2
1404.48168	19704.8
1407.93234	20260.5
1411.38068	20752.2
1414.82669	20790.3
1418.27039	20349.5
1421.71177	19737.6
1425.15083	19174.1
1428.58758	18895.3
1432.02203	18992.3
1435.45416	19175.5
1438.88399	19290.6
1442.31151	19328.1
1445.73673	19410.5
1449.15965	19485.4
1452.58027	19382.3
1455.9986	19140.5
1459.41463	18998.4
1462.82837	19144.6
1466.23982	19526.2
1469.64898	19997.3
1473.05586	20284.6
1476.46045	20584.6
1479.86276	20969.6
1483.26279	21471.2
1486.66054	22045.1
1490.05602	22862.6
1493.44922	23894.7
1496.84016	25343.8
1500.22882	27484.1
1503.61521	30426.3
1506.99934	33850.6
1510.38121	37060.6
1513.76081	38694.6
1517.13816	37116.4
1520.51324	32943.5
1523.88607	28457.3
1527.25665	25409.2
1530.62498	23661.3
1533.99105	22609.4
1537.35488	21932.4
1540.71647	21509.7
1544.07581	21274.5
1547.4329	21053.1
1550.78776	20812.5
1554.14038	20553
1557.49077	20541.4
1560.83892	20778.3
1564.18484	21269.9
1567.52853	21866.1
1570.86999	22500.3
1574.20922	23058.7
1577.54624	23160.6
1580.88103	22342.1
1584.2136	20985.7
1587.54395	20306.3
1590.87208	20711.1
1594.19801	22085.3
1597.52172	23865.2
1600.84321	24820.6
1604.16251	24093.8
1607.47959	22263.3
1610.79447	20126
1614.10715	18149.6
1617.41763	16655
1620.7259	15743.7
1624.03199	15364.1
1627.33587	15404.9
1630.63757	15831.6
1633.93707	16695.9
1637.23439	18080.3
1640.52951	19948
1643.82246	22286.3
1647.11321	24855.7
1650.40179	26608.7
1653.68819	25835.8
1656.97241	22444.5
1660.25446	18467
1663.53433	15660.3
1666.81203	13970.1
1670.08756	13044.6
1673.36092	12446.2
1676.63211	12097.5
1679.90115	11835.2
1683.16801	11640.1
1686.43272	11507.8
1689.69527	11429.1
1692.95567	11371
1696.2139	11322.8
1699.46999	11254.6
1702.72392	11249.3
1705.97571	11244.2
1709.22535	11220.7
1712.47284	11221
1715.71819	11229.7
1718.96139	11208
1722.20246	11182.5
1725.44139	11138.7
1728.67818	11043.2
1731.91284	10970.8
1735.14537	10845.5
1738.37576	10802.5
1741.60403	10718.5
1744.83017	10703.5
1748.05418	10653.5
1751.27607	10602
1754.49584	10576.1
1757.71349	10560.6
1760.92903	10547.6
1764.14244	10528.1
1767.35375	10528.8
1770.56294	10475.7
1773.77002	10485.7
1776.97499	10451.4
1780.17785	10438.6
1783.37861	10409.3
1786.57727	10379
1789.77382	10360.7
1792.96828	10378.8
1796.16064	10350.8
1799.3509	10323.9
1802.53907	10328.5
1805.72514	10307.4
1808.90913	10270.2
1812.09102	10247.8
1815.27083	10208.9
1818.44856	10201.6
1821.6242	10181.4
1824.79776	10163.1
1827.96924	10146.1
1831.13864	10134.8
1834.30597	10118.3
1837.47122	10133.5
1840.6344	10119.6
1843.7955	10121.7
1846.95454	10135.4
1850.11151	10086.7
1853.26642	10099.7
1856.41926	10104.9
1859.57004	10109.4
1862.71876	10103.2
1865.86542	10115.7
1869.01003	10137.9
1872.15258	10135.3
1875.29308	10141.9
1878.43152	10126.3
1881.56792	10161.2
1884.70227	10142.9
1887.83457	10160.1
1890.96482	10174.7
1894.09304	10151.5
1897.21921	10149.6
1900.34335	10154.2
1903.46544	10166.1
1906.58551	10169.1
1909.70353	10139.2
1912.81953	10163.5
1915.93349	10150.9
1919.04543	10119.4
1922.15534	10090.1
1925.26322	10064.9
1928.36908	10034.5
1931.47292	9987.9
1934.57473	9954.4
1937.67453	9911.4
1940.77232	9867.6
1943.86808	9825
1946.96184	9764.5
1950.05358	9736.4
1953.14331	9702.4
1956.23103	9668.4
1959.31675	9642.8
1962.40046	9614.9
1965.48217	9592.5
1968.56188	9558.8
1971.63959	9501.4
1974.7153	9487.8
1977.78901	9504
1980.86073	9427.9
1983.93046	9404.9
1986.99819	9337.4
1990.06394	9323.5
1993.1277	9311.6
1996.18947	9252.2
1999.24925	9230.6
2002.30706	9195.7
2005.36288	9193.7
2008.41672	9150.1
2011.46859	9112.4
2014.51848	9111
2017.56639	9068.5
2020.61233	9053.5
2023.6563	9024.8
2026.6983	8975.8
2029.73833	8984.9
2032.7764	8957.3
2035.8125	8940.9
2038.84664	8912.1
2041.87881	8904.8
2044.90903	8879.1
2047.93729	8861.8
2050.96359	8855.8
2053.98794	8830.2
2057.01034	8814.2
2060.03078	8806.2
2063.04927	8797.7
2066.06582	8781.3
2069.08042	8804.2
2072.09307	8780.8
2075.10378	8756.8
2078.11255	8754
2081.11938	8741.4
2084.12426	8735.6
2087.12722	8724.1
2090.12824	8735.7
2093.12732	8710.5
2096.12447	8728.9
2099.11969	8717.5
2102.11299	8709.5
2105.10435	8709.7
2108.09379	8712.7
2111.08131	8720.2
2114.0669	8706.2
2117.05057	8705.7
2120.03233	8713.2
2123.01216	8718.2
2125.99008	8708
2128.96609	8717.2
2131.94018	8708.7
2134.91236	8706.6
2137.88263	8712.3
2140.851	8705.7
2143.81746	8723
2146.78201	8713.6
2149.74466	8711.2
2152.7054	8731.1
2155.66425	8718.6
2158.6212	8691.1
2161.57625	8703
2164.52941	8686.7
2167.48067	8672.4
2170.43004	8676.5
2173.37752	8629.6
2176.32311	8642.1
2179.26681	8656.1
2182.20863	8661.9
2185.14856	8678
2188.08661	8668.9
2191.02278	8664.6
2193.95707	8670.8
2196.88948	8654.2
2199.82001	8645
2202.74867	8628
2205.67545	8640
2208.60037	8591.7
2211.52341	8587.9
2214.44458	8591.4
2217.36388	8563.4
2220.28132	8548
2223.1969	8515.7
2226.11061	8526.5
2229.02246	8494
2231.93245	8474.2
2234.84058	8434.5
2237.74686	8449.1
2240.65128	8443.3
2243.55385	8438.2
2246.45456	8405.7
2249.35343	8403.2
2252.25044	8395.1
2255.14561	8381.6
2258.03893	8390.5
2260.93041	8380.7
2263.82004	8361.7
2266.70783	8345.7
2269.59378	8315.9
2272.4779	8297.6
2275.36017	8281
2278.24061	8260.5
2281.11922	8234.8
2283.996	8218.2
2286.87094	8209.4
2289.74405	8195.3
2292.61534	8142.1
2295.4848	8144.5
2298.35243	8110
2301.21824	8111.9
2304.08223	8121.5
2306.94439	8133.9
2309.80474	8106.9
2312.66327	8100.1
2315.51999	8096.7
2318.37489	8116
2321.22797	8098.5
2324.07925	8090.9
2326.92871	8079.7
2329.77637	8107.6
2332.62222	8075.3
2335.46626	8062.9
2338.3085	8063.6
2341.14893	8104
2343.98756	8061.4
2346.8244	8068.8
2349.65943	8087.1
2352.49267	8054
2355.32411	8076.4
2358.15376	8081.4
2360.98161	8071.1
2363.80768	8085
2366.63195	8102.5
2369.45444	8099.1
2372.27514	8075.9
2375.09405	8062.8
2377.91118	8033
2380.72652	7980
2383.54009	7937
2386.35187	7950.7
2389.16188	7913.9
2391.97011	7889.8
2394.77657	7872.8
2397.58125	7832.6
2400.38416	7829.1
2403.18529	7794.5
2405.98466	7788
2408.78226	7773.5
2411.57809	7747
2414.37216	7730
2417.16446	7727.4
2419.955	7715.5
2422.74378	7710.3
2425.5308	7700.2
2428.31606	7687.4
2431.09956	7674
2433.88131	7661
2436.6613	7676
2439.43954	7669.8
2442.21603	7687.5
2444.99077	7633
2447.76377	7659
2450.53501	7642.4
2453.30451	7668.3
2456.07226	7656.7
2458.83827	7647.7
2461.60254	7645
2464.36507	7642.9
2467.12586	7650.1
2469.88492	7625.1
2472.64224	7623.1
2475.39782	7655.8
2478.15167	7653.1
2480.90379	7664.3
2483.65417	7666.5
2486.40283	7674.7
2489.14976	7697.6
2491.89497	7674.7
2494.63845	7724.1
2497.3802	7706.7
2500.12024	7700.6
2502.85855	7696.8
2505.59514	7672.8
2508.33002	7655.5
2511.06318	7626.2
2513.79462	7594.4
2516.52435	7576.2
2519.25237	7547.5
2521.97867	7535.3
2524.70327	7518.4
2527.42616	7513
2530.14734	7499.7
2532.86681	7489
2535.58458	7493.7
2538.30065	7485.6
2541.01501	7461.2
2543.72768	7483.2
2546.43864	7473.8
2549.14791	7481.2
2551.85548	7467.1
2554.56136	7466.5
2557.26554	7465.6
2559.96803	7434
2562.66883	7429.1
2565.36794	7429.6
2568.06536	7406.3
2570.7611	7403.6
2573.45514	7386.4
2576.14751	7390.5
2578.83819	7387.1
2581.52719	7380.1
2584.21451	7347.2
2586.90015	7359.3
2589.58411	7326.2
2592.2664	7335.6
2594.94701	7304.2
2597.62594	7315.1
2600.30321	7312
2602.9788	7316.2
2605.65273	7327.4
2608.32498	7300.1
2610.99557	7303.6
2613.66449	7310.6
2616.33175	7313
2618.99734	7306.6
2621.66128	7312.6
2624.32355	7310.5
2626.98416	7309.4
2629.64311	7287.1
2632.30041	7282.2
2634.95605	7255.3
2637.61004	7261.3
2640.26238	7236.6
2642.91306	7240.4
2645.56209	7224.7
2648.20948	7220.1
2650.85521	7231.2
2653.4993	7201.5
2656.14175	7210.5
2658.78255	7232.1
2661.42171	7216.1
2664.05923	7240.6
2666.6951	7266.2
2669.32934	7275.5
2671.96194	7292.8
2674.59291	7269.4
2677.22224	7293.1
2679.84993	7301.9
2682.476	7294.8
2685.10043	7296.6
2687.72324	7284.2
2690.34441	7304.5
2692.96396	7285
2695.58188	7303.1
2698.19818	7271.5
2700.81285	7285.5
2703.4259	7298
2706.03733	7279.4
2708.64714	7285.8
2711.25533	7315
2713.86191	7303.3
2716.46687	7323.4
2719.07021	7319.2
2721.67194	7324.5
2724.27206	7321.2
2726.87057	7314.9
2729.46747	7321.2
2732.06276	7330.1
2734.65644	7321.6
2737.24852	7322.9
2739.83899	7318.5
2742.42786	7302.4
2745.01513	7316.9
2747.60079	7316.8
2750.18486	7292.2
2752.76733	7305.9
2755.3482	7282.1
2757.92747	7273.4
2760.50515	7268
2763.08123	7274.2
2765.65573	7266.8
2768.22863	7278.2
2770.79994	7262.8
2773.36967	7282.2
2775.9378	7256
2778.50435	7253.3
2781.06932	7255.8
2783.6327	7266.8
2786.1945	7284.7
2788.75471	7263.4
2791.31335	7257.8
2793.87041	7273.3
2796.42589	7275.4
2798.97979	7273.2
2801.53212	7272.4
2804.08288	7273.9
2806.63206	7284.4
2809.17967	7279.5
2811.72571	7279.8
2814.27018	7289.1
2816.81308	7307.4
2819.35442	7328.2
2821.89419	7339.9
2824.43239	7336.3
2826.96904	7349.1
2829.50412	7373.4
2832.03763	7352
2834.56959	7368.8
2837.1	7365.3
2839.62884	7387.2
2842.15613	7396.1
2844.68186	7451.6
2847.20604	7496.5
2849.72867	7527.9
2852.24974	7566.8
2854.76927	7565.5
2857.28724	7525.1
2859.80367	7522.7
2862.31855	7501.2
2864.83189	7478.8
2867.34368	7464.4
2869.85393	7468.6
2872.36264	7470.4
2874.8698	7439.1
2877.37543	7446.6
2879.87952	7426.8
2882.38207	7403.9
2884.88308	7388.9
2887.38256	7403.1
2889.88051	7382.2
2892.37692	7394.3
2894.8718	7402.5
2897.36515	7384.1
2899.85698	7375.8
2902.34727	7366.3
2904.83604	7380.4
2907.32328	7363.7
2909.809	7360.4
2912.29319	7375.1
2914.77587	7361.6
2917.25702	7346.7
2919.73665	7324.2
2922.21476	7343.7
2924.69136	7326.2
2927.16644	7326.7
2929.64	7300.2
2932.11205	7270.7
2934.58258	7249.9
2937.05161	7224
2939.51912	7214.6
2941.98513	7161.9
2944.44962	7102
2946.91261	7042
2949.37409	7042.6
2951.83407	6979.2
2954.29254	6952.8
2956.74951	6946.3
2959.20498	6915.4
2961.65895	6902
2964.11142	6884
2966.56239	6852
2969.01186	6828.5
2971.45984	6791.2
2973.90632	6777.3
2976.35131	6744.4
2978.7948	6735.8
2981.23681	6708.5
2983.67732	6702.1
2986.11635	6655.6
2988.55388	6645.8
2990.98993	6610
2993.4245	6603.5
2995.85758	6559
2998.28917	6536.7
3000.71928	6540.9
3003.14791	6515.6
3005.57506	6507
3008.00073	6465.9
3010.42493	6489.1
3012.84764	6463.7
3015.26888	6449.7
3017.68865	6439.5
3020.10694	6436.6
3022.52376	6398.8
3024.9391	6391.8
3027.35298	6383.9
3029.76539	6367.7
3032.17632	6363.4
3034.5858	6325.4
3036.9938	6334.1
3039.40034	6319.1
3041.80542	6310.7
3044.20903	6300
3046.61118	6299.7
3049.01187	6278.2
3051.4111	6273.7
3053.80888	6250.5
3056.20519	6235.5
3058.60005	6212.4
3060.99345	6198.8
3063.3854	6191.8
3065.7759	6164.8
3068.16494	6157.3
3070.55254	6127.9
3072.93868	6125.3
3075.32338	6088
3077.70662	6069.7
3080.08842	6043.4
3082.46878	6037.6
3084.84769	6004
3087.22515	5991.4
3089.60118	5983.7
3091.97576	5972.1
3094.3489	5980.8
3096.72061	5962.4
3099.09087	5958.3
3101.4597	5937.9
3103.82709	5936.5
3106.19305	5909.7
3108.55757	5925.7
3110.92066	5894.5
3113.28232	5879.9
3115.64255	5867.3
3118.00134	5845
3120.35871	5820.3
3122.71466	5826.5
3125.06917	5812.6
3127.42226	5813.6
3129.77393	5836.5
3132.12417	5814.5
3134.47299	5809.5
3136.82039	5814.1
3139.16636	5823
3141.51092	5821.1
3143.85406	5818.3
3146.19579	5812.4
3148.53609	5806.3
3150.87499	5792.8
3153.21246	5832.2
3155.54853	5827.1
3157.88318	5803.7
3160.21642	5804.2
3162.54826	5791.3
3164.87868	5780.6
3167.2077	5785.5
3169.5353	5790.2
3171.86151	5786.8
3174.18631	5770.6
3176.5097	5765
3178.83169	5739
3181.15228	5759
3183.47147	5739.9
3185.78926	5761
3188.10565	5758.5
3190.42065	5768.4
3192.73424	5767.1
3195.04645	5764.3
3197.35725	5756
3199.66667	5757
3201.97469	5754.8
3204.28132	5752.5
3206.58656	5767.5
3208.8904	5758.4
3211.19287	5757.9
3213.49394	5752.1
3215.79363	5764.6
3218.09193	5773.8
3220.38884	5741.7
3222.68438	5768.6
3224.97853	5760.5
3227.2713	5731.4
3229.56269	5739.7
3231.8527	5733.1
3234.14133	5702.4
3236.42858	5700.8
3238.71446	5698.4
3240.99896	5671.4
3243.28209	5680.7
3245.56384	5686.2
3247.84423	5672.4
3250.12324	5664
3252.40088	5670
3254.67715	5663.5
3256.95205	5672.6
3259.22558	5649.6
3261.49775	5645.2
3263.76855	5646.6
3266.03799	5616.4
3268.30606	5609.2
3270.57277	5599.5
3272.83812	5589.8
3275.10211	5573.8
3277.36474	5589.2
3279.62601	5573.7
3281.88593	5569.2
3284.14448	5557.6
3286.40168	5554.8
3288.65753	5558.2
3290.91202	5550.4
3293.16516	5531.9
3295.41695	5516.4
3297.66738	5462.5
3299.91647	5450.4
3302.16421	5405.1
3304.4106	5412.6
3306.65564	5371.3
3308.89933	5337.4
3311.14169	5296.5
3313.38269	5266
3315.62236	5217.3
3317.86068	5170.7
3320.09766	5123.5
3322.3333	5086.7
3324.5676	5062.1
3326.80056	4984.7
3329.03219	4960.5
3331.26248	2
3333.49143	-0.5
3335.71905	-0.3
