Data from AgNP_FTO_APTES_CRN_100uM_R6G_10uM_NaF_0.1M_Addition_RamanShift__24__18-59-28-137.txt Node

Date: Wed Dec 15 18:59:28 GMT 2021
User: TCL
Spectrometer: QEP01345
Trigger mode: 4
Integration Time (sec): 7.000000E0
Scans to average: 10
Electric dark correction enabled: true
Nonlinearity correction enabled: false
Boxcar width: 0
XAxis mode: Raman Shifts
Number of Pixels in Spectrum: 1044
>>>>>Begin Spectral Data<<<<<
46.04893	2.025
50.45542	-2.975
54.85868	-0.875
59.25871	-0.675
63.6555	58.425
68.04907	65.925
72.43941	66.725
76.82654	73.425
81.21044	74.925
85.59113	78.625
89.96862	83.125
94.34289	82.025
98.71396	87.825
103.08183	88.925
107.4465	93.225
111.80798	91.125
116.16626	97.225
120.52136	97.525
124.87327	101.425
129.222	106.625
133.56755	110.125
137.90993	116.525
142.24913	129.325
146.58517	141.625
150.91804	166.625
155.24774	190.425
159.57429	233.725
163.89768	303.425
168.21792	389.725
172.53501	530.825
176.84895	736.725
181.15975	1031.625
185.46741	1447.025
189.77193	1993.125
194.07331	2668.525
198.37157	3438.925
202.6667	4243.825
206.9587	5043.525
211.24758	5842.425
215.53334	6626.625
219.81599	7442.925
224.09553	8368.225
228.37195	9385.625
232.64527	10473.725
236.91549	11635.425
241.18261	12831.725
245.44663	13991.225
249.70755	14999.025
253.96539	15888.925
258.22014	16683.925
262.4718	17324.125
266.72039	17773.925
270.96589	18048.325
275.20832	18103.925
279.44768	18024.225
283.68397	17814.225
287.91719	17666.625
292.14735	17564.525
296.37445	17521.025
300.59849	17565.225
304.81948	17610.225
309.03742	17460.425
313.25231	17282.425
317.46415	16948.625
321.67296	16565.725
325.87872	16258.725
330.08145	16160.225
334.28114	16196.925
338.47781	16363.125
342.67145	16495.725
346.86207	16758.825
351.04966	17068.325
355.23424	17443.525
359.4158	17700.625
363.59435	17938.025
367.76989	18086.825
371.94243	18218.625
376.11196	18318.925
380.27849	18423.725
384.44203	18578.025
388.60257	18669.925
392.76012	18806.125
396.91468	19000.025
401.06626	19249.625
405.21485	19467.725
409.36047	19397.925
413.50311	19166.025
417.64277	18953.425
421.77947	18894.325
425.9132	18918.725
430.04396	19054.425
434.17176	19205.925
438.2966	19450.525
442.41849	19812.925
446.53742	20247.425
450.6534	20778.425
454.76644	21147.425
458.87653	21296.025
462.98368	21179.925
467.08789	20951.525
471.18916	20781.325
475.2875	20656.225
479.38291	20590.925
483.4754	20460.225
487.56496	20272.325
491.6516	19970.825
495.73531	19745.325
499.81612	19591.125
503.89401	19667.225
507.96899	19708.125
512.04106	19774.125
516.11023	19780.725
520.1765	19827.825
524.23987	19809.825
528.30034	19764.225
532.35792	19643.025
536.41261	19479.925
540.46441	19312.425
544.51333	19284.725
548.55936	19420.525
552.60252	19689.525
556.64279	20032.425
560.6802	20278.325
564.71473	20371.325
568.7464	20511.125
572.7752	20779.725
576.80114	20833.125
580.82422	20899.025
584.84444	21053.325
588.86181	21378.125
592.87633	21909.925
596.888	22296.925
600.89682	22379.925
604.9028	22730.325
608.90594	23994.525
612.90624	25541.825
616.90371	24423.525
620.89834	21323.725
624.89015	19983.725
628.87913	19785.625
632.86528	19875.325
636.84862	19918.525
640.82913	19746.825
644.80683	19352.425
648.78172	19115.825
652.75379	19036.725
656.72306	19172.025
660.68952	19409.725
664.65319	19364.825
668.61405	19120.625
672.57211	19042.625
676.52738	19068.225
680.47986	19069.525
684.42955	19072.525
688.37646	19037.525
692.32058	19114.625
696.26192	19177.125
700.20048	19358.325
704.13626	19466.225
708.06928	19417.925
711.99952	19344.625
715.927	19289.325
719.85171	19284.325
723.77365	19256.725
727.69284	19147.225
731.60928	19065.125
735.52295	18990.525
739.43388	19042.925
743.34206	19048.025
747.24749	19093.625
751.15017	19166.925
755.05012	19408.525
758.94733	19759.525
762.8418	20512.525
766.73354	21621.825
770.62254	22805.925
774.50882	23206.025
778.39237	22409.525
782.27321	21034.125
786.15132	19915.625
790.02671	19252.325
793.89938	18956.025
797.76935	18804.925
801.6366	18837.325
805.50115	18794.225
809.36299	18763.925
813.22213	18713.025
817.07857	18690.525
820.93231	18716.825
824.78336	18653.925
828.63172	18656.825
832.47738	18644.325
836.32036	18698.925
840.16066	18711.525
843.99827	18716.225
847.8332	18668.825
851.66546	18633.125
855.49504	18599.225
859.32195	18609.125
863.1462	18607.125
866.96777	18549.925
870.78668	18555.125
874.60293	18497.325
878.41652	18508.525
882.22745	18565.025
886.03573	18635.125
889.84136	18592.025
893.64433	18514.625
897.44466	18449.025
901.24235	18428.225
905.0374	18377.525
908.8298	18361.925
912.61957	18378.125
916.40671	18445.225
920.19121	18590.325
923.97308	18693.125
927.75233	18742.925
931.52895	18722.025
935.30295	18558.425
939.07433	18355.625
942.84309	18177.425
946.60924	18051.025
950.37278	18002.125
954.13371	17940.125
957.89203	17916.325
961.64774	17898.325
965.40086	17811.525
969.15137	17753.325
972.89929	17686.425
976.64461	17654.025
980.38733	17661.025
984.12747	17705.525
987.86502	17787.225
991.59999	17914.625
995.33237	18106.225
999.06217	18463.125
1002.78939	18798.125
1006.51404	19035.325
1010.23611	19203.225
1013.95561	19293.025
1017.67255	19301.725
1021.38692	19139.025
1025.09872	18982.325
1028.80796	19010.325
1032.51465	19236.225
1036.21877	19464.225
1039.92035	19517.525
1043.61937	19427.725
1047.31584	19231.925
1051.00976	19070.225
1054.70114	19010.125
1058.38998	19097.225
1062.07627	19268.625
1065.76003	19551.425
1069.44126	19889.425
1073.11995	20308.025
1076.79611	20578.525
1080.46974	20650.825
1084.14085	20460.925
1087.80943	20204.225
1091.47549	20025.325
1095.13903	19845.925
1098.80005	19550.025
1102.45857	19266.425
1106.11456	19029.925
1109.76805	19021.225
1113.41903	19090.225
1117.06751	19234.525
1120.71348	19444.525
1124.35696	19550.325
1127.99793	19801.225
1131.63641	19920.825
1135.2724	19749.925
1138.90589	19531.425
1142.5369	19423.025
1146.16542	19337.525
1149.79145	19387.725
1153.415	19473.525
1157.03607	19650.825
1160.65467	19954.625
1164.27079	20502.325
1167.88443	21219.625
1171.49561	22277.225
1175.10432	23690.725
1178.71056	25413.025
1182.31434	26856.125
1185.91565	27425.825
1189.51451	27072.425
1193.11091	26244.725
1196.70485	25277.525
1200.29634	24393.125
1203.88538	23739.625
1207.47197	23273.825
1211.05612	22909.725
1214.63782	22620.125
1218.21708	22453.325
1221.79391	22313.625
1225.36829	22183.625
1228.94024	21991.025
1232.50976	21739.225
1236.07685	21562.725
1239.6415	21499.025
1243.20374	21527.525
1246.76355	21676.925
1250.32093	21905.625
1253.8759	22202.325
1257.42845	22652.625
1260.97859	22997.525
1264.52631	23346.225
1268.07163	23721.825
1271.61453	24169.625
1275.15503	24710.125
1278.69312	25165.225
1282.22882	25618.625
1285.76211	26148.025
1289.29301	26823.425
1292.82151	27676.125
1296.34761	28711.025
1299.87133	29967.625
1303.39266	31417.925
1306.9116	33044.825
1310.42815	34706.425
1313.94233	35807.725
1317.45412	35936.025
1320.96354	35378.825
1324.47058	34576.125
1327.97525	33780.525
1331.47754	33173.625
1334.97747	32892.925
1338.47502	32925.025
1341.97022	32940.925
1345.46305	32647.225
1348.95352	32266.025
1352.44163	32254.225
1355.92738	32920.425
1359.41078	34354.625
1362.89183	35776.325
1366.37053	35510.025
1369.84688	33075.325
1373.32088	29979.225
1376.79254	27848.425
1380.26186	26870.425
1383.72883	26660.125
1387.19347	26570.825
1390.65578	26360.525
1394.11575	26376.025
1397.57339	26713.525
1401.0287	27220.325
1404.48168	27691.025
1407.93234	27917.125
1411.38068	27718.725
1414.82669	27116.825
1418.27039	26152.125
1421.71177	25145.525
1425.15083	24246.625
1428.58758	23808.525
1432.02203	23760.825
1435.45416	24028.625
1438.88399	24495.725
1442.31151	24869.825
1445.73673	25205.325
1449.15965	25532.125
1452.58027	25794.225
1455.9986	25926.725
1459.41463	26059.125
1462.82837	26349.325
1466.23982	26814.025
1469.64898	27239.325
1473.05586	27472.625
1476.46045	27533.125
1479.86276	27467.525
1483.26279	27344.225
1486.66054	27241.125
1490.05602	27238.125
1493.44922	27330.425
1496.84016	27440.125
1500.22882	27635.625
1503.61521	28228.625
1506.99934	29122.625
1510.38121	29946.525
1513.76081	30267.625
1517.13816	29736.825
1520.51324	28640.325
1523.88607	27454.025
1527.25665	26763.025
1530.62498	26455.725
1533.99105	26339.125
1537.35488	26314.625
1540.71647	26131.125
1544.07581	25892.925
1547.4329	25601.125
1550.78776	25272.325
1554.14038	25012.825
1557.49077	24928.625
1560.83892	24949.525
1564.18484	25028.125
1567.52853	25221.025
1570.86999	25605.125
1574.20922	26193.225
1577.54624	26850.225
1580.88103	27133.725
1584.2136	27184.825
1587.54395	27178.725
1590.87208	27529.825
1594.19801	28385.825
1597.52172	29545.625
1600.84321	30026.625
1604.16251	29242.925
1607.47959	27449.725
1610.79447	25529.425
1614.10715	23664.425
1617.41763	22250.225
1620.7259	21315.825
1624.03199	20827.825
1627.33587	20800.225
1630.63757	21173.025
1633.93707	22089.425
1637.23439	23482.125
1640.52951	25471.825
1643.82246	27823.825
1647.11321	29805.225
1650.40179	30411.925
1653.68819	28996.625
1656.97241	26173.825
1660.25446	23258.325
1663.53433	21030.325
1666.81203	19589.025
1670.08756	18640.625
1673.36092	18051.325
1676.63211	17656.425
1679.90115	17409.225
1683.16801	17161.425
1686.43272	17002.625
1689.69527	16927.125
1692.95567	16809.725
1696.2139	16787.425
1699.46999	16744.225
1702.72392	16735.425
1705.97571	16702.525
1709.22535	16650.625
1712.47284	16607.025
1715.71819	16590.025
1718.96139	16585.325
1722.20246	16517.125
1725.44139	16492.225
1728.67818	16405.625
1731.91284	16340.925
1735.14537	16310.525
1738.37576	16222.725
1741.60403	16204.425
1744.83017	16183.425
1748.05418	16127.125
1751.27607	16137.725
1754.49584	16094.125
1757.71349	16075.725
1760.92903	16078.925
1764.14244	16082.425
1767.35375	16067.925
1770.56294	16053.625
1773.77002	16034.125
1776.97499	15992.125
1780.17785	15975.425
1783.37861	15938.325
1786.57727	15935.425
1789.77382	15903.725
1792.96828	15857.825
1796.16064	15844.925
1799.3509	15838.825
1802.53907	15788.925
1805.72514	15756.225
1808.90913	15744.625
1812.09102	15709.525
1815.27083	15689.425
1818.44856	15644.825
1821.6242	15629.225
1824.79776	15611.725
1827.96924	15608.925
1831.13864	15609.825
1834.30597	15631.525
1837.47122	15639.225
1840.6344	15581.425
1843.7955	15581.425
1846.95454	15571.925
1850.11151	15561.625
1853.26642	15544.125
1856.41926	15555.025
1859.57004	15538.025
1862.71876	15549.325
1865.86542	15516.025
1869.01003	15530.825
1872.15258	15536.225
1875.29308	15532.625
1878.43152	15471.625
1881.56792	15457.425
1884.70227	15469.225
1887.83457	15454.925
1890.96482	15450.725
1894.09304	15427.425
1897.21921	15441.525
1900.34335	15462.825
1903.46544	15432.325
1906.58551	15424.125
1909.70353	15382.525
1912.81953	15365.725
1915.93349	15355.025
1919.04543	15354.725
1922.15534	15324.625
1925.26322	15264.825
1928.36908	15267.225
1931.47292	15258.525
1934.57473	15185.325
1937.67453	15167.425
1940.77232	15125.925
1943.86808	15090.625
1946.96184	15065.025
1950.05358	15000.625
1953.14331	14975.825
1956.23103	14936.325
1959.31675	14902.325
1962.40046	14867.725
1965.48217	14821.425
1968.56188	14766.525
1971.63959	14755.025
1974.7153	14691.025
1977.78901	14634.325
1980.86073	14569.925
1983.93046	14574.725
1986.99819	14498.425
1990.06394	14478.625
1993.1277	14426.125
1996.18947	14392.625
1999.24925	14352.625
2002.30706	14321.625
2005.36288	14282.825
2008.41672	14272.225
2011.46859	14196.825
2014.51848	14168.825
2017.56639	14158.825
2020.61233	14102.225
2023.6563	14087.525
2026.6983	14073.725
2029.73833	14036.325
2032.7764	14022.825
2035.8125	13975.725
2038.84664	13933.425
2041.87881	13913.625
2044.90903	13889.025
2047.93729	13876.325
2050.96359	13866.925
2053.98794	13871.325
2057.01034	13868.925
2060.03078	13828.325
2063.04927	13815.625
2066.06582	13804.125
2069.08042	13821.825
2072.09307	13806.825
2075.10378	13806.625
2078.11255	13765.825
2081.11938	13797.625
2084.12426	13767.225
2087.12722	13761.625
2090.12824	13746.025
2093.12732	13763.325
2096.12447	13759.625
2099.11969	13763.625
2102.11299	13754.725
2105.10435	13755.825
2108.09379	13780.225
2111.08131	13781.625
2114.0669	13802.825
2117.05057	13796.525
2120.03233	13814.625
2123.01216	13837.025
2125.99008	13813.425
2128.96609	13834.425
2131.94018	13859.825
2134.91236	13845.125
2137.88263	13880.425
2140.851	13880.625
2143.81746	13906.225
2146.78201	13889.825
2149.74466	13921.325
2152.7054	13928.025
2155.66425	13923.925
2158.6212	13915.525
2161.57625	13908.825
2164.52941	13908.925
2167.48067	13919.625
2170.43004	13880.525
2173.37752	13893.725
2176.32311	13872.025
2179.26681	13903.325
2182.20863	13886.725
2185.14856	13891.325
2188.08661	13881.525
2191.02278	13874.225
2193.95707	13846.525
2196.88948	13833.125
2199.82001	13852.625
2202.74867	13849.725
2205.67545	13849.925
2208.60037	13814.425
2211.52341	13836.925
2214.44458	13813.225
2217.36388	13770.425
2220.28132	13762.725
2223.1969	13738.525
2226.11061	13714.725
2229.02246	13718.525
2231.93245	13681.825
2234.84058	13643.025
2237.74686	13606.725
2240.65128	13637.025
2243.55385	13600.725
2246.45456	13560.425
2249.35343	13557.325
2252.25044	13532.425
2255.14561	13502.325
2258.03893	13543.725
2260.93041	13504.725
2263.82004	13467.925
2266.70783	13438.225
2269.59378	13419.725
2272.4779	13364.025
2275.36017	13340.725
2278.24061	13297.125
2281.11922	13277.325
2283.996	13242.825
2286.87094	13259.325
2289.74405	13216.525
2292.61534	13222.825
2295.4848	13215.525
2298.35243	13211.125
2301.21824	13179.925
2304.08223	13191.325
2306.94439	13158.225
2309.80474	13153.125
2312.66327	13185.825
2315.51999	13152.825
2318.37489	13141.625
2321.22797	13138.825
2324.07925	13153.525
2326.92871	13149.025
2329.77637	13134.625
2332.62222	13121.025
2335.46626	13078.725
2338.3085	13080.325
2341.14893	13078.525
2343.98756	13086.325
2346.8244	13057.725
2349.65943	13041.225
2352.49267	13032.725
2355.32411	13063.725
2358.15376	13040.125
2360.98161	13014.325
2363.80768	13031.925
2366.63195	13025.425
2369.45444	12977.325
2372.27514	12969.825
2375.09405	12947.325
2377.91118	12936.625
2380.72652	12944.425
2383.54009	12898.625
2386.35187	12868.125
2389.16188	12816.325
2391.97011	12788.925
2394.77657	12814.625
2397.58125	12763.725
2400.38416	12768.625
2403.18529	12743.425
2405.98466	12741.025
2408.78226	12700.425
2411.57809	12683.225
2414.37216	12659.325
2417.16446	12630.325
2419.955	12654.025
2422.74378	12618.225
2425.5308	12604.825
2428.31606	12611.225
2431.09956	12572.625
2433.88131	12570.925
2436.6613	12566.525
2439.43954	12549.525
2442.21603	12520.625
2444.99077	12524.425
2447.76377	12530.125
2450.53501	12510.225
2453.30451	12497.925
2456.07226	12499.625
2458.83827	12496.925
2461.60254	12497.525
2464.36507	12464.725
2467.12586	12478.825
2469.88492	12481.925
2472.64224	12470.325
2475.39782	12479.925
2478.15167	12472.325
2480.90379	12471.625
2483.65417	12470.325
2486.40283	12446.925
2489.14976	12464.325
2491.89497	12494.825
2494.63845	12520.425
2497.3802	12471.025
2500.12024	12467.325
2502.85855	12460.025
2505.59514	12460.025
2508.33002	12432.525
2511.06318	12414.225
2513.79462	12389.425
2516.52435	12387.725
2519.25237	12379.225
2521.97867	12375.925
2524.70327	12369.925
2527.42616	12345.225
2530.14734	12354.525
2532.86681	12291.425
2535.58458	12313.925
2538.30065	12299.825
2541.01501	12272.925
2543.72768	12275.925
2546.43864	12256.025
2549.14791	12233.525
2551.85548	12225.625
2554.56136	12204.025
2557.26554	12187.825
2559.96803	12184.425
2562.66883	12145.725
2565.36794	12174.025
2568.06536	12155.025
2570.7611	12154.625
2573.45514	12130.625
2576.14751	12148.625
2578.83819	12087.725
2581.52719	12118.225
2584.21451	12081.425
2586.90015	12081.425
2589.58411	12052.825
2592.2664	12052.025
2594.94701	12028.425
2597.62594	12014.425
2600.30321	12003.525
2602.9788	12015.825
2605.65273	11969.325
2608.32498	11964.525
2610.99557	11955.725
2613.66449	11980.725
2616.33175	11932.325
2618.99734	11954.825
2621.66128	11940.925
2624.32355	11917.325
2626.98416	11919.825
2629.64311	11913.725
2632.30041	11933.325
2634.95605	11921.425
2637.61004	11895.825
2640.26238	11891.025
2642.91306	11871.725
2645.56209	11893.225
2648.20948	11896.325
2650.85521	11851.725
2653.4993	11869.825
2656.14175	11849.325
2658.78255	11835.225
2661.42171	11831.325
2664.05923	11865.025
2666.6951	11844.125
2669.32934	11873.325
2671.96194	11867.625
2674.59291	11876.225
2677.22224	11850.925
2679.84993	11869.225
2682.476	11851.725
2685.10043	11859.625
2687.72324	11835.725
2690.34441	11870.125
2692.96396	11862.525
2695.58188	11843.625
2698.19818	11846.225
2700.81285	11843.025
2703.4259	11856.925
2706.03733	11907.525
2708.64714	11859.625
2711.25533	11866.625
2713.86191	11896.225
2716.46687	11904.725
2719.07021	11878.225
2721.67194	11885.725
2724.27206	11857.325
2726.87057	11876.625
2729.46747	11858.425
2732.06276	11856.225
2734.65644	11872.825
2737.24852	11889.025
2739.83899	11859.625
2742.42786	11868.525
2745.01513	11825.025
2747.60079	11844.125
2750.18486	11819.625
2752.76733	11834.425
2755.3482	11853.625
2757.92747	11860.025
2760.50515	11814.825
2763.08123	11818.825
2765.65573	11813.525
2768.22863	11800.925
2770.79994	11773.525
2773.36967	11789.725
2775.9378	11746.125
2778.50435	11773.125
2781.06932	11738.625
2783.6327	11723.225
2786.1945	11706.225
2788.75471	11689.925
2791.31335	11663.125
2793.87041	11665.325
2796.42589	11649.225
2798.97979	11657.225
2801.53212	11617.725
2804.08288	11630.525
2806.63206	11590.825
2809.17967	11535.025
2811.72571	11517.125
2814.27018	11524.325
2816.81308	11513.525
2819.35442	11496.025
2821.89419	11489.925
2824.43239	11476.625
2826.96904	11447.225
2829.50412	11455.125
2832.03763	11419.225
2834.56959	11440.625
2837.1	11399.225
2839.62884	11403.925
2842.15613	11425.425
2844.68186	11434.225
2847.20604	11426.125
2849.72867	11416.525
2852.24974	11407.325
2854.76927	11382.925
2857.28724	11398.425
2859.80367	11371.725
2862.31855	11368.225
2864.83189	11343.925
2867.34368	11314.025
2869.85393	11319.425
2872.36264	11319.925
2874.8698	11314.225
2877.37543	11329.325
2879.87952	11332.625
2882.38207	11353.525
2884.88308	11317.225
2887.38256	11344.225
2889.88051	11358.425
2892.37692	11335.625
2894.8718	11327.825
2897.36515	11324.025
2899.85698	11334.225
2902.34727	11345.825
2904.83604	11359.025
2907.32328	11384.525
2909.809	11381.125
2912.29319	11393.625
2914.77587	11364.425
2917.25702	11345.025
2919.73665	11366.025
2922.21476	11369.425
2924.69136	11377.825
2927.16644	11367.325
2929.64	11345.825
2932.11205	11324.925
2934.58258	11321.125
2937.05161	11328.425
2939.51912	11316.625
2941.98513	11326.025
2944.44962	11291.125
2946.91261	11246.825
2949.37409	11256.925
2951.83407	11260.825
2954.29254	11241.325
2956.74951	11219.825
2959.20498	11258.825
2961.65895	11234.225
2964.11142	11214.925
2966.56239	11166.125
2969.01186	11180.425
2971.45984	11129.725
2973.90632	11099.125
2976.35131	11064.925
2978.7948	11066.625
2981.23681	11054.625
2983.67732	11016.725
2986.11635	11049.025
2988.55388	10976.025
2990.98993	10957.725
2993.4245	10927.525
2995.85758	10938.725
2998.28917	10885.925
3000.71928	10882.825
3003.14791	10857.725
3005.57506	10875.825
3008.00073	10847.225
3010.42493	10833.025
3012.84764	10799.125
3015.26888	10810.425
3017.68865	10763.025
3020.10694	10775.825
3022.52376	10730.125
3024.9391	10726.225
3027.35298	10692.225
3029.76539	10712.725
3032.17632	10715.325
3034.5858	10685.125
3036.9938	10696.225
3039.40034	10673.225
3041.80542	10645.125
3044.20903	10629.525
3046.61118	10657.425
3049.01187	10618.825
3051.4111	10578.725
3053.80888	10597.025
3056.20519	10583.925
3058.60005	10553.725
3060.99345	10531.925
3063.3854	10506.925
3065.7759	10470.925
3068.16494	10477.925
3070.55254	10428.925
3072.93868	10418.625
3075.32338	10402.825
3077.70662	10370.625
3080.08842	10331.825
3082.46878	10349.525
3084.84769	10340.825
3087.22515	10304.925
3089.60118	10333.525
3091.97576	10323.625
3094.3489	10326.725
3096.72061	10321.625
3099.09087	10319.425
3101.4597	10306.225
3103.82709	10313.025
3106.19305	10276.325
3108.55757	10270.525
3110.92066	10252.725
3113.28232	10233.125
3115.64255	10180.025
3118.00134	10181.925
3120.35871	10176.425
3122.71466	10176.725
3125.06917	10159.125
3127.42226	10129.025
3129.77393	10171.425
