Data from AgNP_FTO_APTES_CRN_20uM_R6G_10uM_NaF_0.1M_Addition_RamanShift__7__17-08-38-012.txt Node

Date: Wed Dec 15 17:08:38 GMT 2021
User: TCL
Spectrometer: QEP01345
Trigger mode: 4
Integration Time (sec): 7.000000E0
Scans to average: 10
Electric dark correction enabled: true
Nonlinearity correction enabled: false
Boxcar width: 0
XAxis mode: Raman Shifts
Number of Pixels in Spectrum: 1044
>>>>>Begin Spectral Data<<<<<
46.04893	1.375
50.45542	-3.025
54.85868	-0.525
59.25871	-1.125
63.6555	63.375
68.04907	72.675
72.43941	74.275
76.82654	78.275
81.21044	80.375
85.59113	85.075
89.96862	88.475
94.34289	91.375
98.71396	92.875
103.08183	100.175
107.4465	101.075
111.80798	99.575
116.16626	105.875
120.52136	111.475
124.87327	110.175
129.222	118.275
133.56755	121.675
137.90993	128.775
142.24913	140.175
146.58517	152.175
150.91804	180.975
155.24774	212.275
159.57429	263.775
163.89768	330.875
168.21792	430.775
172.53501	590.775
176.84895	811.675
181.15975	1134.375
185.46741	1597.075
189.77193	2186.075
194.07331	2941.575
198.37157	3780.875
202.6667	4689.575
206.9587	5562.375
211.24758	6440.975
215.53334	7323.475
219.81599	8233.575
224.09553	9229.875
228.37195	10320.375
232.64527	11534.575
236.91549	12851.875
241.18261	14166.075
245.44663	15373.075
249.70755	16515.775
253.96539	17498.275
258.22014	18329.775
262.4718	18995.575
266.72039	19435.275
270.96589	19684.375
275.20832	19726.075
279.44768	19568.275
283.68397	19387.875
287.91719	19234.275
292.14735	19113.975
296.37445	19038.475
300.59849	19062.175
304.81948	19108.175
309.03742	19132.675
313.25231	19045.275
317.46415	18864.575
321.67296	18573.775
325.87872	18279.775
330.08145	18111.275
334.28114	18117.575
338.47781	18246.575
342.67145	18401.175
346.86207	18674.275
351.04966	19013.675
355.23424	19294.775
359.4158	19552.175
363.59435	19673.375
367.76989	19829.175
371.94243	19895.175
376.11196	19949.775
380.27849	19974.775
384.44203	20081.875
388.60257	20223.075
392.76012	20451.075
396.91468	20696.775
401.06626	21011.375
405.21485	21227.575
409.36047	21224.875
413.50311	21105.875
417.64277	21047.175
421.77947	21163.675
425.9132	21375.375
430.04396	21484.575
434.17176	21566.575
438.2966	21650.775
442.41849	21861.675
446.53742	22325.075
450.6534	22854.875
454.76644	23222.475
458.87653	23364.775
462.98368	23166.475
467.08789	22912.375
471.18916	22587.775
475.2875	22231.175
479.38291	22006.975
483.4754	21790.275
487.56496	21606.475
491.6516	21330.075
495.73531	21194.575
499.81612	21105.475
503.89401	21347.875
507.96899	21524.575
512.04106	21513.375
516.11023	21446.375
520.1765	21276.775
524.23987	21070.375
528.30034	20958.475
532.35792	20800.675
536.41261	20543.075
540.46441	20331.875
544.51333	20318.875
548.55936	20484.075
552.60252	20872.775
556.64279	21316.375
560.6802	21642.375
564.71473	21746.775
568.7464	21951.775
572.7752	22432.475
576.80114	23144.575
580.82422	23972.375
584.84444	25064.675
588.86181	26314.975
592.87633	27264.475
596.888	27093.475
600.89682	25801.875
604.9028	25081.775
608.90594	25685.375
612.90624	26582.775
616.90371	25170.275
620.89834	22221.375
624.89015	20923.675
628.87913	20831.475
632.86528	20918.675
636.84862	20887.975
640.82913	20610.675
644.80683	20224.875
648.78172	19997.175
652.75379	20015.775
656.72306	20201.875
660.68952	20387.575
664.65319	20247.075
668.61405	20029.875
672.57211	19987.875
676.52738	20098.175
680.47986	20074.575
684.42955	19944.775
688.37646	19888.275
692.32058	19983.975
696.26192	20209.075
700.20048	20505.175
704.13626	20717.375
708.06928	20794.975
711.99952	20755.375
715.927	20687.275
719.85171	20707.475
723.77365	20628.875
727.69284	20344.275
731.60928	20066.875
735.52295	19981.475
739.43388	19929.175
743.34206	19991.775
747.24749	20101.275
751.15017	20306.775
755.05012	20622.775
758.94733	21098.075
762.8418	21924.375
766.73354	23108.075
770.62254	24131.875
774.50882	24188.275
778.39237	23199.975
782.27321	22055.375
786.15132	21047.675
790.02671	20472.075
793.89938	20107.275
797.76935	19964.675
801.6366	19935.275
805.50115	19935.875
809.36299	19844.275
813.22213	19699.875
817.07857	19590.775
820.93231	19497.575
824.78336	19422.075
828.63172	19413.375
832.47738	19396.275
836.32036	19401.075
840.16066	19450.875
843.99827	19421.875
847.8332	19379.575
851.66546	19392.475
855.49504	19379.475
859.32195	19399.675
863.1462	19377.075
866.96777	19297.275
870.78668	19287.175
874.60293	19299.175
878.41652	19304.575
882.22745	19398.975
886.03573	19406.875
889.84136	19425.075
893.64433	19361.275
897.44466	19306.075
901.24235	19262.075
905.0374	19216.475
908.8298	19210.575
912.61957	19257.675
916.40671	19419.875
920.19121	19597.175
923.97308	19789.375
927.75233	19789.775
931.52895	19618.875
935.30295	19351.475
939.07433	19086.775
942.84309	18842.275
946.60924	18810.675
950.37278	18728.975
954.13371	18753.875
957.89203	18705.075
961.64774	18715.575
965.40086	18704.775
969.15137	18660.675
972.89929	18594.475
976.64461	18575.675
980.38733	18526.475
984.12747	18598.575
987.86502	18670.075
991.59999	18748.775
995.33237	18887.475
999.06217	19184.675
1002.78939	19475.775
1006.51404	19859.375
1010.23611	20262.075
1013.95561	20501.875
1017.67255	20479.475
1021.38692	20285.375
1025.09872	20003.975
1028.80796	19769.575
1032.51465	19737.575
1036.21877	19826.675
1039.92035	19925.175
1043.61937	19963.075
1047.31584	19976.575
1051.00976	19947.475
1054.70114	20045.275
1058.38998	20212.075
1062.07627	20509.675
1065.76003	20912.275
1069.44126	21370.775
1073.11995	21894.075
1076.79611	22135.975
1080.46974	22139.075
1084.14085	21967.875
1087.80943	21856.575
1091.47549	21844.775
1095.13903	21769.175
1098.80005	21459.775
1102.45857	20966.475
1106.11456	20595.575
1109.76805	20394.375
1113.41903	20406.275
1117.06751	20404.175
1120.71348	20578.975
1124.35696	20742.675
1127.99793	20917.775
1131.63641	21088.175
1135.2724	21051.175
1138.90589	21012.375
1142.5369	21065.175
1146.16542	21223.175
1149.79145	21397.375
1153.415	21501.375
1157.03607	21729.375
1160.65467	22226.475
1164.27079	23182.375
1167.88443	24276.475
1171.49561	25472.875
1175.10432	26813.775
1178.71056	28455.375
1182.31434	30097.475
1185.91565	30852.575
1189.51451	30632.775
1193.11091	29940.575
1196.70485	29071.375
1200.29634	28122.175
1203.88538	27500.775
1207.47197	27222.075
1211.05612	26983.875
1214.63782	26631.475
1218.21708	25994.875
1221.79391	25246.375
1225.36829	24755.475
1228.94024	24507.575
1232.50976	24279.075
1236.07685	23996.075
1239.6415	23771.975
1243.20374	23739.975
1246.76355	23808.775
1250.32093	24188.075
1253.8759	24613.975
1257.42845	25214.375
1260.97859	25854.675
1264.52631	26518.075
1268.07163	27176.175
1271.61453	27826.975
1275.15503	28471.975
1278.69312	29119.975
1282.22882	29843.075
1285.76211	30775.075
1289.29301	31840.575
1292.82151	33152.875
1296.34761	34751.775
1299.87133	36585.675
1303.39266	38534.675
1306.9116	40239.375
1310.42815	41528.875
1313.94233	42224.175
1317.45412	41985.075
1320.96354	41206.275
1324.47058	40660.275
1327.97525	40304.075
1331.47754	40155.075
1334.97747	39959.375
1338.47502	39737.475
1341.97022	39386.375
1345.46305	38889.075
1348.95352	38478.075
1352.44163	38415.175
1355.92738	39008.975
1359.41078	40203.575
1362.89183	41209.475
1366.37053	40560.875
1369.84688	38013.575
1373.32088	34491.575
1376.79254	31899.775
1380.26186	30920.175
1383.72883	30959.175
1387.19347	30933.475
1390.65578	30676.575
1394.11575	30468.075
1397.57339	30629.275
1401.0287	31177.575
1404.48168	31600.275
1407.93234	31563.175
1411.38068	31082.875
1414.82669	30140.275
1418.27039	28973.075
1421.71177	27873.675
1425.15083	26958.775
1428.58758	26598.575
1432.02203	26850.875
1435.45416	27598.775
1438.88399	28424.775
1442.31151	29046.075
1445.73673	29326.275
1449.15965	29388.775
1452.58027	29406.675
1455.9986	29336.275
1459.41463	29386.575
1462.82837	29868.375
1466.23982	30411.575
1469.64898	30922.575
1473.05586	31269.575
1476.46045	31388.575
1479.86276	31213.775
1483.26279	30935.475
1486.66054	30779.675
1490.05602	30931.675
1493.44922	31193.575
1496.84016	31428.875
1500.22882	31810.875
1503.61521	32341.475
1506.99934	33014.175
1510.38121	33409.975
1513.76081	33368.675
1517.13816	32820.275
1520.51324	32199.975
1523.88607	31790.975
1527.25665	31682.675
1530.62498	31807.475
1533.99105	31854.275
1537.35488	31498.975
1540.71647	30919.775
1544.07581	30152.175
1547.4329	29299.975
1550.78776	28560.175
1554.14038	28036.675
1557.49077	27734.075
1560.83892	27554.575
1564.18484	27530.975
1567.52853	27717.175
1570.86999	28118.675
1574.20922	28807.075
1577.54624	29567.275
1580.88103	30095.875
1584.2136	30418.975
1587.54395	31022.075
1590.87208	31926.275
1594.19801	33412.075
1597.52172	34947.275
1600.84321	35406.975
1604.16251	34058.575
1607.47959	31607.575
1610.79447	28962.775
1614.10715	26619.375
1617.41763	24746.475
1620.7259	23484.575
1624.03199	22846.775
1627.33587	22796.075
1630.63757	23369.675
1633.93707	24684.875
1637.23439	26978.375
1640.52951	30424.575
1643.82246	34463.075
1647.11321	37586.875
1650.40179	38057.475
1653.68819	35231.975
1656.97241	30754.075
1660.25446	26513.875
1663.53433	23462.175
1666.81203	21477.875
1670.08756	20254.575
1673.36092	19456.975
1676.63211	18960.775
1679.90115	18556.975
1683.16801	18295.775
1686.43272	18098.175
1689.69527	17968.975
1692.95567	17847.675
1696.2139	17765.575
1699.46999	17725.475
1702.72392	17693.175
1705.97571	17595.975
1709.22535	17560.575
1712.47284	17529.075
1715.71819	17487.975
1718.96139	17474.975
1722.20246	17428.175
1725.44139	17339.675
1728.67818	17273.375
1731.91284	17196.375
1735.14537	17086.375
1738.37576	17016.675
1741.60403	16938.675
1744.83017	16923.075
1748.05418	16886.375
1751.27607	16861.975
1754.49584	16840.575
1757.71349	16803.475
1760.92903	16818.975
1764.14244	16815.675
1767.35375	16816.975
1770.56294	16765.375
1773.77002	16753.675
1776.97499	16754.775
1780.17785	16689.475
1783.37861	16667.175
1786.57727	16619.475
1789.77382	16574.675
1792.96828	16550.675
1796.16064	16518.575
1799.3509	16480.475
1802.53907	16435.575
1805.72514	16400.975
1808.90913	16365.975
1812.09102	16350.575
1815.27083	16292.675
1818.44856	16294.275
1821.6242	16270.175
1824.79776	16273.875
1827.96924	16247.475
1831.13864	16257.975
1834.30597	16278.575
1837.47122	16276.475
1840.6344	16269.875
1843.7955	16233.775
1846.95454	16230.075
1850.11151	16223.975
1853.26642	16194.575
1856.41926	16185.375
1859.57004	16179.275
1862.71876	16187.275
1865.86542	16147.275
1869.01003	16113.275
1872.15258	16118.275
1875.29308	16091.075
1878.43152	16038.475
1881.56792	16031.775
1884.70227	16035.475
1887.83457	15999.875
1890.96482	15983.375
1894.09304	15979.575
1897.21921	15978.375
1900.34335	15951.875
1903.46544	15906.175
1906.58551	15915.175
1909.70353	15870.475
1912.81953	15873.075
1915.93349	15839.975
1919.04543	15796.775
1922.15534	15758.175
1925.26322	15741.175
1928.36908	15706.775
1931.47292	15680.675
1934.57473	15626.675
1937.67453	15605.575
1940.77232	15565.675
1943.86808	15524.675
1946.96184	15501.575
1950.05358	15512.275
1953.14331	15452.975
1956.23103	15406.375
1959.31675	15374.875
1962.40046	15341.375
1965.48217	15246.475
1968.56188	15227.775
1971.63959	15199.375
1974.7153	15132.175
1977.78901	15079.975
1980.86073	15019.775
1983.93046	15001.475
1986.99819	14966.975
1990.06394	14933.775
1993.1277	14900.775
1996.18947	14815.875
1999.24925	14785.475
2002.30706	14728.975
2005.36288	14705.575
2008.41672	14698.875
2011.46859	14629.275
2014.51848	14592.175
2017.56639	14559.175
2020.61233	14531.175
2023.6563	14470.275
2026.6983	14460.475
2029.73833	14441.475
2032.7764	14415.875
2035.8125	14397.375
2038.84664	14356.975
2041.87881	14326.375
2044.90903	14303.175
2047.93729	14278.375
2050.96359	14280.075
2053.98794	14270.575
2057.01034	14247.875
2060.03078	14224.075
2063.04927	14229.075
2066.06582	14212.875
2069.08042	14195.175
2072.09307	14170.175
2075.10378	14173.175
2078.11255	14166.175
2081.11938	14160.375
2084.12426	14185.975
2087.12722	14159.275
2090.12824	14142.275
2093.12732	14158.575
2096.12447	14165.675
2099.11969	14155.175
2102.11299	14196.875
2105.10435	14197.475
2108.09379	14191.575
2111.08131	14212.875
2114.0669	14225.275
2117.05057	14214.575
2120.03233	14224.375
2123.01216	14221.975
2125.99008	14220.975
2128.96609	14267.375
2131.94018	14260.775
2134.91236	14260.275
2137.88263	14277.975
2140.851	14256.175
2143.81746	14304.775
2146.78201	14298.875
2149.74466	14297.475
2152.7054	14289.675
2155.66425	14312.775
2158.6212	14341.675
2161.57625	14323.375
2164.52941	14286.875
2167.48067	14311.975
2170.43004	14290.875
2173.37752	14278.675
2176.32311	14281.675
2179.26681	14276.875
2182.20863	14286.375
2185.14856	14295.875
2188.08661	14265.975
2191.02278	14266.275
2193.95707	14266.075
2196.88948	14244.975
2199.82001	14234.775
2202.74867	14195.875
2205.67545	14207.675
2208.60037	14206.475
2211.52341	14162.775
2214.44458	14152.575
2217.36388	14122.875
2220.28132	14129.175
2223.1969	14060.775
2226.11061	14082.075
2229.02246	14081.575
2231.93245	14040.075
2234.84058	14022.775
2237.74686	14041.675
2240.65128	13998.275
2243.55385	13995.675
2246.45456	13915.875
2249.35343	13918.075
2252.25044	13903.475
2255.14561	13880.475
2258.03893	13873.375
2260.93041	13828.075
2263.82004	13782.375
2266.70783	13779.675
2269.59378	13736.575
2272.4779	13702.075
2275.36017	13652.475
2278.24061	13640.975
2281.11922	13612.975
2283.996	13609.775
2286.87094	13594.375
2289.74405	13579.375
2292.61534	13562.575
2295.4848	13524.175
2298.35243	13548.475
2301.21824	13505.975
2304.08223	13505.875
2306.94439	13522.475
2309.80474	13508.775
2312.66327	13481.175
2315.51999	13467.775
2318.37489	13483.275
2321.22797	13448.575
2324.07925	13438.975
2326.92871	13423.175
2329.77637	13414.475
2332.62222	13387.275
2335.46626	13375.275
2338.3085	13356.275
2341.14893	13373.475
2343.98756	13359.675
2346.8244	13346.675
2349.65943	13336.675
2352.49267	13336.275
2355.32411	13360.575
2358.15376	13315.975
2360.98161	13282.075
2363.80768	13311.375
2366.63195	13309.175
2369.45444	13275.675
2372.27514	13238.575
2375.09405	13242.475
2377.91118	13236.975
2380.72652	13182.975
2383.54009	13161.875
2386.35187	13171.375
2389.16188	13124.075
2391.97011	13113.475
2394.77657	13093.075
2397.58125	13089.775
2400.38416	13069.075
2403.18529	13064.875
2405.98466	13041.075
2408.78226	12987.975
2411.57809	12999.775
2414.37216	12992.475
2417.16446	12973.375
2419.955	12958.175
2422.74378	12965.275
2425.5308	12940.975
2428.31606	12925.175
2431.09956	12939.575
2433.88131	12897.475
2436.6613	12900.575
2439.43954	12893.875
2442.21603	12884.475
2444.99077	12851.875
2447.76377	12873.575
2450.53501	12851.275
2453.30451	12855.875
2456.07226	12822.275
2458.83827	12821.175
2461.60254	12796.575
2464.36507	12798.675
2467.12586	12814.475
2469.88492	12797.975
2472.64224	12793.675
2475.39782	12779.975
2478.15167	12804.975
2480.90379	12793.375
2483.65417	12811.975
2486.40283	12796.175
2489.14976	12812.075
2491.89497	12805.375
2494.63845	12803.075
2497.3802	12791.875
2500.12024	12779.475
2502.85855	12757.175
2505.59514	12762.175
2508.33002	12757.975
2511.06318	12740.075
2513.79462	12743.875
2516.52435	12735.375
2519.25237	12705.775
2521.97867	12693.675
2524.70327	12708.075
2527.42616	12688.575
2530.14734	12683.575
2532.86681	12659.875
2535.58458	12664.475
2538.30065	12631.875
2541.01501	12628.575
2543.72768	12608.375
2546.43864	12600.475
2549.14791	12564.275
2551.85548	12573.275
2554.56136	12545.875
2557.26554	12542.875
2559.96803	12553.675
2562.66883	12540.975
2565.36794	12530.475
2568.06536	12509.275
2570.7611	12533.275
2573.45514	12500.875
2576.14751	12492.775
2578.83819	12454.375
2581.52719	12435.675
2584.21451	12434.475
2586.90015	12464.975
2589.58411	12427.075
2592.2664	12395.975
2594.94701	12383.975
2597.62594	12349.675
2600.30321	12347.275
2602.9788	12343.975
2605.65273	12323.775
2608.32498	12325.975
2610.99557	12313.775
2613.66449	12313.675
2616.33175	12305.275
2618.99734	12302.175
2621.66128	12285.775
2624.32355	12256.675
2626.98416	12264.075
2629.64311	12234.175
2632.30041	12249.075
2634.95605	12261.975
2637.61004	12215.075
2640.26238	12216.275
2642.91306	12213.975
2645.56209	12203.775
2648.20948	12212.575
2650.85521	12203.175
2653.4993	12192.475
2656.14175	12204.475
2658.78255	12227.575
2661.42171	12238.175
2664.05923	12242.075
2666.6951	12219.175
2669.32934	12235.575
2671.96194	12193.375
2674.59291	12209.975
2677.22224	12193.375
2679.84993	12222.075
2682.476	12192.775
2685.10043	12231.575
2687.72324	12217.475
2690.34441	12212.475
2692.96396	12224.875
2695.58188	12211.175
2698.19818	12228.675
2700.81285	12219.675
2703.4259	12248.475
2706.03733	12297.275
2708.64714	12277.575
2711.25533	12257.275
2713.86191	12254.575
2716.46687	12298.075
2719.07021	12260.075
2721.67194	12269.075
2724.27206	12254.375
2726.87057	12266.675
2729.46747	12265.475
2732.06276	12258.375
2734.65644	12246.575
2737.24852	12266.175
2739.83899	12257.675
2742.42786	12248.875
2745.01513	12228.575
2747.60079	12239.175
2750.18486	12195.575
2752.76733	12227.175
2755.3482	12222.075
2757.92747	12235.875
2760.50515	12249.075
2763.08123	12205.175
2765.65573	12198.775
2768.22863	12166.975
2770.79994	12167.375
2773.36967	12184.375
2775.9378	12138.375
2778.50435	12144.375
2781.06932	12128.275
2783.6327	12116.075
2786.1945	12116.875
2788.75471	12090.675
2791.31335	12075.475
2793.87041	12044.575
2796.42589	12002.375
2798.97979	12036.375
2801.53212	12005.075
2804.08288	11996.075
2806.63206	11957.575
2809.17967	11947.475
2811.72571	11908.375
2814.27018	11893.375
2816.81308	11882.375
2819.35442	11868.375
2821.89419	11868.375
2824.43239	11839.475
2826.96904	11834.675
2829.50412	11815.475
2832.03763	11796.875
2834.56959	11782.075
2837.1	11767.475
2839.62884	11776.075
2842.15613	11765.075
2844.68186	11762.275
2847.20604	11785.175
2849.72867	11752.975
2852.24974	11758.775
2854.76927	11745.775
2857.28724	11712.475
2859.80367	11717.875
2862.31855	11696.175
2864.83189	11667.075
2867.34368	11665.375
2869.85393	11681.775
2872.36264	11649.175
2874.8698	11673.375
2877.37543	11651.475
2879.87952	11657.875
2882.38207	11658.475
2884.88308	11638.075
2887.38256	11660.175
2889.88051	11662.275
2892.37692	11663.175
2894.8718	11651.975
2897.36515	11657.675
2899.85698	11633.375
2902.34727	11664.175
2904.83604	11672.675
2907.32328	11677.675
2909.809	11658.875
2912.29319	11677.675
2914.77587	11692.275
2917.25702	11689.875
2919.73665	11654.175
2922.21476	11686.775
2924.69136	11660.375
2927.16644	11665.175
2929.64	11640.975
2932.11205	11671.875
2934.58258	11641.375
2937.05161	11677.675
2939.51912	11646.175
2941.98513	11628.075
2944.44962	11619.175
2946.91261	11554.275
2949.37409	11612.775
2951.83407	11600.675
2954.29254	11588.175
2956.74951	11580.275
2959.20498	11565.775
2961.65895	11546.775
2964.11142	11580.475
2966.56239	11508.775
2969.01186	11510.175
2971.45984	11461.675
2973.90632	11456.575
2976.35131	11423.975
2978.7948	11410.475
2981.23681	11382.075
2983.67732	11378.875
2986.11635	11376.075
2988.55388	11328.175
2990.98993	11304.775
2993.4245	11278.675
2995.85758	11280.775
2998.28917	11235.375
3000.71928	11240.275
3003.14791	11199.575
3005.57506	11197.575
3008.00073	11170.675
3010.42493	11167.175
3012.84764	11141.175
3015.26888	11115.275
3017.68865	11092.375
3020.10694	11073.875
3022.52376	11079.875
3024.9391	11047.275
3027.35298	11043.275
3029.76539	11057.475
3032.17632	11043.875
3034.5858	11024.375
3036.9938	11013.275
3039.40034	10999.475
3041.80542	10979.475
3044.20903	10970.175
3046.61118	10979.675
3049.01187	10966.775
3051.4111	10925.975
3053.80888	10905.675
3056.20519	10893.875
3058.60005	10875.275
3060.99345	10858.175
3063.3854	10839.875
3065.7759	10790.275
3068.16494	10770.675
3070.55254	10734.975
3072.93868	10735.575
3075.32338	10704.075
3077.70662	10671.675
3080.08842	10640.275
3082.46878	10655.675
3084.84769	10629.175
3087.22515	10628.275
3089.60118	10641.175
3091.97576	10639.675
3094.3489	10634.775
3096.72061	10603.775
3099.09087	10584.675
3101.4597	10618.675
3103.82709	10606.375
3106.19305	10557.975
3108.55757	10534.075
3110.92066	10522.275
3113.28232	10522.575
3115.64255	10489.775
3118.00134	10455.475
3120.35871	10436.575
3122.71466	10431.075
3125.06917	10409.675
3127.42226	10389.775
3129.77393	10416.275
