Data from AgNP_FTO_APTES_CRN_200uM_R6G_10uM_NaF_0.1M_Addition_RamanShift__11__19-29-48-171.txt Node

Date: Wed Dec 15 19:29:48 GMT 2021
User: TCL
Spectrometer: QEP01345
Trigger mode: 4
Integration Time (sec): 7.000000E0
Scans to average: 10
Electric dark correction enabled: true
Nonlinearity correction enabled: false
Boxcar width: 0
XAxis mode: Raman Shifts
Number of Pixels in Spectrum: 1044
>>>>>Begin Spectral Data<<<<<
46.04893	1.2875
50.45542	-1.6125
54.85868	-1.1125
59.25871	-1.2125
63.6555	49.4875
68.04907	59.1875
72.43941	60.2875
76.82654	60.6875
81.21044	62.6875
85.59113	66.7875
89.96862	70.3875
94.34289	67.1875
98.71396	74.3875
103.08183	82.1875
107.4465	78.8875
111.80798	78.8875
116.16626	84.3875
120.52136	84.5875
124.87327	84.8875
129.222	91.2875
133.56755	89.1875
137.90993	97.4875
142.24913	104.5875
146.58517	110.5875
150.91804	128.7875
155.24774	149.7875
159.57429	180.9875
163.89768	225.0875
168.21792	297.2875
172.53501	396.2875
176.84895	542.4875
181.15975	764.2875
185.46741	1064.7875
189.77193	1469.9875
194.07331	1957.2875
198.37157	2531.0875
202.6667	3127.1875
206.9587	3713.4875
211.24758	4304.1875
215.53334	4884.6875
219.81599	5474.6875
224.09553	6123.7875
228.37195	6850.2875
232.64527	7681.2875
236.91549	8533.6875
241.18261	9392.1875
245.44663	10225.7875
249.70755	11009.4875
253.96539	11693.8875
258.22014	12260.9875
262.4718	12696.4875
266.72039	13042.0875
270.96589	13164.4875
275.20832	13189.9875
279.44768	13139.2875
283.68397	13031.1875
287.91719	12988.1875
292.14735	12911.1875
296.37445	12875.2875
300.59849	12861.9875
304.81948	12828.2875
309.03742	12757.8875
313.25231	12632.4875
317.46415	12427.5875
321.67296	12180.2875
325.87872	11954.6875
330.08145	11859.7875
334.28114	11835.9875
338.47781	11932.4875
342.67145	12026.6875
346.86207	12183.4875
351.04966	12337.9875
355.23424	12456.2875
359.4158	12584.2875
363.59435	12672.7875
367.76989	12755.3875
371.94243	12806.3875
376.11196	12815.5875
380.27849	12846.8875
384.44203	12914.1875
388.60257	12984.3875
392.76012	13134.4875
396.91468	13302.4875
401.06626	13477.5875
405.21485	13631.0875
409.36047	13649.7875
413.50311	13532.3875
417.64277	13474.7875
421.77947	13474.3875
425.9132	13495.2875
430.04396	13597.9875
434.17176	13663.7875
438.2966	13726.7875
442.41849	13846.2875
446.53742	14023.0875
450.6534	14196.1875
454.76644	14363.5875
458.87653	14437.9875
462.98368	14501.9875
467.08789	14485.2875
471.18916	14470.5875
475.2875	14426.7875
479.38291	14427.5875
483.4754	14385.9875
487.56496	14268.8875
491.6516	14099.6875
495.73531	13947.5875
499.81612	13899.3875
503.89401	13984.3875
507.96899	14042.0875
512.04106	14063.9875
516.11023	14071.1875
520.1765	14017.2875
524.23987	13957.1875
528.30034	13865.0875
532.35792	13726.7875
536.41261	13670.5875
540.46441	13608.1875
544.51333	13618.1875
548.55936	13780.4875
552.60252	14003.8875
556.64279	14207.9875
560.6802	14353.4875
564.71473	14431.8875
568.7464	14554.6875
572.7752	14844.6875
576.80114	15151.3875
580.82422	15478.0875
584.84444	15749.4875
588.86181	15886.3875
592.87633	15910.7875
596.888	15818.7875
600.89682	15580.9875
604.9028	15643.6875
608.90594	16147.7875
612.90624	16669.1875
616.90371	15963.9875
620.89834	14449.4875
624.89015	13781.3875
628.87913	13720.2875
632.86528	13826.9875
636.84862	13932.6875
640.82913	13814.0875
644.80683	13627.2875
648.78172	13523.2875
652.75379	13460.7875
656.72306	13536.9875
660.68952	13636.9875
664.65319	13642.2875
668.61405	13567.2875
672.57211	13563.6875
676.52738	13610.3875
680.47986	13632.4875
684.42955	13612.5875
688.37646	13566.0875
692.32058	13562.1875
696.26192	13628.5875
700.20048	13743.4875
704.13626	13866.9875
708.06928	13924.9875
711.99952	13915.2875
715.927	13902.1875
719.85171	13876.7875
723.77365	13774.1875
727.69284	13651.4875
731.60928	13514.5875
735.52295	13465.0875
739.43388	13456.6875
743.34206	13459.9875
747.24749	13504.4875
751.15017	13614.0875
755.05012	13770.8875
758.94733	14014.8875
762.8418	14491.7875
766.73354	15179.5875
770.62254	15849.3875
774.50882	15893.6875
778.39237	15382.1875
782.27321	14652.1875
786.15132	14070.1875
790.02671	13676.9875
793.89938	13506.1875
797.76935	13426.0875
801.6366	13399.5875
805.50115	13340.9875
809.36299	13349.5875
813.22213	13275.6875
817.07857	13280.5875
820.93231	13277.6875
824.78336	13229.2875
828.63172	13235.9875
832.47738	13252.4875
836.32036	13246.7875
840.16066	13211.6875
843.99827	13200.3875
847.8332	13165.2875
851.66546	13168.3875
855.49504	13139.9875
859.32195	13146.7875
863.1462	13141.3875
866.96777	13139.2875
870.78668	13128.2875
874.60293	13161.1875
878.41652	13157.8875
882.22745	13171.7875
886.03573	13203.8875
889.84136	13224.4875
893.64433	13251.5875
897.44466	13201.2875
901.24235	13179.2875
905.0374	13134.4875
908.8298	13169.6875
912.61957	13169.5875
916.40671	13302.9875
920.19121	13395.1875
923.97308	13428.4875
927.75233	13401.6875
931.52895	13337.2875
935.30295	13188.2875
939.07433	13033.1875
942.84309	12903.5875
946.60924	12803.2875
950.37278	12756.8875
954.13371	12724.8875
957.89203	12703.7875
961.64774	12720.9875
965.40086	12670.8875
969.15137	12660.9875
972.89929	12610.5875
976.64461	12564.5875
980.38733	12532.3875
984.12747	12511.2875
987.86502	12579.0875
991.59999	12575.1875
995.33237	12621.1875
999.06217	12746.4875
1002.78939	12849.5875
1006.51404	12952.1875
1010.23611	13124.0875
1013.95561	13235.2875
1017.67255	13223.1875
1021.38692	13158.4875
1025.09872	13095.0875
1028.80796	12985.8875
1032.51465	12936.0875
1036.21877	12963.2875
1039.92035	13012.6875
1043.61937	13077.8875
1047.31584	13172.7875
1051.00976	13256.8875
1054.70114	13409.1875
1058.38998	13572.1875
1062.07627	13838.9875
1065.76003	14165.2875
1069.44126	14495.3875
1073.11995	14789.3875
1076.79611	14868.6875
1080.46974	14770.1875
1084.14085	14450.2875
1087.80943	14243.2875
1091.47549	14189.8875
1095.13903	14203.1875
1098.80005	14058.4875
1102.45857	13817.5875
1106.11456	13558.7875
1109.76805	13373.8875
1113.41903	13309.2875
1117.06751	13359.1875
1120.71348	13450.5875
1124.35696	13593.6875
1127.99793	13753.8875
1131.63641	13889.0875
1135.2724	13822.9875
1138.90589	13715.7875
1142.5369	13712.3875
1146.16542	13740.1875
1149.79145	13767.4875
1153.415	13880.7875
1157.03607	13977.4875
1160.65467	14173.3875
1164.27079	14537.3875
1167.88443	14971.0875
1171.49561	15548.6875
1175.10432	16241.4875
1178.71056	17087.7875
1182.31434	17854.7875
1185.91565	18353.5875
1189.51451	18456.3875
1193.11091	18250.7875
1196.70485	17817.7875
1200.29634	17250.8875
1203.88538	16805.1875
1207.47197	16494.3875
1211.05612	16268.2875
1214.63782	16012.8875
1218.21708	15698.4875
1221.79391	15387.1875
1225.36829	15090.7875
1228.94024	14976.3875
1232.50976	14893.7875
1236.07685	14844.9875
1239.6415	14844.0875
1243.20374	14861.8875
1246.76355	14924.8875
1250.32093	15060.8875
1253.8759	15216.4875
1257.42845	15481.8875
1260.97859	15773.7875
1264.52631	16054.0875
1268.07163	16281.7875
1271.61453	16555.5875
1275.15503	16808.1875
1278.69312	17093.3875
1282.22882	17398.2875
1285.76211	17768.5875
1289.29301	18197.5875
1292.82151	18680.8875
1296.34761	19287.9875
1299.87133	19966.5875
1303.39266	20583.0875
1306.9116	21170.2875
1310.42815	21661.9875
1313.94233	21940.4875
1317.45412	21901.3875
1320.96354	21830.6875
1324.47058	21808.4875
1327.97525	21809.7875
1331.47754	21876.8875
1334.97747	21911.3875
1338.47502	22035.2875
1341.97022	22160.7875
1345.46305	22327.4875
1348.95352	22342.9875
1352.44163	22312.0875
1355.92738	22295.0875
1359.41078	22450.8875
1362.89183	22605.9875
1366.37053	22229.6875
1369.84688	21089.6875
1373.32088	19676.6875
1376.79254	18580.8875
1380.26186	18065.0875
1383.72883	17869.4875
1387.19347	17742.4875
1390.65578	17612.6875
1394.11575	17508.7875
1397.57339	17460.0875
1401.0287	17427.6875
1404.48168	17403.4875
1407.93234	17255.8875
1411.38068	16971.0875
1414.82669	16575.8875
1418.27039	16067.6875
1421.71177	15604.3875
1425.15083	15233.8875
1428.58758	15011.3875
1432.02203	15014.9875
1435.45416	15172.6875
1438.88399	15387.7875
1442.31151	15564.6875
1445.73673	15697.9875
1449.15965	15881.9875
1452.58027	16028.3875
1455.9986	16156.5875
1459.41463	16342.4875
1462.82837	16603.5875
1466.23982	16838.6875
1469.64898	17038.2875
1473.05586	17231.0875
1476.46045	17291.6875
1479.86276	17298.9875
1483.26279	17293.8875
1486.66054	17322.5875
1490.05602	17446.2875
1493.44922	17664.4875
1496.84016	18012.0875
1500.22882	18583.0875
1503.61521	19237.8875
1506.99934	19900.7875
1510.38121	20316.9875
1513.76081	20314.7875
1517.13816	19974.0875
1520.51324	19479.7875
1523.88607	19052.7875
1527.25665	18829.6875
1530.62498	18655.6875
1533.99105	18529.6875
1537.35488	18243.6875
1540.71647	17920.6875
1544.07581	17555.9875
1547.4329	17193.3875
1550.78776	16881.0875
1554.14038	16648.6875
1557.49077	16559.7875
1560.83892	16548.1875
1564.18484	16656.8875
1567.52853	16835.5875
1570.86999	17104.7875
1574.20922	17542.5875
1577.54624	17951.9875
1580.88103	18169.4875
1584.2136	18126.5875
1587.54395	17912.6875
1590.87208	17805.0875
1594.19801	17931.6875
1597.52172	18281.4875
1600.84321	18331.8875
1604.16251	17913.0875
1607.47959	17208.1875
1610.79447	16389.5875
1614.10715	15542.8875
1617.41763	14801.4875
1620.7259	14222.3875
1624.03199	13857.3875
1627.33587	13743.5875
1630.63757	13858.9875
1633.93707	14237.6875
1637.23439	14985.6875
1640.52951	16111.4875
1643.82246	17542.1875
1647.11321	18853.5875
1650.40179	19489.9875
1653.68819	19025.9875
1656.97241	17655.0875
1660.25446	16008.2875
1663.53433	14595.7875
1666.81203	13557.1875
1670.08756	12839.1875
1673.36092	12329.6875
1676.63211	12060.9875
1679.90115	11817.3875
1683.16801	11666.9875
1686.43272	11556.4875
1689.69527	11468.4875
1692.95567	11441.8875
1696.2139	11406.1875
1699.46999	11355.9875
1702.72392	11319.5875
1705.97571	11296.6875
1709.22535	11221.8875
1712.47284	11202.9875
1715.71819	11198.4875
1718.96139	11166.8875
1722.20246	11135.5875
1725.44139	11093.0875
1728.67818	11028.5875
1731.91284	10997.2875
1735.14537	10949.9875
1738.37576	10912.0875
1741.60403	10881.1875
1744.83017	10862.8875
1748.05418	10861.1875
1751.27607	10814.4875
1754.49584	10817.8875
1757.71349	10815.8875
1760.92903	10830.4875
1764.14244	10823.8875
1767.35375	10805.6875
1770.56294	10767.6875
1773.77002	10764.1875
1776.97499	10722.6875
1780.17785	10713.9875
1783.37861	10668.4875
1786.57727	10634.7875
1789.77382	10608.7875
1792.96828	10579.8875
1796.16064	10566.2875
1799.3509	10556.4875
1802.53907	10504.7875
1805.72514	10488.9875
1808.90913	10469.8875
1812.09102	10448.6875
1815.27083	10410.3875
1818.44856	10407.2875
1821.6242	10395.0875
1824.79776	10389.5875
1827.96924	10356.2875
1831.13864	10362.9875
1834.30597	10371.4875
1837.47122	10351.1875
1840.6344	10338.8875
1843.7955	10352.2875
1846.95454	10337.3875
1850.11151	10307.5875
1853.26642	10309.9875
1856.41926	10290.0875
1859.57004	10307.5875
1862.71876	10269.6875
1865.86542	10260.1875
1869.01003	10254.0875
1872.15258	10236.3875
1875.29308	10215.9875
1878.43152	10187.4875
1881.56792	10168.2875
1884.70227	10147.0875
1887.83457	10143.7875
1890.96482	10166.2875
1894.09304	10107.0875
1897.21921	10096.9875
1900.34335	10072.0875
1903.46544	10079.0875
1906.58551	10029.7875
1909.70353	10058.7875
1912.81953	10029.9875
1915.93349	9999.7875
1919.04543	9974.2875
1922.15534	9963.9875
1925.26322	9951.2875
1928.36908	9937.9875
1931.47292	9921.5875
1934.57473	9892.2875
1937.67453	9868.1875
1940.77232	9843.8875
1943.86808	9833.3875
1946.96184	9788.5875
1950.05358	9761.6875
1953.14331	9750.6875
1956.23103	9686.6875
1959.31675	9691.1875
1962.40046	9673.1875
1965.48217	9613.1875
1968.56188	9592.9875
1971.63959	9546.8875
1974.7153	9548.4875
1977.78901	9503.1875
1980.86073	9465.1875
1983.93046	9432.9875
1986.99819	9438.8875
1990.06394	9384.6875
1993.1277	9354.1875
1996.18947	9330.0875
1999.24925	9301.6875
2002.30706	9251.8875
2005.36288	9238.8875
2008.41672	9205.3875
2011.46859	9158.5875
2014.51848	9165.0875
2017.56639	9137.8875
2020.61233	9107.2875
2023.6563	9093.4875
2026.6983	9061.1875
2029.73833	9060.5875
2032.7764	9031.7875
2035.8125	8992.6875
2038.84664	8964.1875
2041.87881	8952.7875
2044.90903	8939.9875
2047.93729	8918.2875
2050.96359	8908.0875
2053.98794	8910.5875
2057.01034	8877.9875
2060.03078	8882.3875
2063.04927	8872.4875
2066.06582	8877.2875
2069.08042	8870.9875
2072.09307	8826.6875
2075.10378	8815.4875
2078.11255	8834.1875
2081.11938	8848.9875
2084.12426	8825.2875
2087.12722	8803.9875
2090.12824	8817.7875
2093.12732	8829.2875
2096.12447	8823.9875
2099.11969	8826.9875
2102.11299	8797.5875
2105.10435	8810.2875
2108.09379	8814.4875
2111.08131	8815.3875
2114.0669	8826.6875
2117.05057	8818.4875
2120.03233	8825.7875
2123.01216	8833.4875
2125.99008	8828.3875
2128.96609	8871.3875
2131.94018	8865.0875
2134.91236	8871.3875
2137.88263	8862.2875
2140.851	8860.6875
2143.81746	8857.1875
2146.78201	8847.5875
2149.74466	8848.4875
2152.7054	8865.8875
2155.66425	8870.8875
2158.6212	8874.1875
2161.57625	8859.1875
2164.52941	8832.5875
2167.48067	8846.8875
2170.43004	8828.8875
2173.37752	8820.2875
2176.32311	8834.4875
2179.26681	8831.9875
2182.20863	8820.4875
2185.14856	8814.0875
2188.08661	8788.5875
2191.02278	8794.2875
2193.95707	8789.0875
2196.88948	8782.6875
2199.82001	8768.6875
2202.74867	8763.1875
2205.67545	8766.1875
2208.60037	8756.1875
2211.52341	8734.0875
2214.44458	8700.6875
2217.36388	8678.5875
2220.28132	8671.5875
2223.1969	8664.6875
2226.11061	8635.1875
2229.02246	8604.5875
2231.93245	8613.3875
2234.84058	8604.9875
2237.74686	8590.9875
2240.65128	8595.6875
2243.55385	8528.7875
2246.45456	8520.2875
2249.35343	8531.2875
2252.25044	8513.8875
2255.14561	8488.5875
2258.03893	8460.6875
2260.93041	8488.2875
2263.82004	8431.2875
2266.70783	8424.5875
2269.59378	8402.0875
2272.4779	8401.2875
2275.36017	8359.6875
2278.24061	8366.6875
2281.11922	8306.7875
2283.996	8323.0875
2286.87094	8304.9875
2289.74405	8287.4875
2292.61534	8239.2875
2295.4848	8266.4875
2298.35243	8251.1875
2301.21824	8223.4875
2304.08223	8224.0875
2306.94439	8218.7875
2309.80474	8214.1875
2312.66327	8214.1875
2315.51999	8204.9875
2318.37489	8169.3875
2321.22797	8162.4875
2324.07925	8141.1875
2326.92871	8149.4875
2329.77637	8133.6875
2332.62222	8118.7875
2335.46626	8106.7875
2338.3085	8102.5875
2341.14893	8066.0875
2343.98756	8046.6875
2346.8244	8054.2875
2349.65943	8055.8875
2352.49267	8033.8875
2355.32411	8057.4875
2358.15376	8045.6875
2360.98161	8011.8875
2363.80768	8004.9875
2366.63195	8020.7875
2369.45444	8019.3875
2372.27514	7996.8875
2375.09405	7975.2875
2377.91118	7977.9875
2380.72652	7956.7875
2383.54009	7916.4875
2386.35187	7931.1875
2389.16188	7907.6875
2391.97011	7857.8875
2394.77657	7861.6875
2397.58125	7848.2875
2400.38416	7828.8875
2403.18529	7838.1875
2405.98466	7813.2875
2408.78226	7795.9875
2411.57809	7784.7875
2414.37216	7774.6875
2417.16446	7767.6875
2419.955	7746.8875
2422.74378	7738.0875
2425.5308	7735.6875
2428.31606	7726.7875
2431.09956	7718.3875
2433.88131	7723.4875
2436.6613	7712.6875
2439.43954	7707.3875
2442.21603	7686.6875
2444.99077	7680.4875
2447.76377	7683.9875
2450.53501	7666.5875
2453.30451	7657.5875
2456.07226	7632.4875
2458.83827	7641.1875
2461.60254	7614.8875
2464.36507	7608.2875
2467.12586	7619.5875
2469.88492	7613.3875
2472.64224	7607.8875
2475.39782	7597.1875
2478.15167	7599.0875
2480.90379	7582.4875
2483.65417	7591.5875
2486.40283	7574.7875
2489.14976	7569.5875
2491.89497	7563.8875
2494.63845	7551.4875
2497.3802	7553.1875
2500.12024	7525.4875
2502.85855	7534.3875
2505.59514	7533.0875
2508.33002	7516.2875
2511.06318	7511.9875
2513.79462	7503.4875
2516.52435	7486.9875
2519.25237	7489.0875
2521.97867	7466.5875
2524.70327	7444.2875
2527.42616	7452.9875
2530.14734	7443.8875
2532.86681	7400.8875
2535.58458	7415.6875
2538.30065	7394.5875
2541.01501	7393.6875
2543.72768	7393.4875
2546.43864	7384.5875
2549.14791	7352.8875
2551.85548	7355.7875
2554.56136	7327.9875
2557.26554	7302.0875
2559.96803	7296.6875
2562.66883	7268.0875
2565.36794	7267.6875
2568.06536	7261.8875
2570.7611	7249.2875
2573.45514	7249.2875
2576.14751	7225.8875
2578.83819	7215.4875
2581.52719	7202.4875
2584.21451	7185.1875
2586.90015	7171.4875
2589.58411	7155.7875
2592.2664	7172.5875
2594.94701	7131.3875
2597.62594	7127.1875
2600.30321	7114.0875
2602.9788	7081.1875
2605.65273	7081.8875
2608.32498	7072.6875
2610.99557	7053.5875
2613.66449	7059.0875
2616.33175	7030.8875
2618.99734	7033.7875
2621.66128	7016.1875
2624.32355	7000.1875
2626.98416	6988.1875
2629.64311	7002.1875
2632.30041	6996.6875
2634.95605	6979.6875
2637.61004	6976.4875
2640.26238	6966.6875
2642.91306	6940.5875
2645.56209	6935.2875
2648.20948	6934.9875
2650.85521	6934.1875
2653.4993	6932.1875
2656.14175	6921.5875
2658.78255	6923.7875
2661.42171	6929.9875
2664.05923	6922.5875
2666.6951	6926.0875
2669.32934	6930.4875
2671.96194	6918.1875
2674.59291	6906.1875
2677.22224	6916.1875
2679.84993	6912.4875
2682.476	6914.1875
2685.10043	6906.7875
2687.72324	6895.3875
2690.34441	6902.1875
2692.96396	6893.2875
2695.58188	6907.0875
2698.19818	6910.4875
2700.81285	6910.9875
2703.4259	6932.8875
2706.03733	6979.7875
2708.64714	6936.2875
2711.25533	6951.9875
2713.86191	6893.9875
2716.46687	6915.2875
2719.07021	6890.8875
2721.67194	6891.3875
2724.27206	6892.6875
2726.87057	6890.4875
2729.46747	6887.4875
2732.06276	6902.9875
2734.65644	6869.4875
2737.24852	6887.1875
2739.83899	6870.7875
2742.42786	6861.3875
2745.01513	6846.6875
2747.60079	6846.1875
2750.18486	6824.6875
2752.76733	6831.4875
2755.3482	6827.2875
2757.92747	6811.1875
2760.50515	6814.4875
2763.08123	6795.9875
2765.65573	6776.1875
2768.22863	6767.9875
2770.79994	6764.2875
2773.36967	6756.7875
2775.9378	6756.4875
2778.50435	6742.1875
2781.06932	6721.0875
2783.6327	6736.3875
2786.1945	6718.3875
2788.75471	6707.0875
2791.31335	6686.6875
2793.87041	6678.2875
2796.42589	6663.9875
2798.97979	6658.5875
2801.53212	6645.9875
2804.08288	6619.1875
2806.63206	6605.2875
2809.17967	6599.2875
2811.72571	6573.2875
2814.27018	6558.6875
2816.81308	6556.7875
2819.35442	6567.7875
2821.89419	6538.4875
2824.43239	6531.1875
2826.96904	6509.7875
2829.50412	6521.5875
2832.03763	6503.1875
2834.56959	6507.9875
2837.1	6506.0875
2839.62884	6526.8875
2842.15613	6539.5875
2844.68186	6549.4875
2847.20604	6548.0875
2849.72867	6556.1875
2852.24974	6560.0875
2854.76927	6538.3875
2857.28724	6540.5875
2859.80367	6523.3875
2862.31855	6501.1875
2864.83189	6494.5875
2867.34368	6492.0875
2869.85393	6480.2875
2872.36264	6449.0875
2874.8698	6479.2875
2877.37543	6481.0875
2879.87952	6460.3875
2882.38207	6458.6875
2884.88308	6453.5875
2887.38256	6464.7875
2889.88051	6446.6875
2892.37692	6433.0875
2894.8718	6455.5875
2897.36515	6442.6875
2899.85698	6429.3875
2902.34727	6449.3875
2904.83604	6450.7875
2907.32328	6451.1875
2909.809	6452.8875
2912.29319	6452.8875
2914.77587	6463.0875
2917.25702	6440.5875
2919.73665	6430.4875
2922.21476	6444.7875
2924.69136	6435.7875
2927.16644	6431.0875
2929.64	6419.1875
2932.11205	6425.7875
2934.58258	6412.0875
2937.05161	6427.0875
2939.51912	6433.6875
2941.98513	6413.9875
2944.44962	6375.4875
2946.91261	6379.3875
2949.37409	6371.9875
2951.83407	6355.4875
2954.29254	6340.2875
2956.74951	6331.7875
2959.20498	6333.3875
2961.65895	6311.8875
2964.11142	6304.4875
2966.56239	6292.0875
2969.01186	6282.6875
2971.45984	6277.5875
2973.90632	6267.3875
2976.35131	6227.9875
2978.7948	6204.6875
2981.23681	6223.1875
2983.67732	6194.1875
2986.11635	6189.9875
2988.55388	6162.8875
2990.98993	6148.5875
2993.4245	6151.2875
2995.85758	6141.5875
2998.28917	6106.5875
3000.71928	6107.4875
3003.14791	6099.5875
3005.57506	6100.2875
3008.00073	6073.6875
3010.42493	6058.3875
3012.84764	6066.2875
3015.26888	6045.9875
3017.68865	6043.8875
3020.10694	6048.7875
3022.52376	6019.9875
3024.9391	6006.0875
3027.35298	5978.4875
3029.76539	5992.8875
3032.17632	5983.3875
3034.5858	5960.6875
3036.9938	5994.6875
3039.40034	5966.2875
3041.80542	5973.9875
3044.20903	5961.1875
3046.61118	5956.1875
3049.01187	5942.3875
3051.4111	5933.2875
3053.80888	5933.3875
3056.20519	5907.7875
3058.60005	5913.9875
3060.99345	5907.9875
3063.3854	5888.6875
3065.7759	5876.5875
3068.16494	5862.9875
3070.55254	5850.8875
3072.93868	5851.2875
