Data from AgNP_FTO_APTES_CRN_20uM_R6G_10uM_NaF_0.1M_Addition_RamanShift__0__17-00-28-002.txt Node

Date: Wed Dec 15 17:00:28 GMT 2021
User: TCL
Spectrometer: QEP01345
Trigger mode: 4
Integration Time (sec): 7.000000E0
Scans to average: 10
Electric dark correction enabled: true
Nonlinearity correction enabled: false
Boxcar width: 0
XAxis mode: Raman Shifts
Number of Pixels in Spectrum: 1044
>>>>>Begin Spectral Data<<<<<
46.04893	1.5375
50.45542	-1.3625
54.85868	-0.2625
59.25871	-0.2625
63.6555	17.2375
68.04907	23.6375
72.43941	19.3375
76.82654	23.3375
81.21044	22.5375
85.59113	25.1375
89.96862	27.6375
94.34289	21.0375
98.71396	28.1375
103.08183	27.7375
107.4465	30.6375
111.80798	31.4375
116.16626	33.4375
120.52136	31.9375
124.87327	30.0375
129.222	35.3375
133.56755	31.7375
137.90993	39.5375
142.24913	41.8375
146.58517	42.8375
150.91804	53.4375
155.24774	61.0375
159.57429	77.8375
163.89768	98.7375
168.21792	126.6375
172.53501	172.5375
176.84895	241.5375
181.15975	344.6375
185.46741	479.7375
189.77193	667.0375
194.07331	899.5375
198.37157	1152.9375
202.6667	1432.2375
206.9587	1698.9375
211.24758	1962.6375
215.53334	2243.0375
219.81599	2530.5375
224.09553	2836.4375
228.37195	3178.8375
232.64527	3576.0375
236.91549	3983.6375
241.18261	4368.0375
245.44663	4754.0375
249.70755	5082.2375
253.96539	5376.3375
258.22014	5613.3375
262.4718	5812.8375
266.72039	5955.9375
270.96589	6039.9375
275.20832	6026.4375
279.44768	5984.4375
283.68397	5902.0375
287.91719	5830.8375
292.14735	5768.7375
296.37445	5779.4375
300.59849	5808.0375
304.81948	5869.4375
309.03742	5927.8375
313.25231	5908.9375
317.46415	5825.5375
321.67296	5696.9375
325.87872	5584.2375
330.08145	5517.4375
334.28114	5521.7375
338.47781	5575.5375
342.67145	5645.2375
346.86207	5758.6375
351.04966	5923.9375
355.23424	6055.0375
359.4158	6162.9375
363.59435	6242.8375
367.76989	6282.1375
371.94243	6315.8375
376.11196	6331.0375
380.27849	6316.6375
384.44203	6357.2375
388.60257	6393.8375
392.76012	6418.9375
396.91468	6507.1375
401.06626	6622.2375
405.21485	6701.6375
409.36047	6740.6375
413.50311	6681.8375
417.64277	6673.0375
421.77947	6752.9375
425.9132	6922.0375
430.04396	7055.7375
434.17176	7063.7375
438.2966	6988.3375
442.41849	6949.4375
446.53742	7013.1375
450.6534	7101.9375
454.76644	7173.0375
458.87653	7134.3375
462.98368	7042.5375
467.08789	6943.6375
471.18916	6842.5375
475.2875	6758.6375
479.38291	6724.5375
483.4754	6704.7375
487.56496	6700.8375
491.6516	6687.8375
495.73531	6649.8375
499.81612	6628.3375
503.89401	6602.9375
507.96899	6601.7375
512.04106	6579.2375
516.11023	6599.0375
520.1765	6593.4375
524.23987	6616.8375
528.30034	6567.0375
532.35792	6551.0375
536.41261	6478.3375
540.46441	6385.1375
544.51333	6329.2375
548.55936	6340.3375
552.60252	6433.2375
556.64279	6555.0375
560.6802	6619.4375
564.71473	6652.6375
568.7464	6694.6375
572.7752	6782.3375
576.80114	6808.6375
580.82422	6862.0375
584.84444	7003.0375
588.86181	7250.6375
592.87633	7493.8375
596.888	7595.0375
600.89682	7508.5375
604.9028	7560.9375
608.90594	8178.6375
612.90624	8997.4375
616.90371	8646.9375
620.89834	7296.1375
624.89015	6635.4375
628.87913	6488.6375
632.86528	6524.4375
636.84862	6541.0375
640.82913	6466.4375
644.80683	6323.3375
648.78172	6231.0375
652.75379	6221.4375
656.72306	6355.2375
660.68952	6446.3375
664.65319	6436.7375
668.61405	6325.3375
672.57211	6322.3375
676.52738	6312.9375
680.47986	6319.4375
684.42955	6309.8375
688.37646	6327.0375
692.32058	6427.2375
696.26192	6581.0375
700.20048	6800.8375
704.13626	6978.0375
708.06928	7058.9375
711.99952	6978.5375
715.927	6854.5375
719.85171	6755.3375
723.77365	6630.8375
727.69284	6528.5375
731.60928	6429.4375
735.52295	6407.2375
739.43388	6420.6375
743.34206	6405.1375
747.24749	6421.2375
751.15017	6411.9375
755.05012	6452.4375
758.94733	6584.8375
762.8418	6854.3375
766.73354	7307.8375
770.62254	7761.8375
774.50882	7955.4375
778.39237	7719.9375
782.27321	7288.3375
786.15132	6860.1375
790.02671	6568.7375
793.89938	6442.4375
797.76935	6392.6375
801.6366	6375.4375
805.50115	6340.7375
809.36299	6333.3375
813.22213	6301.8375
817.07857	6309.8375
820.93231	6290.3375
824.78336	6283.4375
828.63172	6303.8375
832.47738	6311.7375
836.32036	6330.2375
840.16066	6346.3375
843.99827	6328.7375
847.8332	6305.5375
851.66546	6304.9375
855.49504	6276.8375
859.32195	6291.5375
863.1462	6300.8375
866.96777	6267.9375
870.78668	6253.1375
874.60293	6262.6375
878.41652	6284.0375
882.22745	6278.0375
886.03573	6331.0375
889.84136	6308.6375
893.64433	6283.1375
897.44466	6271.5375
901.24235	6254.8375
905.0374	6245.0375
908.8298	6233.1375
912.61957	6244.4375
916.40671	6262.4375
920.19121	6292.7375
923.97308	6326.7375
927.75233	6369.4375
931.52895	6360.8375
935.30295	6328.0375
939.07433	6250.9375
942.84309	6189.1375
946.60924	6147.8375
950.37278	6119.3375
954.13371	6120.1375
957.89203	6094.9375
961.64774	6075.1375
965.40086	6085.1375
969.15137	6065.2375
972.89929	6084.0375
976.64461	6079.6375
980.38733	6102.0375
984.12747	6125.0375
987.86502	6151.5375
991.59999	6192.5375
995.33237	6235.9375
999.06217	6307.3375
1002.78939	6398.6375
1006.51404	6464.6375
1010.23611	6537.8375
1013.95561	6607.6375
1017.67255	6592.1375
1021.38692	6550.3375
1025.09872	6475.9375
1028.80796	6450.6375
1032.51465	6500.5375
1036.21877	6581.9375
1039.92035	6599.4375
1043.61937	6594.8375
1047.31584	6569.6375
1051.00976	6511.7375
1054.70114	6517.8375
1058.38998	6556.1375
1062.07627	6616.5375
1065.76003	6712.8375
1069.44126	6820.8375
1073.11995	6954.5375
1076.79611	7063.6375
1080.46974	7105.7375
1084.14085	7040.3375
1087.80943	7068.0375
1091.47549	7057.7375
1095.13903	7001.8375
1098.80005	6925.4375
1102.45857	6801.0375
1106.11456	6726.6375
1109.76805	6702.5375
1113.41903	6737.8375
1117.06751	6742.6375
1120.71348	6807.6375
1124.35696	6886.8375
1127.99793	6969.1375
1131.63641	6997.4375
1135.2724	6908.0375
1138.90589	6798.0375
1142.5369	6767.8375
1146.16542	6707.0375
1149.79145	6728.4375
1153.415	6710.7375
1157.03607	6718.5375
1160.65467	6784.0375
1164.27079	6930.8375
1167.88443	7178.0375
1171.49561	7496.2375
1175.10432	7912.5375
1178.71056	8483.4375
1182.31434	8941.2375
1185.91565	9177.2375
1189.51451	9063.8375
1193.11091	8767.8375
1196.70485	8471.4375
1200.29634	8205.2375
1203.88538	7987.9375
1207.47197	7832.4375
1211.05612	7655.3375
1214.63782	7561.0375
1218.21708	7484.6375
1221.79391	7417.0375
1225.36829	7414.1375
1228.94024	7427.8375
1232.50976	7396.6375
1236.07685	7336.4375
1239.6415	7347.5375
1243.20374	7379.2375
1246.76355	7492.9375
1250.32093	7656.0375
1253.8759	7833.3375
1257.42845	8039.2375
1260.97859	8221.3375
1264.52631	8379.4375
1268.07163	8498.5375
1271.61453	8619.9375
1275.15503	8718.4375
1278.69312	8734.6375
1282.22882	8766.4375
1285.76211	8859.6375
1289.29301	9036.4375
1292.82151	9222.9375
1296.34761	9489.7375
1299.87133	9818.1375
1303.39266	10247.0375
1306.9116	10753.4375
1310.42815	11314.2375
1313.94233	11636.7375
1317.45412	11505.6375
1320.96354	11149.6375
1324.47058	10825.6375
1327.97525	10536.2375
1331.47754	10084.0375
1334.97747	9866.3375
1338.47502	9756.5375
1341.97022	9733.9375
1345.46305	9764.5375
1348.95352	9896.6375
1352.44163	10224.8375
1355.92738	10720.3375
1359.41078	11473.2375
1362.89183	12128.1375
1366.37053	12014.0375
1369.84688	11048.1375
1373.32088	9873.2375
1376.79254	9151.7375
1380.26186	8926.3375
1383.72883	8971.8375
1387.19347	9051.8375
1390.65578	8883.4375
1394.11575	8585.9375
1397.57339	8321.3375
1401.0287	8205.2375
1404.48168	8108.7375
1407.93234	8070.5375
1411.38068	7985.8375
1414.82669	7883.2375
1418.27039	7764.9375
1421.71177	7658.0375
1425.15083	7515.7375
1428.58758	7443.0375
1432.02203	7493.8375
1435.45416	7594.5375
1438.88399	7707.4375
1442.31151	7740.3375
1445.73673	7892.0375
1449.15965	7927.2375
1452.58027	7765.9375
1455.9986	7703.7375
1459.41463	7701.8375
1462.82837	7783.9375
1466.23982	7932.3375
1469.64898	8100.4375
1473.05586	8161.8375
1476.46045	8237.0375
1479.86276	8301.0375
1483.26279	8312.3375
1486.66054	8395.2375
1490.05602	8508.4375
1493.44922	8661.5375
1496.84016	8890.9375
1500.22882	9206.9375
1503.61521	9656.7375
1506.99934	10137.7375
1510.38121	10538.5375
1513.76081	10666.1375
1517.13816	10366.8375
1520.51324	9753.5375
1523.88607	9169.9375
1527.25665	8786.6375
1530.62498	8572.9375
1533.99105	8430.3375
1537.35488	8346.2375
1540.71647	8220.2375
1544.07581	8097.0375
1547.4329	8013.5375
1550.78776	7893.5375
1554.14038	7841.2375
1557.49077	7848.4375
1560.83892	7883.4375
1564.18484	7988.5375
1567.52853	8112.4375
1570.86999	8272.9375
1574.20922	8450.5375
1577.54624	8570.4375
1580.88103	8593.9375
1584.2136	8527.1375
1587.54395	8462.0375
1590.87208	8549.5375
1594.19801	8854.4375
1597.52172	9212.3375
1600.84321	9380.4375
1604.16251	9163.4375
1607.47959	8664.2375
1610.79447	8140.1375
1614.10715	7626.1375
1617.41763	7300.0375
1620.7259	7124.6375
1624.03199	7058.7375
1627.33587	7115.8375
1630.63757	7334.8375
1633.93707	7650.0375
1637.23439	8161.2375
1640.52951	8924.7375
1643.82246	9862.6375
1647.11321	10852.4375
1650.40179	11394.1375
1653.68819	11282.5375
1656.97241	10406.1375
1660.25446	9408.3375
1663.53433	8662.5375
1666.81203	8079.9375
1670.08756	7621.4375
1673.36092	7211.0375
1676.63211	6873.3375
1679.90115	6649.8375
1683.16801	6550.6375
1686.43272	6541.2375
1689.69527	6708.5375
1692.95567	7099.3375
1696.2139	7808.6375
1699.46999	8503.7375
1702.72392	8552.2375
1705.97571	7887.2375
1709.22535	7122.5375
1712.47284	6605.5375
1715.71819	6300.9375
1718.96139	6162.0375
1722.20246	6062.4375
1725.44139	5992.4375
1728.67818	5967.7375
1731.91284	5940.5375
1735.14537	5938.3375
1738.37576	5932.8375
1741.60403	5979.1375
1744.83017	6061.5375
1748.05418	6150.0375
1751.27607	6375.6375
1754.49584	6740.0375
1757.71349	7140.7375
1760.92903	7400.7375
1764.14244	7365.1375
1767.35375	7314.2375
1770.56294	7316.2375
1773.77002	7118.5375
1776.97499	6678.6375
1780.17785	6250.9375
1783.37861	5990.1375
1786.57727	5842.9375
1789.77382	5757.5375
1792.96828	5662.0375
1796.16064	5632.8375
1799.3509	5617.1375
1802.53907	5571.1375
1805.72514	5552.2375
1808.90913	5519.1375
1812.09102	5535.4375
1815.27083	5494.3375
1818.44856	5481.8375
1821.6242	5474.4375
1824.79776	5454.9375
1827.96924	5449.9375
1831.13864	5435.1375
1834.30597	5443.5375
1837.47122	5433.4375
1840.6344	5432.6375
1843.7955	5437.0375
1846.95454	5427.4375
1850.11151	5420.1375
1853.26642	5420.2375
1856.41926	5412.0375
1859.57004	5414.1375
1862.71876	5411.2375
1865.86542	5394.0375
1869.01003	5404.4375
1872.15258	5409.2375
1875.29308	5393.8375
1878.43152	5381.5375
1881.56792	5368.0375
1884.70227	5365.9375
1887.83457	5366.6375
1890.96482	5373.4375
1894.09304	5340.3375
1897.21921	5352.4375
1900.34335	5340.4375
1903.46544	5339.6375
1906.58551	5341.8375
1909.70353	5333.5375
1912.81953	5334.0375
1915.93349	5332.9375
1919.04543	5321.1375
1922.15534	5303.0375
1925.26322	5290.6375
1928.36908	5295.9375
1931.47292	5280.8375
1934.57473	5281.1375
1937.67453	5258.6375
1940.77232	5269.4375
1943.86808	5253.4375
1946.96184	5228.7375
1950.05358	5226.4375
1953.14331	5224.4375
1956.23103	5200.5375
1959.31675	5202.9375
1962.40046	5181.1375
1965.48217	5170.1375
1968.56188	5155.1375
1971.63959	5135.8375
1974.7153	5123.4375
1977.78901	5114.4375
1980.86073	5092.8375
1983.93046	5072.8375
1986.99819	5066.8375
1990.06394	5055.8375
1993.1277	5036.3375
1996.18947	5015.3375
1999.24925	4994.9375
2002.30706	5006.4375
2005.36288	4986.7375
2008.41672	4995.8375
2011.46859	4966.6375
2014.51848	4952.6375
2017.56639	4947.3375
2020.61233	4939.8375
2023.6563	4928.9375
2026.6983	4913.3375
2029.73833	4902.2375
2032.7764	4886.0375
2035.8125	4894.6375
2038.84664	4876.8375
2041.87881	4868.4375
2044.90903	4865.2375
2047.93729	4861.2375
2050.96359	4863.3375
2053.98794	4889.6375
2057.01034	4868.9375
2060.03078	4862.5375
2063.04927	4839.8375
2066.06582	4843.0375
2069.08042	4818.6375
2072.09307	4827.6375
2075.10378	4826.4375
2078.11255	4801.7375
2081.11938	4831.0375
2084.12426	4827.7375
2087.12722	4835.2375
2090.12824	4825.6375
2093.12732	4828.8375
2096.12447	4830.2375
2099.11969	4832.5375
2102.11299	4842.8375
2105.10435	4852.3375
2108.09379	4833.5375
2111.08131	4857.4375
2114.0669	4854.9375
2117.05057	4856.7375
2120.03233	4863.6375
2123.01216	4859.0375
2125.99008	4841.0375
2128.96609	4858.8375
2131.94018	4876.2375
2134.91236	4875.5375
2137.88263	4890.5375
2140.851	4869.2375
2143.81746	4897.8375
2146.78201	4898.4375
2149.74466	4897.4375
2152.7054	4899.4375
2155.66425	4914.2375
2158.6212	4918.5375
2161.57625	4911.0375
2164.52941	4907.6375
2167.48067	4896.6375
2170.43004	4903.9375
2173.37752	4897.0375
2176.32311	4901.5375
2179.26681	4890.6375
2182.20863	4873.4375
2185.14856	4900.5375
2188.08661	4882.7375
2191.02278	4897.7375
2193.95707	4897.5375
2196.88948	4882.3375
2199.82001	4881.1375
2202.74867	4890.1375
2205.67545	4893.8375
2208.60037	4883.8375
2211.52341	4886.8375
2214.44458	4862.3375
2217.36388	4860.4375
2220.28132	4858.2375
2223.1969	4853.4375
2226.11061	4833.8375
2229.02246	4841.8375
2231.93245	4837.5375
2234.84058	4819.6375
2237.74686	4825.1375
2240.65128	4830.3375
2243.55385	4803.1375
2246.45456	4802.6375
2249.35343	4790.4375
2252.25044	4784.5375
2255.14561	4789.3375
2258.03893	4885.4375
2260.93041	5071.0375
2263.82004	4910.4375
2266.70783	4821.2375
2269.59378	4791.6375
2272.4779	4751.6375
2275.36017	4743.7375
2278.24061	4730.1375
2281.11922	4703.9375
2283.996	4694.7375
2286.87094	4704.3375
2289.74405	4691.2375
2292.61534	4691.8375
2295.4848	4692.5375
2298.35243	4710.8375
2301.21824	4686.7375
2304.08223	4689.9375
2306.94439	4683.6375
2309.80474	4683.5375
2312.66327	4692.1375
2315.51999	4701.0375
2318.37489	4691.6375
2321.22797	4686.1375
2324.07925	4706.4375
2326.92871	4691.4375
2329.77637	4713.4375
2332.62222	4692.0375
2335.46626	4687.8375
2338.3085	4697.3375
2341.14893	4701.8375
2343.98756	4703.1375
2346.8244	4676.2375
2349.65943	4663.6375
2352.49267	4663.1375
2355.32411	4657.6375
2358.15376	4643.1375
2360.98161	4638.5375
2363.80768	4628.3375
2366.63195	4638.1375
2369.45444	4629.2375
2372.27514	4607.5375
2375.09405	4614.1375
2377.91118	4595.1375
2380.72652	4593.4375
2383.54009	4579.9375
2386.35187	4573.4375
2389.16188	4573.2375
2391.97011	4575.9375
2394.77657	4557.2375
2397.58125	4560.4375
2400.38416	4559.8375
2403.18529	4555.6375
2405.98466	4546.1375
2408.78226	4535.2375
2411.57809	4554.5375
2414.37216	4550.0375
2417.16446	4542.7375
2419.955	4533.8375
2422.74378	4536.2375
2425.5308	4510.1375
2428.31606	4510.5375
2431.09956	4487.5375
2433.88131	4480.9375
2436.6613	4494.6375
2439.43954	4498.4375
2442.21603	4486.3375
2444.99077	4476.6375
2447.76377	4465.5375
2450.53501	4463.7375
2453.30451	4467.7375
2456.07226	4462.1375
2458.83827	4453.0375
2461.60254	4456.4375
2464.36507	4458.6375
2467.12586	4463.9375
2469.88492	4452.9375
2472.64224	4475.6375
2475.39782	4595.6375
2478.15167	4648.3375
2480.90379	4537.6375
2483.65417	4500.1375
2486.40283	4486.7375
2489.14976	4486.6375
2491.89497	4477.7375
2494.63845	4642.5375
2497.3802	4675.4375
2500.12024	4532.2375
2502.85855	4499.2375
2505.59514	4489.0375
2508.33002	4447.2375
2511.06318	4417.4375
2513.79462	4424.5375
2516.52435	4420.9375
2519.25237	4414.8375
2521.97867	4401.4375
2524.70327	4409.2375
2527.42616	4402.5375
2530.14734	4402.5375
2532.86681	4397.8375
2535.58458	4399.3375
2538.30065	4367.9375
2541.01501	4380.4375
2543.72768	4371.8375
2546.43864	4356.6375
2549.14791	4366.3375
2551.85548	4351.6375
2554.56136	4349.7375
2557.26554	4350.3375
2559.96803	4341.2375
2562.66883	4341.1375
2565.36794	4344.7375
2568.06536	4334.2375
2570.7611	4329.9375
2573.45514	4331.3375
2576.14751	4311.7375
2578.83819	4305.2375
2581.52719	4299.6375
2584.21451	4288.2375
2586.90015	4304.8375
2589.58411	4287.0375
2592.2664	4308.7375
2594.94701	4272.8375
2597.62594	4274.1375
2600.30321	4258.1375
2602.9788	4263.3375
2605.65273	4264.1375
2608.32498	4235.0375
2610.99557	4243.0375
2613.66449	4239.5375
2616.33175	4237.0375
2618.99734	4237.4375
2621.66128	4228.8375
2624.32355	4232.6375
2626.98416	4236.9375
2629.64311	4238.1375
2632.30041	4227.1375
2634.95605	4223.9375
2637.61004	4214.1375
2640.26238	4211.3375
2642.91306	4200.6375
2645.56209	4230.7375
2648.20948	4264.7375
2650.85521	4236.3375
2653.4993	4189.8375
2656.14175	4202.1375
2658.78255	4208.1375
2661.42171	4190.4375
2664.05923	4197.1375
2666.6951	4181.9375
2669.32934	4195.3375
2671.96194	4194.1375
2674.59291	4186.0375
2677.22224	4198.5375
2679.84993	4202.4375
2682.476	4204.0375
2685.10043	4186.7375
2687.72324	4198.7375
2690.34441	4191.7375
2692.96396	4198.8375
2695.58188	4203.7375
2698.19818	4212.6375
2700.81285	4246.8375
2703.4259	4592.3375
2706.03733	5270.6375
2708.64714	4797.5375
2711.25533	4508.7375
2713.86191	4407.2375
2716.46687	4358.2375
2719.07021	4301.9375
2721.67194	4240.8375
2724.27206	4226.9375
2726.87057	4219.4375
2729.46747	4196.5375
2732.06276	4199.0375
2734.65644	4213.2375
2737.24852	4216.4375
2739.83899	4189.0375
2742.42786	4200.6375
2745.01513	4181.5375
2747.60079	4169.2375
2750.18486	4195.3375
2752.76733	4188.3375
2755.3482	4196.4375
2757.92747	4195.7375
2760.50515	4167.8375
2763.08123	4166.2375
2765.65573	4148.8375
2768.22863	4174.6375
2770.79994	4170.9375
2773.36967	4152.5375
2775.9378	4150.2375
2778.50435	4155.7375
2781.06932	4138.8375
2783.6327	4136.8375
2786.1945	4137.1375
2788.75471	4124.9375
2791.31335	4125.2375
2793.87041	4111.2375
2796.42589	4099.8375
2798.97979	4102.1375
2801.53212	4107.5375
2804.08288	4095.0375
2806.63206	4088.1375
2809.17967	4083.0375
2811.72571	4067.7375
2814.27018	4063.9375
2816.81308	4053.2375
2819.35442	4055.1375
2821.89419	4035.5375
2824.43239	4050.7375
2826.96904	4048.3375
2829.50412	4036.5375
2832.03763	4030.9375
2834.56959	4020.7375
2837.1	4023.8375
2839.62884	4026.9375
2842.15613	4028.8375
2844.68186	4045.8375
2847.20604	4020.1375
2849.72867	4021.4375
2852.24974	4035.6375
2854.76927	4178.8375
2857.28724	4330.9375
2859.80367	4178.0375
2862.31855	4099.2375
2864.83189	4092.1375
2867.34368	4057.8375
2869.85393	4042.8375
2872.36264	4018.3375
2874.8698	4010.9375
2877.37543	4011.0375
2879.87952	4002.3375
2882.38207	4004.8375
2884.88308	4010.2375
2887.38256	4006.7375
2889.88051	3997.9375
2892.37692	3993.9375
2894.8718	3985.0375
2897.36515	3984.1375
2899.85698	3983.6375
2902.34727	4004.7375
2904.83604	3981.5375
2907.32328	4008.4375
2909.809	3997.9375
2912.29319	4004.0375
2914.77587	3991.3375
2917.25702	3991.3375
2919.73665	3991.7375
2922.21476	3994.3375
2924.69136	4005.8375
2927.16644	3978.2375
2929.64	3988.6375
2932.11205	3997.9375
2934.58258	3979.0375
2937.05161	3993.0375
2939.51912	3991.7375
2941.98513	3976.8375
2944.44962	3964.5375
2946.91261	3961.6375
2949.37409	3979.1375
2951.83407	3969.6375
2954.29254	3973.8375
2956.74951	3956.4375
2959.20498	3959.5375
2961.65895	3954.4375
2964.11142	3955.7375
2966.56239	3935.6375
2969.01186	3938.0375
2971.45984	3930.2375
2973.90632	3938.7375
2976.35131	3919.3375
2978.7948	3921.9375
2981.23681	3912.3375
2983.67732	3903.1375
2986.11635	3909.9375
2988.55388	3900.3375
2990.98993	3895.2375
2993.4245	3888.7375
2995.85758	3892.3375
2998.28917	3874.4375
3000.71928	3868.8375
3003.14791	3854.2375
3005.57506	3846.6375
3008.00073	3852.7375
3010.42493	3839.4375
3012.84764	3843.6375
3015.26888	3825.1375
3017.68865	3828.1375
3020.10694	3827.4375
3022.52376	3822.4375
3024.9391	3833.9375
3027.35298	3815.5375
3029.76539	3821.7375
3032.17632	3812.4375
3034.5858	3811.2375
3036.9938	3798.5375
3039.40034	3800.1375
3041.80542	3795.2375
3044.20903	3795.8375
3046.61118	3786.5375
3049.01187	3781.4375
3051.4111	3780.5375
3053.80888	3765.7375
3056.20519	3766.2375
3058.60005	3758.6375
3060.99345	3738.2375
3063.3854	3745.2375
3065.7759	3732.2375
3068.16494	3735.8375
3070.55254	3724.0375
3072.93868	3725.1375
3075.32338	3693.6375
3077.70662	3717.6375
3080.08842	3696.9375
3082.46878	3697.7375
3084.84769	3681.1375
3087.22515	3683.4375
3089.60118	3686.2375
3091.97576	3696.7375
3094.3489	3694.1375
3096.72061	3686.1375
3099.09087	3682.2375
3101.4597	3679.7375
3103.82709	3665.1375
3106.19305	3675.7375
3108.55757	3673.8375
3110.92066	3662.5375
3113.28232	3669.1375
3115.64255	3658.2375
3118.00134	3644.4375
3120.35871	3643.9375
3122.71466	3644.3375
