Data from AgNP_FTO_APTES_CRN_200uM_R6G_10uM_NaF_0.1M_Addition_RamanShift__2__19-19-18-160.txt Node

Date: Wed Dec 15 19:19:18 GMT 2021
User: TCL
Spectrometer: QEP01345
Trigger mode: 4
Integration Time (sec): 7.000000E0
Scans to average: 10
Electric dark correction enabled: true
Nonlinearity correction enabled: false
Boxcar width: 0
XAxis mode: Raman Shifts
Number of Pixels in Spectrum: 1044
>>>>>Begin Spectral Data<<<<<
46.04893	1.875
50.45542	-3.025
54.85868	-2.025
59.25871	-0.725
63.6555	60.575
68.04907	65.375
72.43941	64.175
76.82654	71.875
81.21044	71.675
85.59113	75.575
89.96862	80.375
94.34289	81.075
98.71396	85.975
103.08183	92.575
107.4465	91.575
111.80798	91.075
116.16626	95.175
120.52136	101.575
124.87327	100.575
129.222	104.275
133.56755	104.175
137.90993	114.675
142.24913	121.775
146.58517	132.575
150.91804	155.075
155.24774	180.675
159.57429	222.875
163.89768	280.975
168.21792	362.175
172.53501	484.075
176.84895	679.375
181.15975	952.775
185.46741	1330.675
189.77193	1832.575
194.07331	2452.575
198.37157	3153.675
202.6667	3906.075
206.9587	4637.075
211.24758	5358.775
215.53334	6082.075
219.81599	6827.975
224.09553	7648.075
228.37195	8573.275
232.64527	9601.675
236.91549	10654.375
241.18261	11765.075
245.44663	12825.775
249.70755	13721.675
253.96539	14583.975
258.22014	15270.675
262.4718	15814.975
266.72039	16175.075
270.96589	16397.375
275.20832	16385.375
279.44768	16280.275
283.68397	16067.175
287.91719	15919.475
292.14735	15772.775
296.37445	15713.175
300.59849	15716.775
304.81948	15716.975
309.03742	15671.175
313.25231	15630.875
317.46415	15394.675
321.67296	15121.275
325.87872	14862.875
330.08145	14732.075
334.28114	14728.575
338.47781	14791.275
342.67145	14994.175
346.86207	15203.875
351.04966	15447.675
355.23424	15696.475
359.4158	15895.875
363.59435	16000.975
367.76989	16105.675
371.94243	16173.075
376.11196	16198.375
380.27849	16288.775
384.44203	16386.475
388.60257	16513.475
392.76012	16668.575
396.91468	16910.075
401.06626	17132.775
405.21485	17304.275
409.36047	17321.875
413.50311	17166.675
417.64277	17008.775
421.77947	16978.275
425.9132	16971.975
430.04396	17064.775
434.17176	17174.175
438.2966	17266.975
442.41849	17490.975
446.53742	17830.575
450.6534	18207.675
454.76644	18459.575
458.87653	18523.175
462.98368	18441.675
467.08789	18339.575
471.18916	18242.275
475.2875	18143.175
479.38291	18114.375
483.4754	18015.775
487.56496	17838.075
491.6516	17614.375
495.73531	17465.675
499.81612	17373.175
503.89401	17450.275
507.96899	17488.675
512.04106	17507.575
516.11023	17537.775
520.1765	17495.775
524.23987	17440.975
528.30034	17366.875
532.35792	17259.975
536.41261	17058.475
540.46441	16963.775
544.51333	16910.275
548.55936	17058.075
552.60252	17336.375
556.64279	17692.175
560.6802	17862.575
564.71473	17946.775
568.7464	18050.775
572.7752	18357.575
576.80114	18651.375
580.82422	19011.275
584.84444	19501.675
588.86181	20041.375
592.87633	20428.575
596.888	20414.775
600.89682	19966.775
604.9028	19911.475
608.90594	20861.475
612.90624	21985.575
616.90371	20942.675
620.89834	18456.175
624.89015	17329.975
628.87913	17209.575
632.86528	17288.575
636.84862	17280.275
640.82913	17174.875
644.80683	16910.675
648.78172	16724.775
652.75379	16685.275
656.72306	16792.175
660.68952	16955.775
664.65319	16888.175
668.61405	16739.775
672.57211	16698.875
676.52738	16797.775
680.47986	16818.275
684.42955	16756.275
688.37646	16674.375
692.32058	16736.875
696.26192	16853.075
700.20048	17075.475
704.13626	17195.475
708.06928	17198.075
711.99952	17186.175
715.927	17223.775
719.85171	17214.075
723.77365	17140.475
727.69284	16986.075
731.60928	16809.675
735.52295	16756.375
739.43388	16749.375
743.34206	16811.875
747.24749	16849.475
751.15017	16979.475
755.05012	17153.175
758.94733	17524.075
762.8418	18125.275
766.73354	19129.475
770.62254	20069.075
774.50882	20280.675
778.39237	19612.175
782.27321	18573.775
786.15132	17698.375
790.02671	17121.875
793.89938	16877.975
797.76935	16773.475
801.6366	16759.375
805.50115	16717.075
809.36299	16674.075
813.22213	16605.075
817.07857	16597.275
820.93231	16552.775
824.78336	16558.675
828.63172	16531.975
832.47738	16579.675
836.32036	16604.175
840.16066	16645.375
843.99827	16636.375
847.8332	16575.575
851.66546	16499.275
855.49504	16475.975
859.32195	16508.375
863.1462	16462.975
866.96777	16457.075
870.78668	16438.675
874.60293	16460.775
878.41652	16461.975
882.22745	16502.675
886.03573	16564.375
889.84136	16539.375
893.64433	16539.775
897.44466	16475.075
901.24235	16419.975
905.0374	16364.775
908.8298	16392.675
912.61957	16416.975
916.40671	16529.075
920.19121	16641.175
923.97308	16777.175
927.75233	16855.675
931.52895	16802.475
935.30295	16637.675
939.07433	16428.075
942.84309	16200.475
946.60924	16070.575
950.37278	16058.775
954.13371	15966.975
957.89203	15966.275
961.64774	15962.775
965.40086	15951.375
969.15137	15909.275
972.89929	15872.875
976.64461	15845.375
980.38733	15852.875
984.12747	15910.075
987.86502	15939.375
991.59999	16078.175
995.33237	16193.975
999.06217	16463.375
1002.78939	16754.975
1006.51404	16908.975
1010.23611	17079.675
1013.95561	17203.775
1017.67255	17231.675
1021.38692	17102.875
1025.09872	16969.475
1028.80796	16962.775
1032.51465	17137.275
1036.21877	17351.275
1039.92035	17456.275
1043.61937	17460.575
1047.31584	17372.775
1051.00976	17251.775
1054.70114	17273.175
1058.38998	17410.175
1062.07627	17665.775
1065.76003	18008.375
1069.44126	18409.075
1073.11995	18859.875
1076.79611	18996.075
1080.46974	18851.175
1084.14085	18577.975
1087.80943	18333.575
1091.47549	18254.075
1095.13903	18123.075
1098.80005	17927.475
1102.45857	17589.675
1106.11456	17313.975
1109.76805	17171.275
1113.41903	17157.975
1117.06751	17232.175
1120.71348	17393.475
1124.35696	17530.875
1127.99793	17783.575
1131.63641	17934.975
1135.2724	17821.075
1138.90589	17715.775
1142.5369	17638.375
1146.16542	17609.875
1149.79145	17719.475
1153.415	17785.375
1157.03607	17908.475
1160.65467	18217.375
1164.27079	18769.875
1167.88443	19526.375
1171.49561	20424.375
1175.10432	21637.175
1178.71056	23081.175
1182.31434	24393.175
1185.91565	24927.875
1189.51451	24689.575
1193.11091	24000.175
1196.70485	23110.175
1200.29634	22294.775
1203.88538	21699.975
1207.47197	21304.975
1211.05612	21032.875
1214.63782	20723.975
1218.21708	20357.575
1221.79391	20057.675
1225.36829	19857.975
1228.94024	19700.675
1232.50976	19471.575
1236.07685	19313.875
1239.6415	19191.675
1243.20374	19140.175
1246.76355	19277.175
1250.32093	19533.175
1253.8759	19830.175
1257.42845	20222.375
1260.97859	20629.875
1264.52631	21032.775
1268.07163	21439.675
1271.61453	21950.375
1275.15503	22394.975
1278.69312	22916.975
1282.22882	23417.775
1285.76211	23958.575
1289.29301	24662.875
1292.82151	25501.675
1296.34761	26520.575
1299.87133	27709.375
1303.39266	28947.675
1306.9116	30265.975
1310.42815	31421.175
1313.94233	31971.075
1317.45412	31821.475
1320.96354	31203.975
1324.47058	30564.075
1327.97525	29979.075
1331.47754	29537.875
1334.97747	29226.175
1338.47502	29013.675
1341.97022	28779.875
1345.46305	28593.275
1348.95352	28599.775
1352.44163	28925.075
1355.92738	29770.475
1359.41078	30963.375
1362.89183	32001.575
1366.37053	31620.775
1369.84688	29555.275
1373.32088	26926.875
1376.79254	24989.675
1380.26186	24135.975
1383.72883	23859.675
1387.19347	23654.475
1390.65578	23328.875
1394.11575	23234.275
1397.57339	23335.475
1401.0287	23545.775
1404.48168	23687.875
1407.93234	23638.075
1411.38068	23247.875
1414.82669	22754.975
1418.27039	22047.575
1421.71177	21368.575
1425.15083	20839.675
1428.58758	20475.675
1432.02203	20572.475
1435.45416	20881.575
1438.88399	21244.375
1442.31151	21488.575
1445.73673	21693.475
1449.15965	21857.175
1452.58027	21998.775
1455.9986	22080.475
1459.41463	22191.475
1462.82837	22525.275
1466.23982	22886.775
1469.64898	23215.275
1473.05586	23462.875
1476.46045	23642.775
1479.86276	23634.175
1483.26279	23610.375
1486.66054	23690.175
1490.05602	23884.475
1493.44922	24237.375
1496.84016	24630.575
1500.22882	25192.275
1503.61521	25962.875
1506.99934	26863.575
1510.38121	27462.575
1513.76081	27478.475
1517.13816	26825.175
1520.51324	25826.675
1523.88607	24940.875
1527.25665	24482.275
1530.62498	24195.675
1533.99105	24028.275
1537.35488	23842.975
1540.71647	23503.775
1544.07581	23058.175
1547.4329	22593.175
1550.78776	22220.475
1554.14038	21969.875
1557.49077	21862.975
1560.83892	21829.575
1564.18484	21953.375
1567.52853	22244.875
1570.86999	22709.875
1574.20922	23345.275
1577.54624	24022.075
1580.88103	24274.975
1584.2136	24192.475
1587.54395	24080.975
1590.87208	24251.975
1594.19801	24862.875
1597.52172	25715.075
1600.84321	26054.475
1604.16251	25385.775
1607.47959	23955.675
1610.79447	22392.375
1614.10715	20900.775
1617.41763	19718.575
1620.7259	18878.675
1624.03199	18470.275
1627.33587	18424.075
1630.63757	18725.375
1633.93707	19455.975
1637.23439	20731.375
1640.52951	22636.975
1643.82246	25071.775
1647.11321	27197.475
1650.40179	27899.075
1653.68819	26679.675
1656.97241	24081.075
1660.25446	21391.275
1663.53433	19337.975
1666.81203	17953.875
1670.08756	17041.775
1673.36092	16504.375
1676.63211	16097.575
1679.90115	15859.075
1683.16801	15636.675
1686.43272	15495.175
1689.69527	15420.575
1692.95567	15363.675
1696.2139	15313.375
1699.46999	15316.975
1702.72392	15277.575
1705.97571	15233.975
1709.22535	15176.475
1712.47284	15157.175
1715.71819	15130.675
1718.96139	15128.575
1722.20246	15086.375
1725.44139	15033.275
1728.67818	14992.875
1731.91284	14925.075
1735.14537	14863.475
1738.37576	14860.275
1741.60403	14798.175
1744.83017	14754.175
1748.05418	14726.075
1751.27607	14744.375
1754.49584	14726.275
1757.71349	14735.175
1760.92903	14734.175
1764.14244	14722.675
1767.35375	14712.975
1770.56294	14685.075
1773.77002	14683.675
1776.97499	14625.475
1780.17785	14604.975
1783.37861	14587.175
1786.57727	14552.675
1789.77382	14522.575
1792.96828	14522.375
1796.16064	14491.275
1799.3509	14474.275
1802.53907	14439.275
1805.72514	14393.475
1808.90913	14362.975
1812.09102	14363.175
1815.27083	14345.975
1818.44856	14334.575
1821.6242	14267.075
1824.79776	14294.375
1827.96924	14264.775
1831.13864	14267.475
1834.30597	14283.775
1837.47122	14245.775
1840.6344	14255.075
1843.7955	14285.575
1846.95454	14258.875
1850.11151	14213.775
1853.26642	14249.275
1856.41926	14245.275
1859.57004	14254.975
1862.71876	14176.375
1865.86542	14211.175
1869.01003	14182.875
1872.15258	14207.275
1875.29308	14211.275
1878.43152	14168.475
1881.56792	14142.875
1884.70227	14106.275
1887.83457	14146.675
1890.96482	14089.875
1894.09304	14083.575
1897.21921	14080.975
1900.34335	14059.475
1903.46544	14040.675
1906.58551	14040.875
1909.70353	14009.775
1912.81953	13996.975
1915.93349	13992.675
1919.04543	13920.775
1922.15534	13924.375
1925.26322	13925.875
1928.36908	13889.575
1931.47292	13874.575
1934.57473	13849.675
1937.67453	13847.075
1940.77232	13773.275
1943.86808	13771.075
1946.96184	13752.375
1950.05358	13722.575
1953.14331	13671.675
1956.23103	13607.175
1959.31675	13602.875
1962.40046	13570.575
1965.48217	13530.175
1968.56188	13509.675
1971.63959	13494.475
1974.7153	13427.275
1977.78901	13384.075
1980.86073	13318.375
1983.93046	13305.575
1986.99819	13301.375
1990.06394	13259.575
1993.1277	13209.475
1996.18947	13196.775
1999.24925	13124.975
2002.30706	13107.875
2005.36288	13070.175
2008.41672	13038.275
2011.46859	13012.975
2014.51848	13005.975
2017.56639	12954.575
2020.61233	12913.575
2023.6563	12903.775
2026.6983	12888.075
2029.73833	12881.675
2032.7764	12839.275
2035.8125	12816.675
2038.84664	12791.575
2041.87881	12773.975
2044.90903	12747.975
2047.93729	12719.675
2050.96359	12722.675
2053.98794	12686.075
2057.01034	12703.075
2060.03078	12678.575
2063.04927	12668.175
2066.06582	12681.975
2069.08042	12660.675
2072.09307	12656.975
2075.10378	12648.075
2078.11255	12619.475
2081.11938	12644.575
2084.12426	12645.575
2087.12722	12665.375
2090.12824	12633.975
2093.12732	12669.675
2096.12447	12661.575
2099.11969	12667.675
2102.11299	12673.175
2105.10435	12680.775
2108.09379	12694.375
2111.08131	12686.475
2114.0669	12691.175
2117.05057	12711.375
2120.03233	12703.675
2123.01216	12751.875
2125.99008	12743.475
2128.96609	12757.575
2131.94018	12782.775
2134.91236	12767.375
2137.88263	12792.875
2140.851	12794.875
2143.81746	12826.475
2146.78201	12816.675
2149.74466	12807.575
2152.7054	12839.275
2155.66425	12810.975
2158.6212	12853.475
2161.57625	12837.175
2164.52941	12811.775
2167.48067	12820.575
2170.43004	12808.875
2173.37752	12822.275
2176.32311	12822.475
2179.26681	12841.575
2182.20863	12812.475
2185.14856	12813.175
2188.08661	12831.175
2191.02278	12818.575
2193.95707	12815.375
2196.88948	12814.875
2199.82001	12797.975
2202.74867	12802.775
2205.67545	12783.075
2208.60037	12823.475
2211.52341	12784.375
2214.44458	12774.575
2217.36388	12738.475
2220.28132	12682.075
2223.1969	12690.475
2226.11061	12678.375
2229.02246	12653.075
2231.93245	12643.175
2234.84058	12611.775
2237.74686	12625.075
2240.65128	12602.275
2243.55385	12596.775
2246.45456	12573.175
2249.35343	12565.975
2252.25044	12568.675
2255.14561	12506.675
2258.03893	12505.775
2260.93041	12480.575
2263.82004	12468.675
2266.70783	12439.375
2269.59378	12403.275
2272.4779	12375.375
2275.36017	12369.775
2278.24061	12326.875
2281.11922	12307.175
2283.996	12309.575
2286.87094	12278.075
2289.74405	12264.375
2292.61534	12260.175
2295.4848	12249.775
2298.35243	12292.075
2301.21824	12242.775
2304.08223	12254.975
2306.94439	12243.375
2309.80474	12236.775
2312.66327	12272.775
2315.51999	12264.775
2318.37489	12245.175
2321.22797	12204.675
2324.07925	12203.175
2326.92871	12178.275
2329.77637	12198.575
2332.62222	12167.175
2335.46626	12162.975
2338.3085	12140.675
2341.14893	12122.775
2343.98756	12137.575
2346.8244	12104.375
2349.65943	12098.975
2352.49267	12132.875
2355.32411	12092.675
2358.15376	12118.675
2360.98161	12095.175
2363.80768	12078.675
2366.63195	12077.275
2369.45444	12054.975
2372.27514	12078.475
2375.09405	12051.375
2377.91118	12038.575
2380.72652	11999.875
2383.54009	11976.175
2386.35187	11964.975
2389.16188	11919.475
2391.97011	11924.575
2394.77657	11920.875
2397.58125	11879.275
2400.38416	11873.675
2403.18529	11835.975
2405.98466	11851.875
2408.78226	11822.875
2411.57809	11835.575
2414.37216	11797.275
2417.16446	11807.975
2419.955	11771.675
2422.74378	11750.675
2425.5308	11743.975
2428.31606	11744.475
2431.09956	11758.375
2433.88131	11718.575
2436.6613	11745.875
2439.43954	11728.675
2442.21603	11732.175
2444.99077	11722.575
2447.76377	11728.975
2450.53501	11720.275
2453.30451	11705.875
2456.07226	11673.175
2458.83827	11668.875
2461.60254	11680.275
2464.36507	11679.175
2467.12586	11685.875
2469.88492	11639.375
2472.64224	11652.375
2475.39782	11644.475
2478.15167	11669.575
2480.90379	11647.775
2483.65417	11643.675
2486.40283	11642.375
2489.14976	11653.275
2491.89497	11642.675
2494.63845	11657.675
2497.3802	11624.875
2500.12024	11621.175
2502.85855	11594.975
2505.59514	11599.775
2508.33002	11611.075
2511.06318	11616.075
2513.79462	11562.375
2516.52435	11571.875
2519.25237	11573.475
2521.97867	11536.875
2524.70327	11548.775
2527.42616	11521.675
2530.14734	11516.175
2532.86681	11506.475
2535.58458	11489.875
2538.30065	11494.075
2541.01501	11483.475
2543.72768	11465.075
2546.43864	11452.175
2549.14791	11450.475
2551.85548	11439.375
2554.56136	11415.275
2557.26554	11376.775
2559.96803	11344.875
2562.66883	11361.075
2565.36794	11362.275
2568.06536	11361.575
2570.7611	11355.275
2573.45514	11366.575
2576.14751	11329.975
2578.83819	11334.075
2581.52719	11312.575
2584.21451	11281.175
2586.90015	11322.475
2589.58411	11262.975
2592.2664	11262.275
2594.94701	11210.775
2597.62594	11233.575
2600.30321	11205.675
2602.9788	11185.575
2605.65273	11181.275
2608.32498	11153.675
2610.99557	11168.675
2613.66449	11154.575
2616.33175	11136.875
2618.99734	11107.875
2621.66128	11104.375
2624.32355	11117.275
2626.98416	11093.875
2629.64311	11100.475
2632.30041	11090.675
2634.95605	11078.975
2637.61004	11060.375
2640.26238	11059.975
2642.91306	11035.175
2645.56209	11031.275
2648.20948	11049.875
2650.85521	11030.475
2653.4993	11052.675
2656.14175	11005.075
2658.78255	11027.275
2661.42171	11023.275
2664.05923	11041.275
2666.6951	11046.075
2669.32934	11046.975
2671.96194	11052.675
2674.59291	11025.675
2677.22224	11067.875
2679.84993	11067.775
2682.476	11046.875
2685.10043	11051.775
2687.72324	11032.975
2690.34441	11051.875
2692.96396	11047.275
2695.58188	11035.675
2698.19818	11040.775
2700.81285	11063.875
2703.4259	11050.175
2706.03733	11122.575
2708.64714	11099.575
2711.25533	11098.975
2713.86191	11101.675
2716.46687	11101.775
2719.07021	11068.575
2721.67194	11113.575
2724.27206	11077.375
2726.87057	11083.175
2729.46747	11085.875
2732.06276	11094.975
2734.65644	11059.375
2737.24852	11073.575
2739.83899	11065.975
2742.42786	11063.775
2745.01513	11037.175
2747.60079	11051.675
2750.18486	11038.875
2752.76733	11040.475
2755.3482	11020.275
2757.92747	11045.075
2760.50515	11043.475
2763.08123	11001.175
2765.65573	11012.075
2768.22863	10997.075
2770.79994	10969.075
2773.36967	10959.575
2775.9378	10979.775
2778.50435	10974.675
2781.06932	10948.875
2783.6327	10955.475
2786.1945	10930.075
2788.75471	10947.175
2791.31335	10904.975
2793.87041	10903.975
2796.42589	10839.175
2798.97979	10847.675
2801.53212	10857.975
2804.08288	10851.675
2806.63206	10818.275
2809.17967	10778.475
2811.72571	10768.575
2814.27018	10769.775
2816.81308	10765.175
2819.35442	10721.975
2821.89419	10723.575
2824.43239	10737.475
2826.96904	10697.375
2829.50412	10717.075
2832.03763	10691.175
2834.56959	10682.475
2837.1	10669.075
2839.62884	10685.375
2842.15613	10688.675
2844.68186	10717.875
2847.20604	10697.975
2849.72867	10746.575
2852.24974	10694.775
2854.76927	10715.975
2857.28724	10727.175
2859.80367	10719.875
2862.31855	10684.675
2864.83189	10677.175
2867.34368	10661.675
2869.85393	10660.875
2872.36264	10631.275
2874.8698	10664.875
2877.37543	10652.675
2879.87952	10671.575
2882.38207	10667.275
2884.88308	10640.275
2887.38256	10667.075
2889.88051	10664.875
2892.37692	10655.475
2894.8718	10667.575
2897.36515	10676.775
2899.85698	10675.975
2902.34727	10706.475
2904.83604	10718.675
2907.32328	10705.075
2909.809	10710.675
2912.29319	10722.375
2914.77587	10731.475
2917.25702	10687.075
2919.73665	10686.575
2922.21476	10722.875
2924.69136	10686.475
2927.16644	10673.275
2929.64	10656.275
2932.11205	10677.675
2934.58258	10658.975
2937.05161	10689.775
2939.51912	10687.375
2941.98513	10672.175
2944.44962	10648.175
2946.91261	10629.675
2949.37409	10627.975
2951.83407	10611.975
2954.29254	10630.875
2956.74951	10585.975
2959.20498	10584.575
2961.65895	10579.275
2964.11142	10573.475
2966.56239	10542.675
2969.01186	10573.575
2971.45984	10530.275
2973.90632	10521.775
2976.35131	10469.075
2978.7948	10472.675
2981.23681	10456.975
2983.67732	10442.575
2986.11635	10416.175
2988.55388	10404.575
2990.98993	10399.575
2993.4245	10366.075
2995.85758	10350.875
2998.28917	10328.375
3000.71928	10311.275
3003.14791	10320.075
3005.57506	10321.875
3008.00073	10294.975
3010.42493	10298.675
3012.84764	10272.475
3015.26888	10263.075
3017.68865	10253.075
3020.10694	10253.975
3022.52376	10222.675
3024.9391	10202.975
3027.35298	10185.975
3029.76539	10189.075
3032.17632	10172.775
3034.5858	10178.875
3036.9938	10171.075
3039.40034	10148.775
3041.80542	10157.875
3044.20903	10136.275
3046.61118	10141.075
3049.01187	10103.375
3051.4111	10110.975
3053.80888	10101.475
3056.20519	10075.275
3058.60005	10057.475
3060.99345	10049.875
3063.3854	10037.175
3065.7759	10018.775
3068.16494	10020.175
3070.55254	9995.075
3072.93868	9997.575
3075.32338	9958.775
3077.70662	9969.875
3080.08842	9914.075
3082.46878	9943.475
3084.84769	9920.375
3087.22515	9910.475
3089.60118	9926.975
3091.97576	9951.075
3094.3489	9946.775
3096.72061	9925.075
3099.09087	9952.875
3101.4597	9938.475
3103.82709	9922.875
3106.19305	9922.075
3108.55757	9893.575
3110.92066	9879.075
3113.28232	9879.175
3115.64255	9847.075
3118.00134	9837.475
3120.35871	9840.175
3122.71466	9819.475
3125.06917	9809.675
3127.42226	9811.475
3129.77393	9792.375
3132.12417	9805.275
