Data from AgNP_FTO_APTES_CRN_20uM_R6G_10uM_NaF_0.1M_Addition_RamanShift__14__17-16-48-022.txt Node

Date: Wed Dec 15 17:16:48 GMT 2021
User: TCL
Spectrometer: QEP01345
Trigger mode: 4
Integration Time (sec): 7.000000E0
Scans to average: 10
Electric dark correction enabled: true
Nonlinearity correction enabled: false
Boxcar width: 0
XAxis mode: Raman Shifts
Number of Pixels in Spectrum: 1044
>>>>>Begin Spectral Data<<<<<
46.04893	0.625
50.45542	-2.275
54.85868	-0.175
59.25871	-0.175
63.6555	59.525
68.04907	64.225
72.43941	68.625
76.82654	73.225
81.21044	72.725
85.59113	74.425
89.96862	82.025
94.34289	82.025
98.71396	85.725
103.08183	90.325
107.4465	90.925
111.80798	91.025
116.16626	95.425
120.52136	98.825
124.87327	99.825
129.222	102.425
133.56755	106.025
137.90993	117.825
142.24913	123.025
146.58517	137.625
150.91804	150.625
155.24774	180.725
159.57429	222.225
163.89768	270.525
168.21792	354.125
172.53501	479.225
176.84895	667.725
181.15975	932.025
185.46741	1314.125
189.77193	1805.425
194.07331	2430.225
198.37157	3127.225
202.6667	3888.025
206.9587	4652.125
211.24758	5383.625
215.53334	6102.725
219.81599	6856.025
224.09553	7684.125
228.37195	8592.125
232.64527	9625.525
236.91549	10737.125
241.18261	11850.225
245.44663	12917.525
249.70755	13879.225
253.96539	14707.625
258.22014	15432.425
262.4718	15976.925
266.72039	16310.425
270.96589	16532.525
275.20832	16545.025
279.44768	16510.025
283.68397	16376.525
287.91719	16286.425
292.14735	16208.225
296.37445	16155.625
300.59849	16135.525
304.81948	16109.925
309.03742	16013.725
313.25231	15904.225
317.46415	15680.425
321.67296	15386.725
325.87872	15135.525
330.08145	14971.825
334.28114	15020.825
338.47781	15118.325
342.67145	15308.525
346.86207	15468.325
351.04966	15640.725
355.23424	15890.325
359.4158	16019.925
363.59435	16162.625
367.76989	16266.325
371.94243	16321.625
376.11196	16380.725
380.27849	16402.725
384.44203	16457.125
388.60257	16556.925
392.76012	16732.225
396.91468	16962.925
401.06626	17167.225
405.21485	17373.925
409.36047	17404.525
413.50311	17294.125
417.64277	17149.625
421.77947	17115.725
425.9132	17188.125
430.04396	17309.725
434.17176	17399.625
438.2966	17468.325
442.41849	17569.125
446.53742	17782.325
450.6534	18002.125
454.76644	18194.425
458.87653	18324.225
462.98368	18342.325
467.08789	18309.625
471.18916	18247.825
475.2875	18127.125
479.38291	18014.125
483.4754	17945.625
487.56496	17866.625
491.6516	17730.325
495.73531	17671.925
499.81612	17621.925
503.89401	17712.325
507.96899	17777.425
512.04106	17817.825
516.11023	17803.525
520.1765	17762.925
524.23987	17647.225
528.30034	17539.625
532.35792	17439.225
536.41261	17317.625
540.46441	17225.525
544.51333	17270.825
548.55936	17393.725
552.60252	17639.825
556.64279	17886.925
560.6802	18032.625
564.71473	18072.525
568.7464	18178.225
572.7752	18490.325
576.80114	18858.825
580.82422	19297.825
584.84444	19700.225
588.86181	19844.125
592.87633	19776.725
596.888	19608.125
600.89682	19510.325
604.9028	19717.225
608.90594	20561.325
612.90624	21393.225
616.90371	20574.725
620.89834	18552.125
624.89015	17648.425
628.87913	17539.125
632.86528	17704.125
636.84862	17793.025
640.82913	17681.625
644.80683	17414.925
648.78172	17241.425
652.75379	17168.625
656.72306	17239.525
660.68952	17411.525
664.65319	17405.625
668.61405	17335.125
672.57211	17298.725
676.52738	17332.525
680.47986	17311.025
684.42955	17245.125
688.37646	17224.525
692.32058	17298.025
696.26192	17402.325
700.20048	17560.725
704.13626	17697.125
708.06928	17761.825
711.99952	17705.525
715.927	17662.725
719.85171	17592.725
723.77365	17519.125
727.69284	17401.425
731.60928	17229.025
735.52295	17188.825
739.43388	17133.125
743.34206	17143.825
747.24749	17221.325
751.15017	17298.225
755.05012	17465.625
758.94733	17787.925
762.8418	18399.625
766.73354	19301.425
770.62254	20160.625
774.50882	20243.825
778.39237	19589.725
782.27321	18742.025
786.15132	17986.125
790.02671	17479.125
793.89938	17230.825
797.76935	17120.125
801.6366	17058.425
805.50115	16990.525
809.36299	16956.925
813.22213	16873.325
817.07857	16862.525
820.93231	16852.225
824.78336	16893.225
828.63172	16879.625
832.47738	16877.525
836.32036	16846.325
840.16066	16866.025
843.99827	16820.225
847.8332	16805.425
851.66546	16795.625
855.49504	16803.925
859.32195	16796.325
863.1462	16778.825
866.96777	16782.825
870.78668	16770.525
874.60293	16818.625
878.41652	16821.625
882.22745	16865.425
886.03573	16890.725
889.84136	16919.325
893.64433	16889.525
897.44466	16834.825
901.24235	16808.925
905.0374	16800.825
908.8298	16790.425
912.61957	16831.425
916.40671	16923.325
920.19121	17052.725
923.97308	17115.625
927.75233	17083.125
931.52895	17007.825
935.30295	16848.325
939.07433	16655.925
942.84309	16517.525
946.60924	16471.425
950.37278	16370.225
954.13371	16342.125
957.89203	16331.225
961.64774	16304.625
965.40086	16299.625
969.15137	16275.725
972.89929	16189.725
976.64461	16175.125
980.38733	16118.925
984.12747	16186.025
987.86502	16213.925
991.59999	16237.425
995.33237	16268.025
999.06217	16401.225
1002.78939	16578.925
1006.51404	16739.925
1010.23611	16954.825
1013.95561	17068.525
1017.67255	17090.625
1021.38692	16984.325
1025.09872	16855.325
1028.80796	16722.325
1032.51465	16660.225
1036.21877	16672.325
1039.92035	16756.425
1043.61937	16839.025
1047.31584	16932.925
1051.00976	17007.825
1054.70114	17146.525
1058.38998	17328.225
1062.07627	17562.725
1065.76003	17909.025
1069.44126	18204.025
1073.11995	18502.925
1076.79611	18679.225
1080.46974	18660.625
1084.14085	18477.825
1087.80943	18379.325
1091.47549	18312.825
1095.13903	18276.925
1098.80005	18202.925
1102.45857	17924.725
1106.11456	17633.225
1109.76805	17419.925
1113.41903	17305.825
1117.06751	17329.725
1120.71348	17411.125
1124.35696	17566.125
1127.99793	17714.225
1131.63641	17776.825
1135.2724	17752.225
1138.90589	17658.025
1142.5369	17632.325
1146.16542	17650.425
1149.79145	17703.925
1153.415	17745.825
1157.03607	17864.025
1160.65467	18070.025
1164.27079	18449.625
1167.88443	18992.225
1171.49561	19560.525
1175.10432	20442.325
1178.71056	21383.325
1182.31434	22352.925
1185.91565	23006.225
1189.51451	23240.225
1193.11091	23160.325
1196.70485	22678.325
1200.29634	21982.325
1203.88538	21337.725
1207.47197	20849.525
1211.05612	20421.825
1214.63782	20138.025
1218.21708	19788.925
1221.79391	19477.525
1225.36829	19186.725
1228.94024	19065.725
1232.50976	19039.725
1236.07685	19034.925
1239.6415	19050.325
1243.20374	19070.925
1246.76355	19126.825
1250.32093	19297.325
1253.8759	19521.825
1257.42845	19835.825
1260.97859	20256.925
1264.52631	20565.625
1268.07163	20882.225
1271.61453	21187.625
1275.15503	21463.225
1278.69312	21753.325
1282.22882	22018.125
1285.76211	22356.425
1289.29301	22670.425
1292.82151	23130.625
1296.34761	23615.025
1299.87133	24244.225
1303.39266	24885.625
1306.9116	25611.325
1310.42815	26220.125
1313.94233	26565.025
1317.45412	26661.525
1320.96354	26543.325
1324.47058	26568.525
1327.97525	26606.625
1331.47754	26725.725
1334.97747	26929.825
1338.47502	27253.525
1341.97022	27697.325
1345.46305	28089.725
1348.95352	28287.325
1352.44163	28268.225
1355.92738	28127.525
1359.41078	28124.025
1362.89183	28155.425
1366.37053	27597.125
1369.84688	26245.625
1373.32088	24556.025
1376.79254	23307.925
1380.26186	22588.825
1383.72883	22259.925
1387.19347	22036.225
1390.65578	21765.425
1394.11575	21527.825
1397.57339	21324.425
1401.0287	21254.125
1404.48168	21246.925
1407.93234	21208.525
1411.38068	21025.125
1414.82669	20703.725
1418.27039	20231.425
1421.71177	19734.325
1425.15083	19358.525
1428.58758	19173.925
1432.02203	19177.725
1435.45416	19368.925
1438.88399	19563.625
1442.31151	19779.925
1445.73673	19973.725
1449.15965	20131.925
1452.58027	20312.925
1455.9986	20426.325
1459.41463	20625.025
1462.82837	20956.225
1466.23982	21318.825
1469.64898	21652.025
1473.05586	21909.425
1476.46045	22055.325
1479.86276	22125.325
1483.26279	22158.425
1486.66054	22260.925
1490.05602	22385.325
1493.44922	22714.925
1496.84016	23193.325
1500.22882	23913.025
1503.61521	24770.425
1506.99934	25634.225
1510.38121	26067.425
1513.76081	25981.625
1517.13816	25433.125
1520.51324	24739.425
1523.88607	24098.525
1527.25665	23693.625
1530.62498	23417.125
1533.99105	23222.625
1537.35488	22997.725
1540.71647	22599.525
1544.07581	22162.825
1547.4329	21759.825
1550.78776	21449.125
1554.14038	21204.125
1557.49077	21106.625
1560.83892	21177.525
1564.18484	21317.225
1567.52853	21477.225
1570.86999	21708.425
1574.20922	22011.725
1577.54624	22286.425
1580.88103	22316.225
1584.2136	22212.125
1587.54395	22039.125
1590.87208	22024.625
1594.19801	22266.025
1597.52172	22746.925
1600.84321	22867.625
1604.16251	22408.125
1607.47959	21677.125
1610.79447	20870.525
1614.10715	19920.225
1617.41763	19026.625
1620.7259	18361.225
1624.03199	17888.125
1627.33587	17749.325
1630.63757	17868.425
1633.93707	18303.525
1637.23439	19128.625
1640.52951	20417.925
1643.82246	21997.725
1647.11321	23482.125
1650.40179	24230.125
1653.68819	23683.825
1656.97241	22113.425
1660.25446	20259.725
1663.53433	18594.125
1666.81203	17409.925
1670.08756	16567.825
1673.36092	16031.525
1676.63211	15695.225
1679.90115	15424.925
1683.16801	15232.725
1686.43272	15119.025
1689.69527	15028.925
1692.95567	14931.925
1696.2139	14897.625
1699.46999	14891.325
1702.72392	14816.725
1705.97571	14824.325
1709.22535	14754.525
1712.47284	14724.825
1715.71819	14710.025
1718.96139	14670.225
1722.20246	14619.225
1725.44139	14571.525
1728.67818	14543.325
1731.91284	14460.625
1735.14537	14391.225
1738.37576	14351.825
1741.60403	14302.025
1744.83017	14280.125
1748.05418	14247.825
1751.27607	14217.325
1754.49584	14194.525
1757.71349	14198.425
1760.92903	14189.025
1764.14244	14203.425
1767.35375	14170.525
1770.56294	14167.525
1773.77002	14150.525
1776.97499	14135.225
1780.17785	14093.525
1783.37861	14075.625
1786.57727	14022.425
1789.77382	13983.825
1792.96828	13964.825
1796.16064	13955.625
1799.3509	13890.125
1802.53907	13866.325
1805.72514	13838.025
1808.90913	13847.125
1812.09102	13789.725
1815.27083	13728.725
1818.44856	13737.925
1821.6242	13723.025
1824.79776	13727.925
1827.96924	13690.225
1831.13864	13677.125
1834.30597	13699.725
1837.47122	13694.125
1840.6344	13682.825
1843.7955	13660.925
1846.95454	13663.925
1850.11151	13649.325
1853.26642	13635.425
1856.41926	13638.425
1859.57004	13614.725
1862.71876	13616.125
1865.86542	13585.525
1869.01003	13575.825
1872.15258	13556.725
1875.29308	13533.025
1878.43152	13459.525
1881.56792	13468.125
1884.70227	13454.325
1887.83457	13410.225
1890.96482	13392.125
1894.09304	13379.025
1897.21921	13392.625
1900.34335	13335.625
1903.46544	13338.825
1906.58551	13343.525
1909.70353	13273.925
1912.81953	13275.625
1915.93349	13245.225
1919.04543	13227.925
1922.15534	13176.925
1925.26322	13172.425
1928.36908	13156.025
1931.47292	13129.025
1934.57473	13081.625
1937.67453	13054.025
1940.77232	13046.225
1943.86808	12998.625
1946.96184	12965.825
1950.05358	12929.825
1953.14331	12907.725
1956.23103	12861.125
1959.31675	12848.525
1962.40046	12789.625
1965.48217	12751.925
1968.56188	12728.425
1971.63959	12682.825
1974.7153	12637.725
1977.78901	12602.725
1980.86073	12551.325
1983.93046	12502.025
1986.99819	12472.325
1990.06394	12454.925
1993.1277	12420.925
1996.18947	12345.925
1999.24925	12313.425
2002.30706	12295.025
2005.36288	12277.325
2008.41672	12220.125
2011.46859	12176.425
2014.51848	12154.625
2017.56639	12120.225
2020.61233	12092.625
2023.6563	12057.425
2026.6983	12009.325
2029.73833	12024.325
2032.7764	11975.225
2035.8125	11944.725
2038.84664	11890.825
2041.87881	11868.225
2044.90903	11844.725
2047.93729	11834.225
2050.96359	11822.925
2053.98794	11809.925
2057.01034	11792.425
2060.03078	11791.325
2063.04927	11761.725
2066.06582	11757.425
2069.08042	11763.525
2072.09307	11704.225
2075.10378	11718.125
2078.11255	11681.225
2081.11938	11708.425
2084.12426	11726.925
2087.12722	11727.125
2090.12824	11699.125
2093.12732	11714.225
2096.12447	11750.725
2099.11969	11733.625
2102.11299	11692.525
2105.10435	11705.225
2108.09379	11738.825
2111.08131	11725.125
2114.0669	11741.125
2117.05057	11738.525
2120.03233	11732.025
2123.01216	11754.925
2125.99008	11738.525
2128.96609	11762.225
2131.94018	11742.825
2134.91236	11768.425
2137.88263	11773.625
2140.851	11784.925
2143.81746	11777.925
2146.78201	11791.925
2149.74466	11797.625
2152.7054	11796.325
2155.66425	11812.425
2158.6212	11843.325
2161.57625	11808.225
2164.52941	11813.625
2167.48067	11782.925
2170.43004	11792.025
2173.37752	11772.325
2176.32311	11761.325
2179.26681	11753.125
2182.20863	11744.225
2185.14856	11758.625
2188.08661	11726.225
2191.02278	11721.825
2193.95707	11718.225
2196.88948	11692.225
2199.82001	11706.125
2202.74867	11683.525
2205.67545	11680.825
2208.60037	11661.025
2211.52341	11652.625
2214.44458	11626.025
2217.36388	11588.125
2220.28132	11559.025
2223.1969	11541.025
2226.11061	11552.425
2229.02246	11546.725
2231.93245	11489.925
2234.84058	11471.425
2237.74686	11452.625
2240.65128	11442.825
2243.55385	11420.925
2246.45456	11400.725
2249.35343	11394.025
2252.25044	11379.525
2255.14561	11329.425
2258.03893	11357.525
2260.93041	11326.325
2263.82004	11295.325
2266.70783	11261.125
2269.59378	11222.625
2272.4779	11219.325
2275.36017	11167.525
2278.24061	11152.525
2281.11922	11127.625
2283.996	11094.525
2286.87094	11100.925
2289.74405	11066.425
2292.61534	11058.725
2295.4848	11047.625
2298.35243	11031.325
2301.21824	11058.025
2304.08223	11009.125
2306.94439	11009.025
2309.80474	10987.225
2312.66327	10966.325
2315.51999	10975.425
2318.37489	10948.425
2321.22797	10933.525
2324.07925	10913.625
2326.92871	10912.725
2329.77637	10902.925
2332.62222	10894.325
2335.46626	10846.025
2338.3085	10840.025
2341.14893	10832.125
2343.98756	10820.525
2346.8244	10786.325
2349.65943	10801.425
2352.49267	10761.525
2355.32411	10784.325
2358.15376	10775.625
2360.98161	10779.325
2363.80768	10749.125
2366.63195	10767.925
2369.45444	10730.925
2372.27514	10747.625
2375.09405	10726.525
2377.91118	10685.125
2380.72652	10668.425
2383.54009	10661.425
2386.35187	10649.025
2389.16188	10617.025
2391.97011	10604.025
2394.77657	10567.625
2397.58125	10556.325
2400.38416	10532.125
2403.18529	10538.225
2405.98466	10496.325
2408.78226	10495.525
2411.57809	10465.825
2414.37216	10451.225
2417.16446	10453.425
2419.955	10445.825
2422.74378	10439.125
2425.5308	10411.225
2428.31606	10396.225
2431.09956	10383.425
2433.88131	10371.325
2436.6613	10362.225
2439.43954	10369.625
2442.21603	10335.725
2444.99077	10297.825
2447.76377	10320.925
2450.53501	10290.725
2453.30451	10309.025
2456.07226	10282.525
2458.83827	10285.625
2461.60254	10236.225
2464.36507	10249.225
2467.12586	10245.225
2469.88492	10227.225
2472.64224	10226.725
2475.39782	10227.825
2478.15167	10217.925
2480.90379	10196.725
2483.65417	10192.825
2486.40283	10198.725
2489.14976	10192.825
2491.89497	10179.325
2494.63845	10173.625
2497.3802	10174.125
2500.12024	10154.825
2502.85855	10147.125
2505.59514	10155.725
2508.33002	10142.325
2511.06318	10131.825
2513.79462	10096.625
2516.52435	10109.625
2519.25237	10101.925
2521.97867	10075.525
2524.70327	10064.725
2527.42616	10035.025
2530.14734	10043.425
2532.86681	10016.425
2535.58458	10010.125
2538.30065	9991.725
2541.01501	9966.425
2543.72768	9931.325
2546.43864	9936.125
2549.14791	9922.625
2551.85548	9924.925
2554.56136	9862.725
2557.26554	9875.025
2559.96803	9868.525
2562.66883	9855.725
2565.36794	9835.625
2568.06536	9797.925
2570.7611	9812.625
2573.45514	9809.525
2576.14751	9776.425
2578.83819	9741.725
2581.52719	9751.925
2584.21451	9717.825
2586.90015	9729.025
2589.58411	9702.625
2592.2664	9669.325
2594.94701	9647.125
2597.62594	9622.425
2600.30321	9624.725
2602.9788	9612.225
2605.65273	9581.525
2608.32498	9587.625
2610.99557	9535.925
2613.66449	9551.925
2616.33175	9527.325
2618.99734	9540.025
2621.66128	9501.325
2624.32355	9496.825
2626.98416	9482.825
2629.64311	9476.025
2632.30041	9471.925
2634.95605	9475.125
2637.61004	9439.025
2640.26238	9405.825
2642.91306	9447.125
2645.56209	9434.025
2648.20948	9417.625
2650.85521	9404.425
2653.4993	9403.525
2656.14175	9396.425
2658.78255	9391.825
2661.42171	9380.425
2664.05923	9363.025
2666.6951	9380.825
2669.32934	9382.025
2671.96194	9371.925
2674.59291	9373.625
2677.22224	9356.425
2679.84993	9389.925
2682.476	9376.625
2685.10043	9358.825
2687.72324	9370.325
2690.34441	9370.125
2692.96396	9369.625
2695.58188	9373.625
2698.19818	9359.925
2700.81285	9371.225
2703.4259	9376.225
2706.03733	9418.025
2708.64714	9397.325
2711.25533	9391.125
2713.86191	9384.725
2716.46687	9393.425
2719.07021	9352.425
2721.67194	9365.925
2724.27206	9345.725
2726.87057	9357.025
2729.46747	9349.825
2732.06276	9347.325
2734.65644	9338.225
2737.24852	9342.325
2739.83899	9321.125
2742.42786	9322.625
2745.01513	9285.925
2747.60079	9305.725
2750.18486	9268.325
2752.76733	9271.325
2755.3482	9258.325
2757.92747	9267.325
2760.50515	9244.625
2763.08123	9231.725
2765.65573	9227.225
2768.22863	9191.925
2770.79994	9187.925
2773.36967	9207.225
2775.9378	9184.225
2778.50435	9138.725
2781.06932	9148.025
2783.6327	9133.325
2786.1945	9107.725
2788.75471	9121.725
2791.31335	9073.625
2793.87041	9038.525
2796.42589	9016.325
2798.97979	9035.125
2801.53212	9031.625
2804.08288	9002.925
2806.63206	8979.525
2809.17967	8956.725
2811.72571	8949.425
2814.27018	8935.025
2816.81308	8911.625
2819.35442	8902.925
2821.89419	8894.325
2824.43239	8886.025
2826.96904	8885.425
2829.50412	8872.925
2832.03763	8827.525
2834.56959	8828.925
2837.1	8815.325
2839.62884	8805.025
2842.15613	8797.425
2844.68186	8817.725
2847.20604	8795.425
2849.72867	8801.725
2852.24974	8778.425
2854.76927	8788.525
2857.28724	8792.125
2859.80367	8782.525
2862.31855	8744.625
2864.83189	8729.225
2867.34368	8694.525
2869.85393	8707.225
2872.36264	8713.625
2874.8698	8699.925
2877.37543	8697.425
2879.87952	8706.825
2882.38207	8695.125
2884.88308	8687.325
2887.38256	8695.725
2889.88051	8687.725
2892.37692	8674.925
2894.8718	8648.425
2897.36515	8669.325
2899.85698	8668.725
2902.34727	8658.825
2904.83604	8646.725
2907.32328	8694.625
2909.809	8694.425
2912.29319	8685.225
2914.77587	8675.325
2917.25702	8656.025
2919.73665	8636.225
2922.21476	8639.425
2924.69136	8672.525
2927.16644	8644.425
2929.64	8626.725
2932.11205	8615.825
2934.58258	8626.225
2937.05161	8608.625
2939.51912	8613.525
2941.98513	8620.425
2944.44962	8593.425
2946.91261	8551.025
2949.37409	8576.725
2951.83407	8581.425
2954.29254	8575.525
2956.74951	8544.525
2959.20498	8546.125
2961.65895	8527.725
2964.11142	8536.925
2966.56239	8495.625
2969.01186	8502.425
2971.45984	8452.225
2973.90632	8457.925
2976.35131	8440.625
2978.7948	8449.425
2981.23681	8431.125
2983.67732	8410.925
2986.11635	8399.725
2988.55388	8377.425
2990.98993	8363.825
2993.4245	8346.225
2995.85758	8334.125
2998.28917	8295.225
3000.71928	8272.825
3003.14791	8289.925
3005.57506	8276.725
3008.00073	8243.125
3010.42493	8245.825
3012.84764	8208.525
3015.26888	8204.725
3017.68865	8162.125
3020.10694	8169.625
3022.52376	8157.825
3024.9391	8180.225
3027.35298	8144.525
3029.76539	8155.225
3032.17632	8150.525
3034.5858	8115.825
3036.9938	8110.725
3039.40034	8095.325
3041.80542	8094.325
3044.20903	8075.325
3046.61118	8084.125
3049.01187	8060.125
3051.4111	8038.825
3053.80888	8033.025
3056.20519	8025.025
3058.60005	8002.425
3060.99345	8003.125
3063.3854	7979.125
3065.7759	7946.625
3068.16494	7921.425
3070.55254	7888.525
3072.93868	7924.225
3075.32338	7878.325
3077.70662	7852.525
3080.08842	7825.925
3082.46878	7863.125
3084.84769	7844.025
3087.22515	7824.625
3089.60118	7840.425
3091.97576	7833.125
3094.3489	7831.725
3096.72061	7818.325
3099.09087	7794.025
3101.4597	7794.325
3103.82709	7797.625
3106.19305	7782.725
3108.55757	7780.825
3110.92066	7784.125
3113.28232	7764.025
3115.64255	7726.625
3118.00134	7709.625
3120.35871	7723.425
3122.71466	7701.625
3125.06917	7670.325
3127.42226	7701.825
3129.77393	7686.525
3132.12417	7698.825
3134.47299	7694.725
3136.82039	7682.425
3139.16636	7672.325
3141.51092	7703.325
3143.85406	7683.625
3146.19579	7671.725
3148.53609	7709.225
3150.87499	7668.525
3153.21246	7674.325
3155.54853	7710.125
3157.88318	7682.425
