Data from AgNP_FTO_APTES_CRN_200uM_R6G_10uM_NaF_0.1M_Addition_RamanShift__14__19-33-18-175.txt Node

Date: Wed Dec 15 19:33:18 GMT 2021
User: TCL
Spectrometer: QEP01345
Trigger mode: 4
Integration Time (sec): 7.000000E0
Scans to average: 10
Electric dark correction enabled: true
Nonlinearity correction enabled: false
Boxcar width: 0
XAxis mode: Raman Shifts
Number of Pixels in Spectrum: 1044
>>>>>Begin Spectral Data<<<<<
46.04893	2.0875
50.45542	-1.2125
54.85868	-0.8125
59.25871	-0.3125
63.6555	44.8875
68.04907	52.7875
72.43941	51.4875
76.82654	59.7875
81.21044	59.3875
85.59113	59.2875
89.96862	68.7875
94.34289	63.7875
98.71396	69.4875
103.08183	74.5875
107.4465	74.9875
111.80798	77.5875
116.16626	75.5875
120.52136	80.0875
124.87327	76.7875
129.222	81.2875
133.56755	83.3875
137.90993	85.9875
142.24913	97.7875
146.58517	105.6875
150.91804	118.1875
155.24774	135.6875
159.57429	169.2875
163.89768	212.8875
168.21792	267.3875
172.53501	361.0875
176.84895	495.8875
181.15975	692.4875
185.46741	976.1875
189.77193	1349.1875
194.07331	1808.5875
198.37157	2334.6875
202.6667	2890.8875
206.9587	3444.9875
211.24758	3994.9875
215.53334	4543.4875
219.81599	5109.0875
224.09553	5710.8875
228.37195	6404.1875
232.64527	7170.9875
236.91549	7990.8875
241.18261	8822.9875
245.44663	9614.4875
249.70755	10334.6875
253.96539	10964.1875
258.22014	11466.0875
262.4718	11827.3875
266.72039	12054.3875
270.96589	12120.1875
275.20832	12157.3875
279.44768	12079.5875
283.68397	11999.0875
287.91719	11898.8875
292.14735	11823.8875
296.37445	11749.2875
300.59849	11738.7875
304.81948	11628.7875
309.03742	11556.6875
313.25231	11419.6875
317.46415	11247.8875
321.67296	11051.5875
325.87872	10858.6875
330.08145	10773.6875
334.28114	10777.8875
338.47781	10887.6875
342.67145	10973.7875
346.86207	11078.4875
351.04966	11228.4875
355.23424	11332.1875
359.4158	11444.6875
363.59435	11516.6875
367.76989	11622.3875
371.94243	11672.7875
376.11196	11699.1875
380.27849	11774.9875
384.44203	11853.1875
388.60257	11925.8875
392.76012	12033.4875
396.91468	12169.9875
401.06626	12346.6875
405.21485	12464.7875
409.36047	12515.2875
413.50311	12476.5875
417.64277	12382.2875
421.77947	12341.8875
425.9132	12355.8875
430.04396	12429.9875
434.17176	12463.9875
438.2966	12544.3875
442.41849	12639.4875
446.53742	12794.7875
450.6534	12927.7875
454.76644	13087.4875
458.87653	13156.8875
462.98368	13205.5875
467.08789	13235.0875
471.18916	13187.8875
475.2875	13177.3875
479.38291	13146.6875
483.4754	13078.3875
487.56496	13047.7875
491.6516	12984.8875
495.73531	12934.9875
499.81612	12920.6875
503.89401	12965.3875
507.96899	12982.6875
512.04106	13026.4875
516.11023	13043.4875
520.1765	12994.4875
524.23987	12961.7875
528.30034	12917.0875
532.35792	12828.4875
536.41261	12823.4875
540.46441	12790.5875
544.51333	12807.1875
548.55936	12906.7875
552.60252	13092.6875
556.64279	13260.1875
560.6802	13367.7875
564.71473	13423.4875
568.7464	13501.0875
572.7752	13663.2875
576.80114	13850.2875
580.82422	14081.9875
584.84444	14244.0875
588.86181	14263.0875
592.87633	14110.5875
596.888	14004.8875
600.89682	14038.4875
604.9028	14208.8875
608.90594	14771.6875
612.90624	15308.9875
616.90371	14780.2875
620.89834	13578.7875
624.89015	12995.8875
628.87913	12947.1875
632.86528	13032.6875
636.84862	13118.2875
640.82913	13090.3875
644.80683	12945.5875
648.78172	12854.7875
652.75379	12791.5875
656.72306	12847.7875
660.68952	12947.2875
664.65319	12959.8875
668.61405	12911.2875
672.57211	12936.6875
676.52738	12981.6875
680.47986	13022.1875
684.42955	13014.7875
688.37646	12934.6875
692.32058	12965.2875
696.26192	13026.0875
700.20048	13095.3875
704.13626	13164.9875
708.06928	13198.7875
711.99952	13208.6875
715.927	13178.6875
719.85171	13145.3875
723.77365	13111.0875
727.69284	12983.8875
731.60928	12875.3875
735.52295	12852.5875
739.43388	12842.9875
743.34206	12841.4875
747.24749	12863.8875
751.15017	12906.6875
755.05012	13035.0875
758.94733	13229.9875
762.8418	13596.3875
766.73354	14186.7875
770.62254	14726.0875
774.50882	14827.3875
778.39237	14420.8875
782.27321	13844.9875
786.15132	13338.0875
790.02671	13011.7875
793.89938	12846.4875
797.76935	12768.5875
801.6366	12711.8875
805.50115	12700.3875
809.36299	12693.0875
813.22213	12678.0875
817.07857	12668.5875
820.93231	12668.4875
824.78336	12677.7875
828.63172	12689.4875
832.47738	12698.1875
836.32036	12678.2875
840.16066	12676.8875
843.99827	12685.1875
847.8332	12648.0875
851.66546	12627.9875
855.49504	12610.8875
859.32195	12634.3875
863.1462	12621.2875
866.96777	12609.0875
870.78668	12619.2875
874.60293	12636.7875
878.41652	12659.8875
882.22745	12691.7875
886.03573	12686.4875
889.84136	12680.6875
893.64433	12711.1875
897.44466	12688.3875
901.24235	12691.0875
905.0374	12661.6875
908.8298	12682.9875
912.61957	12695.1875
916.40671	12780.7875
920.19121	12868.3875
923.97308	12876.1875
927.75233	12864.2875
931.52895	12818.6875
935.30295	12745.3875
939.07433	12600.9875
942.84309	12460.7875
946.60924	12425.1875
950.37278	12346.0875
954.13371	12346.5875
957.89203	12310.9875
961.64774	12316.2875
965.40086	12266.7875
969.15137	12263.9875
972.89929	12235.2875
976.64461	12202.2875
980.38733	12169.4875
984.12747	12193.8875
987.86502	12202.3875
991.59999	12218.0875
995.33237	12238.4875
999.06217	12311.3875
1002.78939	12386.3875
1006.51404	12467.0875
1010.23611	12559.4875
1013.95561	12627.6875
1017.67255	12621.8875
1021.38692	12618.9875
1025.09872	12549.8875
1028.80796	12473.5875
1032.51465	12462.7875
1036.21877	12480.2875
1039.92035	12531.4875
1043.61937	12590.9875
1047.31584	12635.1875
1051.00976	12704.1875
1054.70114	12804.4875
1058.38998	12890.1875
1062.07627	13073.5875
1065.76003	13276.4875
1069.44126	13451.5875
1073.11995	13656.0875
1076.79611	13777.6875
1080.46974	13700.5875
1084.14085	13591.4875
1087.80943	13461.9875
1091.47549	13437.8875
1095.13903	13467.4875
1098.80005	13413.9875
1102.45857	13226.4875
1106.11456	13038.7875
1109.76805	12865.7875
1113.41903	12820.1875
1117.06751	12805.9875
1120.71348	12870.4875
1124.35696	12971.5875
1127.99793	13118.6875
1131.63641	13194.7875
1135.2724	13126.9875
1138.90589	13050.6875
1142.5369	13014.7875
1146.16542	12979.2875
1149.79145	13009.6875
1153.415	13082.7875
1157.03607	13131.0875
1160.65467	13280.0875
1164.27079	13489.0875
1167.88443	13752.3875
1171.49561	14080.6875
1175.10432	14567.7875
1178.71056	15175.5875
1182.31434	15749.8875
1185.91565	16113.7875
1189.51451	16269.8875
1193.11091	16248.7875
1196.70485	15965.6875
1200.29634	15548.6875
1203.88538	15131.2875
1207.47197	14793.6875
1211.05612	14518.5875
1214.63782	14300.0875
1218.21708	14131.9875
1221.79391	13953.8875
1225.36829	13799.2875
1228.94024	13713.2875
1232.50976	13725.6875
1236.07685	13725.3875
1239.6415	13728.3875
1243.20374	13791.5875
1246.76355	13811.5875
1250.32093	13904.3875
1253.8759	14033.3875
1257.42845	14211.4875
1260.97859	14404.6875
1264.52631	14577.4875
1268.07163	14773.3875
1271.61453	14921.1875
1275.15503	15071.1875
1278.69312	15239.6875
1282.22882	15392.4875
1285.76211	15502.6875
1289.29301	15707.3875
1292.82151	15968.6875
1296.34761	16253.0875
1299.87133	16571.9875
1303.39266	16956.7875
1306.9116	17368.3875
1310.42815	17784.8875
1313.94233	18020.7875
1317.45412	17995.5875
1320.96354	17979.0875
1324.47058	18006.6875
1327.97525	18039.6875
1331.47754	18093.9875
1334.97747	18191.0875
1338.47502	18391.0875
1341.97022	18620.0875
1345.46305	18916.5875
1348.95352	19041.6875
1352.44163	19051.7875
1355.92738	18984.5875
1359.41078	18991.0875
1362.89183	19059.6875
1366.37053	18720.0875
1369.84688	17866.9875
1373.32088	16884.1875
1376.79254	16100.9875
1380.26186	15682.2875
1383.72883	15451.6875
1387.19347	15290.8875
1390.65578	15147.0875
1394.11575	15016.9875
1397.57339	14863.3875
1401.0287	14761.8875
1404.48168	14671.0875
1407.93234	14617.0875
1411.38068	14485.3875
1414.82669	14290.5875
1418.27039	14007.3875
1421.71177	13745.6875
1425.15083	13487.7875
1428.58758	13331.1875
1432.02203	13298.6875
1435.45416	13335.0875
1438.88399	13424.3875
1442.31151	13518.9875
1445.73673	13611.1875
1449.15965	13695.5875
1452.58027	13855.0875
1455.9986	13975.9875
1459.41463	14090.1875
1462.82837	14284.3875
1466.23982	14510.1875
1469.64898	14698.7875
1473.05586	14854.0875
1476.46045	14941.9875
1479.86276	15049.3875
1483.26279	15087.9875
1486.66054	15181.1875
1490.05602	15338.0875
1493.44922	15557.2875
1496.84016	15947.6875
1500.22882	16492.6875
1503.61521	17155.2875
1506.99934	17767.9875
1510.38121	18148.0875
1513.76081	18108.6875
1517.13816	17774.7875
1520.51324	17279.4875
1523.88607	16805.8875
1527.25665	16473.1875
1530.62498	16196.0875
1533.99105	15995.6875
1537.35488	15815.2875
1540.71647	15572.3875
1544.07581	15335.2875
1547.4329	15130.0875
1550.78776	14924.6875
1554.14038	14819.0875
1557.49077	14804.7875
1560.83892	14825.0875
1564.18484	14970.1875
1567.52853	15077.7875
1570.86999	15197.4875
1574.20922	15329.1875
1577.54624	15491.4875
1580.88103	15454.2875
1584.2136	15347.8875
1587.54395	15171.1875
1590.87208	15046.8875
1594.19801	15102.9875
1597.52172	15282.8875
1600.84321	15358.0875
1604.16251	15138.5875
1607.47959	14771.4875
1610.79447	14341.5875
1614.10715	13903.2875
1617.41763	13456.8875
1620.7259	13066.7875
1624.03199	12763.9875
1627.33587	12647.7875
1630.63757	12682.8875
1633.93707	12860.8875
1637.23439	13192.5875
1640.52951	13789.7875
1643.82246	14572.3875
1647.11321	15408.1875
1650.40179	16017.1875
1653.68819	16003.7875
1656.97241	15344.1875
1660.25446	14372.7875
1663.53433	13475.1875
1666.81203	12690.0875
1670.08756	12143.5875
1673.36092	11760.9875
1676.63211	11508.6875
1679.90115	11363.5875
1683.16801	11200.7875
1686.43272	11102.3875
1689.69527	11047.9875
1692.95567	10984.9875
1696.2139	10991.6875
1699.46999	10946.7875
1702.72392	10959.2875
1705.97571	10913.8875
1709.22535	10888.3875
1712.47284	10852.6875
1715.71819	10822.4875
1718.96139	10824.0875
1722.20246	10770.0875
1725.44139	10729.4875
1728.67818	10687.2875
1731.91284	10657.1875
1735.14537	10627.5875
1738.37576	10592.8875
1741.60403	10573.3875
1744.83017	10537.5875
1748.05418	10527.4875
1751.27607	10526.0875
1754.49584	10507.9875
1757.71349	10527.1875
1760.92903	10521.3875
1764.14244	10502.2875
1767.35375	10488.7875
1770.56294	10466.2875
1773.77002	10455.2875
1776.97499	10434.3875
1780.17785	10375.1875
1783.37861	10391.7875
1786.57727	10325.4875
1789.77382	10325.1875
1792.96828	10279.8875
1796.16064	10268.0875
1799.3509	10241.3875
1802.53907	10226.1875
1805.72514	10183.5875
1808.90913	10168.6875
1812.09102	10129.2875
1815.27083	10115.3875
1818.44856	10106.8875
1821.6242	10090.2875
1824.79776	10079.0875
1827.96924	10074.4875
1831.13864	10048.2875
1834.30597	10035.9875
1837.47122	10031.9875
1840.6344	10037.3875
1843.7955	10017.7875
1846.95454	10012.0875
1850.11151	9992.2875
1853.26642	9993.5875
1856.41926	9989.2875
1859.57004	9998.0875
1862.71876	9959.0875
1865.86542	9955.3875
1869.01003	9956.7875
1872.15258	9949.7875
1875.29308	9899.3875
1878.43152	9907.8875
1881.56792	9868.1875
1884.70227	9857.4875
1887.83457	9844.3875
1890.96482	9829.6875
1894.09304	9813.5875
1897.21921	9784.2875
1900.34335	9785.5875
1903.46544	9780.2875
1906.58551	9778.7875
1909.70353	9736.8875
1912.81953	9732.6875
1915.93349	9694.2875
1919.04543	9694.9875
1922.15534	9650.0875
1925.26322	9654.0875
1928.36908	9650.5875
1931.47292	9622.3875
1934.57473	9607.2875
1937.67453	9590.5875
1940.77232	9530.8875
1943.86808	9545.3875
1946.96184	9511.9875
1950.05358	9489.8875
1953.14331	9453.6875
1956.23103	9436.5875
1959.31675	9404.0875
1962.40046	9370.7875
1965.48217	9343.9875
1968.56188	9314.6875
1971.63959	9285.5875
1974.7153	9254.2875
1977.78901	9214.8875
1980.86073	9189.0875
1983.93046	9155.9875
1986.99819	9126.0875
1990.06394	9109.1875
1993.1277	9079.4875
1996.18947	9057.9875
1999.24925	9025.7875
2002.30706	8989.8875
2005.36288	8991.0875
2008.41672	8934.8875
2011.46859	8899.9875
2014.51848	8886.7875
2017.56639	8879.5875
2020.61233	8835.6875
2023.6563	8841.6875
2026.6983	8803.4875
2029.73833	8791.0875
2032.7764	8753.7875
2035.8125	8729.1875
2038.84664	8683.5875
2041.87881	8685.8875
2044.90903	8659.2875
2047.93729	8645.9875
2050.96359	8621.9875
2053.98794	8628.3875
2057.01034	8599.2875
2060.03078	8590.7875
2063.04927	8564.6875
2066.06582	8566.6875
2069.08042	8574.2875
2072.09307	8562.6875
2075.10378	8551.5875
2078.11255	8541.1875
2081.11938	8540.7875
2084.12426	8534.1875
2087.12722	8532.3875
2090.12824	8527.0875
2093.12732	8555.1875
2096.12447	8534.1875
2099.11969	8519.0875
2102.11299	8534.5875
2105.10435	8539.4875
2108.09379	8540.9875
2111.08131	8530.9875
2114.0669	8547.7875
2117.05057	8538.6875
2120.03233	8534.3875
2123.01216	8535.1875
2125.99008	8541.8875
2128.96609	8574.4875
2131.94018	8549.1875
2134.91236	8562.6875
2137.88263	8559.2875
2140.851	8570.2875
2143.81746	8593.0875
2146.78201	8586.5875
2149.74466	8588.6875
2152.7054	8574.7875
2155.66425	8586.1875
2158.6212	8586.5875
2161.57625	8590.6875
2164.52941	8562.1875
2167.48067	8577.5875
2170.43004	8549.2875
2173.37752	8564.1875
2176.32311	8532.6875
2179.26681	8549.8875
2182.20863	8534.5875
2185.14856	8482.4875
2188.08661	8515.8875
2191.02278	8509.7875
2193.95707	8494.9875
2196.88948	8472.4875
2199.82001	8476.0875
2202.74867	8481.4875
2205.67545	8468.2875
2208.60037	8457.3875
2211.52341	8448.1875
2214.44458	8433.1875
2217.36388	8396.9875
2220.28132	8399.4875
2223.1969	8348.4875
2226.11061	8349.9875
2229.02246	8308.0875
2231.93245	8315.9875
2234.84058	8294.0875
2237.74686	8283.8875
2240.65128	8300.9875
2243.55385	8281.8875
2246.45456	8266.0875
2249.35343	8256.4875
2252.25044	8228.8875
2255.14561	8199.3875
2258.03893	8212.0875
2260.93041	8190.5875
2263.82004	8168.5875
2266.70783	8131.6875
2269.59378	8103.7875
2272.4779	8122.1875
2275.36017	8067.3875
2278.24061	8054.3875
2281.11922	8006.5875
2283.996	8023.6875
2286.87094	8019.4875
2289.74405	7988.7875
2292.61534	7976.3875
2295.4848	7965.7875
2298.35243	7968.4875
2301.21824	7946.6875
2304.08223	7928.8875
2306.94439	7908.5875
2309.80474	7911.4875
2312.66327	7905.2875
2315.51999	7907.5875
2318.37489	7890.3875
2321.22797	7875.6875
2324.07925	7879.5875
2326.92871	7854.5875
2329.77637	7849.9875
2332.62222	7822.9875
2335.46626	7791.7875
2338.3085	7791.7875
2341.14893	7794.9875
2343.98756	7767.3875
2346.8244	7779.7875
2349.65943	7754.3875
2352.49267	7748.5875
2355.32411	7745.5875
2358.15376	7729.5875
2360.98161	7718.8875
2363.80768	7731.1875
2366.63195	7728.9875
2369.45444	7722.6875
2372.27514	7720.7875
2375.09405	7735.9875
2377.91118	7691.7875
2380.72652	7672.6875
2383.54009	7628.1875
2386.35187	7641.1875
2389.16188	7610.3875
2391.97011	7582.4875
2394.77657	7565.9875
2397.58125	7574.8875
2400.38416	7523.4875
2403.18529	7524.3875
2405.98466	7536.6875
2408.78226	7511.6875
2411.57809	7481.4875
2414.37216	7486.3875
2417.16446	7474.1875
2419.955	7450.4875
2422.74378	7448.8875
2425.5308	7451.4875
2428.31606	7423.8875
2431.09956	7424.7875
2433.88131	7404.1875
2436.6613	7413.2875
2439.43954	7390.5875
2442.21603	7376.0875
2444.99077	7360.7875
2447.76377	7374.7875
2450.53501	7345.1875
2453.30451	7343.3875
2456.07226	7329.2875
2458.83827	7339.9875
2461.60254	7321.9875
2464.36507	7310.6875
2467.12586	7272.5875
2469.88492	7286.9875
2472.64224	7291.2875
2475.39782	7266.3875
2478.15167	7277.7875
2480.90379	7275.8875
2483.65417	7257.3875
2486.40283	7246.6875
2489.14976	7247.3875
2491.89497	7236.0875
2494.63845	7240.3875
2497.3802	7228.5875
2500.12024	7215.5875
2502.85855	7214.6875
2505.59514	7193.9875
2508.33002	7183.9875
2511.06318	7173.3875
2513.79462	7182.6875
2516.52435	7161.4875
2519.25237	7150.7875
2521.97867	7132.2875
2524.70327	7135.1875
2527.42616	7107.1875
2530.14734	7102.1875
2532.86681	7077.4875
2535.58458	7070.4875
2538.30065	7070.8875
2541.01501	7057.5875
2543.72768	7055.5875
2546.43864	7042.0875
2549.14791	6999.4875
2551.85548	7004.3875
2554.56136	6981.4875
2557.26554	6954.7875
2559.96803	6948.1875
2562.66883	6941.9875
2565.36794	6944.8875
2568.06536	6925.4875
2570.7611	6915.3875
2573.45514	6917.3875
2576.14751	6880.5875
2578.83819	6880.5875
2581.52719	6863.3875
2584.21451	6829.4875
2586.90015	6839.5875
2589.58411	6796.8875
2592.2664	6790.8875
2594.94701	6777.2875
2597.62594	6772.0875
2600.30321	6766.1875
2602.9788	6742.0875
2605.65273	6736.1875
2608.32498	6714.4875
2610.99557	6711.0875
2613.66449	6677.8875
2616.33175	6668.7875
2618.99734	6659.7875
2621.66128	6663.9875
2624.32355	6639.8875
2626.98416	6633.2875
2629.64311	6623.9875
2632.30041	6631.5875
2634.95605	6606.0875
2637.61004	6582.8875
2640.26238	6582.5875
2642.91306	6585.8875
2645.56209	6570.3875
2648.20948	6559.8875
2650.85521	6553.2875
2653.4993	6556.6875
2656.14175	6546.5875
2658.78255	6546.2875
2661.42171	6529.9875
2664.05923	6555.8875
2666.6951	6525.3875
2669.32934	6542.9875
2671.96194	6528.0875
2674.59291	6523.7875
2677.22224	6532.7875
2679.84993	6548.1875
2682.476	6534.1875
2685.10043	6527.3875
2687.72324	6497.4875
2690.34441	6518.2875
2692.96396	6526.0875
2695.58188	6515.9875
2698.19818	6507.4875
2700.81285	6526.2875
2703.4259	6517.6875
2706.03733	6551.8875
2708.64714	6540.1875
2711.25533	6535.2875
2713.86191	6525.7875
2716.46687	6515.1875
2719.07021	6498.3875
2721.67194	6481.1875
2724.27206	6495.7875
2726.87057	6476.4875
2729.46747	6506.3875
2732.06276	6479.4875
2734.65644	6456.5875
2737.24852	6468.3875
2739.83899	6452.6875
2742.42786	6439.9875
2745.01513	6422.5875
2747.60079	6434.1875
2750.18486	6424.7875
2752.76733	6415.9875
2755.3482	6396.2875
2757.92747	6393.7875
2760.50515	6391.6875
2763.08123	6383.6875
2765.65573	6367.0875
2768.22863	6356.2875
2770.79994	6349.2875
2773.36967	6343.2875
2775.9378	6323.1875
2778.50435	6319.8875
2781.06932	6303.8875
2783.6327	6311.8875
2786.1945	6294.9875
2788.75471	6282.6875
2791.31335	6269.4875
2793.87041	6277.6875
2796.42589	6241.5875
2798.97979	6227.9875
2801.53212	6217.0875
2804.08288	6218.5875
2806.63206	6164.6875
2809.17967	6172.0875
2811.72571	6164.7875
2814.27018	6149.5875
2816.81308	6151.6875
2819.35442	6119.6875
2821.89419	6102.0875
2824.43239	6102.1875
2826.96904	6098.9875
2829.50412	6095.1875
2832.03763	6083.5875
2834.56959	6090.3875
2837.1	6067.8875
2839.62884	6072.5875
2842.15613	6080.3875
2844.68186	6083.7875
2847.20604	6088.5875
2849.72867	6104.2875
2852.24974	6086.2875
2854.76927	6087.6875
2857.28724	6085.2875
2859.80367	6082.5875
2862.31855	6064.6875
2864.83189	6051.9875
2867.34368	6023.5875
2869.85393	6014.7875
2872.36264	6009.2875
2874.8698	6021.1875
2877.37543	6026.4875
2879.87952	6018.1875
2882.38207	6010.6875
2884.88308	5996.1875
2887.38256	6005.7875
2889.88051	6004.7875
2892.37692	5986.6875
2894.8718	5969.7875
2897.36515	5998.2875
2899.85698	5977.0875
2902.34727	5997.6875
2904.83604	5994.1875
2907.32328	6000.7875
2909.809	6004.6875
2912.29319	5987.3875
2914.77587	5984.1875
2917.25702	5978.0875
2919.73665	5979.5875
2922.21476	5980.3875
2924.69136	5962.8875
2927.16644	5970.8875
2929.64	5966.6875
2932.11205	5971.8875
2934.58258	5940.4875
2937.05161	5962.1875
2939.51912	5952.2875
2941.98513	5963.4875
2944.44962	5955.8875
2946.91261	5919.0875
2949.37409	5900.9875
2951.83407	5908.7875
2954.29254	5916.6875
2956.74951	5896.0875
2959.20498	5862.9875
2961.65895	5874.5875
2964.11142	5879.4875
2966.56239	5864.7875
2969.01186	5845.6875
2971.45984	5836.7875
2973.90632	5818.5875
2976.35131	5798.4875
2978.7948	5793.2875
2981.23681	5784.4875
2983.67732	5766.4875
2986.11635	5775.1875
2988.55388	5740.8875
2990.98993	5740.7875
2993.4245	5732.3875
2995.85758	5721.8875
2998.28917	5709.7875
3000.71928	5700.2875
3003.14791	5678.7875
3005.57506	5691.0875
3008.00073	5680.3875
3010.42493	5672.2875
3012.84764	5633.1875
3015.26888	5654.3875
3017.68865	5635.5875
3020.10694	5616.8875
3022.52376	5624.6875
3024.9391	5597.8875
3027.35298	5589.5875
3029.76539	5605.7875
3032.17632	5609.6875
3034.5858	5599.6875
3036.9938	5573.8875
3039.40034	5569.1875
3041.80542	5574.0875
3044.20903	5557.8875
3046.61118	5560.2875
3049.01187	5538.2875
3051.4111	5537.8875
3053.80888	5524.7875
3056.20519	5519.7875
3058.60005	5512.0875
3060.99345	5505.5875
3063.3854	5492.3875
3065.7759	5474.5875
3068.16494	5480.9875
3070.55254	5465.9875
3072.93868	5471.3875
3075.32338	5448.3875
