Data from AgNP_FTO_APTES_CRN_1000uM_R6G_10uM_NaF_0.1M_Addition_RamanShift__32__21-27-38-305.txt Node

Date: Wed Dec 15 21:27:38 GMT 2021
User: TCL
Spectrometer: QEP01345
Trigger mode: 4
Integration Time (sec): 7.000000E0
Scans to average: 10
Electric dark correction enabled: true
Nonlinearity correction enabled: false
Boxcar width: 0
XAxis mode: Raman Shifts
Number of Pixels in Spectrum: 1044
>>>>>Begin Spectral Data<<<<<
46.04893	1.9625
50.45542	-1.8375
54.85868	-0.8375
59.25871	0.0625
63.6555	51.2625
68.04907	56.3625
72.43941	61.3625
76.82654	64.0625
81.21044	65.4625
85.59113	68.4625
89.96862	74.1625
94.34289	71.0625
98.71396	79.4625
103.08183	78.4625
107.4465	81.8625
111.80798	83.6625
116.16626	87.8625
120.52136	90.2625
124.87327	90.2625
129.222	93.4625
133.56755	97.9625
137.90993	107.0625
142.24913	117.5625
146.58517	132.8625
150.91804	150.3625
155.24774	176.5625
159.57429	222.2625
163.89768	289.8625
168.21792	378.4625
172.53501	510.3625
176.84895	703.3625
181.15975	987.4625
185.46741	1372.2625
189.77193	1889.7625
194.07331	2547.1625
198.37157	3279.4625
202.6667	4056.6625
206.9587	4818.0625
211.24758	5587.8625
215.53334	6379.3625
219.81599	7240.2625
224.09553	8188.1625
228.37195	9231.7625
232.64527	10365.1625
236.91549	11482.8625
241.18261	12552.6625
245.44663	13507.2625
249.70755	14275.3625
253.96539	14914.5625
258.22014	15479.4625
262.4718	15949.7625
266.72039	16297.5625
270.96589	16430.4625
275.20832	16414.1625
279.44768	16242.2625
283.68397	16018.7625
287.91719	15846.9625
292.14735	15827.8625
296.37445	16030.3625
300.59849	16421.7625
304.81948	16934.0625
309.03742	17288.1625
313.25231	17284.7625
317.46415	16681.1625
321.67296	15707.9625
325.87872	14832.7625
330.08145	14511.8625
334.28114	14482.9625
338.47781	14723.9625
342.67145	15043.9625
346.86207	15571.0625
351.04966	16343.8625
355.23424	17205.2625
359.4158	17850.3625
363.59435	18157.2625
367.76989	18215.8625
371.94243	18172.8625
376.11196	18122.8625
380.27849	18074.2625
384.44203	17940.1625
388.60257	17733.1625
392.76012	17697.6625
396.91468	17812.9625
401.06626	18180.3625
405.21485	18511.1625
409.36047	18241.0625
413.50311	17571.6625
417.64277	16857.2625
421.77947	16452.6625
425.9132	16317.4625
430.04396	16352.2625
434.17176	16524.1625
438.2966	16831.0625
442.41849	17255.7625
446.53742	17826.4625
450.6534	18332.5625
454.76644	18592.0625
458.87653	18641.9625
462.98368	18460.4625
467.08789	18131.6625
471.18916	17835.3625
475.2875	17491.5625
479.38291	17146.9625
483.4754	16890.1625
487.56496	16632.2625
491.6516	16450.5625
495.73531	16366.0625
499.81612	16396.6625
503.89401	16594.3625
507.96899	16841.3625
512.04106	17170.5625
516.11023	17527.5625
520.1765	17873.8625
524.23987	17995.9625
528.30034	17853.0625
532.35792	17558.4625
536.41261	17180.1625
540.46441	16857.8625
544.51333	16685.4625
548.55936	16717.6625
552.60252	16988.3625
556.64279	17317.5625
560.6802	17472.8625
564.71473	17705.1625
568.7464	18215.9625
572.7752	18515.7625
576.80114	18030.0625
580.82422	17432.6625
584.84444	17168.0625
588.86181	17281.3625
592.87633	17604.0625
596.888	17909.9625
600.89682	18292.6625
604.9028	19726.5625
608.90594	23852.5625
612.90624	29145.7625
616.90371	28143.8625
620.89834	21028.6625
624.89015	17582.5625
628.87913	16893.6625
632.86528	16918.6625
636.84862	17115.6625
640.82913	16991.7625
644.80683	16486.2625
648.78172	16239.9625
652.75379	16330.7625
656.72306	16854.1625
660.68952	17463.4625
664.65319	17337.3625
668.61405	16735.6625
672.57211	16459.9625
676.52738	16479.6625
680.47986	16466.6625
684.42955	16334.7625
688.37646	16298.4625
692.32058	16350.2625
696.26192	16467.6625
700.20048	16630.5625
704.13626	16701.6625
708.06928	16571.4625
711.99952	16385.0625
715.927	16297.1625
719.85171	16225.8625
723.77365	16153.2625
727.69284	15971.8625
731.60928	15741.1625
735.52295	15734.4625
739.43388	15744.3625
743.34206	15765.1625
747.24749	15732.8625
751.15017	15764.3625
755.05012	15994.2625
758.94733	16596.2625
762.8418	18012.5625
766.73354	20344.6625
770.62254	22748.9625
774.50882	23968.2625
778.39237	23097.3625
782.27321	20467.8625
786.15132	17885.7625
790.02671	16374.4625
793.89938	15708.6625
797.76935	15435.5625
801.6366	15265.3625
805.50115	15192.2625
809.36299	15129.5625
813.22213	15103.3625
817.07857	15061.5625
820.93231	15092.3625
824.78336	15149.6625
828.63172	15224.7625
832.47738	15260.8625
836.32036	15276.7625
840.16066	15214.0625
843.99827	15105.7625
847.8332	15041.1625
851.66546	15026.4625
855.49504	15004.0625
859.32195	14998.9625
863.1462	14951.8625
866.96777	14873.5625
870.78668	14776.1625
874.60293	14792.7625
878.41652	14746.8625
882.22745	14778.1625
886.03573	14828.6625
889.84136	14770.6625
893.64433	14728.0625
897.44466	14677.9625
901.24235	14709.6625
905.0374	14640.7625
908.8298	14625.1625
912.61957	14585.8625
916.40671	14648.0625
920.19121	14731.3625
923.97308	14845.6625
927.75233	14998.4625
931.52895	15145.8625
935.30295	15018.9625
939.07433	14649.1625
942.84309	14333.5625
946.60924	14110.3625
950.37278	14001.5625
954.13371	13911.6625
957.89203	13869.2625
961.64774	13816.3625
965.40086	13763.2625
969.15137	13752.9625
972.89929	13690.8625
976.64461	13671.2625
980.38733	13680.5625
984.12747	13690.0625
987.86502	13748.2625
991.59999	13814.5625
995.33237	13938.1625
999.06217	14162.0625
1002.78939	14427.9625
1006.51404	14704.1625
1010.23611	14971.5625
1013.95561	15120.1625
1017.67255	15056.4625
1021.38692	14830.7625
1025.09872	14630.9625
1028.80796	14538.0625
1032.51465	14605.2625
1036.21877	14752.1625
1039.92035	14912.1625
1043.61937	14933.7625
1047.31584	14958.9625
1051.00976	14949.6625
1054.70114	14946.3625
1058.38998	15002.1625
1062.07627	15192.9625
1065.76003	15489.0625
1069.44126	15929.6625
1073.11995	16594.7625
1076.79611	17205.8625
1080.46974	17490.5625
1084.14085	17420.9625
1087.80943	17111.3625
1091.47549	16711.7625
1095.13903	16102.0625
1098.80005	15528.0625
1102.45857	15077.0625
1106.11456	14911.1625
1109.76805	14999.8625
1113.41903	15246.0625
1117.06751	15649.4625
1120.71348	16192.9625
1124.35696	16814.8625
1127.99793	17314.3625
1131.63641	17194.3625
1135.2724	16582.6625
1138.90589	15974.1625
1142.5369	15582.4625
1146.16542	15261.2625
1149.79145	15079.9625
1153.415	15109.1625
1157.03607	15214.2625
1160.65467	15475.5625
1164.27079	15975.1625
1167.88443	16772.5625
1171.49561	18058.6625
1175.10432	20085.4625
1178.71056	22505.2625
1182.31434	24156.7625
1185.91565	24335.7625
1189.51451	23579.9625
1193.11091	22298.7625
1196.70485	20881.1625
1200.29634	19781.8625
1203.88538	18942.8625
1207.47197	17994.1625
1211.05612	17223.3625
1214.63782	16878.1625
1218.21708	16811.3625
1221.79391	16812.4625
1225.36829	16789.9625
1228.94024	16725.4625
1232.50976	16652.8625
1236.07685	16695.2625
1239.6415	16782.6625
1243.20374	16883.8625
1246.76355	17000.2625
1250.32093	17151.4625
1253.8759	17471.0625
1257.42845	17868.2625
1260.97859	18305.8625
1264.52631	18771.2625
1268.07163	19174.8625
1271.61453	19566.6625
1275.15503	19793.1625
1278.69312	19893.1625
1282.22882	19943.2625
1285.76211	20303.9625
1289.29301	20904.3625
1292.82151	21574.4625
1296.34761	22298.7625
1299.87133	23330.9625
1303.39266	24955.7625
1306.9116	27348.3625
1310.42815	30044.7625
1313.94233	31484.1625
1317.45412	30917.1625
1320.96354	29056.9625
1324.47058	27048.5625
1327.97525	25308.9625
1331.47754	24302.6625
1334.97747	24109.3625
1338.47502	24449.0625
1341.97022	25097.5625
1345.46305	25908.3625
1348.95352	27116.5625
1352.44163	28995.2625
1355.92738	31672.5625
1359.41078	35510.9625
1362.89183	38802.0625
1366.37053	37598.1625
1369.84688	32635.8625
1373.32088	27716.0625
1376.79254	24532.1625
1380.26186	22884.4625
1383.72883	21960.5625
1387.19347	21214.3625
1390.65578	20440.1625
1394.11575	19849.5625
1397.57339	19571.5625
1401.0287	19651.5625
1404.48168	19829.2625
1407.93234	20018.4625
1411.38068	20101.3625
1414.82669	20020.0625
1418.27039	19671.6625
1421.71177	19282.3625
1425.15083	18877.0625
1428.58758	18656.3625
1432.02203	18703.3625
1435.45416	18912.7625
1438.88399	18987.5625
1442.31151	18967.4625
1445.73673	19021.7625
1449.15965	19158.6625
1452.58027	19113.9625
1455.9986	19012.5625
1459.41463	18950.4625
1462.82837	19138.7625
1466.23982	19529.1625
1469.64898	19967.7625
1473.05586	20256.2625
1476.46045	20443.0625
1479.86276	20682.0625
1483.26279	20985.1625
1486.66054	21303.1625
1490.05602	21789.1625
1493.44922	22426.4625
1496.84016	23412.9625
1500.22882	25027.2625
1503.61521	27295.3625
1506.99934	29912.8625
1510.38121	32325.8625
1513.76081	33340.8625
1517.13816	31829.9625
1520.51324	28462.7625
1523.88607	25206.8625
1527.25665	23055.8625
1530.62498	21957.0625
1533.99105	21408.9625
1537.35488	21139.1625
1540.71647	20987.0625
1544.07581	20915.6625
1547.4329	20876.2625
1550.78776	20715.7625
1554.14038	20596.6625
1557.49077	20597.2625
1560.83892	20785.5625
1564.18484	21191.1625
1567.52853	21857.6625
1570.86999	22582.4625
1574.20922	23389.2625
1577.54624	24015.0625
1580.88103	23667.1625
1584.2136	22493.2625
1587.54395	21272.6625
1590.87208	20766.9625
1594.19801	21286.1625
1597.52172	22396.2625
1600.84321	22954.3625
1604.16251	22385.3625
1607.47959	21058.7625
1610.79447	19492.7625
1614.10715	17983.4625
1617.41763	16806.2625
1620.7259	16124.4625
1624.03199	15793.5625
1627.33587	15764.0625
1630.63757	16011.6625
1633.93707	16675.3625
1637.23439	17684.7625
1640.52951	19255.2625
1643.82246	21321.5625
1647.11321	23650.6625
1650.40179	25108.7625
1653.68819	24292.2625
1656.97241	21396.0625
1660.25446	18293.2625
1663.53433	16137.7625
1666.81203	14850.3625
1670.08756	14107.6625
1673.36092	13622.0625
1676.63211	13271.2625
1679.90115	13093.8625
1683.16801	12876.2625
1686.43272	12738.7625
1689.69527	12643.7625
1692.95567	12572.8625
1696.2139	12540.0625
1699.46999	12522.2625
1702.72392	12488.9625
1705.97571	12461.5625
1709.22535	12422.8625
1712.47284	12416.6625
1715.71819	12393.7625
1718.96139	12399.3625
1722.20246	12344.6625
1725.44139	12319.7625
1728.67818	12193.2625
1731.91284	12119.4625
1735.14537	12033.7625
1738.37576	12007.2625
1741.60403	11950.3625
1744.83017	11918.3625
1748.05418	11869.9625
1751.27607	11857.6625
1754.49584	11813.4625
1757.71349	11831.1625
1760.92903	11779.3625
1764.14244	11781.7625
1767.35375	11779.4625
1770.56294	11725.0625
1773.77002	11701.3625
1776.97499	11682.0625
1780.17785	11642.2625
1783.37861	11626.4625
1786.57727	11585.6625
1789.77382	11552.9625
1792.96828	11543.9625
1796.16064	11511.9625
1799.3509	11492.6625
1802.53907	11483.8625
1805.72514	11439.7625
1808.90913	11404.4625
1812.09102	11361.9625
1815.27083	11329.4625
1818.44856	11316.2625
1821.6242	11299.4625
1824.79776	11279.5625
1827.96924	11274.1625
1831.13864	11248.9625
1834.30597	11259.5625
1837.47122	11258.3625
1840.6344	11215.5625
1843.7955	11208.2625
1846.95454	11203.3625
1850.11151	11156.6625
1853.26642	11171.7625
1856.41926	11184.2625
1859.57004	11173.2625
1862.71876	11148.2625
1865.86542	11142.7625
1869.01003	11151.5625
1872.15258	11148.8625
1875.29308	11146.1625
1878.43152	11104.1625
1881.56792	11123.2625
1884.70227	11138.4625
1887.83457	11123.0625
1890.96482	11080.7625
1894.09304	11105.2625
1897.21921	11109.3625
1900.34335	11096.0625
1903.46544	11053.1625
1906.58551	11070.8625
1909.70353	11042.3625
1912.81953	11059.2625
1915.93349	11039.5625
1919.04543	11007.0625
1922.15534	10980.2625
1925.26322	10965.5625
1928.36908	10954.2625
1931.47292	10945.9625
1934.57473	10886.2625
1937.67453	10864.1625
1940.77232	10817.4625
1943.86808	10789.3625
1946.96184	10765.0625
1950.05358	10735.7625
1953.14331	10696.1625
1956.23103	10661.3625
1959.31675	10654.5625
1962.40046	10626.3625
1965.48217	10589.3625
1968.56188	10571.9625
1971.63959	10511.8625
1974.7153	10500.4625
1977.78901	10447.0625
1980.86073	10427.6625
1983.93046	10400.3625
1986.99819	10340.9625
1990.06394	10321.8625
1993.1277	10292.3625
1996.18947	10248.3625
1999.24925	10227.4625
2002.30706	10197.2625
2005.36288	10134.5625
2008.41672	10102.4625
2011.46859	10087.2625
2014.51848	10090.5625
2017.56639	10064.9625
2020.61233	10039.5625
2023.6563	9996.9625
2026.6983	9974.3625
2029.73833	9984.6625
2032.7764	9944.1625
2035.8125	9901.7625
2038.84664	9887.5625
2041.87881	9876.6625
2044.90903	9861.6625
2047.93729	9828.1625
2050.96359	9821.4625
2053.98794	9811.3625
2057.01034	9793.4625
2060.03078	9778.6625
2063.04927	9750.1625
2066.06582	9773.3625
2069.08042	9739.5625
2072.09307	9734.4625
2075.10378	9718.7625
2078.11255	9714.3625
2081.11938	9714.0625
2084.12426	9716.2625
2087.12722	9720.9625
2090.12824	9703.5625
2093.12732	9729.7625
2096.12447	9722.0625
2099.11969	9695.5625
2102.11299	9719.6625
2105.10435	9715.4625
2108.09379	9703.3625
2111.08131	9719.9625
2114.0669	9710.1625
2117.05057	9706.3625
2120.03233	9716.8625
2123.01216	9727.3625
2125.99008	9722.6625
2128.96609	9730.9625
2131.94018	9752.2625
2134.91236	9770.8625
2137.88263	9754.0625
2140.851	9748.5625
2143.81746	9762.1625
2146.78201	9760.7625
2149.74466	9762.6625
2152.7054	9772.6625
2155.66425	9750.7625
2158.6212	9740.0625
2161.57625	9758.6625
2164.52941	9742.4625
2167.48067	9721.5625
2170.43004	9717.8625
2173.37752	9707.9625
2176.32311	9719.2625
2179.26681	9707.5625
2182.20863	9674.6625
2185.14856	9695.6625
2188.08661	9664.2625
2191.02278	9712.8625
2193.95707	9651.1625
2196.88948	9669.3625
2199.82001	9678.3625
2202.74867	9632.3625
2205.67545	9631.0625
2208.60037	9609.2625
2211.52341	9608.4625
2214.44458	9593.1625
2217.36388	9559.9625
2220.28132	9543.9625
2223.1969	9521.3625
2226.11061	9477.8625
2229.02246	9478.9625
2231.93245	9471.0625
2234.84058	9452.6625
2237.74686	9443.2625
2240.65128	9419.0625
2243.55385	9406.0625
2246.45456	9390.4625
2249.35343	9398.5625
2252.25044	9353.5625
2255.14561	9349.1625
2258.03893	9365.5625
2260.93041	9361.8625
2263.82004	9326.4625
2266.70783	9319.7625
2269.59378	9291.4625
2272.4779	9242.9625
2275.36017	9238.1625
2278.24061	9202.6625
2281.11922	9190.0625
2283.996	9158.1625
2286.87094	9162.4625
2289.74405	9139.5625
2292.61534	9126.9625
2295.4848	9073.9625
2298.35243	9106.0625
2301.21824	9091.9625
2304.08223	9073.5625
2306.94439	9051.8625
2309.80474	9060.5625
2312.66327	9052.9625
2315.51999	9039.5625
2318.37489	9045.1625
2321.22797	9043.8625
2324.07925	9043.2625
2326.92871	9018.6625
2329.77637	9022.4625
2332.62222	8977.7625
2335.46626	8963.4625
2338.3085	8970.2625
2341.14893	8963.5625
2343.98756	8962.5625
2346.8244	8964.9625
2349.65943	8935.5625
2352.49267	8951.9625
2355.32411	8954.1625
2358.15376	8929.7625
2360.98161	8929.8625
2363.80768	8954.1625
2366.63195	8946.7625
2369.45444	8957.7625
2372.27514	8932.6625
2375.09405	8938.7625
2377.91118	8899.5625
2380.72652	8877.6625
2383.54009	8848.9625
2386.35187	8834.7625
2389.16188	8777.0625
2391.97011	8750.4625
2394.77657	8730.8625
2397.58125	8706.1625
2400.38416	8707.2625
2403.18529	8694.8625
2405.98466	8674.9625
2408.78226	8676.7625
2411.57809	8673.1625
2414.37216	8627.7625
2417.16446	8594.8625
2419.955	8615.8625
2422.74378	8592.6625
2425.5308	8577.0625
2428.31606	8561.4625
2431.09956	8584.2625
2433.88131	8564.6625
2436.6613	8559.9625
2439.43954	8559.0625
2442.21603	8551.6625
2444.99077	8530.1625
2447.76377	8559.0625
2450.53501	8544.4625
2453.30451	8535.4625
2456.07226	8494.1625
2458.83827	8527.1625
2461.60254	8501.7625
2464.36507	8511.2625
2467.12586	8505.5625
2469.88492	8474.2625
2472.64224	8455.6625
2475.39782	8469.6625
2478.15167	8484.5625
2480.90379	8473.8625
2483.65417	8513.5625
2486.40283	8512.3625
2489.14976	8524.2625
2491.89497	8509.8625
2494.63845	8533.6625
2497.3802	8531.1625
2500.12024	8491.0625
2502.85855	8471.6625
2505.59514	8460.5625
2508.33002	8433.5625
2511.06318	8417.5625
2513.79462	8397.4625
2516.52435	8372.0625
2519.25237	8346.7625
2521.97867	8318.2625
2524.70327	8332.8625
2527.42616	8305.8625
2530.14734	8287.6625
2532.86681	8284.9625
2535.58458	8293.4625
2538.30065	8271.6625
2541.01501	8257.1625
2543.72768	8266.4625
2546.43864	8265.4625
2549.14791	8232.4625
2551.85548	8227.8625
2554.56136	8228.4625
2557.26554	8194.9625
2559.96803	8200.5625
2562.66883	8166.6625
2565.36794	8171.5625
2568.06536	8162.9625
2570.7611	8156.4625
2573.45514	8134.2625
2576.14751	8140.7625
2578.83819	8109.6625
2581.52719	8120.1625
2584.21451	8067.0625
2586.90015	8077.2625
2589.58411	8037.7625
2592.2664	8035.3625
2594.94701	8031.2625
2597.62594	8007.5625
2600.30321	7981.9625
2602.9788	7981.6625
2605.65273	7973.2625
2608.32498	7954.4625
2610.99557	7971.2625
2613.66449	7964.0625
2616.33175	7941.4625
2618.99734	7943.6625
2621.66128	7930.5625
2624.32355	7950.4625
2626.98416	7909.1625
2629.64311	7912.1625
2632.30041	7912.7625
2634.95605	7901.8625
2637.61004	7877.9625
2640.26238	7861.7625
2642.91306	7865.2625
2645.56209	7856.5625
2648.20948	7861.5625
2650.85521	7858.0625
2653.4993	7850.1625
2656.14175	7866.0625
2658.78255	7845.4625
2661.42171	7839.0625
2664.05923	7847.6625
2666.6951	7854.9625
2669.32934	7854.3625
2671.96194	7839.5625
2674.59291	7855.8625
2677.22224	7860.4625
2679.84993	7867.3625
2682.476	7875.2625
2685.10043	7867.6625
2687.72324	7846.5625
2690.34441	7842.8625
2692.96396	7863.2625
2695.58188	7870.2625
2698.19818	7861.2625
2700.81285	7849.9625
2703.4259	7867.4625
2706.03733	7930.0625
2708.64714	7927.0625
2711.25533	7908.0625
2713.86191	7904.6625
2716.46687	7915.9625
2719.07021	7906.2625
2721.67194	7902.7625
2724.27206	7876.5625
2726.87057	7906.0625
2729.46747	7892.2625
2732.06276	7892.6625
2734.65644	7863.6625
2737.24852	7853.6625
2739.83899	7824.2625
2742.42786	7849.4625
2745.01513	7822.3625
2747.60079	7809.4625
2750.18486	7809.1625
2752.76733	7817.3625
2755.3482	7792.2625
2757.92747	7782.5625
2760.50515	7776.7625
2763.08123	7768.9625
2765.65573	7739.4625
2768.22863	7748.5625
2770.79994	7744.6625
2773.36967	7762.3625
2775.9378	7751.8625
2778.50435	7725.9625
2781.06932	7719.3625
2783.6327	7721.9625
2786.1945	7744.2625
2788.75471	7710.3625
2791.31335	7697.8625
2793.87041	7685.3625
2796.42589	7682.5625
2798.97979	7690.7625
2801.53212	7691.1625
2804.08288	7689.2625
2806.63206	7660.2625
2809.17967	7661.8625
2811.72571	7657.6625
2814.27018	7665.2625
2816.81308	7684.8625
2819.35442	7701.5625
2821.89419	7657.4625
2824.43239	7683.8625
2826.96904	7663.1625
2829.50412	7698.7625
2832.03763	7637.7625
2834.56959	7679.5625
2837.1	7673.1625
2839.62884	7733.3625
2842.15613	7749.4625
2844.68186	7815.4625
2847.20604	7864.4625
2849.72867	7927.1625
2852.24974	7954.1625
2854.76927	7949.0625
2857.28724	7946.4625
2859.80367	7892.7625
2862.31855	7883.2625
2864.83189	7866.5625
2867.34368	7840.2625
2869.85393	7857.6625
2872.36264	7835.4625
2874.8698	7855.2625
2877.37543	7837.6625
2879.87952	7837.3625
2882.38207	7860.3625
2884.88308	7857.4625
2887.38256	7867.0625
2889.88051	7838.0625
2892.37692	7845.1625
2894.8718	7832.8625
2897.36515	7830.9625
2899.85698	7856.9625
2902.34727	7894.4625
2904.83604	7864.0625
2907.32328	7898.5625
2909.809	7883.2625
2912.29319	7891.7625
2914.77587	7893.9625
2917.25702	7871.2625
2919.73665	7856.9625
2922.21476	7884.9625
2924.69136	7836.3625
2927.16644	7852.4625
2929.64	7829.2625
2932.11205	7814.3625
2934.58258	7780.5625
2937.05161	7781.1625
2939.51912	7740.8625
2941.98513	7695.7625
2944.44962	7653.9625
2946.91261	7579.6625
2949.37409	7550.6625
2951.83407	7502.8625
2954.29254	7497.8625
2956.74951	7437.5625
2959.20498	7409.0625
2961.65895	7380.7625
2964.11142	7385.3625
2966.56239	7365.3625
2969.01186	7346.2625
2971.45984	7319.3625
2973.90632	7301.5625
2976.35131	7261.2625
2978.7948	7227.3625
2981.23681	7234.3625
2983.67732	7179.6625
2986.11635	7182.6625
2988.55388	7158.9625
2990.98993	7152.4625
2993.4245	7130.8625
2995.85758	7109.5625
2998.28917	7069.1625
3000.71928	7059.5625
3003.14791	7056.6625
3005.57506	7048.0625
3008.00073	7034.5625
3010.42493	7025.7625
3012.84764	7014.6625
3015.26888	6999.0625
3017.68865	6965.2625
3020.10694	6972.4625
3022.52376	6958.0625
3024.9391	6928.6625
3027.35298	6941.5625
3029.76539	6953.6625
3032.17632	6947.9625
3034.5858	6914.3625
3036.9938	6903.0625
3039.40034	6897.7625
3041.80542	6891.1625
3044.20903	6854.7625
3046.61118	6869.0625
3049.01187	6840.2625
3051.4111	6849.4625
3053.80888	6843.1625
3056.20519	6815.8625
3058.60005	6799.5625
3060.99345	6806.3625
3063.3854	6787.3625
3065.7759	6785.3625
3068.16494	6772.0625
