Data from AgNP_FTO_APTES_CRN_0uM_R6G_10uM_NaF_0.1M_Addition_RamanShift__6__11-36-42-901.txt Node

Date: Wed Dec 15 11:36:42 GMT 2021
User: TCL
Spectrometer: QEP01345
Trigger mode: 4
Integration Time (sec): 7.000000E0
Scans to average: 10
Electric dark correction enabled: true
Nonlinearity correction enabled: false
Boxcar width: 0
XAxis mode: Raman Shifts
Number of Pixels in Spectrum: 1044
>>>>>Begin Spectral Data<<<<<
46.04893	0.6375
50.45542	-0.7625
54.85868	-0.5625
59.25871	0.1375
63.6555	70.5375
68.04907	82.3375
72.43941	88.7375
76.82654	97.0375
81.21044	102.2375
85.59113	106.2375
89.96862	111.4375
94.34289	111.8375
98.71396	120.8375
103.08183	125.8375
107.4465	128.3375
111.80798	127.3375
116.16626	126.5375
120.52136	127.5375
124.87327	122.6375
129.222	128.5375
133.56755	122.8375
137.90993	130.4375
142.24913	128.2375
146.58517	127.5375
150.91804	136.5375
155.24774	138.6375
159.57429	152.8375
163.89768	174.3375
168.21792	198.9375
172.53501	243.1375
176.84895	301.5375
181.15975	395.0375
185.46741	520.2375
189.77193	714.0375
194.07331	955.5375
198.37157	1241.2375
202.6667	1539.5375
206.9587	1860.2375
211.24758	2185.2375
215.53334	2492.7375
219.81599	2813.1375
224.09553	3181.0375
228.37195	3557.3375
232.64527	3954.4375
236.91549	4361.8375
241.18261	4764.6375
245.44663	5112.0375
249.70755	5424.8375
253.96539	5646.3375
258.22014	5779.3375
262.4718	5853.2375
266.72039	5840.8375
270.96589	5745.1375
275.20832	5596.6375
279.44768	5431.8375
283.68397	5237.1375
287.91719	5048.5375
292.14735	4905.0375
296.37445	4804.1375
300.59849	4726.5375
304.81948	4714.3375
309.03742	4681.0375
313.25231	4663.8375
317.46415	4632.6375
321.67296	4576.9375
325.87872	4525.2375
330.08145	4497.4375
334.28114	4484.3375
338.47781	4459.3375
342.67145	4425.9375
346.86207	4418.2375
351.04966	4374.8375
355.23424	4338.5375
359.4158	4274.0375
363.59435	4229.6375
367.76989	4172.7375
371.94243	4100.6375
376.11196	4062.2375
380.27849	4026.2375
384.44203	3993.9375
388.60257	3962.0375
392.76012	3949.0375
396.91468	3944.7375
401.06626	3971.7375
405.21485	3999.0375
409.36047	3983.7375
413.50311	3939.4375
417.64277	3884.0375
421.77947	3872.0375
425.9132	3884.3375
430.04396	3908.1375
434.17176	3914.1375
438.2966	3960.9375
442.41849	3999.2375
446.53742	4032.4375
450.6534	4066.7375
454.76644	4080.1375
458.87653	4116.8375
462.98368	4110.0375
467.08789	4115.7375
471.18916	4107.3375
475.2875	4092.5375
479.38291	4079.4375
483.4754	4087.4375
487.56496	4086.9375
491.6516	4081.8375
495.73531	4122.3375
499.81612	4127.9375
503.89401	4175.1375
507.96899	4231.8375
512.04106	4283.2375
516.11023	4310.4375
520.1765	4344.0375
524.23987	4352.8375
528.30034	4313.5375
532.35792	4278.2375
536.41261	4258.7375
540.46441	4198.2375
544.51333	4170.4375
548.55936	4185.6375
552.60252	4201.4375
556.64279	4258.7375
560.6802	4269.3375
564.71473	4267.7375
568.7464	4239.9375
572.7752	4228.7375
576.80114	4147.8375
580.82422	4100.9375
584.84444	4086.7375
588.86181	4103.7375
592.87633	4184.8375
596.888	4307.8375
600.89682	4477.4375
604.9028	4784.1375
608.90594	5250.1375
612.90624	5728.7375
616.90371	5635.4375
620.89834	4892.6375
624.89015	4329.7375
628.87913	4084.3375
632.86528	3966.9375
636.84862	3933.1375
640.82913	3907.6375
644.80683	3866.2375
648.78172	3844.6375
652.75379	3860.4375
656.72306	3918.2375
660.68952	3980.8375
664.65319	4006.9375
668.61405	3968.3375
672.57211	3960.0375
676.52738	3974.7375
680.47986	4002.6375
684.42955	4003.0375
688.37646	4001.3375
692.32058	4016.7375
696.26192	4021.6375
700.20048	4054.8375
704.13626	4106.3375
708.06928	4160.9375
711.99952	4219.4375
715.927	4255.3375
719.85171	4265.2375
723.77365	4265.8375
727.69284	4265.3375
731.60928	4249.6375
735.52295	4257.8375
739.43388	4223.7375
743.34206	4229.0375
747.24749	4213.4375
751.15017	4210.6375
755.05012	4229.3375
758.94733	4244.2375
762.8418	4328.1375
766.73354	4472.3375
770.62254	4687.5375
774.50882	4802.2375
778.39237	4732.9375
782.27321	4513.9375
786.15132	4300.3375
790.02671	4179.5375
793.89938	4119.1375
797.76935	4085.5375
801.6366	4071.1375
805.50115	4061.5375
809.36299	4047.0375
813.22213	4029.5375
817.07857	4002.3375
820.93231	3987.9375
824.78336	3964.5375
828.63172	3965.0375
832.47738	3977.3375
836.32036	3983.0375
840.16066	3987.4375
843.99827	4011.2375
847.8332	4019.1375
851.66546	4014.9375
855.49504	4008.8375
859.32195	4010.3375
863.1462	4001.8375
866.96777	4006.9375
870.78668	4021.2375
874.60293	4021.8375
878.41652	4055.5375
882.22745	4075.9375
886.03573	4140.4375
889.84136	4220.1375
893.64433	4303.5375
897.44466	4385.9375
901.24235	4503.9375
905.0374	4621.2375
908.8298	4760.0375
912.61957	4939.0375
916.40671	5148.4375
920.19121	5319.3375
923.97308	5482.2375
927.75233	5550.0375
931.52895	5498.9375
935.30295	5353.1375
939.07433	5144.6375
942.84309	4911.2375
946.60924	4723.0375
950.37278	4592.2375
954.13371	4462.2375
957.89203	4352.2375
961.64774	4226.7375
965.40086	4132.5375
969.15137	4041.1375
972.89929	3979.1375
976.64461	3934.0375
980.38733	3896.5375
984.12747	3883.0375
987.86502	3909.5375
991.59999	3912.8375
995.33237	3997.3375
999.06217	4069.7375
1002.78939	4146.3375
1006.51404	4214.2375
1010.23611	4245.4375
1013.95561	4230.0375
1017.67255	4171.4375
1021.38692	4105.7375
1025.09872	4045.2375
1028.80796	4023.1375
1032.51465	4033.4375
1036.21877	4088.3375
1039.92035	4171.5375
1043.61937	4262.0375
1047.31584	4349.1375
1051.00976	4463.9375
1054.70114	4578.2375
1058.38998	4658.0375
1062.07627	4717.0375
1065.76003	4735.0375
1069.44126	4720.2375
1073.11995	4728.4375
1076.79611	4692.6375
1080.46974	4668.5375
1084.14085	4636.9375
1087.80943	4601.2375
1091.47549	4523.5375
1095.13903	4455.0375
1098.80005	4355.7375
1102.45857	4269.1375
1106.11456	4206.7375
1109.76805	4171.2375
1113.41903	4171.3375
1117.06751	4160.8375
1120.71348	4165.2375
1124.35696	4178.5375
1127.99793	4175.3375
1131.63641	4148.6375
1135.2724	4038.8375
1138.90589	3936.7375
1142.5369	3832.8375
1146.16542	3732.8375
1149.79145	3650.0375
1153.415	3603.5375
1157.03607	3564.0375
1160.65467	3567.3375
1164.27079	3626.1375
1167.88443	3699.8375
1171.49561	3880.3375
1175.10432	4142.0375
1178.71056	4555.3375
1182.31434	5021.5375
1185.91565	5385.3375
1189.51451	5551.6375
1193.11091	5497.9375
1196.70485	5224.8375
1200.29634	4877.8375
1203.88538	4546.0375
1207.47197	4217.3375
1211.05612	3982.4375
1214.63782	3823.4375
1218.21708	3768.0375
1221.79391	3790.1375
1225.36829	3877.3375
1228.94024	3919.6375
1232.50976	3951.6375
1236.07685	3881.5375
1239.6415	3793.7375
1243.20374	3702.6375
1246.76355	3650.3375
1250.32093	3613.2375
1253.8759	3616.2375
1257.42845	3647.0375
1260.97859	3702.0375
1264.52631	3771.2375
1268.07163	3852.1375
1271.61453	3913.3375
1275.15503	3961.5375
1278.69312	4008.8375
1282.22882	4076.1375
1285.76211	4192.3375
1289.29301	4298.9375
1292.82151	4403.8375
1296.34761	4479.1375
1299.87133	4532.9375
1303.39266	4575.4375
1306.9116	4682.4375
1310.42815	4799.4375
1313.94233	4848.7375
1317.45412	4745.2375
1320.96354	4544.4375
1324.47058	4355.0375
1327.97525	4230.0375
1331.47754	4135.9375
1334.97747	4105.3375
1338.47502	4109.6375
1341.97022	4164.0375
1345.46305	4266.2375
1348.95352	4414.0375
1352.44163	4642.3375
1355.92738	4928.3375
1359.41078	5286.9375
1362.89183	5672.1375
1366.37053	5756.8375
1369.84688	5381.8375
1373.32088	4899.3375
1376.79254	4561.8375
1380.26186	4363.3375
1383.72883	4287.0375
1387.19347	4246.9375
1390.65578	4179.5375
1394.11575	4144.0375
1397.57339	4088.1375
1401.0287	4038.1375
1404.48168	4033.0375
1407.93234	4014.2375
1411.38068	3977.4375
1414.82669	3941.4375
1418.27039	3895.0375
1421.71177	3844.2375
1425.15083	3765.2375
1428.58758	3713.8375
1432.02203	3691.9375
1435.45416	3675.2375
1438.88399	3725.2375
1442.31151	3753.2375
1445.73673	3783.6375
1449.15965	3774.6375
1452.58027	3744.3375
1455.9986	3673.0375
1459.41463	3616.0375
1462.82837	3595.0375
1466.23982	3615.2375
1469.64898	3623.8375
1473.05586	3649.9375
1476.46045	3654.7375
1479.86276	3686.9375
1483.26279	3706.1375
1486.66054	3743.2375
1490.05602	3767.6375
1493.44922	3798.9375
1496.84016	3854.0375
1500.22882	3974.6375
1503.61521	4173.7375
1506.99934	4412.9375
1510.38121	4637.0375
1513.76081	4703.4375
1517.13816	4561.9375
1520.51324	4257.5375
1523.88607	3952.1375
1527.25665	3725.8375
1530.62498	3616.6375
1533.99105	3555.1375
1537.35488	3519.6375
1540.71647	3469.7375
1544.07581	3448.8375
1547.4329	3430.5375
1550.78776	3433.2375
1554.14038	3419.6375
1557.49077	3447.2375
1560.83892	3443.9375
1564.18484	3468.4375
1567.52853	3500.8375
1570.86999	3526.5375
1574.20922	3565.9375
1577.54624	3596.8375
1580.88103	3532.6375
1584.2136	3442.1375
1587.54395	3357.3375
1590.87208	3298.0375
1594.19801	3294.4375
1597.52172	3324.7375
1600.84321	3344.0375
1604.16251	3310.5375
1607.47959	3260.6375
1610.79447	3208.5375
1614.10715	3154.8375
1617.41763	3095.4375
1620.7259	3076.1375
1624.03199	3061.3375
1627.33587	3073.7375
1630.63757	3073.0375
1633.93707	3074.5375
1637.23439	3120.8375
1640.52951	3178.8375
1643.82246	3292.7375
1647.11321	3436.1375
1650.40179	3561.8375
1653.68819	3518.5375
1656.97241	3301.8375
1660.25446	3046.1375
1663.53433	2836.8375
1666.81203	2704.9375
1670.08756	2600.0375
1673.36092	2538.7375
1676.63211	2493.7375
1679.90115	2454.8375
1683.16801	2426.9375
1686.43272	2399.3375
1689.69527	2377.9375
1692.95567	2346.6375
1696.2139	2324.0375
1699.46999	2309.9375
1702.72392	2288.3375
1705.97571	2281.5375
1709.22535	2281.8375
1712.47284	2269.4375
1715.71819	2258.9375
1718.96139	2241.5375
1722.20246	2226.3375
1725.44139	2221.1375
1728.67818	2195.9375
1731.91284	2185.4375
1735.14537	2173.6375
1738.37576	2158.6375
1741.60403	2139.4375
1744.83017	2136.3375
1748.05418	2136.7375
1751.27607	2115.6375
1754.49584	2103.5375
1757.71349	2096.3375
1760.92903	2078.4375
1764.14244	2090.5375
1767.35375	2072.0375
1770.56294	2085.9375
1773.77002	2063.7375
1776.97499	2056.3375
1780.17785	2056.7375
1783.37861	2061.9375
1786.57727	2049.8375
1789.77382	2047.7375
1792.96828	2050.4375
1796.16064	2040.0375
1799.3509	2028.6375
1802.53907	2036.9375
1805.72514	2031.5375
1808.90913	2021.9375
1812.09102	2016.5375
1815.27083	2015.5375
1818.44856	2003.9375
1821.6242	2007.1375
1824.79776	2010.9375
1827.96924	1996.4375
1831.13864	1989.6375
1834.30597	1976.1375
1837.47122	1978.6375
1840.6344	1985.3375
1843.7955	1983.0375
1846.95454	1966.8375
1850.11151	1970.3375
1853.26642	1962.9375
1856.41926	1955.2375
1859.57004	1954.2375
1862.71876	1943.7375
1865.86542	1943.2375
1869.01003	1938.8375
1872.15258	1942.2375
1875.29308	1925.8375
1878.43152	1919.4375
1881.56792	1912.8375
1884.70227	1902.6375
1887.83457	1906.8375
1890.96482	1910.6375
1894.09304	1910.2375
1897.21921	1895.4375
1900.34335	1899.7375
1903.46544	1897.1375
1906.58551	1892.5375
1909.70353	1878.8375
1912.81953	1894.2375
1915.93349	1879.1375
1919.04543	1877.9375
1922.15534	1878.4375
1925.26322	1861.4375
1928.36908	1861.1375
1931.47292	1849.2375
1934.57473	1850.3375
1937.67453	1851.7375
1940.77232	1833.4375
1943.86808	1835.3375
1946.96184	1828.1375
1950.05358	1815.6375
1953.14331	1808.5375
1956.23103	1804.4375
1959.31675	1802.1375
1962.40046	1799.1375
1965.48217	1788.4375
1968.56188	1785.9375
1971.63959	1776.3375
1974.7153	1773.9375
1977.78901	1766.5375
1980.86073	1754.3375
1983.93046	1749.0375
1986.99819	1750.7375
1990.06394	1743.8375
1993.1277	1734.1375
1996.18947	1728.0375
1999.24925	1722.5375
2002.30706	1714.5375
2005.36288	1711.1375
2008.41672	1718.0375
2011.46859	1700.3375
2014.51848	1689.7375
2017.56639	1691.2375
2020.61233	1677.3375
2023.6563	1670.5375
2026.6983	1681.7375
2029.73833	1663.1375
2032.7764	1660.8375
2035.8125	1655.4375
2038.84664	1643.4375
2041.87881	1660.3375
2044.90903	1645.5375
2047.93729	1646.8375
2050.96359	1639.5375
2053.98794	1635.5375
2057.01034	1627.2375
2060.03078	1631.6375
2063.04927	1622.4375
2066.06582	1629.7375
2069.08042	1622.0375
2072.09307	1629.8375
2075.10378	1619.6375
2078.11255	1611.9375
2081.11938	1633.1375
2084.12426	1618.2375
2087.12722	1619.2375
2090.12824	1613.7375
2093.12732	1608.4375
2096.12447	1615.4375
2099.11969	1622.2375
2102.11299	1617.3375
2105.10435	1621.4375
2108.09379	1613.6375
2111.08131	1610.2375
2114.0669	1617.0375
2117.05057	1610.8375
2120.03233	1606.2375
2123.01216	1612.3375
2125.99008	1610.2375
2128.96609	1612.5375
2131.94018	1608.0375
2134.91236	1609.7375
2137.88263	1609.5375
2140.851	1604.8375
2143.81746	1598.0375
2146.78201	1610.0375
2149.74466	1600.0375
2152.7054	1604.5375
2155.66425	1595.9375
2158.6212	1597.0375
2161.57625	1594.5375
2164.52941	1595.2375
2167.48067	1590.3375
2170.43004	1580.5375
2173.37752	1581.9375
2176.32311	1583.1375
2179.26681	1583.8375
2182.20863	1579.3375
2185.14856	1571.7375
2188.08661	1585.4375
2191.02278	1587.0375
2193.95707	1662.8375
2196.88948	1577.3375
2199.82001	1572.9375
2202.74867	1578.7375
2205.67545	1560.5375
2208.60037	1564.9375
2211.52341	1559.5375
2214.44458	1564.4375
2217.36388	1553.9375
2220.28132	1552.2375
2223.1969	1542.6375
2226.11061	1532.3375
2229.02246	1539.5375
2231.93245	1537.5375
2234.84058	1525.2375
2237.74686	1527.2375
2240.65128	1523.8375
2243.55385	1518.3375
2246.45456	1513.4375
2249.35343	1511.2375
2252.25044	1509.9375
2255.14561	1497.8375
2258.03893	1504.5375
2260.93041	1494.2375
2263.82004	1490.3375
2266.70783	1494.5375
2269.59378	1490.9375
2272.4779	1490.1375
2275.36017	1485.0375
2278.24061	1473.3375
2281.11922	1471.9375
2283.996	1466.9375
2286.87094	1465.1375
2289.74405	1457.3375
2292.61534	1455.3375
2295.4848	1451.5375
2298.35243	1453.6375
2301.21824	1442.2375
2304.08223	1453.1375
2306.94439	1430.0375
2309.80474	1438.7375
2312.66327	1437.4375
2315.51999	1434.4375
2318.37489	1441.0375
2321.22797	1428.5375
2324.07925	1433.3375
2326.92871	1424.9375
2329.77637	1424.2375
2332.62222	1424.1375
2335.46626	1416.5375
2338.3085	1415.0375
2341.14893	1416.6375
2343.98756	1413.5375
2346.8244	1401.2375
2349.65943	1396.6375
2352.49267	1399.2375
2355.32411	1398.1375
2358.15376	1401.1375
2360.98161	1406.8375
2363.80768	1399.9375
2366.63195	1403.8375
2369.45444	1407.3375
2372.27514	1393.8375
2375.09405	1401.7375
2377.91118	1394.8375
2380.72652	1395.5375
2383.54009	1388.8375
2386.35187	1384.8375
2389.16188	1379.2375
2391.97011	1378.9375
2394.77657	1378.8375
2397.58125	1371.9375
2400.38416	1355.1375
2403.18529	1362.3375
2405.98466	1356.2375
2408.78226	1350.3375
2411.57809	1352.1375
2414.37216	1346.4375
2417.16446	1343.0375
2419.955	1332.1375
2422.74378	1342.2375
2425.5308	1335.5375
2428.31606	1324.4375
2431.09956	1333.2375
2433.88131	1331.7375
2436.6613	1322.3375
2439.43954	1321.9375
2442.21603	1318.4375
2444.99077	1315.1375
2447.76377	1315.5375
2450.53501	1314.1375
2453.30451	1298.8375
2456.07226	1303.9375
2458.83827	1301.8375
2461.60254	1300.7375
2464.36507	1288.4375
2467.12586	1296.8375
2469.88492	1297.9375
2472.64224	1289.7375
2475.39782	1283.7375
2478.15167	1292.6375
2480.90379	1283.9375
2483.65417	1285.1375
2486.40283	1287.7375
2489.14976	1280.6375
2491.89497	1281.3375
2494.63845	1276.8375
2497.3802	1275.7375
2500.12024	1280.7375
2502.85855	1274.2375
2505.59514	1274.3375
2508.33002	1265.8375
2511.06318	1258.2375
2513.79462	1261.5375
2516.52435	1257.1375
2519.25237	1252.3375
2521.97867	1254.2375
2524.70327	1246.4375
2527.42616	1246.9375
2530.14734	1246.3375
2532.86681	1243.0375
2535.58458	1239.6375
2538.30065	1234.5375
2541.01501	1236.5375
2543.72768	1241.5375
2546.43864	1233.8375
2549.14791	1226.2375
2551.85548	1228.5375
2554.56136	1224.2375
2557.26554	1217.0375
2559.96803	1222.9375
2562.66883	1216.9375
2565.36794	1225.1375
2568.06536	1217.5375
2570.7611	1215.0375
2573.45514	1212.5375
2576.14751	1209.1375
2578.83819	1206.3375
2581.52719	1201.2375
2584.21451	1203.6375
2586.90015	1204.1375
2589.58411	1195.3375
2592.2664	1206.0375
2594.94701	1190.1375
2597.62594	1188.4375
2600.30321	1186.3375
2602.9788	1183.4375
2605.65273	1181.4375
2608.32498	1180.2375
2610.99557	1165.8375
2613.66449	1175.1375
2616.33175	1176.1375
2618.99734	1170.1375
2621.66128	1171.2375
2624.32355	1177.7375
2626.98416	1168.1375
2629.64311	1170.7375
2632.30041	1166.9375
2634.95605	1172.8375
2637.61004	1171.1375
2640.26238	1165.4375
2642.91306	1172.0375
2645.56209	1168.0375
2648.20948	1161.7375
2650.85521	1169.9375
2653.4993	1163.4375
2656.14175	1177.5375
2658.78255	1175.3375
2661.42171	1169.9375
2664.05923	1168.5375
2666.6951	1165.5375
2669.32934	1168.7375
2671.96194	1170.1375
2674.59291	1172.9375
2677.22224	1173.6375
2679.84993	1173.5375
2682.476	1172.3375
2685.10043	1174.6375
2687.72324	1166.4375
2690.34441	1176.5375
2692.96396	1176.1375
2695.58188	1179.3375
2698.19818	1175.9375
2700.81285	1183.7375
2703.4259	1181.8375
2706.03733	1177.0375
2708.64714	1167.2375
2711.25533	1182.9375
2713.86191	1174.0375
2716.46687	1186.9375
2719.07021	1187.0375
2721.67194	1184.7375
2724.27206	1184.3375
2726.87057	1189.1375
2729.46747	1184.9375
2732.06276	1199.7375
2734.65644	1189.3375
2737.24852	1199.7375
2739.83899	1199.0375
2742.42786	1209.7375
2745.01513	1217.3375
2747.60079	1216.0375
2750.18486	1216.1375
2752.76733	1235.7375
2755.3482	1242.8375
2757.92747	1237.3375
2760.50515	1254.9375
2763.08123	1248.9375
2765.65573	1257.0375
2768.22863	1254.4375
2770.79994	1267.1375
2773.36967	1260.0375
2775.9378	1263.1375
2778.50435	1266.6375
2781.06932	1260.8375
2783.6327	1275.6375
2786.1945	1270.9375
2788.75471	1272.9375
2791.31335	1275.8375
2793.87041	1282.0375
2796.42589	1292.0375
2798.97979	1290.8375
2801.53212	1286.5375
2804.08288	1286.5375
2806.63206	1287.4375
2809.17967	1289.1375
2811.72571	1281.3375
2814.27018	1273.4375
2816.81308	1268.5375
2819.35442	1267.4375
2821.89419	1271.2375
2824.43239	1272.0375
2826.96904	1260.6375
2829.50412	1256.3375
2832.03763	1258.5375
2834.56959	1263.8375
2837.1	1272.3375
2839.62884	1282.7375
2842.15613	1299.3375
2844.68186	1314.9375
2847.20604	1341.3375
2849.72867	1367.0375
2852.24974	1394.9375
2854.76927	1438.5375
2857.28724	1464.2375
2859.80367	1487.2375
2862.31855	1541.5375
2864.83189	1579.5375
2867.34368	1616.9375
2869.85393	1644.9375
2872.36264	1689.2375
2874.8698	1711.6375
2877.37543	1762.7375
2879.87952	1784.3375
2882.38207	1823.3375
2884.88308	1864.2375
2887.38256	1881.2375
2889.88051	1905.9375
2892.37692	1918.4375
2894.8718	1929.8375
2897.36515	1935.3375
2899.85698	1927.0375
2902.34727	1937.3375
2904.83604	1933.0375
2907.32328	1928.8375
2909.809	1930.5375
2912.29319	1921.8375
2914.77587	1917.2375
2917.25702	1913.0375
2919.73665	1927.0375
2922.21476	1921.6375
2924.69136	1922.4375
2927.16644	1915.6375
2929.64	1916.9375
2932.11205	1901.8375
2934.58258	1883.3375
2937.05161	1873.4375
2939.51912	1857.1375
2941.98513	1830.8375
2944.44962	1805.3375
2946.91261	1763.4375
2949.37409	1725.0375
2951.83407	1695.1375
2954.29254	1654.8375
2956.74951	1610.0375
2959.20498	1582.2375
2961.65895	1541.8375
2964.11142	1522.2375
2966.56239	1490.0375
2969.01186	1463.3375
2971.45984	1430.6375
2973.90632	1396.0375
2976.35131	1359.5375
2978.7948	1352.7375
2981.23681	1332.4375
2983.67732	1307.7375
2986.11635	1283.5375
2988.55388	1257.4375
2990.98993	1243.2375
2993.4245	1238.9375
2995.85758	1222.7375
2998.28917	1215.0375
3000.71928	1199.7375
3003.14791	1198.4375
3005.57506	1189.8375
3008.00073	1193.3375
3010.42493	1183.5375
3012.84764	1173.4375
3015.26888	1172.0375
3017.68865	1172.1375
3020.10694	1169.2375
3022.52376	1164.9375
3024.9391	1170.0375
3027.35298	1162.7375
3029.76539	1159.0375
3032.17632	1159.9375
3034.5858	1167.7375
3036.9938	1161.2375
3039.40034	1153.6375
3041.80542	1155.4375
3044.20903	1162.4375
3046.61118	1160.5375
3049.01187	1153.3375
3051.4111	1156.8375
3053.80888	1163.0375
3056.20519	1160.3375
3058.60005	1169.8375
3060.99345	1170.5375
3063.3854	1168.0375
3065.7759	1163.4375
3068.16494	1182.5375
3070.55254	1179.7375
3072.93868	1175.5375
3075.32338	1172.2375
3077.70662	1185.7375
3080.08842	1171.0375
3082.46878	1191.0375
3084.84769	1195.8375
3087.22515	1203.4375
3089.60118	1211.4375
3091.97576	1210.6375
3094.3489	1215.4375
3096.72061	1220.9375
3099.09087	1227.3375
3101.4597	1229.1375
3103.82709	1239.9375
3106.19305	1248.4375
3108.55757	1243.3375
3110.92066	1262.8375
3113.28232	1261.0375
3115.64255	1265.8375
3118.00134	1263.7375
3120.35871	1280.3375
3122.71466	1285.1375
3125.06917	1287.6375
