Data from AgNP_FTO_APTES_CRN_10uM_R6G_10uM_NaF_0.1M_Addition_RamanShift__10__16-26-37-964.txt Node

Date: Wed Dec 15 16:26:37 GMT 2021
User: TCL
Spectrometer: QEP01345
Trigger mode: 4
Integration Time (sec): 7.000000E0
Scans to average: 10
Electric dark correction enabled: true
Nonlinearity correction enabled: false
Boxcar width: 0
XAxis mode: Raman Shifts
Number of Pixels in Spectrum: 1044
>>>>>Begin Spectral Data<<<<<
46.04893	0.175
50.45542	-2.525
54.85868	-0.525
59.25871	-0.325
63.6555	71.875
68.04907	81.875
72.43941	79.575
76.82654	86.075
81.21044	88.075
85.59113	94.275
89.96862	99.975
94.34289	97.675
98.71396	104.375
103.08183	111.675
107.4465	109.275
111.80798	113.175
116.16626	116.575
120.52136	121.275
124.87327	123.475
129.222	128.675
133.56755	135.575
137.90993	143.075
142.24913	158.175
146.58517	177.775
150.91804	202.775
155.24774	244.975
159.57429	296.675
163.89768	381.675
168.21792	500.775
172.53501	675.275
176.84895	944.575
181.15975	1308.575
185.46741	1848.375
189.77193	2528.775
194.07331	3403.475
198.37157	4381.975
202.6667	5412.375
206.9587	6459.075
211.24758	7472.675
215.53334	8502.075
219.81599	9578.775
224.09553	10763.175
228.37195	12032.575
232.64527	13481.875
236.91549	14984.675
241.18261	16527.075
245.44663	17966.475
249.70755	19276.675
253.96539	20364.475
258.22014	21317.975
262.4718	22055.575
266.72039	22538.775
270.96589	22805.275
275.20832	22867.575
279.44768	22731.975
283.68397	22604.275
287.91719	22498.775
292.14735	22512.875
296.37445	22498.475
300.59849	22536.775
304.81948	22584.375
309.03742	22559.575
313.25231	22357.275
317.46415	21921.775
321.67296	21333.875
325.87872	20793.675
330.08145	20540.575
334.28114	20503.975
338.47781	20650.575
342.67145	20851.575
346.86207	21184.975
351.04966	21519.875
355.23424	21879.375
359.4158	22162.675
363.59435	22334.175
367.76989	22423.575
371.94243	22437.575
376.11196	22398.875
380.27849	22331.575
384.44203	22351.475
388.60257	22431.275
392.76012	22632.475
396.91468	22949.475
401.06626	23336.675
405.21485	23574.375
409.36047	23518.075
413.50311	23255.275
417.64277	23093.975
421.77947	23073.275
425.9132	23217.475
430.04396	23369.975
434.17176	23442.075
438.2966	23451.875
442.41849	23617.675
446.53742	23974.375
450.6534	24324.175
454.76644	24658.375
458.87653	24845.175
462.98368	24868.175
467.08789	24784.675
471.18916	24707.575
475.2875	24538.275
479.38291	24442.075
483.4754	24232.075
487.56496	23936.375
491.6516	23621.575
495.73531	23385.775
499.81612	23309.275
503.89401	23515.175
507.96899	23649.875
512.04106	23779.175
516.11023	23813.975
520.1765	23685.375
524.23987	23542.075
528.30034	23361.975
532.35792	23061.275
536.41261	22774.575
540.46441	22596.675
544.51333	22526.575
548.55936	22839.675
552.60252	23324.775
556.64279	23760.275
560.6802	23992.775
564.71473	24144.275
568.7464	24494.275
572.7752	25136.975
576.80114	25857.875
580.82422	26639.975
584.84444	27293.675
588.86181	27749.775
592.87633	27882.875
596.888	27511.675
600.89682	26880.175
604.9028	26925.175
608.90594	28351.275
612.90624	29731.375
616.90371	28142.175
620.89834	24432.975
624.89015	22727.675
628.87913	22587.075
632.86528	22775.675
636.84862	22917.075
640.82913	22703.375
644.80683	22243.975
648.78172	21902.475
652.75379	21814.775
656.72306	21913.875
660.68952	22204.475
664.65319	22173.175
668.61405	21978.975
672.57211	21902.175
676.52738	21966.275
680.47986	21914.475
684.42955	21817.275
688.37646	21780.375
692.32058	21827.175
696.26192	22019.375
700.20048	22284.475
704.13626	22560.675
708.06928	22681.275
711.99952	22691.175
715.927	22601.475
719.85171	22543.375
723.77365	22355.075
727.69284	22051.575
731.60928	21719.575
735.52295	21592.975
739.43388	21570.975
743.34206	21603.875
747.24749	21759.575
751.15017	21922.675
755.05012	22285.075
758.94733	22914.675
762.8418	23962.275
766.73354	25617.375
770.62254	27108.475
774.50882	27207.675
778.39237	25923.375
782.27321	24361.775
786.15132	23122.275
790.02671	22277.075
793.89938	21804.175
797.76935	21606.775
801.6366	21557.375
805.50115	21501.475
809.36299	21390.375
813.22213	21276.675
817.07857	21222.075
820.93231	21172.275
824.78336	21104.575
828.63172	21035.475
832.47738	21028.275
836.32036	21080.975
840.16066	21121.575
843.99827	21082.975
847.8332	20959.575
851.66546	20913.875
855.49504	20935.075
859.32195	20911.875
863.1462	20870.375
866.96777	20840.975
870.78668	20804.475
874.60293	20807.475
878.41652	20859.575
882.22745	20877.675
886.03573	20969.475
889.84136	21011.775
893.64433	20981.875
897.44466	20960.075
901.24235	20945.075
905.0374	20913.775
908.8298	20929.175
912.61957	20932.175
916.40671	21121.275
920.19121	21393.675
923.97308	21481.575
927.75233	21455.275
931.52895	21307.875
935.30295	21000.375
939.07433	20670.775
942.84309	20394.275
946.60924	20254.675
950.37278	20114.775
954.13371	20099.675
957.89203	20057.475
961.64774	20061.475
965.40086	20079.175
969.15137	20009.375
972.89929	19947.475
976.64461	19853.375
980.38733	19779.675
984.12747	19838.175
987.86502	19875.475
991.59999	19959.775
995.33237	20135.775
999.06217	20404.875
1002.78939	20693.775
1006.51404	21023.575
1010.23611	21508.575
1013.95561	21802.775
1017.67255	21684.075
1021.38692	21464.775
1025.09872	21182.075
1028.80796	20960.975
1032.51465	20925.775
1036.21877	21010.975
1039.92035	21146.575
1043.61937	21313.175
1047.31584	21488.475
1051.00976	21611.475
1054.70114	21843.475
1058.38998	22280.475
1062.07627	22909.775
1065.76003	23781.975
1069.44126	24711.975
1073.11995	25585.175
1076.79611	25986.775
1080.46974	25712.775
1084.14085	25069.375
1087.80943	24507.375
1091.47549	24139.275
1095.13903	23870.775
1098.80005	23472.575
1102.45857	22835.775
1106.11456	22310.075
1109.76805	21915.575
1113.41903	21775.675
1117.06751	21813.575
1120.71348	22020.175
1124.35696	22303.475
1127.99793	22655.175
1131.63641	22856.575
1135.2724	22902.475
1138.90589	22795.375
1142.5369	22802.375
1146.16542	22850.375
1149.79145	22962.075
1153.415	23105.175
1157.03607	23349.575
1160.65467	23859.775
1164.27079	24743.375
1167.88443	25953.275
1171.49561	27402.475
1175.10432	29202.475
1178.71056	31324.675
1182.31434	33395.375
1185.91565	34578.175
1189.51451	34620.475
1193.11091	34069.575
1196.70485	32942.875
1200.29634	31463.575
1203.88538	30254.275
1207.47197	29552.775
1211.05612	28965.775
1214.63782	28429.875
1218.21708	27720.975
1221.79391	26910.575
1225.36829	26246.075
1228.94024	25977.275
1232.50976	25839.175
1236.07685	25774.875
1239.6415	25675.875
1243.20374	25705.075
1246.76355	25855.275
1250.32093	26159.075
1253.8759	26597.575
1257.42845	27351.575
1260.97859	28125.475
1264.52631	28919.675
1268.07163	29575.975
1271.61453	30221.375
1275.15503	30876.875
1278.69312	31553.375
1282.22882	32282.975
1285.76211	33098.875
1289.29301	34126.875
1292.82151	35297.875
1296.34761	36757.175
1299.87133	38412.975
1303.39266	40116.975
1306.9116	41640.075
1310.42815	42867.575
1313.94233	43534.475
1317.45412	43511.075
1320.96354	43257.675
1324.47058	43252.175
1327.97525	43423.575
1331.47754	43641.575
1334.97747	43830.475
1338.47502	43985.275
1341.97022	44199.075
1345.46305	44358.475
1348.95352	44247.175
1352.44163	43967.175
1355.92738	43892.675
1359.41078	44417.575
1362.89183	44930.575
1366.37053	44059.875
1369.84688	41365.475
1373.32088	37928.175
1376.79254	35318.975
1380.26186	34065.875
1383.72883	33710.575
1387.19347	33451.775
1390.65578	33067.775
1394.11575	32738.575
1397.57339	32562.875
1401.0287	32614.875
1404.48168	32633.375
1407.93234	32368.975
1411.38068	31728.375
1414.82669	30761.275
1418.27039	29592.275
1421.71177	28568.175
1425.15083	27753.875
1428.58758	27417.875
1432.02203	27581.975
1435.45416	28088.275
1438.88399	28723.175
1442.31151	29198.975
1445.73673	29561.275
1449.15965	29911.075
1452.58027	30259.475
1455.9986	30479.075
1459.41463	30768.575
1462.82837	31189.475
1466.23982	31746.975
1469.64898	32212.575
1473.05586	32515.775
1476.46045	32564.875
1479.86276	32504.875
1483.26279	32452.075
1486.66054	32512.075
1490.05602	32726.475
1493.44922	33259.075
1496.84016	34042.575
1500.22882	35186.175
1503.61521	36742.775
1506.99934	38261.275
1510.38121	39251.375
1513.76081	39351.075
1517.13816	38441.075
1520.51324	37193.875
1523.88607	36272.975
1527.25665	35670.875
1530.62498	35416.575
1533.99105	35120.775
1537.35488	34557.975
1540.71647	33773.575
1544.07581	32866.275
1547.4329	31956.175
1550.78776	31234.575
1554.14038	30775.575
1557.49077	30620.575
1560.83892	30524.375
1564.18484	30714.475
1567.52853	31101.375
1570.86999	31804.875
1574.20922	32990.375
1577.54624	34452.775
1580.88103	35401.475
1584.2136	35590.075
1587.54395	35136.275
1590.87208	34737.275
1594.19801	34981.475
1597.52172	35682.375
1600.84321	35664.375
1604.16251	34363.475
1607.47959	32397.875
1610.79447	30293.775
1614.10715	28238.375
1617.41763	26366.075
1620.7259	24907.575
1624.03199	24104.975
1627.33587	23938.375
1630.63757	24451.075
1633.93707	25602.075
1637.23439	27727.675
1640.52951	30770.775
1643.82246	34338.475
1647.11321	37252.775
1650.40179	38174.175
1653.68819	36332.775
1656.97241	32440.575
1660.25446	28375.275
1663.53433	25077.275
1666.81203	22768.775
1670.08756	21298.075
1673.36092	20285.775
1676.63211	19716.075
1679.90115	19283.875
1683.16801	18982.475
1686.43272	18771.175
1689.69527	18574.075
1692.95567	18477.475
1696.2139	18366.775
1699.46999	18332.475
1702.72392	18237.175
1705.97571	18190.875
1709.22535	18119.075
1712.47284	18078.675
1715.71819	18018.875
1718.96139	17928.575
1722.20246	17879.975
1725.44139	17831.175
1728.67818	17728.075
1731.91284	17625.775
1735.14537	17536.475
1738.37576	17427.975
1741.60403	17388.575
1744.83017	17313.175
1748.05418	17301.475
1751.27607	17240.475
1754.49584	17271.475
1757.71349	17281.175
1760.92903	17255.675
1764.14244	17242.175
1767.35375	17193.275
1770.56294	17180.375
1773.77002	17175.275
1776.97499	17106.575
1780.17785	17035.075
1783.37861	17005.575
1786.57727	16930.775
1789.77382	16896.175
1792.96828	16877.975
1796.16064	16862.075
1799.3509	16791.075
1802.53907	16752.475
1805.72514	16717.275
1808.90913	16664.275
1812.09102	16635.275
1815.27083	16589.175
1818.44856	16592.175
1821.6242	16600.175
1824.79776	16565.575
1827.96924	16575.875
1831.13864	16610.775
1834.30597	16592.775
1837.47122	16600.175
1840.6344	16601.975
1843.7955	16618.875
1846.95454	16597.775
1850.11151	16600.575
1853.26642	16568.375
1856.41926	16556.375
1859.57004	16543.075
1862.71876	16516.875
1865.86542	16500.975
1869.01003	16456.975
1872.15258	16426.275
1875.29308	16406.275
1878.43152	16341.275
1881.56792	16293.875
1884.70227	16266.675
1887.83457	16254.875
1890.96482	16206.275
1894.09304	16172.775
1897.21921	16152.875
1900.34335	16139.175
1903.46544	16106.275
1906.58551	16086.775
1909.70353	16024.475
1912.81953	16000.475
1915.93349	15997.675
1919.04543	15937.375
1922.15534	15905.675
1925.26322	15862.375
1928.36908	15847.575
1931.47292	15810.875
1934.57473	15739.975
1937.67453	15722.075
1940.77232	15663.675
1943.86808	15625.975
1946.96184	15585.975
1950.05358	15556.275
1953.14331	15499.675
1956.23103	15471.275
1959.31675	15445.675
1962.40046	15389.275
1965.48217	15361.275
1968.56188	15288.175
1971.63959	15258.075
1974.7153	15187.575
1977.78901	15127.675
1980.86073	15074.375
1983.93046	15054.475
1986.99819	14999.875
1990.06394	14970.075
1993.1277	14882.975
1996.18947	14838.375
1999.24925	14823.275
2002.30706	14756.075
2005.36288	14732.475
2008.41672	14663.875
2011.46859	14633.875
2014.51848	14592.675
2017.56639	14546.275
2020.61233	14516.975
2023.6563	14478.775
2026.6983	14447.775
2029.73833	14401.775
2032.7764	14378.575
2035.8125	14364.775
2038.84664	14294.875
2041.87881	14291.675
2044.90903	14243.875
2047.93729	14240.075
2050.96359	14218.975
2053.98794	14209.075
2057.01034	14170.075
2060.03078	14164.175
2063.04927	14185.875
2066.06582	14148.775
2069.08042	14130.675
2072.09307	14131.675
2075.10378	14100.675
2078.11255	14094.075
2081.11938	14097.775
2084.12426	14086.375
2087.12722	14088.075
2090.12824	14068.675
2093.12732	14081.875
2096.12447	14112.575
2099.11969	14077.175
2102.11299	14067.675
2105.10435	14077.275
2108.09379	14124.775
2111.08131	14118.875
2114.0669	14114.475
2117.05057	14116.075
2120.03233	14147.975
2123.01216	14144.775
2125.99008	14120.975
2128.96609	14129.675
2131.94018	14165.075
2134.91236	14187.675
2137.88263	14163.975
2140.851	14183.375
2143.81746	14197.375
2146.78201	14183.375
2149.74466	14162.475
2152.7054	14197.475
2155.66425	14186.675
2158.6212	14191.375
2161.57625	14162.475
2164.52941	14157.275
2167.48067	14173.475
2170.43004	14132.975
2173.37752	14131.675
2176.32311	14157.675
2179.26681	14135.475
2182.20863	14129.675
2185.14856	14105.575
2188.08661	14101.775
2191.02278	14131.375
2193.95707	14093.375
2196.88948	14056.175
2199.82001	14065.275
2202.74867	14031.475
2205.67545	14040.175
2208.60037	13998.275
2211.52341	13995.175
2214.44458	13988.975
2217.36388	13941.275
2220.28132	13920.475
2223.1969	13875.375
2226.11061	13892.875
2229.02246	13864.175
2231.93245	13838.875
2234.84058	13810.675
2237.74686	13787.975
2240.65128	13771.775
2243.55385	13769.775
2246.45456	13724.775
2249.35343	13668.775
2252.25044	13655.775
2255.14561	13640.975
2258.03893	13649.875
2260.93041	13591.775
2263.82004	13575.275
2266.70783	13544.075
2269.59378	13515.475
2272.4779	13481.375
2275.36017	13462.075
2278.24061	13426.675
2281.11922	13381.975
2283.996	13365.675
2286.87094	13348.975
2289.74405	13310.075
2292.61534	13275.775
2295.4848	13272.575
2298.35243	13260.175
2301.21824	13250.175
2304.08223	13256.375
2306.94439	13239.975
2309.80474	13224.575
2312.66327	13227.175
2315.51999	13193.975
2318.37489	13183.675
2321.22797	13169.975
2324.07925	13152.875
2326.92871	13158.975
2329.77637	13152.875
2332.62222	13120.675
2335.46626	13110.375
2338.3085	13067.475
2341.14893	13074.475
2343.98756	13063.575
2346.8244	13057.375
2349.65943	13066.575
2352.49267	13065.475
2355.32411	13070.075
2358.15376	13039.975
2360.98161	13033.675
2363.80768	13048.075
2366.63195	13031.675
2369.45444	13016.575
2372.27514	12987.575
2375.09405	12980.975
2377.91118	12979.575
2380.72652	12946.575
2383.54009	12899.675
2386.35187	12898.675
2389.16188	12809.675
2391.97011	12827.175
2394.77657	12781.875
2397.58125	12782.675
2400.38416	12750.575
2403.18529	12736.475
2405.98466	12709.475
2408.78226	12678.975
2411.57809	12711.375
2414.37216	12659.075
2417.16446	12652.875
2419.955	12636.875
2422.74378	12647.275
2425.5308	12611.075
2428.31606	12599.775
2431.09956	12590.875
2433.88131	12607.875
2436.6613	12565.775
2439.43954	12574.075
2442.21603	12574.575
2444.99077	12539.975
2447.76377	12543.875
2450.53501	12549.475
2453.30451	12523.275
2456.07226	12493.475
2458.83827	12536.475
2461.60254	12512.175
2464.36507	12492.775
2467.12586	12467.875
2469.88492	12464.775
2472.64224	12476.575
2475.39782	12474.175
2478.15167	12458.275
2480.90379	12456.475
2483.65417	12469.675
2486.40283	12455.375
2489.14976	12466.275
2491.89497	12449.975
2494.63845	12478.375
2497.3802	12433.175
2500.12024	12427.975
2502.85855	12409.575
2505.59514	12435.675
2508.33002	12396.575
2511.06318	12381.875
2513.79462	12355.075
2516.52435	12354.475
2519.25237	12334.075
2521.97867	12327.375
2524.70327	12318.075
2527.42616	12324.775
2530.14734	12299.175
2532.86681	12304.275
2535.58458	12270.675
2538.30065	12251.075
2541.01501	12241.475
2543.72768	12245.375
2546.43864	12234.275
2549.14791	12221.875
2551.85548	12192.175
2554.56136	12140.675
2557.26554	12169.775
2559.96803	12185.775
2562.66883	12107.875
2565.36794	12124.675
2568.06536	12120.375
2570.7611	12130.475
2573.45514	12097.775
2576.14751	12056.275
2578.83819	12033.975
2581.52719	12033.475
2584.21451	12005.975
2586.90015	11994.275
2589.58411	11979.375
2592.2664	11950.975
2594.94701	11917.975
2597.62594	11919.375
2600.30321	11916.275
2602.9788	11885.975
2605.65273	11841.375
2608.32498	11877.175
2610.99557	11840.875
2613.66449	11834.675
2616.33175	11813.475
2618.99734	11798.475
2621.66128	11803.875
2624.32355	11790.375
2626.98416	11796.375
2629.64311	11770.575
2632.30041	11792.675
2634.95605	11740.475
2637.61004	11752.975
2640.26238	11750.175
2642.91306	11736.975
2645.56209	11736.775
2648.20948	11722.575
2650.85521	11706.375
2653.4993	11715.075
2656.14175	11706.875
2658.78255	11727.875
2661.42171	11718.875
2664.05923	11714.675
2666.6951	11718.675
2669.32934	11690.075
2671.96194	11713.375
2674.59291	11686.775
2677.22224	11675.975
2679.84993	11696.375
2682.476	11673.975
2685.10043	11685.975
2687.72324	11673.275
2690.34441	11717.075
2692.96396	11716.375
2695.58188	11703.975
2698.19818	11670.275
2700.81285	11725.475
2703.4259	11718.475
2706.03733	11786.375
2708.64714	11729.175
2711.25533	11768.775
2713.86191	11703.075
2716.46687	11739.975
2719.07021	11718.375
2721.67194	11737.975
2724.27206	11715.575
2726.87057	11720.675
2729.46747	11718.175
2732.06276	11730.575
2734.65644	11713.375
2737.24852	11732.075
2739.83899	11708.175
2742.42786	11694.575
2745.01513	11664.175
2747.60079	11658.575
2750.18486	11675.775
2752.76733	11681.675
2755.3482	11659.475
2757.92747	11660.375
2760.50515	11677.675
2763.08123	11620.675
2765.65573	11605.675
2768.22863	11580.975
2770.79994	11587.675
2773.36967	11581.575
2775.9378	11569.275
2778.50435	11554.275
2781.06932	11526.275
2783.6327	11519.275
2786.1945	11513.375
2788.75471	11510.575
2791.31335	11449.275
2793.87041	11445.675
2796.42589	11411.175
2798.97979	11424.575
2801.53212	11422.975
2804.08288	11404.475
2806.63206	11376.375
2809.17967	11338.875
2811.72571	11319.975
2814.27018	11324.275
2816.81308	11277.375
2819.35442	11244.975
2821.89419	11236.575
2824.43239	11251.075
2826.96904	11254.475
2829.50412	11238.175
2832.03763	11213.275
2834.56959	11215.675
2837.1	11201.475
2839.62884	11230.875
2842.15613	11210.075
2844.68186	11234.375
2847.20604	11227.875
2849.72867	11236.775
2852.24974	11257.075
2854.76927	11236.875
2857.28724	11238.575
2859.80367	11227.675
2862.31855	11197.375
2864.83189	11179.075
2867.34368	11187.975
2869.85393	11176.675
2872.36264	11168.375
2874.8698	11142.175
2877.37543	11158.875
2879.87952	11162.575
2882.38207	11142.275
2884.88308	11108.475
2887.38256	11138.075
2889.88051	11129.675
2892.37692	11151.375
2894.8718	11128.075
2897.36515	11149.475
2899.85698	11135.775
2902.34727	11170.475
2904.83604	11156.575
2907.32328	11158.475
2909.809	11155.575
2912.29319	11167.075
2914.77587	11187.375
2917.25702	11172.775
2919.73665	11155.175
2922.21476	11160.175
2924.69136	11123.475
2927.16644	11161.675
2929.64	11131.875
2932.11205	11141.675
2934.58258	11094.675
2937.05161	11126.375
2939.51912	11134.275
2941.98513	11096.775
2944.44962	11044.075
2946.91261	11001.975
2949.37409	11013.175
2951.83407	10996.375
2954.29254	10999.575
2956.74951	10971.275
2959.20498	10961.875
2961.65895	10933.375
2964.11142	10934.775
2966.56239	10898.075
2969.01186	10907.275
2971.45984	10857.275
2973.90632	10849.375
2976.35131	10774.675
2978.7948	10788.275
2981.23681	10765.675
2983.67732	10763.275
2986.11635	10750.975
2988.55388	10710.075
2990.98993	10680.775
2993.4245	10645.775
2995.85758	10636.575
2998.28917	10603.575
3000.71928	10580.675
3003.14791	10570.075
3005.57506	10547.175
3008.00073	10522.075
3010.42493	10516.075
3012.84764	10492.275
3015.26888	10482.775
3017.68865	10455.475
3020.10694	10433.675
3022.52376	10426.075
3024.9391	10415.775
3027.35298	10406.075
3029.76539	10397.075
3032.17632	10409.475
3034.5858	10372.575
3036.9938	10363.375
3039.40034	10352.075
3041.80542	10325.475
3044.20903	10304.875
3046.61118	10313.575
3049.01187	10275.375
3051.4111	10304.375
3053.80888	10279.075
3056.20519	10261.775
3058.60005	10215.475
3060.99345	10227.775
3063.3854	10180.575
3065.7759	10154.775
3068.16494	10130.675
3070.55254	10117.575
3072.93868	10102.875
3075.32338	10084.275
3077.70662	10033.075
3080.08842	10006.475
3082.46878	10030.875
3084.84769	10005.075
3087.22515	9971.575
3089.60118	9977.075
3091.97576	9988.275
3094.3489	9993.875
3096.72061	9961.975
3099.09087	9960.275
3101.4597	9939.575
3103.82709	9940.175
3106.19305	9926.375
3108.55757	9912.075
3110.92066	9893.775
3113.28232	9904.575
3115.64255	9840.275
3118.00134	9843.575
3120.35871	9864.175
3122.71466	9831.075
3125.06917	9770.175
3127.42226	9770.875
3129.77393	9796.375
