Data from AgNP_FTO_APTES_CRN_0uM_R6G_10uM_NaF_0.1M_Addition_RamanShift__8__11-39-02-903.txt Node

Date: Wed Dec 15 11:39:02 GMT 2021
User: TCL
Spectrometer: QEP01345
Trigger mode: 4
Integration Time (sec): 7.000000E0
Scans to average: 10
Electric dark correction enabled: true
Nonlinearity correction enabled: false
Boxcar width: 0
XAxis mode: Raman Shifts
Number of Pixels in Spectrum: 1044
>>>>>Begin Spectral Data<<<<<
46.04893	1.6125
50.45542	-1.0875
54.85868	-0.0875
59.25871	-0.2875
63.6555	75.5125
68.04907	88.2125
72.43941	92.7125
76.82654	101.7125
81.21044	112.5125
85.59113	113.8125
89.96862	122.2125
94.34289	124.1125
98.71396	129.3125
103.08183	137.2125
107.4465	134.4125
111.80798	130.7125
116.16626	139.2125
120.52136	137.1125
124.87327	130.9125
129.222	128.6125
133.56755	132.7125
137.90993	129.0125
142.24913	133.3125
146.58517	129.2125
150.91804	134.6125
155.24774	139.8125
159.57429	150.6125
163.89768	171.6125
168.21792	194.8125
172.53501	229.2125
176.84895	278.0125
181.15975	360.7125
185.46741	482.0125
189.77193	642.3125
194.07331	862.7125
198.37157	1114.5125
202.6667	1384.2125
206.9587	1670.5125
211.24758	1959.9125
215.53334	2254.3125
219.81599	2563.0125
224.09553	2880.4125
228.37195	3234.4125
232.64527	3618.7125
236.91549	4013.8125
241.18261	4398.2125
245.44663	4764.5125
249.70755	5078.9125
253.96539	5322.2125
258.22014	5473.6125
262.4718	5550.3125
266.72039	5561.4125
270.96589	5462.5125
275.20832	5302.7125
279.44768	5127.0125
283.68397	4913.7125
287.91719	4714.0125
292.14735	4540.1125
296.37445	4400.4125
300.59849	4293.0125
304.81948	4252.3125
309.03742	4191.1125
313.25231	4138.8125
317.46415	4089.3125
321.67296	4031.8125
325.87872	3970.5125
330.08145	3946.6125
334.28114	3939.1125
338.47781	3917.2125
342.67145	3885.6125
346.86207	3844.5125
351.04966	3819.9125
355.23424	3791.6125
359.4158	3764.3125
363.59435	3702.3125
367.76989	3655.1125
371.94243	3607.5125
376.11196	3551.1125
380.27849	3505.6125
384.44203	3489.0125
388.60257	3463.1125
392.76012	3447.9125
396.91468	3460.3125
401.06626	3460.7125
405.21485	3473.2125
409.36047	3490.3125
413.50311	3444.7125
417.64277	3433.8125
421.77947	3413.1125
425.9132	3424.8125
430.04396	3449.3125
434.17176	3478.4125
438.2966	3493.0125
442.41849	3532.7125
446.53742	3561.2125
450.6534	3572.0125
454.76644	3599.2125
458.87653	3607.8125
462.98368	3611.2125
467.08789	3624.0125
471.18916	3582.7125
475.2875	3570.6125
479.38291	3561.9125
483.4754	3541.6125
487.56496	3529.2125
491.6516	3525.1125
495.73531	3524.2125
499.81612	3540.1125
503.89401	3576.3125
507.96899	3572.6125
512.04106	3605.9125
516.11023	3632.0125
520.1765	3666.3125
524.23987	3693.4125
528.30034	3658.2125
532.35792	3674.2125
536.41261	3657.3125
540.46441	3657.2125
544.51333	3657.4125
548.55936	3681.8125
552.60252	3722.4125
556.64279	3762.9125
560.6802	3808.7125
564.71473	3812.5125
568.7464	3797.8125
572.7752	3755.3125
576.80114	3706.3125
580.82422	3675.4125
584.84444	3686.6125
588.86181	3725.5125
592.87633	3811.2125
596.888	3948.1125
600.89682	4110.5125
604.9028	4384.7125
608.90594	4796.5125
612.90624	5244.3125
616.90371	5172.0125
620.89834	4556.6125
624.89015	4087.0125
628.87913	3811.5125
632.86528	3628.9125
636.84862	3545.7125
640.82913	3454.6125
644.80683	3414.5125
648.78172	3371.5125
652.75379	3375.5125
656.72306	3411.2125
660.68952	3445.9125
664.65319	3450.2125
668.61405	3438.4125
672.57211	3439.0125
676.52738	3432.7125
680.47986	3461.2125
684.42955	3485.1125
688.37646	3478.1125
692.32058	3479.0125
696.26192	3474.2125
700.20048	3488.4125
704.13626	3514.4125
708.06928	3534.6125
711.99952	3562.3125
715.927	3582.8125
719.85171	3600.0125
723.77365	3599.2125
727.69284	3612.3125
731.60928	3606.0125
735.52295	3621.7125
739.43388	3605.8125
743.34206	3602.9125
747.24749	3619.4125
751.15017	3627.0125
755.05012	3649.2125
758.94733	3673.3125
762.8418	3744.9125
766.73354	3868.9125
770.62254	4040.3125
774.50882	4108.2125
778.39237	4054.3125
782.27321	3872.9125
786.15132	3745.0125
790.02671	3629.7125
793.89938	3600.4125
797.76935	3568.8125
801.6366	3563.3125
805.50115	3548.2125
809.36299	3535.7125
813.22213	3526.2125
817.07857	3514.2125
820.93231	3499.1125
824.78336	3488.2125
828.63172	3499.2125
832.47738	3509.7125
836.32036	3510.7125
840.16066	3538.2125
843.99827	3559.6125
847.8332	3577.8125
851.66546	3583.1125
855.49504	3566.2125
859.32195	3573.9125
863.1462	3590.4125
866.96777	3604.3125
870.78668	3608.3125
874.60293	3651.5125
878.41652	3689.7125
882.22745	3734.4125
886.03573	3806.7125
889.84136	3889.1125
893.64433	3983.3125
897.44466	4087.4125
901.24235	4221.9125
905.0374	4347.7125
908.8298	4537.2125
912.61957	4691.3125
916.40671	4886.3125
920.19121	5062.7125
923.97308	5202.9125
927.75233	5251.4125
931.52895	5216.4125
935.30295	5074.4125
939.07433	4861.7125
942.84309	4649.4125
946.60924	4443.8125
950.37278	4270.4125
954.13371	4134.6125
957.89203	4021.3125
961.64774	3903.6125
965.40086	3788.9125
969.15137	3700.9125
972.89929	3633.3125
976.64461	3578.7125
980.38733	3532.8125
984.12747	3508.2125
987.86502	3506.5125
991.59999	3527.7125
995.33237	3545.8125
999.06217	3598.4125
1002.78939	3639.6125
1006.51404	3673.7125
1010.23611	3698.4125
1013.95561	3684.1125
1017.67255	3645.8125
1021.38692	3602.7125
1025.09872	3577.7125
1028.80796	3560.6125
1032.51465	3586.5125
1036.21877	3628.5125
1039.92035	3719.6125
1043.61937	3795.0125
1047.31584	3874.7125
1051.00976	3965.3125
1054.70114	4044.2125
1058.38998	4104.1125
1062.07627	4149.4125
1065.76003	4170.5125
1069.44126	4165.7125
1073.11995	4159.4125
1076.79611	4142.9125
1080.46974	4120.5125
1084.14085	4079.8125
1087.80943	4051.8125
1091.47549	3989.4125
1095.13903	3916.6125
1098.80005	3827.8125
1102.45857	3752.8125
1106.11456	3697.9125
1109.76805	3659.1125
1113.41903	3645.1125
1117.06751	3626.2125
1120.71348	3625.8125
1124.35696	3640.2125
1127.99793	3630.5125
1131.63641	3623.7125
1135.2724	3531.5125
1138.90589	3435.5125
1142.5369	3364.7125
1146.16542	3299.4125
1149.79145	3231.7125
1153.415	3185.9125
1157.03607	3159.0125
1160.65467	3167.5125
1164.27079	3187.7125
1167.88443	3256.5125
1171.49561	3377.2125
1175.10432	3557.6125
1178.71056	3821.6125
1182.31434	4127.7125
1185.91565	4386.3125
1189.51451	4511.6125
1193.11091	4492.8125
1196.70485	4346.7125
1200.29634	4148.7125
1203.88538	3938.6125
1207.47197	3710.7125
1211.05612	3535.8125
1214.63782	3399.8125
1218.21708	3345.6125
1221.79391	3340.2125
1225.36829	3374.9125
1228.94024	3420.5125
1232.50976	3417.0125
1236.07685	3392.9125
1239.6415	3344.4125
1243.20374	3261.0125
1246.76355	3212.5125
1250.32093	3192.3125
1253.8759	3187.1125
1257.42845	3196.6125
1260.97859	3242.0125
1264.52631	3299.2125
1268.07163	3355.5125
1271.61453	3382.6125
1275.15503	3439.1125
1278.69312	3467.2125
1282.22882	3518.0125
1285.76211	3572.1125
1289.29301	3646.9125
1292.82151	3733.6125
1296.34761	3807.1125
1299.87133	3869.3125
1303.39266	3938.4125
1306.9116	4039.1125
1310.42815	4135.4125
1313.94233	4163.5125
1317.45412	4094.1125
1320.96354	3950.4125
1324.47058	3797.6125
1327.97525	3718.5125
1331.47754	3657.5125
1334.97747	3618.6125
1338.47502	3628.8125
1341.97022	3666.9125
1345.46305	3727.6125
1348.95352	3851.2125
1352.44163	4015.1125
1355.92738	4226.9125
1359.41078	4514.0125
1362.89183	4817.2125
1366.37053	4886.2125
1369.84688	4609.6125
1373.32088	4252.3125
1376.79254	3975.7125
1380.26186	3850.5125
1383.72883	3796.5125
1387.19347	3764.8125
1390.65578	3722.9125
1394.11575	3671.9125
1397.57339	3631.9125
1401.0287	3599.0125
1404.48168	3589.5125
1407.93234	3539.7125
1411.38068	3516.8125
1414.82669	3517.5125
1418.27039	3446.5125
1421.71177	3401.5125
1425.15083	3332.0125
1428.58758	3265.3125
1432.02203	3234.8125
1435.45416	3219.1125
1438.88399	3230.7125
1442.31151	3258.9125
1445.73673	3279.1125
1449.15965	3272.3125
1452.58027	3254.6125
1455.9986	3201.3125
1459.41463	3162.1125
1462.82837	3149.7125
1466.23982	3146.3125
1469.64898	3151.6125
1473.05586	3153.0125
1476.46045	3154.6125
1479.86276	3169.9125
1483.26279	3178.8125
1486.66054	3203.2125
1490.05602	3225.6125
1493.44922	3245.2125
1496.84016	3308.4125
1500.22882	3424.6125
1503.61521	3572.7125
1506.99934	3754.7125
1510.38121	3928.9125
1513.76081	3968.5125
1517.13816	3864.3125
1520.51324	3642.7125
1523.88607	3433.8125
1527.25665	3266.4125
1530.62498	3179.7125
1533.99105	3138.2125
1537.35488	3096.2125
1540.71647	3063.7125
1544.07581	3044.0125
1547.4329	3047.5125
1550.78776	3027.3125
1554.14038	3034.9125
1557.49077	3018.2125
1560.83892	3033.5125
1564.18484	3039.7125
1567.52853	3072.7125
1570.86999	3089.3125
1574.20922	3129.5125
1577.54624	3150.6125
1580.88103	3111.5125
1584.2136	3040.2125
1587.54395	2965.6125
1590.87208	2925.5125
1594.19801	2926.6125
1597.52172	2949.9125
1600.84321	2963.2125
1604.16251	2922.9125
1607.47959	2903.8125
1610.79447	2847.7125
1614.10715	2816.0125
1617.41763	2765.3125
1620.7259	2743.7125
1624.03199	2738.8125
1627.33587	2738.2125
1630.63757	2742.1125
1633.93707	2760.4125
1637.23439	2795.0125
1640.52951	2842.8125
1643.82246	2933.6125
1647.11321	3059.5125
1650.40179	3141.1125
1653.68819	3097.8125
1656.97241	2915.1125
1660.25446	2714.6125
1663.53433	2551.4125
1666.81203	2443.7125
1670.08756	2362.3125
1673.36092	2301.1125
1676.63211	2276.4125
1679.90115	2248.9125
1683.16801	2212.4125
1686.43272	2195.5125
1689.69527	2182.4125
1692.95567	2152.2125
1696.2139	2130.3125
1699.46999	2112.9125
1702.72392	2098.5125
1705.97571	2089.0125
1709.22535	2081.7125
1712.47284	2082.0125
1715.71819	2078.3125
1718.96139	2065.0125
1722.20246	2053.8125
1725.44139	2055.1125
1728.67818	2034.7125
1731.91284	2024.7125
1735.14537	2018.7125
1738.37576	1996.0125
1741.60403	1992.5125
1744.83017	1976.4125
1748.05418	1969.9125
1751.27607	1961.6125
1754.49584	1951.6125
1757.71349	1943.0125
1760.92903	1932.8125
1764.14244	1927.2125
1767.35375	1932.8125
1770.56294	1925.0125
1773.77002	1917.8125
1776.97499	1928.4125
1780.17785	1929.0125
1783.37861	1921.2125
1786.57727	1915.5125
1789.77382	1921.6125
1792.96828	1908.9125
1796.16064	1904.8125
1799.3509	1899.1125
1802.53907	1896.3125
1805.72514	1892.6125
1808.90913	1887.9125
1812.09102	1882.9125
1815.27083	1871.6125
1818.44856	1872.9125
1821.6242	1876.3125
1824.79776	1876.1125
1827.96924	1866.5125
1831.13864	1856.7125
1834.30597	1864.1125
1837.47122	1852.0125
1840.6344	1852.7125
1843.7955	1854.2125
1846.95454	1859.1125
1850.11151	1845.2125
1853.26642	1834.4125
1856.41926	1838.8125
1859.57004	1830.6125
1862.71876	1824.9125
1865.86542	1814.0125
1869.01003	1816.9125
1872.15258	1816.5125
1875.29308	1801.0125
1878.43152	1802.3125
1881.56792	1796.9125
1884.70227	1800.2125
1887.83457	1796.7125
1890.96482	1782.2125
1894.09304	1789.0125
1897.21921	1787.9125
1900.34335	1778.2125
1903.46544	1780.1125
1906.58551	1769.6125
1909.70353	1759.7125
1912.81953	1760.4125
1915.93349	1759.4125
1919.04543	1744.6125
1922.15534	1750.1125
1925.26322	1742.7125
1928.36908	1736.3125
1931.47292	1736.8125
1934.57473	1727.1125
1937.67453	1727.5125
1940.77232	1719.2125
1943.86808	1718.3125
1946.96184	1707.7125
1950.05358	1708.3125
1953.14331	1707.4125
1956.23103	1695.0125
1959.31675	1683.1125
1962.40046	1688.4125
1965.48217	1672.7125
1968.56188	1688.8125
1971.63959	1666.8125
1974.7153	1666.9125
1977.78901	1665.5125
1980.86073	1656.2125
1983.93046	1644.3125
1986.99819	1640.5125
1990.06394	1632.7125
1993.1277	1630.3125
1996.18947	1620.1125
1999.24925	1621.1125
2002.30706	1594.8125
2005.36288	1596.6125
2008.41672	1603.2125
2011.46859	1603.7125
2014.51848	1597.5125
2017.56639	1595.0125
2020.61233	1589.2125
2023.6563	1573.3125
2026.6983	1566.5125
2029.73833	1566.9125
2032.7764	1557.0125
2035.8125	1556.0125
2038.84664	1547.0125
2041.87881	1561.7125
2044.90903	1548.6125
2047.93729	1548.4125
2050.96359	1539.3125
2053.98794	1535.3125
2057.01034	1530.4125
2060.03078	1533.8125
2063.04927	1539.5125
2066.06582	1536.7125
2069.08042	1528.6125
2072.09307	1527.7125
2075.10378	1534.7125
2078.11255	1529.0125
2081.11938	1527.4125
2084.12426	1534.1125
2087.12722	1534.5125
2090.12824	1523.9125
2093.12732	1520.8125
2096.12447	1521.7125
2099.11969	1515.0125
2102.11299	1519.1125
2105.10435	1527.5125
2108.09379	1522.5125
2111.08131	1524.3125
2114.0669	1527.7125
2117.05057	1525.7125
2120.03233	1529.0125
2123.01216	1532.3125
2125.99008	1524.5125
2128.96609	1527.2125
2131.94018	1523.1125
2134.91236	1517.8125
2137.88263	1513.2125
2140.851	1532.1125
2143.81746	1519.6125
2146.78201	1516.5125
2149.74466	1512.0125
2152.7054	1514.1125
2155.66425	1506.3125
2158.6212	1508.5125
2161.57625	1503.4125
2164.52941	1502.7125
2167.48067	1504.7125
2170.43004	1509.6125
2173.37752	1505.0125
2176.32311	1495.6125
2179.26681	1501.0125
2182.20863	1498.0125
2185.14856	1500.7125
2188.08661	1491.4125
2191.02278	1497.4125
2193.95707	1488.6125
2196.88948	1495.4125
2199.82001	1489.8125
2202.74867	1479.6125
2205.67545	1489.8125
2208.60037	1473.3125
2211.52341	1477.2125
2214.44458	1480.1125
2217.36388	1472.0125
2220.28132	1469.4125
2223.1969	1466.2125
2226.11061	1465.1125
2229.02246	1454.5125
2231.93245	1448.4125
2234.84058	1445.3125
2237.74686	1450.5125
2240.65128	1441.3125
2243.55385	1443.4125
2246.45456	1432.7125
2249.35343	1432.9125
2252.25044	1434.6125
2255.14561	1435.9125
2258.03893	1422.0125
2260.93041	1424.5125
2263.82004	1421.7125
2266.70783	1425.9125
2269.59378	1408.0125
2272.4779	1403.5125
2275.36017	1409.4125
2278.24061	1391.2125
2281.11922	1397.0125
2283.996	1393.8125
2286.87094	1389.4125
2289.74405	1388.0125
2292.61534	1387.8125
2295.4848	1378.4125
2298.35243	1378.6125
2301.21824	1367.7125
2304.08223	1363.2125
2306.94439	1363.7125
2309.80474	1361.3125
2312.66327	1360.2125
2315.51999	1364.4125
2318.37489	1359.7125
2321.22797	1358.0125
2324.07925	1353.5125
2326.92871	1356.3125
2329.77637	1360.8125
2332.62222	1355.9125
2335.46626	1339.3125
2338.3085	1340.9125
2341.14893	1338.9125
2343.98756	1338.3125
2346.8244	1334.7125
2349.65943	1340.3125
2352.49267	1330.9125
2355.32411	1335.0125
2358.15376	1332.4125
2360.98161	1333.5125
2363.80768	1333.0125
2366.63195	1330.5125
2369.45444	1323.6125
2372.27514	1324.1125
2375.09405	1337.9125
2377.91118	1323.6125
2380.72652	1316.4125
2383.54009	1316.3125
2386.35187	1311.1125
2389.16188	1312.5125
2391.97011	1304.5125
2394.77657	1298.4125
2397.58125	1304.8125
2400.38416	1296.2125
2403.18529	1289.1125
2405.98466	1290.5125
2408.78226	1288.8125
2411.57809	1290.4125
2414.37216	1290.8125
2417.16446	1276.1125
2419.955	1274.0125
2422.74378	1269.2125
2425.5308	1266.0125
2428.31606	1269.5125
2431.09956	1262.2125
2433.88131	1266.7125
2436.6613	1263.4125
2439.43954	1254.4125
2442.21603	1252.6125
2444.99077	1254.6125
2447.76377	1250.3125
2450.53501	1248.8125
2453.30451	1242.6125
2456.07226	1243.6125
2458.83827	1239.3125
2461.60254	1239.4125
2464.36507	1232.5125
2467.12586	1230.4125
2469.88492	1231.8125
2472.64224	1227.4125
2475.39782	1228.0125
2478.15167	1222.1125
2480.90379	1226.8125
2483.65417	1229.0125
2486.40283	1228.3125
2489.14976	1236.3125
2491.89497	1221.4125
2494.63845	1218.9125
2497.3802	1215.8125
2500.12024	1216.2125
2502.85855	1213.8125
2505.59514	1218.3125
2508.33002	1207.8125
2511.06318	1208.4125
2513.79462	1211.7125
2516.52435	1205.2125
2519.25237	1193.2125
2521.97867	1194.8125
2524.70327	1191.1125
2527.42616	1192.6125
2530.14734	1193.3125
2532.86681	1187.8125
2535.58458	1183.4125
2538.30065	1188.0125
2541.01501	1176.5125
2543.72768	1182.4125
2546.43864	1176.5125
2549.14791	1178.4125
2551.85548	1179.5125
2554.56136	1171.4125
2557.26554	1172.0125
2559.96803	1164.6125
2562.66883	1170.8125
2565.36794	1168.8125
2568.06536	1167.6125
2570.7611	1165.9125
2573.45514	1163.7125
2576.14751	1159.2125
2578.83819	1152.4125
2581.52719	1162.0125
2584.21451	1143.6125
2586.90015	1151.6125
2589.58411	1151.3125
2592.2664	1143.8125
2594.94701	1148.1125
2597.62594	1141.2125
2600.30321	1129.0125
2602.9788	1132.3125
2605.65273	1132.9125
2608.32498	1128.7125
2610.99557	1123.6125
2613.66449	1122.1125
2616.33175	1129.4125
2618.99734	1120.4125
2621.66128	1118.0125
2624.32355	1117.6125
2626.98416	1109.1125
2629.64311	1113.3125
2632.30041	1116.5125
2634.95605	1118.2125
2637.61004	1121.4125
2640.26238	1116.9125
2642.91306	1112.1125
2645.56209	1112.4125
2648.20948	1112.2125
2650.85521	1118.1125
2653.4993	1113.2125
2656.14175	1117.8125
2658.78255	1112.0125
2661.42171	1117.6125
2664.05923	1107.5125
2666.6951	1111.3125
2669.32934	1122.1125
2671.96194	1111.2125
2674.59291	1120.6125
2677.22224	1121.0125
2679.84993	1119.4125
2682.476	1121.6125
2685.10043	1123.4125
2687.72324	1119.2125
2690.34441	1122.2125
2692.96396	1111.4125
2695.58188	1113.5125
2698.19818	1124.3125
2700.81285	1130.1125
2703.4259	1119.1125
2706.03733	1106.1125
2708.64714	1108.4125
2711.25533	1117.2125
2713.86191	1122.6125
2716.46687	1132.0125
2719.07021	1129.6125
2721.67194	1126.7125
2724.27206	1124.3125
2726.87057	1124.9125
2729.46747	1126.3125
2732.06276	1135.6125
2734.65644	1129.1125
2737.24852	1131.8125
2739.83899	1133.1125
2742.42786	1136.1125
2745.01513	1139.8125
2747.60079	1142.5125
2750.18486	1148.2125
2752.76733	1146.5125
2755.3482	1156.5125
2757.92747	1149.4125
2760.50515	1152.4125
2763.08123	1163.7125
2765.65573	1162.6125
2768.22863	1161.8125
2770.79994	1163.0125
2773.36967	1163.9125
2775.9378	1167.3125
2778.50435	1155.8125
2781.06932	1150.8125
2783.6327	1158.7125
2786.1945	1159.4125
2788.75471	1164.5125
2791.31335	1164.5125
2793.87041	1165.0125
2796.42589	1175.2125
2798.97979	1161.0125
2801.53212	1175.7125
2804.08288	1179.4125
2806.63206	1170.9125
2809.17967	1175.7125
2811.72571	1162.2125
2814.27018	1164.4125
2816.81308	1168.5125
2819.35442	1166.6125
2821.89419	1164.2125
2824.43239	1167.7125
2826.96904	1160.1125
2829.50412	1153.3125
2832.03763	1160.1125
2834.56959	1162.6125
2837.1	1170.4125
2839.62884	1172.7125
2842.15613	1188.9125
2844.68186	1205.0125
2847.20604	1222.7125
2849.72867	1238.2125
2852.24974	1259.0125
2854.76927	1278.9125
2857.28724	1300.0125
2859.80367	1321.9125
2862.31855	1358.3125
2864.83189	1388.5125
2867.34368	1426.1125
2869.85393	1461.5125
2872.36264	1480.3125
2874.8698	1509.6125
2877.37543	1542.6125
2879.87952	1573.4125
2882.38207	1603.7125
2884.88308	1627.2125
2887.38256	1651.6125
2889.88051	1683.6125
2892.37692	1704.0125
2894.8718	1715.3125
2897.36515	1720.4125
2899.85698	1736.4125
2902.34727	1747.9125
2904.83604	1736.5125
2907.32328	1734.9125
2909.809	1729.9125
2912.29319	1744.8125
2914.77587	1725.9125
2917.25702	1729.9125
2919.73665	1744.0125
2922.21476	1725.2125
2924.69136	1731.2125
2927.16644	1734.8125
2929.64	1728.5125
2932.11205	1708.3125
2934.58258	1703.2125
2937.05161	1696.3125
2939.51912	1661.1125
2941.98513	1654.8125
2944.44962	1632.7125
2946.91261	1611.2125
2949.37409	1576.5125
2951.83407	1541.7125
2954.29254	1523.9125
2956.74951	1495.1125
2959.20498	1471.2125
2961.65895	1456.2125
2964.11142	1436.3125
2966.56239	1420.1125
2969.01186	1393.3125
2971.45984	1367.6125
2973.90632	1360.7125
2976.35131	1332.5125
2978.7948	1306.5125
2981.23681	1289.0125
2983.67732	1263.9125
2986.11635	1250.1125
2988.55388	1228.3125
2990.98993	1222.4125
2993.4245	1209.3125
2995.85758	1201.2125
2998.28917	1189.4125
3000.71928	1170.2125
3003.14791	1167.8125
3005.57506	1155.8125
3008.00073	1164.4125
3010.42493	1157.0125
3012.84764	1153.2125
3015.26888	1147.2125
3017.68865	1147.8125
3020.10694	1139.0125
3022.52376	1136.5125
3024.9391	1134.6125
3027.35298	1132.0125
3029.76539	1139.3125
3032.17632	1128.7125
3034.5858	1123.7125
3036.9938	1126.1125
3039.40034	1132.7125
3041.80542	1129.9125
3044.20903	1129.8125
3046.61118	1122.2125
3049.01187	1124.5125
3051.4111	1130.2125
3053.80888	1126.4125
3056.20519	1125.1125
3058.60005	1139.4125
3060.99345	1139.1125
3063.3854	1137.2125
3065.7759	1142.8125
3068.16494	1139.8125
3070.55254	1147.6125
3072.93868	1149.4125
3075.32338	1142.2125
3077.70662	1151.7125
3080.08842	1155.6125
3082.46878	1161.7125
3084.84769	1162.7125
3087.22515	1164.3125
3089.60118	1182.4125
3091.97576	1181.2125
3094.3489	1187.3125
3096.72061	1198.0125
3099.09087	1205.6125
3101.4597	1206.0125
3103.82709	1223.2125
3106.19305	1217.6125
3108.55757	1226.8125
3110.92066	1228.7125
3113.28232	1236.7125
3115.64255	1234.1125
3118.00134	1249.5125
3120.35871	1247.9125
3122.71466	1250.8125
3125.06917	1257.6125
