Data from AgNP_FTO_APTES_CRN_2uM_R6G_10uM_NaF_0.1M_Addition_RamanShift__0__14-34-59-322.txt Node

Date: Wed Dec 15 14:34:59 GMT 2021
User: TCL
Spectrometer: QEP01345
Trigger mode: 4
Integration Time (sec): 7.000000E0
Scans to average: 10
Electric dark correction enabled: true
Nonlinearity correction enabled: false
Boxcar width: 0
XAxis mode: Raman Shifts
Number of Pixels in Spectrum: 1044
>>>>>Begin Spectral Data<<<<<
46.04893	-0.1875
50.45542	-3.1875
54.85868	-1.2875
59.25871	-1.4875
63.6555	164.5125
68.04907	167.0125
72.43941	178.4125
76.82654	182.6125
81.21044	189.2125
85.59113	200.7125
89.96862	206.6125
94.34289	212.0125
98.71396	219.5125
103.08183	229.4125
107.4465	239.3125
111.80798	238.6125
116.16626	249.9125
120.52136	255.9125
124.87327	267.4125
129.222	282.3125
133.56755	297.3125
137.90993	325.4125
142.24913	347.9125
146.58517	394.2125
150.91804	455.1125
155.24774	540.1125
159.57429	677.1125
163.89768	856.3125
168.21792	1131.8125
172.53501	1553.3125
176.84895	2153.8125
181.15975	3020.4125
185.46741	4211.1125
189.77193	5801.7125
194.07331	7737.4125
198.37157	9970.7125
202.6667	12328.7125
206.9587	14642.6125
211.24758	16904.7125
215.53334	19195.0125
219.81599	21565.8125
224.09553	24207.8125
228.37195	27128.2125
232.64527	30329.4125
236.91549	33719.3125
241.18261	37190.3125
245.44663	40493.3125
249.70755	43457.3125
253.96539	45988.1125
258.22014	48142.7125
262.4718	49929.4125
266.72039	51030.7125
270.96589	51643.2125
275.20832	51708.9125
279.44768	51329.5125
283.68397	50740.4125
287.91719	50281.2125
292.14735	49824.4125
296.37445	49583.0125
300.59849	49554.9125
304.81948	49723.9125
309.03742	49828.8125
313.25231	49681.7125
317.46415	49383.3125
321.67296	48842.9125
325.87872	48390.1125
330.08145	48180.1125
334.28114	48289.1125
338.47781	48583.1125
342.67145	49120.6125
346.86207	49746.4125
351.04966	50580.3125
355.23424	51507.4125
359.4158	52331.7125
363.59435	53106.2125
367.76989	53538.3125
371.94243	53834.9125
376.11196	54008.6125
380.27849	54093.9125
384.44203	54363.4125
388.60257	54838.5125
392.76012	55407.0125
396.91468	56167.8125
401.06626	57016.5125
405.21485	57554.8125
409.36047	57658.9125
413.50311	57515.7125
417.64277	57689.2125
421.77947	58069.3125
425.9132	58460.2125
430.04396	58841.3125
434.17176	58995.7125
438.2966	59207.9125
442.41849	59706.9125
446.53742	60974.1125
450.6534	62402.8125
454.76644	63386.9125
458.87653	63511.4125
462.98368	63089.3125
467.08789	62248.9125
471.18916	61121.6125
475.2875	59962.7125
479.38291	59009.1125
483.4754	58449.8125
487.56496	57998.2125
491.6516	57588.0125
495.73531	57486.1125
499.81612	57588.4125
503.89401	58147.0125
507.96899	58595.8125
512.04106	58811.2125
516.11023	58522.5125
520.1765	57997.8125
524.23987	57533.4125
528.30034	57128.4125
532.35792	56633.1125
536.41261	56042.7125
540.46441	55535.3125
544.51333	55418.5125
548.55936	55812.0125
552.60252	56750.9125
556.64279	57777.5125
560.6802	58528.4125
564.71473	59098.4125
568.7464	59836.5125
572.7752	61292.1125
576.80114	63318.9125
580.82422	66052.1125
584.84444	69674.5125
588.86181	74137.6125
592.87633	77283.1125
596.888	76168.1125
600.89682	71915.3125
604.9028	69773.0125
608.90594	71808.1125
612.90624	74059.7125
616.90371	69883.6125
620.89834	62109.3125
624.89015	58856.9125
628.87913	58619.4125
632.86528	58857.9125
636.84862	58603.0125
640.82913	57529.2125
644.80683	56367.5125
648.78172	55909.6125
652.75379	56146.5125
656.72306	56811.1125
660.68952	57300.3125
664.65319	56816.3125
668.61405	56088.9125
672.57211	56092.5125
676.52738	56424.7125
680.47986	56379.2125
684.42955	55952.7125
688.37646	55801.5125
692.32058	56226.7125
696.26192	57055.3125
700.20048	58027.2125
704.13626	58478.8125
708.06928	58540.4125
711.99952	58407.6125
715.927	58553.3125
719.85171	58739.1125
723.77365	58531.9125
727.69284	57725.4125
731.60928	56887.1125
735.52295	56458.7125
739.43388	56266.2125
743.34206	56515.4125
747.24749	56876.9125
751.15017	57376.0125
755.05012	58201.9125
758.94733	59456.3125
762.8418	61506.0125
766.73354	64325.7125
770.62254	66664.1125
774.50882	66580.3125
778.39237	64365.3125
782.27321	61424.0125
786.15132	59189.1125
790.02671	57736.0125
793.89938	56961.0125
797.76935	56667.3125
801.6366	56550.9125
805.50115	56601.9125
809.36299	56394.7125
813.22213	55942.5125
817.07857	55569.9125
820.93231	55252.6125
824.78336	55001.9125
828.63172	54963.9125
832.47738	54969.6125
836.32036	55035.8125
840.16066	55105.9125
843.99827	55130.5125
847.8332	55190.2125
851.66546	55230.5125
855.49504	55358.6125
859.32195	55387.5125
863.1462	55305.4125
866.96777	55211.5125
870.78668	55169.9125
874.60293	55146.5125
878.41652	55323.5125
882.22745	55437.4125
886.03573	55566.3125
889.84136	55600.2125
893.64433	55451.4125
897.44466	55176.9125
901.24235	55135.0125
905.0374	55130.2125
908.8298	55032.3125
912.61957	55158.8125
916.40671	55580.1125
920.19121	56190.0125
923.97308	56808.9125
927.75233	57020.4125
931.52895	56496.6125
935.30295	55664.6125
939.07433	54827.8125
942.84309	54335.4125
946.60924	54163.4125
950.37278	54146.6125
954.13371	54151.0125
957.89203	54121.3125
961.64774	54114.7125
965.40086	54141.2125
969.15137	54044.8125
972.89929	53971.9125
976.64461	53943.2125
980.38733	54074.1125
984.12747	54249.8125
987.86502	54464.4125
991.59999	54755.3125
995.33237	55218.0125
999.06217	56073.0125
1002.78939	57344.8125
1006.51404	58593.9125
1010.23611	59768.7125
1013.95561	60410.9125
1017.67255	60367.5125
1021.38692	59547.7125
1025.09872	58457.2125
1028.80796	57822.9125
1032.51465	57980.7125
1036.21877	58378.6125
1039.92035	58662.0125
1043.61937	58615.6125
1047.31584	58459.9125
1051.00976	58261.8125
1054.70114	58228.1125
1058.38998	58524.2125
1062.07627	59183.9125
1065.76003	60126.2125
1069.44126	61366.3125
1073.11995	62829.7125
1076.79611	64044.6125
1080.46974	64388.1125
1084.14085	64309.4125
1087.80943	64285.0125
1091.47549	64391.3125
1095.13903	64184.8125
1098.80005	63323.9125
1102.45857	61957.8125
1106.11456	60897.5125
1109.76805	60373.7125
1113.41903	60201.6125
1117.06751	60268.7125
1120.71348	60472.0125
1124.35696	60915.8125
1127.99793	61311.0125
1131.63641	61645.0125
1135.2724	61728.4125
1138.90589	61864.7125
1142.5369	62214.4125
1146.16542	62628.0125
1149.79145	63058.5125
1153.415	63442.7125
1157.03607	64316.1125
1160.65467	66079.9125
1164.27079	69046.5125
1167.88443	72299.1125
1171.49561	75173.2125
1175.10432	78451.1125
1178.71056	82543.8125
1182.31434	86686.7125
1185.91565	88646.0125
1189.51451	88041.2125
1193.11091	86238.0125
1196.70485	84004.6125
1200.29634	81796.5125
1203.88538	80357.2125
1207.47197	80089.8125
1211.05612	79939.1125
1214.63782	79073.9125
1218.21708	77372.3125
1221.79391	75187.4125
1225.36829	73616.6125
1228.94024	72694.0125
1232.50976	71911.1125
1236.07685	71073.7125
1239.6415	70550.0125
1243.20374	70543.9125
1246.76355	70999.1125
1250.32093	71988.5125
1253.8759	73473.5125
1257.42845	75280.0125
1260.97859	77226.6125
1264.52631	79528.4125
1268.07163	81860.7125
1271.61453	84142.1125
1275.15503	86407.2125
1278.69312	88635.9125
1282.22882	90910.3125
1285.76211	93718.4125
1289.29301	96948.6125
1292.82151	100469.7125
1296.34761	104709.6125
1299.87133	109857.8125
1303.39266	115388.4125
1306.9116	120103.9125
1310.42815	123146.1125
1313.94233	124013.3125
1317.45412	122928.1125
1320.96354	121012.0125
1324.47058	119836.1125
1327.97525	119476.0125
1331.47754	119504.3125
1334.97747	119094.6125
1338.47502	118178.0125
1341.97022	116350.5125
1345.46305	113950.0125
1348.95352	111880.2125
1352.44163	111397.0125
1355.92738	113442.1125
1359.41078	117684.4125
1362.89183	120926.0125
1366.37053	119898.5125
1369.84688	113073.3125
1373.32088	102663.0125
1376.79254	94597.3125
1380.26186	91616.3125
1383.72883	91657.8125
1387.19347	91882.7125
1390.65578	90780.8125
1394.11575	89997.1125
1397.57339	90823.5125
1401.0287	92603.8125
1404.48168	94462.3125
1407.93234	94993.8125
1411.38068	94001.3125
1414.82669	91640.7125
1418.27039	88548.6125
1421.71177	85511.4125
1425.15083	83093.3125
1428.58758	82347.1125
1432.02203	83575.7125
1435.45416	85927.8125
1438.88399	88541.4125
1442.31151	90268.1125
1445.73673	90617.3125
1449.15965	90268.4125
1452.58027	89410.8125
1455.9986	88551.3125
1459.41463	88557.0125
1462.82837	89828.1125
1466.23982	91775.8125
1469.64898	93557.3125
1473.05586	94757.7125
1476.46045	95099.6125
1479.86276	94762.1125
1483.26279	94061.1125
1486.66054	93551.6125
1490.05602	93873.9125
1493.44922	94343.9125
1496.84016	94564.8125
1500.22882	95030.7125
1503.61521	95719.7125
1506.99934	96532.8125
1510.38121	97194.6125
1513.76081	97099.5125
1517.13816	96105.0125
1520.51324	94917.2125
1523.88607	94491.5125
1527.25665	94807.5125
1530.62498	95350.3125
1533.99105	95099.0125
1537.35488	93774.8125
1540.71647	91756.2125
1544.07581	89419.2125
1547.4329	87124.7125
1550.78776	85244.6125
1554.14038	83817.6125
1557.49077	83053.6125
1560.83892	82429.1125
1564.18484	82106.6125
1567.52853	81911.9125
1570.86999	82671.9125
1574.20922	84463.7125
1577.54624	86503.6125
1580.88103	88064.3125
1584.2136	90048.5125
1587.54395	93476.5125
1590.87208	98485.0125
1594.19801	104443.4125
1597.52172	109545.0125
1600.84321	110341.1125
1604.16251	104856.9125
1607.47959	96041.4125
1610.79447	87272.1125
1614.10715	79856.5125
1617.41763	74429.0125
1620.7259	70947.6125
1624.03199	69365.0125
1627.33587	69758.3125
1630.63757	71856.9125
1633.93707	76293.9125
1637.23439	83992.3125
1640.52951	95155.1125
1643.82246	107609.4125
1647.11321	116610.4125
1650.40179	116152.5125
1653.68819	105809.8125
1656.97241	91324.6125
1660.25446	78698.4125
1663.53433	69950.6125
1666.81203	64580.6125
1670.08756	61313.7125
1673.36092	59233.0125
1676.63211	57835.8125
1679.90115	56813.8125
1683.16801	56139.1125
1686.43272	55541.2125
1689.69527	55169.5125
1692.95567	54839.3125
1696.2139	54650.7125
1699.46999	54579.5125
1702.72392	54393.6125
1705.97571	54320.4125
1709.22535	54212.9125
1712.47284	54091.8125
1715.71819	54077.8125
1718.96139	53946.5125
1722.20246	53876.2125
1725.44139	53599.5125
1728.67818	53391.1125
1731.91284	53117.3125
1735.14537	52849.1125
1738.37576	52595.8125
1741.60403	52496.4125
1744.83017	52355.2125
1748.05418	52220.6125
1751.27607	52079.5125
1754.49584	52046.8125
1757.71349	51966.7125
1760.92903	51982.5125
1764.14244	51912.4125
1767.35375	51894.6125
1770.56294	51956.4125
1773.77002	51830.0125
1776.97499	51849.7125
1780.17785	51705.0125
1783.37861	51683.3125
1786.57727	51556.2125
1789.77382	51430.8125
1792.96828	51405.3125
1796.16064	51293.4125
1799.3509	51273.3125
1802.53907	51197.4125
1805.72514	51033.9125
1808.90913	50944.4125
1812.09102	50892.9125
1815.27083	50770.7125
1818.44856	50739.9125
1821.6242	50728.3125
1824.79776	50688.9125
1827.96924	50652.2125
1831.13864	50670.4125
1834.30597	50707.7125
1837.47122	50784.3125
1840.6344	50798.2125
1843.7955	50709.5125
1846.95454	50704.4125
1850.11151	50736.7125
1853.26642	50668.0125
1856.41926	50718.8125
1859.57004	50686.7125
1862.71876	50571.1125
1865.86542	50559.3125
1869.01003	50515.5125
1872.15258	50523.8125
1875.29308	50452.4125
1878.43152	50375.8125
1881.56792	50346.9125
1884.70227	50270.8125
1887.83457	50288.7125
1890.96482	50238.2125
1894.09304	50186.5125
1897.21921	50168.3125
1900.34335	50080.7125
1903.46544	50012.2125
1906.58551	49984.3125
1909.70353	49962.7125
1912.81953	49815.6125
1915.93349	49794.6125
1919.04543	49681.9125
1922.15534	49589.7125
1925.26322	49428.6125
1928.36908	49340.1125
1931.47292	49259.6125
1934.57473	49130.1125
1937.67453	49052.3125
1940.77232	49008.3125
1943.86808	48838.1125
1946.96184	48714.9125
1950.05358	48583.1125
1953.14331	48468.4125
1956.23103	48414.6125
1959.31675	48310.6125
1962.40046	48201.9125
1965.48217	48027.7125
1968.56188	47893.7125
1971.63959	47730.7125
1974.7153	47678.3125
1977.78901	47505.1125
1980.86073	47412.4125
1983.93046	47227.2125
1986.99819	47142.1125
1990.06394	47101.4125
1993.1277	46993.1125
1996.18947	46790.8125
1999.24925	46657.2125
2002.30706	46514.2125
2005.36288	46355.7125
2008.41672	46313.2125
2011.46859	46217.0125
2014.51848	46075.2125
2017.56639	46062.9125
2020.61233	45938.8125
2023.6563	45861.2125
2026.6983	45766.4125
2029.73833	45720.1125
2032.7764	45603.0125
2035.8125	45486.9125
2038.84664	45381.2125
2041.87881	45373.9125
2044.90903	45281.4125
2047.93729	45193.7125
2050.96359	45199.5125
2053.98794	45105.2125
2057.01034	45097.9125
2060.03078	45017.5125
2063.04927	45006.8125
2066.06582	45028.4125
2069.08042	44983.0125
2072.09307	45029.1125
2075.10378	45007.8125
2078.11255	44947.3125
2081.11938	44963.8125
2084.12426	44921.6125
2087.12722	44948.6125
2090.12824	44937.2125
2093.12732	44959.1125
2096.12447	44974.6125
2099.11969	44898.3125
2102.11299	44920.9125
2105.10435	44930.4125
2108.09379	45023.4125
2111.08131	45077.4125
2114.0669	45108.6125
2117.05057	45074.9125
2120.03233	45166.4125
2123.01216	45156.1125
2125.99008	45182.5125
2128.96609	45209.2125
2131.94018	45207.0125
2134.91236	45264.6125
2137.88263	45326.0125
2140.851	45341.1125
2143.81746	45352.1125
2146.78201	45399.4125
2149.74466	45408.8125
2152.7054	45445.8125
2155.66425	45429.2125
2158.6212	45480.7125
2161.57625	45429.3125
2164.52941	45508.7125
2167.48067	45571.6125
2170.43004	45524.0125
2173.37752	45498.8125
2176.32311	45478.5125
2179.26681	45440.1125
2182.20863	45426.1125
2185.14856	45512.4125
2188.08661	45507.2125
2191.02278	45528.9125
2193.95707	45498.0125
2196.88948	45433.9125
2199.82001	45451.9125
2202.74867	45384.8125
2205.67545	45356.0125
2208.60037	45315.3125
2211.52341	45292.9125
2214.44458	45176.3125
2217.36388	45126.1125
2220.28132	45086.5125
2223.1969	45057.0125
2226.11061	45025.1125
2229.02246	44992.6125
2231.93245	44867.1125
2234.84058	44771.3125
2237.74686	44789.6125
2240.65128	44753.8125
2243.55385	44632.3125
2246.45456	44595.2125
2249.35343	44541.8125
2252.25044	44514.3125
2255.14561	44354.8125
2258.03893	44261.1125
2260.93041	44245.5125
2263.82004	44139.4125
2266.70783	44046.4125
2269.59378	43954.5125
2272.4779	43905.1125
2275.36017	43778.4125
2278.24061	43689.9125
2281.11922	43618.7125
2283.996	43615.8125
2286.87094	43509.9125
2289.74405	43460.8125
2292.61534	43428.2125
2295.4848	43429.8125
2298.35243	43389.7125
2301.21824	43356.2125
2304.08223	43387.4125
2306.94439	43361.5125
2309.80474	43369.7125
2312.66327	43339.9125
2315.51999	43371.2125
2318.37489	43287.2125
2321.22797	43233.5125
2324.07925	43253.4125
2326.92871	43147.8125
2329.77637	43084.8125
2332.62222	43188.4125
2335.46626	43065.0125
2338.3085	42990.5125
2341.14893	42980.6125
2343.98756	43008.5125
2346.8244	42972.9125
2349.65943	42948.8125
2352.49267	42895.1125
2355.32411	42914.4125
2358.15376	42818.4125
2360.98161	42827.3125
2363.80768	42842.2125
2366.63195	42804.6125
2369.45444	42766.1125
2372.27514	42743.8125
2375.09405	42679.3125
2377.91118	42675.2125
2380.72652	42607.9125
2383.54009	42520.4125
2386.35187	42452.1125
2389.16188	42370.2125
2391.97011	42331.4125
2394.77657	42303.4125
2397.58125	42230.8125
2400.38416	42155.5125
2403.18529	42111.2125
2405.98466	42056.8125
2408.78226	42027.2125
2411.57809	41922.8125
2414.37216	41901.6125
2417.16446	41919.6125
2419.955	41806.4125
2422.74378	41829.6125
2425.5308	41786.4125
2428.31606	41738.9125
2431.09956	41719.9125
2433.88131	41724.8125
2436.6613	41725.5125
2439.43954	41651.5125
2442.21603	41635.1125
2444.99077	41585.6125
2447.76377	41655.9125
2450.53501	41605.1125
2453.30451	41576.6125
2456.07226	41576.7125
2458.83827	41559.9125
2461.60254	41536.4125
2464.36507	41511.6125
2467.12586	41492.0125
2469.88492	41476.3125
2472.64224	41463.8125
2475.39782	41451.6125
2478.15167	41509.9125
2480.90379	41484.8125
2483.65417	41486.8125
2486.40283	41437.9125
2489.14976	41461.1125
2491.89497	41410.1125
2494.63845	41490.5125
2497.3802	41395.6125
2500.12024	41439.5125
2502.85855	41459.3125
2505.59514	41458.9125
2508.33002	41457.7125
2511.06318	41415.1125
2513.79462	41409.3125
2516.52435	41380.2125
2519.25237	41335.3125
2521.97867	41317.9125
2524.70327	41325.3125
2527.42616	41245.0125
2530.14734	41211.9125
2532.86681	41171.7125
2535.58458	41111.2125
2538.30065	41084.9125
2541.01501	41061.7125
2543.72768	41065.6125
2546.43864	41037.4125
2549.14791	40950.8125
2551.85548	40987.7125
2554.56136	40918.0125
2557.26554	40833.1125
2559.96803	40903.7125
2562.66883	40821.9125
2565.36794	40801.6125
2568.06536	40813.4125
2570.7611	40764.0125
2573.45514	40666.4125
2576.14751	40717.1125
2578.83819	40658.2125
2581.52719	40622.1125
2584.21451	40501.6125
2586.90015	40516.6125
2589.58411	40463.1125
2592.2664	40466.8125
2594.94701	40408.7125
2597.62594	40378.3125
2600.30321	40314.9125
2602.9788	40280.5125
2605.65273	40267.4125
2608.32498	40279.4125
2610.99557	40209.4125
2613.66449	40181.4125
2616.33175	40169.2125
2618.99734	40179.7125
2621.66128	40105.0125
2624.32355	40048.8125
2626.98416	40044.6125
2629.64311	40018.7125
2632.30041	39948.2125
2634.95605	39924.7125
2637.61004	39868.8125
2640.26238	39899.9125
2642.91306	39892.5125
2645.56209	39874.1125
2648.20948	39885.1125
2650.85521	39822.7125
2653.4993	39818.0125
2656.14175	39874.3125
2658.78255	39891.6125
2661.42171	39923.9125
2664.05923	40006.5125
2666.6951	40034.5125
2669.32934	39964.3125
2671.96194	39995.8125
2674.59291	39928.2125
2677.22224	39941.3125
2679.84993	39957.9125
2682.476	39924.8125
2685.10043	39902.1125
2687.72324	39888.9125
2690.34441	39968.6125
2692.96396	39962.3125
2695.58188	39967.5125
2698.19818	39939.2125
2700.81285	39931.0125
2703.4259	39939.6125
2706.03733	40067.0125
2708.64714	40005.9125
2711.25533	40140.2125
2713.86191	40113.3125
2716.46687	40168.7125
2719.07021	40085.2125
2721.67194	40163.6125
2724.27206	40115.9125
2726.87057	40204.0125
2729.46747	40215.7125
2732.06276	40220.5125
2734.65644	40208.1125
2737.24852	40266.9125
2739.83899	40247.2125
2742.42786	40208.2125
2745.01513	40138.9125
2747.60079	40087.8125
2750.18486	40130.1125
2752.76733	40127.6125
2755.3482	40158.9125
2757.92747	40127.6125
2760.50515	40074.9125
2763.08123	40013.3125
2765.65573	40003.6125
2768.22863	39990.1125
2770.79994	39902.1125
2773.36967	39844.5125
2775.9378	39774.6125
2778.50435	39763.0125
2781.06932	39772.1125
2783.6327	39797.2125
2786.1945	39723.5125
2788.75471	39654.1125
2791.31335	39524.5125
2793.87041	39536.2125
2796.42589	39440.2125
2798.97979	39439.4125
2801.53212	39358.0125
2804.08288	39342.0125
2806.63206	39196.3125
2809.17967	39165.1125
2811.72571	39044.2125
2814.27018	38986.6125
2816.81308	38936.1125
2819.35442	38897.0125
2821.89419	38839.0125
2824.43239	38808.8125
2826.96904	38755.8125
2829.50412	38730.5125
2832.03763	38632.7125
2834.56959	38714.9125
2837.1	38580.7125
2839.62884	38541.2125
2842.15613	38474.6125
2844.68186	38506.4125
2847.20604	38425.8125
2849.72867	38374.1125
2852.24974	38367.6125
2854.76927	38343.5125
2857.28724	38293.3125
2859.80367	38208.2125
2862.31855	38171.3125
2864.83189	38114.2125
2867.34368	38087.6125
2869.85393	38065.6125
2872.36264	38096.4125
2874.8698	38095.8125
2877.37543	38133.4125
2879.87952	38044.8125
2882.38207	38079.3125
2884.88308	38103.8125
2887.38256	38092.5125
2889.88051	38043.3125
2892.37692	38067.5125
2894.8718	38044.0125
2897.36515	38039.8125
2899.85698	38076.7125
2902.34727	38161.6125
2904.83604	38155.8125
2907.32328	38224.4125
2909.809	38168.1125
2912.29319	38227.5125
2914.77587	38186.0125
2917.25702	38149.5125
2919.73665	38155.3125
2922.21476	38207.1125
2924.69136	38134.7125
2927.16644	38162.6125
2929.64	38108.3125
2932.11205	38045.3125
2934.58258	37922.3125
2937.05161	38067.3125
2939.51912	38149.0125
2941.98513	38139.7125
2944.44962	38016.4125
2946.91261	37825.9125
2949.37409	37972.7125
2951.83407	37973.8125
2954.29254	37873.4125
2956.74951	37822.0125
2959.20498	37810.0125
2961.65895	37765.8125
2964.11142	37755.0125
2966.56239	37688.9125
2969.01186	37674.6125
2971.45984	37583.1125
2973.90632	37544.5125
2976.35131	37477.7125
2978.7948	37420.3125
2981.23681	37373.3125
2983.67732	37335.6125
2986.11635	37263.3125
2988.55388	37118.9125
2990.98993	37007.8125
2993.4245	36960.0125
2995.85758	36921.2125
2998.28917	36824.6125
3000.71928	36786.7125
3003.14791	36639.0125
3005.57506	36658.6125
3008.00073	36561.5125
3010.42493	36556.3125
3012.84764	36541.2125
3015.26888	36510.8125
3017.68865	36413.5125
3020.10694	36378.2125
