Data from AgNP_FTO_APTES_CRN_200uM_R6G_10uM_NaF_0.1M_Addition_RamanShift__29__19-50-48-195.txt Node

Date: Wed Dec 15 19:50:48 GMT 2021
User: TCL
Spectrometer: QEP01345
Trigger mode: 4
Integration Time (sec): 7.000000E0
Scans to average: 10
Electric dark correction enabled: true
Nonlinearity correction enabled: false
Boxcar width: 0
XAxis mode: Raman Shifts
Number of Pixels in Spectrum: 1044
>>>>>Begin Spectral Data<<<<<
46.04893	1.475
50.45542	-1.325
54.85868	-1.025
59.25871	-1.125
63.6555	63.175
68.04907	70.975
72.43941	73.175
76.82654	73.175
81.21044	77.775
85.59113	78.875
89.96862	81.575
94.34289	82.275
98.71396	88.375
103.08183	96.675
107.4465	100.375
111.80798	96.175
116.16626	100.975
120.52136	104.075
124.87327	108.575
129.222	110.675
133.56755	116.675
137.90993	120.675
142.24913	136.475
146.58517	148.175
150.91804	170.875
155.24774	204.375
159.57429	254.575
163.89768	316.375
168.21792	417.075
172.53501	569.275
176.84895	793.475
181.15975	1107.275
185.46741	1547.675
189.77193	2142.175
194.07331	2863.675
198.37157	3698.975
202.6667	4558.375
206.9587	5427.575
211.24758	6276.775
215.53334	7174.475
219.81599	8110.575
224.09553	9155.275
228.37195	10317.975
232.64527	11573.475
236.91549	12882.475
241.18261	14107.475
245.44663	15219.675
249.70755	16170.375
253.96539	17005.675
258.22014	17718.575
262.4718	18330.275
266.72039	18772.675
270.96589	19016.175
275.20832	19068.075
279.44768	18944.875
283.68397	18712.375
287.91719	18507.275
292.14735	18509.875
296.37445	18681.375
300.59849	19068.775
304.81948	19457.375
309.03742	19720.175
313.25231	19590.675
317.46415	18908.075
321.67296	17941.475
325.87872	17082.075
330.08145	16708.375
334.28114	16686.775
338.47781	16915.575
342.67145	17263.575
346.86207	17791.075
351.04966	18480.375
355.23424	19270.675
359.4158	19931.175
363.59435	20235.075
367.76989	20436.875
371.94243	20434.275
376.11196	20419.275
380.27849	20411.075
384.44203	20309.275
388.60257	20177.775
392.76012	20162.575
396.91468	20337.175
401.06626	20663.175
405.21485	20972.575
409.36047	20734.575
413.50311	20042.275
417.64277	19360.175
421.77947	18980.775
425.9132	18871.275
430.04396	18892.775
434.17176	19066.375
438.2966	19342.375
442.41849	19764.775
446.53742	20331.975
450.6534	20861.575
454.76644	21233.075
458.87653	21345.775
462.98368	21171.575
467.08789	20896.675
471.18916	20576.575
475.2875	20292.475
479.38291	19969.775
483.4754	19731.875
487.56496	19431.375
491.6516	19185.675
495.73531	19021.975
499.81612	18970.975
503.89401	19134.375
507.96899	19299.375
512.04106	19525.075
516.11023	19801.175
520.1765	19985.775
524.23987	20079.775
528.30034	19859.075
532.35792	19620.675
536.41261	19315.475
540.46441	19033.775
544.51333	18881.275
548.55936	18984.675
552.60252	19279.875
556.64279	19710.675
560.6802	19938.575
564.71473	20112.875
568.7464	20596.175
572.7752	20940.775
576.80114	20572.275
580.82422	20095.775
584.84444	19864.875
588.86181	19940.775
592.87633	20248.775
596.888	20584.875
600.89682	20944.775
604.9028	22309.575
608.90594	26267.775
612.90624	31328.675
616.90371	30145.575
620.89834	23161.475
624.89015	19832.675
628.87913	19197.875
632.86528	19228.475
636.84862	19355.075
640.82913	19167.275
644.80683	18625.675
648.78172	18299.675
652.75379	18346.475
656.72306	18774.975
660.68952	19329.075
664.65319	19248.575
668.61405	18669.875
672.57211	18347.575
676.52738	18366.375
680.47986	18390.775
684.42955	18340.775
688.37646	18256.675
692.32058	18300.575
696.26192	18431.075
700.20048	18625.875
704.13626	18737.475
708.06928	18645.675
711.99952	18533.575
715.927	18507.175
719.85171	18497.975
723.77365	18488.875
727.69284	18329.075
731.60928	18196.075
735.52295	18206.075
739.43388	18204.075
743.34206	18271.575
747.24749	18260.875
751.15017	18365.275
755.05012	18595.675
758.94733	19205.375
762.8418	20551.975
766.73354	22845.575
770.62254	25354.075
774.50882	26509.575
778.39237	25439.675
782.27321	22819.375
786.15132	20381.175
790.02671	19001.775
793.89938	18366.475
797.76935	18101.875
801.6366	17974.475
805.50115	17916.975
809.36299	17840.575
813.22213	17797.975
817.07857	17775.575
820.93231	17808.275
824.78336	17816.375
828.63172	17911.675
832.47738	17945.675
836.32036	17932.475
840.16066	17890.075
843.99827	17837.175
847.8332	17763.875
851.66546	17729.275
855.49504	17717.875
859.32195	17687.375
863.1462	17650.675
866.96777	17552.675
870.78668	17591.575
874.60293	17545.275
878.41652	17583.275
882.22745	17648.375
886.03573	17686.575
889.84136	17643.175
893.64433	17549.775
897.44466	17484.475
901.24235	17506.875
905.0374	17432.175
908.8298	17419.475
912.61957	17421.675
916.40671	17492.975
920.19121	17598.875
923.97308	17722.775
927.75233	17827.175
931.52895	17951.275
935.30295	17785.475
939.07433	17489.775
942.84309	17149.675
946.60924	16924.075
950.37278	16821.375
954.13371	16729.275
957.89203	16681.375
961.64774	16637.175
965.40086	16605.675
969.15137	16568.375
972.89929	16505.175
976.64461	16476.075
980.38733	16480.975
984.12747	16487.575
987.86502	16604.475
991.59999	16714.575
995.33237	16866.075
999.06217	17182.275
1002.78939	17561.975
1006.51404	17810.475
1010.23611	18077.175
1013.95561	18195.875
1017.67255	18173.675
1021.38692	17962.075
1025.09872	17768.675
1028.80796	17738.775
1032.51465	17873.575
1036.21877	18095.275
1039.92035	18184.875
1043.61937	18144.775
1047.31584	17996.375
1051.00976	17896.775
1054.70114	17799.275
1058.38998	17820.275
1062.07627	17966.675
1065.76003	18214.075
1069.44126	18479.675
1073.11995	18844.675
1076.79611	19216.675
1080.46974	19444.275
1084.14085	19502.575
1087.80943	19513.375
1091.47549	19393.575
1095.13903	19018.575
1098.80005	18486.775
1102.45857	18066.575
1106.11456	17863.075
1109.76805	17959.175
1113.41903	18140.975
1117.06751	18535.275
1120.71348	19015.875
1124.35696	19531.975
1127.99793	19929.875
1131.63641	19932.875
1135.2724	19385.575
1138.90589	18803.475
1142.5369	18442.575
1146.16542	18223.575
1149.79145	18096.875
1153.415	18108.075
1157.03607	18216.175
1160.65467	18509.275
1164.27079	19029.375
1167.88443	19814.775
1171.49561	21107.575
1175.10432	23096.475
1178.71056	25646.675
1182.31434	27586.775
1185.91565	28145.775
1189.51451	27511.675
1193.11091	26174.475
1196.70485	24594.475
1200.29634	23327.975
1203.88538	22388.875
1207.47197	21449.375
1211.05612	20644.375
1214.63782	20254.275
1218.21708	20095.875
1221.79391	20111.375
1225.36829	20081.275
1228.94024	19979.975
1232.50976	19818.875
1236.07685	19759.575
1239.6415	19830.675
1243.20374	19915.475
1246.76355	20030.975
1250.32093	20310.475
1253.8759	20651.775
1257.42845	21148.475
1260.97859	21634.775
1264.52631	22090.075
1268.07163	22569.975
1271.61453	23012.875
1275.15503	23384.875
1278.69312	23590.975
1282.22882	23737.075
1285.76211	24089.175
1289.29301	24687.475
1292.82151	25447.575
1296.34761	26278.875
1299.87133	27413.475
1303.39266	29102.475
1306.9116	31601.475
1310.42815	34440.275
1313.94233	36199.575
1317.45412	35990.975
1320.96354	34319.975
1324.47058	32350.475
1327.97525	30563.075
1331.47754	29385.875
1334.97747	28968.475
1338.47502	29131.575
1341.97022	29532.475
1345.46305	30062.075
1348.95352	30829.775
1352.44163	32156.375
1355.92738	34406.575
1359.41078	38069.375
1362.89183	41641.575
1366.37053	41020.275
1369.84688	36032.775
1373.32088	30730.775
1376.79254	27363.575
1380.26186	25768.075
1383.72883	25025.375
1387.19347	24480.975
1390.65578	23947.075
1394.11575	23483.075
1397.57339	23369.875
1401.0287	23584.775
1404.48168	23891.675
1407.93234	24141.875
1411.38068	24246.875
1414.82669	24000.675
1418.27039	23475.675
1421.71177	22850.575
1425.15083	22243.775
1428.58758	21894.175
1432.02203	21935.375
1435.45416	22113.975
1438.88399	22327.975
1442.31151	22437.775
1445.73673	22558.875
1449.15965	22809.175
1452.58027	22885.375
1455.9986	22816.275
1459.41463	22777.975
1462.82837	23052.575
1466.23982	23474.275
1469.64898	23927.975
1473.05586	24251.475
1476.46045	24359.975
1479.86276	24585.075
1483.26279	24821.975
1486.66054	25176.775
1490.05602	25637.575
1493.44922	26208.875
1496.84016	26986.275
1500.22882	28343.175
1503.61521	30396.775
1506.99934	32944.475
1510.38121	35513.875
1513.76081	36830.975
1517.13816	35726.375
1520.51324	32561.875
1523.88607	29269.075
1527.25665	26938.575
1530.62498	25615.875
1533.99105	24932.575
1537.35488	24538.575
1540.71647	24305.575
1544.07581	24191.075
1547.4329	24012.575
1550.78776	23889.875
1554.14038	23777.075
1557.49077	23822.075
1560.83892	24034.675
1564.18484	24452.875
1567.52853	24938.775
1570.86999	25437.675
1574.20922	25981.075
1577.54624	26420.675
1580.88103	26025.575
1584.2136	25099.375
1587.54395	24395.975
1590.87208	24425.175
1594.19801	25251.875
1597.52172	26634.875
1600.84321	27288.175
1604.16251	26567.375
1607.47959	25021.475
1610.79447	23212.575
1614.10715	21502.075
1617.41763	20184.775
1620.7259	19362.575
1624.03199	18922.375
1627.33587	18908.975
1630.63757	19265.375
1633.93707	20008.375
1637.23439	21235.175
1640.52951	22993.575
1643.82246	25272.575
1647.11321	27785.675
1650.40179	29457.275
1653.68819	28726.475
1656.97241	25644.575
1660.25446	22195.775
1663.53433	19597.875
1666.81203	18034.175
1670.08756	17128.275
1673.36092	16565.675
1676.63211	16183.475
1679.90115	15932.075
1683.16801	15724.375
1686.43272	15569.675
1689.69527	15482.275
1692.95567	15411.675
1696.2139	15391.075
1699.46999	15329.775
1702.72392	15317.675
1705.97571	15303.275
1709.22535	15231.275
1712.47284	15233.875
1715.71819	15234.175
1718.96139	15205.575
1722.20246	15182.275
1725.44139	15147.675
1728.67818	15077.875
1731.91284	14956.075
1735.14537	14881.675
1738.37576	14811.575
1741.60403	14796.875
1744.83017	14765.575
1748.05418	14729.875
1751.27607	14699.475
1754.49584	14691.575
1757.71349	14666.175
1760.92903	14660.475
1764.14244	14657.275
1767.35375	14648.275
1770.56294	14618.975
1773.77002	14595.675
1776.97499	14552.375
1780.17785	14530.975
1783.37861	14509.475
1786.57727	14483.375
1789.77382	14444.575
1792.96828	14414.775
1796.16064	14436.275
1799.3509	14400.075
1802.53907	14380.375
1805.72514	14326.475
1808.90913	14294.075
1812.09102	14254.275
1815.27083	14205.375
1818.44856	14209.175
1821.6242	14175.775
1824.79776	14160.075
1827.96924	14164.475
1831.13864	14158.375
1834.30597	14148.375
1837.47122	14121.575
1840.6344	14119.875
1843.7955	14102.375
1846.95454	14094.775
1850.11151	14103.275
1853.26642	14090.975
1856.41926	14047.075
1859.57004	14104.675
1862.71876	14075.575
1865.86542	14055.575
1869.01003	14069.975
1872.15258	14038.075
1875.29308	14067.175
1878.43152	14022.675
1881.56792	14036.175
1884.70227	14017.275
1887.83457	13988.975
1890.96482	14021.575
1894.09304	14009.275
1897.21921	13988.375
1900.34335	13995.775
1903.46544	13991.175
1906.58551	13988.975
1909.70353	13930.575
1912.81953	13965.475
1915.93349	13938.375
1919.04543	13915.275
1922.15534	13892.375
1925.26322	13891.275
1928.36908	13870.375
1931.47292	13851.575
1934.57473	13815.475
1937.67453	13771.775
1940.77232	13710.175
1943.86808	13655.675
1946.96184	13616.075
1950.05358	13578.175
1953.14331	13539.275
1956.23103	13528.775
1959.31675	13472.475
1962.40046	13443.375
1965.48217	13409.175
1968.56188	13369.175
1971.63959	13329.275
1974.7153	13261.675
1977.78901	13242.075
1980.86073	13208.975
1983.93046	13165.075
1986.99819	13144.275
1990.06394	13081.175
1993.1277	13056.675
1996.18947	13007.475
1999.24925	12968.075
2002.30706	12925.175
2005.36288	12932.775
2008.41672	12850.475
2011.46859	12822.575
2014.51848	12830.375
2017.56639	12799.075
2020.61233	12738.775
2023.6563	12741.375
2026.6983	12712.875
2029.73833	12676.575
2032.7764	12643.175
2035.8125	12603.875
2038.84664	12628.075
2041.87881	12583.775
2044.90903	12556.275
2047.93729	12533.375
2050.96359	12518.875
2053.98794	12476.075
2057.01034	12481.875
2060.03078	12488.975
2063.04927	12461.775
2066.06582	12441.075
2069.08042	12424.075
2072.09307	12405.575
2075.10378	12395.875
2078.11255	12385.675
2081.11938	12392.175
2084.12426	12384.875
2087.12722	12389.075
2090.12824	12373.275
2093.12732	12405.675
2096.12447	12393.675
2099.11969	12384.275
2102.11299	12409.475
2105.10435	12389.475
2108.09379	12403.775
2111.08131	12382.375
2114.0669	12402.375
2117.05057	12406.175
2120.03233	12446.475
2123.01216	12445.775
2125.99008	12476.575
2128.96609	12470.475
2131.94018	12470.675
2134.91236	12494.675
2137.88263	12488.775
2140.851	12468.475
2143.81746	12516.575
2146.78201	12505.675
2149.74466	12509.275
2152.7054	12496.775
2155.66425	12509.975
2158.6212	12513.675
2161.57625	12483.775
2164.52941	12480.375
2167.48067	12476.275
2170.43004	12473.175
2173.37752	12468.675
2176.32311	12493.175
2179.26681	12466.175
2182.20863	12477.975
2185.14856	12463.975
2188.08661	12442.975
2191.02278	12463.075
2193.95707	12450.575
2196.88948	12412.275
2199.82001	12430.775
2202.74867	12415.875
2205.67545	12420.975
2208.60037	12430.975
2211.52341	12395.975
2214.44458	12373.475
2217.36388	12320.075
2220.28132	12317.175
2223.1969	12283.775
2226.11061	12288.675
2229.02246	12259.775
2231.93245	12231.475
2234.84058	12194.975
2237.74686	12195.975
2240.65128	12203.075
2243.55385	12169.175
2246.45456	12130.375
2249.35343	12138.975
2252.25044	12144.875
2255.14561	12116.875
2258.03893	12104.375
2260.93041	12123.975
2263.82004	12078.775
2266.70783	12069.475
2269.59378	12025.275
2272.4779	12007.175
2275.36017	11968.275
2278.24061	11941.675
2281.11922	11888.275
2283.996	11884.175
2286.87094	11892.075
2289.74405	11856.375
2292.61534	11811.175
2295.4848	11797.875
2298.35243	11816.575
2301.21824	11799.675
2304.08223	11798.175
2306.94439	11789.675
2309.80474	11820.975
2312.66327	11810.475
2315.51999	11769.175
2318.37489	11774.175
2321.22797	11769.075
2324.07925	11749.075
2326.92871	11743.875
2329.77637	11763.575
2332.62222	11720.575
2335.46626	11704.375
2338.3085	11678.975
2341.14893	11704.975
2343.98756	11671.675
2346.8244	11664.975
2349.65943	11675.575
2352.49267	11668.975
2355.32411	11676.675
2358.15376	11679.275
2360.98161	11661.875
2363.80768	11673.675
2366.63195	11702.975
2369.45444	11665.375
2372.27514	11674.475
2375.09405	11647.575
2377.91118	11589.275
2380.72652	11563.575
2383.54009	11528.575
2386.35187	11500.375
2389.16188	11460.675
2391.97011	11455.875
2394.77657	11452.375
2397.58125	11417.875
2400.38416	11381.375
2403.18529	11351.275
2405.98466	11362.975
2408.78226	11306.975
2411.57809	11330.875
2414.37216	11301.775
2417.16446	11271.575
2419.955	11268.975
2422.74378	11263.675
2425.5308	11210.875
2428.31606	11236.275
2431.09956	11237.875
2433.88131	11218.275
2436.6613	11235.675
2439.43954	11190.975
2442.21603	11218.875
2444.99077	11172.875
2447.76377	11206.975
2450.53501	11210.575
2453.30451	11164.975
2456.07226	11168.775
2458.83827	11159.975
2461.60254	11169.475
2464.36507	11159.175
2467.12586	11153.075
2469.88492	11121.675
2472.64224	11125.975
2475.39782	11127.675
2478.15167	11145.275
2480.90379	11151.875
2483.65417	11164.275
2486.40283	11153.575
2489.14976	11190.875
2491.89497	11151.575
2494.63845	11192.875
2497.3802	11145.775
2500.12024	11112.975
2502.85855	11143.475
2505.59514	11118.175
2508.33002	11096.675
2511.06318	11074.075
2513.79462	11064.775
2516.52435	11037.375
2519.25237	11017.875
2521.97867	10985.775
2524.70327	10986.775
2527.42616	10959.775
2530.14734	10952.175
2532.86681	10937.075
2535.58458	10905.475
2538.30065	10914.575
2541.01501	10918.775
2543.72768	10897.275
2546.43864	10912.075
2549.14791	10864.775
2551.85548	10852.375
2554.56136	10838.275
2557.26554	10837.575
2559.96803	10826.875
2562.66883	10807.875
2565.36794	10796.575
2568.06536	10801.475
2570.7611	10785.075
2573.45514	10762.975
2576.14751	10766.375
2578.83819	10744.875
2581.52719	10737.375
2584.21451	10711.175
2586.90015	10719.975
2589.58411	10695.175
2592.2664	10673.675
2594.94701	10655.375
2597.62594	10650.975
2600.30321	10626.275
2602.9788	10628.475
2605.65273	10596.275
2608.32498	10591.775
2610.99557	10575.875
2613.66449	10593.875
2616.33175	10545.775
2618.99734	10547.875
2621.66128	10511.775
2624.32355	10562.375
2626.98416	10555.975
2629.64311	10556.975
2632.30041	10547.975
2634.95605	10509.375
2637.61004	10497.675
2640.26238	10495.075
2642.91306	10467.375
2645.56209	10466.475
2648.20948	10467.675
2650.85521	10446.075
2653.4993	10460.275
2656.14175	10455.575
2658.78255	10443.675
2661.42171	10450.175
2664.05923	10442.775
2666.6951	10458.675
2669.32934	10480.175
2671.96194	10446.975
2674.59291	10460.975
2677.22224	10483.975
2679.84993	10462.575
2682.476	10482.975
2685.10043	10469.475
2687.72324	10445.275
2690.34441	10465.175
2692.96396	10467.675
2695.58188	10482.875
2698.19818	10454.775
2700.81285	10453.875
2703.4259	10473.775
2706.03733	10505.375
2708.64714	10533.275
2711.25533	10495.675
2713.86191	10476.575
2716.46687	10491.375
2719.07021	10491.075
2721.67194	10490.575
2724.27206	10458.175
2726.87057	10479.975
2729.46747	10473.675
2732.06276	10490.375
2734.65644	10490.075
2737.24852	10442.675
2739.83899	10437.575
2742.42786	10436.575
2745.01513	10435.475
2747.60079	10418.575
2750.18486	10411.475
2752.76733	10425.475
2755.3482	10402.175
2757.92747	10402.275
2760.50515	10394.575
2763.08123	10374.275
2765.65573	10368.175
2768.22863	10332.975
2770.79994	10335.175
2773.36967	10331.475
2775.9378	10319.975
2778.50435	10335.075
2781.06932	10306.675
2783.6327	10294.275
2786.1945	10268.875
2788.75471	10292.375
2791.31335	10265.775
2793.87041	10267.375
2796.42589	10206.575
2798.97979	10216.175
2801.53212	10198.575
2804.08288	10194.675
2806.63206	10178.575
2809.17967	10162.075
2811.72571	10130.675
2814.27018	10134.975
2816.81308	10128.675
2819.35442	10134.975
2821.89419	10091.775
2824.43239	10084.875
2826.96904	10097.975
2829.50412	10089.175
2832.03763	10077.175
2834.56959	10100.775
2837.1	10098.575
2839.62884	10093.675
2842.15613	10102.475
2844.68186	10117.175
2847.20604	10160.175
2849.72867	10194.075
2852.24974	10183.275
2854.76927	10139.675
2857.28724	10155.175
2859.80367	10126.475
2862.31855	10110.375
2864.83189	10116.875
2867.34368	10106.275
2869.85393	10087.175
2872.36264	10088.575
2874.8698	10066.875
2877.37543	10099.275
2879.87952	10085.975
2882.38207	10097.775
2884.88308	10060.175
2887.38256	10096.875
2889.88051	10089.575
2892.37692	10088.375
2894.8718	10078.375
2897.36515	10096.675
2899.85698	10083.375
2902.34727	10085.175
2904.83604	10086.375
2907.32328	10099.775
2909.809	10118.975
2912.29319	10124.175
2914.77587	10120.875
2917.25702	10107.975
2919.73665	10092.775
2922.21476	10099.275
2924.69136	10091.575
2927.16644	10074.675
2929.64	10057.375
2932.11205	10050.375
2934.58258	10012.675
2937.05161	10030.175
2939.51912	10002.475
2941.98513	10009.775
2944.44962	9981.175
2946.91261	9909.575
2949.37409	9918.775
2951.83407	9890.875
2954.29254	9920.775
2956.74951	9845.575
2959.20498	9868.075
2961.65895	9839.175
2964.11142	9830.075
2966.56239	9825.975
2969.01186	9803.375
2971.45984	9771.275
2973.90632	9749.875
2976.35131	9716.475
2978.7948	9722.175
2981.23681	9668.275
2983.67732	9657.275
2986.11635	9663.375
2988.55388	9615.875
2990.98993	9612.175
2993.4245	9586.475
2995.85758	9581.375
2998.28917	9545.175
3000.71928	9539.275
3003.14791	9514.975
3005.57506	9521.175
3008.00073	9506.275
3010.42493	9523.775
3012.84764	9486.475
3015.26888	9475.275
3017.68865	9457.275
3020.10694	9468.175
3022.52376	9440.875
3024.9391	9401.375
3027.35298	9398.575
3029.76539	9393.975
3032.17632	9391.675
3034.5858	9369.175
3036.9938	9342.675
3039.40034	9328.875
3041.80542	9319.175
3044.20903	9294.475
3046.61118	9302.775
3049.01187	9275.775
3051.4111	9265.075
3053.80888	9257.175
3056.20519	9220.875
3058.60005	9230.675
3060.99345	9205.875
3063.3854	9186.075
3065.7759	9172.975
3068.16494	9154.675
3070.55254	9110.575
3072.93868	9121.175
3075.32338	9085.775
3077.70662	9075.875
3080.08842	9028.075
3082.46878	9039.175
3084.84769	9054.075
3087.22515	9036.775
3089.60118	9038.675
3091.97576	9044.575
3094.3489	9046.375
3096.72061	9010.975
3099.09087	9032.775
3101.4597	9013.975
3103.82709	9020.275
3106.19305	8991.275
3108.55757	8988.675
3110.92066	8963.575
3113.28232	8954.975
3115.64255	8956.375
3118.00134	8908.575
3120.35871	8900.375
3122.71466	8907.375
3125.06917	8889.775
3127.42226	8865.975
3129.77393	8893.575
3132.12417	8871.075
3134.47299	8902.475
3136.82039	8899.775
3139.16636	8887.575
