Data from AgNP_FTO_APTES_CRN_200uM_R6G_10uM_NaF_0.1M_Addition_RamanShift__31__19-53-08-198.txt Node

Date: Wed Dec 15 19:53:08 GMT 2021
User: TCL
Spectrometer: QEP01345
Trigger mode: 4
Integration Time (sec): 7.000000E0
Scans to average: 10
Electric dark correction enabled: true
Nonlinearity correction enabled: false
Boxcar width: 0
XAxis mode: Raman Shifts
Number of Pixels in Spectrum: 1044
>>>>>Begin Spectral Data<<<<<
46.04893	0.85
50.45542	-2.45
54.85868	-0.65
59.25871	-0.95
63.6555	64.35
68.04907	67.65
72.43941	72.35
76.82654	74.45
81.21044	76.65
85.59113	80.45
89.96862	83.95
94.34289	83.75
98.71396	88.85
103.08183	94.55
107.4465	98.35
111.80798	96.05
116.16626	101.05
120.52136	102.65
124.87327	103.05
129.222	110.35
133.56755	114.55
137.90993	122.55
142.24913	131.75
146.58517	146.95
150.91804	169.85
155.24774	200.85
159.57429	252.05
163.89768	323.05
168.21792	420.55
172.53501	576.15
176.84895	795.95
181.15975	1117.25
185.46741	1558.35
189.77193	2151.15
194.07331	2887.95
198.37157	3719.25
202.6667	4600.65
206.9587	5486.65
211.24758	6345.05
215.53334	7230.65
219.81599	8173.35
224.09553	9274.95
228.37195	10418.55
232.64527	11718.35
236.91549	13013.55
241.18261	14270.55
245.44663	15317.05
249.70755	16296.55
253.96539	17103.15
258.22014	17820.55
262.4718	18437.85
266.72039	18886.45
270.96589	19146.45
275.20832	19165.45
279.44768	19006.85
283.68397	18731.25
287.91719	18574.05
292.14735	18536.25
296.37445	18736.85
300.59849	19144.55
304.81948	19561.45
309.03742	19871.45
313.25231	19772.55
317.46415	19102.55
321.67296	18064.95
325.87872	17221.55
330.08145	16829.65
334.28114	16774.55
338.47781	16990.75
342.67145	17355.95
346.86207	17868.55
351.04966	18636.15
355.23424	19481.85
359.4158	20112.15
363.59435	20456.45
367.76989	20586.85
371.94243	20656.95
376.11196	20619.85
380.27849	20584.45
384.44203	20430.95
388.60257	20345.45
392.76012	20256.45
396.91468	20421.95
401.06626	20797.85
405.21485	21082.15
409.36047	20842.15
413.50311	20103.95
417.64277	19367.55
421.77947	18982.65
425.9132	18883.45
430.04396	18916.75
434.17176	19077.15
438.2966	19375.45
442.41849	19819.35
446.53742	20431.15
450.6534	21002.65
454.76644	21344.25
458.87653	21433.45
462.98368	21247.15
467.08789	20891.55
471.18916	20590.55
475.2875	20227.95
479.38291	19894.25
483.4754	19640.25
487.56496	19296.05
491.6516	19076.75
495.73531	18907.05
499.81612	18909.65
503.89401	19064.45
507.96899	19244.45
512.04106	19459.25
516.11023	19721.15
520.1765	19949.15
524.23987	20019.45
528.30034	19827.65
532.35792	19585.65
536.41261	19294.05
540.46441	18983.55
544.51333	18871.95
548.55936	18948.05
552.60252	19244.65
556.64279	19641.05
560.6802	19872.05
564.71473	20091.35
568.7464	20568.05
572.7752	20916.05
576.80114	20490.75
580.82422	19969.85
584.84444	19726.75
588.86181	19880.85
592.87633	20259.05
596.888	20610.95
600.89682	20886.35
604.9028	22317.95
608.90594	26426.55
612.90624	31755.75
616.90371	30608.55
620.89834	23225.85
624.89015	19760.85
628.87913	19080.45
632.86528	19099.85
636.84862	19274.25
640.82913	19048.35
644.80683	18501.05
648.78172	18115.65
652.75379	18173.35
656.72306	18656.75
660.68952	19243.25
664.65319	19139.05
668.61405	18520.65
672.57211	18202.25
676.52738	18234.85
680.47986	18191.85
684.42955	18143.95
688.37646	18118.75
692.32058	18139.05
696.26192	18282.65
700.20048	18467.45
704.13626	18555.55
708.06928	18486.95
711.99952	18331.35
715.927	18298.75
719.85171	18343.75
723.77365	18338.65
727.69284	18185.15
731.60928	18076.15
735.52295	18038.95
739.43388	18047.95
743.34206	18114.25
747.24749	18143.85
751.15017	18161.55
755.05012	18431.05
758.94733	19046.95
762.8418	20472.35
766.73354	22822.45
770.62254	25459.65
774.50882	26652.85
778.39237	25562.25
782.27321	22854.65
786.15132	20343.55
790.02671	18892.05
793.89938	18221.65
797.76935	17941.05
801.6366	17810.95
805.50115	17747.65
809.36299	17670.15
813.22213	17623.35
817.07857	17635.55
820.93231	17650.75
824.78336	17654.15
828.63172	17744.55
832.47738	17822.85
836.32036	17763.55
840.16066	17700.45
843.99827	17660.35
847.8332	17599.15
851.66546	17520.55
855.49504	17525.75
859.32195	17477.75
863.1462	17440.45
866.96777	17391.45
870.78668	17360.45
874.60293	17363.15
878.41652	17413.75
882.22745	17445.45
886.03573	17509.95
889.84136	17435.15
893.64433	17334.45
897.44466	17298.95
901.24235	17294.55
905.0374	17267.85
908.8298	17243.85
912.61957	17248.65
916.40671	17307.75
920.19121	17371.75
923.97308	17499.65
927.75233	17649.15
931.52895	17731.05
935.30295	17597.55
939.07433	17245.65
942.84309	16922.05
946.60924	16736.45
950.37278	16591.45
954.13371	16541.25
957.89203	16452.35
961.64774	16422.15
965.40086	16394.15
969.15137	16312.15
972.89929	16292.35
976.64461	16266.55
980.38733	16255.95
984.12747	16296.15
987.86502	16365.25
991.59999	16482.55
995.33237	16648.15
999.06217	16971.85
1002.78939	17343.25
1006.51404	17577.95
1010.23611	17838.85
1013.95561	17983.75
1017.67255	17921.45
1021.38692	17782.45
1025.09872	17526.45
1028.80796	17457.25
1032.51465	17592.75
1036.21877	17811.15
1039.92035	17876.05
1043.61937	17864.05
1047.31584	17718.25
1051.00976	17617.35
1054.70114	17553.95
1058.38998	17571.05
1062.07627	17711.35
1065.76003	17914.15
1069.44126	18185.25
1073.11995	18530.75
1076.79611	18875.25
1080.46974	19123.65
1084.14085	19242.15
1087.80943	19261.15
1091.47549	19144.65
1095.13903	18720.15
1098.80005	18230.15
1102.45857	17790.15
1106.11456	17615.35
1109.76805	17675.65
1113.41903	17947.05
1117.06751	18327.75
1120.71348	18816.05
1124.35696	19333.05
1127.99793	19819.85
1131.63641	19803.45
1135.2724	19229.35
1138.90589	18603.75
1142.5369	18234.25
1146.16542	18009.35
1149.79145	17849.85
1153.415	17858.05
1157.03607	17945.95
1160.65467	18247.25
1164.27079	18735.25
1167.88443	19595.95
1171.49561	20891.45
1175.10432	22932.45
1178.71056	25622.95
1182.31434	27629.95
1185.91565	28145.85
1189.51451	27466.05
1193.11091	26049.15
1196.70485	24422.65
1200.29634	23079.45
1203.88538	22173.15
1207.47197	21209.25
1211.05612	20361.85
1214.63782	19928.55
1218.21708	19824.35
1221.79391	19815.75
1225.36829	19801.35
1228.94024	19664.55
1232.50976	19497.05
1236.07685	19459.45
1239.6415	19531.75
1243.20374	19627.75
1246.76355	19799.25
1250.32093	20010.15
1253.8759	20380.55
1257.42845	20873.35
1260.97859	21345.75
1264.52631	21833.15
1268.07163	22293.15
1271.61453	22789.35
1275.15503	23118.95
1278.69312	23337.65
1282.22882	23465.65
1285.76211	23840.95
1289.29301	24439.75
1292.82151	25192.05
1296.34761	26034.85
1299.87133	27139.35
1303.39266	28913.35
1306.9116	31416.05
1310.42815	34434.25
1313.94233	36325.15
1317.45412	36114.25
1320.96354	34360.65
1324.47058	32196.15
1327.97525	30236.95
1331.47754	28951.45
1334.97747	28490.75
1338.47502	28687.85
1341.97022	29137.65
1345.46305	29640.95
1348.95352	30549.05
1352.44163	32014.65
1355.92738	34460.15
1359.41078	38314.65
1362.89183	42217.85
1366.37053	41606.35
1369.84688	36317.85
1373.32088	30760.95
1376.79254	27215.55
1380.26186	25574.85
1383.72883	24819.55
1387.19347	24264.65
1390.65578	23586.45
1394.11575	23128.25
1397.57339	23004.15
1401.0287	23201.25
1404.48168	23485.75
1407.93234	23725.15
1411.38068	23837.75
1414.82669	23611.75
1418.27039	23128.15
1421.71177	22496.15
1425.15083	21930.95
1428.58758	21569.85
1432.02203	21618.15
1435.45416	21889.85
1438.88399	22123.55
1442.31151	22212.55
1445.73673	22340.35
1449.15965	22537.25
1452.58027	22611.05
1455.9986	22483.05
1459.41463	22459.55
1462.82837	22694.05
1466.23982	23119.05
1469.64898	23558.85
1473.05586	23900.75
1476.46045	24117.15
1479.86276	24348.95
1483.26279	24590.55
1486.66054	24929.65
1490.05602	25389.45
1493.44922	25971.05
1496.84016	26814.05
1500.22882	28192.45
1503.61521	30266.05
1506.99934	32949.15
1510.38121	35652.65
1513.76081	37161.45
1517.13816	36055.15
1520.51324	32731.45
1523.88607	29237.05
1527.25665	26779.95
1530.62498	25352.15
1533.99105	24659.75
1537.35488	24264.45
1540.71647	23993.65
1544.07581	23878.45
1547.4329	23748.45
1550.78776	23610.95
1554.14038	23454.05
1557.49077	23519.65
1560.83892	23723.85
1564.18484	24126.65
1567.52853	24660.75
1570.86999	25168.45
1574.20922	25768.05
1577.54624	26117.85
1580.88103	25659.95
1584.2136	24684.75
1587.54395	23968.25
1590.87208	23994.15
1594.19801	24851.25
1597.52172	26285.65
1600.84321	27052.85
1604.16251	26370.45
1607.47959	24781.85
1610.79447	22915.75
1614.10715	21166.95
1617.41763	19811.85
1620.7259	18958.15
1624.03199	18558.65
1627.33587	18555.05
1630.63757	18880.05
1633.93707	19656.05
1637.23439	20858.75
1640.52951	22634.15
1643.82246	25055.05
1647.11321	27703.55
1650.40179	29501.75
1653.68819	28724.35
1656.97241	25507.65
1660.25446	21947.85
1663.53433	19306.95
1666.81203	17731.65
1670.08756	16787.35
1673.36092	16234.25
1676.63211	15828.25
1679.90115	15580.55
1683.16801	15394.75
1686.43272	15212.05
1689.69527	15124.45
1692.95567	15053.05
1696.2139	15035.25
1699.46999	14996.55
1702.72392	14969.95
1705.97571	14926.35
1709.22535	14912.65
1712.47284	14898.95
1715.71819	14895.95
1718.96139	14896.15
1722.20246	14858.55
1725.44139	14800.05
1728.67818	14710.75
1731.91284	14602.55
1735.14537	14545.35
1738.37576	14495.45
1741.60403	14453.75
1744.83017	14422.55
1748.05418	14412.85
1751.27607	14377.75
1754.49584	14349.85
1757.71349	14350.25
1760.92903	14335.55
1764.14244	14314.75
1767.35375	14292.05
1770.56294	14280.25
1773.77002	14256.15
1776.97499	14176.55
1780.17785	14172.25
1783.37861	14160.35
1786.57727	14129.15
1789.77382	14070.25
1792.96828	14100.95
1796.16064	14079.95
1799.3509	14085.25
1802.53907	14037.15
1805.72514	13979.65
1808.90913	13921.65
1812.09102	13901.85
1815.27083	13861.85
1818.44856	13887.15
1821.6242	13829.55
1824.79776	13803.35
1827.96924	13829.85
1831.13864	13751.25
1834.30597	13789.75
1837.47122	13760.75
1840.6344	13737.15
1843.7955	13746.55
1846.95454	13728.15
1850.11151	13685.95
1853.26642	13722.85
1856.41926	13720.35
1859.57004	13753.15
1862.71876	13710.35
1865.86542	13696.95
1869.01003	13699.45
1872.15258	13707.65
1875.29308	13713.05
1878.43152	13663.05
1881.56792	13687.65
1884.70227	13641.25
1887.83457	13668.75
1890.96482	13648.55
1894.09304	13629.35
1897.21921	13633.65
1900.34335	13623.95
1903.46544	13591.55
1906.58551	13613.65
1909.70353	13598.45
1912.81953	13595.35
1915.93349	13564.35
1919.04543	13554.55
1922.15534	13535.75
1925.26322	13504.15
1928.36908	13509.25
1931.47292	13468.65
1934.57473	13448.65
1937.67453	13392.85
1940.77232	13322.45
1943.86808	13322.15
1946.96184	13279.25
1950.05358	13242.55
1953.14331	13183.35
1956.23103	13167.75
1959.31675	13111.45
1962.40046	13098.35
1965.48217	13072.65
1968.56188	13014.65
1971.63959	12989.45
1974.7153	12951.35
1977.78901	12912.75
1980.86073	12843.15
1983.93046	12823.35
1986.99819	12775.05
1990.06394	12749.45
1993.1277	12685.45
1996.18947	12643.75
1999.24925	12626.35
2002.30706	12566.45
2005.36288	12564.95
2008.41672	12518.25
2011.46859	12479.65
2014.51848	12474.55
2017.56639	12430.25
2020.61233	12400.75
2023.6563	12378.05
2026.6983	12323.45
2029.73833	12336.75
2032.7764	12305.65
2035.8125	12270.75
2038.84664	12260.05
2041.87881	12245.05
2044.90903	12210.15
2047.93729	12181.05
2050.96359	12205.85
2053.98794	12155.95
2057.01034	12152.05
2060.03078	12111.35
2063.04927	12099.15
2066.06582	12088.95
2069.08042	12128.45
2072.09307	12089.75
2075.10378	12057.05
2078.11255	12080.05
2081.11938	12088.25
2084.12426	12084.05
2087.12722	12063.45
2090.12824	12039.05
2093.12732	12089.95
2096.12447	12054.45
2099.11969	12062.75
2102.11299	12059.05
2105.10435	12048.55
2108.09379	12068.55
2111.08131	12099.95
2114.0669	12093.85
2117.05057	12075.85
2120.03233	12073.05
2123.01216	12103.35
2125.99008	12104.55
2128.96609	12124.05
2131.94018	12130.65
2134.91236	12123.75
2137.88263	12141.95
2140.851	12142.05
2143.81746	12171.85
2146.78201	12137.55
2149.74466	12127.45
2152.7054	12145.55
2155.66425	12172.05
2158.6212	12166.85
2161.57625	12162.15
2164.52941	12139.55
2167.48067	12154.15
2170.43004	12110.75
2173.37752	12126.05
2176.32311	12101.75
2179.26681	12118.65
2182.20863	12115.95
2185.14856	12095.95
2188.08661	12098.85
2191.02278	12103.15
2193.95707	12071.35
2196.88948	12098.15
2199.82001	12061.55
2202.74867	12061.45
2205.67545	12071.55
2208.60037	12100.45
2211.52341	12065.25
2214.44458	12015.25
2217.36388	11978.55
2220.28132	11961.05
2223.1969	11946.75
2226.11061	11916.35
2229.02246	11878.75
2231.93245	11892.45
2234.84058	11848.75
2237.74686	11854.45
2240.65128	11825.35
2243.55385	11820.65
2246.45456	11774.85
2249.35343	11799.95
2252.25044	11768.65
2255.14561	11764.45
2258.03893	11725.05
2260.93041	11731.85
2263.82004	11715.15
2266.70783	11698.95
2269.59378	11670.65
2272.4779	11660.15
2275.36017	11618.75
2278.24061	11584.55
2281.11922	11540.05
2283.996	11530.75
2286.87094	11525.85
2289.74405	11492.25
2292.61534	11470.55
2295.4848	11465.05
2298.35243	11480.55
2301.21824	11460.25
2304.08223	11465.95
2306.94439	11444.05
2309.80474	11461.25
2312.66327	11439.75
2315.51999	11444.65
2318.37489	11423.45
2321.22797	11422.05
2324.07925	11387.25
2326.92871	11384.95
2329.77637	11378.15
2332.62222	11351.85
2335.46626	11332.95
2338.3085	11328.75
2341.14893	11345.65
2343.98756	11344.35
2346.8244	11331.55
2349.65943	11317.85
2352.49267	11339.45
2355.32411	11346.95
2358.15376	11325.35
2360.98161	11306.05
2363.80768	11324.75
2366.63195	11326.55
2369.45444	11312.55
2372.27514	11300.05
2375.09405	11306.05
2377.91118	11274.85
2380.72652	11229.85
2383.54009	11208.35
2386.35187	11174.35
2389.16188	11116.95
2391.97011	11110.55
2394.77657	11073.95
2397.58125	11062.45
2400.38416	11037.25
2403.18529	11038.85
2405.98466	11011.55
2408.78226	10982.15
2411.57809	10999.25
2414.37216	10952.45
2417.16446	10931.95
2419.955	10927.65
2422.74378	10913.45
2425.5308	10897.55
2428.31606	10895.15
2431.09956	10879.85
2433.88131	10872.55
2436.6613	10891.85
2439.43954	10886.85
2442.21603	10882.45
2444.99077	10871.55
2447.76377	10858.65
2450.53501	10861.45
2453.30451	10848.35
2456.07226	10840.45
2458.83827	10837.15
2461.60254	10834.35
2464.36507	10796.05
2467.12586	10819.85
2469.88492	10798.25
2472.64224	10785.55
2475.39782	10774.05
2478.15167	10774.35
2480.90379	10820.75
2483.65417	10807.25
2486.40283	10837.05
2489.14976	10849.55
2491.89497	10855.35
2494.63845	10826.95
2497.3802	10820.35
2500.12024	10819.85
2502.85855	10785.65
2505.59514	10775.55
2508.33002	10754.35
2511.06318	10739.65
2513.79462	10713.35
2516.52435	10721.55
2519.25237	10679.45
2521.97867	10646.55
2524.70327	10667.45
2527.42616	10629.95
2530.14734	10621.75
2532.86681	10589.45
2535.58458	10595.55
2538.30065	10592.35
2541.01501	10565.55
2543.72768	10560.65
2546.43864	10563.45
2549.14791	10548.45
2551.85548	10530.95
2554.56136	10505.55
2557.26554	10476.85
2559.96803	10479.15
2562.66883	10467.55
2565.36794	10471.85
2568.06536	10459.85
2570.7611	10439.15
2573.45514	10425.05
2576.14751	10432.45
2578.83819	10409.45
2581.52719	10384.35
2584.21451	10363.85
2586.90015	10381.55
2589.58411	10364.95
2592.2664	10333.85
2594.94701	10306.55
2597.62594	10323.75
2600.30321	10326.85
2602.9788	10269.35
2605.65273	10277.25
2608.32498	10264.45
2610.99557	10247.25
2613.66449	10277.15
2616.33175	10224.75
2618.99734	10216.75
2621.66128	10210.25
2624.32355	10214.15
2626.98416	10201.55
2629.64311	10196.45
2632.30041	10185.85
2634.95605	10194.95
2637.61004	10160.15
2640.26238	10155.45
2642.91306	10133.75
2645.56209	10133.75
2648.20948	10136.75
2650.85521	10130.55
2653.4993	10111.15
2656.14175	10110.95
2658.78255	10108.85
2661.42171	10114.45
2664.05923	10122.45
2666.6951	10127.25
2669.32934	10153.85
2671.96194	10109.65
2674.59291	10136.85
2677.22224	10138.05
2679.84993	10153.45
2682.476	10103.85
2685.10043	10141.05
2687.72324	10119.25
2690.34441	10112.75
2692.96396	10115.85
2695.58188	10124.35
2698.19818	10121.15
2700.81285	10113.35
2703.4259	10137.15
2706.03733	10206.55
2708.64714	10154.25
2711.25533	10164.95
2713.86191	10146.55
2716.46687	10158.65
2719.07021	10143.05
2721.67194	10152.65
2724.27206	10127.55
2726.87057	10149.35
2729.46747	10116.35
2732.06276	10131.85
2734.65644	10132.75
2737.24852	10118.05
2739.83899	10091.75
2742.42786	10099.15
2745.01513	10087.15
2747.60079	10100.55
2750.18486	10077.05
2752.76733	10068.55
2755.3482	10064.15
2757.92747	10050.15
2760.50515	10036.75
2763.08123	10032.85
2765.65573	10024.95
2768.22863	10018.55
2770.79994	9986.25
2773.36967	9991.45
2775.9378	9997.45
2778.50435	9967.65
2781.06932	9950.55
2783.6327	9935.95
2786.1945	9948.85
2788.75471	9948.85
2791.31335	9910.95
2793.87041	9903.15
2796.42589	9888.95
2798.97979	9885.85
2801.53212	9865.15
2804.08288	9873.65
2806.63206	9840.15
2809.17967	9834.05
2811.72571	9817.85
2814.27018	9808.25
2816.81308	9819.45
2819.35442	9793.65
2821.89419	9776.85
2824.43239	9775.95
2826.96904	9778.05
2829.50412	9794.25
2832.03763	9771.85
2834.56959	9766.35
2837.1	9757.95
2839.62884	9777.05
2842.15613	9782.65
2844.68186	9798.35
2847.20604	9821.55
2849.72867	9853.35
2852.24974	9860.95
2854.76927	9865.55
2857.28724	9848.85
2859.80367	9834.25
2862.31855	9809.55
2864.83189	9785.15
2867.34368	9788.45
2869.85393	9765.95
2872.36264	9747.15
2874.8698	9786.15
2877.37543	9766.85
2879.87952	9792.45
2882.38207	9803.65
2884.88308	9784.25
2887.38256	9790.55
2889.88051	9760.25
2892.37692	9760.15
2894.8718	9775.25
2897.36515	9761.65
2899.85698	9759.35
2902.34727	9772.65
2904.83604	9777.75
2907.32328	9805.45
2909.809	9796.95
2912.29319	9780.95
2914.77587	9800.75
2917.25702	9787.95
2919.73665	9774.05
2922.21476	9787.55
2924.69136	9760.15
2927.16644	9751.85
2929.64	9738.35
2932.11205	9711.35
2934.58258	9719.55
2937.05161	9704.55
2939.51912	9704.75
2941.98513	9691.45
2944.44962	9664.65
2946.91261	9602.65
2949.37409	9591.55
2951.83407	9587.45
2954.29254	9574.55
2956.74951	9541.55
2959.20498	9524.05
2961.65895	9497.25
2964.11142	9508.65
2966.56239	9482.95
2969.01186	9470.65
2971.45984	9432.25
2973.90632	9445.15
2976.35131	9411.65
2978.7948	9373.95
2981.23681	9350.95
2983.67732	9361.25
2986.11635	9333.25
2988.55388	9295.95
2990.98993	9277.25
2993.4245	9266.45
2995.85758	9256.15
2998.28917	9225.45
3000.71928	9229.75
3003.14791	9221.95
3005.57506	9225.25
3008.00073	9197.25
3010.42493	9193.15
3012.84764	9167.05
3015.26888	9150.35
3017.68865	9143.25
3020.10694	9119.25
3022.52376	9114.75
3024.9391	9097.45
3027.35298	9105.85
3029.76539	9066.25
3032.17632	9063.15
3034.5858	9037.65
3036.9938	9026.95
3039.40034	9036.55
3041.80542	9015.25
3044.20903	8996.25
3046.61118	9011.85
3049.01187	8952.65
3051.4111	8949.05
3053.80888	8938.55
3056.20519	8942.95
3058.60005	8894.55
3060.99345	8903.25
3063.3854	8881.35
3065.7759	8850.85
3068.16494	8850.55
3070.55254	8816.35
3072.93868	8801.75
3075.32338	8810.35
3077.70662	8775.25
3080.08842	8755.85
3082.46878	8729.25
3084.84769	8733.35
3087.22515	8731.35
3089.60118	8727.85
3091.97576	8726.05
3094.3489	8719.05
3096.72061	8735.75
3099.09087	8732.95
3101.4597	8705.05
3103.82709	8703.05
3106.19305	8681.55
3108.55757	8693.65
3110.92066	8640.95
3113.28232	8653.05
3115.64255	8611.45
3118.00134	8600.65
3120.35871	8608.25
3122.71466	8604.55
3125.06917	8579.95
3127.42226	8567.05
3129.77393	8582.05
3132.12417	8592.05
3134.47299	8589.35
3136.82039	8601.05
3139.16636	8582.05
3141.51092	8605.55
3143.85406	8593.95
3146.19579	8602.15
3148.53609	8591.25
3150.87499	8601.15
3153.21246	8608.65
3155.54853	8605.85
3157.88318	8609.05
3160.21642	8617.45
3162.54826	8598.05
3164.87868	8595.15
3167.2077	8593.35
3169.5353	8586.75
3171.86151	8597.15
3174.18631	8592.85
3176.5097	8592.45
3178.83169	8567.65
3181.15228	8578.45
3183.47147	8553.35
3185.78926	8565.85
3188.10565	8553.85
3190.42065	8560.95
3192.73424	8549.75
3195.04645	8555.45
3197.35725	8579.95
3199.66667	8560.95
3201.97469	8555.65
3204.28132	8558.65
3206.58656	8577.75
3208.8904	8562.25
3211.19287	8571.15
3213.49394	8562.15
3215.79363	8567.95
3218.09193	8578.45
3220.38884	8587.65
3222.68438	8593.25
3224.97853	8580.65
3227.2713	8555.95
3229.56269	8563.25
3231.8527	8557.15
3234.14133	8544.25
3236.42858	8520.85
3238.71446	8514.55
3240.99896	8489.25
3243.28209	8511.55
3245.56384	8497.15
3247.84423	8487.45
3250.12324	8497.35
3252.40088	8491.35
3254.67715	8484.75
3256.95205	8471.55
3259.22558	8467.85
3261.49775	8461.05
3263.76855	8446.75
