Data from AgNP_FTO_APTES_CRN_0uM_R6G_10uM_NaF_0.1M_Addition_RamanShift__24__11-57-42-924.txt Node

Date: Wed Dec 15 11:57:42 GMT 2021
User: TCL
Spectrometer: QEP01345
Trigger mode: 4
Integration Time (sec): 7.000000E0
Scans to average: 10
Electric dark correction enabled: true
Nonlinearity correction enabled: false
Boxcar width: 0
XAxis mode: Raman Shifts
Number of Pixels in Spectrum: 1044
>>>>>Begin Spectral Data<<<<<
46.04893	0.4125
50.45542	-0.3875
54.85868	0.4125
59.25871	0.2125
63.6555	52.2125
68.04907	60.5125
72.43941	64.6125
76.82654	71.1125
81.21044	71.2125
85.59113	75.5125
89.96862	81.3125
94.34289	78.0125
98.71396	85.1125
103.08183	90.1125
107.4465	90.7125
111.80798	91.3125
116.16626	93.8125
120.52136	93.9125
124.87327	90.8125
129.222	94.9125
133.56755	99.1125
137.90993	105.2125
142.24913	104.3125
146.58517	112.7125
150.91804	124.7125
155.24774	136.8125
159.57429	163.5125
163.89768	204.2125
168.21792	256.1125
172.53501	333.6125
176.84895	440.1125
181.15975	605.4125
185.46741	828.3125
189.77193	1140.8125
194.07331	1516.2125
198.37157	1937.9125
202.6667	2402.8125
206.9587	2848.6125
211.24758	3302.0125
215.53334	3747.5125
219.81599	4229.3125
224.09553	4755.2125
228.37195	5371.7125
232.64527	5994.5125
236.91549	6639.2125
241.18261	7236.5125
245.44663	7732.3125
249.70755	8118.8125
253.96539	8468.9125
258.22014	8719.9125
262.4718	8979.5125
266.72039	9159.5125
270.96589	9233.0125
275.20832	9171.5125
279.44768	9007.4125
283.68397	8829.8125
287.91719	8659.9125
292.14735	8579.4125
296.37445	8670.4125
300.59849	8904.9125
304.81948	9181.8125
309.03742	9438.9125
313.25231	9501.5125
317.46415	9256.5125
321.67296	8823.1125
325.87872	8453.5125
330.08145	8271.7125
334.28114	8258.4125
338.47781	8332.3125
342.67145	8472.7125
346.86207	8680.4125
351.04966	9008.5125
355.23424	9410.3125
359.4158	9721.6125
363.59435	9889.9125
367.76989	9940.3125
371.94243	9918.5125
376.11196	9864.7125
380.27849	9852.5125
384.44203	9784.5125
388.60257	9688.5125
392.76012	9620.2125
396.91468	9665.4125
401.06626	9808.8125
405.21485	9935.5125
409.36047	9857.3125
413.50311	9642.2125
417.64277	9615.4125
421.77947	9606.0125
425.9132	9017.7125
430.04396	8791.8125
434.17176	8861.2125
438.2966	9055.5125
442.41849	9360.9125
446.53742	9797.2125
450.6534	10190.9125
454.76644	10292.0125
458.87653	10163.7125
462.98368	9864.6125
467.08789	9541.1125
471.18916	9253.8125
475.2875	8980.3125
479.38291	8768.5125
483.4754	8635.7125
487.56496	8519.1125
491.6516	8460.5125
495.73531	8460.6125
499.81612	8511.0125
503.89401	8608.2125
507.96899	8739.3125
512.04106	8909.8125
516.11023	9072.4125
520.1765	9233.0125
524.23987	9305.0125
528.30034	9277.9125
532.35792	9151.9125
536.41261	8982.9125
540.46441	8717.2125
544.51333	8565.4125
548.55936	8568.5125
552.60252	8705.1125
556.64279	8962.9125
560.6802	9122.6125
564.71473	9162.0125
568.7464	9269.7125
572.7752	9372.2125
576.80114	9166.0125
580.82422	8944.5125
584.84444	8996.5125
588.86181	9402.5125
592.87633	10184.1125
596.888	10636.4125
600.89682	10483.8125
604.9028	10671.5125
608.90594	12472.2125
612.90624	15176.8125
616.90371	14756.0125
620.89834	10880.6125
624.89015	8859.0125
628.87913	8393.5125
632.86528	8402.3125
636.84862	8471.6125
640.82913	8404.1125
644.80683	8116.5125
648.78172	7896.2125
652.75379	7907.1125
656.72306	8172.2125
660.68952	8486.1125
664.65319	8393.1125
668.61405	8012.0125
672.57211	7826.9125
676.52738	7834.6125
680.47986	7830.4125
684.42955	7770.3125
688.37646	7682.2125
692.32058	7674.5125
696.26192	7756.2125
700.20048	7867.4125
704.13626	7947.2125
708.06928	7945.0125
711.99952	7929.2125
715.927	7958.9125
719.85171	7967.9125
723.77365	7968.8125
727.69284	7907.1125
731.60928	7840.4125
735.52295	7842.9125
739.43388	7887.3125
743.34206	7939.9125
747.24749	7923.4125
751.15017	7946.4125
755.05012	8020.4125
758.94733	8289.9125
762.8418	8991.1125
766.73354	10309.1125
770.62254	11808.0125
774.50882	12596.6125
778.39237	12072.7125
782.27321	10590.3125
786.15132	9198.3125
790.02671	8350.4125
793.89938	7951.9125
797.76935	7751.1125
801.6366	7656.6125
805.50115	7571.9125
809.36299	7523.1125
813.22213	7478.9125
817.07857	7444.8125
820.93231	7418.4125
824.78336	7427.9125
828.63172	7447.3125
832.47738	7465.9125
836.32036	7472.4125
840.16066	7459.4125
843.99827	7444.5125
847.8332	7433.6125
851.66546	7408.6125
855.49504	7408.4125
859.32195	7377.7125
863.1462	7324.0125
866.96777	7287.3125
870.78668	7269.4125
874.60293	7278.5125
878.41652	7279.0125
882.22745	7316.2125
886.03573	7359.5125
889.84136	7374.9125
893.64433	7357.8125
897.44466	7344.9125
901.24235	7367.6125
905.0374	7367.6125
908.8298	7409.0125
912.61957	7437.2125
916.40671	7503.9125
920.19121	7594.0125
923.97308	7704.0125
927.75233	7832.2125
931.52895	7896.9125
935.30295	7753.0125
939.07433	7543.3125
942.84309	7331.3125
946.60924	7182.5125
950.37278	7088.2125
954.13371	7007.8125
957.89203	6955.9125
961.64774	6910.1125
965.40086	6859.9125
969.15137	6816.6125
972.89929	6779.8125
976.64461	6777.2125
980.38733	6760.7125
984.12747	6760.6125
987.86502	6799.1125
991.59999	6843.3125
995.33237	6944.6125
999.06217	7105.7125
1002.78939	7278.9125
1006.51404	7442.0125
1010.23611	7548.7125
1013.95561	7608.6125
1017.67255	7575.0125
1021.38692	7405.7125
1025.09872	7218.5125
1028.80796	7057.9125
1032.51465	7034.6125
1036.21877	7092.7125
1039.92035	7151.6125
1043.61937	7200.1125
1047.31584	7214.0125
1051.00976	7271.1125
1054.70114	7318.4125
1058.38998	7307.3125
1062.07627	7336.9125
1065.76003	7406.9125
1069.44126	7471.1125
1073.11995	7615.6125
1076.79611	7771.2125
1080.46974	7895.2125
1084.14085	7967.1125
1087.80943	7985.1125
1091.47549	7925.6125
1095.13903	7708.5125
1098.80005	7368.0125
1102.45857	7086.4125
1106.11456	6984.9125
1109.76805	7043.5125
1113.41903	7179.1125
1117.06751	7363.2125
1120.71348	7614.8125
1124.35696	7846.5125
1127.99793	8081.1125
1131.63641	8149.2125
1135.2724	7843.2125
1138.90589	7458.8125
1142.5369	7223.5125
1146.16542	7068.5125
1149.79145	7008.0125
1153.415	6934.9125
1157.03607	6961.1125
1160.65467	7079.2125
1164.27079	7333.9125
1167.88443	7832.1125
1171.49561	8619.8125
1175.10432	9877.6125
1178.71056	11543.6125
1182.31434	12874.2125
1185.91565	13168.6125
1189.51451	12526.2125
1193.11091	11505.0125
1196.70485	10476.4125
1200.29634	9685.4125
1203.88538	9032.3125
1207.47197	8363.4125
1211.05612	7835.6125
1214.63782	7627.9125
1218.21708	7677.3125
1221.79391	7845.6125
1225.36829	8014.3125
1228.94024	7984.1125
1232.50976	7748.0125
1236.07685	7519.1125
1239.6415	7362.4125
1243.20374	7267.1125
1246.76355	7235.7125
1250.32093	7288.4125
1253.8759	7406.8125
1257.42845	7610.7125
1260.97859	7870.0125
1264.52631	8161.7125
1268.07163	8444.8125
1271.61453	8743.4125
1275.15503	8925.3125
1278.69312	9066.3125
1282.22882	9211.8125
1285.76211	9514.7125
1289.29301	9963.8125
1292.82151	10500.4125
1296.34761	11000.0125
1299.87133	11703.2125
1303.39266	12648.1125
1306.9116	14038.2125
1310.42815	15862.6125
1313.94233	17168.6125
1317.45412	17032.0125
1320.96354	15726.7125
1324.47058	13993.1125
1327.97525	12468.3125
1331.47754	11428.0125
1334.97747	10973.3125
1338.47502	10877.6125
1341.97022	10979.6125
1345.46305	11197.2125
1348.95352	11925.6125
1352.44163	13256.4125
1355.92738	15143.2125
1359.41078	17674.2125
1362.89183	20222.8125
1366.37053	20585.8125
1369.84688	17719.0125
1373.32088	14140.2125
1376.79254	11710.9125
1380.26186	10577.1125
1383.72883	10064.6125
1387.19347	9738.9125
1390.65578	9315.4125
1394.11575	9048.9125
1397.57339	8975.1125
1401.0287	9041.8125
1404.48168	9129.0125
1407.93234	9086.3125
1411.38068	9026.7125
1414.82669	8908.6125
1418.27039	8710.1125
1421.71177	8473.8125
1425.15083	8289.9125
1428.58758	8183.1125
1432.02203	8259.0125
1435.45416	8467.5125
1438.88399	8655.2125
1442.31151	8717.1125
1445.73673	8746.7125
1449.15965	8762.5125
1452.58027	8666.5125
1455.9986	8431.6125
1459.41463	8245.8125
1462.82837	8260.8125
1466.23982	8477.2125
1469.64898	8767.3125
1473.05586	8976.5125
1476.46045	9091.9125
1479.86276	9232.1125
1483.26279	9354.1125
1486.66054	9419.9125
1490.05602	9579.8125
1493.44922	9801.4125
1496.84016	10188.0125
1500.22882	10922.5125
1503.61521	12098.3125
1506.99934	13649.7125
1510.38121	15246.3125
1513.76081	16153.3125
1517.13816	15521.8125
1520.51324	13650.2125
1523.88607	11707.8125
1527.25665	10410.8125
1530.62498	9727.4125
1533.99105	9398.8125
1537.35488	9104.6125
1540.71647	8871.3125
1544.07581	8652.1125
1547.4329	8499.3125
1550.78776	8356.7125
1554.14038	8262.0125
1557.49077	8230.7125
1560.83892	8358.2125
1564.18484	8560.0125
1567.52853	8914.2125
1570.86999	9352.9125
1574.20922	9782.1125
1577.54624	10081.1125
1580.88103	9846.7125
1584.2136	9210.2125
1587.54395	8648.6125
1590.87208	8575.1125
1594.19801	9037.9125
1597.52172	9891.0125
1600.84321	10530.6125
1604.16251	10333.0125
1607.47959	9477.0125
1610.79447	8400.6125
1614.10715	7444.4125
1617.41763	6763.3125
1620.7259	6375.9125
1624.03199	6203.8125
1627.33587	6195.1125
1630.63757	6369.8125
1633.93707	6746.8125
1637.23439	7447.4125
1640.52951	8565.5125
1643.82246	10212.7125
1647.11321	11969.3125
1650.40179	12985.6125
1653.68819	12321.2125
1656.97241	10392.8125
1660.25446	8284.8125
1663.53433	6848.1125
1666.81203	6008.1125
1670.08756	5536.4125
1673.36092	5263.8125
1676.63211	5083.5125
1679.90115	4962.9125
1683.16801	4871.0125
1686.43272	4788.0125
1689.69527	4757.3125
1692.95567	4717.3125
1696.2139	4692.2125
1699.46999	4662.5125
1702.72392	4652.2125
1705.97571	4632.4125
1709.22535	4613.0125
1712.47284	4628.3125
1715.71819	4624.4125
1718.96139	4594.0125
1722.20246	4584.5125
1725.44139	4559.6125
1728.67818	4501.5125
1731.91284	4468.7125
1735.14537	4414.5125
1738.37576	4400.1125
1741.60403	4383.6125
1744.83017	4356.8125
1748.05418	4330.5125
1751.27607	4307.6125
1754.49584	4302.8125
1757.71349	4267.7125
1760.92903	4252.5125
1764.14244	4246.9125
1767.35375	4238.0125
1770.56294	4208.7125
1773.77002	4202.0125
1776.97499	4222.2125
1780.17785	4189.6125
1783.37861	4174.7125
1786.57727	4170.8125
1789.77382	4143.6125
1792.96828	4146.3125
1796.16064	4128.8125
1799.3509	4116.5125
1802.53907	4114.2125
1805.72514	4086.6125
1808.90913	4070.6125
1812.09102	4054.3125
1815.27083	4050.7125
1818.44856	4031.7125
1821.6242	4019.1125
1824.79776	4003.3125
1827.96924	3998.1125
1831.13864	3986.0125
1834.30597	3988.7125
1837.47122	3966.5125
1840.6344	3969.5125
1843.7955	3962.7125
1846.95454	3947.8125
1850.11151	3938.5125
1853.26642	3935.1125
1856.41926	3924.1125
1859.57004	3930.5125
1862.71876	3926.4125
1865.86542	3916.8125
1869.01003	3913.5125
1872.15258	3902.4125
1875.29308	3919.2125
1878.43152	3909.3125
1881.56792	3900.0125
1884.70227	3896.2125
1887.83457	3889.7125
1890.96482	3890.9125
1894.09304	3890.8125
1897.21921	3900.7125
1900.34335	3880.1125
1903.46544	3888.8125
1906.58551	3880.5125
1909.70353	3885.1125
1912.81953	3896.5125
1915.93349	3866.1125
1919.04543	3856.8125
1922.15534	3843.6125
1925.26322	3840.9125
1928.36908	3811.5125
1931.47292	3795.2125
1934.57473	3773.1125
1937.67453	3747.1125
1940.77232	3732.8125
1943.86808	3693.1125
1946.96184	3706.0125
1950.05358	3680.1125
1953.14331	3662.6125
1956.23103	3653.4125
1959.31675	3654.1125
1962.40046	3636.5125
1965.48217	3625.5125
1968.56188	3606.0125
1971.63959	3601.6125
1974.7153	3585.9125
1977.78901	3579.9125
1980.86073	3566.6125
1983.93046	3545.5125
1986.99819	3526.3125
1990.06394	3520.8125
1993.1277	3507.1125
1996.18947	3482.2125
1999.24925	3468.3125
2002.30706	3457.5125
2005.36288	3441.5125
2008.41672	3442.2125
2011.46859	3420.1125
2014.51848	3401.8125
2017.56639	3402.6125
2020.61233	3383.1125
2023.6563	3367.4125
2026.6983	3352.9125
2029.73833	3353.1125
2032.7764	3343.5125
2035.8125	3334.2125
2038.84664	3315.6125
2041.87881	3321.2125
2044.90903	3307.8125
2047.93729	3313.5125
2050.96359	3299.3125
2053.98794	3291.1125
2057.01034	3288.6125
2060.03078	3278.5125
2063.04927	3275.1125
2066.06582	3266.1125
2069.08042	3256.1125
2072.09307	3250.3125
2075.10378	3236.3125
2078.11255	3240.4125
2081.11938	3246.0125
2084.12426	3247.6125
2087.12722	3233.7125
2090.12824	3218.5125
2093.12732	3230.9125
2096.12447	3232.6125
2099.11969	3224.3125
2102.11299	3231.5125
2105.10435	3225.9125
2108.09379	3223.0125
2111.08131	3223.4125
2114.0669	3221.0125
2117.05057	3222.9125
2120.03233	3232.9125
2123.01216	3225.2125
2125.99008	3217.5125
2128.96609	3206.3125
2131.94018	3216.8125
2134.91236	3209.0125
2137.88263	3227.8125
2140.851	3212.2125
2143.81746	3218.7125
2146.78201	3205.1125
2149.74466	3203.9125
2152.7054	3202.0125
2155.66425	3199.8125
2158.6212	3192.6125
2161.57625	3192.5125
2164.52941	3203.0125
2167.48067	3188.0125
2170.43004	3176.1125
2173.37752	3172.8125
2176.32311	3164.6125
2179.26681	3170.4125
2182.20863	3164.4125
2185.14856	3164.8125
2188.08661	3166.9125
2191.02278	3171.5125
2193.95707	3167.7125
2196.88948	3159.6125
2199.82001	3170.1125
2202.74867	3165.0125
2205.67545	3145.2125
2208.60037	3141.0125
2211.52341	3122.9125
2214.44458	3117.7125
2217.36388	3123.4125
2220.28132	3108.4125
2223.1969	3095.7125
2226.11061	3087.7125
2229.02246	3072.0125
2231.93245	3065.6125
2234.84058	3061.1125
2237.74686	3058.8125
2240.65128	3066.8125
2243.55385	3047.9125
2246.45456	3029.2125
2249.35343	3031.4125
2252.25044	3028.0125
2255.14561	3033.7125
2258.03893	3029.0125
2260.93041	3031.1125
2263.82004	3019.2125
2266.70783	3002.0125
2269.59378	2995.3125
2272.4779	2980.2125
2275.36017	2980.3125
2278.24061	2961.7125
2281.11922	2958.3125
2283.996	2955.8125
2286.87094	2946.5125
2289.74405	2919.6125
2292.61534	2923.7125
2295.4848	2915.3125
2298.35243	2904.8125
2301.21824	2904.9125
2304.08223	2903.3125
2306.94439	2897.9125
2309.80474	2891.0125
2312.66327	2892.1125
2315.51999	2888.1125
2318.37489	2880.1125
2321.22797	2883.6125
2324.07925	2878.2125
2326.92871	2872.8125
2329.77637	2863.8125
2332.62222	2876.7125
2335.46626	2852.4125
2338.3085	2858.4125
2341.14893	2863.2125
2343.98756	2855.2125
2346.8244	2843.1125
2349.65943	2844.6125
2352.49267	2847.2125
2355.32411	2843.5125
2358.15376	2852.3125
2360.98161	2852.6125
2363.80768	2852.1125
2366.63195	2860.9125
2369.45444	2860.3125
2372.27514	2866.8125
2375.09405	2849.1125
2377.91118	2837.9125
2380.72652	2834.9125
2383.54009	2815.7125
2386.35187	2806.8125
2389.16188	2781.3125
2391.97011	2778.6125
2394.77657	2766.2125
2397.58125	2763.0125
2400.38416	2745.1125
2403.18529	2729.0125
2405.98466	2730.5125
2408.78226	2721.7125
2411.57809	2732.3125
2414.37216	2712.7125
2417.16446	2703.1125
2419.955	2714.5125
2422.74378	2703.7125
2425.5308	2691.0125
2428.31606	2693.8125
2431.09956	2689.4125
2433.88131	2695.6125
2436.6613	2684.1125
2439.43954	2691.8125
2442.21603	2674.6125
2444.99077	2674.9125
2447.76377	2682.4125
2450.53501	2682.1125
2453.30451	2682.1125
2456.07226	2682.8125
2458.83827	2679.3125
2461.60254	2673.5125
2464.36507	2662.9125
2467.12586	2678.1125
2469.88492	2665.2125
2472.64224	2658.2125
2475.39782	2661.6125
2478.15167	2663.8125
2480.90379	2673.8125
2483.65417	2658.0125
2486.40283	2670.3125
2489.14976	2670.0125
2491.89497	2677.9125
2494.63845	2671.5125
2497.3802	2677.5125
2500.12024	2682.0125
2502.85855	2673.2125
2505.59514	2660.4125
2508.33002	2647.1125
2511.06318	2630.6125
2513.79462	2616.3125
2516.52435	2600.9125
2519.25237	2602.8125
2521.97867	2585.4125
2524.70327	2584.6125
2527.42616	2565.9125
2530.14734	2580.6125
2532.86681	2567.3125
2535.58458	2569.3125
2538.30065	2569.5125
2541.01501	2554.8125
2543.72768	2557.1125
2546.43864	2552.6125
2549.14791	2570.5125
2551.85548	2554.6125
2554.56136	2559.1125
2557.26554	2545.4125
2559.96803	2534.4125
2562.66883	2554.2125
2565.36794	2544.7125
2568.06536	2530.0125
2570.7611	2527.1125
2573.45514	2531.1125
2576.14751	2519.0125
2578.83819	2519.7125
2581.52719	2513.4125
2584.21451	2510.2125
2586.90015	2510.0125
2589.58411	2505.2125
2592.2664	2495.4125
2594.94701	2497.7125
2597.62594	2501.1125
2600.30321	2488.5125
2602.9788	2477.1125
2605.65273	2465.2125
2608.32498	2468.2125
2610.99557	2461.0125
2613.66449	2474.1125
2616.33175	2468.2125
2618.99734	2467.5125
2621.66128	2454.1125
2624.32355	2472.6125
2626.98416	2462.1125
2629.64311	2460.7125
2632.30041	2455.7125
2634.95605	2450.0125
2637.61004	2451.6125
2640.26238	2440.8125
2642.91306	2438.0125
2645.56209	2435.4125
2648.20948	2428.4125
2650.85521	2436.8125
2653.4993	2444.7125
2656.14175	2436.7125
2658.78255	2439.5125
2661.42171	2448.4125
2664.05923	2447.7125
2666.6951	2447.4125
2669.32934	2460.1125
2671.96194	2445.3125
2674.59291	2441.5125
2677.22224	2461.8125
2679.84993	2445.0125
2682.476	2440.6125
2685.10043	2445.4125
2687.72324	2428.2125
2690.34441	2433.8125
2692.96396	2435.6125
2695.58188	2443.5125
2698.19818	2431.7125
2700.81285	2450.8125
2703.4259	2436.5125
2706.03733	2441.9125
2708.64714	2438.2125
2711.25533	2458.9125
2713.86191	2466.6125
2716.46687	2464.1125
2719.07021	2478.7125
2721.67194	2474.7125
2724.27206	2481.7125
2726.87057	2493.9125
2729.46747	2493.1125
2732.06276	2507.8125
2734.65644	2507.6125
2737.24852	2508.7125
2739.83899	2509.2125
2742.42786	2520.9125
2745.01513	2509.6125
2747.60079	2524.7125
2750.18486	2532.5125
2752.76733	2539.8125
2755.3482	2545.8125
2757.92747	2557.2125
2760.50515	2557.0125
2763.08123	2558.5125
2765.65573	2556.4125
2768.22863	2557.6125
2770.79994	2560.1125
2773.36967	2560.6125
2775.9378	2556.9125
2778.50435	2559.1125
2781.06932	2561.7125
2783.6327	2571.3125
2786.1945	2570.6125
2788.75471	2587.1125
2791.31335	2584.8125
2793.87041	2588.1125
2796.42589	2587.6125
2798.97979	2596.3125
2801.53212	2600.5125
2804.08288	2609.3125
2806.63206	2593.0125
2809.17967	2590.6125
2811.72571	2610.6125
2814.27018	2610.4125
2816.81308	2612.0125
2819.35442	2621.3125
2821.89419	2610.0125
2824.43239	2625.8125
2826.96904	2628.3125
2829.50412	2637.9125
2832.03763	2640.4125
2834.56959	2646.7125
2837.1	2645.0125
2839.62884	2653.8125
2842.15613	2666.3125
2844.68186	2695.0125
2847.20604	2736.0125
2849.72867	2779.3125
2852.24974	2789.9125
2854.76927	2801.1125
2857.28724	2827.5125
2859.80367	2836.8125
2862.31855	2848.1125
2864.83189	2870.4125
2867.34368	2879.8125
2869.85393	2889.6125
2872.36264	2907.1125
2874.8698	2912.7125
2877.37543	2937.8125
2879.87952	2949.3125
2882.38207	2944.0125
2884.88308	2961.0125
2887.38256	2957.6125
2889.88051	2969.0125
2892.37692	2949.3125
2894.8718	2962.5125
2897.36515	2962.5125
2899.85698	2968.8125
2902.34727	2965.0125
2904.83604	2954.2125
2907.32328	2958.4125
2909.809	2955.4125
2912.29319	2958.0125
2914.77587	2945.8125
2917.25702	2951.7125
2919.73665	2941.1125
2922.21476	2954.8125
2924.69136	2933.3125
2927.16644	2922.1125
2929.64	2907.8125
2932.11205	2877.0125
2934.58258	2862.6125
2937.05161	2840.1125
2939.51912	2827.2125
2941.98513	2791.2125
2944.44962	2747.4125
2946.91261	2715.2125
2949.37409	2669.2125
2951.83407	2632.4125
2954.29254	2613.0125
2956.74951	2569.9125
2959.20498	2557.7125
2961.65895	2519.0125
2964.11142	2502.8125
2966.56239	2473.1125
2969.01186	2458.5125
2971.45984	2418.1125
2973.90632	2395.6125
2976.35131	2375.7125
2978.7948	2349.1125
2981.23681	2337.8125
2983.67732	2300.5125
2986.11635	2296.3125
2988.55388	2278.5125
2990.98993	2279.1125
2993.4245	2263.0125
2995.85758	2239.0125
2998.28917	2234.7125
3000.71928	2226.0125
3003.14791	2220.9125
3005.57506	2208.4125
3008.00073	2195.5125
3010.42493	2200.0125
3012.84764	2199.7125
3015.26888	2200.8125
3017.68865	2195.0125
3020.10694	2184.7125
3022.52376	2178.0125
3024.9391	2161.0125
3027.35298	2178.5125
3029.76539	2152.1125
3032.17632	2164.3125
3034.5858	2149.9125
3036.9938	2149.0125
3039.40034	2147.8125
3041.80542	2134.6125
3044.20903	2137.5125
3046.61118	2148.0125
3049.01187	2133.7125
3051.4111	2129.2125
3053.80888	2133.3125
3056.20519	2126.4125
3058.60005	2125.5125
3060.99345	2120.3125
3063.3854	2120.9125
3065.7759	2125.4125
3068.16494	2115.3125
3070.55254	2120.7125
3072.93868	2113.5125
3075.32338	2119.3125
3077.70662	2109.2125
3080.08842	2100.5125
3082.46878	2102.6125
3084.84769	2100.7125
3087.22515	2108.1125
3089.60118	2102.5125
3091.97576	2111.5125
3094.3489	2100.6125
3096.72061	2104.8125
3099.09087	2114.7125
3101.4597	2107.6125
3103.82709	2110.5125
3106.19305	2112.2125
3108.55757	2118.8125
3110.92066	2122.9125
3113.28232	2107.1125
3115.64255	2116.2125
3118.00134	2106.9125
