Data from AgNP_FTO_APTES_CRN_0uM_R6G_10uM_NaF_0.1M_Addition_RamanShift__27__12-01-12-928.txt Node

Date: Wed Dec 15 12:01:12 GMT 2021
User: TCL
Spectrometer: QEP01345
Trigger mode: 4
Integration Time (sec): 7.000000E0
Scans to average: 10
Electric dark correction enabled: true
Nonlinearity correction enabled: false
Boxcar width: 0
XAxis mode: Raman Shifts
Number of Pixels in Spectrum: 1044
>>>>>Begin Spectral Data<<<<<
46.04893	1.8375
50.45542	-0.8625
54.85868	-0.9625
59.25871	0.2375
63.6555	57.1375
68.04907	65.8375
72.43941	71.9375
76.82654	76.0375
81.21044	80.5375
85.59113	83.5375
89.96862	89.1375
94.34289	90.6375
98.71396	96.7375
103.08183	97.6375
107.4465	100.5375
111.80798	98.1375
116.16626	102.7375
120.52136	100.6375
124.87327	104.9375
129.222	104.3375
133.56755	103.4375
137.90993	110.6375
142.24913	112.9375
146.58517	121.1375
150.91804	134.6375
155.24774	147.6375
159.57429	173.4375
163.89768	210.1375
168.21792	262.0375
172.53501	340.5375
176.84895	459.4375
181.15975	616.6375
185.46741	851.5375
189.77193	1153.6375
194.07331	1548.4375
198.37157	1968.8375
202.6667	2447.6375
206.9587	2895.0375
211.24758	3346.5375
215.53334	3811.1375
219.81599	4297.5375
224.09553	4856.1375
228.37195	5446.5375
232.64527	6119.9375
236.91549	6763.5375
241.18261	7380.2375
245.44663	7870.1375
249.70755	8271.8375
253.96539	8606.5375
258.22014	8885.1375
262.4718	9161.6375
266.72039	9330.1375
270.96589	9375.7375
275.20832	9350.9375
279.44768	9171.0375
283.68397	8968.5375
287.91719	8798.5375
292.14735	8758.1375
296.37445	8811.4375
300.59849	9043.4375
304.81948	9353.8375
309.03742	9626.1375
313.25231	9668.6375
317.46415	9444.6375
321.67296	8980.8375
325.87872	8598.5375
330.08145	8402.3375
334.28114	8430.8375
338.47781	8512.9375
342.67145	8608.5375
346.86207	8854.0375
351.04966	9184.3375
355.23424	9579.7375
359.4158	9933.2375
363.59435	10079.1375
367.76989	10128.0375
371.94243	10111.5375
376.11196	10088.5375
380.27849	10038.6375
384.44203	9983.3375
388.60257	9861.0375
392.76012	9786.9375
396.91468	9825.0375
401.06626	10006.9375
405.21485	10122.4375
409.36047	10019.5375
413.50311	9758.7375
417.64277	9642.5375
421.77947	9554.3375
425.9132	9076.5375
430.04396	8919.2375
434.17176	9036.0375
438.2966	9209.9375
442.41849	9557.6375
446.53742	9989.1375
450.6534	10367.4375
454.76644	10524.3375
458.87653	10366.5375
462.98368	10055.5375
467.08789	9706.5375
471.18916	9433.3375
475.2875	9136.1375
479.38291	8925.8375
483.4754	8779.5375
487.56496	8662.8375
491.6516	8608.9375
495.73531	8594.6375
499.81612	8625.7375
503.89401	8749.9375
507.96899	8887.3375
512.04106	9054.8375
516.11023	9244.4375
520.1765	9437.7375
524.23987	9485.3375
528.30034	9470.1375
532.35792	9343.0375
536.41261	9138.2375
540.46441	8877.5375
544.51333	8722.0375
548.55936	8723.7375
552.60252	8872.1375
556.64279	9122.8375
560.6802	9299.0375
564.71473	9304.7375
568.7464	9444.2375
572.7752	9556.8375
576.80114	9309.4375
580.82422	9047.1375
584.84444	9109.1375
588.86181	9531.7375
592.87633	10261.8375
596.888	10765.4375
600.89682	10629.6375
604.9028	10831.2375
608.90594	12713.1375
612.90624	15492.8375
616.90371	15077.6375
620.89834	11090.5375
624.89015	8992.5375
628.87913	8558.4375
632.86528	8535.1375
636.84862	8600.9375
640.82913	8539.9375
644.80683	8254.9375
648.78172	8045.8375
652.75379	8052.2375
656.72306	8341.3375
660.68952	8646.8375
664.65319	8552.6375
668.61405	8170.7375
672.57211	7992.2375
676.52738	7980.6375
680.47986	7982.0375
684.42955	7893.1375
688.37646	7817.8375
692.32058	7849.3375
696.26192	7900.7375
700.20048	8042.0375
704.13626	8120.4375
708.06928	8132.0375
711.99952	8095.7375
715.927	8114.2375
719.85171	8148.3375
723.77365	8140.5375
727.69284	8088.7375
731.60928	8012.3375
735.52295	8003.8375
739.43388	8039.1375
743.34206	8084.1375
747.24749	8092.8375
751.15017	8096.3375
755.05012	8182.6375
758.94733	8456.0375
762.8418	9145.7375
766.73354	10492.6375
770.62254	12034.6375
774.50882	12865.9375
778.39237	12309.3375
782.27321	10800.0375
786.15132	9350.5375
790.02671	8508.3375
793.89938	8096.9375
797.76935	7899.0375
801.6366	7785.2375
805.50115	7719.6375
809.36299	7656.5375
813.22213	7618.9375
817.07857	7590.3375
820.93231	7576.7375
824.78336	7578.5375
828.63172	7596.8375
832.47738	7629.0375
836.32036	7619.7375
840.16066	7612.1375
843.99827	7594.8375
847.8332	7574.6375
851.66546	7558.0375
855.49504	7540.0375
859.32195	7525.3375
863.1462	7484.4375
866.96777	7429.8375
870.78668	7415.0375
874.60293	7416.6375
878.41652	7422.1375
882.22745	7456.2375
886.03573	7505.0375
889.84136	7501.9375
893.64433	7477.2375
897.44466	7487.5375
901.24235	7503.7375
905.0374	7506.3375
908.8298	7540.7375
912.61957	7560.0375
916.40671	7646.7375
920.19121	7747.2375
923.97308	7871.6375
927.75233	7951.9375
931.52895	8002.6375
935.30295	7886.0375
939.07433	7681.9375
942.84309	7448.5375
946.60924	7304.0375
950.37278	7208.4375
954.13371	7130.3375
957.89203	7067.1375
961.64774	7002.6375
965.40086	6982.9375
969.15137	6928.7375
972.89929	6919.1375
976.64461	6917.3375
980.38733	6884.8375
984.12747	6920.3375
987.86502	6926.1375
991.59999	6976.1375
995.33237	7082.4375
999.06217	7249.2375
1002.78939	7441.9375
1006.51404	7565.4375
1010.23611	7680.7375
1013.95561	7755.9375
1017.67255	7719.5375
1021.38692	7545.0375
1025.09872	7329.5375
1028.80796	7191.6375
1032.51465	7164.7375
1036.21877	7233.3375
1039.92035	7303.8375
1043.61937	7344.7375
1047.31584	7384.6375
1051.00976	7445.8375
1054.70114	7475.1375
1058.38998	7480.5375
1062.07627	7534.8375
1065.76003	7582.8375
1069.44126	7646.9375
1073.11995	7854.6375
1076.79611	8017.0375
1080.46974	8128.5375
1084.14085	8195.6375
1087.80943	8194.9375
1091.47549	8115.8375
1095.13903	7853.2375
1098.80005	7516.8375
1102.45857	7252.1375
1106.11456	7138.4375
1109.76805	7172.0375
1113.41903	7326.5375
1117.06751	7511.3375
1120.71348	7754.2375
1124.35696	7995.9375
1127.99793	8267.2375
1131.63641	8332.0375
1135.2724	7987.2375
1138.90589	7609.8375
1142.5369	7392.5375
1146.16542	7213.1375
1149.79145	7112.5375
1153.415	7093.2375
1157.03607	7091.4375
1160.65467	7196.9375
1164.27079	7465.5375
1167.88443	7982.5375
1171.49561	8799.4375
1175.10432	10111.3375
1178.71056	11785.3375
1182.31434	13126.5375
1185.91565	13418.0375
1189.51451	12745.3375
1193.11091	11706.9375
1196.70485	10669.6375
1200.29634	9861.5375
1203.88538	9176.6375
1207.47197	8475.1375
1211.05612	7971.6375
1214.63782	7755.9375
1218.21708	7822.7375
1221.79391	8032.1375
1225.36829	8168.9375
1228.94024	8136.0375
1232.50976	7886.4375
1236.07685	7641.3375
1239.6415	7472.2375
1243.20374	7418.6375
1246.76355	7368.8375
1250.32093	7458.6375
1253.8759	7555.4375
1257.42845	7766.5375
1260.97859	8023.5375
1264.52631	8311.6375
1268.07163	8619.5375
1271.61453	8875.2375
1275.15503	9082.9375
1278.69312	9212.1375
1282.22882	9326.1375
1285.76211	9635.9375
1289.29301	10136.2375
1292.82151	10641.0375
1296.34761	11155.1375
1299.87133	11822.1375
1303.39266	12773.3375
1306.9116	14208.3375
1310.42815	16032.9375
1313.94233	17349.7375
1317.45412	17254.2375
1320.96354	15882.5375
1324.47058	14132.2375
1327.97525	12607.6375
1331.47754	11580.1375
1334.97747	11158.6375
1338.47502	11096.2375
1341.97022	11152.4375
1345.46305	11446.3375
1348.95352	12191.0375
1352.44163	13545.3375
1355.92738	15489.1375
1359.41078	18066.3375
1362.89183	20735.3375
1366.37053	21045.3375
1369.84688	18153.9375
1373.32088	14427.7375
1376.79254	11986.3375
1380.26186	10802.6375
1383.72883	10304.4375
1387.19347	9938.8375
1390.65578	9517.5375
1394.11575	9253.1375
1397.57339	9156.1375
1401.0287	9204.1375
1404.48168	9252.2375
1407.93234	9246.5375
1411.38068	9194.5375
1414.82669	9065.8375
1418.27039	8882.1375
1421.71177	8651.2375
1425.15083	8453.4375
1428.58758	8332.6375
1432.02203	8419.1375
1435.45416	8626.0375
1438.88399	8822.8375
1442.31151	8885.7375
1445.73673	8916.8375
1449.15965	8917.5375
1452.58027	8829.3375
1455.9986	8588.1375
1459.41463	8395.9375
1462.82837	8419.9375
1466.23982	8632.1375
1469.64898	8934.2375
1473.05586	9108.0375
1476.46045	9254.5375
1479.86276	9369.5375
1483.26279	9456.8375
1486.66054	9545.5375
1490.05602	9708.1375
1493.44922	9944.8375
1496.84016	10294.9375
1500.22882	11023.0375
1503.61521	12258.9375
1506.99934	13844.1375
1510.38121	15515.5375
1513.76081	16446.1375
1517.13816	15818.4375
1520.51324	13890.5375
1523.88607	11911.0375
1527.25665	10607.4375
1530.62498	9923.7375
1533.99105	9535.1375
1537.35488	9277.2375
1540.71647	9048.6375
1544.07581	8827.8375
1547.4329	8679.6375
1550.78776	8531.1375
1554.14038	8406.7375
1557.49077	8406.5375
1560.83892	8519.3375
1564.18484	8745.0375
1567.52853	9081.1375
1570.86999	9562.5375
1574.20922	10056.5375
1577.54624	10395.0375
1580.88103	10142.5375
1584.2136	9470.9375
1587.54395	8883.8375
1590.87208	8767.9375
1594.19801	9195.4375
1597.52172	10071.2375
1600.84321	10721.0375
1604.16251	10527.6375
1607.47959	9661.1375
1610.79447	8561.3375
1614.10715	7582.9375
1617.41763	6894.1375
1620.7259	6515.0375
1624.03199	6323.4375
1627.33587	6313.3375
1630.63757	6487.2375
1633.93707	6855.7375
1637.23439	7537.7375
1640.52951	8676.6375
1643.82246	10336.8375
1647.11321	12108.0375
1650.40179	13129.7375
1653.68819	12515.9375
1656.97241	10558.5375
1660.25446	8442.3375
1663.53433	6968.3375
1666.81203	6132.3375
1670.08756	5663.0375
1673.36092	5380.6375
1676.63211	5194.7375
1679.90115	5082.7375
1683.16801	4971.5375
1686.43272	4914.4375
1689.69527	4867.6375
1692.95567	4829.3375
1696.2139	4811.1375
1699.46999	4767.7375
1702.72392	4743.4375
1705.97571	4732.7375
1709.22535	4732.8375
1712.47284	4713.1375
1715.71819	4708.4375
1718.96139	4700.9375
1722.20246	4683.6375
1725.44139	4654.0375
1728.67818	4609.1375
1731.91284	4574.3375
1735.14537	4517.8375
1738.37576	4497.9375
1741.60403	4481.9375
1744.83017	4459.4375
1748.05418	4429.9375
1751.27607	4415.4375
1754.49584	4396.4375
1757.71349	4363.1375
1760.92903	4356.0375
1764.14244	4350.1375
1767.35375	4345.2375
1770.56294	4312.9375
1773.77002	4308.2375
1776.97499	4299.4375
1780.17785	4277.9375
1783.37861	4278.6375
1786.57727	4261.9375
1789.77382	4246.5375
1792.96828	4234.4375
1796.16064	4214.6375
1799.3509	4210.9375
1802.53907	4205.5375
1805.72514	4183.2375
1808.90913	4163.0375
1812.09102	4147.5375
1815.27083	4121.6375
1818.44856	4115.1375
1821.6242	4115.2375
1824.79776	4103.7375
1827.96924	4091.7375
1831.13864	4088.0375
1834.30597	4063.3375
1837.47122	4057.6375
1840.6344	4050.6375
1843.7955	4049.0375
1846.95454	4043.9375
1850.11151	4030.7375
1853.26642	4026.1375
1856.41926	4010.9375
1859.57004	4023.3375
1862.71876	4018.6375
1865.86542	4004.6375
1869.01003	4009.6375
1872.15258	3998.4375
1875.29308	3989.8375
1878.43152	3996.2375
1881.56792	3979.3375
1884.70227	3987.3375
1887.83457	3971.8375
1890.96482	3974.2375
1894.09304	3985.4375
1897.21921	3981.8375
1900.34335	3979.2375
1903.46544	3966.8375
1906.58551	3967.6375
1909.70353	3971.8375
1912.81953	3960.1375
1915.93349	3949.5375
1919.04543	3936.3375
1922.15534	3935.2375
1925.26322	3905.4375
1928.36908	3878.7375
1931.47292	3864.1375
1934.57473	3852.2375
1937.67453	3846.7375
1940.77232	3824.1375
1943.86808	3801.5375
1946.96184	3786.9375
1950.05358	3769.1375
1953.14331	3748.6375
1956.23103	3745.7375
1959.31675	3716.4375
1962.40046	3718.7375
1965.48217	3701.5375
1968.56188	3686.6375
1971.63959	3686.3375
1974.7153	3673.4375
1977.78901	3659.3375
1980.86073	3658.8375
1983.93046	3639.1375
1986.99819	3605.8375
1990.06394	3602.7375
1993.1277	3578.6375
1996.18947	3562.6375
1999.24925	3541.1375
2002.30706	3535.1375
2005.36288	3530.8375
2008.41672	3516.9375
2011.46859	3509.7375
2014.51848	3481.7375
2017.56639	3477.7375
2020.61233	3464.0375
2023.6563	3439.4375
2026.6983	3424.6375
2029.73833	3434.7375
2032.7764	3413.6375
2035.8125	3411.1375
2038.84664	3388.1375
2041.87881	3403.2375
2044.90903	3395.0375
2047.93729	3391.7375
2050.96359	3375.0375
2053.98794	3362.3375
2057.01034	3363.6375
2060.03078	3348.0375
2063.04927	3339.9375
2066.06582	3334.4375
2069.08042	3338.3375
2072.09307	3332.4375
2075.10378	3332.2375
2078.11255	3319.9375
2081.11938	3323.4375
2084.12426	3324.1375
2087.12722	3322.7375
2090.12824	3307.0375
2093.12732	3321.0375
2096.12447	3307.6375
2099.11969	3300.6375
2102.11299	3306.4375
2105.10435	3311.5375
2108.09379	3309.7375
2111.08131	3300.9375
2114.0669	3306.5375
2117.05057	3296.9375
2120.03233	3286.0375
2123.01216	3297.7375
2125.99008	3300.7375
2128.96609	3303.4375
2131.94018	3300.9375
2134.91236	3284.9375
2137.88263	3281.7375
2140.851	3284.3375
2143.81746	3301.8375
2146.78201	3282.6375
2149.74466	3267.3375
2152.7054	3279.0375
2155.66425	3272.3375
2158.6212	3268.1375
2161.57625	3274.5375
2164.52941	3266.0375
2167.48067	3269.2375
2170.43004	3250.8375
2173.37752	3253.6375
2176.32311	3231.9375
2179.26681	3242.9375
2182.20863	3242.2375
2185.14856	3249.9375
2188.08661	3251.6375
2191.02278	3246.6375
2193.95707	3243.3375
2196.88948	3234.9375
2199.82001	3239.4375
2202.74867	3238.5375
2205.67545	3217.4375
2208.60037	3212.6375
2211.52341	3204.9375
2214.44458	3197.9375
2217.36388	3190.4375
2220.28132	3182.7375
2223.1969	3164.6375
2226.11061	3158.1375
2229.02246	3156.1375
2231.93245	3142.5375
2234.84058	3121.7375
2237.74686	3141.6375
2240.65128	3123.1375
2243.55385	3127.6375
2246.45456	3119.2375
2249.35343	3116.6375
2252.25044	3100.5375
2255.14561	3105.0375
2258.03893	3081.5375
2260.93041	3087.3375
2263.82004	3084.1375
2266.70783	3079.9375
2269.59378	3065.9375
2272.4779	3050.9375
2275.36017	3050.2375
2278.24061	3037.3375
2281.11922	3023.0375
2283.996	3019.2375
2286.87094	3021.0375
2289.74405	2996.8375
2292.61534	2992.2375
2295.4848	2979.9375
2298.35243	2983.4375
2301.21824	2973.9375
2304.08223	2963.5375
2306.94439	2971.3375
2309.80474	2961.3375
2312.66327	2954.4375
2315.51999	2964.6375
2318.37489	2954.3375
2321.22797	2955.3375
2324.07925	2947.5375
2326.92871	2946.5375
2329.77637	2945.1375
2332.62222	2926.2375
2335.46626	2925.3375
2338.3085	2926.6375
2341.14893	2927.0375
2343.98756	2923.8375
2346.8244	2912.2375
2349.65943	2915.4375
2352.49267	2909.3375
2355.32411	2927.0375
2358.15376	2918.0375
2360.98161	2925.7375
2363.80768	2927.8375
2366.63195	2931.4375
2369.45444	2932.9375
2372.27514	2934.4375
2375.09405	2933.4375
2377.91118	2913.8375
2380.72652	2899.1375
2383.54009	2882.5375
2386.35187	2866.6375
2389.16188	2845.3375
2391.97011	2855.4375
2394.77657	2847.9375
2397.58125	2829.4375
2400.38416	2818.8375
2403.18529	2805.7375
2405.98466	2795.1375
2408.78226	2791.5375
2411.57809	2787.1375
2414.37216	2786.3375
2417.16446	2781.4375
2419.955	2774.2375
2422.74378	2771.9375
2425.5308	2771.2375
2428.31606	2765.0375
2431.09956	2757.1375
2433.88131	2754.6375
2436.6613	2756.9375
2439.43954	2751.0375
2442.21603	2762.3375
2444.99077	2753.2375
2447.76377	2746.4375
2450.53501	2755.3375
2453.30451	2745.6375
2456.07226	2743.9375
2458.83827	2743.6375
2461.60254	2757.6375
2464.36507	2729.1375
2467.12586	2744.9375
2469.88492	2743.7375
2472.64224	2734.9375
2475.39782	2723.9375
2478.15167	2756.2375
2480.90379	2743.0375
2483.65417	2750.8375
2486.40283	2757.8375
2489.14976	2751.1375
2491.89497	2749.1375
2494.63845	2754.3375
2497.3802	2758.6375
2500.12024	2746.8375
2502.85855	2742.3375
2505.59514	2724.8375
2508.33002	2717.9375
2511.06318	2704.0375
2513.79462	2683.1375
2516.52435	2683.5375
2519.25237	2668.3375
2521.97867	2650.1375
2524.70327	2639.3375
2527.42616	2649.5375
2530.14734	2643.6375
2532.86681	2644.3375
2535.58458	2635.8375
2538.30065	2627.2375
2541.01501	2631.5375
2543.72768	2626.0375
2546.43864	2619.5375
2549.14791	2635.5375
2551.85548	2635.1375
2554.56136	2617.0375
2557.26554	2622.8375
2559.96803	2602.8375
2562.66883	2610.7375
2565.36794	2608.0375
2568.06536	2611.8375
2570.7611	2596.0375
2573.45514	2599.0375
2576.14751	2595.0375
2578.83819	2584.4375
2581.52719	2582.9375
2584.21451	2586.6375
2586.90015	2570.1375
2589.58411	2579.2375
2592.2664	2566.9375
2594.94701	2552.9375
2597.62594	2556.1375
2600.30321	2548.0375
2602.9788	2551.4375
2605.65273	2551.2375
2608.32498	2539.2375
2610.99557	2531.6375
2613.66449	2537.2375
2616.33175	2541.3375
2618.99734	2545.0375
2621.66128	2521.3375
2624.32355	2534.1375
2626.98416	2530.6375
2629.64311	2520.3375
2632.30041	2513.7375
2634.95605	2521.3375
2637.61004	2520.2375
2640.26238	2512.2375
2642.91306	2504.6375
2645.56209	2504.8375
2648.20948	2508.8375
2650.85521	2494.6375
2653.4993	2500.7375
2656.14175	2505.7375
2658.78255	2514.3375
2661.42171	2519.9375
2664.05923	2515.8375
2666.6951	2516.0375
2669.32934	2532.4375
2671.96194	2513.1375
2674.59291	2509.2375
2677.22224	2516.3375
2679.84993	2516.2375
2682.476	2520.6375
2685.10043	2506.6375
2687.72324	2511.0375
2690.34441	2513.8375
2692.96396	2502.9375
2695.58188	2515.7375
2698.19818	2526.2375
2700.81285	2513.4375
2703.4259	2514.3375
2706.03733	2515.4375
2708.64714	2523.0375
2711.25533	2535.5375
2713.86191	2531.4375
2716.46687	2545.3375
2719.07021	2538.5375
2721.67194	2554.9375
2724.27206	2555.6375
2726.87057	2562.0375
2729.46747	2561.4375
2732.06276	2581.8375
2734.65644	2582.9375
2737.24852	2581.7375
2739.83899	2583.0375
2742.42786	2604.6375
2745.01513	2603.0375
2747.60079	2609.1375
2750.18486	2608.8375
2752.76733	2615.5375
2755.3482	2620.9375
2757.92747	2625.7375
2760.50515	2625.5375
2763.08123	2627.3375
2765.65573	2628.3375
2768.22863	2631.2375
2770.79994	2639.7375
2773.36967	2638.5375
2775.9378	2642.9375
2778.50435	2640.9375
2781.06932	2645.1375
2783.6327	2649.9375
2786.1945	2655.5375
2788.75471	2674.9375
2791.31335	2660.0375
2793.87041	2673.8375
2796.42589	2685.6375
2798.97979	2682.5375
2801.53212	2686.9375
2804.08288	2684.1375
2806.63206	2688.5375
2809.17967	2704.0375
2811.72571	2709.7375
2814.27018	2709.0375
2816.81308	2716.2375
2819.35442	2712.6375
2821.89419	2699.7375
2824.43239	2712.7375
2826.96904	2721.5375
2829.50412	2724.3375
2832.03763	2723.4375
2834.56959	2726.5375
2837.1	2751.0375
2839.62884	2763.2375
2842.15613	2769.7375
2844.68186	2813.6375
2847.20604	2845.7375
2849.72867	2887.9375
2852.24974	2910.3375
2854.76927	2924.0375
2857.28724	2947.0375
2859.80367	2963.6375
2862.31855	2968.9375
2864.83189	2987.5375
2867.34368	2999.3375
2869.85393	3012.5375
2872.36264	3019.1375
2874.8698	3035.8375
2877.37543	3034.7375
2879.87952	3062.6375
2882.38207	3068.1375
2884.88308	3074.3375
2887.38256	3063.9375
2889.88051	3071.7375
2892.37692	3079.6375
2894.8718	3079.4375
2897.36515	3069.3375
2899.85698	3073.3375
2902.34727	3061.7375
2904.83604	3051.5375
2907.32328	3062.3375
2909.809	3067.4375
2912.29319	3053.8375
2914.77587	3048.2375
2917.25702	3047.4375
2919.73665	3045.0375
2922.21476	3052.8375
2924.69136	3026.4375
2927.16644	3030.7375
2929.64	3022.7375
2932.11205	2979.8375
2934.58258	2963.0375
2937.05161	2938.1375
2939.51912	2921.9375
2941.98513	2877.4375
2944.44962	2829.9375
2946.91261	2786.4375
2949.37409	2761.2375
2951.83407	2710.7375
2954.29254	2687.5375
2956.74951	2652.4375
2959.20498	2632.7375
2961.65895	2603.3375
2964.11142	2562.5375
2966.56239	2539.6375
2969.01186	2514.1375
2971.45984	2495.7375
2973.90632	2455.7375
2976.35131	2444.1375
2978.7948	2425.8375
2981.23681	2410.5375
2983.67732	2387.7375
2986.11635	2363.0375
2988.55388	2354.0375
2990.98993	2330.9375
2993.4245	2315.0375
2995.85758	2307.4375
2998.28917	2291.3375
3000.71928	2285.5375
3003.14791	2287.3375
3005.57506	2271.8375
3008.00073	2262.3375
3010.42493	2266.6375
3012.84764	2266.2375
3015.26888	2267.0375
3017.68865	2255.6375
3020.10694	2242.3375
3022.52376	2232.9375
3024.9391	2233.1375
3027.35298	2223.2375
3029.76539	2224.2375
3032.17632	2220.7375
3034.5858	2209.8375
3036.9938	2211.4375
3039.40034	2207.4375
3041.80542	2203.7375
3044.20903	2193.1375
3046.61118	2204.8375
3049.01187	2198.5375
3051.4111	2195.4375
3053.80888	2179.1375
3056.20519	2189.3375
3058.60005	2194.0375
3060.99345	2197.7375
3063.3854	2186.1375
3065.7759	2190.3375
3068.16494	2193.2375
3070.55254	2179.5375
3072.93868	2191.7375
3075.32338	2181.9375
3077.70662	2167.7375
3080.08842	2166.7375
3082.46878	2167.7375
3084.84769	2164.6375
3087.22515	2164.1375
3089.60118	2165.0375
3091.97576	2169.9375
3094.3489	2175.8375
3096.72061	2165.3375
3099.09087	2170.8375
3101.4597	2168.0375
3103.82709	2166.8375
3106.19305	2174.7375
3108.55757	2167.2375
3110.92066	2175.6375
3113.28232	2167.7375
3115.64255	2166.5375
