Data from AgNP_FTO_APTES_CRN_500uM_R6G_10uM_NaF_0.1M_Addition_RamanShift__20__20-26-58-236.txt Node

Date: Wed Dec 15 20:26:58 GMT 2021
User: TCL
Spectrometer: QEP01345
Trigger mode: 4
Integration Time (sec): 7.000000E0
Scans to average: 10
Electric dark correction enabled: true
Nonlinearity correction enabled: false
Boxcar width: 0
XAxis mode: Raman Shifts
Number of Pixels in Spectrum: 1044
>>>>>Begin Spectral Data<<<<<
46.04893	1.825
50.45542	-1.175
54.85868	0.025
59.25871	-1.275
63.6555	55.425
68.04907	64.025
72.43941	66.925
76.82654	72.725
81.21044	71.925
85.59113	73.325
89.96862	80.825
94.34289	78.625
98.71396	85.325
103.08183	86.925
107.4465	92.725
111.80798	88.125
116.16626	89.925
120.52136	95.925
124.87327	96.925
129.222	102.225
133.56755	103.725
137.90993	113.125
142.24913	122.925
146.58517	139.025
150.91804	157.025
155.24774	186.025
159.57429	226.825
163.89768	287.025
168.21792	377.425
172.53501	508.625
176.84895	698.025
181.15975	996.825
185.46741	1379.025
189.77193	1902.225
194.07331	2549.025
198.37157	3278.325
202.6667	4058.625
206.9587	4831.125
211.24758	5573.725
215.53334	6316.025
219.81599	7122.525
224.09553	7971.725
228.37195	8904.825
232.64527	9965.425
236.91549	11033.925
241.18261	12147.325
245.44663	13166.025
249.70755	14133.725
253.96539	14957.325
258.22014	15653.125
262.4718	16221.425
266.72039	16616.625
270.96589	16829.525
275.20832	16855.725
279.44768	16752.425
283.68397	16595.325
287.91719	16436.725
292.14735	16308.325
296.37445	16216.125
300.59849	16240.925
304.81948	16188.825
309.03742	16166.625
313.25231	16007.625
317.46415	15752.425
321.67296	15498.625
325.87872	15308.125
330.08145	15226.325
334.28114	15284.225
338.47781	15371.925
342.67145	15535.425
346.86207	15771.225
351.04966	16045.925
355.23424	16283.025
359.4158	16511.625
363.59435	16663.725
367.76989	16797.225
371.94243	16889.525
376.11196	17025.525
380.27849	17116.425
384.44203	17275.725
388.60257	17386.325
392.76012	17532.525
396.91468	17669.925
401.06626	17873.825
405.21485	18010.625
409.36047	18036.725
413.50311	17885.125
417.64277	17763.125
421.77947	17756.525
425.9132	17841.825
430.04396	17959.025
434.17176	18145.225
438.2966	18344.625
442.41849	18734.125
446.53742	19234.525
450.6534	19750.825
454.76644	20102.325
458.87653	20243.925
462.98368	20108.425
467.08789	19913.025
471.18916	19753.625
475.2875	19656.025
479.38291	19605.925
483.4754	19490.425
487.56496	19285.125
491.6516	19007.825
495.73531	18761.325
499.81612	18632.025
503.89401	18729.425
507.96899	18723.225
512.04106	18828.925
516.11023	18861.325
520.1765	18850.925
524.23987	18852.425
528.30034	18784.325
532.35792	18678.125
536.41261	18566.625
540.46441	18416.425
544.51333	18401.325
548.55936	18573.825
552.60252	18840.125
556.64279	19172.125
560.6802	19487.125
564.71473	19680.925
568.7464	19853.125
572.7752	20122.825
576.80114	20300.025
580.82422	20384.425
584.84444	20605.125
588.86181	21073.725
592.87633	21649.225
596.888	21898.825
600.89682	21690.125
604.9028	21678.525
608.90594	22449.725
612.90624	23368.025
616.90371	22333.425
620.89834	19897.925
624.89015	18817.625
628.87913	18691.925
632.86528	18795.825
636.84862	18847.025
640.82913	18733.825
644.80683	18452.725
648.78172	18243.525
652.75379	18206.225
656.72306	18355.625
660.68952	18476.225
664.65319	18422.725
668.61405	18260.325
672.57211	18227.625
676.52738	18312.725
680.47986	18416.025
684.42955	18373.725
688.37646	18281.025
692.32058	18261.825
696.26192	18352.125
700.20048	18508.125
704.13626	18569.925
708.06928	18544.825
711.99952	18479.725
715.927	18456.525
719.85171	18375.725
723.77365	18341.225
727.69284	18178.625
731.60928	18082.225
735.52295	18002.925
739.43388	17993.725
743.34206	17976.225
747.24749	18007.525
751.15017	18051.825
755.05012	18201.525
758.94733	18526.725
762.8418	19078.925
766.73354	19943.425
770.62254	20811.525
774.50882	21053.825
778.39237	20371.725
782.27321	19284.625
786.15132	18410.225
790.02671	17889.125
793.89938	17624.225
797.76935	17519.825
801.6366	17477.125
805.50115	17492.925
809.36299	17422.625
813.22213	17355.625
817.07857	17352.225
820.93231	17362.925
824.78336	17298.425
828.63172	17247.625
832.47738	17258.925
836.32036	17252.025
840.16066	17267.125
843.99827	17233.625
847.8332	17218.925
851.66546	17184.925
855.49504	17187.825
859.32195	17195.925
863.1462	17198.225
866.96777	17198.725
870.78668	17159.525
874.60293	17153.225
878.41652	17147.025
882.22745	17169.925
886.03573	17205.025
889.84136	17191.525
893.64433	17139.925
897.44466	17069.725
901.24235	16994.525
905.0374	17002.125
908.8298	16970.425
912.61957	16987.825
916.40671	17102.925
920.19121	17234.925
923.97308	17336.825
927.75233	17374.625
931.52895	17273.125
935.30295	17158.325
939.07433	16952.725
942.84309	16778.225
946.60924	16671.125
950.37278	16622.125
954.13371	16590.025
957.89203	16593.325
961.64774	16570.425
965.40086	16527.525
969.15137	16462.325
972.89929	16413.025
976.64461	16389.725
980.38733	16321.825
984.12747	16385.225
987.86502	16456.325
991.59999	16577.625
995.33237	16707.525
999.06217	16924.625
1002.78939	17175.125
1006.51404	17394.725
1010.23611	17578.125
1013.95561	17696.925
1017.67255	17686.025
1021.38692	17567.125
1025.09872	17344.125
1028.80796	17237.325
1032.51465	17312.425
1036.21877	17421.325
1039.92035	17505.525
1043.61937	17494.525
1047.31584	17439.525
1051.00976	17436.125
1054.70114	17455.525
1058.38998	17568.725
1062.07627	17796.025
1065.76003	18116.025
1069.44126	18506.125
1073.11995	18924.825
1076.79611	19269.925
1080.46974	19190.425
1084.14085	18924.325
1087.80943	18592.025
1091.47549	18428.425
1095.13903	18239.225
1098.80005	18071.925
1102.45857	17788.425
1106.11456	17595.025
1109.76805	17512.625
1113.41903	17597.825
1117.06751	17684.925
1120.71348	17809.225
1124.35696	17968.525
1127.99793	18183.525
1131.63641	18300.425
1135.2724	18238.425
1138.90589	18085.225
1142.5369	18018.925
1146.16542	18077.125
1149.79145	18152.025
1153.415	18299.225
1157.03607	18485.925
1160.65467	18834.825
1164.27079	19384.125
1167.88443	20158.225
1171.49561	21171.425
1175.10432	22377.925
1178.71056	23882.825
1182.31434	25080.325
1185.91565	25500.725
1189.51451	25110.725
1193.11091	24401.925
1196.70485	23655.725
1200.29634	22946.225
1203.88538	22443.725
1207.47197	22097.825
1211.05612	21798.525
1214.63782	21526.925
1218.21708	21250.625
1221.79391	21081.925
1225.36829	20957.525
1228.94024	20791.525
1232.50976	20522.825
1236.07685	20235.825
1239.6415	20135.225
1243.20374	20150.325
1246.76355	20238.725
1250.32093	20475.525
1253.8759	20727.625
1257.42845	21082.225
1260.97859	21451.925
1264.52631	21773.825
1268.07163	22114.825
1271.61453	22510.425
1275.15503	22943.525
1278.69312	23399.125
1282.22882	23813.525
1285.76211	24414.025
1289.29301	25147.625
1292.82151	26092.625
1296.34761	27186.325
1299.87133	28489.425
1303.39266	29818.925
1306.9116	31183.225
1310.42815	32542.525
1313.94233	33487.825
1317.45412	33735.025
1320.96354	33468.825
1324.47058	32899.825
1327.97525	32264.825
1331.47754	31812.225
1334.97747	31513.625
1338.47502	31345.325
1341.97022	31074.025
1345.46305	30619.425
1348.95352	30193.325
1352.44163	30160.825
1355.92738	30683.525
1359.41078	31738.825
1362.89183	32661.425
1366.37053	32408.825
1369.84688	30371.525
1373.32088	27803.725
1376.79254	25984.125
1380.26186	25344.625
1383.72883	25334.425
1387.19347	25436.425
1390.65578	25354.025
1394.11575	25374.925
1397.57339	25673.525
1401.0287	26161.525
1404.48168	26539.525
1407.93234	26479.925
1411.38068	26140.925
1414.82669	25411.325
1418.27039	24423.125
1421.71177	23506.425
1425.15083	22695.525
1428.58758	22243.925
1432.02203	22258.125
1435.45416	22671.025
1438.88399	23225.025
1442.31151	23722.125
1445.73673	24097.225
1449.15965	24457.625
1452.58027	24699.625
1455.9986	24727.925
1459.41463	24783.225
1462.82837	25020.225
1466.23982	25373.725
1469.64898	25651.425
1473.05586	25812.525
1476.46045	25805.925
1479.86276	25649.725
1483.26279	25373.825
1486.66054	25136.425
1490.05602	25002.225
1493.44922	24954.925
1496.84016	24933.425
1500.22882	25070.925
1503.61521	25391.225
1506.99934	26029.325
1510.38121	26590.125
1513.76081	26777.425
1517.13816	26337.825
1520.51324	25624.525
1523.88607	24967.425
1527.25665	24652.025
1530.62498	24639.425
1533.99105	24681.525
1537.35488	24620.025
1540.71647	24405.125
1544.07581	24071.325
1547.4329	23682.325
1550.78776	23329.425
1554.14038	23070.325
1557.49077	22902.825
1560.83892	22856.425
1564.18484	22908.125
1567.52853	23178.625
1570.86999	23659.625
1574.20922	24440.225
1577.54624	25233.725
1580.88103	25674.425
1584.2136	25762.925
1587.54395	25779.125
1590.87208	26038.025
1594.19801	26800.625
1597.52172	27770.125
1600.84321	28028.925
1604.16251	27239.725
1607.47959	25540.325
1610.79447	23636.625
1614.10715	21896.125
1617.41763	20562.325
1620.7259	19722.925
1624.03199	19270.125
1627.33587	19318.325
1630.63757	19724.125
1633.93707	20621.325
1637.23439	22189.225
1640.52951	24415.825
1643.82246	26980.025
1647.11321	28970.725
1650.40179	29227.025
1653.68819	27461.025
1656.97241	24401.425
1660.25446	21534.925
1663.53433	19380.625
1666.81203	18033.625
1670.08756	17151.925
1673.36092	16631.225
1676.63211	16208.025
1679.90115	15953.825
1683.16801	15740.025
1686.43272	15597.525
1689.69527	15502.125
1692.95567	15399.925
1696.2139	15365.125
1699.46999	15319.525
1702.72392	15307.025
1705.97571	15255.025
1709.22535	15201.225
1712.47284	15172.725
1715.71819	15151.125
1718.96139	15115.725
1722.20246	15049.425
1725.44139	14991.925
1728.67818	14923.425
1731.91284	14812.425
1735.14537	14771.325
1738.37576	14747.825
1741.60403	14695.525
1744.83017	14684.625
1748.05418	14650.125
1751.27607	14651.725
1754.49584	14607.425
1757.71349	14617.325
1760.92903	14575.425
1764.14244	14580.325
1767.35375	14535.425
1770.56294	14512.425
1773.77002	14507.025
1776.97499	14460.725
1780.17785	14418.425
1783.37861	14402.325
1786.57727	14367.725
1789.77382	14331.925
1792.96828	14306.325
1796.16064	14264.525
1799.3509	14244.225
1802.53907	14218.425
1805.72514	14171.825
1808.90913	14150.725
1812.09102	14124.225
1815.27083	14090.225
1818.44856	14084.925
1821.6242	14037.825
1824.79776	14011.925
1827.96924	13997.225
1831.13864	14014.125
1834.30597	13995.125
1837.47122	13990.525
1840.6344	13983.025
1843.7955	13966.925
1846.95454	13948.025
1850.11151	13935.025
1853.26642	13940.425
1856.41926	13927.925
1859.57004	13930.125
1862.71876	13887.825
1865.86542	13889.025
1869.01003	13865.225
1872.15258	13890.425
1875.29308	13870.125
1878.43152	13840.025
1881.56792	13839.925
1884.70227	13836.325
1887.83457	13848.925
1890.96482	13847.325
1894.09304	13840.825
1897.21921	13777.225
1900.34335	13816.825
1903.46544	13790.725
1906.58551	13774.125
1909.70353	13750.025
1912.81953	13733.225
1915.93349	13719.825
1919.04543	13655.925
1922.15534	13656.325
1925.26322	13628.825
1928.36908	13597.225
1931.47292	13581.825
1934.57473	13562.625
1937.67453	13499.725
1940.77232	13510.425
1943.86808	13454.625
1946.96184	13424.825
1950.05358	13396.925
1953.14331	13333.025
1956.23103	13320.225
1959.31675	13254.525
1962.40046	13244.925
1965.48217	13215.725
1968.56188	13167.825
1971.63959	13120.825
1974.7153	13103.525
1977.78901	13050.725
1980.86073	13000.525
1983.93046	12938.525
1986.99819	12948.325
1990.06394	12904.825
1993.1277	12885.025
1996.18947	12826.225
1999.24925	12785.325
2002.30706	12787.025
2005.36288	12720.725
2008.41672	12692.125
2011.46859	12642.525
2014.51848	12605.025
2017.56639	12610.425
2020.61233	12565.125
2023.6563	12552.225
2026.6983	12539.625
2029.73833	12488.025
2032.7764	12459.425
2035.8125	12426.325
2038.84664	12376.425
2041.87881	12416.125
2044.90903	12368.225
2047.93729	12342.225
2050.96359	12341.025
2053.98794	12320.625
2057.01034	12325.325
2060.03078	12325.625
2063.04927	12319.425
2066.06582	12283.925
2069.08042	12290.525
2072.09307	12274.025
2075.10378	12255.225
2078.11255	12253.025
2081.11938	12283.825
2084.12426	12234.725
2087.12722	12264.225
2090.12824	12239.825
2093.12732	12252.425
2096.12447	12231.325
2099.11969	12227.025
2102.11299	12250.725
2105.10435	12261.725
2108.09379	12243.825
2111.08131	12251.025
2114.0669	12270.225
2117.05057	12262.025
2120.03233	12282.125
2123.01216	12284.225
2125.99008	12303.825
2128.96609	12309.325
2131.94018	12322.025
2134.91236	12306.125
2137.88263	12324.525
2140.851	12327.625
2143.81746	12337.925
2146.78201	12348.225
2149.74466	12329.425
2152.7054	12335.925
2155.66425	12364.425
2158.6212	12370.425
2161.57625	12379.625
2164.52941	12333.125
2167.48067	12330.025
2170.43004	12350.725
2173.37752	12342.625
2176.32311	12336.925
2179.26681	12334.525
2182.20863	12331.925
2185.14856	12320.325
2188.08661	12328.025
2191.02278	12304.125
2193.95707	12276.325
2196.88948	12302.525
2199.82001	12268.525
2202.74867	12271.925
2205.67545	12292.625
2208.60037	12250.225
2211.52341	12237.525
2214.44458	12219.425
2217.36388	12174.725
2220.28132	12188.325
2223.1969	12151.925
2226.11061	12128.025
2229.02246	12100.925
2231.93245	12104.425
2234.84058	12078.325
2237.74686	12034.925
2240.65128	12047.625
2243.55385	12010.025
2246.45456	12006.025
2249.35343	11993.225
2252.25044	11964.225
2255.14561	11944.625
2258.03893	11938.925
2260.93041	11895.325
2263.82004	11885.225
2266.70783	11837.025
2269.59378	11791.825
2272.4779	11809.925
2275.36017	11764.425
2278.24061	11757.125
2281.11922	11699.325
2283.996	11695.325
2286.87094	11684.425
2289.74405	11673.425
2292.61534	11647.625
2295.4848	11648.825
2298.35243	11636.525
2301.21824	11627.425
2304.08223	11625.325
2306.94439	11619.825
2309.80474	11594.825
2312.66327	11602.925
2315.51999	11590.025
2318.37489	11590.325
2321.22797	11572.425
2324.07925	11568.225
2326.92871	11560.825
2329.77637	11557.725
2332.62222	11538.725
2335.46626	11526.825
2338.3085	11500.125
2341.14893	11508.225
2343.98756	11460.625
2346.8244	11475.425
2349.65943	11489.225
2352.49267	11444.525
2355.32411	11446.525
2358.15376	11442.025
2360.98161	11440.425
2363.80768	11421.425
2366.63195	11416.025
2369.45444	11400.625
2372.27514	11384.425
2375.09405	11361.525
2377.91118	11355.225
2380.72652	11333.125
2383.54009	11306.625
2386.35187	11298.525
2389.16188	11249.225
2391.97011	11250.925
2394.77657	11252.925
2397.58125	11215.425
2400.38416	11191.625
2403.18529	11201.225
2405.98466	11188.225
2408.78226	11146.825
2411.57809	11146.025
2414.37216	11129.525
2417.16446	11101.625
2419.955	11102.025
2422.74378	11067.925
2425.5308	11056.125
2428.31606	11037.225
2431.09956	11038.725
2433.88131	11023.025
2436.6613	11023.925
2439.43954	11027.625
2442.21603	11019.525
2444.99077	11022.925
2447.76377	10999.825
2450.53501	11007.525
2453.30451	10979.225
2456.07226	10969.625
2458.83827	10960.825
2461.60254	10983.925
2464.36507	10940.525
2467.12586	10937.725
2469.88492	10936.625
2472.64224	10912.825
2475.39782	10912.525
2478.15167	10936.925
2480.90379	10932.425
2483.65417	10927.225
2486.40283	10913.625
2489.14976	10939.525
2491.89497	10941.125
2494.63845	10945.325
2497.3802	10930.825
2500.12024	10893.325
2502.85855	10888.725
2505.59514	10884.525
2508.33002	10905.725
2511.06318	10876.025
2513.79462	10872.325
2516.52435	10831.925
2519.25237	10832.425
2521.97867	10821.525
2524.70327	10823.525
2527.42616	10823.125
2530.14734	10809.825
2532.86681	10750.725
2535.58458	10773.925
2538.30065	10772.725
2541.01501	10745.725
2543.72768	10753.825
2546.43864	10743.725
2549.14791	10717.025
2551.85548	10681.325
2554.56136	10641.425
2557.26554	10645.925
2559.96803	10646.825
2562.66883	10636.925
2565.36794	10595.025
2568.06536	10628.425
2570.7611	10601.725
2573.45514	10598.325
2576.14751	10610.725
2578.83819	10551.525
2581.52719	10536.425
2584.21451	10523.625
2586.90015	10540.025
2589.58411	10513.925
2592.2664	10511.225
2594.94701	10462.025
2597.62594	10469.525
2600.30321	10458.125
2602.9788	10455.525
2605.65273	10412.625
2608.32498	10419.725
2610.99557	10390.425
2613.66449	10388.225
2616.33175	10378.025
2618.99734	10371.525
2621.66128	10388.025
2624.32355	10360.325
2626.98416	10397.025
2629.64311	10379.325
2632.30041	10343.225
2634.95605	10343.325
2637.61004	10336.925
2640.26238	10319.625
2642.91306	10326.925
2645.56209	10318.825
2648.20948	10307.425
2650.85521	10323.325
2653.4993	10335.225
2656.14175	10294.425
2658.78255	10302.525
2661.42171	10294.125
2664.05923	10311.725
2666.6951	10309.425
2669.32934	10318.125
2671.96194	10313.125
2674.59291	10304.425
2677.22224	10316.025
2679.84993	10323.025
2682.476	10297.325
2685.10043	10288.925
2687.72324	10276.925
2690.34441	10280.225
2692.96396	10306.825
2695.58188	10280.325
2698.19818	10279.925
2700.81285	10285.525
2703.4259	10316.125
2706.03733	10359.425
2708.64714	10317.025
2711.25533	10337.825
2713.86191	10328.925
2716.46687	10327.025
2719.07021	10322.825
2721.67194	10307.625
2724.27206	10306.325
2726.87057	10323.625
2729.46747	10324.025
2732.06276	10304.525
2734.65644	10279.625
2737.24852	10320.625
2739.83899	10308.325
2742.42786	10304.225
2745.01513	10260.525
2747.60079	10293.725
2750.18486	10246.325
2752.76733	10250.625
2755.3482	10244.025
2757.92747	10241.225
2760.50515	10249.825
2763.08123	10262.625
2765.65573	10230.125
2768.22863	10208.125
2770.79994	10216.925
2773.36967	10225.125
2775.9378	10231.425
2778.50435	10201.425
2781.06932	10175.625
2783.6327	10169.025
2786.1945	10155.925
2788.75471	10145.225
2791.31335	10131.925
2793.87041	10107.825
2796.42589	10069.625
2798.97979	10102.425
2801.53212	10082.925
2804.08288	10054.125
2806.63206	10040.225
2809.17967	10011.225
2811.72571	9970.925
2814.27018	9969.225
2816.81308	9967.325
2819.35442	9956.725
2821.89419	9956.225
2824.43239	9924.225
2826.96904	9907.225
2829.50412	9911.425
2832.03763	9912.225
2834.56959	9876.825
2837.1	9869.825
2839.62884	9883.225
2842.15613	9868.525
2844.68186	9883.625
2847.20604	9888.125
2849.72867	9873.225
2852.24974	9886.025
2854.76927	9875.225
2857.28724	9857.625
2859.80367	9861.725
2862.31855	9815.725
2864.83189	9820.525
2867.34368	9823.625
2869.85393	9807.125
2872.36264	9791.725
2874.8698	9813.625
2877.37543	9795.025
2879.87952	9818.125
2882.38207	9809.025
2884.88308	9817.225
2887.38256	9832.525
2889.88051	9819.825
2892.37692	9810.725
2894.8718	9825.025
2897.36515	9828.325
2899.85698	9836.725
2902.34727	9871.025
2904.83604	9872.525
2907.32328	9886.225
2909.809	9899.925
2912.29319	9894.025
2914.77587	9874.725
2917.25702	9863.225
2919.73665	9881.125
2922.21476	9880.525
2924.69136	9910.825
2927.16644	9885.725
2929.64	9864.425
2932.11205	9857.625
2934.58258	9829.625
2937.05161	9851.525
2939.51912	9875.225
2941.98513	9851.425
2944.44962	9837.625
2946.91261	9765.525
2949.37409	9802.925
2951.83407	9776.325
2954.29254	9765.225
2956.74951	9736.325
2959.20498	9717.525
2961.65895	9717.225
2964.11142	9705.025
2966.56239	9668.625
2969.01186	9673.925
2971.45984	9635.425
2973.90632	9609.525
2976.35131	9608.425
2978.7948	9595.425
2981.23681	9540.925
2983.67732	9520.625
2986.11635	9500.525
2988.55388	9478.225
2990.98993	9468.925
2993.4245	9459.825
2995.85758	9456.925
2998.28917	9379.725
3000.71928	9399.125
3003.14791	9381.525
3005.57506	9361.525
3008.00073	9353.125
3010.42493	9332.625
3012.84764	9324.725
3015.26888	9299.025
3017.68865	9294.725
3020.10694	9303.325
3022.52376	9280.325
3024.9391	9240.225
3027.35298	9245.825
3029.76539	9262.625
3032.17632	9236.325
3034.5858	9216.425
3036.9938	9220.625
3039.40034	9196.025
3041.80542	9182.325
3044.20903	9156.025
3046.61118	9153.325
3049.01187	9127.225
3051.4111	9135.225
3053.80888	9100.225
3056.20519	9094.225
3058.60005	9074.725
3060.99345	9073.525
3063.3854	9050.625
3065.7759	9017.625
3068.16494	9005.225
3070.55254	8984.225
3072.93868	8963.425
3075.32338	8955.625
3077.70662	8932.425
3080.08842	8907.225
3082.46878	8909.325
3084.84769	8888.825
3087.22515	8911.925
3089.60118	8913.625
3091.97576	8898.125
3094.3489	8900.825
3096.72061	8918.025
3099.09087	8910.825
3101.4597	8893.925
3103.82709	8894.325
3106.19305	8894.225
3108.55757	8889.725
3110.92066	8876.525
3113.28232	8845.025
3115.64255	8843.925
3118.00134	8809.425
3120.35871	8815.925
3122.71466	8807.325
3125.06917	8783.125
3127.42226	8749.425
3129.77393	8760.825
3132.12417	8753.925
3134.47299	8770.325
3136.82039	8769.725
3139.16636	8763.925
3141.51092	8786.525
3143.85406	8794.325
3146.19579	8774.225
