Data from AgNP_FTO_APTES_CRN_1uM_R6G_10uM_NaF_0.1M_Addition_RamanShift__7__13-53-40-786.txt Node

Date: Wed Dec 15 13:53:40 GMT 2021
User: TCL
Spectrometer: QEP01345
Trigger mode: 4
Integration Time (sec): 7.000000E0
Scans to average: 10
Electric dark correction enabled: true
Nonlinearity correction enabled: false
Boxcar width: 0
XAxis mode: Raman Shifts
Number of Pixels in Spectrum: 1044
>>>>>Begin Spectral Data<<<<<
46.04893	0.0125
50.45542	-2.9875
54.85868	-1.5875
59.25871	-1.0875
63.6555	171.4125
68.04907	184.9125
72.43941	192.7125
76.82654	203.8125
81.21044	209.1125
85.59113	218.2125
89.96862	226.6125
94.34289	229.5125
98.71396	239.4125
103.08183	249.7125
107.4465	257.6125
111.80798	254.2125
116.16626	266.6125
120.52136	274.7125
124.87327	285.2125
129.222	290.7125
133.56755	312.1125
137.90993	333.6125
142.24913	366.7125
146.58517	407.5125
150.91804	471.8125
155.24774	554.1125
159.57429	682.7125
163.89768	877.6125
168.21792	1147.2125
172.53501	1561.6125
176.84895	2156.8125
181.15975	2998.5125
185.46741	4201.5125
189.77193	5783.2125
194.07331	7716.6125
198.37157	9886.0125
202.6667	12206.1125
206.9587	14462.3125
211.24758	16715.8125
215.53334	18962.2125
219.81599	21328.9125
224.09553	23935.4125
228.37195	26834.9125
232.64527	30040.1125
236.91549	33367.2125
241.18261	36713.6125
245.44663	39902.3125
249.70755	42712.9125
253.96539	45269.9125
258.22014	47327.2125
262.4718	48941.0125
266.72039	50061.3125
270.96589	50548.9125
275.20832	50552.0125
279.44768	50212.5125
283.68397	49705.9125
287.91719	49226.5125
292.14735	48913.1125
296.37445	48807.4125
300.59849	48814.1125
304.81948	48983.0125
309.03742	49079.1125
313.25231	49115.7125
317.46415	48765.7125
321.67296	48249.6125
325.87872	47677.0125
330.08145	47445.8125
334.28114	47426.8125
338.47781	47661.7125
342.67145	48209.6125
346.86207	48858.1125
351.04966	49664.4125
355.23424	50524.9125
359.4158	51297.0125
363.59435	51990.7125
367.76989	52440.5125
371.94243	52665.9125
376.11196	52841.2125
380.27849	52965.4125
384.44203	53116.2125
388.60257	53591.9125
392.76012	54233.6125
396.91468	54975.2125
401.06626	55912.5125
405.21485	56581.7125
409.36047	56756.0125
413.50311	56701.3125
417.64277	56988.9125
421.77947	57632.1125
425.9132	58166.9125
430.04396	58433.8125
434.17176	58529.7125
438.2966	58560.8125
442.41849	59165.0125
446.53742	60565.3125
450.6534	62233.3125
454.76644	63426.8125
458.87653	63624.0125
462.98368	63093.3125
467.08789	61985.6125
471.18916	60593.7125
475.2875	59144.7125
479.38291	58079.0125
483.4754	57383.0125
487.56496	56884.0125
491.6516	56417.2125
495.73531	56150.4125
499.81612	56171.2125
503.89401	56848.6125
507.96899	57448.2125
512.04106	57575.1125
516.11023	57190.6125
520.1765	56457.3125
524.23987	55740.0125
528.30034	55176.8125
532.35792	54506.0125
536.41261	53820.3125
540.46441	53264.5125
544.51333	53252.4125
548.55936	53727.2125
552.60252	54644.7125
556.64279	55765.7125
560.6802	56734.2125
564.71473	57453.7125
568.7464	58413.2125
572.7752	60284.4125
576.80114	62920.6125
580.82422	66341.6125
584.84444	70995.1125
588.86181	76530.1125
592.87633	80284.0125
596.888	78634.4125
600.89682	72793.2125
604.9028	69777.9125
608.90594	71139.6125
612.90624	72674.5125
616.90371	67903.5125
620.89834	59947.0125
624.89015	56476.6125
628.87913	56244.4125
632.86528	56547.3125
636.84862	56073.9125
640.82913	54771.4125
644.80683	53453.3125
648.78172	53008.7125
652.75379	53419.6125
656.72306	54108.9125
660.68952	54530.4125
664.65319	53976.5125
668.61405	53177.4125
672.57211	53158.8125
676.52738	53470.9125
680.47986	53429.0125
684.42955	52982.4125
688.37646	52739.2125
692.32058	53261.2125
696.26192	54291.4125
700.20048	55326.9125
704.13626	55872.0125
708.06928	55951.4125
711.99952	55823.6125
715.927	55999.7125
719.85171	56363.5125
723.77365	56111.7125
727.69284	55008.4125
731.60928	53928.4125
735.52295	53439.7125
739.43388	53347.9125
743.34206	53456.3125
747.24749	53949.9125
751.15017	54588.2125
755.05012	55629.5125
758.94733	57079.7125
762.8418	59334.9125
766.73354	62281.2125
770.62254	64520.5125
774.50882	64011.6125
778.39237	61150.3125
782.27321	57960.1125
786.15132	55556.7125
790.02671	54094.0125
793.89938	53472.6125
797.76935	53264.7125
801.6366	53256.0125
805.50115	53256.0125
809.36299	53033.8125
813.22213	52515.5125
817.07857	52109.9125
820.93231	51733.1125
824.78336	51469.9125
828.63172	51208.7125
832.47738	51074.9125
836.32036	51218.8125
840.16066	51305.3125
843.99827	51353.3125
847.8332	51440.1125
851.66546	51433.7125
855.49504	51530.5125
859.32195	51539.7125
863.1462	51441.9125
866.96777	51257.3125
870.78668	51226.3125
874.60293	51260.5125
878.41652	51333.5125
882.22745	51446.6125
886.03573	51658.2125
889.84136	51665.5125
893.64433	51455.7125
897.44466	51147.9125
901.24235	51021.7125
905.0374	51050.2125
908.8298	51055.0125
912.61957	51196.4125
916.40671	51716.3125
920.19121	52531.6125
923.97308	53396.3125
927.75233	53526.4125
931.52895	52843.2125
935.30295	51760.0125
939.07433	50832.4125
942.84309	50201.6125
946.60924	49988.2125
950.37278	50019.7125
954.13371	50146.7125
957.89203	50063.5125
961.64774	50059.7125
965.40086	50102.1125
969.15137	50081.5125
972.89929	49913.9125
976.64461	49770.9125
980.38733	49830.6125
984.12747	49941.5125
987.86502	50157.2125
991.59999	50508.7125
995.33237	51048.1125
999.06217	52050.8125
1002.78939	53482.7125
1006.51404	55044.2125
1010.23611	56332.6125
1013.95561	56996.6125
1017.67255	56873.1125
1021.38692	55904.5125
1025.09872	54677.1125
1028.80796	54067.9125
1032.51465	54299.0125
1036.21877	54816.0125
1039.92035	55053.0125
1043.61937	55086.8125
1047.31584	54829.4125
1051.00976	54466.1125
1054.70114	54443.4125
1058.38998	54820.0125
1062.07627	55443.1125
1065.76003	56393.4125
1069.44126	57572.3125
1073.11995	59193.0125
1076.79611	60406.9125
1080.46974	60717.8125
1084.14085	60667.1125
1087.80943	60874.5125
1091.47549	60984.8125
1095.13903	60908.1125
1098.80005	59899.6125
1102.45857	58277.2125
1106.11456	57020.4125
1109.76805	56360.2125
1113.41903	56270.7125
1117.06751	56366.8125
1120.71348	56615.5125
1124.35696	56935.5125
1127.99793	57335.7125
1131.63641	57828.4125
1135.2724	58132.5125
1138.90589	58382.0125
1142.5369	58830.8125
1146.16542	59398.7125
1149.79145	60097.1125
1153.415	60727.5125
1157.03607	61839.8125
1160.65467	64155.2125
1164.27079	67785.6125
1167.88443	71644.5125
1171.49561	74906.4125
1175.10432	78229.0125
1178.71056	82629.8125
1182.31434	87155.8125
1185.91565	89156.5125
1189.51451	88352.3125
1193.11091	86183.0125
1196.70485	83785.1125
1200.29634	81531.6125
1203.88538	80349.6125
1207.47197	80531.7125
1211.05612	80714.3125
1214.63782	79895.2125
1218.21708	77721.9125
1221.79391	75123.5125
1225.36829	72994.0125
1228.94024	71720.6125
1232.50976	70679.7125
1236.07685	69636.7125
1239.6415	68826.2125
1243.20374	68711.1125
1246.76355	69352.2125
1250.32093	70715.1125
1253.8759	72373.7125
1257.42845	74539.6125
1260.97859	76789.4125
1264.52631	79217.0125
1268.07163	81835.6125
1271.61453	84507.3125
1275.15503	87080.4125
1278.69312	89800.2125
1282.22882	92914.0125
1285.76211	96539.0125
1289.29301	100620.6125
1292.82151	105101.7125
1296.34761	110634.4125
1299.87133	117454.5125
1303.39266	124326.8125
1306.9116	129628.6125
1310.42815	132718.0125
1313.94233	133464.5125
1317.45412	131996.1125
1320.96354	129598.0125
1324.47058	128361.6125
1327.97525	128349.8125
1331.47754	128629.6125
1334.97747	128439.7125
1338.47502	127007.0125
1341.97022	124032.0125
1345.46305	120178.6125
1348.95352	117067.1125
1352.44163	116139.7125
1355.92738	118547.9125
1359.41078	123853.9125
1362.89183	127771.7125
1366.37053	127185.5125
1369.84688	119703.3125
1373.32088	107599.2125
1376.79254	98079.3125
1380.26186	94667.7125
1383.72883	95385.7125
1387.19347	95921.2125
1390.65578	94694.4125
1394.11575	94066.0125
1397.57339	95281.4125
1401.0287	97879.5125
1404.48168	100291.1125
1407.93234	101083.3125
1411.38068	99667.8125
1414.82669	96422.9125
1418.27039	92183.8125
1421.71177	88092.2125
1425.15083	84754.9125
1428.58758	83609.9125
1432.02203	85000.4125
1435.45416	88339.2125
1438.88399	91986.3125
1442.31151	94338.6125
1445.73673	95033.8125
1449.15965	94626.3125
1452.58027	93469.9125
1455.9986	92360.7125
1459.41463	92209.3125
1462.82837	93595.7125
1466.23982	95823.9125
1469.64898	97910.6125
1473.05586	99358.6125
1476.46045	99866.4125
1479.86276	99369.4125
1483.26279	98234.1125
1486.66054	97362.1125
1490.05602	97396.2125
1493.44922	97718.9125
1496.84016	97644.8125
1500.22882	97614.3125
1503.61521	97694.0125
1506.99934	97992.2125
1510.38121	98179.0125
1513.76081	97818.0125
1517.13816	97005.4125
1520.51324	96567.8125
1523.88607	97128.1125
1527.25665	98534.1125
1530.62498	99895.9125
1533.99105	100051.3125
1537.35488	98575.7125
1540.71647	95853.7125
1544.07581	92772.7125
1547.4329	89859.1125
1550.78776	87281.5125
1554.14038	85342.1125
1557.49077	84092.4125
1560.83892	83195.2125
1564.18484	82551.7125
1567.52853	82215.6125
1570.86999	82927.6125
1574.20922	84901.2125
1577.54624	87385.1125
1580.88103	89473.7125
1584.2136	92383.1125
1587.54395	97276.8125
1590.87208	103840.6125
1594.19801	111479.7125
1597.52172	117661.5125
1600.84321	117983.5125
1604.16251	110787.0125
1607.47959	99827.0125
1610.79447	89011.2125
1614.10715	80239.2125
1617.41763	73701.0125
1620.7259	69677.3125
1624.03199	67865.6125
1627.33587	68357.3125
1630.63757	70950.3125
1633.93707	76490.4125
1637.23439	85714.6125
1640.52951	99292.5125
1643.82246	114966.0125
1647.11321	126046.1125
1650.40179	125217.9125
1653.68819	112131.0125
1656.97241	94226.1125
1660.25446	78758.3125
1663.53433	68390.3125
1666.81203	62029.8125
1670.08756	58115.8125
1673.36092	55664.2125
1676.63211	54082.8125
1679.90115	52861.6125
1683.16801	51987.9125
1686.43272	51315.2125
1689.69527	50866.0125
1692.95567	50522.8125
1696.2139	50267.7125
1699.46999	50049.9125
1702.72392	49865.5125
1705.97571	49771.8125
1709.22535	49639.4125
1712.47284	49522.5125
1715.71819	49494.4125
1718.96139	49304.3125
1722.20246	49118.7125
1725.44139	48923.9125
1728.67818	48640.9125
1731.91284	48380.5125
1735.14537	48077.9125
1738.37576	47844.4125
1741.60403	47662.6125
1744.83017	47513.5125
1748.05418	47374.3125
1751.27607	47259.5125
1754.49584	47116.8125
1757.71349	47061.4125
1760.92903	47072.8125
1764.14244	47050.5125
1767.35375	47044.7125
1770.56294	46952.8125
1773.77002	46875.6125
1776.97499	46824.9125
1780.17785	46716.6125
1783.37861	46705.5125
1786.57727	46641.3125
1789.77382	46503.4125
1792.96828	46458.3125
1796.16064	46351.0125
1799.3509	46298.6125
1802.53907	46187.8125
1805.72514	46045.8125
1808.90913	45914.7125
1812.09102	45871.5125
1815.27083	45808.4125
1818.44856	45684.2125
1821.6242	45693.7125
1824.79776	45670.2125
1827.96924	45684.2125
1831.13864	45643.1125
1834.30597	45685.0125
1837.47122	45721.4125
1840.6344	45677.6125
1843.7955	45652.2125
1846.95454	45600.8125
1850.11151	45620.5125
1853.26642	45574.5125
1856.41926	45520.4125
1859.57004	45523.9125
1862.71876	45478.2125
1865.86542	45448.6125
1869.01003	45477.0125
1872.15258	45451.5125
1875.29308	45338.4125
1878.43152	45277.7125
1881.56792	45217.2125
1884.70227	45194.2125
1887.83457	45191.6125
1890.96482	45227.5125
1894.09304	45090.6125
1897.21921	45015.5125
1900.34335	44993.1125
1903.46544	44922.1125
1906.58551	44889.7125
1909.70353	44878.8125
1912.81953	44767.5125
1915.93349	44675.8125
1919.04543	44631.7125
1922.15534	44560.1125
1925.26322	44403.6125
1928.36908	44321.7125
1931.47292	44243.3125
1934.57473	44176.6125
1937.67453	44060.6125
1940.77232	43931.3125
1943.86808	43787.1125
1946.96184	43633.8125
1950.05358	43558.3125
1953.14331	43454.0125
1956.23103	43385.8125
1959.31675	43282.6125
1962.40046	43202.3125
1965.48217	43036.4125
1968.56188	42879.6125
1971.63959	42764.5125
1974.7153	42651.7125
1977.78901	42517.9125
1980.86073	42365.3125
1983.93046	42283.5125
1986.99819	42112.2125
1990.06394	42059.0125
1993.1277	41996.3125
1996.18947	41866.4125
1999.24925	41806.8125
2002.30706	41601.3125
2005.36288	41478.2125
2008.41672	41407.2125
2011.46859	41260.8125
2014.51848	41242.8125
2017.56639	41133.2125
2020.61233	40996.1125
2023.6563	40872.0125
2026.6983	40878.5125
2029.73833	40826.2125
2032.7764	40731.6125
2035.8125	40696.1125
2038.84664	40642.6125
2041.87881	40552.8125
2044.90903	40423.5125
2047.93729	40388.4125
2050.96359	40345.3125
2053.98794	40256.1125
2057.01034	40292.0125
2060.03078	40181.1125
2063.04927	40115.4125
2066.06582	40117.9125
2069.08042	40129.2125
2072.09307	40102.7125
2075.10378	40028.9125
2078.11255	40010.9125
2081.11938	40017.9125
2084.12426	39974.4125
2087.12722	39957.1125
2090.12824	39984.9125
2093.12732	39978.9125
2096.12447	40006.0125
2099.11969	40028.6125
2102.11299	40037.8125
2105.10435	40063.3125
2108.09379	40039.4125
2111.08131	40058.0125
2114.0669	40112.2125
2117.05057	40106.5125
2120.03233	40121.8125
2123.01216	40181.6125
2125.99008	40205.3125
2128.96609	40186.6125
2131.94018	40252.3125
2134.91236	40276.9125
2137.88263	40249.3125
2140.851	40216.2125
2143.81746	40306.1125
2146.78201	40246.6125
2149.74466	40220.8125
2152.7054	40372.0125
2155.66425	40333.6125
2158.6212	40327.6125
2161.57625	40376.0125
2164.52941	40314.1125
2167.48067	40343.0125
2170.43004	40279.2125
2173.37752	40252.5125
2176.32311	40265.6125
2179.26681	40269.8125
2182.20863	40264.3125
2185.14856	40302.9125
2188.08661	40281.6125
2191.02278	40307.5125
2193.95707	40287.4125
2196.88948	40244.2125
2199.82001	40221.8125
2202.74867	40117.1125
2205.67545	40073.7125
2208.60037	40024.9125
2211.52341	40019.7125
2214.44458	39958.8125
2217.36388	39887.9125
2220.28132	39896.5125
2223.1969	39767.9125
2226.11061	39730.7125
2229.02246	39661.4125
2231.93245	39697.9125
2234.84058	39599.7125
2237.74686	39602.0125
2240.65128	39563.2125
2243.55385	39503.0125
2246.45456	39377.1125
2249.35343	39306.7125
2252.25044	39264.6125
2255.14561	39133.1125
2258.03893	39118.9125
2260.93041	39059.4125
2263.82004	38892.3125
2266.70783	38871.2125
2269.59378	38774.4125
2272.4779	38709.8125
2275.36017	38552.6125
2278.24061	38537.0125
2281.11922	38455.5125
2283.996	38384.9125
2286.87094	38302.7125
2289.74405	38300.0125
2292.61534	38267.9125
2295.4848	38216.2125
2298.35243	38265.3125
2301.21824	38256.6125
2304.08223	38292.0125
2306.94439	38285.5125
2309.80474	38214.8125
2312.66327	38215.6125
2315.51999	38173.5125
2318.37489	38204.4125
2321.22797	38099.2125
2324.07925	38185.8125
2326.92871	38113.0125
2329.77637	38158.1125
2332.62222	37989.3125
2335.46626	38020.5125
2338.3085	38017.6125
2341.14893	38046.6125
2343.98756	38049.1125
2346.8244	38004.6125
2349.65943	38025.4125
2352.49267	37918.7125
2355.32411	37900.2125
2358.15376	37894.2125
2360.98161	37871.9125
2363.80768	37838.0125
2366.63195	37796.4125
2369.45444	37756.6125
2372.27514	37780.8125
2375.09405	37663.3125
2377.91118	37607.1125
2380.72652	37519.9125
2383.54009	37383.5125
2386.35187	37369.7125
2389.16188	37358.9125
2391.97011	37306.2125
2394.77657	37247.9125
2397.58125	37208.7125
2400.38416	37210.3125
2403.18529	37117.8125
2405.98466	37108.2125
2408.78226	37038.7125
2411.57809	37005.3125
2414.37216	36958.0125
2417.16446	37000.0125
2419.955	36907.1125
2422.74378	36874.6125
2425.5308	36859.0125
2428.31606	36874.6125
2431.09956	36827.3125
2433.88131	36756.2125
2436.6613	36748.4125
2439.43954	36755.0125
2442.21603	36769.8125
2444.99077	36700.7125
2447.76377	36724.3125
2450.53501	36646.5125
2453.30451	36708.9125
2456.07226	36701.3125
2458.83827	36632.5125
2461.60254	36668.5125
2464.36507	36699.6125
2467.12586	36680.5125
2469.88492	36677.8125
2472.64224	36633.1125
2475.39782	36674.6125
2478.15167	36757.6125
2480.90379	36717.0125
2483.65417	36726.7125
2486.40283	36703.4125
2489.14976	36703.4125
2491.89497	36604.0125
2494.63845	36642.9125
2497.3802	36654.4125
2500.12024	36677.2125
2502.85855	36628.2125
2505.59514	36636.6125
2508.33002	36629.8125
2511.06318	36568.6125
2513.79462	36602.9125
2516.52435	36532.3125
2519.25237	36603.1125
2521.97867	36589.7125
2524.70327	36573.8125
2527.42616	36492.1125
2530.14734	36526.9125
2532.86681	36506.0125
2535.58458	36497.8125
2538.30065	36414.2125
2541.01501	36448.5125
2543.72768	36405.9125
2546.43864	36337.9125
2549.14791	36341.7125
2551.85548	36321.4125
2554.56136	36294.4125
2557.26554	36245.8125
2559.96803	36255.0125
2562.66883	36209.1125
2565.36794	36227.3125
2568.06536	36184.5125
2570.7611	36161.4125
2573.45514	36185.8125
2576.14751	36193.3125
2578.83819	36072.9125
2581.52719	36089.3125
2584.21451	36085.9125
2586.90015	36065.0125
2589.58411	35980.6125
2592.2664	36001.4125
2594.94701	35928.1125
2597.62594	35921.7125
2600.30321	35906.5125
2602.9788	35925.4125
2605.65273	35856.7125
2608.32498	35905.7125
2610.99557	35922.9125
2613.66449	35922.9125
2616.33175	35857.7125
2618.99734	35908.1125
2621.66128	35825.1125
2624.32355	35834.4125
2626.98416	35779.4125
2629.64311	35725.8125
2632.30041	35787.8125
2634.95605	35681.7125
2637.61004	35669.5125
2640.26238	35639.8125
2642.91306	35655.9125
2645.56209	35661.4125
2648.20948	35687.9125
2650.85521	35667.9125
2653.4993	35735.3125
2656.14175	35684.8125
2658.78255	35733.6125
2661.42171	35696.2125
2664.05923	35769.7125
2666.6951	35746.3125
2669.32934	35802.5125
2671.96194	35803.0125
2674.59291	35894.8125
2677.22224	35837.9125
2679.84993	35861.1125
2682.476	35808.1125
2685.10043	35850.5125
2687.72324	35790.5125
2690.34441	35835.8125
2692.96396	35839.7125
2695.58188	35836.9125
2698.19818	35752.6125
2700.81285	35812.4125
2703.4259	35818.5125
2706.03733	35870.3125
2708.64714	35874.9125
2711.25533	35881.2125
2713.86191	35889.1125
2716.46687	35961.5125
2719.07021	35939.3125
2721.67194	35986.9125
2724.27206	35935.4125
2726.87057	36012.1125
2729.46747	35997.1125
2732.06276	36045.4125
2734.65644	36016.2125
2737.24852	36081.5125
2739.83899	36042.9125
2742.42786	36163.4125
2745.01513	36100.9125
2747.60079	36112.6125
2750.18486	36104.3125
2752.76733	36114.1125
2755.3482	36058.1125
2757.92747	36007.0125
2760.50515	35915.7125
2763.08123	35979.5125
2765.65573	35922.2125
2768.22863	35921.2125
2770.79994	35871.9125
2773.36967	35930.2125
2775.9378	35943.4125
2778.50435	35887.4125
2781.06932	35833.8125
2783.6327	35865.7125
2786.1945	35806.6125
2788.75471	35796.4125
2791.31335	35726.8125
2793.87041	35748.9125
2796.42589	35584.1125
2798.97979	35578.9125
2801.53212	35453.2125
2804.08288	35489.7125
2806.63206	35397.0125
2809.17967	35320.7125
2811.72571	35279.5125
2814.27018	35271.1125
2816.81308	35182.2125
2819.35442	35192.0125
2821.89419	35045.1125
2824.43239	34993.6125
2826.96904	34972.2125
2829.50412	34955.1125
2832.03763	34814.2125
2834.56959	34839.0125
2837.1	34759.0125
2839.62884	34755.8125
2842.15613	34670.9125
2844.68186	34721.0125
2847.20604	34684.9125
2849.72867	34651.8125
2852.24974	34570.2125
2854.76927	34583.6125
2857.28724	34527.6125
2859.80367	34582.3125
2862.31855	34445.9125
2864.83189	34398.5125
2867.34368	34362.5125
2869.85393	34398.7125
2872.36264	34371.9125
2874.8698	34323.0125
2877.37543	34321.9125
2879.87952	34300.5125
2882.38207	34296.8125
2884.88308	34298.6125
2887.38256	34333.8125
2889.88051	34322.4125
2892.37692	34368.7125
2894.8718	34398.1125
2897.36515	34426.4125
2899.85698	34403.0125
2902.34727	34496.3125
2904.83604	34472.7125
2907.32328	34451.3125
2909.809	34444.3125
2912.29319	34508.7125
2914.77587	34468.6125
2917.25702	34452.3125
2919.73665	34423.5125
2922.21476	34450.6125
2924.69136	34443.9125
2927.16644	34485.4125
2929.64	34430.8125
2932.11205	34393.3125
2934.58258	34259.5125
2937.05161	34306.5125
2939.51912	34326.6125
2941.98513	34258.7125
2944.44962	34221.8125
2946.91261	34156.8125
2949.37409	34215.5125
2951.83407	34175.7125
2954.29254	34164.3125
2956.74951	34119.2125
2959.20498	34150.9125
2961.65895	34066.6125
2964.11142	34002.9125
2966.56239	33932.2125
2969.01186	33944.7125
2971.45984	33855.7125
2973.90632	33758.9125
2976.35131	33717.1125
2978.7948	33647.4125
2981.23681	33593.2125
2983.67732	33523.5125
2986.11635	33395.8125
2988.55388	33317.6125
2990.98993	33226.2125
2993.4245	33166.8125
2995.85758	33078.3125
2998.28917	33004.8125
3000.71928	32961.1125
3003.14791	32882.4125
3005.57506	32883.9125
3008.00073	32737.0125
3010.42493	32730.5125
3012.84764	32737.3125
3015.26888	32695.3125
3017.68865	32570.5125
