Data from AgNP_FTO_APTES_CRN_100uM_R6G_10uM_NaF_0.1M_Addition_RamanShift__28__19-04-08-142.txt Node

Date: Wed Dec 15 19:04:08 GMT 2021
User: TCL
Spectrometer: QEP01345
Trigger mode: 4
Integration Time (sec): 7.000000E0
Scans to average: 10
Electric dark correction enabled: true
Nonlinearity correction enabled: false
Boxcar width: 0
XAxis mode: Raman Shifts
Number of Pixels in Spectrum: 1044
>>>>>Begin Spectral Data<<<<<
46.04893	1.0875
50.45542	-2.0125
54.85868	0.1875
59.25871	-1.6125
63.6555	60.2875
68.04907	65.6875
72.43941	71.3875
76.82654	75.6875
81.21044	73.9875
85.59113	82.5875
89.96862	82.0875
94.34289	81.2875
98.71396	92.1875
103.08183	93.5875
107.4465	96.1875
111.80798	98.0875
116.16626	96.9875
120.52136	101.2875
124.87327	103.6875
129.222	106.4875
133.56755	110.0875
137.90993	122.5875
142.24913	133.2875
146.58517	144.2875
150.91804	169.4875
155.24774	200.0875
159.57429	243.3875
163.89768	316.2875
168.21792	407.0875
172.53501	551.0875
176.84895	777.5875
181.15975	1074.3875
185.46741	1496.5875
189.77193	2083.3875
194.07331	2779.2875
198.37157	3571.0875
202.6667	4443.4875
206.9587	5274.0875
211.24758	6103.3875
215.53334	6949.1875
219.81599	7851.1875
224.09553	8864.6875
228.37195	9972.3875
232.64527	11186.0875
236.91549	12416.0875
241.18261	13687.1875
245.44663	14752.3875
249.70755	15711.6875
253.96539	16592.9875
258.22014	17330.4875
262.4718	17939.7875
266.72039	18422.1875
270.96589	18689.4875
275.20832	18736.6875
279.44768	18584.6875
283.68397	18394.2875
287.91719	18231.9875
292.14735	18186.1875
296.37445	18371.8875
300.59849	18629.1875
304.81948	18897.3875
309.03742	19067.8875
313.25231	18926.7875
317.46415	18323.7875
321.67296	17481.6875
325.87872	16781.4875
330.08145	16444.2875
334.28114	16448.0875
338.47781	16636.8875
342.67145	16984.3875
346.86207	17430.8875
351.04966	18063.2875
355.23424	18799.2875
359.4158	19358.5875
363.59435	19675.4875
367.76989	19782.6875
371.94243	19876.0875
376.11196	19893.8875
380.27849	19884.9875
384.44203	19864.2875
388.60257	19792.5875
392.76012	19772.5875
396.91468	19959.9875
401.06626	20323.8875
405.21485	20598.5875
409.36047	20433.2875
413.50311	19875.6875
417.64277	19306.2875
421.77947	18980.0875
425.9132	18895.5875
430.04396	18972.8875
434.17176	19065.5875
438.2966	19324.7875
442.41849	19689.3875
446.53742	20187.8875
450.6534	20702.4875
454.76644	21073.0875
458.87653	21169.7875
462.98368	21111.1875
467.08789	20888.3875
471.18916	20617.1875
475.2875	20320.2875
479.38291	20031.9875
483.4754	19818.3875
487.56496	19554.2875
491.6516	19340.0875
495.73531	19215.1875
499.81612	19175.4875
503.89401	19268.1875
507.96899	19424.3875
512.04106	19595.9875
516.11023	19813.1875
520.1765	19967.1875
524.23987	20007.8875
528.30034	19883.2875
532.35792	19633.1875
536.41261	19369.6875
540.46441	19077.8875
544.51333	18960.1875
548.55936	19086.1875
552.60252	19365.7875
556.64279	19737.3875
560.6802	19937.6875
564.71473	20086.9875
568.7464	20471.9875
572.7752	20791.0875
576.80114	20519.7875
580.82422	20187.1875
584.84444	20086.0875
588.86181	20147.4875
592.87633	20397.7875
596.888	20717.2875
600.89682	21042.3875
604.9028	22349.8875
608.90594	25730.7875
612.90624	30034.0875
616.90371	28928.8875
620.89834	22848.3875
624.89015	20043.1875
628.87913	19518.0875
632.86528	19533.8875
636.84862	19621.2875
640.82913	19382.4875
644.80683	18892.4875
648.78172	18610.8875
652.75379	18604.3875
656.72306	18973.7875
660.68952	19514.9875
664.65319	19450.6875
668.61405	18959.0875
672.57211	18669.4875
676.52738	18709.1875
680.47986	18698.3875
684.42955	18635.8875
688.37646	18622.9875
692.32058	18672.2875
696.26192	18811.9875
700.20048	18974.6875
704.13626	19076.8875
708.06928	19085.2875
711.99952	18907.9875
715.927	18876.7875
719.85171	18869.5875
723.77365	18865.4875
727.69284	18722.6875
731.60928	18580.0875
735.52295	18590.0875
739.43388	18600.3875
743.34206	18636.9875
747.24749	18683.2875
751.15017	18789.2875
755.05012	19037.5875
758.94733	19573.7875
762.8418	20790.6875
766.73354	22845.9875
770.62254	24967.0875
774.50882	25983.5875
778.39237	25011.2875
782.27321	22651.4875
786.15132	20538.0875
790.02671	19314.2875
793.89938	18768.5875
797.76935	18530.4875
801.6366	18450.7875
805.50115	18372.5875
809.36299	18373.3875
813.22213	18257.0875
817.07857	18259.5875
820.93231	18264.9875
824.78336	18284.1875
828.63172	18380.0875
832.47738	18400.6875
836.32036	18415.2875
840.16066	18379.1875
843.99827	18341.5875
847.8332	18289.6875
851.66546	18222.3875
855.49504	18194.3875
859.32195	18183.4875
863.1462	18174.0875
866.96777	18108.3875
870.78668	18080.3875
874.60293	18059.8875
878.41652	18097.0875
882.22745	18160.2875
886.03573	18181.8875
889.84136	18147.5875
893.64433	18069.3875
897.44466	18028.1875
901.24235	18016.4875
905.0374	17979.5875
908.8298	17963.0875
912.61957	17980.6875
916.40671	18061.8875
920.19121	18145.7875
923.97308	18260.1875
927.75233	18360.9875
931.52895	18450.0875
935.30295	18319.2875
939.07433	17985.2875
942.84309	17741.6875
946.60924	17546.5875
950.37278	17435.7875
954.13371	17369.3875
957.89203	17293.3875
961.64774	17280.3875
965.40086	17223.6875
969.15137	17154.0875
972.89929	17097.0875
976.64461	17078.0875
980.38733	17060.9875
984.12747	17136.6875
987.86502	17243.3875
991.59999	17332.1875
995.33237	17528.6875
999.06217	17900.9875
1002.78939	18270.1875
1006.51404	18533.2875
1010.23611	18731.6875
1013.95561	18878.0875
1017.67255	18863.4875
1021.38692	18698.5875
1025.09872	18524.6875
1028.80796	18545.9875
1032.51465	18758.6875
1036.21877	19019.6875
1039.92035	19107.5875
1043.61937	19019.7875
1047.31584	18832.5875
1051.00976	18630.5875
1054.70114	18537.7875
1058.38998	18546.8875
1062.07627	18684.3875
1065.76003	18887.5875
1069.44126	19173.4875
1073.11995	19549.6875
1076.79611	19885.1875
1080.46974	20084.9875
1084.14085	20140.6875
1087.80943	20096.6875
1091.47549	19933.3875
1095.13903	19574.9875
1098.80005	19130.9875
1102.45857	18701.6875
1106.11456	18518.5875
1109.76805	18603.1875
1113.41903	18764.6875
1117.06751	19100.7875
1120.71348	19511.3875
1124.35696	19891.5875
1127.99793	20288.3875
1131.63641	20315.4875
1135.2724	19828.0875
1138.90589	19334.6875
1142.5369	19038.6875
1146.16542	18818.7875
1149.79145	18708.7875
1153.415	18757.7875
1157.03607	18861.9875
1160.65467	19140.6875
1164.27079	19622.6875
1167.88443	20369.0875
1171.49561	21520.5875
1175.10432	23367.3875
1178.71056	25672.9875
1182.31434	27480.9875
1185.91565	27998.9875
1189.51451	27526.7875
1193.11091	26293.0875
1196.70485	24852.6875
1200.29634	23688.5875
1203.88538	22881.5875
1207.47197	21994.1875
1211.05612	21279.5875
1214.63782	20900.4875
1218.21708	20761.4875
1221.79391	20742.3875
1225.36829	20733.0875
1228.94024	20697.2875
1232.50976	20541.1875
1236.07685	20518.9875
1239.6415	20569.2875
1243.20374	20627.1875
1246.76355	20766.8875
1250.32093	21006.8875
1253.8759	21393.2875
1257.42845	21853.5875
1260.97859	22344.5875
1264.52631	22752.8875
1268.07163	23148.1875
1271.61453	23609.3875
1275.15503	23997.0875
1278.69312	24231.5875
1282.22882	24443.5875
1285.76211	24843.1875
1289.29301	25365.5875
1292.82151	26068.8875
1296.34761	26844.8875
1299.87133	27924.5875
1303.39266	29471.5875
1306.9116	31730.8875
1310.42815	34225.9875
1313.94233	35833.8875
1317.45412	35657.9875
1320.96354	34170.2875
1324.47058	32547.1875
1327.97525	31004.0875
1331.47754	29991.9875
1334.97747	29715.4875
1338.47502	29868.6875
1341.97022	30341.1875
1345.46305	30708.5875
1348.95352	31239.1875
1352.44163	32180.7875
1355.92738	34035.3875
1359.41078	37073.3875
1362.89183	40327.5875
1366.37053	39679.5875
1369.84688	35387.6875
1373.32088	30709.6875
1376.79254	27679.0875
1380.26186	26166.5875
1383.72883	25514.1875
1387.19347	25010.7875
1390.65578	24496.9875
1394.11575	24141.3875
1397.57339	24041.6875
1401.0287	24252.0875
1404.48168	24562.2875
1407.93234	24833.9875
1411.38068	24915.6875
1414.82669	24740.9875
1418.27039	24198.0875
1421.71177	23582.4875
1425.15083	23003.3875
1428.58758	22652.8875
1432.02203	22654.2875
1435.45416	22818.5875
1438.88399	22975.7875
1442.31151	23104.1875
1445.73673	23298.1875
1449.15965	23440.1875
1452.58027	23532.2875
1455.9986	23455.9875
1459.41463	23468.4875
1462.82837	23713.9875
1466.23982	24119.4875
1469.64898	24512.7875
1473.05586	24857.3875
1476.46045	25031.2875
1479.86276	25256.3875
1483.26279	25512.6875
1486.66054	25815.1875
1490.05602	26231.7875
1493.44922	26800.4875
1496.84016	27445.8875
1500.22882	28587.9875
1503.61521	30237.7875
1506.99934	32429.4875
1510.38121	34584.0875
1513.76081	35686.1875
1517.13816	34814.5875
1520.51324	32100.2875
1523.88607	29258.4875
1527.25665	27267.9875
1530.62498	26151.1875
1533.99105	25560.6875
1537.35488	25173.8875
1540.71647	24962.2875
1544.07581	24825.6875
1547.4329	24640.2875
1550.78776	24469.0875
1554.14038	24348.7875
1557.49077	24435.1875
1560.83892	24642.6875
1564.18484	24934.5875
1567.52853	25331.6875
1570.86999	25785.6875
1574.20922	26305.6875
1577.54624	26647.3875
1580.88103	26437.3875
1584.2136	25743.4875
1587.54395	25177.6875
1590.87208	25232.9875
1594.19801	26100.3875
1597.52172	27377.3875
1600.84321	28019.8875
1604.16251	27309.9875
1607.47959	25729.8875
1610.79447	24016.0875
1614.10715	22361.9875
1617.41763	21112.1875
1620.7259	20255.0875
1624.03199	19857.5875
1627.33587	19869.9875
1630.63757	20218.9875
1633.93707	20934.8875
1637.23439	22114.3875
1640.52951	23722.7875
1643.82246	25768.4875
1647.11321	27994.6875
1650.40179	29281.6875
1653.68819	28561.6875
1656.97241	25799.4875
1660.25446	22617.2875
1663.53433	20318.6875
1666.81203	18842.2875
1670.08756	17980.6875
1673.36092	17449.5875
1676.63211	17052.8875
1679.90115	16808.3875
1683.16801	16627.3875
1686.43272	16498.5875
1689.69527	16392.2875
1692.95567	16322.8875
1696.2139	16277.4875
1699.46999	16266.8875
1702.72392	16268.4875
1705.97571	16227.1875
1709.22535	16172.0875
1712.47284	16182.8875
1715.71819	16190.7875
1718.96139	16145.9875
1722.20246	16122.8875
1725.44139	16107.5875
1728.67818	15994.8875
1731.91284	15937.7875
1735.14537	15873.0875
1738.37576	15798.4875
1741.60403	15755.0875
1744.83017	15721.6875
1748.05418	15697.1875
1751.27607	15692.3875
1754.49584	15648.0875
1757.71349	15648.6875
1760.92903	15610.0875
1764.14244	15625.2875
1767.35375	15609.3875
1770.56294	15593.9875
1773.77002	15579.2875
1776.97499	15545.8875
1780.17785	15514.7875
1783.37861	15500.8875
1786.57727	15446.8875
1789.77382	15444.3875
1792.96828	15420.6875
1796.16064	15388.3875
1799.3509	15400.4875
1802.53907	15366.1875
1805.72514	15293.4875
1808.90913	15280.8875
1812.09102	15265.1875
1815.27083	15208.8875
1818.44856	15212.9875
1821.6242	15208.1875
1824.79776	15176.5875
1827.96924	15170.0875
1831.13864	15150.8875
1834.30597	15158.2875
1837.47122	15159.3875
1840.6344	15127.0875
1843.7955	15128.6875
1846.95454	15087.1875
1850.11151	15105.8875
1853.26642	15092.2875
1856.41926	15123.8875
1859.57004	15095.1875
1862.71876	15079.5875
1865.86542	15076.8875
1869.01003	15062.8875
1872.15258	15107.6875
1875.29308	15093.9875
1878.43152	15050.8875
1881.56792	15065.8875
1884.70227	15033.4875
1887.83457	15051.4875
1890.96482	15022.0875
1894.09304	15014.7875
1897.21921	14988.5875
1900.34335	15047.4875
1903.46544	14996.6875
1906.58551	15004.9875
1909.70353	14981.1875
1912.81953	15018.2875
1915.93349	14977.5875
1919.04543	14905.8875
1922.15534	14928.7875
1925.26322	14893.7875
1928.36908	14873.8875
1931.47292	14812.9875
1934.57473	14807.8875
1937.67453	14757.1875
1940.77232	14724.0875
1943.86808	14691.8875
1946.96184	14645.5875
1950.05358	14629.4875
1953.14331	14579.6875
1956.23103	14518.3875
1959.31675	14478.0875
1962.40046	14442.0875
1965.48217	14432.6875
1968.56188	14395.6875
1971.63959	14319.0875
1974.7153	14300.6875
1977.78901	14217.0875
1980.86073	14183.7875
1983.93046	14164.5875
1986.99819	14118.5875
1990.06394	14063.7875
1993.1277	14047.1875
1996.18947	13979.7875
1999.24925	13948.2875
2002.30706	13909.7875
2005.36288	13862.3875
2008.41672	13841.9875
2011.46859	13792.3875
2014.51848	13767.1875
2017.56639	13751.4875
2020.61233	13687.6875
2023.6563	13692.7875
2026.6983	13650.4875
2029.73833	13647.9875
2032.7764	13601.7875
2035.8125	13576.9875
2038.84664	13540.3875
2041.87881	13528.5875
2044.90903	13504.1875
2047.93729	13478.7875
2050.96359	13463.5875
2053.98794	13446.4875
2057.01034	13460.8875
2060.03078	13440.9875
2063.04927	13413.7875
2066.06582	13424.0875
2069.08042	13415.0875
2072.09307	13395.6875
2075.10378	13397.6875
2078.11255	13338.3875
2081.11938	13368.5875
2084.12426	13368.4875
2087.12722	13352.5875
2090.12824	13328.0875
2093.12732	13371.5875
2096.12447	13346.6875
2099.11969	13341.1875
2102.11299	13349.7875
2105.10435	13353.7875
2108.09379	13364.7875
2111.08131	13404.4875
2114.0669	13364.4875
2117.05057	13392.2875
2120.03233	13400.8875
2123.01216	13403.4875
2125.99008	13425.4875
2128.96609	13446.1875
2131.94018	13450.3875
2134.91236	13436.6875
2137.88263	13473.9875
2140.851	13478.3875
2143.81746	13474.7875
2146.78201	13503.1875
2149.74466	13490.1875
2152.7054	13514.0875
2155.66425	13506.4875
2158.6212	13528.8875
2161.57625	13502.5875
2164.52941	13503.5875
2167.48067	13479.0875
2170.43004	13487.4875
2173.37752	13466.7875
2176.32311	13473.8875
2179.26681	13480.3875
2182.20863	13448.0875
2185.14856	13472.5875
2188.08661	13465.0875
2191.02278	13474.3875
2193.95707	13446.2875
2196.88948	13448.0875
2199.82001	13429.8875
2202.74867	13422.5875
2205.67545	13414.1875
2208.60037	13423.8875
2211.52341	13409.3875
2214.44458	13418.7875
2217.36388	13384.0875
2220.28132	13339.9875
2223.1969	13352.7875
2226.11061	13315.0875
2229.02246	13289.4875
2231.93245	13268.1875
2234.84058	13224.6875
2237.74686	13233.9875
2240.65128	13215.4875
2243.55385	13191.9875
2246.45456	13184.0875
2249.35343	13128.6875
2252.25044	13126.9875
2255.14561	13146.1875
2258.03893	13123.3875
2260.93041	13106.8875
2263.82004	13083.6875
2266.70783	13064.8875
2269.59378	13026.8875
2272.4779	12984.7875
2275.36017	12969.9875
2278.24061	12926.1875
2281.11922	12918.1875
2283.996	12883.8875
2286.87094	12883.5875
2289.74405	12858.1875
2292.61534	12832.6875
2295.4848	12825.3875
2298.35243	12840.7875
2301.21824	12806.8875
2304.08223	12805.8875
2306.94439	12815.9875
2309.80474	12797.6875
2312.66327	12797.0875
2315.51999	12797.5875
2318.37489	12767.6875
2321.22797	12750.2875
2324.07925	12768.4875
2326.92871	12753.9875
2329.77637	12749.4875
2332.62222	12710.7875
2335.46626	12707.8875
2338.3085	12703.8875
2341.14893	12722.2875
2343.98756	12691.2875
2346.8244	12673.7875
2349.65943	12681.7875
2352.49267	12669.1875
2355.32411	12681.8875
2358.15376	12691.4875
2360.98161	12674.4875
2363.80768	12669.0875
2366.63195	12668.3875
2369.45444	12645.0875
2372.27514	12625.5875
2375.09405	12595.9875
2377.91118	12612.3875
2380.72652	12565.8875
2383.54009	12567.9875
2386.35187	12541.2875
2389.16188	12493.8875
2391.97011	12462.9875
2394.77657	12374.9875
2397.58125	12403.6875
2400.38416	12385.5875
2403.18529	12365.5875
2405.98466	12359.7875
2408.78226	12308.7875
2411.57809	12305.3875
2414.37216	12307.7875
2417.16446	12308.9875
2419.955	12268.1875
2422.74378	12238.6875
2425.5308	12201.0875
2428.31606	12200.1875
2431.09956	12176.0875
2433.88131	12214.8875
2436.6613	12201.2875
2439.43954	12218.5875
2442.21603	12177.4875
2444.99077	12142.5875
2447.76377	12175.3875
2450.53501	12153.6875
2453.30451	12153.4875
2456.07226	12126.3875
2458.83827	12124.0875
2461.60254	12124.4875
2464.36507	12119.8875
2467.12586	12134.2875
2469.88492	12123.9875
2472.64224	12108.4875
2475.39782	12086.6875
2478.15167	12092.5875
2480.90379	12095.4875
2483.65417	12127.0875
2486.40283	12134.6875
2489.14976	12147.1875
2491.89497	12122.1875
2494.63845	12170.4875
2497.3802	12148.3875
2500.12024	12101.5875
2502.85855	12100.2875
2505.59514	12098.8875
2508.33002	12078.4875
2511.06318	12039.2875
2513.79462	12037.3875
2516.52435	12018.2875
2519.25237	11996.1875
2521.97867	11979.5875
2524.70327	11962.0875
2527.42616	11936.0875
2530.14734	11948.6875
2532.86681	11911.8875
2535.58458	11896.0875
2538.30065	11897.9875
2541.01501	11898.2875
2543.72768	11875.7875
2546.43864	11877.8875
2549.14791	11857.0875
2551.85548	11842.5875
2554.56136	11800.5875
2557.26554	11827.9875
2559.96803	11802.7875
2562.66883	11781.1875
2565.36794	11797.1875
2568.06536	11754.3875
2570.7611	11755.3875
2573.45514	11738.3875
2576.14751	11737.5875
2578.83819	11718.0875
2581.52719	11683.7875
2584.21451	11686.6875
2586.90015	11687.0875
2589.58411	11649.7875
2592.2664	11636.4875
2594.94701	11608.6875
2597.62594	11608.1875
2600.30321	11600.6875
2602.9788	11584.5875
2605.65273	11576.1875
2608.32498	11550.6875
2610.99557	11537.1875
2613.66449	11546.6875
2616.33175	11538.5875
2618.99734	11541.0875
2621.66128	11551.9875
2624.32355	11509.9875
2626.98416	11543.3875
2629.64311	11495.2875
2632.30041	11528.1875
2634.95605	11506.0875
2637.61004	11490.5875
2640.26238	11469.3875
2642.91306	11473.2875
2645.56209	11447.0875
2648.20948	11445.4875
2650.85521	11427.5875
2653.4993	11411.6875
2656.14175	11385.2875
2658.78255	11413.7875
2661.42171	11422.7875
2664.05923	11436.3875
2666.6951	11425.6875
2669.32934	11433.5875
2671.96194	11415.2875
2674.59291	11435.4875
2677.22224	11442.9875
2679.84993	11445.8875
2682.476	11415.6875
2685.10043	11438.3875
2687.72324	11429.2875
2690.34441	11438.7875
2692.96396	11426.9875
2695.58188	11437.1875
2698.19818	11398.8875
2700.81285	11423.3875
2703.4259	11424.4875
2706.03733	11481.6875
2708.64714	11471.4875
2711.25533	11464.1875
2713.86191	11429.1875
2716.46687	11476.0875
2719.07021	11460.4875
2721.67194	11457.7875
2724.27206	11444.4875
2726.87057	11448.3875
2729.46747	11451.5875
2732.06276	11445.6875
2734.65644	11433.8875
2737.24852	11444.0875
2739.83899	11429.3875
2742.42786	11430.0875
2745.01513	11397.1875
2747.60079	11398.2875
2750.18486	11386.1875
2752.76733	11397.5875
2755.3482	11390.1875
2757.92747	11395.9875
2760.50515	11352.3875
2763.08123	11371.0875
2765.65573	11328.3875
2768.22863	11315.2875
2770.79994	11302.1875
2773.36967	11333.3875
2775.9378	11295.0875
2778.50435	11276.5875
2781.06932	11262.1875
2783.6327	11285.5875
2786.1945	11240.9875
2788.75471	11230.3875
2791.31335	11221.3875
2793.87041	11203.0875
2796.42589	11170.9875
2798.97979	11170.5875
2801.53212	11145.6875
2804.08288	11148.8875
2806.63206	11126.7875
2809.17967	11094.6875
2811.72571	11070.9875
2814.27018	11085.4875
2816.81308	11072.2875
2819.35442	11056.8875
2821.89419	11045.8875
2824.43239	11044.2875
2826.96904	11022.7875
2829.50412	11048.9875
2832.03763	10991.3875
2834.56959	11008.5875
2837.1	10990.3875
2839.62884	10986.8875
2842.15613	11022.9875
2844.68186	11037.9875
2847.20604	11061.7875
2849.72867	11058.6875
2852.24974	11048.6875
2854.76927	11060.5875
2857.28724	11047.9875
2859.80367	11028.4875
2862.31855	11009.2875
2864.83189	10982.2875
2867.34368	10978.3875
2869.85393	10936.8875
2872.36264	10976.4875
2874.8698	10963.9875
2877.37543	10976.0875
2879.87952	10974.1875
2882.38207	10966.0875
2884.88308	10963.6875
2887.38256	10988.5875
2889.88051	10962.6875
2892.37692	10974.5875
2894.8718	10950.5875
2897.36515	10962.3875
2899.85698	10955.8875
2902.34727	10989.9875
2904.83604	10981.9875
2907.32328	11020.8875
2909.809	10994.5875
2912.29319	11020.6875
2914.77587	10973.1875
2917.25702	10993.7875
2919.73665	10967.7875
2922.21476	10963.8875
2924.69136	10972.7875
2927.16644	10961.0875
2929.64	10952.1875
2932.11205	10919.5875
2934.58258	10886.2875
2937.05161	10921.4875
2939.51912	10914.3875
2941.98513	10901.1875
2944.44962	10859.3875
2946.91261	10799.8875
2949.37409	10821.8875
2951.83407	10821.5875
2954.29254	10795.8875
2956.74951	10793.7875
2959.20498	10754.2875
2961.65895	10771.4875
2964.11142	10788.3875
2966.56239	10760.3875
2969.01186	10725.7875
2971.45984	10662.6875
2973.90632	10648.7875
2976.35131	10622.0875
2978.7948	10611.2875
2981.23681	10599.1875
2983.67732	10598.9875
2986.11635	10579.6875
2988.55388	10558.0875
2990.98993	10544.6875
2993.4245	10492.0875
2995.85758	10490.6875
2998.28917	10466.9875
3000.71928	10477.1875
3003.14791	10434.0875
3005.57506	10421.9875
3008.00073	10406.1875
3010.42493	10419.4875
3012.84764	10376.7875
3015.26888	10369.8875
3017.68865	10339.5875
3020.10694	10348.9875
3022.52376	10317.9875
3024.9391	10304.4875
