Data from AgNP_FTO_APTES_CRN_200uM_R6G_10uM_NaF_0.1M_Addition_RamanShift__30__19-51-58-196.txt Node

Date: Wed Dec 15 19:51:58 GMT 2021
User: TCL
Spectrometer: QEP01345
Trigger mode: 4
Integration Time (sec): 7.000000E0
Scans to average: 10
Electric dark correction enabled: true
Nonlinearity correction enabled: false
Boxcar width: 0
XAxis mode: Raman Shifts
Number of Pixels in Spectrum: 1044
>>>>>Begin Spectral Data<<<<<
46.04893	0.725
50.45542	-1.175
54.85868	-1.575
59.25871	-0.075
63.6555	60.125
68.04907	68.525
72.43941	72.425
76.82654	74.925
81.21044	74.325
85.59113	82.125
89.96862	85.125
94.34289	81.825
98.71396	89.225
103.08183	90.625
107.4465	96.925
111.80798	95.625
116.16626	98.725
120.52136	97.925
124.87327	102.025
129.222	110.925
133.56755	113.525
137.90993	122.625
142.24913	134.725
146.58517	146.925
150.91804	172.025
155.24774	198.925
159.57429	252.025
163.89768	316.025
168.21792	414.025
172.53501	564.625
176.84895	786.925
181.15975	1106.825
185.46741	1555.725
189.77193	2134.025
194.07331	2858.225
198.37157	3670.825
202.6667	4554.625
206.9587	5397.325
211.24758	6272.525
215.53334	7137.525
219.81599	8068.825
224.09553	9138.025
228.37195	10294.225
232.64527	11554.425
236.91549	12846.525
241.18261	14076.725
245.44663	15137.925
249.70755	16115.125
253.96539	16922.125
258.22014	17659.325
262.4718	18223.325
266.72039	18694.125
270.96589	18949.125
275.20832	18944.125
279.44768	18806.225
283.68397	18552.625
287.91719	18396.325
292.14735	18365.125
296.37445	18577.925
300.59849	18932.525
304.81948	19362.725
309.03742	19616.725
313.25231	19516.725
317.46415	18881.825
321.67296	17878.125
325.87872	16997.125
330.08145	16604.125
334.28114	16591.025
338.47781	16798.225
342.67145	17148.925
346.86207	17674.925
351.04966	18421.925
355.23424	19234.225
359.4158	19876.825
363.59435	20216.825
367.76989	20331.525
371.94243	20375.125
376.11196	20387.725
380.27849	20362.225
384.44203	20273.225
388.60257	20059.725
392.76012	20034.125
396.91468	20208.725
401.06626	20575.125
405.21485	20855.325
409.36047	20659.325
413.50311	19908.625
417.64277	19184.525
421.77947	18818.025
425.9132	18697.825
430.04396	18758.925
434.17176	18898.725
438.2966	19191.525
442.41849	19609.025
446.53742	20207.525
450.6534	20759.725
454.76644	21112.925
458.87653	21192.425
462.98368	21016.025
467.08789	20738.525
471.18916	20397.625
475.2875	20084.125
479.38291	19811.825
483.4754	19479.225
487.56496	19218.525
491.6516	18971.225
495.73531	18812.025
499.81612	18803.425
503.89401	18913.725
507.96899	19091.725
512.04106	19330.625
516.11023	19572.725
520.1765	19793.925
524.23987	19880.025
528.30034	19673.925
532.35792	19444.125
536.41261	19146.025
540.46441	18823.925
544.51333	18707.925
548.55936	18767.325
552.60252	19082.625
556.64279	19481.525
560.6802	19730.725
564.71473	19924.825
568.7464	20402.525
572.7752	20751.225
576.80114	20350.325
580.82422	19839.925
584.84444	19609.425
588.86181	19751.325
592.87633	20086.925
596.888	20407.325
600.89682	20743.925
604.9028	22107.725
608.90594	26148.925
612.90624	31338.425
616.90371	30125.625
620.89834	22997.325
624.89015	19607.225
628.87913	18975.025
632.86528	19020.625
636.84862	19140.125
640.82913	18952.825
644.80683	18418.125
648.78172	18040.625
652.75379	18062.425
656.72306	18524.525
660.68952	19116.725
664.65319	19015.325
668.61405	18392.925
672.57211	18099.325
676.52738	18139.725
680.47986	18121.225
684.42955	18065.525
688.37646	18001.525
692.32058	18058.725
696.26192	18190.825
700.20048	18368.025
704.13626	18451.825
708.06928	18408.525
711.99952	18272.525
715.927	18228.425
719.85171	18280.825
723.77365	18241.225
727.69284	18087.625
731.60928	17943.925
735.52295	17967.025
739.43388	17955.625
743.34206	17996.325
747.24749	18022.725
751.15017	18076.725
755.05012	18318.725
758.94733	18913.325
762.8418	20333.425
766.73354	22660.625
770.62254	25152.525
774.50882	26371.725
778.39237	25299.825
782.27321	22640.225
786.15132	20183.925
790.02671	18736.625
793.89938	18129.625
797.76935	17804.725
801.6366	17715.425
805.50115	17631.525
809.36299	17602.225
813.22213	17543.325
817.07857	17542.325
820.93231	17529.425
824.78336	17572.725
828.63172	17617.925
832.47738	17670.125
836.32036	17663.625
840.16066	17626.225
843.99827	17564.325
847.8332	17501.825
851.66546	17452.625
855.49504	17425.925
859.32195	17427.025
863.1462	17333.525
866.96777	17331.225
870.78668	17309.025
874.60293	17281.325
878.41652	17319.625
882.22745	17364.925
886.03573	17401.425
889.84136	17354.325
893.64433	17264.425
897.44466	17247.025
901.24235	17210.925
905.0374	17176.125
908.8298	17149.125
912.61957	17136.825
916.40671	17225.225
920.19121	17314.425
923.97308	17405.725
927.75233	17539.125
931.52895	17645.625
935.30295	17517.025
939.07433	17208.025
942.84309	16844.325
946.60924	16653.425
950.37278	16533.325
954.13371	16450.725
957.89203	16402.525
961.64774	16367.525
965.40086	16338.625
969.15137	16293.025
972.89929	16221.925
976.64461	16200.325
980.38733	16159.925
984.12747	16216.225
987.86502	16321.125
991.59999	16380.925
995.33237	16567.425
999.06217	16856.225
1002.78939	17247.425
1006.51404	17501.025
1010.23611	17746.025
1013.95561	17896.325
1017.67255	17851.425
1021.38692	17679.225
1025.09872	17483.925
1028.80796	17395.225
1032.51465	17533.325
1036.21877	17713.725
1039.92035	17795.125
1043.61937	17778.025
1047.31584	17682.625
1051.00976	17557.225
1054.70114	17487.725
1058.38998	17510.325
1062.07627	17649.625
1065.76003	17866.225
1069.44126	18126.625
1073.11995	18496.025
1076.79611	18830.625
1080.46974	19075.425
1084.14085	19144.125
1087.80943	19189.325
1091.47549	19061.125
1095.13903	18658.625
1098.80005	18151.725
1102.45857	17721.025
1106.11456	17550.425
1109.76805	17610.825
1113.41903	17874.425
1117.06751	18233.625
1120.71348	18729.625
1124.35696	19212.725
1127.99793	19678.425
1131.63641	19674.125
1135.2724	19116.725
1138.90589	18534.425
1142.5369	18164.725
1146.16542	17892.325
1149.79145	17789.025
1153.415	17810.325
1157.03607	17902.125
1160.65467	18149.225
1164.27079	18656.825
1167.88443	19484.525
1171.49561	20755.425
1175.10432	22787.825
1178.71056	25387.625
1182.31434	27330.825
1185.91565	27862.925
1189.51451	27251.525
1193.11091	25870.925
1196.70485	24218.025
1200.29634	22979.625
1203.88538	22029.925
1207.47197	21076.725
1211.05612	20305.225
1214.63782	19873.125
1218.21708	19739.425
1221.79391	19743.825
1225.36829	19719.725
1228.94024	19616.425
1232.50976	19458.425
1236.07685	19394.125
1239.6415	19417.225
1243.20374	19541.525
1246.76355	19693.025
1250.32093	19943.325
1253.8759	20295.325
1257.42845	20775.025
1260.97859	21236.925
1264.52631	21721.325
1268.07163	22199.425
1271.61453	22627.225
1275.15503	23003.125
1278.69312	23216.525
1282.22882	23362.925
1285.76211	23729.225
1289.29301	24291.725
1292.82151	25028.625
1296.34761	25880.625
1299.87133	26962.725
1303.39266	28706.225
1306.9116	31183.425
1310.42815	34159.325
1313.94233	35936.025
1317.45412	35711.425
1320.96354	34022.725
1324.47058	31987.525
1327.97525	30078.425
1331.47754	28859.225
1334.97747	28421.525
1338.47502	28628.725
1341.97022	29011.825
1345.46305	29513.425
1348.95352	30350.225
1352.44163	31785.225
1355.92738	34119.225
1359.41078	37828.625
1362.89183	41553.325
1366.37053	40956.225
1369.84688	35858.325
1373.32088	30456.325
1376.79254	27029.125
1380.26186	25414.325
1383.72883	24693.425
1387.19347	24159.625
1390.65578	23524.325
1394.11575	23059.325
1397.57339	22990.825
1401.0287	23127.725
1404.48168	23485.325
1407.93234	23688.925
1411.38068	23744.825
1414.82669	23518.525
1418.27039	23019.225
1421.71177	22445.125
1425.15083	21868.225
1428.58758	21535.225
1432.02203	21542.725
1435.45416	21741.325
1438.88399	21957.625
1442.31151	22108.625
1445.73673	22257.225
1449.15965	22442.925
1452.58027	22511.625
1455.9986	22406.625
1459.41463	22422.025
1462.82837	22647.625
1466.23982	23041.625
1469.64898	23462.225
1473.05586	23791.325
1476.46045	24018.925
1479.86276	24208.225
1483.26279	24463.125
1486.66054	24820.725
1490.05602	25245.925
1493.44922	25835.725
1496.84016	26596.625
1500.22882	27953.025
1503.61521	30027.925
1506.99934	32623.225
1510.38121	35271.725
1513.76081	36671.025
1517.13816	35605.425
1520.51324	32352.225
1523.88607	28948.625
1527.25665	26566.625
1530.62498	25242.125
1533.99105	24541.325
1537.35488	24123.625
1540.71647	23899.325
1544.07581	23743.825
1547.4329	23637.125
1550.78776	23456.925
1554.14038	23339.225
1557.49077	23399.525
1560.83892	23643.825
1564.18484	24018.825
1567.52853	24522.725
1570.86999	25043.225
1574.20922	25623.925
1577.54624	25992.325
1580.88103	25620.125
1584.2136	24656.625
1587.54395	23942.425
1590.87208	23951.525
1594.19801	24818.325
1597.52172	26152.725
1600.84321	26869.225
1604.16251	26200.725
1607.47959	24624.725
1610.79447	22800.325
1614.10715	21094.525
1617.41763	19788.425
1620.7259	18943.425
1624.03199	18566.825
1627.33587	18521.425
1630.63757	18849.525
1633.93707	19562.525
1637.23439	20825.825
1640.52951	22557.925
1643.82246	24931.025
1647.11321	27478.425
1650.40179	29224.625
1653.68819	28499.425
1656.97241	25382.925
1660.25446	21850.325
1663.53433	19259.325
1666.81203	17689.925
1670.08756	16751.025
1673.36092	16200.425
1676.63211	15815.525
1679.90115	15569.825
1683.16801	15345.325
1686.43272	15225.325
1689.69527	15115.125
1692.95567	15058.225
1696.2139	14987.925
1699.46999	15014.625
1702.72392	14983.925
1705.97571	14923.925
1709.22535	14907.325
1712.47284	14880.425
1715.71819	14874.425
1718.96139	14863.725
1722.20246	14820.025
1725.44139	14807.525
1728.67818	14719.025
1731.91284	14603.425
1735.14537	14549.325
1738.37576	14493.825
1741.60403	14453.325
1744.83017	14426.625
1748.05418	14416.525
1751.27607	14379.325
1754.49584	14355.325
1757.71349	14353.325
1760.92903	14291.525
1764.14244	14297.125
1767.35375	14304.025
1770.56294	14262.125
1773.77002	14238.725
1776.97499	14213.325
1780.17785	14194.325
1783.37861	14172.725
1786.57727	14120.025
1789.77382	14068.825
1792.96828	14074.725
1796.16064	14048.125
1799.3509	14055.625
1802.53907	14044.525
1805.72514	13982.025
1808.90913	13937.825
1812.09102	13893.125
1815.27083	13879.625
1818.44856	13868.925
1821.6242	13840.425
1824.79776	13791.625
1827.96924	13805.525
1831.13864	13777.625
1834.30597	13772.225
1837.47122	13768.425
1840.6344	13794.125
1843.7955	13756.925
1846.95454	13735.525
1850.11151	13718.025
1853.26642	13739.525
1856.41926	13739.825
1859.57004	13756.525
1862.71876	13717.725
1865.86542	13719.925
1869.01003	13699.125
1872.15258	13710.925
1875.29308	13717.525
1878.43152	13681.325
1881.56792	13692.825
1884.70227	13648.325
1887.83457	13674.325
1890.96482	13655.625
1894.09304	13641.725
1897.21921	13640.525
1900.34335	13642.825
1903.46544	13615.525
1906.58551	13601.425
1909.70353	13608.525
1912.81953	13615.025
1915.93349	13568.125
1919.04543	13546.025
1922.15534	13543.425
1925.26322	13524.525
1928.36908	13510.225
1931.47292	13492.725
1934.57473	13436.425
1937.67453	13413.325
1940.77232	13324.125
1943.86808	13308.625
1946.96184	13308.825
1950.05358	13239.325
1953.14331	13213.725
1956.23103	13175.725
1959.31675	13129.125
1962.40046	13090.625
1965.48217	13044.925
1968.56188	13043.825
1971.63959	13008.125
1974.7153	12979.025
1977.78901	12925.625
1980.86073	12868.925
1983.93046	12793.425
1986.99819	12772.525
1990.06394	12769.925
1993.1277	12706.425
1996.18947	12673.225
1999.24925	12612.325
2002.30706	12602.325
2005.36288	12580.625
2008.41672	12549.525
2011.46859	12504.625
2014.51848	12476.325
2017.56639	12484.525
2020.61233	12413.325
2023.6563	12394.425
2026.6983	12381.625
2029.73833	12355.425
2032.7764	12321.625
2035.8125	12278.725
2038.84664	12297.525
2041.87881	12267.625
2044.90903	12219.125
2047.93729	12210.925
2050.96359	12208.125
2053.98794	12174.725
2057.01034	12173.025
2060.03078	12168.725
2063.04927	12136.525
2066.06582	12123.325
2069.08042	12107.325
2072.09307	12102.825
2075.10378	12104.625
2078.11255	12067.425
2081.11938	12075.525
2084.12426	12063.325
2087.12722	12091.025
2090.12824	12053.025
2093.12732	12072.525
2096.12447	12076.425
2099.11969	12058.125
2102.11299	12082.025
2105.10435	12089.825
2108.09379	12070.425
2111.08131	12094.725
2114.0669	12080.525
2117.05057	12092.225
2120.03233	12095.225
2123.01216	12130.225
2125.99008	12099.525
2128.96609	12141.825
2131.94018	12150.225
2134.91236	12146.225
2137.88263	12151.725
2140.851	12156.825
2143.81746	12159.725
2146.78201	12176.125
2149.74466	12174.625
2152.7054	12171.925
2155.66425	12167.625
2158.6212	12187.225
2161.57625	12181.325
2164.52941	12152.825
2167.48067	12125.625
2170.43004	12133.525
2173.37752	12158.225
2176.32311	12150.125
2179.26681	12133.725
2182.20863	12112.525
2185.14856	12134.725
2188.08661	12122.625
2191.02278	12109.825
2193.95707	12107.225
2196.88948	12116.925
2199.82001	12092.625
2202.74867	12098.125
2205.67545	12088.125
2208.60037	12081.325
2211.52341	12051.425
2214.44458	12049.325
2217.36388	12010.525
2220.28132	11996.625
2223.1969	11978.325
2226.11061	11941.225
2229.02246	11913.825
2231.93245	11895.425
2234.84058	11898.225
2237.74686	11871.025
2240.65128	11883.025
2243.55385	11850.125
2246.45456	11825.925
2249.35343	11811.625
2252.25044	11804.425
2255.14561	11785.425
2258.03893	11797.125
2260.93041	11789.525
2263.82004	11760.625
2266.70783	11732.125
2269.59378	11682.725
2272.4779	11687.825
2275.36017	11655.325
2278.24061	11614.125
2281.11922	11571.525
2283.996	11556.625
2286.87094	11572.525
2289.74405	11523.625
2292.61534	11505.225
2295.4848	11475.125
2298.35243	11509.325
2301.21824	11491.225
2304.08223	11479.225
2306.94439	11451.125
2309.80474	11497.425
2312.66327	11483.425
2315.51999	11457.125
2318.37489	11465.925
2321.22797	11433.425
2324.07925	11442.825
2326.92871	11435.125
2329.77637	11415.825
2332.62222	11385.725
2335.46626	11381.825
2338.3085	11374.825
2341.14893	11374.925
2343.98756	11377.025
2346.8244	11332.325
2349.65943	11377.825
2352.49267	11365.525
2355.32411	11376.625
2358.15376	11350.525
2360.98161	11361.425
2363.80768	11367.025
2366.63195	11361.125
2369.45444	11356.925
2372.27514	11319.325
2375.09405	11345.025
2377.91118	11297.925
2380.72652	11270.825
2383.54009	11231.725
2386.35187	11216.825
2389.16188	11150.725
2391.97011	11122.425
2394.77657	11137.325
2397.58125	11097.525
2400.38416	11091.225
2403.18529	11051.725
2405.98466	11045.925
2408.78226	11034.525
2411.57809	11000.725
2414.37216	10988.725
2417.16446	10982.725
2419.955	10952.025
2422.74378	10945.425
2425.5308	10934.725
2428.31606	10934.525
2431.09956	10906.825
2433.88131	10878.225
2436.6613	10917.925
2439.43954	10898.425
2442.21603	10918.725
2444.99077	10880.025
2447.76377	10887.925
2450.53501	10872.925
2453.30451	10894.925
2456.07226	10858.525
2458.83827	10874.425
2461.60254	10862.725
2464.36507	10859.025
2467.12586	10842.425
2469.88492	10838.925
2472.64224	10809.725
2475.39782	10838.125
2478.15167	10846.825
2480.90379	10846.425
2483.65417	10875.825
2486.40283	10863.425
2489.14976	10862.425
2491.89497	10855.925
2494.63845	10863.525
2497.3802	10860.125
2500.12024	10829.425
2502.85855	10840.725
2505.59514	10819.225
2508.33002	10780.925
2511.06318	10772.325
2513.79462	10736.325
2516.52435	10743.025
2519.25237	10713.225
2521.97867	10692.125
2524.70327	10687.125
2527.42616	10671.125
2530.14734	10647.825
2532.86681	10636.025
2535.58458	10609.025
2538.30065	10625.225
2541.01501	10613.425
2543.72768	10613.225
2546.43864	10604.725
2549.14791	10573.625
2551.85548	10602.825
2554.56136	10539.125
2557.26554	10501.425
2559.96803	10508.925
2562.66883	10505.825
2565.36794	10500.925
2568.06536	10471.225
2570.7611	10491.725
2573.45514	10470.525
2576.14751	10457.125
2578.83819	10439.625
2581.52719	10443.825
2584.21451	10417.925
2586.90015	10408.025
2589.58411	10425.225
2592.2664	10372.825
2594.94701	10358.025
2597.62594	10353.125
2600.30321	10335.125
2602.9788	10327.125
2605.65273	10304.525
2608.32498	10295.725
2610.99557	10295.325
2613.66449	10294.525
2616.33175	10261.925
2618.99734	10250.925
2621.66128	10256.725
2624.32355	10275.825
2626.98416	10247.825
2629.64311	10228.125
2632.30041	10216.325
2634.95605	10215.925
2637.61004	10208.525
2640.26238	10203.525
2642.91306	10170.825
2645.56209	10150.825
2648.20948	10173.325
2650.85521	10132.625
2653.4993	10153.825
2656.14175	10155.025
2658.78255	10162.725
2661.42171	10164.125
2664.05923	10176.525
2666.6951	10155.125
2669.32934	10174.025
2671.96194	10159.225
2674.59291	10165.525
2677.22224	10179.625
2679.84993	10186.325
2682.476	10166.925
2685.10043	10161.325
2687.72324	10161.625
2690.34441	10164.025
2692.96396	10151.525
2695.58188	10175.125
2698.19818	10159.325
2700.81285	10170.525
2703.4259	10173.125
2706.03733	10216.625
2708.64714	10202.825
2711.25533	10203.625
2713.86191	10209.025
2716.46687	10197.725
2719.07021	10193.425
2721.67194	10175.225
2724.27206	10160.025
2726.87057	10189.325
2729.46747	10201.625
2732.06276	10185.025
2734.65644	10170.625
2737.24852	10161.525
2739.83899	10133.025
2742.42786	10130.325
2745.01513	10130.925
2747.60079	10108.825
2750.18486	10086.525
2752.76733	10098.825
2755.3482	10123.125
2757.92747	10108.725
2760.50515	10092.725
2763.08123	10070.225
2765.65573	10060.625
2768.22863	10049.425
2770.79994	10047.525
2773.36967	10026.425
2775.9378	10016.025
2778.50435	10015.125
2781.06932	10009.625
2783.6327	10013.225
2786.1945	9984.525
2788.75471	10008.425
2791.31335	9946.725
2793.87041	9952.425
2796.42589	9953.425
2798.97979	9932.425
2801.53212	9891.625
2804.08288	9905.625
2806.63206	9875.925
2809.17967	9840.525
2811.72571	9835.725
2814.27018	9860.325
2816.81308	9845.825
2819.35442	9842.625
2821.89419	9831.325
2824.43239	9826.025
2826.96904	9815.825
2829.50412	9825.625
2832.03763	9793.025
2834.56959	9795.025
2837.1	9796.425
2839.62884	9796.525
2842.15613	9806.925
2844.68186	9863.325
2847.20604	9871.225
2849.72867	9902.825
2852.24974	9893.225
2854.76927	9880.625
2857.28724	9880.125
2859.80367	9861.225
2862.31855	9823.925
2864.83189	9805.925
2867.34368	9812.525
2869.85393	9807.125
2872.36264	9805.725
2874.8698	9811.325
2877.37543	9819.425
2879.87952	9811.725
2882.38207	9804.725
2884.88308	9798.825
2887.38256	9802.425
2889.88051	9797.225
2892.37692	9790.125
2894.8718	9781.825
2897.36515	9787.525
2899.85698	9815.925
2902.34727	9814.725
2904.83604	9825.125
2907.32328	9839.425
2909.809	9812.125
2912.29319	9834.125
2914.77587	9827.725
2917.25702	9825.725
2919.73665	9796.425
2922.21476	9823.825
2924.69136	9796.725
2927.16644	9776.625
2929.64	9778.225
2932.11205	9745.725
2934.58258	9731.525
2937.05161	9756.725
2939.51912	9735.625
2941.98513	9694.025
2944.44962	9697.325
2946.91261	9645.425
2949.37409	9654.925
2951.83407	9606.625
2954.29254	9585.725
2956.74951	9560.725
2959.20498	9562.225
2961.65895	9574.625
2964.11142	9540.125
2966.56239	9514.025
2969.01186	9503.525
2971.45984	9466.925
2973.90632	9466.325
2976.35131	9460.525
2978.7948	9445.625
2981.23681	9400.225
2983.67732	9393.425
2986.11635	9374.225
2988.55388	9328.725
2990.98993	9327.225
2993.4245	9312.125
2995.85758	9298.625
2998.28917	9266.525
3000.71928	9279.425
3003.14791	9250.025
3005.57506	9241.325
3008.00073	9232.425
3010.42493	9230.525
3012.84764	9188.325
3015.26888	9185.925
3017.68865	9188.925
3020.10694	9171.025
3022.52376	9144.025
3024.9391	9131.925
3027.35298	9120.625
3029.76539	9102.825
3032.17632	9096.325
3034.5858	9089.825
3036.9938	9090.025
3039.40034	9055.825
3041.80542	9058.525
3044.20903	9046.125
3046.61118	9027.025
3049.01187	9007.025
3051.4111	8981.525
3053.80888	8968.925
3056.20519	8951.425
3058.60005	8929.625
3060.99345	8925.425
3063.3854	8899.825
3065.7759	8897.525
3068.16494	8887.125
3070.55254	8866.125
3072.93868	8846.325
3075.32338	8816.725
3077.70662	8821.625
3080.08842	8764.225
3082.46878	8784.025
3084.84769	8770.225
3087.22515	8761.725
3089.60118	8784.725
3091.97576	8796.225
3094.3489	8758.025
3096.72061	8772.325
3099.09087	8772.325
3101.4597	8749.425
3103.82709	8727.225
3106.19305	8730.525
3108.55757	8709.125
3110.92066	8690.125
3113.28232	8681.625
3115.64255	8659.025
3118.00134	8656.325
3120.35871	8644.425
3122.71466	8643.825
3125.06917	8616.525
3127.42226	8591.325
3129.77393	8635.825
3132.12417	8620.225
3134.47299	8615.625
3136.82039	8627.825
3139.16636	8640.025
3141.51092	8605.725
3143.85406	8636.325
3146.19579	8613.325
