Data from AgNP_FTO_APTES_CRN_1000uM_R6G_10uM_NaF_0.1M_Addition_RamanShift__34__21-29-58-307.txt Node

Date: Wed Dec 15 21:29:58 GMT 2021
User: TCL
Spectrometer: QEP01345
Trigger mode: 4
Integration Time (sec): 7.000000E0
Scans to average: 10
Electric dark correction enabled: true
Nonlinearity correction enabled: false
Boxcar width: 0
XAxis mode: Raman Shifts
Number of Pixels in Spectrum: 1044
>>>>>Begin Spectral Data<<<<<
46.04893	2.1
50.45542	-1.4
54.85868	-0.3
59.25871	-1.4
63.6555	40.8
68.04907	45.4
72.43941	46.1
76.82654	49.3
81.21044	52.1
85.59113	51.7
89.96862	59.4
94.34289	55.9
98.71396	59.6
103.08183	59.7
107.4465	67.7
111.80798	63.1
116.16626	67.9
120.52136	68.9
124.87327	68.5
129.222	71.8
133.56755	72
137.90993	78.8
142.24913	85.2
146.58517	93.5
150.91804	108
155.24774	121.9
159.57429	156.8
163.89768	196
168.21792	254.4
172.53501	336.3
176.84895	466.3
181.15975	646.5
185.46741	900.1
189.77193	1233.6
194.07331	1651.6
198.37157	2122.1
202.6667	2623.7
206.9587	3116.8
211.24758	3605.4
215.53334	4130.2
219.81599	4682.5
224.09553	5314.1
228.37195	5989.5
232.64527	6719.8
236.91549	7467.5
241.18261	8163.8
245.44663	8670.1
249.70755	9104.2
253.96539	9454.5
258.22014	9741.8
262.4718	10004.5
266.72039	10154.6
270.96589	10264.6
275.20832	10222
279.44768	10081.9
283.68397	9929.1
287.91719	9802.2
292.14735	9802.6
296.37445	9989.7
300.59849	10361.9
304.81948	10823.5
309.03742	11181.5
313.25231	11179.4
317.46415	10727.7
321.67296	9919.8
325.87872	9237.9
330.08145	8925.9
334.28114	8882.1
338.47781	9040.7
342.67145	9317.7
346.86207	9769.1
351.04966	10365.1
355.23424	11054.7
359.4158	11561.5
363.59435	11750.1
367.76989	11824.4
371.94243	11724.4
376.11196	11639.9
380.27849	11563.3
384.44203	11419.1
388.60257	11247.1
392.76012	11157.3
396.91468	11240.8
401.06626	11498.8
405.21485	11743
409.36047	11490.8
413.50311	10938.9
417.64277	10350.8
421.77947	10015.4
425.9132	9883.3
430.04396	9884.9
434.17176	9943.6
438.2966	10106.3
442.41849	10427.1
446.53742	10784.1
450.6534	11131.6
454.76644	11299.6
458.87653	11327.1
462.98368	11190.4
467.08789	11010.9
471.18916	10747.7
475.2875	10487.6
479.38291	10243.6
483.4754	10045
487.56496	9856.4
491.6516	9749.3
495.73531	9732
499.81612	9764.6
503.89401	9914.1
507.96899	10098.7
512.04106	10348.7
516.11023	10676.8
520.1765	10923.6
524.23987	11000.1
528.30034	10834.4
532.35792	10584.6
536.41261	10288.4
540.46441	9998
544.51333	9868.4
548.55936	9886
552.60252	10059.1
556.64279	10284.1
560.6802	10394.5
564.71473	10584.6
568.7464	11003.5
572.7752	11218.4
576.80114	10810.6
580.82422	10316.9
584.84444	10081.3
588.86181	10107.2
592.87633	10247.4
596.888	10415.4
600.89682	10806.9
604.9028	12098.4
608.90594	15480.4
612.90624	19853.3
616.90371	19233.9
620.89834	13503.1
624.89015	10743.3
628.87913	10161.4
632.86528	10227.2
636.84862	10366
640.82913	10316.7
644.80683	9972.3
648.78172	9781.7
652.75379	9907.2
656.72306	10390.9
660.68952	10892.8
664.65319	10750.4
668.61405	10222.3
672.57211	10039.8
676.52738	10023.4
680.47986	10037.4
684.42955	9962.2
688.37646	9876.4
692.32058	9888.9
696.26192	9984.8
700.20048	10077.7
704.13626	10101.5
708.06928	9981.3
711.99952	9839.7
715.927	9724.6
719.85171	9720.2
723.77365	9604.5
727.69284	9427.7
731.60928	9301.2
735.52295	9272.9
739.43388	9270.8
743.34206	9241.5
747.24749	9227
751.15017	9257.7
755.05012	9395.1
758.94733	9854.2
762.8418	10962.1
766.73354	12781.3
770.62254	14677.8
774.50882	15793.9
778.39237	15239.7
782.27321	13168.5
786.15132	11049.4
790.02671	9820.9
793.89938	9272.4
797.76935	9047.3
801.6366	8932.5
805.50115	8838.1
809.36299	8814
813.22213	8751.1
817.07857	8753.6
820.93231	8771.8
824.78336	8777.9
828.63172	8863
832.47738	8890.1
836.32036	8883.2
840.16066	8823.9
843.99827	8708.2
847.8332	8673.2
851.66546	8659.3
855.49504	8678.3
859.32195	8614.5
863.1462	8574.1
866.96777	8513.5
870.78668	8445.4
874.60293	8412.2
878.41652	8398.3
882.22745	8399.6
886.03573	8438.1
889.84136	8432.5
893.64433	8377.8
897.44466	8378.1
901.24235	8367.6
905.0374	8338.9
908.8298	8293.8
912.61957	8251.7
916.40671	8313.6
920.19121	8389
923.97308	8442.3
927.75233	8554.4
931.52895	8705.1
935.30295	8622
939.07433	8335.2
942.84309	8090.9
946.60924	7898.4
950.37278	7824
954.13371	7743.9
957.89203	7705
961.64774	7670.9
965.40086	7629.1
969.15137	7603.2
972.89929	7594.5
976.64461	7572
980.38733	7540
984.12747	7563.1
987.86502	7602.7
991.59999	7623
995.33237	7687.6
999.06217	7804.4
1002.78939	7948.4
1006.51404	8102.1
1010.23611	8298.4
1013.95561	8398.2
1017.67255	8366.4
1021.38692	8245
1025.09872	8090.7
1028.80796	8012.3
1032.51465	8048.5
1036.21877	8148.8
1039.92035	8284.4
1043.61937	8357.6
1047.31584	8424.5
1051.00976	8437.4
1054.70114	8425.7
1058.38998	8411
1062.07627	8497.1
1065.76003	8669.1
1069.44126	8939.7
1073.11995	9372.5
1076.79611	9747.8
1080.46974	9926.3
1084.14085	9953.8
1087.80943	9870.7
1091.47549	9612.6
1095.13903	9211.6
1098.80005	8756.9
1102.45857	8450.2
1106.11456	8353.3
1109.76805	8443.7
1113.41903	8678.9
1117.06751	9011.7
1120.71348	9461.5
1124.35696	9981
1127.99793	10354.8
1131.63641	10262.3
1135.2724	9695
1138.90589	9201.8
1142.5369	8857.4
1146.16542	8602.8
1149.79145	8474.8
1153.415	8480
1157.03607	8545.9
1160.65467	8741.8
1164.27079	9108.8
1167.88443	9682.3
1171.49561	10646.2
1175.10432	12158.8
1178.71056	13988.8
1182.31434	15091.3
1185.91565	15055.9
1189.51451	14427.8
1193.11091	13457.2
1196.70485	12428
1200.29634	11649.6
1203.88538	11054.4
1207.47197	10340.5
1211.05612	9714.3
1214.63782	9417.4
1218.21708	9366.7
1221.79391	9350.1
1225.36829	9396.9
1228.94024	9386.2
1232.50976	9426.4
1236.07685	9458.4
1239.6415	9529
1243.20374	9630.9
1246.76355	9685.1
1250.32093	9802.5
1253.8759	9999.2
1257.42845	10269.4
1260.97859	10639.4
1264.52631	10971.1
1268.07163	11307.5
1271.61453	11550
1275.15503	11705.2
1278.69312	11678.5
1282.22882	11668.6
1285.76211	11916.8
1289.29301	12311.1
1292.82151	12736.7
1296.34761	13187.3
1299.87133	13854
1303.39266	15022.6
1306.9116	16770.7
1310.42815	18729.7
1313.94233	19745.9
1317.45412	19164.5
1320.96354	17661.9
1324.47058	16025.4
1327.97525	14657.6
1331.47754	13925.7
1334.97747	13735
1338.47502	13916.9
1341.97022	14393.1
1345.46305	15149.1
1348.95352	16398.2
1352.44163	18100.4
1355.92738	20395.4
1359.41078	23537.4
1362.89183	26134.5
1366.37053	25030
1369.84688	21087.7
1373.32088	17347.8
1376.79254	14893.8
1380.26186	13600.8
1383.72883	12862.1
1387.19347	12260.9
1390.65578	11594.2
1394.11575	11082.3
1397.57339	10808.6
1401.0287	10696.3
1404.48168	10711.2
1407.93234	10816.6
1411.38068	10891.6
1414.82669	10896.1
1418.27039	10794.5
1421.71177	10673.9
1425.15083	10505.8
1428.58758	10430.3
1432.02203	10476.1
1435.45416	10597
1438.88399	10645.7
1442.31151	10572.4
1445.73673	10582.9
1449.15965	10611.8
1452.58027	10501.7
1455.9986	10422.8
1459.41463	10384.2
1462.82837	10488
1466.23982	10731.1
1469.64898	10971.3
1473.05586	11173.6
1476.46045	11319.6
1479.86276	11515.4
1483.26279	11786.5
1486.66054	12101.5
1490.05602	12539.3
1493.44922	13122.1
1496.84016	14057.2
1500.22882	15563.3
1503.61521	17590.4
1506.99934	19769.9
1510.38121	21831.7
1513.76081	22688.1
1517.13816	21354.3
1520.51324	18514.8
1523.88607	15716.3
1527.25665	13914
1530.62498	12987
1533.99105	12496.3
1537.35488	12178.8
1540.71647	11985.8
1544.07581	11936
1547.4329	11899.9
1550.78776	11857.9
1554.14038	11805.3
1557.49077	11860.9
1560.83892	12046.4
1564.18484	12423.7
1567.52853	12996.4
1570.86999	13595
1574.20922	14171.7
1577.54624	14454.6
1580.88103	13954.9
1584.2136	12872.5
1587.54395	11924.7
1590.87208	11521.7
1594.19801	11820.1
1597.52172	12498.7
1600.84321	12856.1
1604.16251	12468.7
1607.47959	11715.4
1610.79447	10810.2
1614.10715	9979.1
1617.41763	9296.7
1620.7259	8925.4
1624.03199	8714.5
1627.33587	8699.7
1630.63757	8851.9
1633.93707	9200
1637.23439	9782.7
1640.52951	10750.6
1643.82246	12142.5
1647.11321	13822.6
1650.40179	15026.9
1653.68819	14595.7
1656.97241	12669.6
1660.25446	10545.6
1663.53433	9078.8
1666.81203	8208
1670.08756	7708.4
1673.36092	7397.8
1676.63211	7193.8
1679.90115	7068.7
1683.16801	6950.9
1686.43272	6864
1689.69527	6807.8
1692.95567	6754.3
1696.2139	6736.1
1699.46999	6701.8
1702.72392	6693.2
1705.97571	6657.9
1709.22535	6614.7
1712.47284	6613.1
1715.71819	6612.6
1718.96139	6600.4
1722.20246	6602
1725.44139	6556
1728.67818	6511.2
1731.91284	6411
1735.14537	6361.1
1738.37576	6344.3
1741.60403	6299
1744.83017	6264.7
1748.05418	6244.2
1751.27607	6213.3
1754.49584	6196.1
1757.71349	6184.4
1760.92903	6183.9
1764.14244	6144.9
1767.35375	6145.2
1770.56294	6135.2
1773.77002	6094.5
1776.97499	6068.7
1780.17785	6056.1
1783.37861	6031
1786.57727	5989.9
1789.77382	5969.6
1792.96828	5954.5
1796.16064	5947.2
1799.3509	5920.3
1802.53907	5924.1
1805.72514	5886.7
1808.90913	5862.2
1812.09102	5861.7
1815.27083	5834.6
1818.44856	5823.5
1821.6242	5800.3
1824.79776	5798.7
1827.96924	5760.1
1831.13864	5773.6
1834.30597	5763.3
1837.47122	5753.3
1840.6344	5731.4
1843.7955	5740.9
1846.95454	5732.2
1850.11151	5721.4
1853.26642	5679.3
1856.41926	5694.7
1859.57004	5711
1862.71876	5693.9
1865.86542	5692.9
1869.01003	5696.1
1872.15258	5685.8
1875.29308	5691.5
1878.43152	5695.4
1881.56792	5657.3
1884.70227	5656.3
1887.83457	5663.4
1890.96482	5664.1
1894.09304	5662
1897.21921	5638.8
1900.34335	5652.7
1903.46544	5637.3
1906.58551	5636.7
1909.70353	5640.7
1912.81953	5617.1
1915.93349	5607
1919.04543	5586.6
1922.15534	5576.2
1925.26322	5563.9
1928.36908	5561.8
1931.47292	5552
1934.57473	5525.7
1937.67453	5498.4
1940.77232	5484.2
1943.86808	5468.2
1946.96184	5444.3
1950.05358	5439.2
1953.14331	5407.1
1956.23103	5405.8
1959.31675	5397.4
1962.40046	5374.2
1965.48217	5357
1968.56188	5335.6
1971.63959	5338.6
1974.7153	5309.8
1977.78901	5300.3
1980.86073	5263.9
1983.93046	5254.7
1986.99819	5220.7
1990.06394	5200.8
1993.1277	5191.7
1996.18947	5170.5
1999.24925	5153
2002.30706	5139.3
2005.36288	5122.8
2008.41672	5090.1
2011.46859	5080.4
2014.51848	5072.9
2017.56639	5081.8
2020.61233	5047.5
2023.6563	5041.8
2026.6983	5031.4
2029.73833	5019.6
2032.7764	4991.1
2035.8125	4974.1
2038.84664	4949.4
2041.87881	4957.6
2044.90903	4949.8
2047.93729	4941.8
2050.96359	4926.8
2053.98794	4913.4
2057.01034	4914
2060.03078	4909.8
2063.04927	4890.3
2066.06582	4885.2
2069.08042	4884.4
2072.09307	4869.6
2075.10378	4873.1
2078.11255	4885.5
2081.11938	4873.3
2084.12426	4867.8
2087.12722	4859.9
2090.12824	4857.9
2093.12732	4868.4
2096.12447	4867.2
2099.11969	4848.9
2102.11299	4877.3
2105.10435	4866.7
2108.09379	4866.9
2111.08131	4852.6
2114.0669	4852.3
2117.05057	4872.2
2120.03233	4869.9
2123.01216	4873.4
2125.99008	4873.6
2128.96609	4868.1
2131.94018	4866.1
2134.91236	4881.7
2137.88263	4882.3
2140.851	4869.2
2143.81746	4866.4
2146.78201	4860.1
2149.74466	4847.8
2152.7054	4857.3
2155.66425	4854.2
2158.6212	4862.9
2161.57625	4860.6
2164.52941	4829.8
2167.48067	4830.4
2170.43004	4839
2173.37752	4825.5
2176.32311	4822.7
2179.26681	4825
2182.20863	4818.3
2185.14856	4823.5
2188.08661	4807.7
2191.02278	4818.3
2193.95707	4786.6
2196.88948	4796
2199.82001	4780.2
2202.74867	4782.7
2205.67545	4786.9
2208.60037	4768
2211.52341	4767.8
2214.44458	4756
2217.36388	4744.9
2220.28132	4718.6
2223.1969	4706.8
2226.11061	4692.6
2229.02246	4705.9
2231.93245	4684.8
2234.84058	4669.9
2237.74686	4655.4
2240.65128	4654
2243.55385	4649.9
2246.45456	4636.3
2249.35343	4620.8
2252.25044	4617.1
2255.14561	4625.3
2258.03893	4651.9
2260.93041	4619.2
2263.82004	4615.5
2266.70783	4600.3
2269.59378	4575.9
2272.4779	4592.7
2275.36017	4581.2
2278.24061	4561.3
2281.11922	4535.6
2283.996	4538.9
2286.87094	4515.7
2289.74405	4505.7
2292.61534	4494.3
2295.4848	4490
2298.35243	4486.7
2301.21824	4455.4
2304.08223	4466.7
2306.94439	4449.8
2309.80474	4457.1
2312.66327	4461.3
2315.51999	4453
2318.37489	4434.2
2321.22797	4431.9
2324.07925	4434.8
2326.92871	4429.1
2329.77637	4423.6
2332.62222	4405.9
2335.46626	4397.4
2338.3085	4400.9
2341.14893	4385
2343.98756	4399.6
2346.8244	4406.8
2349.65943	4375.5
2352.49267	4383.5
2355.32411	4408.4
2358.15376	4411.7
2360.98161	4408
2363.80768	4416.8
2366.63195	4410.3
2369.45444	4413.9
2372.27514	4416.1
2375.09405	4444.5
2377.91118	4552
2380.72652	4380.4
2383.54009	4359.4
2386.35187	4338.6
2389.16188	4320.2
2391.97011	4301.4
2394.77657	4294
2397.58125	4265.7
2400.38416	4268.1
2403.18529	4258.6
2405.98466	4244.7
2408.78226	4244.3
2411.57809	4230.7
2414.37216	4224.7
2417.16446	4219.6
2419.955	4203.2
2422.74378	4203.8
2425.5308	4187.8
2428.31606	4196.3
2431.09956	4188.7
2433.88131	4195.7
2436.6613	4203.8
2439.43954	4187.3
2442.21603	4182.9
2444.99077	4184.4
2447.76377	4184.1
2450.53501	4191.6
2453.30451	4202
2456.07226	4178.8
2458.83827	4190.4
2461.60254	4158.9
2464.36507	4173.8
2467.12586	4164
2469.88492	4150.4
2472.64224	4149
2475.39782	4144.8
2478.15167	4170.8
2480.90379	4161.9
2483.65417	4179.7
2486.40283	4189.2
2489.14976	4191.4
2491.89497	4201
2494.63845	4198.5
2497.3802	4187.3
2500.12024	4168.2
2502.85855	4165.2
2505.59514	4151.5
2508.33002	4125
2511.06318	4123.1
2513.79462	4095.6
2516.52435	4089.8
2519.25237	4067
2521.97867	4064.6
2524.70327	4051.8
2527.42616	4029.7
2530.14734	4045.1
2532.86681	4021.9
2535.58458	4026.7
2538.30065	4017.7
2541.01501	4022
2543.72768	4037.7
2546.43864	4000.3
2549.14791	4015.8
2551.85548	4004.5
2554.56136	4016.8
2557.26554	4000.1
2559.96803	3974.2
2562.66883	3993.3
2565.36794	3980.3
2568.06536	3984.5
2570.7611	3967.6
2573.45514	3969.1
2576.14751	3964.4
2578.83819	3943.1
2581.52719	3923.2
2584.21451	3916.1
2586.90015	3923.6
2589.58411	3901.4
2592.2664	3894
2594.94701	3893
2597.62594	3887.4
2600.30321	3882.4
2602.9788	3876.8
2605.65273	3877.1
2608.32498	3863.5
2610.99557	3858
2613.66449	3866.9
2616.33175	3839.4
2618.99734	3849.9
2621.66128	3841.3
2624.32355	3849
2626.98416	3839.4
2629.64311	3838.8
2632.30041	3826.6
2634.95605	3821.5
2637.61004	3808.6
2640.26238	3794.1
2642.91306	3800.3
2645.56209	3809.5
2648.20948	3795.1
2650.85521	3786.5
2653.4993	3791.4
2656.14175	3804.1
2658.78255	3794.7
2661.42171	3793.4
2664.05923	3793.7
2666.6951	3828
2669.32934	3804.1
2671.96194	3799.4
2674.59291	3815
2677.22224	3806.9
2679.84993	3836.2
2682.476	3819.5
2685.10043	3834.3
2687.72324	3806.8
2690.34441	3815.7
2692.96396	3821.9
2695.58188	3813
2698.19818	3824.4
2700.81285	3849.2
2703.4259	3855.1
2706.03733	3910.8
2708.64714	3875.6
2711.25533	3864.8
2713.86191	3879.2
2716.46687	3867.8
2719.07021	3869.6
2721.67194	3873.4
2724.27206	3864.7
2726.87057	3866.4
2729.46747	3849.7
2732.06276	3857.2
2734.65644	3859.3
2737.24852	3838.6
2739.83899	3835.2
2742.42786	3824
2745.01513	3813.7
2747.60079	3805.7
2750.18486	3795.1
2752.76733	3797.2
2755.3482	3792
2757.92747	3781.4
2760.50515	3788
2763.08123	3780.5
2765.65573	3757.8
2768.22863	3780.6
2770.79994	3787
2773.36967	3773.8
2775.9378	3774.5
2778.50435	3770.1
2781.06932	3752.8
2783.6327	3783.2
2786.1945	3780.4
2788.75471	3774.3
2791.31335	3777.5
2793.87041	3784.9
2796.42589	3780.4
2798.97979	3797.7
2801.53212	3789.8
2804.08288	3809.3
2806.63206	3798.7
2809.17967	3799.2
2811.72571	3810
2814.27018	3838.3
2816.81308	3833.7
2819.35442	3847.1
2821.89419	3858.1
2824.43239	3855.9
2826.96904	3857.6
2829.50412	3854.5
2832.03763	3861.7
2834.56959	3866.6
2837.1	3893.6
2839.62884	3935
2842.15613	4000.5
2844.68186	4085.1
2847.20604	4174.6
2849.72867	4233.8
2852.24974	4271.3
2854.76927	4295.7
2857.28724	4279.7
2859.80367	4255.8
2862.31855	4231.5
2864.83189	4198
2867.34368	4178
2869.85393	4171.6
2872.36264	4164.7
2874.8698	4162.8
2877.37543	4164.3
2879.87952	4161.1
2882.38207	4164.7
2884.88308	4169.9
2887.38256	4171.2
2889.88051	4170.6
2892.37692	4160.4
2894.8718	4170.7
2897.36515	4177.9
2899.85698	4201.6
2902.34727	4198.1
2904.83604	4189.2
2907.32328	4209.8
2909.809	4208.8
2912.29319	4190.3
2914.77587	4181.9
2917.25702	4169.4
2919.73665	4167.4
2922.21476	4157.6
2924.69136	4155.2
2927.16644	4144.2
2929.64	4124.9
2932.11205	4113.4
2934.58258	4085.4
2937.05161	4060.1
2939.51912	4034.4
2941.98513	3987.6
2944.44962	3918.6
2946.91261	3870.2
2949.37409	3826.9
2951.83407	3780.1
2954.29254	3754.9
2956.74951	3711.4
2959.20498	3713.3
2961.65895	3680
2964.11142	3672.2
2966.56239	3647.8
2969.01186	3639.5
2971.45984	3619.1
2973.90632	3600.1
2976.35131	3557.2
2978.7948	3562.7
2981.23681	3546.6
2983.67732	3533.9
2986.11635	3527
2988.55388	3501.7
2990.98993	3502.6
2993.4245	3490.2
2995.85758	3464.8
2998.28917	3457.3
3000.71928	3444.7
3003.14791	3448
3005.57506	3435.1
3008.00073	3442.3
3010.42493	3430.6
3012.84764	3424.9
3015.26888	3419.5
3017.68865	3409.3
3020.10694	3404.3
3022.52376	3397.4
3024.9391	3400.5
3027.35298	3383.3
3029.76539	3401.7
3032.17632	3406.8
3034.5858	3389.6
3036.9938	3368.8
3039.40034	3373.4
3041.80542	3363.1
3044.20903	3348.4
3046.61118	3355.7
3049.01187	3349.2
3051.4111	3347.8
3053.80888	3348.9
3056.20519	3341.1
3058.60005	3332.5
3060.99345	3334.4
3063.3854	3323.6
3065.7759	3324.2
3068.16494	3346.7
3070.55254	3319.9
3072.93868	3325.5
3075.32338	3309.4
3077.70662	3306.6
3080.08842	3286
3082.46878	3291.2
3084.84769	3275.8
3087.22515	3277.9
3089.60118	3270.2
3091.97576	3261
3094.3489	3274.4
3096.72061	3281.1
3099.09087	3263.9
3101.4597	3265
3103.82709	3268.1
3106.19305	3262.7
3108.55757	3256.7
3110.92066	3244.3
3113.28232	3250
3115.64255	3247.7
3118.00134	3249.7
3120.35871	3246.5
3122.71466	3244.3
3125.06917	3239.9
3127.42226	3240.5
3129.77393	3249.6
3132.12417	3255.1
3134.47299	3258
3136.82039	3265.1
3139.16636	3278.3
3141.51092	3286.6
3143.85406	3275.9
3146.19579	3294.5
3148.53609	3301.5
3150.87499	3303.4
3153.21246	3318.8
3155.54853	3326.1
3157.88318	3317.8
3160.21642	3320.7
3162.54826	3326.5
3164.87868	3328.4
3167.2077	3325.8
3169.5353	3345.7
3171.86151	3335.6
3174.18631	3335.5
3176.5097	3350.6
3178.83169	3356.1
3181.15228	3347.4
3183.47147	3364.2
3185.78926	3359.1
3188.10565	3370.6
3190.42065	3369.8
3192.73424	3378.2
3195.04645	3376.6
3197.35725	3391.6
3199.66667	3384.7
3201.97469	3384.1
3204.28132	3397.3
3206.58656	3400.1
3208.8904	3412.9
3211.19287	3406.2
3213.49394	3418.1
3215.79363	3422
3218.09193	3422.4
3220.38884	3425.1
3222.68438	3451.9
3224.97853	3432.3
3227.2713	3417.8
3229.56269	3431.8
3231.8527	3420.9
3234.14133	3409.2
3236.42858	3401.1
3238.71446	3410.1
3240.99896	3400
3243.28209	3410.4
3245.56384	3408.1
3247.84423	3426.2
3250.12324	3414.8
3252.40088	3405.2
3254.67715	3394.3
3256.95205	3391.2
3259.22558	3405.4
3261.49775	3391.6
3263.76855	3402.6
3266.03799	3384.3
3268.30606	3368.1
3270.57277	3373.6
3272.83812	3381.7
3275.10211	3361.7
3277.36474	3364
3279.62601	3373.1
3281.88593	3367.9
3284.14448	3372.4
3286.40168	3381.3
3288.65753	3365.8
3290.91202	3364.2
3293.16516	3348.5
3295.41695	3353.1
3297.66738	3320.7
3299.91647	3319.7
3302.16421	3297.7
3304.4106	3284.4
3306.65564	3279.2
3308.89933	3263.4
3311.14169	3228
3313.38269	3213.9
3315.62236	3197.6
3317.86068	3163.8
3320.09766	3133.9
3322.3333	3107.6
3324.5676	3116.2
3326.80056	3083.3
3329.03219	3067.6
3331.26248	2.2
3333.49143	-1.1
3335.71905	0.4
