Data from AgNP_FTO_APTES_CRN_20uM_R6G_10uM_NaF_0.1M_Addition_RamanShift__28__17-33-08-040.txt Node

Date: Wed Dec 15 17:33:08 GMT 2021
User: TCL
Spectrometer: QEP01345
Trigger mode: 4
Integration Time (sec): 7.000000E0
Scans to average: 10
Electric dark correction enabled: true
Nonlinearity correction enabled: false
Boxcar width: 0
XAxis mode: Raman Shifts
Number of Pixels in Spectrum: 1044
>>>>>Begin Spectral Data<<<<<
46.04893	0.3875
50.45542	-2.0125
54.85868	-0.2125
59.25871	-0.4125
63.6555	62.1875
68.04907	67.4875
72.43941	68.7875
76.82654	75.9875
81.21044	78.8875
85.59113	82.4875
89.96862	86.5875
94.34289	84.6875
98.71396	90.8875
103.08183	96.4875
107.4465	95.9875
111.80798	96.5875
116.16626	100.1875
120.52136	103.2875
124.87327	104.7875
129.222	108.1875
133.56755	113.8875
137.90993	120.9875
142.24913	130.3875
146.58517	142.0875
150.91804	166.0875
155.24774	193.7875
159.57429	234.2875
163.89768	301.0875
168.21792	392.7875
172.53501	533.7875
176.84895	735.5875
181.15975	1025.4875
185.46741	1436.4875
189.77193	1987.3875
194.07331	2644.0875
198.37157	3416.4875
202.6667	4233.1875
206.9587	5036.5875
211.24758	5821.5875
215.53334	6621.6875
219.81599	7500.2875
224.09553	8448.5875
228.37195	9491.6875
232.64527	10670.0875
236.91549	11878.4875
241.18261	13092.5875
245.44663	14189.6875
249.70755	15142.8875
253.96539	16018.1875
258.22014	16725.5875
262.4718	17366.3875
266.72039	17838.5875
270.96589	18110.2875
275.20832	18152.4875
279.44768	18076.0875
283.68397	17918.7875
287.91719	17773.0875
292.14735	17733.2875
296.37445	17823.5875
300.59849	18054.0875
304.81948	18273.0875
309.03742	18390.3875
313.25231	18222.1875
317.46415	17710.9875
321.67296	16992.1875
325.87872	16362.9875
330.08145	16087.1875
334.28114	16102.3875
338.47781	16267.3875
342.67145	16541.4875
346.86207	16975.1875
351.04966	17529.9875
355.23424	18146.1875
359.4158	18644.9875
363.59435	18981.8875
367.76989	19105.8875
371.94243	19185.8875
376.11196	19227.8875
380.27849	19258.8875
384.44203	19205.1875
388.60257	19209.8875
392.76012	19243.3875
396.91468	19473.6875
401.06626	19789.8875
405.21485	20087.0875
409.36047	19976.3875
413.50311	19520.8875
417.64277	19062.6875
421.77947	18820.5875
425.9132	18774.2875
430.04396	18847.6875
434.17176	18958.4875
438.2966	19156.1875
442.41849	19437.6875
446.53742	19852.6875
450.6534	20326.2875
454.76644	20724.1875
458.87653	20920.8875
462.98368	20882.9875
467.08789	20675.0875
471.18916	20385.5875
475.2875	20045.1875
479.38291	19769.3875
483.4754	19562.2875
487.56496	19317.9875
491.6516	19138.6875
495.73531	18993.3875
499.81612	18992.0875
503.89401	19107.8875
507.96899	19203.9875
512.04106	19288.7875
516.11023	19443.0875
520.1765	19564.0875
524.23987	19584.5875
528.30034	19444.4875
532.35792	19223.1875
536.41261	18924.3875
540.46441	18658.9875
544.51333	18586.3875
548.55936	18684.5875
552.60252	18956.5875
556.64279	19260.9875
560.6802	19427.9875
564.71473	19502.0875
568.7464	19833.6875
572.7752	20117.2875
576.80114	20070.0875
580.82422	19954.0875
584.84444	19923.8875
588.86181	19994.5875
592.87633	20148.8875
596.888	20396.3875
600.89682	20888.8875
604.9028	22038.1875
608.90594	25018.4875
612.90624	28647.9875
616.90371	27647.6875
620.89834	22367.3875
624.89015	19947.2875
628.87913	19582.0875
632.86528	19515.5875
636.84862	19475.9875
640.82913	19183.4875
644.80683	18719.6875
648.78172	18395.0875
652.75379	18417.7875
656.72306	18741.5875
660.68952	19201.1875
664.65319	19194.4875
668.61405	18796.3875
672.57211	18553.2875
676.52738	18493.1875
680.47986	18541.6875
684.42955	18480.3875
688.37646	18456.2875
692.32058	18547.6875
696.26192	18673.0875
700.20048	18847.4875
704.13626	18970.6875
708.06928	18951.2875
711.99952	18827.8875
715.927	18777.4875
719.85171	18777.4875
723.77365	18738.7875
727.69284	18591.7875
731.60928	18446.6875
735.52295	18429.9875
739.43388	18466.1875
743.34206	18534.2875
747.24749	18606.4875
751.15017	18740.2875
755.05012	19006.8875
758.94733	19512.0875
762.8418	20583.6875
766.73354	22384.8875
770.62254	24285.3875
774.50882	25102.2875
778.39237	24122.8875
782.27321	22074.6875
786.15132	20244.1875
790.02671	19228.8875
793.89938	18720.7875
797.76935	18566.4875
801.6366	18485.4875
805.50115	18417.4875
809.36299	18325.5875
813.22213	18277.9875
817.07857	18254.1875
820.93231	18272.7875
824.78336	18316.9875
828.63172	18357.2875
832.47738	18428.0875
836.32036	18445.5875
840.16066	18505.7875
843.99827	18500.5875
847.8332	18418.2875
851.66546	18361.4875
855.49504	18324.4875
859.32195	18301.3875
863.1462	18216.6875
866.96777	18134.4875
870.78668	18115.5875
874.60293	18128.3875
878.41652	18150.1875
882.22745	18184.4875
886.03573	18210.6875
889.84136	18193.2875
893.64433	18130.2875
897.44466	18081.6875
901.24235	18055.7875
905.0374	18021.8875
908.8298	18052.3875
912.61957	18039.9875
916.40671	18133.8875
920.19121	18318.8875
923.97308	18441.0875
927.75233	18546.2875
931.52895	18628.4875
935.30295	18521.3875
939.07433	18214.6875
942.84309	17918.2875
946.60924	17803.4875
950.37278	17733.0875
954.13371	17608.2875
957.89203	17511.6875
961.64774	17452.0875
965.40086	17398.5875
969.15137	17343.8875
972.89929	17326.9875
976.64461	17302.3875
980.38733	17291.8875
984.12747	17362.3875
987.86502	17480.6875
991.59999	17642.0875
995.33237	17918.7875
999.06217	18371.7875
1002.78939	18902.4875
1006.51404	19187.9875
1010.23611	19371.7875
1013.95561	19574.1875
1017.67255	19579.1875
1021.38692	19413.4875
1025.09872	19317.6875
1028.80796	19479.5875
1032.51465	19996.3875
1036.21877	20426.3875
1039.92035	20482.0875
1043.61937	20226.3875
1047.31584	19816.1875
1051.00976	19408.2875
1054.70114	19160.6875
1058.38998	19127.7875
1062.07627	19277.4875
1065.76003	19463.2875
1069.44126	19715.6875
1073.11995	20071.3875
1076.79611	20423.3875
1080.46974	20564.4875
1084.14085	20635.7875
1087.80943	20578.9875
1091.47549	20413.7875
1095.13903	20007.5875
1098.80005	19577.3875
1102.45857	19138.2875
1106.11456	18953.9875
1109.76805	19020.9875
1113.41903	19158.2875
1117.06751	19422.9875
1120.71348	19762.0875
1124.35696	20067.6875
1127.99793	20362.5875
1131.63641	20427.7875
1135.2724	20078.8875
1138.90589	19689.3875
1142.5369	19415.6875
1146.16542	19206.5875
1149.79145	19134.5875
1153.415	19194.0875
1157.03607	19310.2875
1160.65467	19620.3875
1164.27079	20082.8875
1167.88443	20823.8875
1171.49561	21936.4875
1175.10432	23632.7875
1178.71056	25814.8875
1182.31434	27645.1875
1185.91565	28368.0875
1189.51451	28103.2875
1193.11091	26971.9875
1196.70485	25464.8875
1200.29634	24252.1875
1203.88538	23378.4875
1207.47197	22580.7875
1211.05612	21939.9875
1214.63782	21561.7875
1218.21708	21436.0875
1221.79391	21463.8875
1225.36829	21559.7875
1228.94024	21532.8875
1232.50976	21453.9875
1236.07685	21358.8875
1239.6415	21352.2875
1243.20374	21402.4875
1246.76355	21541.1875
1250.32093	21824.3875
1253.8759	22220.4875
1257.42845	22777.7875
1260.97859	23262.2875
1264.52631	23664.4875
1268.07163	24111.9875
1271.61453	24594.5875
1275.15503	25114.7875
1278.69312	25570.2875
1282.22882	25944.5875
1285.76211	26319.8875
1289.29301	26742.9875
1292.82151	27274.9875
1296.34761	27975.5875
1299.87133	28974.9875
1303.39266	30492.4875
1306.9116	32662.1875
1310.42815	35062.5875
1313.94233	36593.1875
1317.45412	36510.5875
1320.96354	35296.8875
1324.47058	33811.2875
1327.97525	32432.5875
1331.47754	31558.4875
1334.97747	31316.5875
1338.47502	31495.0875
1341.97022	31953.9875
1345.46305	32272.5875
1348.95352	32554.6875
1352.44163	33091.7875
1355.92738	34419.7875
1359.41078	37094.6875
1362.89183	39804.8875
1366.37053	39278.0875
1369.84688	35408.7875
1373.32088	31189.8875
1376.79254	28390.6875
1380.26186	27028.6875
1383.72883	26384.9875
1387.19347	25856.6875
1390.65578	25372.5875
1394.11575	24997.2875
1397.57339	24973.4875
1401.0287	25158.9875
1404.48168	25508.2875
1407.93234	25882.2875
1411.38068	26106.2875
1414.82669	25907.7875
1418.27039	25380.9875
1421.71177	24682.1875
1425.15083	24124.5875
1428.58758	23739.1875
1432.02203	23737.6875
1435.45416	23865.2875
1438.88399	24057.0875
1442.31151	24218.9875
1445.73673	24384.5875
1449.15965	24548.9875
1452.58027	24618.9875
1455.9986	24551.8875
1459.41463	24569.8875
1462.82837	24801.4875
1466.23982	25169.1875
1469.64898	25617.4875
1473.05586	25998.5875
1476.46045	26197.0875
1479.86276	26413.4875
1483.26279	26644.2875
1486.66054	26925.2875
1490.05602	27338.7875
1493.44922	27879.5875
1496.84016	28494.8875
1500.22882	29432.2875
1503.61521	30773.6875
1506.99934	32555.2875
1510.38121	34340.1875
1513.76081	35391.9875
1517.13816	34690.2875
1520.51324	32521.4875
1523.88607	30187.0875
1527.25665	28432.9875
1530.62498	27344.6875
1533.99105	26765.6875
1537.35488	26420.3875
1540.71647	26176.7875
1544.07581	25975.9875
1547.4329	25796.5875
1550.78776	25578.0875
1554.14038	25496.6875
1557.49077	25557.4875
1560.83892	25734.7875
1564.18484	25970.7875
1567.52853	26225.2875
1570.86999	26550.2875
1574.20922	26932.6875
1577.54624	27301.6875
1580.88103	27307.6875
1584.2136	26851.1875
1587.54395	26625.4875
1590.87208	26831.3875
1594.19801	27717.5875
1597.52172	29098.9875
1600.84321	29711.9875
1604.16251	28904.6875
1607.47959	27217.6875
1610.79447	25377.3875
1614.10715	23744.7875
1617.41763	22347.2875
1620.7259	21518.6875
1624.03199	21076.7875
1627.33587	21064.9875
1630.63757	21483.0875
1633.93707	22333.4875
1637.23439	23527.2875
1640.52951	25063.5875
1643.82246	26843.9875
1647.11321	28598.0875
1650.40179	29599.8875
1653.68819	28872.0875
1656.97241	26213.1875
1660.25446	23283.0875
1663.53433	21106.1875
1666.81203	19636.5875
1670.08756	18810.6875
1673.36092	18253.6875
1676.63211	17904.3875
1679.90115	17624.3875
1683.16801	17435.8875
1686.43272	17295.8875
1689.69527	17216.4875
1692.95567	17143.6875
1696.2139	17081.3875
1699.46999	17066.6875
1702.72392	17081.7875
1705.97571	17052.1875
1709.22535	17023.2875
1712.47284	16996.5875
1715.71819	16978.9875
1718.96139	16980.9875
1722.20246	16956.8875
1725.44139	16898.1875
1728.67818	16826.5875
1731.91284	16745.0875
1735.14537	16663.3875
1738.37576	16598.9875
1741.60403	16562.6875
1744.83017	16544.4875
1748.05418	16505.9875
1751.27607	16519.3875
1754.49584	16480.5875
1757.71349	16485.9875
1760.92903	16456.2875
1764.14244	16458.9875
1767.35375	16480.6875
1770.56294	16440.0875
1773.77002	16436.6875
1776.97499	16450.6875
1780.17785	16398.6875
1783.37861	16382.7875
1786.57727	16331.5875
1789.77382	16318.1875
1792.96828	16312.0875
1796.16064	16307.0875
1799.3509	16243.5875
1802.53907	16220.8875
1805.72514	16178.3875
1808.90913	16197.3875
1812.09102	16134.4875
1815.27083	16108.5875
1818.44856	16106.5875
1821.6242	16075.0875
1824.79776	16071.4875
1827.96924	16072.0875
1831.13864	16056.9875
1834.30597	16058.6875
1837.47122	16046.1875
1840.6344	16036.9875
1843.7955	16042.1875
1846.95454	16053.9875
1850.11151	16022.7875
1853.26642	16012.2875
1856.41926	16027.7875
1859.57004	16033.3875
1862.71876	16021.1875
1865.86542	16023.7875
1869.01003	16035.6875
1872.15258	16019.2875
1875.29308	15984.2875
1878.43152	16000.7875
1881.56792	16000.1875
1884.70227	15987.1875
1887.83457	16013.7875
1890.96482	15938.4875
1894.09304	15988.5875
1897.21921	15957.5875
1900.34335	15988.7875
1903.46544	15937.8875
1906.58551	15970.7875
1909.70353	15928.4875
1912.81953	15913.5875
1915.93349	15888.0875
1919.04543	15906.0875
1922.15534	15920.9875
1925.26322	15886.8875
1928.36908	15839.3875
1931.47292	15786.7875
1934.57473	15752.7875
1937.67453	15721.8875
1940.77232	15679.1875
1943.86808	15642.6875
1946.96184	15590.2875
1950.05358	15569.4875
1953.14331	15488.0875
1956.23103	15470.8875
1959.31675	15458.7875
1962.40046	15413.6875
1965.48217	15346.6875
1968.56188	15329.7875
1971.63959	15258.8875
1974.7153	15198.6875
1977.78901	15176.9875
1980.86073	15115.6875
1983.93046	15084.6875
1986.99819	15035.1875
1990.06394	15017.7875
1993.1277	14933.4875
1996.18947	14929.7875
1999.24925	14852.8875
2002.30706	14844.4875
2005.36288	14805.7875
2008.41672	14749.0875
2011.46859	14722.1875
2014.51848	14704.3875
2017.56639	14650.8875
2020.61233	14617.9875
2023.6563	14581.8875
2026.6983	14555.4875
2029.73833	14529.0875
2032.7764	14555.7875
2035.8125	14481.5875
2038.84664	14457.4875
2041.87881	14447.6875
2044.90903	14388.9875
2047.93729	14375.1875
2050.96359	14403.1875
2053.98794	14390.8875
2057.01034	14363.1875
2060.03078	14328.2875
2063.04927	14322.1875
2066.06582	14342.5875
2069.08042	14315.2875
2072.09307	14301.7875
2075.10378	14293.5875
2078.11255	14257.9875
2081.11938	14248.3875
2084.12426	14236.3875
2087.12722	14263.6875
2090.12824	14269.6875
2093.12732	14263.0875
2096.12447	14295.7875
2099.11969	14245.8875
2102.11299	14254.1875
2105.10435	14269.8875
2108.09379	14296.4875
2111.08131	14307.4875
2114.0669	14310.1875
2117.05057	14338.5875
2120.03233	14292.1875
2123.01216	14331.6875
2125.99008	14323.7875
2128.96609	14318.9875
2131.94018	14389.0875
2134.91236	14358.2875
2137.88263	14407.2875
2140.851	14385.3875
2143.81746	14436.2875
2146.78201	14409.7875
2149.74466	14444.6875
2152.7054	14439.9875
2155.66425	14438.8875
2158.6212	14455.7875
2161.57625	14467.2875
2164.52941	14437.5875
2167.48067	14448.7875
2170.43004	14422.3875
2173.37752	14425.8875
2176.32311	14424.9875
2179.26681	14405.2875
2182.20863	14408.8875
2185.14856	14422.7875
2188.08661	14427.4875
2191.02278	14427.6875
2193.95707	14424.6875
2196.88948	14387.2875
2199.82001	14424.2875
2202.74867	14397.1875
2205.67545	14409.2875
2208.60037	14399.9875
2211.52341	14370.3875
2214.44458	14396.1875
2217.36388	14365.5875
2220.28132	14310.6875
2223.1969	14294.2875
2226.11061	14290.5875
2229.02246	14295.8875
2231.93245	14257.3875
2234.84058	14253.1875
2237.74686	14211.8875
2240.65128	14192.9875
2243.55385	14151.2875
2246.45456	14144.5875
2249.35343	14125.5875
2252.25044	14125.3875
2255.14561	14081.4875
2258.03893	14089.5875
2260.93041	14076.4875
2263.82004	14050.9875
2266.70783	14026.7875
2269.59378	13996.6875
2272.4779	13945.3875
2275.36017	13919.9875
2278.24061	13885.7875
2281.11922	13862.0875
2283.996	13844.4875
2286.87094	13821.2875
2289.74405	13809.8875
2292.61534	13811.3875
2295.4848	13767.1875
2298.35243	13795.1875
2301.21824	13783.8875
2304.08223	13785.2875
2306.94439	13779.6875
2309.80474	13766.9875
2312.66327	13788.5875
2315.51999	13794.1875
2318.37489	13786.1875
2321.22797	13787.1875
2324.07925	13759.7875
2326.92871	13738.3875
2329.77637	13755.0875
2332.62222	13705.5875
2335.46626	13737.9875
2338.3085	13715.7875
2341.14893	13733.6875
2343.98756	13708.7875
2346.8244	13730.0875
2349.65943	13713.9875
2352.49267	13715.6875
2355.32411	13714.2875
2358.15376	13713.8875
2360.98161	13687.5875
2363.80768	13729.1875
2366.63195	13689.5875
2369.45444	13647.2875
2372.27514	13624.7875
2375.09405	13614.3875
2377.91118	13582.6875
2380.72652	13539.6875
2383.54009	13518.2875
2386.35187	13489.2875
2389.16188	13460.0875
2391.97011	13460.8875
2394.77657	13451.9875
2397.58125	13396.3875
2400.38416	13375.6875
2403.18529	13347.3875
2405.98466	13356.0875
2408.78226	13314.3875
2411.57809	13302.4875
2414.37216	13268.4875
2417.16446	13277.9875
2419.955	13243.7875
2422.74378	13240.2875
2425.5308	13210.8875
2428.31606	13204.9875
2431.09956	13190.4875
2433.88131	13155.9875
2436.6613	13169.6875
2439.43954	13162.8875
2442.21603	13132.1875
2444.99077	13108.6875
2447.76377	13127.9875
2450.53501	13128.2875
2453.30451	13111.6875
2456.07226	13089.1875
2458.83827	13108.9875
2461.60254	13077.3875
2464.36507	13091.9875
2467.12586	13093.6875
2469.88492	13073.2875
2472.64224	13098.2875
2475.39782	13066.7875
2478.15167	13087.3875
2480.90379	13091.3875
2483.65417	13102.5875
2486.40283	13089.2875
2489.14976	13135.9875
2491.89497	13115.3875
2494.63845	13143.1875
2497.3802	13145.0875
2500.12024	13108.4875
2502.85855	13105.0875
2505.59514	13119.3875
2508.33002	13085.9875
2511.06318	13055.4875
2513.79462	13048.5875
2516.52435	13026.5875
2519.25237	13016.7875
2521.97867	12969.0875
2524.70327	12974.5875
2527.42616	12980.1875
2530.14734	12968.5875
2532.86681	12948.0875
2535.58458	12955.0875
2538.30065	12912.9875
2541.01501	12926.2875
2543.72768	12918.6875
2546.43864	12903.7875
2549.14791	12860.2875
2551.85548	12860.2875
2554.56136	12846.3875
2557.26554	12815.1875
2559.96803	12813.2875
2562.66883	12817.7875
2565.36794	12832.8875
2568.06536	12806.6875
2570.7611	12804.8875
2573.45514	12795.5875
2576.14751	12754.3875
2578.83819	12760.3875
2581.52719	12741.0875
2584.21451	12744.1875
2586.90015	12767.9875
2589.58411	12709.3875
2592.2664	12714.4875
2594.94701	12687.7875
2597.62594	12682.0875
2600.30321	12657.5875
2602.9788	12671.7875
2605.65273	12636.0875
2608.32498	12635.2875
2610.99557	12610.4875
2613.66449	12609.6875
2616.33175	12602.3875
2618.99734	12627.5875
2621.66128	12626.2875
2624.32355	12606.9875
2626.98416	12613.2875
2629.64311	12603.4875
2632.30041	12593.4875
2634.95605	12611.5875
2637.61004	12580.4875
2640.26238	12554.5875
2642.91306	12529.7875
2645.56209	12554.0875
2648.20948	12492.2875
2650.85521	12490.0875
2653.4993	12486.4875
2656.14175	12487.9875
2658.78255	12494.4875
2661.42171	12495.7875
2664.05923	12505.7875
2666.6951	12506.8875
2669.32934	12538.4875
2671.96194	12546.2875
2674.59291	12521.4875
2677.22224	12501.8875
2679.84993	12556.6875
2682.476	12530.5875
2685.10043	12536.5875
2687.72324	12513.3875
2690.34441	12507.5875
2692.96396	12507.8875
2695.58188	12519.8875
2698.19818	12474.4875
2700.81285	12519.5875
2703.4259	12508.4875
2706.03733	12567.0875
2708.64714	12547.1875
2711.25533	12549.8875
2713.86191	12548.1875
2716.46687	12544.6875
2719.07021	12554.0875
2721.67194	12536.4875
2724.27206	12525.8875
2726.87057	12512.4875
2729.46747	12536.1875
2732.06276	12530.7875
2734.65644	12527.9875
2737.24852	12551.3875
2739.83899	12540.1875
2742.42786	12531.0875
2745.01513	12480.8875
2747.60079	12486.7875
2750.18486	12488.6875
2752.76733	12512.7875
2755.3482	12493.3875
2757.92747	12471.6875
2760.50515	12479.5875
2763.08123	12462.9875
2765.65573	12419.2875
2768.22863	12448.0875
2770.79994	12406.1875
2773.36967	12419.5875
2775.9378	12416.8875
2778.50435	12384.0875
2781.06932	12367.3875
2783.6327	12394.8875
2786.1945	12373.8875
2788.75471	12346.3875
2791.31335	12333.2875
2793.87041	12304.6875
2796.42589	12276.4875
2798.97979	12279.4875
2801.53212	12265.7875
2804.08288	12234.7875
2806.63206	12223.3875
2809.17967	12187.5875
2811.72571	12165.7875
2814.27018	12161.2875
2816.81308	12142.1875
2819.35442	12143.1875
2821.89419	12125.1875
2824.43239	12134.1875
2826.96904	12148.1875
2829.50412	12135.0875
2832.03763	12092.3875
2834.56959	12108.0875
2837.1	12082.6875
2839.62884	12103.7875
2842.15613	12102.7875
2844.68186	12098.6875
2847.20604	12092.2875
2849.72867	12102.1875
2852.24974	12078.1875
2854.76927	12089.7875
2857.28724	12091.4875
2859.80367	12069.1875
2862.31855	12021.1875
2864.83189	12042.0875
2867.34368	12010.3875
2869.85393	12017.4875
2872.36264	12016.2875
2874.8698	12038.1875
2877.37543	12017.9875
2879.87952	12036.0875
2882.38207	12016.3875
2884.88308	12036.6875
2887.38256	12048.7875
2889.88051	12047.0875
2892.37692	12016.7875
2894.8718	12037.9875
2897.36515	12011.5875
2899.85698	12037.2875
2902.34727	12025.2875
2904.83604	12053.6875
2907.32328	12062.1875
2909.809	12038.6875
2912.29319	12068.7875
2914.77587	12079.5875
2917.25702	12076.9875
2919.73665	12048.6875
2922.21476	12058.7875
2924.69136	12046.1875
2927.16644	12051.5875
2929.64	12036.2875
2932.11205	12029.4875
2934.58258	11967.6875
2937.05161	12016.9875
2939.51912	12018.4875
2941.98513	11999.5875
2944.44962	11980.1875
2946.91261	11903.5875
2949.37409	11965.4875
2951.83407	11945.6875
2954.29254	11943.3875
2956.74951	11922.8875
2959.20498	11929.3875
2961.65895	11921.3875
2964.11142	11894.1875
2966.56239	11874.5875
2969.01186	11863.5875
2971.45984	11832.8875
2973.90632	11829.9875
2976.35131	11774.9875
2978.7948	11752.0875
2981.23681	11727.6875
2983.67732	11709.4875
2986.11635	11725.1875
2988.55388	11675.0875
2990.98993	11662.7875
2993.4245	11656.9875
2995.85758	11622.0875
2998.28917	11613.5875
3000.71928	11612.8875
3003.14791	11566.1875
3005.57506	11563.3875
3008.00073	11535.3875
3010.42493	11555.7875
3012.84764	11507.4875
3015.26888	11511.3875
3017.68865	11472.7875
3020.10694	11471.4875
3022.52376	11435.4875
3024.9391	11462.5875
