Data from AgNP_FTO_APTES_CRN_20uM_R6G_10uM_NaF_0.1M_Addition_RamanShift__2__17-02-48-005.txt Node

Date: Wed Dec 15 17:02:48 GMT 2021
User: TCL
Spectrometer: QEP01345
Trigger mode: 4
Integration Time (sec): 7.000000E0
Scans to average: 10
Electric dark correction enabled: true
Nonlinearity correction enabled: false
Boxcar width: 0
XAxis mode: Raman Shifts
Number of Pixels in Spectrum: 1044
>>>>>Begin Spectral Data<<<<<
46.04893	1.4125
50.45542	-2.8875
54.85868	-1.4875
59.25871	-0.6875
63.6555	66.6125
68.04907	78.1125
72.43941	80.4125
76.82654	81.2125
81.21044	89.5125
85.59113	89.0125
89.96862	96.8125
94.34289	95.4125
98.71396	101.3125
103.08183	107.7125
107.4465	108.8125
111.80798	105.9125
116.16626	112.6125
120.52136	114.5125
124.87327	119.9125
129.222	124.3125
133.56755	128.3125
137.90993	136.3125
142.24913	148.1125
146.58517	164.1125
150.91804	187.1125
155.24774	220.2125
159.57429	271.0125
163.89768	343.9125
168.21792	447.6125
172.53501	608.4125
176.84895	847.2125
181.15975	1184.0125
185.46741	1661.0125
189.77193	2295.7125
194.07331	3071.5125
198.37157	3953.5125
202.6667	4880.4125
206.9587	5819.4125
211.24758	6738.5125
215.53334	7662.8125
219.81599	8612.3125
224.09553	9687.6125
228.37195	10873.2125
232.64527	12175.4125
236.91549	13543.4125
241.18261	14907.6125
245.44663	16177.5125
249.70755	17338.4125
253.96539	18323.6125
258.22014	19165.7125
262.4718	19844.5125
266.72039	20340.5125
270.96589	20572.6125
275.20832	20562.8125
279.44768	20393.0125
283.68397	20151.2125
287.91719	19903.3125
292.14735	19785.5125
296.37445	19756.0125
300.59849	19828.7125
304.81948	19913.9125
309.03742	20005.6125
313.25231	19997.0125
317.46415	19722.3125
321.67296	19384.3125
325.87872	19027.2125
330.08145	18835.3125
334.28114	18808.5125
338.47781	18946.7125
342.67145	19179.4125
346.86207	19506.1125
351.04966	19943.2125
355.23424	20333.2125
359.4158	20648.6125
363.59435	20878.8125
367.76989	21025.2125
371.94243	21068.8125
376.11196	21131.7125
380.27849	21184.4125
384.44203	21294.6125
388.60257	21431.3125
392.76012	21658.4125
396.91468	21876.6125
401.06626	22168.6125
405.21485	22416.1125
409.36047	22373.0125
413.50311	22134.9125
417.64277	21932.2125
421.77947	21878.8125
425.9132	21999.4125
430.04396	22105.2125
434.17176	22183.1125
438.2966	22298.1125
442.41849	22657.2125
446.53742	23258.8125
450.6534	23931.9125
454.76644	24400.4125
458.87653	24410.2125
462.98368	24153.6125
467.08789	23819.9125
471.18916	23427.0125
475.2875	22994.0125
479.38291	22683.5125
483.4754	22435.1125
487.56496	22224.2125
491.6516	22068.0125
495.73531	21912.2125
499.81612	21930.3125
503.89401	22098.2125
507.96899	22232.9125
512.04106	22222.7125
516.11023	22193.4125
520.1765	22144.9125
524.23987	22121.9125
528.30034	22032.0125
532.35792	21889.5125
536.41261	21602.2125
540.46441	21282.3125
544.51333	21219.6125
548.55936	21314.5125
552.60252	21705.3125
556.64279	22191.4125
560.6802	22536.3125
564.71473	22627.7125
568.7464	22704.9125
572.7752	23084.3125
576.80114	23489.9125
580.82422	24091.3125
584.84444	24928.5125
588.86181	25941.1125
592.87633	26831.7125
596.888	26925.5125
600.89682	26058.0125
604.9028	25843.0125
608.90594	27434.6125
612.90624	29457.8125
616.90371	28079.1125
620.89834	24095.6125
624.89015	22224.6125
628.87913	21969.1125
632.86528	21991.6125
636.84862	21920.0125
640.82913	21596.4125
644.80683	21168.2125
648.78172	20874.7125
652.75379	20889.5125
656.72306	21104.7125
660.68952	21384.6125
664.65319	21277.1125
668.61405	20998.5125
672.57211	20926.9125
676.52738	20988.1125
680.47986	21000.9125
684.42955	20818.0125
688.37646	20762.3125
692.32058	20936.3125
696.26192	21208.7125
700.20048	21511.9125
704.13626	21659.6125
708.06928	21638.6125
711.99952	21554.7125
715.927	21526.0125
719.85171	21592.8125
723.77365	21553.4125
727.69284	21255.1125
731.60928	21016.7125
735.52295	20894.9125
739.43388	20924.3125
743.34206	20969.4125
747.24749	21059.2125
751.15017	21211.5125
755.05012	21503.2125
758.94733	22033.9125
762.8418	22957.6125
766.73354	24386.7125
770.62254	25842.1125
774.50882	26180.7125
778.39237	25261.8125
782.27321	23787.4125
786.15132	22493.3125
790.02671	21659.5125
793.89938	21256.7125
797.76935	21123.0125
801.6366	21075.7125
805.50115	20987.9125
809.36299	20932.0125
813.22213	20748.4125
817.07857	20667.1125
820.93231	20594.5125
824.78336	20528.0125
828.63172	20547.1125
832.47738	20574.9125
836.32036	20634.7125
840.16066	20717.0125
843.99827	20720.9125
847.8332	20675.5125
851.66546	20578.3125
855.49504	20579.6125
859.32195	20554.9125
863.1462	20537.1125
866.96777	20472.1125
870.78668	20450.1125
874.60293	20461.6125
878.41652	20509.6125
882.22745	20586.0125
886.03573	20655.6125
889.84136	20617.3125
893.64433	20586.2125
897.44466	20471.4125
901.24235	20382.1125
905.0374	20315.1125
908.8298	20308.9125
912.61957	20317.8125
916.40671	20469.6125
920.19121	20668.4125
923.97308	20848.1125
927.75233	20950.3125
931.52895	20922.5125
935.30295	20719.9125
939.07433	20419.3125
942.84309	20163.5125
946.60924	20121.6125
950.37278	20061.2125
954.13371	20034.8125
957.89203	19899.4125
961.64774	19913.5125
965.40086	19870.5125
969.15137	19878.2125
972.89929	19800.2125
976.64461	19822.8125
980.38733	19879.8125
984.12747	19956.5125
987.86502	20092.0125
991.59999	20266.2125
995.33237	20526.1125
999.06217	21006.6125
1002.78939	21535.6125
1006.51404	21897.6125
1010.23611	22224.8125
1013.95561	22432.7125
1017.67255	22423.1125
1021.38692	22238.2125
1025.09872	21908.4125
1028.80796	21865.8125
1032.51465	22204.4125
1036.21877	22645.4125
1039.92035	22826.9125
1043.61937	22669.3125
1047.31584	22372.4125
1051.00976	22026.5125
1054.70114	21873.9125
1058.38998	21922.9125
1062.07627	22117.5125
1065.76003	22421.9125
1069.44126	22850.1125
1073.11995	23383.2125
1076.79611	23765.9125
1080.46974	23806.5125
1084.14085	23728.5125
1087.80943	23640.1125
1091.47549	23524.2125
1095.13903	23332.2125
1098.80005	22959.0125
1102.45857	22511.0125
1106.11456	22160.0125
1109.76805	22034.5125
1113.41903	22064.0125
1117.06751	22176.8125
1120.71348	22307.6125
1124.35696	22535.5125
1127.99793	22776.1125
1131.63641	22867.0125
1135.2724	22756.7125
1138.90589	22587.2125
1142.5369	22543.1125
1146.16542	22532.1125
1149.79145	22560.2125
1153.415	22670.9125
1157.03607	22825.7125
1160.65467	23285.1125
1164.27079	24096.0125
1167.88443	25201.2125
1171.49561	26539.4125
1175.10432	28294.5125
1178.71056	30487.4125
1182.31434	32553.3125
1185.91565	33509.1125
1189.51451	33138.9125
1193.11091	32088.7125
1196.70485	30762.7125
1200.29634	29603.9125
1203.88538	28749.5125
1207.47197	28149.7125
1211.05612	27659.2125
1214.63782	27199.9125
1218.21708	26782.0125
1221.79391	26422.4125
1225.36829	26210.4125
1228.94024	26058.0125
1232.50976	25709.2125
1236.07685	25263.2125
1239.6415	24984.7125
1243.20374	24990.4125
1246.76355	25166.2125
1250.32093	25509.5125
1253.8759	26019.5125
1257.42845	26636.6125
1260.97859	27376.8125
1264.52631	28057.2125
1268.07163	28834.9125
1271.61453	29656.6125
1275.15503	30448.2125
1278.69312	31116.0125
1282.22882	31704.4125
1285.76211	32371.8125
1289.29301	33218.4125
1292.82151	34303.5125
1296.34761	35660.1125
1299.87133	37539.4125
1303.39266	39765.1125
1306.9116	42093.0125
1310.42815	44291.5125
1313.94233	45528.9125
1317.45412	45192.6125
1320.96354	43880.3125
1324.47058	42456.3125
1327.97525	41289.2125
1331.47754	40522.2125
1334.97747	40037.2125
1338.47502	39702.9125
1341.97022	39304.6125
1345.46305	38939.7125
1348.95352	38795.7125
1352.44163	39348.1125
1355.92738	40782.2125
1359.41078	43066.7125
1362.89183	44865.7125
1366.37053	44115.7125
1369.84688	40710.2125
1373.32088	36394.8125
1376.79254	33403.6125
1380.26186	32176.2125
1383.72883	31933.4125
1387.19347	31683.1125
1390.65578	31154.4125
1394.11575	30890.5125
1397.57339	30947.4125
1401.0287	31318.5125
1404.48168	31588.6125
1407.93234	31615.3125
1411.38068	31398.6125
1414.82669	30862.5125
1418.27039	29980.7125
1421.71177	29106.6125
1425.15083	28302.6125
1428.58758	27938.5125
1432.02203	28254.2125
1435.45416	28874.0125
1438.88399	29601.9125
1442.31151	30066.6125
1445.73673	30268.7125
1449.15965	30374.5125
1452.58027	30257.2125
1455.9986	30112.9125
1459.41463	30196.2125
1462.82837	30613.7125
1466.23982	31309.7125
1469.64898	31928.4125
1473.05586	32341.8125
1476.46045	32563.2125
1479.86276	32487.7125
1483.26279	32321.7125
1486.66054	32297.7125
1490.05602	32563.1125
1493.44922	32949.1125
1496.84016	33365.6125
1500.22882	34013.4125
1503.61521	34999.6125
1506.99934	36238.8125
1510.38121	37196.9125
1513.76081	37250.5125
1517.13816	36238.5125
1520.51324	34617.7125
1523.88607	33243.8125
1527.25665	32401.9125
1530.62498	32133.7125
1533.99105	32033.3125
1537.35488	31810.7125
1540.71647	31398.2125
1544.07581	30859.0125
1547.4329	30280.2125
1550.78776	29703.9125
1554.14038	29268.3125
1557.49077	29061.6125
1560.83892	28956.9125
1564.18484	29079.2125
1567.52853	29367.1125
1570.86999	29853.8125
1574.20922	30537.4125
1577.54624	31184.5125
1580.88103	31519.1125
1584.2136	31553.2125
1587.54395	31852.5125
1590.87208	32714.3125
1594.19801	34266.9125
1597.52172	36039.3125
1600.84321	36887.0125
1604.16251	35739.8125
1607.47959	33170.5125
1610.79447	30346.2125
1614.10715	27847.9125
1617.41763	25941.7125
1620.7259	24667.4125
1624.03199	24134.0125
1627.33587	24134.0125
1630.63757	24714.5125
1633.93707	25970.4125
1637.23439	28092.9125
1640.52951	31234.2125
1643.82246	35077.9125
1647.11321	38196.5125
1650.40179	38857.9125
1653.68819	36384.6125
1656.97241	31932.2125
1660.25446	27715.2125
1663.53433	24739.1125
1666.81203	22820.9125
1670.08756	21642.0125
1673.36092	20923.3125
1676.63211	20414.5125
1679.90115	20098.4125
1683.16801	19817.4125
1686.43272	19672.0125
1689.69527	19507.6125
1692.95567	19435.0125
1696.2139	19355.8125
1699.46999	19368.1125
1702.72392	19302.0125
1705.97571	19257.8125
1709.22535	19197.2125
1712.47284	19184.2125
1715.71819	19160.2125
1718.96139	19160.3125
1722.20246	19076.1125
1725.44139	19012.1125
1728.67818	18940.3125
1731.91284	18857.4125
1735.14537	18760.0125
1738.37576	18674.0125
1741.60403	18635.3125
1744.83017	18615.7125
1748.05418	18571.7125
1751.27607	18517.6125
1754.49584	18515.6125
1757.71349	18490.0125
1760.92903	18516.3125
1764.14244	18485.4125
1767.35375	18488.1125
1770.56294	18469.2125
1773.77002	18456.0125
1776.97499	18468.0125
1780.17785	18400.1125
1783.37861	18358.9125
1786.57727	18331.8125
1789.77382	18293.2125
1792.96828	18271.0125
1796.16064	18237.3125
1799.3509	18197.8125
1802.53907	18160.7125
1805.72514	18114.3125
1808.90913	18101.1125
1812.09102	18052.6125
1815.27083	18005.3125
1818.44856	17995.5125
1821.6242	18001.8125
1824.79776	17969.2125
1827.96924	17958.6125
1831.13864	17952.6125
1834.30597	17999.0125
1837.47122	17978.8125
1840.6344	17934.1125
1843.7955	17940.3125
1846.95454	17947.6125
1850.11151	17918.7125
1853.26642	17942.0125
1856.41926	17931.4125
1859.57004	17906.0125
1862.71876	17898.3125
1865.86542	17881.0125
1869.01003	17890.5125
1872.15258	17867.8125
1875.29308	17876.9125
1878.43152	17815.1125
1881.56792	17815.2125
1884.70227	17753.0125
1887.83457	17765.4125
1890.96482	17756.9125
1894.09304	17729.4125
1897.21921	17736.0125
1900.34335	17755.7125
1903.46544	17700.1125
1906.58551	17679.7125
1909.70353	17653.1125
1912.81953	17642.3125
1915.93349	17620.7125
1919.04543	17572.7125
1922.15534	17549.0125
1925.26322	17543.1125
1928.36908	17486.6125
1931.47292	17452.6125
1934.57473	17438.8125
1937.67453	17405.2125
1940.77232	17360.5125
1943.86808	17331.9125
1946.96184	17307.8125
1950.05358	17271.7125
1953.14331	17209.4125
1956.23103	17189.9125
1959.31675	17128.4125
1962.40046	17097.5125
1965.48217	17054.7125
1968.56188	17004.6125
1971.63959	16978.8125
1974.7153	16888.1125
1977.78901	16867.5125
1980.86073	16821.7125
1983.93046	16748.3125
1986.99819	16729.5125
1990.06394	16712.4125
1993.1277	16653.6125
1996.18947	16591.0125
1999.24925	16554.9125
2002.30706	16496.8125
2005.36288	16466.8125
2008.41672	16448.7125
2011.46859	16350.4125
2014.51848	16336.1125
2017.56639	16297.6125
2020.61233	16260.0125
2023.6563	16239.1125
2026.6983	16225.2125
2029.73833	16196.2125
2032.7764	16179.7125
2035.8125	16158.3125
2038.84664	16093.9125
2041.87881	16122.6125
2044.90903	16035.1125
2047.93729	16003.7125
2050.96359	16044.0125
2053.98794	16020.2125
2057.01034	16001.3125
2060.03078	15992.5125
2063.04927	15951.4125
2066.06582	15980.6125
2069.08042	15954.5125
2072.09307	15945.0125
2075.10378	15924.2125
2078.11255	15907.5125
2081.11938	15951.4125
2084.12426	15937.0125
2087.12722	15949.8125
2090.12824	15917.2125
2093.12732	15919.6125
2096.12447	15961.5125
2099.11969	15969.7125
2102.11299	15958.4125
2105.10435	15938.6125
2108.09379	15969.3125
2111.08131	16003.8125
2114.0669	16008.8125
2117.05057	16026.7125
2120.03233	16017.6125
2123.01216	16035.1125
2125.99008	16024.7125
2128.96609	16075.8125
2131.94018	16108.7125
2134.91236	16125.4125
2137.88263	16131.6125
2140.851	16163.3125
2143.81746	16165.3125
2146.78201	16172.4125
2149.74466	16163.9125
2152.7054	16183.6125
2155.66425	16210.3125
2158.6212	16202.8125
2161.57625	16191.3125
2164.52941	16178.4125
2167.48067	16163.6125
2170.43004	16163.2125
2173.37752	16130.0125
2176.32311	16172.4125
2179.26681	16169.0125
2182.20863	16175.3125
2185.14856	16161.1125
2188.08661	16184.1125
2191.02278	16205.2125
2193.95707	16184.9125
2196.88948	16169.2125
2199.82001	16159.5125
2202.74867	16156.7125
2205.67545	16151.9125
2208.60037	16157.6125
2211.52341	16134.2125
2214.44458	16111.1125
2217.36388	16113.3125
2220.28132	16061.9125
2223.1969	16049.6125
2226.11061	16042.1125
2229.02246	16022.3125
2231.93245	15982.1125
2234.84058	15975.4125
2237.74686	15955.5125
2240.65128	15951.1125
2243.55385	15905.0125
2246.45456	15876.3125
2249.35343	15840.0125
2252.25044	15849.0125
2255.14561	15798.7125
2258.03893	15807.9125
2260.93041	15800.0125
2263.82004	15743.1125
2266.70783	15739.4125
2269.59378	15717.4125
2272.4779	15699.6125
2275.36017	15609.4125
2278.24061	15574.5125
2281.11922	15554.4125
2283.996	15582.2125
2286.87094	15571.4125
2289.74405	15521.0125
2292.61534	15522.3125
2295.4848	15510.6125
2298.35243	15528.8125
2301.21824	15501.4125
2304.08223	15508.7125
2306.94439	15518.7125
2309.80474	15503.1125
2312.66327	15536.4125
2315.51999	15521.6125
2318.37489	15509.9125
2321.22797	15455.6125
2324.07925	15473.4125
2326.92871	15451.5125
2329.77637	15466.7125
2332.62222	15412.7125
2335.46626	15432.7125
2338.3085	15434.0125
2341.14893	15412.2125
2343.98756	15415.1125
2346.8244	15425.2125
2349.65943	15405.5125
2352.49267	15410.2125
2355.32411	15402.8125
2358.15376	15354.4125
2360.98161	15350.4125
2363.80768	15365.7125
2366.63195	15350.8125
2369.45444	15315.7125
2372.27514	15330.8125
2375.09405	15298.4125
2377.91118	15260.4125
2380.72652	15249.9125
2383.54009	15207.1125
2386.35187	15231.5125
2389.16188	15140.1125
2391.97011	15144.7125
2394.77657	15127.3125
2397.58125	15116.7125
2400.38416	15106.6125
2403.18529	15088.0125
2405.98466	15066.3125
2408.78226	15055.2125
2411.57809	15025.4125
2414.37216	15023.4125
2417.16446	15002.6125
2419.955	14975.1125
2422.74378	14991.8125
2425.5308	14954.9125
2428.31606	14930.4125
2431.09956	14926.6125
2433.88131	14914.7125
2436.6613	14933.8125
2439.43954	14922.8125
2442.21603	14914.0125
2444.99077	14907.5125
2447.76377	14913.4125
2450.53501	14881.9125
2453.30451	14870.3125
2456.07226	14853.4125
2458.83827	14844.0125
2461.60254	14837.7125
2464.36507	14850.9125
2467.12586	14844.0125
2469.88492	14859.5125
2472.64224	14863.2125
2475.39782	14855.3125
2478.15167	14849.3125
2480.90379	14874.1125
2483.65417	14882.5125
2486.40283	14880.5125
2489.14976	14884.5125
2491.89497	14885.5125
2494.63845	14887.5125
2497.3802	14906.6125
2500.12024	14873.8125
2502.85855	14837.6125
2505.59514	14862.4125
2508.33002	14824.9125
2511.06318	14838.0125
2513.79462	14787.4125
2516.52435	14836.7125
2519.25237	14784.0125
2521.97867	14802.1125
2524.70327	14784.5125
2527.42616	14734.7125
2530.14734	14764.5125
2532.86681	14740.8125
2535.58458	14739.9125
2538.30065	14712.8125
2541.01501	14692.2125
2543.72768	14699.9125
2546.43864	14700.2125
2549.14791	14671.2125
2551.85548	14639.9125
2554.56136	14622.9125
2557.26554	14645.6125
2559.96803	14640.1125
2562.66883	14601.9125
2565.36794	14639.6125
2568.06536	14602.1125
2570.7611	14610.8125
2573.45514	14617.2125
2576.14751	14589.0125
2578.83819	14541.3125
2581.52719	14548.7125
2584.21451	14563.3125
2586.90015	14519.7125
2589.58411	14545.7125
2592.2664	14499.0125
2594.94701	14483.9125
2597.62594	14459.6125
2600.30321	14437.1125
2602.9788	14457.8125
2605.65273	14407.9125
2608.32498	14436.1125
2610.99557	14420.0125
2613.66449	14423.2125
2616.33175	14400.9125
2618.99734	14419.5125
2621.66128	14404.9125
2624.32355	14357.9125
2626.98416	14377.2125
2629.64311	14377.0125
2632.30041	14345.8125
2634.95605	14350.1125
2637.61004	14310.6125
2640.26238	14310.0125
2642.91306	14302.6125
2645.56209	14307.6125
2648.20948	14292.3125
2650.85521	14289.0125
2653.4993	14296.3125
2656.14175	14323.2125
2658.78255	14312.3125
2661.42171	14296.7125
2664.05923	14291.9125
2666.6951	14302.3125
2669.32934	14288.5125
2671.96194	14296.1125
2674.59291	14326.1125
2677.22224	14299.8125
2679.84993	14332.3125
2682.476	14338.8125
2685.10043	14304.5125
2687.72324	14306.2125
2690.34441	14303.7125
2692.96396	14323.2125
2695.58188	14293.3125
2698.19818	14333.9125
2700.81285	14310.8125
2703.4259	14338.5125
2706.03733	14415.5125
2708.64714	14388.7125
2711.25533	14408.5125
2713.86191	14365.1125
2716.46687	14412.6125
2719.07021	14380.1125
2721.67194	14404.9125
2724.27206	14357.7125
2726.87057	14380.8125
2729.46747	14375.2125
2732.06276	14422.6125
2734.65644	14398.2125
2737.24852	14387.7125
2739.83899	14387.7125
2742.42786	14385.0125
2745.01513	14308.4125
2747.60079	14344.4125
2750.18486	14320.4125
2752.76733	14364.4125
2755.3482	14353.7125
2757.92747	14355.9125
2760.50515	14310.4125
2763.08123	14337.2125
2765.65573	14321.3125
2768.22863	14331.6125
2770.79994	14301.2125
2773.36967	14289.9125
2775.9378	14291.2125
2778.50435	14266.1125
2781.06932	14287.9125
2783.6327	14264.5125
2786.1945	14256.3125
2788.75471	14219.1125
2791.31335	14194.7125
2793.87041	14168.4125
2796.42589	14169.3125
2798.97979	14164.9125
2801.53212	14146.0125
2804.08288	14140.1125
2806.63206	14097.1125
2809.17967	14061.2125
2811.72571	14004.7125
2814.27018	14032.3125
2816.81308	13998.8125
2819.35442	13981.0125
2821.89419	13961.1125
2824.43239	13958.4125
2826.96904	13950.6125
2829.50412	13967.6125
2832.03763	13912.2125
2834.56959	13903.9125
2837.1	13908.1125
2839.62884	13894.3125
2842.15613	13898.0125
2844.68186	13890.7125
2847.20604	13881.1125
2849.72867	13898.0125
2852.24974	13875.9125
2854.76927	13893.2125
2857.28724	13881.5125
2859.80367	13846.0125
2862.31855	13841.1125
2864.83189	13826.1125
2867.34368	13827.2125
2869.85393	13828.4125
2872.36264	13836.2125
2874.8698	13836.8125
2877.37543	13824.1125
2879.87952	13827.7125
2882.38207	13837.0125
2884.88308	13855.0125
2887.38256	13880.8125
2889.88051	13848.5125
2892.37692	13844.6125
2894.8718	13838.6125
2897.36515	13850.6125
2899.85698	13849.7125
2902.34727	13866.8125
2904.83604	13906.9125
2907.32328	13906.5125
2909.809	13878.5125
2912.29319	13899.8125
2914.77587	13900.6125
2917.25702	13929.1125
2919.73665	13899.3125
2922.21476	13886.6125
2924.69136	13912.1125
2927.16644	13903.3125
2929.64	13857.4125
2932.11205	13874.1125
2934.58258	13809.7125
2937.05161	13882.9125
2939.51912	13869.0125
2941.98513	13873.5125
2944.44962	13836.9125
2946.91261	13802.7125
2949.37409	13830.9125
2951.83407	13821.8125
2954.29254	13834.4125
2956.74951	13803.5125
2959.20498	13798.6125
2961.65895	13787.1125
2964.11142	13772.9125
2966.56239	13755.5125
2969.01186	13765.5125
2971.45984	13723.2125
2973.90632	13711.5125
2976.35131	13621.5125
2978.7948	13635.1125
2981.23681	13628.1125
2983.67732	13616.5125
2986.11635	13605.4125
2988.55388	13578.7125
2990.98993	13512.6125
2993.4245	13514.1125
2995.85758	13504.1125
2998.28917	13483.4125
3000.71928	13451.2125
3003.14791	13443.1125
3005.57506	13416.5125
3008.00073	13413.9125
3010.42493	13405.0125
3012.84764	13357.3125
3015.26888	13333.1125
3017.68865	13333.8125
3020.10694	13323.1125
3022.52376	13307.9125
3024.9391	13294.6125
