Data from AgNP_FTO_APTES_CRN_10uM_R6G_10uM_NaF_0.1M_Addition_RamanShift__16__16-33-37-972.txt Node

Date: Wed Dec 15 16:33:37 GMT 2021
User: TCL
Spectrometer: QEP01345
Trigger mode: 4
Integration Time (sec): 7.000000E0
Scans to average: 10
Electric dark correction enabled: true
Nonlinearity correction enabled: false
Boxcar width: 0
XAxis mode: Raman Shifts
Number of Pixels in Spectrum: 1044
>>>>>Begin Spectral Data<<<<<
46.04893	1.6
50.45542	-2.9
54.85868	-1.6
59.25871	-0.9
63.6555	78.3
68.04907	85.7
72.43941	90.4
76.82654	93.8
81.21044	96.2
85.59113	101
89.96862	108
94.34289	108.7
98.71396	112.8
103.08183	119.4
107.4465	121.5
111.80798	119.4
116.16626	125.3
120.52136	131.1
124.87327	131.7
129.222	141.2
133.56755	145.4
137.90993	160.9
142.24913	171
146.58517	192.5
150.91804	217.8
155.24774	261.7
159.57429	320.9
163.89768	405.8
168.21792	532.9
172.53501	722.1
176.84895	1001.3
181.15975	1414.2
185.46741	1974.4
189.77193	2746.7
194.07331	3682.5
198.37157	4779.3
202.6667	5941.6
206.9587	7094.7
211.24758	8223.8
215.53334	9345.4
219.81599	10551.7
224.09553	11828.4
228.37195	13248.9
232.64527	14814.5
236.91549	16512.8
241.18261	18273.3
245.44663	19932.1
249.70755	21426
253.96539	22713.5
258.22014	23747.8
262.4718	24550.2
266.72039	24994.3
270.96589	25277.9
275.20832	25258.6
279.44768	25058.5
283.68397	24877.8
287.91719	24652.8
292.14735	24537.4
296.37445	24466.1
300.59849	24311.8
304.81948	24217
309.03742	24082.8
313.25231	23813.2
317.46415	23444.2
321.67296	22966
325.87872	22564.3
330.08145	22352.7
334.28114	22397
338.47781	22579.9
342.67145	22738.1
346.86207	23053.7
351.04966	23360.6
355.23424	23685.8
359.4158	23942.4
363.59435	24101.9
367.76989	24273.2
371.94243	24360.1
376.11196	24348.1
380.27849	24369.4
384.44203	24412
388.60257	24498.6
392.76012	24703.9
396.91468	24982.2
401.06626	25333.2
405.21485	25562.9
409.36047	25620.7
413.50311	25431.8
417.64277	25223.7
421.77947	25190.1
425.9132	25262.8
430.04396	25379.5
434.17176	25532.5
438.2966	25669.4
442.41849	25816.1
446.53742	26080.9
450.6534	26388.5
454.76644	26694.9
458.87653	26836.4
462.98368	26940.1
467.08789	26956.6
471.18916	26868.8
475.2875	26769.6
479.38291	26658.3
483.4754	26579.2
487.56496	26389.4
491.6516	26303.2
495.73531	26186.2
499.81612	26074.7
503.89401	26246.3
507.96899	26302.9
512.04106	26411.3
516.11023	26409.1
520.1765	26364.4
524.23987	26243.8
528.30034	26107.3
532.35792	25921.7
536.41261	25719
540.46441	25575.4
544.51333	25597.1
548.55936	25878.8
552.60252	26242.3
556.64279	26592.2
560.6802	26803.2
564.71473	26947.1
568.7464	27185.7
572.7752	27629.6
576.80114	28158.3
580.82422	28708.6
584.84444	29055.3
588.86181	29169.3
592.87633	28975.4
596.888	28771.4
600.89682	28671
604.9028	29063.1
608.90594	30300.4
612.90624	31545.7
616.90371	30311
620.89834	27423.1
624.89015	26102.1
628.87913	25905.3
632.86528	26065.2
636.84862	26204.5
640.82913	26066.2
644.80683	25752.1
648.78172	25406.1
652.75379	25268.9
656.72306	25376.4
660.68952	25595.2
664.65319	25666.3
668.61405	25521.1
672.57211	25492.7
676.52738	25543.3
680.47986	25514.4
684.42955	25474.8
688.37646	25437.9
692.32058	25454.5
696.26192	25596.5
700.20048	25815.8
704.13626	26019.9
708.06928	26161.7
711.99952	26180.7
715.927	26142.8
719.85171	26025.5
723.77365	25821.5
727.69284	25663.2
731.60928	25380.5
735.52295	25290
739.43388	25238.4
743.34206	25268.3
747.24749	25349.4
751.15017	25459.5
755.05012	25713
758.94733	26209.5
762.8418	27085.5
766.73354	28468.7
770.62254	29679.2
774.50882	29880.9
778.39237	28922.2
782.27321	27697.1
786.15132	26565.8
790.02671	25807.9
793.89938	25377.1
797.76935	25240.9
801.6366	25126.2
805.50115	25090.3
809.36299	25030.2
813.22213	24918.8
817.07857	24905.2
820.93231	24923.5
824.78336	24917
828.63172	24938.2
832.47738	24952.1
836.32036	24995.9
840.16066	24964.2
843.99827	24908.6
847.8332	24810.5
851.66546	24824.4
855.49504	24808
859.32195	24805.5
863.1462	24802.8
866.96777	24786.5
870.78668	24770.3
874.60293	24806.6
878.41652	24827.5
882.22745	24938.5
886.03573	24976
889.84136	25026.6
893.64433	25043.9
897.44466	25005
901.24235	24985
905.0374	24984.4
908.8298	25027
912.61957	25049.4
916.40671	25271.6
920.19121	25454
923.97308	25460.1
927.75233	25403.3
931.52895	25312.9
935.30295	25066.5
939.07433	24828.8
942.84309	24586.1
946.60924	24390.9
950.37278	24321.7
954.13371	24236.8
957.89203	24183.7
961.64774	24192.4
965.40086	24139.8
969.15137	24097
972.89929	24004.5
976.64461	23935.7
980.38733	23890.4
984.12747	23921.2
987.86502	23946.1
991.59999	24009.2
995.33237	24091.2
999.06217	24260.8
1002.78939	24462.2
1006.51404	24769.8
1010.23611	25078.5
1013.95561	25254.4
1017.67255	25201.8
1021.38692	25087.5
1025.09872	24886.3
1028.80796	24710.4
1032.51465	24663
1036.21877	24719.6
1039.92035	24804.2
1043.61937	24956.7
1047.31584	25127
1051.00976	25308.3
1054.70114	25554.5
1058.38998	25928.4
1062.07627	26382.9
1065.76003	27004.4
1069.44126	27686.7
1073.11995	28230.5
1076.79611	28494.3
1080.46974	28297
1084.14085	27960.9
1087.80943	27529.3
1091.47549	27259.8
1095.13903	27194.3
1098.80005	26964.2
1102.45857	26537.7
1106.11456	26083.4
1109.76805	25740.6
1113.41903	25562.6
1117.06751	25569.5
1120.71348	25679.1
1124.35696	25861.2
1127.99793	26143.9
1131.63641	26371.9
1135.2724	26309.9
1138.90589	26169.9
1142.5369	26109.6
1146.16542	26133.3
1149.79145	26169.2
1153.415	26310.7
1157.03607	26461.9
1160.65467	26807.5
1164.27079	27357.9
1167.88443	28156
1171.49561	29146.7
1175.10432	30432.9
1178.71056	31969.5
1182.31434	33475.3
1185.91565	34429.8
1189.51451	34778.2
1193.11091	34572.7
1196.70485	33777.7
1200.29634	32636.4
1203.88538	31561.7
1207.47197	30769.4
1211.05612	30138.5
1214.63782	29636.6
1218.21708	29194.9
1221.79391	28729.6
1225.36829	28359.2
1228.94024	28180.5
1232.50976	28116.9
1236.07685	28130
1239.6415	28183.3
1243.20374	28247.6
1246.76355	28287.7
1250.32093	28529.2
1253.8759	28861
1257.42845	29362.3
1260.97859	29951.7
1264.52631	30450
1268.07163	30940
1271.61453	31398.2
1275.15503	31852.7
1278.69312	32321.7
1282.22882	32754.8
1285.76211	33284.1
1289.29301	33837.2
1292.82151	34495.1
1296.34761	35234.8
1299.87133	36059.1
1303.39266	37087.4
1306.9116	38048.6
1310.42815	39060
1313.94233	39598.2
1317.45412	39769.7
1320.96354	39799.3
1324.47058	39928.3
1327.97525	40082.9
1331.47754	40300.7
1334.97747	40575.3
1338.47502	40977.1
1341.97022	41572
1345.46305	42089.4
1348.95352	42312.3
1352.44163	42209
1355.92738	41798.5
1359.41078	41762.2
1362.89183	41773
1366.37053	40863.8
1369.84688	38955
1373.32088	36646.7
1376.79254	34943.6
1380.26186	33831.7
1383.72883	33332.4
1387.19347	32902.7
1390.65578	32486.2
1394.11575	32078
1397.57339	31741.8
1401.0287	31569.9
1404.48168	31373.5
1407.93234	31133.1
1411.38068	30751.1
1414.82669	30263.9
1418.27039	29572.9
1421.71177	28898
1425.15083	28353.3
1428.58758	28006
1432.02203	28027.5
1435.45416	28216.1
1438.88399	28483.7
1442.31151	28767.4
1445.73673	29066.8
1449.15965	29423.8
1452.58027	29783.1
1455.9986	30024.7
1459.41463	30308
1462.82837	30684.4
1466.23982	31231.6
1469.64898	31715.4
1473.05586	32061.1
1476.46045	32275.6
1479.86276	32386.4
1483.26279	32490.7
1486.66054	32616.5
1490.05602	32876.6
1493.44922	33457.5
1496.84016	34306.6
1500.22882	35517.8
1503.61521	36961.3
1506.99934	38376.9
1510.38121	39151.9
1513.76081	39115.2
1517.13816	38305.8
1520.51324	37141
1523.88607	36214.5
1527.25665	35524.7
1530.62498	35025.4
1533.99105	34599.3
1537.35488	34138.1
1540.71647	33435
1544.07581	32733.9
1547.4329	32185.7
1550.78776	31746.3
1554.14038	31517.1
1557.49077	31512.3
1560.83892	31656.2
1564.18484	31960.7
1567.52853	32344.1
1570.86999	32788.8
1574.20922	33469.2
1577.54624	34155.7
1580.88103	34434.5
1584.2136	34320.2
1587.54395	33885.6
1590.87208	33307.1
1594.19801	33251.2
1597.52172	33560.6
1600.84321	33482.8
1604.16251	32736.3
1607.47959	31616.5
1610.79447	30422.6
1614.10715	29173.1
1617.41763	27912.4
1620.7259	26951.8
1624.03199	26318.7
1627.33587	26122.2
1630.63757	26340
1633.93707	27008.7
1637.23439	28255.4
1640.52951	30089.7
1643.82246	32407.9
1647.11321	34538.8
1650.40179	35641.1
1653.68819	34991
1656.97241	32692.3
1660.25446	29911.4
1663.53433	27429.6
1666.81203	25597
1670.08756	24376.2
1673.36092	23524.1
1676.63211	22993.8
1679.90115	22618.3
1683.16801	22365.9
1686.43272	22168
1689.69527	22051.4
1692.95567	21936.1
1696.2139	21862.6
1699.46999	21825.6
1702.72392	21760.8
1705.97571	21696.1
1709.22535	21630.9
1712.47284	21580
1715.71819	21512.4
1718.96139	21458.6
1722.20246	21403.9
1725.44139	21337.8
1728.67818	21277.4
1731.91284	21192
1735.14537	21052.8
1738.37576	21021.8
1741.60403	20937.6
1744.83017	20883.3
1748.05418	20856.9
1751.27607	20790.5
1754.49584	20779.6
1757.71349	20769.6
1760.92903	20797.3
1764.14244	20776.9
1767.35375	20753.3
1770.56294	20705
1773.77002	20668.3
1776.97499	20653.9
1780.17785	20607.7
1783.37861	20527.7
1786.57727	20504.5
1789.77382	20434.3
1792.96828	20401.3
1796.16064	20374.1
1799.3509	20318
1802.53907	20259.8
1805.72514	20218.5
1808.90913	20139.9
1812.09102	20114.6
1815.27083	20076.5
1818.44856	20061.8
1821.6242	20036.7
1824.79776	20006.5
1827.96924	19999.2
1831.13864	20016
1834.30597	20050.7
1837.47122	20001.3
1840.6344	19989.4
1843.7955	19979.1
1846.95454	19978.3
1850.11151	19985
1853.26642	19964.6
1856.41926	19961.9
1859.57004	19933.9
1862.71876	19921.5
1865.86542	19869.8
1869.01003	19861.6
1872.15258	19848.5
1875.29308	19787.2
1878.43152	19699.1
1881.56792	19695.4
1884.70227	19610
1887.83457	19587.1
1890.96482	19550.8
1894.09304	19514.2
1897.21921	19484.8
1900.34335	19457.6
1903.46544	19452.1
1906.58551	19441.8
1909.70353	19365.9
1912.81953	19343.5
1915.93349	19319.4
1919.04543	19263.7
1922.15534	19217.4
1925.26322	19169.3
1928.36908	19156.4
1931.47292	19106.2
1934.57473	19086.1
1937.67453	19017.9
1940.77232	18976.6
1943.86808	18940.9
1946.96184	18894.6
1950.05358	18842.2
1953.14331	18778.5
1956.23103	18695.2
1959.31675	18695
1962.40046	18610.9
1965.48217	18549.8
1968.56188	18481.7
1971.63959	18441.9
1974.7153	18356.2
1977.78901	18291.6
1980.86073	18208.4
1983.93046	18210.5
1986.99819	18157.3
1990.06394	18101.2
1993.1277	18023.6
1996.18947	17976.3
1999.24925	17922.1
2002.30706	17870.3
2005.36288	17792.3
2008.41672	17774.1
2011.46859	17686.4
2014.51848	17651.1
2017.56639	17613.6
2020.61233	17547
2023.6563	17498
2026.6983	17445.4
2029.73833	17410.6
2032.7764	17368.9
2035.8125	17288
2038.84664	17258.6
2041.87881	17230.5
2044.90903	17172.4
2047.93729	17124.5
2050.96359	17120.6
2053.98794	17097.2
2057.01034	17083.5
2060.03078	17034.9
2063.04927	17042.3
2066.06582	17043.9
2069.08042	17044.3
2072.09307	16996.9
2075.10378	16991.8
2078.11255	16920.4
2081.11938	16972.8
2084.12426	16978.1
2087.12722	16940.7
2090.12824	16933.9
2093.12732	16955.7
2096.12447	16973.8
2099.11969	16938.9
2102.11299	16962.7
2105.10435	16954.2
2108.09379	16970.8
2111.08131	17000.2
2114.0669	16974.6
2117.05057	16994.8
2120.03233	17003.9
2123.01216	16993.5
2125.99008	16987.4
2128.96609	17034.6
2131.94018	17046.3
2134.91236	17049.4
2137.88263	17051.2
2140.851	17040.6
2143.81746	17034.5
2146.78201	17048.1
2149.74466	17038.4
2152.7054	17040.3
2155.66425	17036.8
2158.6212	17063.8
2161.57625	17019
2164.52941	17039.2
2167.48067	17018.6
2170.43004	17032.3
2173.37752	17018
2176.32311	16995.6
2179.26681	16987
2182.20863	16972.7
2185.14856	16964.6
2188.08661	16954.6
2191.02278	16941.1
2193.95707	16926
2196.88948	16887.9
2199.82001	16871.5
2202.74867	16850.2
2205.67545	16866.7
2208.60037	16835
2211.52341	16812.9
2214.44458	16786.8
2217.36388	16700.6
2220.28132	16722.4
2223.1969	16656.3
2226.11061	16650.5
2229.02246	16623.9
2231.93245	16587.5
2234.84058	16543.7
2237.74686	16521
2240.65128	16519
2243.55385	16446.6
2246.45456	16416.2
2249.35343	16394.2
2252.25044	16362.7
2255.14561	16342.5
2258.03893	16348.2
2260.93041	16330.3
2263.82004	16276.4
2266.70783	16237.1
2269.59378	16176.2
2272.4779	16123.2
2275.36017	16084.5
2278.24061	16064.6
2281.11922	16013.3
2283.996	15970.9
2286.87094	15980.5
2289.74405	15918.7
2292.61534	15889.9
2295.4848	15897.6
2298.35243	15858.7
2301.21824	15801.7
2304.08223	15800.2
2306.94439	15787.2
2309.80474	15771.9
2312.66327	15759.2
2315.51999	15724.9
2318.37489	15730.2
2321.22797	15708.7
2324.07925	15686.5
2326.92871	15657.5
2329.77637	15659.7
2332.62222	15637.2
2335.46626	15612.2
2338.3085	15590.5
2341.14893	15546.8
2343.98756	15528.1
2346.8244	15503.4
2349.65943	15515.5
2352.49267	15505.5
2355.32411	15498.3
2358.15376	15462.2
2360.98161	15453.8
2363.80768	15452.5
2366.63195	15476.8
2369.45444	15427.5
2372.27514	15402.5
2375.09405	15398.1
2377.91118	15337
2380.72652	15318.9
2383.54009	15305.7
2386.35187	15278.6
2389.16188	15207.5
2391.97011	15196.9
2394.77657	15163.1
2397.58125	15117.3
2400.38416	15092.8
2403.18529	15056.4
2405.98466	15044.7
2408.78226	15019.1
2411.57809	15001
2414.37216	14980.7
2417.16446	14971.1
2419.955	14912.1
2422.74378	14959.4
2425.5308	14904.1
2428.31606	14869.4
2431.09956	14880.8
2433.88131	14843.1
2436.6613	14863.9
2439.43954	14839.7
2442.21603	14801.2
2444.99077	14778.8
2447.76377	14793.7
2450.53501	14756.7
2453.30451	14705.5
2456.07226	14731
2458.83827	14665.6
2461.60254	14684
2464.36507	14664.8
2467.12586	14653.5
2469.88492	14638.8
2472.64224	14633.5
2475.39782	14597.5
2478.15167	14622.3
2480.90379	14551.6
2483.65417	14568.5
2486.40283	14586.8
2489.14976	14568.9
2491.89497	14562.4
2494.63845	14573.6
2497.3802	14536
2500.12024	14517.2
2502.85855	14509.5
2505.59514	14503.9
2508.33002	14497.5
2511.06318	14435.7
2513.79462	14415.6
2516.52435	14407.2
2519.25237	14395.3
2521.97867	14354.6
2524.70327	14348.6
2527.42616	14331.9
2530.14734	14314.4
2532.86681	14297.2
2535.58458	14276.2
2538.30065	14254.2
2541.01501	14238.6
2543.72768	14231.8
2546.43864	14223.5
2549.14791	14137.6
2551.85548	14123.7
2554.56136	14096
2557.26554	14058.8
2559.96803	14076.7
2562.66883	14034.2
2565.36794	14042.8
2568.06536	14024
2570.7611	13957.1
2573.45514	13967.1
2576.14751	13914.4
2578.83819	13880.2
2581.52719	13877.7
2584.21451	13834.4
2586.90015	13835.3
2589.58411	13793.1
2592.2664	13749.8
2594.94701	13705.7
2597.62594	13708.6
2600.30321	13697.7
2602.9788	13654.8
2605.65273	13657
2608.32498	13622.9
2610.99557	13577.5
2613.66449	13558
2616.33175	13537.2
2618.99734	13532.7
2621.66128	13510.4
2624.32355	13497.9
2626.98416	13485
2629.64311	13474.4
2632.30041	13455.2
2634.95605	13432.7
2637.61004	13397.3
2640.26238	13399.8
2642.91306	13362.3
2645.56209	13373.5
2648.20948	13348
2650.85521	13346.2
2653.4993	13334.1
2656.14175	13334.4
2658.78255	13315.5
2661.42171	13295.1
2664.05923	13308.5
2666.6951	13304
2669.32934	13296.8
2671.96194	13270.7
2674.59291	13269.1
2677.22224	13269.1
2679.84993	13294.7
2682.476	13269.4
2685.10043	13268.2
2687.72324	13247.1
2690.34441	13283.4
2692.96396	13244.6
2695.58188	13262.5
2698.19818	13264.7
2700.81285	13286.6
2703.4259	13268.7
2706.03733	13344.1
2708.64714	13309.4
2711.25533	13304.1
2713.86191	13267.1
2716.46687	13279.8
2719.07021	13269.3
2721.67194	13248.1
2724.27206	13226.9
2726.87057	13231.1
2729.46747	13209.9
2732.06276	13212.9
2734.65644	13188.8
2737.24852	13205.3
2739.83899	13174
2742.42786	13192.6
2745.01513	13140.6
2747.60079	13095
2750.18486	13096.6
2752.76733	13125.3
2755.3482	13117.6
2757.92747	13111.4
2760.50515	13081.8
2763.08123	13054.4
2765.65573	13040.2
2768.22863	13019.9
2770.79994	13001.2
2773.36967	12990
2775.9378	12973.7
2778.50435	12931.2
2781.06932	12891.4
2783.6327	12888
2786.1945	12868.3
2788.75471	12864.6
2791.31335	12793.2
2793.87041	12773.4
2796.42589	12781.7
2798.97979	12736.5
2801.53212	12727.2
2804.08288	12701.4
2806.63206	12682.3
2809.17967	12622.3
2811.72571	12611.3
2814.27018	12582.6
2816.81308	12577.1
2819.35442	12540.9
2821.89419	12543.4
2824.43239	12522.3
2826.96904	12513.6
2829.50412	12498.4
2832.03763	12462.7
2834.56959	12430.1
2837.1	12445.4
2839.62884	12427.6
2842.15613	12421.3
2844.68186	12450.5
2847.20604	12425.7
2849.72867	12445.8
2852.24974	12423.6
2854.76927	12397.9
2857.28724	12386.6
2859.80367	12396.2
2862.31855	12378.7
2864.83189	12357.5
2867.34368	12331.7
2869.85393	12318.4
2872.36264	12299.1
2874.8698	12304
2877.37543	12295.6
2879.87952	12288.8
2882.38207	12244.8
2884.88308	12262.5
2887.38256	12282.9
2889.88051	12255.3
2892.37692	12289.1
2894.8718	12253.8
2897.36515	12259.7
2899.85698	12238.9
2902.34727	12261.6
2904.83604	12224.6
2907.32328	12232.2
2909.809	12242.6
2912.29319	12269.6
2914.77587	12257.4
2917.25702	12234.8
2919.73665	12216.1
2922.21476	12226.9
2924.69136	12205.7
2927.16644	12226.4
2929.64	12223.6
2932.11205	12180.2
2934.58258	12149
2937.05161	12189.4
2939.51912	12199
2941.98513	12141.6
2944.44962	12126.1
2946.91261	12049.4
2949.37409	12091.8
2951.83407	12087.3
2954.29254	12068.6
2956.74951	12034.3
2959.20498	12031.2
2961.65895	12019.7
2964.11142	11995.3
2966.56239	12012.3
2969.01186	11988
2971.45984	11901.6
2973.90632	11915
2976.35131	11868.4
2978.7948	11835.1
2981.23681	11832.3
2983.67732	11808.7
2986.11635	11834.3
2988.55388	11760.3
2990.98993	11733.3
2993.4245	11734.8
2995.85758	11707.3
2998.28917	11671.8
3000.71928	11663.7
3003.14791	11637.2
3005.57506	11596.6
3008.00073	11579.6
3010.42493	11586.3
3012.84764	11533.9
3015.26888	11519.2
3017.68865	11508.9
3020.10694	11498.8
3022.52376	11455
3024.9391	11459.8
3027.35298	11436.1
3029.76539	11471.9
3032.17632	11424.6
3034.5858	11389.1
3036.9938	11389.1
3039.40034	11357
3041.80542	11337.9
3044.20903	11314.9
3046.61118	11299.3
3049.01187	11284.7
3051.4111	11290.1
3053.80888	11262.1
3056.20519	11259.9
3058.60005	11250.5
3060.99345	11175.3
3063.3854	11163.6
3065.7759	11157.4
3068.16494	11115.3
3070.55254	11092.4
3072.93868	11072.4
3075.32338	11051.8
3077.70662	11004
3080.08842	10968.1
3082.46878	10996.8
3084.84769	10986
3087.22515	10945.3
3089.60118	10938.8
3091.97576	10973.6
3094.3489	10951.6
3096.72061	10942.5
3099.09087	10950.5
3101.4597	10912.2
3103.82709	10914.3
3106.19305	10880.9
3108.55757	10900.1
3110.92066	10852.5
3113.28232	10831.2
3115.64255	10812.4
3118.00134	10818
3120.35871	10790.1
3122.71466	10761.8
3125.06917	10745
3127.42226	10710.3
3129.77393	10738.1
3132.12417	10763.8
3134.47299	10750.7
3136.82039	10744.2
3139.16636	10745.8
3141.51092	10732.5
3143.85406	10752.9
3146.19579	10742.3
3148.53609	10749.5
3150.87499	10754
3153.21246	10764.7
3155.54853	10756.2
3157.88318	10721.9
3160.21642	10746.2
3162.54826	10743.6
3164.87868	10741.1
3167.2077	10741.4
3169.5353	10724.7
3171.86151	10723.1
3174.18631	10691.3
3176.5097	10680.5
3178.83169	10668.3
3181.15228	10670.8
3183.47147	10667.7
3185.78926	10656
3188.10565	10651.9
3190.42065	10627.9
3192.73424	10629
3195.04645	10611.1
3197.35725	10645
3199.66667	10630
3201.97469	10630.1
3204.28132	10616.2
3206.58656	10624.4
3208.8904	10632.6
3211.19287	10628.7
3213.49394	10612.6
3215.79363	10623.6
3218.09193	10601
3220.38884	10623.3
3222.68438	10621.5
3224.97853	10583
3227.2713	10603.4
3229.56269	10567.3
3231.8527	10562.9
3234.14133	10529.4
3236.42858	10517.2
3238.71446	10493.6
3240.99896	10479
3243.28209	10492.4
3245.56384	10470.1
3247.84423	10449.9
3250.12324	10439.2
3252.40088	10434.5
3254.67715	10455.3
3256.95205	10441.8
3259.22558	10437.9
3261.49775	10430.7
3263.76855	10392.6
3266.03799	10376.3
3268.30606	10349.7
3270.57277	10323.5
3272.83812	10320.5
3275.10211	10289.1
3277.36474	10254.9
3279.62601	10271.2
3281.88593	10265.3
3284.14448	10273.7
3286.40168	10248.6
3288.65753	10239.6
3290.91202	10208.2
3293.16516	10184.9
3295.41695	10160.7
3297.66738	10084.4
3299.91647	10063.2
3302.16421	9988.7
3304.4106	9946.2
3306.65564	9885.7
3308.89933	9821.6
3311.14169	9762.1
3313.38269	9696.9
3315.62236	9627.4
3317.86068	9547.4
3320.09766	9446.6
3322.3333	9373.8
3324.5676	9371
3326.80056	9238.8
3329.03219	9184.1
3331.26248	3.4
3333.49143	-0.4
3335.71905	0.5
