Data from AgNP_FTO_APTES_CRN_100uM_R6G_10uM_NaF_0.1M_Addition_RamanShift__20__18-54-48-132.txt Node

Date: Wed Dec 15 18:54:48 GMT 2021
User: TCL
Spectrometer: QEP01345
Trigger mode: 4
Integration Time (sec): 7.000000E0
Scans to average: 10
Electric dark correction enabled: true
Nonlinearity correction enabled: false
Boxcar width: 0
XAxis mode: Raman Shifts
Number of Pixels in Spectrum: 1044
>>>>>Begin Spectral Data<<<<<
46.04893	0.85
50.45542	-1.95
54.85868	-1.15
59.25871	-1.15
63.6555	56.85
68.04907	58.95
72.43941	61.65
76.82654	64.25
81.21044	66.05
85.59113	70.85
89.96862	74.95
94.34289	73.15
98.71396	78.75
103.08183	83.65
107.4465	84.75
111.80798	80.45
116.16626	84.05
120.52136	88.75
124.87327	90.45
129.222	93.45
133.56755	95.55
137.90993	105.15
142.24913	117.75
146.58517	124.45
150.91804	141.15
155.24774	166.95
159.57429	202.55
163.89768	253.85
168.21792	337.15
172.53501	453.75
176.84895	634.65
181.15975	874.35
185.46741	1238.15
189.77193	1698.15
194.07331	2268.45
198.37157	2917.35
202.6667	3607.15
206.9587	4283.25
211.24758	4970.75
215.53334	5622.95
219.81599	6328.55
224.09553	7086.95
228.37195	7920.25
232.64527	8856.85
236.91549	9843.05
241.18261	10868.05
245.44663	11823.65
249.70755	12698.85
253.96539	13440.05
258.22014	14119.05
262.4718	14640.25
266.72039	14999.25
270.96589	15222.25
275.20832	15233.05
279.44768	15121.85
283.68397	14994.05
287.91719	14839.35
292.14735	14749.85
296.37445	14699.75
300.59849	14715.55
304.81948	14701.45
309.03742	14623.75
313.25231	14472.85
317.46415	14234.35
321.67296	13957.65
325.87872	13757.05
330.08145	13648.05
334.28114	13671.75
338.47781	13744.45
342.67145	13909.85
346.86207	14089.55
351.04966	14296.85
355.23424	14554.95
359.4158	14754.75
363.59435	14918.35
367.76989	15017.35
371.94243	15132.65
376.11196	15180.85
380.27849	15290.75
384.44203	15417.35
388.60257	15526.35
392.76012	15692.35
396.91468	15843.05
401.06626	16037.75
405.21485	16174.75
409.36047	16177.95
413.50311	15979.75
417.64277	15856.45
421.77947	15823.25
425.9132	15870.55
430.04396	15958.75
434.17176	16089.25
438.2966	16273.05
442.41849	16535.35
446.53742	16977.65
450.6534	17426.15
454.76644	17758.45
458.87653	17866.55
462.98368	17774.35
467.08789	17619.65
471.18916	17502.45
475.2875	17387.25
479.38291	17370.05
483.4754	17312.65
487.56496	17093.85
491.6516	16800.65
495.73531	16591.05
499.81612	16436.15
503.89401	16462.65
507.96899	16547.25
512.04106	16511.95
516.11023	16494.75
520.1765	16454.15
524.23987	16441.65
528.30034	16395.85
532.35792	16306.15
536.41261	16173.25
540.46441	16020.95
544.51333	16013.35
548.55936	16154.15
552.60252	16446.95
556.64279	16739.95
560.6802	17009.75
564.71473	17111.25
568.7464	17257.75
572.7752	17533.25
576.80114	17706.35
580.82422	17851.25
584.84444	18073.25
588.86181	18440.65
592.87633	18968.75
596.888	19253.95
600.89682	19120.75
604.9028	19221.65
608.90594	19984.25
612.90624	20877.95
616.90371	19862.55
620.89834	17477.35
624.89015	16465.85
628.87913	16373.15
632.86528	16449.15
636.84862	16490.85
640.82913	16331.25
644.80683	16029.45
648.78172	15823.35
652.75379	15764.25
656.72306	15840.35
660.68952	16025.15
664.65319	15937.55
668.61405	15787.75
672.57211	15730.05
676.52738	15772.25
680.47986	15799.75
684.42955	15755.95
688.37646	15726.25
692.32058	15773.65
696.26192	15837.35
700.20048	15977.75
704.13626	16108.55
708.06928	16089.65
711.99952	16054.05
715.927	16015.55
719.85171	16005.95
723.77365	15986.05
727.69284	15898.15
731.60928	15768.75
735.52295	15739.15
739.43388	15750.45
743.34206	15777.45
747.24749	15822.95
751.15017	15894.35
755.05012	16074.85
758.94733	16374.25
762.8418	17001.35
766.73354	17919.85
770.62254	18742.35
774.50882	18991.25
778.39237	18304.85
782.27321	17259.25
786.15132	16376.95
790.02671	15863.55
793.89938	15659.75
797.76935	15544.85
801.6366	15569.15
805.50115	15527.85
809.36299	15492.45
813.22213	15439.45
817.07857	15433.35
820.93231	15392.55
824.78336	15377.85
828.63172	15358.15
832.47738	15336.75
836.32036	15344.55
840.16066	15379.45
843.99827	15374.45
847.8332	15335.95
851.66546	15291.65
855.49504	15283.45
859.32195	15292.85
863.1462	15269.55
866.96777	15242.95
870.78668	15203.15
874.60293	15230.35
878.41652	15225.95
882.22745	15254.25
886.03573	15293.85
889.84136	15278.25
893.64433	15233.75
897.44466	15175.75
901.24235	15166.05
905.0374	15117.25
908.8298	15098.55
912.61957	15114.05
916.40671	15218.75
920.19121	15367.55
923.97308	15434.25
927.75233	15458.75
931.52895	15407.35
935.30295	15264.45
939.07433	15054.25
942.84309	14926.55
946.60924	14810.45
950.37278	14767.75
954.13371	14727.65
957.89203	14720.85
961.64774	14731.85
965.40086	14668.15
969.15137	14625.65
972.89929	14543.15
976.64461	14515.15
980.38733	14495.35
984.12747	14549.05
987.86502	14623.75
991.59999	14730.55
995.33237	14901.85
999.06217	15165.25
1002.78939	15421.85
1006.51404	15610.25
1010.23611	15698.95
1013.95561	15860.05
1017.67255	15840.55
1021.38692	15704.25
1025.09872	15563.95
1028.80796	15532.45
1032.51465	15656.95
1036.21877	15833.55
1039.92035	15896.85
1043.61937	15861.35
1047.31584	15745.65
1051.00976	15688.95
1054.70114	15645.25
1058.38998	15777.95
1062.07627	15913.35
1065.76003	16228.75
1069.44126	16505.85
1073.11995	16870.15
1076.79611	17109.75
1080.46974	17088.95
1084.14085	16884.75
1087.80943	16694.15
1091.47549	16600.05
1095.13903	16480.25
1098.80005	16296.85
1102.45857	16011.25
1106.11456	15790.35
1109.76805	15704.15
1113.41903	15753.65
1117.06751	15862.15
1120.71348	15997.05
1124.35696	16116.85
1127.99793	16306.85
1131.63641	16408.45
1135.2724	16310.75
1138.90589	16191.65
1142.5369	16168.25
1146.16542	16197.65
1149.79145	16252.85
1153.415	16404.95
1157.03607	16591.95
1160.65467	16914.75
1164.27079	17444.85
1167.88443	18182.15
1171.49561	19076.45
1175.10432	20289.85
1178.71056	21746.15
1182.31434	22968.85
1185.91565	23378.85
1189.51451	22995.45
1193.11091	22267.65
1196.70485	21470.25
1200.29634	20756.05
1203.88538	20237.85
1207.47197	19995.45
1211.05612	19717.15
1214.63782	19430.85
1218.21708	19192.35
1221.79391	19007.75
1225.36829	18840.25
1228.94024	18667.85
1232.50976	18413.05
1236.07685	18185.25
1239.6415	18099.05
1243.20374	18111.55
1246.76355	18204.65
1250.32093	18460.35
1253.8759	18717.25
1257.42845	19073.75
1260.97859	19442.45
1264.52631	19773.75
1268.07163	20110.55
1271.61453	20523.55
1275.15503	21002.75
1278.69312	21485.75
1282.22882	22000.45
1285.76211	22570.25
1289.29301	23320.35
1292.82151	24156.95
1296.34761	25212.05
1299.87133	26416.85
1303.39266	27735.35
1306.9116	29059.65
1310.42815	30326.75
1313.94233	31208.45
1317.45412	31444.85
1320.96354	31092.85
1324.47058	30507.05
1327.97525	29917.85
1331.47754	29435.55
1334.97747	29146.55
1338.47502	28918.45
1341.97022	28602.85
1345.46305	28081.75
1348.95352	27666.25
1352.44163	27568.05
1355.92738	28123.45
1359.41078	29221.85
1362.89183	30276.65
1366.37053	30053.65
1369.84688	28121.25
1373.32088	25651.45
1376.79254	23850.75
1380.26186	23172.75
1383.72883	23088.55
1387.19347	23058.85
1390.65578	22983.65
1394.11575	23001.45
1397.57339	23268.95
1401.0287	23741.95
1404.48168	24098.55
1407.93234	24098.25
1411.38068	23712.65
1414.82669	22982.25
1418.27039	22038.25
1421.71177	21132.95
1425.15083	20339.25
1428.58758	19976.35
1432.02203	20014.55
1435.45416	20334.85
1438.88399	20848.75
1442.31151	21291.05
1445.73673	21646.25
1449.15965	21954.15
1452.58027	22240.45
1455.9986	22337.05
1459.41463	22460.55
1462.82837	22735.25
1466.23982	23142.55
1469.64898	23487.95
1473.05586	23692.55
1476.46045	23682.15
1479.86276	23601.55
1483.26279	23360.95
1486.66054	23175.95
1490.05602	23093.95
1493.44922	23117.85
1496.84016	23157.15
1500.22882	23322.15
1503.61521	23766.35
1506.99934	24420.15
1510.38121	24958.05
1513.76081	25186.25
1517.13816	24724.65
1520.51324	23976.25
1523.88607	23268.35
1527.25665	22890.95
1530.62498	22784.15
1533.99105	22798.65
1537.35488	22717.35
1540.71647	22462.85
1544.07581	22093.45
1547.4329	21673.65
1550.78776	21344.15
1554.14038	21064.45
1557.49077	20949.15
1560.83892	20919.25
1564.18484	20999.15
1567.52853	21225.05
1570.86999	21603.75
1574.20922	22200.25
1577.54624	22791.05
1580.88103	23173.05
1584.2136	23255.55
1587.54395	23381.75
1590.87208	23749.45
1594.19801	24560.35
1597.52172	25507.55
1600.84321	25846.85
1604.16251	25007.15
1607.47959	23358.05
1610.79447	21552.25
1614.10715	19930.55
1617.41763	18684.65
1620.7259	17871.05
1624.03199	17453.95
1627.33587	17471.05
1630.63757	17845.15
1633.93707	18744.35
1637.23439	20194.75
1640.52951	22288.65
1643.82246	24769.85
1647.11321	26682.05
1650.40179	27089.05
1653.68819	25505.85
1656.97241	22673.65
1660.25446	19930.45
1663.53433	17846.05
1666.81203	16505.25
1670.08756	15606.45
1673.36092	15081.05
1676.63211	14678.05
1679.90115	14438.85
1683.16801	14255.55
1686.43272	14124.85
1689.69527	14039.35
1692.95567	13919.55
1696.2139	13886.15
1699.46999	13855.55
1702.72392	13841.95
1705.97571	13781.85
1709.22535	13740.35
1712.47284	13709.45
1715.71819	13684.55
1718.96139	13642.55
1722.20246	13632.35
1725.44139	13568.85
1728.67818	13521.75
1731.91284	13466.35
1735.14537	13418.65
1738.37576	13343.25
1741.60403	13304.55
1744.83017	13306.25
1748.05418	13269.35
1751.27607	13257.05
1754.49584	13252.45
1757.71349	13226.65
1760.92903	13203.65
1764.14244	13219.35
1767.35375	13228.05
1770.56294	13189.25
1773.77002	13153.45
1776.97499	13149.65
1780.17785	13116.35
1783.37861	13089.25
1786.57727	13076.15
1789.77382	13049.85
1792.96828	12996.85
1796.16064	12969.05
1799.3509	12950.45
1802.53907	12951.55
1805.72514	12886.65
1808.90913	12872.05
1812.09102	12865.75
1815.27083	12805.05
1818.44856	12801.75
1821.6242	12804.35
1824.79776	12789.55
1827.96924	12783.95
1831.13864	12781.05
1834.30597	12796.85
1837.47122	12749.15
1840.6344	12732.85
1843.7955	12730.15
1846.95454	12709.75
1850.11151	12705.65
1853.26642	12729.45
1856.41926	12709.75
1859.57004	12723.15
1862.71876	12681.55
1865.86542	12683.05
1869.01003	12684.55
1872.15258	12681.85
1875.29308	12655.45
1878.43152	12636.75
1881.56792	12621.85
1884.70227	12614.25
1887.83457	12605.55
1890.96482	12599.55
1894.09304	12602.15
1897.21921	12597.15
1900.34335	12579.45
1903.46544	12568.45
1906.58551	12572.15
1909.70353	12522.65
1912.81953	12540.65
1915.93349	12514.15
1919.04543	12482.65
1922.15534	12455.25
1925.26322	12454.55
1928.36908	12407.95
1931.47292	12392.25
1934.57473	12360.25
1937.67453	12337.35
1940.77232	12300.65
1943.86808	12288.45
1946.96184	12242.95
1950.05358	12224.45
1953.14331	12199.35
1956.23103	12167.65
1959.31675	12136.45
1962.40046	12104.75
1965.48217	12072.55
1968.56188	12056.05
1971.63959	12018.85
1974.7153	11964.95
1977.78901	11937.85
1980.86073	11879.05
1983.93046	11863.55
1986.99819	11809.45
1990.06394	11804.55
1993.1277	11760.65
1996.18947	11729.35
1999.24925	11685.75
2002.30706	11663.65
2005.36288	11617.25
2008.41672	11593.15
2011.46859	11557.45
2014.51848	11538.45
2017.56639	11513.35
2020.61233	11475.35
2023.6563	11467.95
2026.6983	11441.15
2029.73833	11446.95
2032.7764	11421.55
2035.8125	11391.85
2038.84664	11367.25
2041.87881	11330.15
2044.90903	11330.65
2047.93729	11318.45
2050.96359	11309.35
2053.98794	11300.15
2057.01034	11277.55
2060.03078	11274.55
2063.04927	11258.65
2066.06582	11265.65
2069.08042	11244.35
2072.09307	11244.85
2075.10378	11233.45
2078.11255	11192.95
2081.11938	11217.55
2084.12426	11231.05
2087.12722	11235.55
2090.12824	11198.15
2093.12732	11231.75
2096.12447	11223.85
2099.11969	11222.55
2102.11299	11198.75
2105.10435	11227.15
2108.09379	11245.75
2111.08131	11245.05
2114.0669	11241.15
2117.05057	11251.95
2120.03233	11256.05
2123.01216	11282.25
2125.99008	11267.35
2128.96609	11295.95
2131.94018	11304.05
2134.91236	11300.15
2137.88263	11322.05
2140.851	11324.55
2143.81746	11320.95
2146.78201	11313.05
2149.74466	11337.05
2152.7054	11349.85
2155.66425	11362.75
2158.6212	11357.95
2161.57625	11365.75
2164.52941	11331.35
2167.48067	11360.35
2170.43004	11328.75
2173.37752	11334.85
2176.32311	11336.65
2179.26681	11333.25
2182.20863	11312.45
2185.14856	11319.35
2188.08661	11318.85
2191.02278	11313.35
2193.95707	11315.35
2196.88948	11302.85
2199.82001	11292.35
2202.74867	11265.35
2205.67545	11281.85
2208.60037	11281.55
2211.52341	11258.05
2214.44458	11240.75
2217.36388	11236.15
2220.28132	11209.95
2223.1969	11203.75
2226.11061	11194.55
2229.02246	11165.75
2231.93245	11152.15
2234.84058	11133.45
2237.74686	11118.65
2240.65128	11108.15
2243.55385	11064.95
2246.45456	11060.55
2249.35343	11055.45
2252.25044	11044.25
2255.14561	11020.15
2258.03893	11020.45
2260.93041	10988.85
2263.82004	10968.25
2266.70783	10966.55
2269.59378	10926.95
2272.4779	10888.95
2275.36017	10877.25
2278.24061	10852.95
2281.11922	10830.05
2283.996	10818.65
2286.87094	10796.75
2289.74405	10777.05
2292.61534	10766.05
2295.4848	10762.25
2298.35243	10762.65
2301.21824	10734.85
2304.08223	10725.85
2306.94439	10729.25
2309.80474	10715.55
2312.66327	10736.15
2315.51999	10726.75
2318.37489	10709.15
2321.22797	10694.55
2324.07925	10707.75
2326.92871	10688.65
2329.77637	10681.75
2332.62222	10670.75
2335.46626	10670.25
2338.3085	10674.05
2341.14893	10647.75
2343.98756	10631.85
2346.8244	10621.65
2349.65943	10606.55
2352.49267	10618.55
2355.32411	10628.45
2358.15376	10631.75
2360.98161	10616.35
2363.80768	10598.65
2366.63195	10585.85
2369.45444	10571.15
2372.27514	10547.45
2375.09405	10544.05
2377.91118	10528.15
2380.72652	10514.75
2383.54009	10509.65
2386.35187	10473.35
2389.16188	10466.65
2391.97011	10459.45
2394.77657	10421.05
2397.58125	10400.55
2400.38416	10392.15
2403.18529	10375.35
2405.98466	10365.95
2408.78226	10361.65
2411.57809	10342.45
2414.37216	10315.45
2417.16446	10338.35
2419.955	10294.05
2422.74378	10294.05
2425.5308	10261.45
2428.31606	10257.85
2431.09956	10263.95
2433.88131	10241.85
2436.6613	10229.95
2439.43954	10224.95
2442.21603	10234.85
2444.99077	10183.45
2447.76377	10208.45
2450.53501	10235.95
2453.30451	10207.65
2456.07226	10187.15
2458.83827	10195.65
2461.60254	10196.85
2464.36507	10162.75
2467.12586	10182.35
2469.88492	10174.55
2472.64224	10168.35
2475.39782	10151.25
2478.15167	10185.15
2480.90379	10173.25
2483.65417	10179.75
2486.40283	10160.75
2489.14976	10184.55
2491.89497	10169.85
2494.63845	10204.45
2497.3802	10158.65
2500.12024	10158.45
2502.85855	10152.65
2505.59514	10141.55
2508.33002	10154.15
2511.06318	10117.45
2513.79462	10096.35
2516.52435	10087.75
2519.25237	10099.95
2521.97867	10094.95
2524.70327	10110.95
2527.42616	10088.05
2530.14734	10074.55
2532.86681	10050.45
2535.58458	10040.55
2538.30065	10041.45
2541.01501	10006.25
2543.72768	10024.25
2546.43864	10022.95
2549.14791	10000.85
2551.85548	9989.95
2554.56136	9985.05
2557.26554	9939.65
2559.96803	9943.35
2562.66883	9929.45
2565.36794	9935.75
2568.06536	9939.25
2570.7611	9935.85
2573.45514	9926.75
2576.14751	9898.25
2578.83819	9884.05
2581.52719	9882.95
2584.21451	9854.45
2586.90015	9879.75
2589.58411	9847.95
2592.2664	9849.35
2594.94701	9821.15
2597.62594	9814.25
2600.30321	9798.25
2602.9788	9792.45
2605.65273	9795.25
2608.32498	9772.35
2610.99557	9739.55
2613.66449	9766.25
2616.33175	9762.55
2618.99734	9749.55
2621.66128	9757.15
2624.32355	9741.25
2626.98416	9747.45
2629.64311	9726.65
2632.30041	9770.35
2634.95605	9717.15
2637.61004	9733.55
2640.26238	9731.25
2642.91306	9716.65
2645.56209	9685.55
2648.20948	9705.35
2650.85521	9685.25
2653.4993	9693.65
2656.14175	9684.05
2658.78255	9680.65
2661.42171	9677.05
2664.05923	9702.95
2666.6951	9683.65
2669.32934	9685.95
2671.96194	9675.85
2674.59291	9670.35
2677.22224	9667.35
2679.84993	9684.25
2682.476	9682.45
2685.10043	9679.05
2687.72324	9682.85
2690.34441	9692.65
2692.96396	9671.75
2695.58188	9685.05
2698.19818	9664.95
2700.81285	9685.15
2703.4259	9665.95
2706.03733	9711.65
2708.64714	9701.05
2711.25533	9722.35
2713.86191	9710.45
2716.46687	9724.85
2719.07021	9723.85
2721.67194	9705.95
2724.27206	9710.35
2726.87057	9714.85
2729.46747	9694.15
2732.06276	9718.05
2734.65644	9706.55
2737.24852	9708.75
2739.83899	9688.95
2742.42786	9712.85
2745.01513	9682.25
2747.60079	9683.65
2750.18486	9676.15
2752.76733	9704.65
2755.3482	9688.95
2757.92747	9675.45
2760.50515	9652.25
2763.08123	9652.05
2765.65573	9640.95
2768.22863	9649.15
2770.79994	9645.75
2773.36967	9618.25
2775.9378	9639.05
2778.50435	9616.25
2781.06932	9599.75
2783.6327	9608.25
2786.1945	9591.95
2788.75471	9585.55
2791.31335	9559.15
2793.87041	9563.75
2796.42589	9538.35
2798.97979	9551.55
2801.53212	9516.95
2804.08288	9497.55
2806.63206	9454.35
2809.17967	9466.05
2811.72571	9432.35
2814.27018	9427.85
2816.81308	9419.95
2819.35442	9415.75
2821.89419	9380.45
2824.43239	9411.95
2826.96904	9373.25
2829.50412	9363.65
2832.03763	9352.55
2834.56959	9342.15
2837.1	9328.45
2839.62884	9337.95
2842.15613	9312.35
2844.68186	9354.75
2847.20604	9321.15
2849.72867	9360.65
2852.24974	9333.25
2854.76927	9333.65
2857.28724	9334.05
2859.80367	9332.05
2862.31855	9309.65
2864.83189	9299.65
2867.34368	9275.15
2869.85393	9297.65
2872.36264	9283.45
2874.8698	9274.55
2877.37543	9281.85
2879.87952	9269.75
2882.38207	9299.65
2884.88308	9294.95
2887.38256	9298.85
2889.88051	9300.15
2892.37692	9267.15
2894.8718	9266.65
2897.36515	9285.75
2899.85698	9313.75
2902.34727	9308.25
2904.83604	9307.05
2907.32328	9337.75
2909.809	9309.85
2912.29319	9344.45
2914.77587	9345.25
2917.25702	9329.65
2919.73665	9330.05
2922.21476	9323.95
2924.69136	9328.05
2927.16644	9323.15
2929.64	9319.45
2932.11205	9310.25
2934.58258	9267.05
2937.05161	9311.65
2939.51912	9290.05
2941.98513	9300.15
2944.44962	9273.55
2946.91261	9225.65
2949.37409	9256.35
2951.83407	9259.35
2954.29254	9229.75
2956.74951	9201.05
2959.20498	9204.55
2961.65895	9214.55
2964.11142	9201.05
2966.56239	9190.05
2969.01186	9186.15
2971.45984	9154.85
2973.90632	9101.35
2976.35131	9082.25
2978.7948	9063.85
2981.23681	9077.45
2983.67732	9076.15
2986.11635	9042.45
2988.55388	9010.55
2990.98993	8989.05
2993.4245	8995.15
2995.85758	8979.55
2998.28917	8938.45
3000.71928	8943.95
3003.14791	8924.55
3005.57506	8928.95
3008.00073	8912.05
3010.42493	8915.95
3012.84764	8882.35
3015.26888	8875.55
3017.68865	8839.15
3020.10694	8853.15
3022.52376	8825.05
3024.9391	8836.95
3027.35298	8815.75
3029.76539	8824.85
3032.17632	8814.15
3034.5858	8786.05
3036.9938	8789.65
3039.40034	8771.75
3041.80542	8776.25
3044.20903	8750.35
3046.61118	8737.35
3049.01187	8737.55
3051.4111	8720.95
3053.80888	8707.35
3056.20519	8728.05
3058.60005	8669.15
3060.99345	8664.95
3063.3854	8665.85
3065.7759	8624.45
3068.16494	8634.95
3070.55254	8591.05
3072.93868	8599.35
3075.32338	8562.05
3077.70662	8556.35
3080.08842	8537.75
3082.46878	8530.75
3084.84769	8516.25
3087.22515	8517.35
3089.60118	8518.55
3091.97576	8518.75
3094.3489	8528.75
3096.72061	8517.25
3099.09087	8511.35
3101.4597	8497.65
3103.82709	8487.75
3106.19305	8485.55
3108.55757	8489.95
3110.92066	8464.15
3113.28232	8493.65
3115.64255	8418.75
3118.00134	8433.05
3120.35871	8436.45
3122.71466	8417.25
3125.06917	8407.35
3127.42226	8385.95
3129.77393	8414.25
3132.12417	8406.45
3134.47299	8416.95
3136.82039	8410.15
3139.16636	8402.15
3141.51092	8417.45
3143.85406	8423.15
3146.19579	8412.85
3148.53609	8414.55
3150.87499	8416.85
3153.21246	8406.45
3155.54853	8444.25
3157.88318	8417.65
3160.21642	8422.75
3162.54826	8422.55
3164.87868	8428.75
3167.2077	8438.55
3169.5353	8418.45
3171.86151	8430.05
3174.18631	8437.55
3176.5097	8427.95
3178.83169	8418.05
3181.15228	8423.55
3183.47147	8412.35
3185.78926	8414.15
3188.10565	8394.25
3190.42065	8400.65
3192.73424	8414.05
3195.04645	8403.35
3197.35725	8412.75
3199.66667	8399.15
3201.97469	8431.45
3204.28132	8420.15
3206.58656	8430.55
3208.8904	8431.15
3211.19287	8441.05
3213.49394	8428.75
3215.79363	8426.45
3218.09193	8435.75
3220.38884	8424.75
3222.68438	8446.35
3224.97853	8409.85
3227.2713	8410.35
3229.56269	8397.05
3231.8527	8409.35
3234.14133	8375.55
3236.42858	8365.65
3238.71446	8376.65
3240.99896	8351.05
3243.28209	8344.35
3245.56384	8352.85
3247.84423	8365.75
3250.12324	8352.85
3252.40088	8353.25
3254.67715	8336.15
3256.95205	8321.35
3259.22558	8343.75
3261.49775	8340.25
3263.76855	8300.95
3266.03799	8284.45
3268.30606	8264.85
3270.57277	8265.45
3272.83812	8255.75
3275.10211	8232.85
