Data from AgNP_FTO_APTES_CRN_1uM_R6G_10uM_NaF_0.1M_Addition_RamanShift__11__13-58-20-792.txt Node

Date: Wed Dec 15 13:58:20 GMT 2021
User: TCL
Spectrometer: QEP01345
Trigger mode: 4
Integration Time (sec): 7.000000E0
Scans to average: 10
Electric dark correction enabled: true
Nonlinearity correction enabled: false
Boxcar width: 0
XAxis mode: Raman Shifts
Number of Pixels in Spectrum: 1044
>>>>>Begin Spectral Data<<<<<
46.04893	-0.2125
50.45542	-2.1125
54.85868	-1.5125
59.25871	-2.4125
63.6555	162.8875
68.04907	174.8875
72.43941	184.0875
76.82654	192.8875
81.21044	200.2875
85.59113	207.5875
89.96862	218.8875
94.34289	222.6875
98.71396	227.2875
103.08183	238.5875
107.4465	244.7875
111.80798	251.7875
116.16626	255.5875
120.52136	265.0875
124.87327	270.6875
129.222	280.4875
133.56755	303.1875
137.90993	319.3875
142.24913	350.4875
146.58517	389.6875
150.91804	451.6875
155.24774	533.7875
159.57429	653.4875
163.89768	838.1875
168.21792	1097.9875
172.53501	1491.2875
176.84895	2059.8875
181.15975	2878.8875
185.46741	4000.8875
189.77193	5523.3875
194.07331	7345.9875
198.37157	9441.5875
202.6667	11674.9875
206.9587	13839.2875
211.24758	15923.1875
215.53334	18057.3875
219.81599	20302.7875
224.09553	22758.8875
228.37195	25474.9875
232.64527	28497.4875
236.91549	31613.0875
241.18261	34855.3875
245.44663	37932.8875
249.70755	40723.8875
253.96539	43098.8875
258.22014	45191.6875
262.4718	46752.5875
266.72039	47804.0875
270.96589	48288.1875
275.20832	48366.2875
279.44768	48135.1875
283.68397	47715.5875
287.91719	47273.5875
292.14735	46958.6875
296.37445	46885.9875
300.59849	46831.4875
304.81948	46907.0875
309.03742	47022.7875
313.25231	46948.3875
317.46415	46537.2875
321.67296	45873.6875
325.87872	45291.8875
330.08145	45035.2875
334.28114	44953.2875
338.47781	45289.1875
342.67145	45732.1875
346.86207	46324.6875
351.04966	46951.2875
355.23424	47760.8875
359.4158	48470.0875
363.59435	49039.1875
367.76989	49402.2875
371.94243	49613.2875
376.11196	49790.5875
380.27849	49756.1875
384.44203	49938.2875
388.60257	50355.6875
392.76012	50925.7875
396.91468	51761.8875
401.06626	52595.0875
405.21485	53202.2875
409.36047	53353.0875
413.50311	53144.4875
417.64277	53364.6875
421.77947	53958.1875
425.9132	54503.1875
430.04396	54772.6875
434.17176	54808.3875
438.2966	54721.7875
442.41849	55185.5875
446.53742	56145.2875
450.6534	57567.0875
454.76644	58590.5875
458.87653	58904.5875
462.98368	58655.0875
467.08789	57936.9875
471.18916	56948.5875
475.2875	55879.7875
479.38291	55194.5875
483.4754	54627.0875
487.56496	54134.0875
491.6516	53694.3875
495.73531	53310.6875
499.81612	53181.5875
503.89401	53738.1875
507.96899	54396.2875
512.04106	54568.9875
516.11023	54356.7875
520.1765	53632.4875
524.23987	52790.9875
528.30034	52068.3875
532.35792	51308.7875
536.41261	50754.9875
540.46441	50395.5875
544.51333	50463.1875
548.55936	51023.4875
552.60252	51885.8875
556.64279	52824.5875
560.6802	53678.4875
564.71473	54389.7875
568.7464	55546.0875
572.7752	57376.4875
576.80114	60090.5875
580.82422	63319.6875
584.84444	67110.3875
588.86181	71613.7875
592.87633	74742.7875
596.888	73245.8875
600.89682	68313.1875
604.9028	65694.6875
608.90594	66889.1875
612.90624	67968.3875
616.90371	63350.9875
620.89834	56345.6875
624.89015	53448.4875
628.87913	53464.4875
632.86528	54012.5875
636.84862	53710.7875
640.82913	52514.9875
644.80683	51170.0875
648.78172	50582.1875
652.75379	50804.3875
656.72306	51391.5875
660.68952	51871.5875
664.65319	51430.8875
668.61405	50674.5875
672.57211	50632.2875
676.52738	50843.6875
680.47986	50826.8875
684.42955	50441.1875
688.37646	50224.1875
692.32058	50656.5875
696.26192	51506.9875
700.20048	52339.6875
704.13626	52922.6875
708.06928	53100.7875
711.99952	53099.9875
715.927	53115.6875
719.85171	53229.0875
723.77365	52922.4875
727.69284	51956.8875
731.60928	50975.7875
735.52295	50412.1875
739.43388	50328.3875
743.34206	50492.8875
747.24749	50900.7875
751.15017	51494.7875
755.05012	52480.4875
758.94733	54048.3875
762.8418	56152.2875
766.73354	58964.7875
770.62254	61061.4875
774.50882	60606.2875
778.39237	57885.3875
782.27321	54955.8875
786.15132	52723.8875
790.02671	51378.5875
793.89938	50618.0875
797.76935	50360.5875
801.6366	50263.3875
805.50115	50188.8875
809.36299	49985.0875
813.22213	49611.2875
817.07857	49297.8875
820.93231	49051.1875
824.78336	48749.5875
828.63172	48568.6875
832.47738	48422.9875
836.32036	48324.2875
840.16066	48371.5875
843.99827	48455.1875
847.8332	48494.8875
851.66546	48603.8875
855.49504	48706.2875
859.32195	48745.0875
863.1462	48648.0875
866.96777	48574.6875
870.78668	48539.0875
874.60293	48562.0875
878.41652	48608.6875
882.22745	48717.2875
886.03573	48914.0875
889.84136	48909.2875
893.64433	48739.8875
897.44466	48570.0875
901.24235	48591.6875
905.0374	48528.3875
908.8298	48489.5875
912.61957	48658.4875
916.40671	49209.4875
920.19121	50022.8875
923.97308	50680.3875
927.75233	50719.6875
931.52895	49979.2875
935.30295	48911.6875
939.07433	48041.3875
942.84309	47388.7875
946.60924	47159.2875
950.37278	47128.4875
954.13371	47190.3875
957.89203	47203.4875
961.64774	47177.8875
965.40086	47200.3875
969.15137	47129.8875
972.89929	46951.1875
976.64461	46774.4875
980.38733	46663.9875
984.12747	46671.6875
987.86502	46832.5875
991.59999	47100.5875
995.33237	47509.5875
999.06217	48232.9875
1002.78939	49245.8875
1006.51404	50465.2875
1010.23611	51577.0875
1013.95561	52287.1875
1017.67255	52239.2875
1021.38692	51543.5875
1025.09872	50537.3875
1028.80796	49746.4875
1032.51465	49558.0875
1036.21877	49676.3875
1039.92035	49884.7875
1043.61937	50076.6875
1047.31584	50141.0875
1051.00976	50275.1875
1054.70114	50514.3875
1058.38998	50990.8875
1062.07627	51820.7875
1065.76003	52794.3875
1069.44126	54031.4875
1073.11995	55511.9875
1076.79611	56636.2875
1080.46974	56895.5875
1084.14085	56807.5875
1087.80943	57012.1875
1091.47549	57265.1875
1095.13903	57341.1875
1098.80005	56584.9875
1102.45857	54959.9875
1106.11456	53625.0875
1109.76805	52937.6875
1113.41903	52680.8875
1117.06751	52793.0875
1120.71348	52933.9875
1124.35696	53253.6875
1127.99793	53666.9875
1131.63641	54138.8875
1135.2724	54422.8875
1138.90589	54639.0875
1142.5369	55120.7875
1146.16542	55673.8875
1149.79145	56324.1875
1153.415	56984.4875
1157.03607	57996.1875
1160.65467	59973.7875
1164.27079	63138.9875
1167.88443	66513.4875
1171.49561	69415.4875
1175.10432	72309.7875
1178.71056	76011.0875
1182.31434	79687.4875
1185.91565	81726.4875
1189.51451	81847.0875
1193.11091	80641.0875
1196.70485	78657.1875
1200.29634	76523.7875
1203.88538	75211.2875
1207.47197	75379.7875
1211.05612	75664.7875
1214.63782	75115.6875
1218.21708	73125.6875
1221.79391	70268.0875
1225.36829	68008.0875
1228.94024	66597.3875
1232.50976	65713.2875
1236.07685	64995.3875
1239.6415	64513.4875
1243.20374	64433.9875
1246.76355	64912.9875
1250.32093	65969.5875
1253.8759	67401.4875
1257.42845	69390.7875
1260.97859	71565.3875
1264.52631	73837.6875
1268.07163	76111.0875
1271.61453	78451.5875
1275.15503	80746.3875
1278.69312	83184.2875
1282.22882	85980.2875
1285.76211	89023.4875
1289.29301	92561.9875
1292.82151	96515.4875
1296.34761	101375.7875
1299.87133	107180.1875
1303.39266	112820.1875
1306.9116	117043.8875
1310.42815	119295.7875
1313.94233	119767.4875
1317.45412	118744.4875
1320.96354	117525.7875
1324.47058	117217.3875
1327.97525	117975.7875
1331.47754	118834.8875
1334.97747	119028.7875
1338.47502	118483.0875
1341.97022	117060.2875
1345.46305	114910.3875
1348.95352	112515.9875
1352.44163	110807.8875
1355.92738	110822.9875
1359.41078	112797.8875
1362.89183	114629.2875
1366.37053	113447.3875
1369.84688	107387.3875
1373.32088	97918.0875
1376.79254	90439.7875
1380.26186	87554.8875
1383.72883	88052.1875
1387.19347	88780.7875
1390.65578	88123.9875
1394.11575	87794.9875
1397.57339	88895.6875
1401.0287	91042.1875
1404.48168	92982.1875
1407.93234	93264.7875
1411.38068	91368.1875
1414.82669	87983.5875
1418.27039	84026.6875
1421.71177	80192.0875
1425.15083	77407.6875
1428.58758	76415.6875
1432.02203	77667.7875
1435.45416	80432.9875
1438.88399	83491.6875
1442.31151	85626.6875
1445.73673	86389.4875
1449.15965	86248.1875
1452.58027	85654.4875
1455.9986	85183.2875
1459.41463	85582.8875
1462.82837	86930.4875
1466.23982	88674.9875
1469.64898	89945.2875
1473.05586	90702.5875
1476.46045	90799.2875
1479.86276	90067.9875
1483.26279	88997.8875
1486.66054	88276.3875
1490.05602	88301.4875
1493.44922	88771.0875
1496.84016	89184.1875
1500.22882	89765.9875
1503.61521	90342.4875
1506.99934	91048.2875
1510.38121	91500.7875
1513.76081	91525.7875
1517.13816	91161.3875
1520.51324	91132.0875
1523.88607	91981.8875
1527.25665	93230.5875
1530.62498	94169.6875
1533.99105	93939.0875
1537.35488	92465.5875
1540.71647	89841.0875
1544.07581	86902.8875
1547.4329	84220.6875
1550.78776	81808.8875
1554.14038	80161.7875
1557.49077	79153.6875
1560.83892	78308.3875
1564.18484	77768.8875
1567.52853	77431.0875
1570.86999	78156.1875
1574.20922	79995.8875
1577.54624	82335.2875
1580.88103	84283.5875
1584.2136	86987.7875
1587.54395	90882.5875
1590.87208	96076.7875
1594.19801	101679.6875
1597.52172	106090.9875
1600.84321	105820.1875
1604.16251	99657.6875
1607.47959	90866.4875
1610.79447	82459.9875
1614.10715	75243.2875
1617.41763	69363.8875
1620.7259	65516.4875
1624.03199	63573.6875
1627.33587	63786.9875
1630.63757	66031.9875
1633.93707	70980.2875
1637.23439	79375.9875
1640.52951	91396.7875
1643.82246	104915.0875
1647.11321	114368.3875
1650.40179	113746.5875
1653.68819	102821.4875
1656.97241	87522.5875
1660.25446	73863.4875
1663.53433	64319.6875
1666.81203	58235.2875
1670.08756	54449.1875
1673.36092	52015.3875
1676.63211	50424.3875
1679.90115	49294.8875
1683.16801	48366.6875
1686.43272	47736.8875
1689.69527	47249.9875
1692.95567	46933.1875
1696.2139	46675.5875
1699.46999	46489.9875
1702.72392	46274.2875
1705.97571	46130.4875
1709.22535	46016.1875
1712.47284	45929.4875
1715.71819	45813.9875
1718.96139	45682.7875
1722.20246	45478.1875
1725.44139	45311.3875
1728.67818	45028.3875
1731.91284	44767.8875
1735.14537	44427.8875
1738.37576	44238.8875
1741.60403	44064.6875
1744.83017	43917.3875
1748.05418	43797.8875
1751.27607	43662.1875
1754.49584	43583.0875
1757.71349	43440.1875
1760.92903	43456.3875
1764.14244	43412.6875
1767.35375	43457.7875
1770.56294	43332.0875
1773.77002	43257.9875
1776.97499	43222.1875
1780.17785	43143.0875
1783.37861	43092.7875
1786.57727	43034.8875
1789.77382	42847.5875
1792.96828	42796.4875
1796.16064	42739.2875
1799.3509	42658.4875
1802.53907	42528.7875
1805.72514	42401.5875
1808.90913	42311.5875
1812.09102	42229.5875
1815.27083	42187.8875
1818.44856	42112.3875
1821.6242	42098.9875
1824.79776	42059.3875
1827.96924	42036.6875
1831.13864	41966.5875
1834.30597	42089.5875
1837.47122	42075.2875
1840.6344	42099.3875
1843.7955	42077.6875
1846.95454	42063.0875
1850.11151	42025.7875
1853.26642	41957.3875
1856.41926	41955.7875
1859.57004	41891.7875
1862.71876	41858.9875
1865.86542	41783.0875
1869.01003	41794.4875
1872.15258	41790.7875
1875.29308	41689.4875
1878.43152	41529.1875
1881.56792	41484.7875
1884.70227	41454.3875
1887.83457	41413.5875
1890.96482	41439.9875
1894.09304	41272.4875
1897.21921	41276.0875
1900.34335	41186.9875
1903.46544	41103.2875
1906.58551	41068.2875
1909.70353	41056.0875
1912.81953	40975.7875
1915.93349	40910.1875
1919.04543	40772.8875
1922.15534	40739.8875
1925.26322	40659.9875
1928.36908	40561.5875
1931.47292	40475.9875
1934.57473	40328.9875
1937.67453	40246.9875
1940.77232	40104.7875
1943.86808	39984.1875
1946.96184	39912.1875
1950.05358	39795.3875
1953.14331	39679.3875
1956.23103	39582.5875
1959.31675	39539.5875
1962.40046	39396.3875
1965.48217	39232.5875
1968.56188	39163.6875
1971.63959	38939.9875
1974.7153	38873.8875
1977.78901	38765.5875
1980.86073	38628.0875
1983.93046	38541.7875
1986.99819	38357.5875
1990.06394	38314.6875
1993.1277	38259.1875
1996.18947	38152.5875
1999.24925	37995.4875
2002.30706	37864.4875
2005.36288	37764.7875
2008.41672	37667.0875
2011.46859	37507.2875
2014.51848	37457.8875
2017.56639	37387.0875
2020.61233	37236.7875
2023.6563	37172.4875
2026.6983	37068.1875
2029.73833	37025.4875
2032.7764	36979.0875
2035.8125	36924.1875
2038.84664	36813.2875
2041.87881	36785.2875
2044.90903	36706.5875
2047.93729	36619.6875
2050.96359	36599.0875
2053.98794	36535.4875
2057.01034	36500.7875
2060.03078	36422.8875
2063.04927	36395.1875
2066.06582	36399.9875
2069.08042	36309.2875
2072.09307	36329.7875
2075.10378	36280.7875
2078.11255	36222.0875
2081.11938	36275.3875
2084.12426	36187.8875
2087.12722	36164.1875
2090.12824	36194.0875
2093.12732	36194.8875
2096.12447	36222.5875
2099.11969	36213.4875
2102.11299	36205.8875
2105.10435	36228.3875
2108.09379	36232.9875
2111.08131	36255.4875
2114.0669	36253.2875
2117.05057	36286.8875
2120.03233	36336.6875
2123.01216	36329.6875
2125.99008	36363.3875
2128.96609	36354.6875
2131.94018	36368.3875
2134.91236	36340.3875
2137.88263	36350.4875
2140.851	36291.6875
2143.81746	36445.3875
2146.78201	36370.5875
2149.74466	36360.8875
2152.7054	36389.3875
2155.66425	36405.0875
2158.6212	36382.0875
2161.57625	36399.5875
2164.52941	36356.6875
2167.48067	36362.7875
2170.43004	36319.3875
2173.37752	36303.3875
2176.32311	36298.2875
2179.26681	36288.9875
2182.20863	36266.2875
2185.14856	36277.2875
2188.08661	36260.7875
2191.02278	36328.6875
2193.95707	36208.3875
2196.88948	36230.6875
2199.82001	36195.6875
2202.74867	36089.9875
2205.67545	36081.6875
2208.60037	36012.5875
2211.52341	36012.3875
2214.44458	35898.5875
2217.36388	35803.8875
2220.28132	35808.5875
2223.1969	35723.9875
2226.11061	35667.3875
2229.02246	35619.0875
2231.93245	35626.2875
2234.84058	35550.8875
2237.74686	35479.4875
2240.65128	35499.0875
2243.55385	35414.1875
2246.45456	35347.6875
2249.35343	35215.0875
2252.25044	35198.5875
2255.14561	35119.0875
2258.03893	35081.3875
2260.93041	34980.4875
2263.82004	34844.5875
2266.70783	34789.4875
2269.59378	34694.9875
2272.4779	34667.2875
2275.36017	34502.9875
2278.24061	34448.0875
2281.11922	34360.5875
2283.996	34359.3875
2286.87094	34296.8875
2289.74405	34203.4875
2292.61534	34154.8875
2295.4848	34148.5875
2298.35243	34174.1875
2301.21824	34149.4875
2304.08223	34134.7875
2306.94439	34093.6875
2309.80474	34061.7875
2312.66327	34035.2875
2315.51999	33982.0875
2318.37489	33965.6875
2321.22797	34023.1875
2324.07925	33955.4875
2326.92871	33883.5875
2329.77637	33880.1875
2332.62222	33833.1875
2335.46626	33803.3875
2338.3085	33746.5875
2341.14893	33765.3875
2343.98756	33715.9875
2346.8244	33700.4875
2349.65943	33707.5875
2352.49267	33654.1875
2355.32411	33671.9875
2358.15376	33623.1875
2360.98161	33605.9875
2363.80768	33622.4875
2366.63195	33584.4875
2369.45444	33521.8875
2372.27514	33555.4875
2375.09405	33476.9875
2377.91118	33385.7875
2380.72652	33247.2875
2383.54009	33206.4875
2386.35187	33212.9875
2389.16188	33116.6875
2391.97011	33038.4875
2394.77657	32991.2875
2397.58125	32998.0875
2400.38416	32952.3875
2403.18529	32901.4875
2405.98466	32899.8875
2408.78226	32824.5875
2411.57809	32761.6875
2414.37216	32737.8875
2417.16446	32739.9875
2419.955	32687.3875
2422.74378	32667.6875
2425.5308	32609.5875
2428.31606	32629.6875
2431.09956	32594.9875
2433.88131	32596.0875
2436.6613	32540.4875
2439.43954	32519.2875
2442.21603	32558.5875
2444.99077	32497.8875
2447.76377	32469.4875
2450.53501	32418.9875
2453.30451	32465.9875
2456.07226	32471.3875
2458.83827	32434.1875
2461.60254	32414.9875
2464.36507	32413.5875
2467.12586	32398.0875
2469.88492	32350.0875
2472.64224	32337.7875
2475.39782	32373.8875
2478.15167	32390.7875
2480.90379	32416.3875
2483.65417	32374.6875
2486.40283	32367.3875
2489.14976	32295.1875
2491.89497	32277.0875
2494.63845	32314.4875
2497.3802	32291.6875
2500.12024	32311.3875
2502.85855	32277.6875
2505.59514	32272.3875
2508.33002	32268.6875
2511.06318	32145.6875
2513.79462	32198.3875
2516.52435	32206.9875
2519.25237	32187.9875
2521.97867	32152.3875
2524.70327	32147.3875
2527.42616	32150.4875
2530.14734	32158.3875
2532.86681	32036.2875
2535.58458	32027.0875
2538.30065	32045.5875
2541.01501	32020.8875
2543.72768	31946.8875
2546.43864	31932.8875
2549.14791	31889.2875
2551.85548	31899.0875
2554.56136	31859.5875
2557.26554	31795.7875
2559.96803	31758.9875
2562.66883	31762.2875
2565.36794	31748.0875
2568.06536	31743.4875
2570.7611	31700.9875
2573.45514	31633.5875
2576.14751	31645.1875
2578.83819	31593.4875
2581.52719	31574.9875
2584.21451	31521.3875
2586.90015	31499.0875
2589.58411	31450.9875
2592.2664	31465.4875
2594.94701	31385.0875
2597.62594	31374.3875
2600.30321	31341.8875
2602.9788	31313.7875
2605.65273	31334.8875
2608.32498	31340.5875
2610.99557	31359.1875
2613.66449	31345.9875
2616.33175	31271.7875
2618.99734	31288.5875
2621.66128	31254.4875
2624.32355	31242.4875
2626.98416	31223.3875
2629.64311	31158.8875
2632.30041	31158.9875
2634.95605	31109.7875
2637.61004	31093.7875
2640.26238	31096.2875
2642.91306	31083.3875
2645.56209	31087.9875
2648.20948	31111.9875
2650.85521	31097.0875
2653.4993	31155.3875
2656.14175	31124.3875
2658.78255	31109.0875
2661.42171	31119.6875
2664.05923	31152.9875
2666.6951	31106.7875
2669.32934	31204.2875
2671.96194	31170.7875
2674.59291	31233.5875
2677.22224	31200.7875
2679.84993	31211.1875
2682.476	31210.7875
2685.10043	31182.9875
2687.72324	31159.3875
2690.34441	31178.0875
2692.96396	31166.5875
2695.58188	31213.9875
2698.19818	31144.3875
2700.81285	31163.0875
2703.4259	31168.3875
2706.03733	31257.5875
2708.64714	31237.3875
2711.25533	31257.1875
2713.86191	31189.9875
2716.46687	31220.1875
2719.07021	31242.9875
2721.67194	31268.1875
2724.27206	31250.7875
2726.87057	31243.6875
2729.46747	31299.6875
2732.06276	31295.4875
2734.65644	31324.8875
2737.24852	31320.8875
2739.83899	31333.3875
2742.42786	31405.7875
2745.01513	31359.6875
2747.60079	31341.7875
2750.18486	31318.6875
2752.76733	31306.7875
2755.3482	31269.0875
2757.92747	31215.3875
2760.50515	31190.2875
2763.08123	31196.7875
2765.65573	31117.5875
2768.22863	31171.1875
2770.79994	31100.8875
2773.36967	31125.2875
2775.9378	31052.8875
2778.50435	31080.5875
2781.06932	31030.6875
2783.6327	31002.4875
2786.1945	30972.0875
2788.75471	30971.7875
2791.31335	30932.6875
2793.87041	30883.3875
2796.42589	30801.6875
2798.97979	30765.7875
2801.53212	30709.2875
2804.08288	30700.4875
2806.63206	30603.1875
2809.17967	30553.0875
2811.72571	30486.4875
2814.27018	30448.1875
2816.81308	30404.0875
2819.35442	30357.4875
2821.89419	30255.9875
2824.43239	30215.7875
2826.96904	30178.5875
2829.50412	30129.8875
2832.03763	30030.6875
2834.56959	30025.2875
2837.1	29980.9875
2839.62884	29984.6875
2842.15613	29936.9875
2844.68186	29948.2875
2847.20604	29885.1875
2849.72867	29801.3875
2852.24974	29833.9875
2854.76927	29786.4875
2857.28724	29789.6875
2859.80367	29742.5875
2862.31855	29693.4875
2864.83189	29646.6875
2867.34368	29609.7875
2869.85393	29595.5875
2872.36264	29550.0875
2874.8698	29560.2875
2877.37543	29529.8875
2879.87952	29518.0875
2882.38207	29503.6875
2884.88308	29510.9875
2887.38256	29526.2875
2889.88051	29515.5875
2892.37692	29482.0875
2894.8718	29537.0875
2897.36515	29563.3875
2899.85698	29573.1875
2902.34727	29550.7875
2904.83604	29585.7875
2907.32328	29584.1875
2909.809	29573.7875
2912.29319	29613.6875
2914.77587	29591.7875
2917.25702	29540.0875
2919.73665	29494.4875
2922.21476	29570.3875
2924.69136	29532.6875
2927.16644	29568.1875
2929.64	29511.8875
2932.11205	29517.3875
2934.58258	29419.0875
2937.05161	29430.1875
2939.51912	29435.1875
2941.98513	29374.3875
2944.44962	29316.2875
2946.91261	29248.9875
2949.37409	29313.2875
2951.83407	29292.8875
2954.29254	29269.0875
2956.74951	29180.3875
2959.20498	29166.9875
2961.65895	29156.0875
2964.11142	29111.9875
2966.56239	29053.5875
2969.01186	29034.7875
2971.45984	29000.0875
2973.90632	28911.1875
2976.35131	28815.5875
2978.7948	28829.0875
2981.23681	28701.9875
2983.67732	28672.2875
2986.11635	28583.5875
2988.55388	28512.9875
2990.98993	28385.1875
2993.4245	28356.8875
2995.85758	28257.7875
2998.28917	28225.4875
3000.71928	28215.8875
3003.14791	28081.4875
3005.57506	28043.5875
3008.00073	27957.8875
3010.42493	27951.2875
3012.84764	27912.2875
3015.26888	27858.4875
3017.68865	27761.8875
3020.10694	27723.6875
