Data from AgNP_FTO_APTES_CRN_100uM_R6G_10uM_NaF_0.1M_Addition_RamanShift__1__18-32-38-107.txt Node

Date: Wed Dec 15 18:32:38 GMT 2021
User: TCL
Spectrometer: QEP01345
Trigger mode: 4
Integration Time (sec): 7.000000E0
Scans to average: 10
Electric dark correction enabled: true
Nonlinearity correction enabled: false
Boxcar width: 0
XAxis mode: Raman Shifts
Number of Pixels in Spectrum: 1044
>>>>>Begin Spectral Data<<<<<
46.04893	1.1125
50.45542	-1.4875
54.85868	-0.8875
59.25871	-1.8875
63.6555	61.2125
68.04907	70.6125
72.43941	71.3125
76.82654	74.3125
81.21044	77.7125
85.59113	80.3125
89.96862	82.8125
94.34289	82.8125
98.71396	89.2125
103.08183	92.9125
107.4465	95.9125
111.80798	96.4125
116.16626	99.9125
120.52136	100.1125
124.87327	104.8125
129.222	107.2125
133.56755	112.2125
137.90993	120.6125
142.24913	131.6125
146.58517	144.1125
150.91804	169.0125
155.24774	197.8125
159.57429	241.3125
163.89768	309.3125
168.21792	405.9125
172.53501	547.6125
176.84895	759.7125
181.15975	1072.9125
185.46741	1504.2125
189.77193	2061.9125
194.07331	2748.5125
198.37157	3550.0125
202.6667	4411.8125
206.9587	5254.7125
211.24758	6077.6125
215.53334	6886.5125
219.81599	7766.5125
224.09553	8717.7125
228.37195	9783.9125
232.64527	10953.7125
236.91549	12187.4125
241.18261	13434.5125
245.44663	14588.4125
249.70755	15642.2125
253.96539	16528.4125
258.22014	17263.9125
262.4718	17906.0125
266.72039	18293.6125
270.96589	18464.9125
275.20832	18482.2125
279.44768	18342.3125
283.68397	18101.6125
287.91719	17876.4125
292.14735	17720.1125
296.37445	17674.3125
300.59849	17714.6125
304.81948	17796.5125
309.03742	17863.5125
313.25231	17770.1125
317.46415	17522.1125
321.67296	17111.1125
325.87872	16788.1125
330.08145	16589.4125
334.28114	16600.0125
338.47781	16732.9125
342.67145	16966.4125
346.86207	17251.7125
351.04966	17606.7125
355.23424	17943.5125
359.4158	18193.5125
363.59435	18385.4125
367.76989	18471.8125
371.94243	18507.3125
376.11196	18559.5125
380.27849	18611.6125
384.44203	18701.1125
388.60257	18822.6125
392.76012	19059.9125
396.91468	19303.2125
401.06626	19630.8125
405.21485	19882.6125
409.36047	19834.5125
413.50311	19563.3125
417.64277	19278.8125
421.77947	19145.3125
425.9132	19110.5125
430.04396	19121.2125
434.17176	19198.4125
438.2966	19269.1125
442.41849	19511.3125
446.53742	19945.3125
450.6534	20348.4125
454.76644	20632.8125
458.87653	20683.7125
462.98368	20628.9125
467.08789	20501.6125
471.18916	20363.2125
475.2875	20202.5125
479.38291	20132.4125
483.4754	19991.9125
487.56496	19869.7125
491.6516	19679.4125
495.73531	19482.7125
499.81612	19477.0125
503.89401	19543.4125
507.96899	19601.3125
512.04106	19663.5125
516.11023	19684.3125
520.1765	19689.5125
524.23987	19667.7125
528.30034	19620.4125
532.35792	19500.5125
536.41261	19267.8125
540.46441	19054.9125
544.51333	18993.1125
548.55936	19146.3125
552.60252	19453.0125
556.64279	19771.4125
560.6802	20035.9125
564.71473	20093.4125
568.7464	20242.3125
572.7752	20529.4125
576.80114	20769.1125
580.82422	21126.0125
584.84444	21647.3125
588.86181	22179.0125
592.87633	22579.4125
596.888	22548.9125
600.89682	22200.2125
604.9028	22349.6125
608.90594	23975.4125
612.90624	25943.9125
616.90371	24847.0125
620.89834	21376.9125
624.89015	19781.5125
628.87913	19572.4125
632.86528	19661.2125
636.84862	19691.1125
640.82913	19511.6125
644.80683	19169.5125
648.78172	18876.4125
652.75379	18861.2125
656.72306	19034.8125
660.68952	19337.8125
664.65319	19286.5125
668.61405	19016.0125
672.57211	18986.0125
676.52738	19007.7125
680.47986	19016.7125
684.42955	18942.8125
688.37646	18905.9125
692.32058	18972.7125
696.26192	19134.7125
700.20048	19347.0125
704.13626	19502.5125
708.06928	19557.5125
711.99952	19512.0125
715.927	19526.6125
719.85171	19536.6125
723.77365	19426.4125
727.69284	19272.5125
731.60928	19067.2125
735.52295	19009.0125
739.43388	19003.4125
743.34206	19025.4125
747.24749	19130.6125
751.15017	19258.0125
755.05012	19500.7125
758.94733	19910.7125
762.8418	20739.2125
766.73354	22083.5125
770.62254	23418.5125
774.50882	23796.9125
778.39237	22999.9125
782.27321	21669.2125
786.15132	20412.9125
790.02671	19646.7125
793.89938	19269.9125
797.76935	19159.6125
801.6366	19094.3125
805.50115	19081.3125
809.36299	18990.7125
813.22213	18922.7125
817.07857	18897.6125
820.93231	18875.1125
824.78336	18858.8125
828.63172	18896.1125
832.47738	18917.0125
836.32036	18997.5125
840.16066	19065.2125
843.99827	19054.5125
847.8332	18993.3125
851.66546	18905.9125
855.49504	18841.7125
859.32195	18882.5125
863.1462	18845.6125
866.96777	18802.0125
870.78668	18797.6125
874.60293	18805.0125
878.41652	18850.3125
882.22745	18920.9125
886.03573	18973.4125
889.84136	18991.0125
893.64433	18946.8125
897.44466	18860.4125
901.24235	18816.0125
905.0374	18782.6125
908.8298	18770.3125
912.61957	18799.6125
916.40671	18877.9125
920.19121	19038.0125
923.97308	19165.9125
927.75233	19287.2125
931.52895	19320.5125
935.30295	19184.7125
939.07433	18869.9125
942.84309	18642.5125
946.60924	18523.4125
950.37278	18447.2125
954.13371	18400.2125
957.89203	18362.8125
961.64774	18313.2125
965.40086	18319.9125
969.15137	18271.3125
972.89929	18241.9125
976.64461	18240.5125
980.38733	18271.2125
984.12747	18318.6125
987.86502	18468.9125
991.59999	18596.0125
995.33237	18778.4125
999.06217	19070.1125
1002.78939	19352.5125
1006.51404	19593.8125
1010.23611	19734.7125
1013.95561	19863.5125
1017.67255	19880.0125
1021.38692	19741.4125
1025.09872	19588.4125
1028.80796	19593.0125
1032.51465	19845.9125
1036.21877	20167.1125
1039.92035	20333.7125
1043.61937	20335.8125
1047.31584	20178.8125
1051.00976	20030.3125
1054.70114	20000.1125
1058.38998	20121.6125
1062.07627	20371.6125
1065.76003	20791.8125
1069.44126	21236.9125
1073.11995	21731.3125
1076.79611	21968.6125
1080.46974	21847.0125
1084.14085	21520.6125
1087.80943	21264.8125
1091.47549	21205.1125
1095.13903	21077.8125
1098.80005	20767.7125
1102.45857	20356.1125
1106.11456	20038.1125
1109.76805	19905.7125
1113.41903	19949.8125
1117.06751	20010.1125
1120.71348	20227.3125
1124.35696	20441.1125
1127.99793	20742.8125
1131.63641	20847.2125
1135.2724	20701.9125
1138.90589	20456.5125
1142.5369	20390.7125
1146.16542	20328.5125
1149.79145	20323.2125
1153.415	20363.7125
1157.03607	20481.4125
1160.65467	20755.9125
1164.27079	21303.0125
1167.88443	22074.3125
1171.49561	23131.8125
1175.10432	24531.7125
1178.71056	26321.6125
1182.31434	27879.8125
1185.91565	28481.3125
1189.51451	28147.5125
1193.11091	27245.4125
1196.70485	26151.5125
1200.29634	25180.7125
1203.88538	24471.4125
1207.47197	23933.2125
1211.05612	23477.0125
1214.63782	23105.5125
1218.21708	22817.8125
1221.79391	22505.7125
1225.36829	22349.9125
1228.94024	22219.9125
1232.50976	22076.8125
1236.07685	21888.2125
1239.6415	21785.8125
1243.20374	21809.9125
1246.76355	21891.6125
1250.32093	22158.5125
1253.8759	22513.9125
1257.42845	22974.1125
1260.97859	23454.2125
1264.52631	23881.2125
1268.07163	24413.2125
1271.61453	24970.4125
1275.15503	25446.5125
1278.69312	25985.7125
1282.22882	26431.1125
1285.76211	27023.1125
1289.29301	27769.3125
1292.82151	28540.4125
1296.34761	29566.1125
1299.87133	30735.1125
1303.39266	32151.3125
1306.9116	33722.2125
1310.42815	35234.6125
1313.94233	36054.6125
1317.45412	35821.6125
1320.96354	34906.2125
1324.47058	33876.5125
1327.97525	32968.7125
1331.47754	32285.8125
1334.97747	31861.6125
1338.47502	31581.5125
1341.97022	31397.4125
1345.46305	31268.8125
1348.95352	31497.6125
1352.44163	32244.7125
1355.92738	33515.0125
1359.41078	35445.1125
1362.89183	37064.8125
1366.37053	36631.8125
1369.84688	33936.4125
1373.32088	30674.9125
1376.79254	28296.2125
1380.26186	27184.4125
1383.72883	26659.3125
1387.19347	26244.2125
1390.65578	25806.8125
1394.11575	25486.0125
1397.57339	25427.5125
1401.0287	25549.7125
1404.48168	25580.8125
1407.93234	25445.9125
1411.38068	25165.6125
1414.82669	24768.0125
1418.27039	24279.8125
1421.71177	23741.8125
1425.15083	23220.6125
1428.58758	22968.1125
1432.02203	23026.0125
1435.45416	23333.1125
1438.88399	23607.7125
1442.31151	23783.6125
1445.73673	23960.6125
1449.15965	24113.5125
1452.58027	24188.3125
1455.9986	24134.8125
1459.41463	24261.5125
1462.82837	24589.3125
1466.23982	25005.6125
1469.64898	25417.0125
1473.05586	25748.8125
1476.46045	26024.3125
1479.86276	26174.0125
1483.26279	26290.4125
1486.66054	26521.3125
1490.05602	26930.1125
1493.44922	27544.2125
1496.84016	28274.9125
1500.22882	29311.7125
1503.61521	30717.0125
1506.99934	32198.1125
1510.38121	33250.3125
1513.76081	33268.0125
1517.13816	32197.0125
1520.51324	30405.4125
1523.88607	28832.4125
1527.25665	27789.5125
1530.62498	27217.8125
1533.99105	26872.8125
1537.35488	26576.7125
1540.71647	26164.7125
1544.07581	25741.5125
1547.4329	25306.6125
1550.78776	24998.4125
1554.14038	24785.8125
1557.49077	24729.2125
1560.83892	24780.1125
1564.18484	25007.8125
1567.52853	25467.3125
1570.86999	26060.1125
1574.20922	26777.4125
1577.54624	27360.7125
1580.88103	27441.5125
1584.2136	27108.9125
1587.54395	26741.5125
1590.87208	26804.6125
1594.19801	27367.4125
1597.52172	28292.1125
1600.84321	28668.4125
1604.16251	27922.4125
1607.47959	26563.3125
1610.79447	24926.0125
1614.10715	23424.8125
1617.41763	22235.8125
1620.7259	21479.2125
1624.03199	21053.9125
1627.33587	21037.8125
1630.63757	21345.7125
1633.93707	22124.0125
1637.23439	23351.8125
1640.52951	25281.5125
1643.82246	27850.5125
1647.11321	30269.7125
1650.40179	31356.7125
1653.68819	30243.2125
1656.97241	27530.9125
1660.25446	24538.2125
1663.53433	22242.7125
1666.81203	20692.7125
1670.08756	19735.4125
1673.36092	19089.0125
1676.63211	18676.0125
1679.90115	18401.0125
1683.16801	18203.2125
1686.43272	18084.3125
1689.69527	17964.9125
1692.95567	17895.0125
1696.2139	17855.8125
1699.46999	17850.0125
1702.72392	17775.2125
1705.97571	17754.7125
1709.22535	17704.4125
1712.47284	17694.4125
1715.71819	17722.3125
1718.96139	17693.0125
1722.20246	17644.9125
1725.44139	17622.9125
1728.67818	17538.4125
1731.91284	17483.0125
1735.14537	17413.0125
1738.37576	17355.5125
1741.60403	17352.7125
1744.83017	17308.9125
1748.05418	17302.1125
1751.27607	17264.9125
1754.49584	17203.8125
1757.71349	17216.4125
1760.92903	17236.4125
1764.14244	17236.3125
1767.35375	17230.5125
1770.56294	17173.3125
1773.77002	17181.6125
1776.97499	17165.5125
1780.17785	17178.0125
1783.37861	17107.0125
1786.57727	17056.2125
1789.77382	17048.3125
1792.96828	17004.3125
1796.16064	17026.5125
1799.3509	16948.9125
1802.53907	16936.7125
1805.72514	16903.4125
1808.90913	16874.4125
1812.09102	16877.3125
1815.27083	16818.2125
1818.44856	16810.8125
1821.6242	16779.4125
1824.79776	16765.5125
1827.96924	16777.7125
1831.13864	16737.4125
1834.30597	16782.2125
1837.47122	16761.8125
1840.6344	16732.9125
1843.7955	16732.8125
1846.95454	16707.7125
1850.11151	16715.1125
1853.26642	16697.5125
1856.41926	16713.9125
1859.57004	16705.4125
1862.71876	16698.3125
1865.86542	16648.3125
1869.01003	16667.7125
1872.15258	16653.2125
1875.29308	16625.8125
1878.43152	16585.3125
1881.56792	16578.3125
1884.70227	16581.1125
1887.83457	16555.0125
1890.96482	16544.2125
1894.09304	16543.4125
1897.21921	16518.8125
1900.34335	16525.7125
1903.46544	16508.3125
1906.58551	16475.8125
1909.70353	16480.5125
1912.81953	16442.3125
1915.93349	16428.1125
1919.04543	16390.3125
1922.15534	16369.3125
1925.26322	16348.9125
1928.36908	16346.3125
1931.47292	16338.1125
1934.57473	16265.6125
1937.67453	16248.3125
1940.77232	16201.6125
1943.86808	16175.7125
1946.96184	16184.4125
1950.05358	16116.8125
1953.14331	16117.8125
1956.23103	16051.0125
1959.31675	16014.7125
1962.40046	15966.2125
1965.48217	15938.4125
1968.56188	15914.3125
1971.63959	15884.8125
1974.7153	15819.6125
1977.78901	15766.6125
1980.86073	15727.5125
1983.93046	15691.3125
1986.99819	15645.4125
1990.06394	15606.8125
1993.1277	15560.4125
1996.18947	15484.5125
1999.24925	15470.3125
2002.30706	15418.0125
2005.36288	15370.4125
2008.41672	15348.6125
2011.46859	15291.0125
2014.51848	15294.0125
2017.56639	15267.3125
2020.61233	15218.8125
2023.6563	15205.0125
2026.6983	15164.3125
2029.73833	15183.2125
2032.7764	15150.2125
2035.8125	15102.7125
2038.84664	15021.7125
2041.87881	15052.8125
2044.90903	15004.0125
2047.93729	14983.3125
2050.96359	14973.4125
2053.98794	14944.8125
2057.01034	14964.1125
2060.03078	14982.3125
2063.04927	14937.4125
2066.06582	14914.5125
2069.08042	14923.9125
2072.09307	14937.1125
2075.10378	14904.7125
2078.11255	14898.4125
2081.11938	14903.9125
2084.12426	14927.8125
2087.12722	14893.6125
2090.12824	14867.3125
2093.12732	14936.6125
2096.12447	14947.2125
2099.11969	14922.0125
2102.11299	14921.4125
2105.10435	14915.2125
2108.09379	14951.9125
2111.08131	14975.4125
2114.0669	14977.4125
2117.05057	14958.1125
2120.03233	14988.0125
2123.01216	14982.7125
2125.99008	15010.4125
2128.96609	15027.9125
2131.94018	15059.0125
2134.91236	15062.6125
2137.88263	15100.3125
2140.851	15109.5125
2143.81746	15101.6125
2146.78201	15135.5125
2149.74466	15118.4125
2152.7054	15120.5125
2155.66425	15165.2125
2158.6212	15142.0125
2161.57625	15140.7125
2164.52941	15162.7125
2167.48067	15136.0125
2170.43004	15150.1125
2173.37752	15132.2125
2176.32311	15148.6125
2179.26681	15120.4125
2182.20863	15132.0125
2185.14856	15167.7125
2188.08661	15124.9125
2191.02278	15133.9125
2193.95707	15134.0125
2196.88948	15146.3125
2199.82001	15093.5125
2202.74867	15103.2125
2205.67545	15121.6125
2208.60037	15112.9125
2211.52341	15107.4125
2214.44458	15086.0125
2217.36388	15045.7125
2220.28132	15026.3125
2223.1969	14991.9125
2226.11061	14982.8125
2229.02246	14993.6125
2231.93245	14952.3125
2234.84058	14942.5125
2237.74686	14912.7125
2240.65128	14895.3125
2243.55385	14868.5125
2246.45456	14834.8125
2249.35343	14827.2125
2252.25044	14818.6125
2255.14561	14787.9125
2258.03893	14797.4125
2260.93041	14774.6125
2263.82004	14754.7125
2266.70783	14726.2125
2269.59378	14685.1125
2272.4779	14635.3125
2275.36017	14612.7125
2278.24061	14605.4125
2281.11922	14596.2125
2283.996	14556.7125
2286.87094	14554.6125
2289.74405	14499.0125
2292.61534	14530.8125
2295.4848	14483.0125
2298.35243	14497.0125
2301.21824	14502.8125
2304.08223	14518.5125
2306.94439	14491.4125
2309.80474	14477.0125
2312.66327	14459.3125
2315.51999	14466.3125
2318.37489	14460.5125
2321.22797	14446.0125
2324.07925	14434.2125
2326.92871	14437.5125
2329.77637	14450.6125
2332.62222	14396.1125
2335.46626	14394.2125
2338.3085	14370.4125
2341.14893	14369.2125
2343.98756	14381.2125
2346.8244	14360.7125
2349.65943	14325.1125
2352.49267	14330.8125
2355.32411	14328.1125
2358.15376	14312.5125
2360.98161	14298.4125
2363.80768	14335.4125
2366.63195	14289.3125
2369.45444	14274.8125
2372.27514	14284.1125
2375.09405	14250.9125
2377.91118	14235.4125
2380.72652	14229.3125
2383.54009	14220.2125
2386.35187	14200.9125
2389.16188	14121.5125
2391.97011	14133.9125
2394.77657	14118.0125
2397.58125	14049.9125
2400.38416	14045.1125
2403.18529	14031.1125
2405.98466	14027.3125
2408.78226	14015.0125
2411.57809	14015.9125
2414.37216	13959.2125
2417.16446	13960.3125
2419.955	13935.9125
2422.74378	13920.1125
2425.5308	13934.1125
2428.31606	13893.8125
2431.09956	13923.8125
2433.88131	13884.4125
2436.6613	13914.8125
2439.43954	13895.2125
2442.21603	13889.6125
2444.99077	13840.8125
2447.76377	13873.1125
2450.53501	13839.9125
2453.30451	13830.0125
2456.07226	13822.7125
2458.83827	13839.5125
2461.60254	13816.2125
2464.36507	13802.2125
2467.12586	13785.1125
2469.88492	13816.6125
2472.64224	13806.5125
2475.39782	13806.1125
2478.15167	13828.9125
2480.90379	13803.3125
2483.65417	13788.7125
2486.40283	13811.5125
2489.14976	13812.7125
2491.89497	13811.8125
2494.63845	13811.3125
2497.3802	13829.4125
2500.12024	13779.6125
2502.85855	13766.0125
2505.59514	13750.8125
2508.33002	13738.4125
2511.06318	13734.1125
2513.79462	13716.9125
2516.52435	13697.6125
2519.25237	13690.2125
2521.97867	13669.4125
2524.70327	13691.6125
2527.42616	13667.6125
2530.14734	13624.3125
2532.86681	13598.2125
2535.58458	13599.2125
2538.30065	13576.2125
2541.01501	13577.4125
2543.72768	13578.3125
2546.43864	13604.8125
2549.14791	13550.0125
2551.85548	13550.2125
2554.56136	13517.2125
2557.26554	13499.4125
2559.96803	13499.3125
2562.66883	13470.4125
2565.36794	13443.8125
2568.06536	13463.8125
2570.7611	13464.1125
2573.45514	13426.9125
2576.14751	13405.0125
2578.83819	13382.2125
2581.52719	13393.2125
2584.21451	13357.8125
2586.90015	13370.3125
2589.58411	13321.7125
2592.2664	13323.8125
2594.94701	13279.1125
2597.62594	13277.9125
2600.30321	13265.0125
2602.9788	13233.7125
2605.65273	13233.5125
2608.32498	13238.1125
2610.99557	13221.5125
2613.66449	13205.7125
2616.33175	13181.6125
2618.99734	13191.0125
2621.66128	13152.7125
2624.32355	13147.4125
2626.98416	13139.8125
2629.64311	13144.8125
2632.30041	13139.6125
2634.95605	13128.3125
2637.61004	13093.2125
2640.26238	13083.7125
2642.91306	13100.9125
2645.56209	13074.5125
2648.20948	13055.7125
2650.85521	13020.3125
2653.4993	13029.0125
2656.14175	13037.0125
2658.78255	13024.6125
2661.42171	13016.5125
2664.05923	13054.8125
2666.6951	13056.8125
2669.32934	13077.4125
2671.96194	13011.7125
2674.59291	13050.4125
2677.22224	13033.7125
2679.84993	13073.6125
2682.476	13032.5125
2685.10043	13043.3125
2687.72324	13031.6125
2690.34441	13035.2125
2692.96396	13033.8125
2695.58188	13034.1125
2698.19818	13023.9125
2700.81285	13061.4125
2703.4259	13062.2125
2706.03733	13113.3125
2708.64714	13112.9125
2711.25533	13105.5125
2713.86191	13106.5125
2716.46687	13111.6125
2719.07021	13093.8125
2721.67194	13101.1125
2724.27206	13052.0125
2726.87057	13083.3125
2729.46747	13101.0125
2732.06276	13075.6125
2734.65644	13066.6125
2737.24852	13097.4125
2739.83899	13051.9125
2742.42786	13055.5125
2745.01513	13037.7125
2747.60079	13020.3125
2750.18486	13036.4125
2752.76733	13037.0125
2755.3482	13041.2125
2757.92747	13028.4125
2760.50515	13006.5125
2763.08123	12994.0125
2765.65573	12971.6125
2768.22863	12973.7125
2770.79994	12935.1125
2773.36967	12951.4125
2775.9378	12952.2125
2778.50435	12916.1125
2781.06932	12896.0125
2783.6327	12904.3125
2786.1945	12904.7125
2788.75471	12895.3125
2791.31335	12845.8125
2793.87041	12843.4125
2796.42589	12832.2125
2798.97979	12805.3125
2801.53212	12778.5125
2804.08288	12789.4125
2806.63206	12736.1125
2809.17967	12711.0125
2811.72571	12678.1125
2814.27018	12707.1125
2816.81308	12664.6125
2819.35442	12646.2125
2821.89419	12656.9125
2824.43239	12630.6125
2826.96904	12609.4125
2829.50412	12655.7125
2832.03763	12597.2125
2834.56959	12614.4125
2837.1	12576.6125
2839.62884	12585.8125
2842.15613	12580.9125
2844.68186	12611.2125
2847.20604	12616.2125
2849.72867	12585.3125
2852.24974	12594.2125
2854.76927	12600.6125
2857.28724	12599.2125
2859.80367	12581.9125
2862.31855	12570.2125
2864.83189	12541.5125
2867.34368	12503.7125
2869.85393	12549.1125
2872.36264	12548.4125
2874.8698	12539.6125
2877.37543	12549.4125
2879.87952	12544.9125
2882.38207	12525.2125
2884.88308	12555.2125
2887.38256	12553.7125
2889.88051	12551.0125
2892.37692	12538.1125
2894.8718	12519.1125
2897.36515	12523.4125
2899.85698	12560.1125
2902.34727	12568.8125
2904.83604	12574.5125
2907.32328	12584.3125
2909.809	12552.6125
2912.29319	12584.0125
2914.77587	12603.5125
2917.25702	12566.8125
2919.73665	12542.7125
2922.21476	12593.2125
2924.69136	12581.3125
2927.16644	12546.3125
2929.64	12549.2125
2932.11205	12541.2125
2934.58258	12485.7125
2937.05161	12539.3125
2939.51912	12541.3125
2941.98513	12518.4125
2944.44962	12495.9125
2946.91261	12474.0125
2949.37409	12490.6125
2951.83407	12456.0125
2954.29254	12462.7125
2956.74951	12438.5125
2959.20498	12447.2125
2961.65895	12439.5125
2964.11142	12461.2125
2966.56239	12443.5125
2969.01186	12427.7125
2971.45984	12392.2125
2973.90632	12357.7125
2976.35131	12347.7125
2978.7948	12311.4125
2981.23681	12292.6125
2983.67732	12284.4125
2986.11635	12278.0125
2988.55388	12243.1125
2990.98993	12219.3125
2993.4245	12208.4125
2995.85758	12177.7125
2998.28917	12134.0125
3000.71928	12134.1125
3003.14791	12117.3125
3005.57506	12127.6125
3008.00073	12102.1125
3010.42493	12126.7125
3012.84764	12080.0125
3015.26888	12092.0125
3017.68865	12045.9125
3020.10694	12052.0125
3022.52376	12036.9125
3024.9391	12031.5125
