Data from AgNP_FTO_APTES_CRN_20uM_R6G_10uM_NaF_0.1M_Addition_RamanShift__4__17-05-08-008.txt Node

Date: Wed Dec 15 17:05:08 GMT 2021
User: TCL
Spectrometer: QEP01345
Trigger mode: 4
Integration Time (sec): 7.000000E0
Scans to average: 10
Electric dark correction enabled: true
Nonlinearity correction enabled: false
Boxcar width: 0
XAxis mode: Raman Shifts
Number of Pixels in Spectrum: 1044
>>>>>Begin Spectral Data<<<<<
46.04893	0.725
50.45542	-1.075
54.85868	-0.875
59.25871	-0.475
63.6555	64.325
68.04907	72.625
72.43941	77.825
76.82654	79.025
81.21044	82.525
85.59113	85.425
89.96862	89.325
94.34289	90.325
98.71396	94.225
103.08183	103.325
107.4465	105.125
111.80798	102.425
116.16626	103.825
120.52136	113.125
124.87327	111.325
129.222	116.325
133.56755	124.925
137.90993	130.125
142.24913	142.725
146.58517	159.425
150.91804	175.725
155.24774	211.425
159.57429	256.925
163.89768	322.425
168.21792	423.025
172.53501	577.325
176.84895	796.925
181.15975	1111.625
185.46741	1556.025
189.77193	2128.825
194.07331	2853.725
198.37157	3688.625
202.6667	4553.625
206.9587	5415.425
211.24758	6260.825
215.53334	7084.625
219.81599	7982.225
224.09553	8981.925
228.37195	10044.225
232.64527	11288.625
236.91549	12512.425
241.18261	13772.025
245.44663	15008.625
249.70755	16036.025
253.96539	16996.225
258.22014	17786.825
262.4718	18415.825
266.72039	18883.225
270.96589	19084.825
275.20832	19083.625
279.44768	18944.325
283.68397	18741.325
287.91719	18570.925
292.14735	18458.625
296.37445	18419.425
300.59849	18451.125
304.81948	18542.025
309.03742	18601.525
313.25231	18518.825
317.46415	18335.425
321.67296	17990.525
325.87872	17656.525
330.08145	17473.725
334.28114	17434.525
338.47781	17551.025
342.67145	17767.525
346.86207	18056.725
351.04966	18443.125
355.23424	18767.325
359.4158	19042.025
363.59435	19195.525
367.76989	19312.725
371.94243	19408.525
376.11196	19458.425
380.27849	19541.325
384.44203	19649.025
388.60257	19787.125
392.76012	19944.925
396.91468	20192.425
401.06626	20481.725
405.21485	20701.925
409.36047	20671.125
413.50311	20497.525
417.64277	20389.025
421.77947	20454.325
425.9132	20534.925
430.04396	20652.525
434.17176	20718.425
438.2966	20847.725
442.41849	21120.325
446.53742	21689.725
450.6534	22290.325
454.76644	22690.425
458.87653	22775.325
462.98368	22582.025
467.08789	22194.125
471.18916	21839.525
475.2875	21419.425
479.38291	21169.425
483.4754	20954.125
487.56496	20758.925
491.6516	20490.425
495.73531	20380.725
499.81612	20378.925
503.89401	20574.125
507.96899	20684.125
512.04106	20652.225
516.11023	20593.725
520.1765	20479.725
524.23987	20400.525
528.30034	20287.625
532.35792	20137.225
536.41261	19860.525
540.46441	19608.825
544.51333	19544.125
548.55936	19710.425
552.60252	20048.825
556.64279	20551.425
560.6802	20900.825
564.71473	20959.425
568.7464	21092.125
572.7752	21477.325
576.80114	22024.825
580.82422	22720.625
584.84444	23588.725
588.86181	24608.825
592.87633	25467.025
596.888	25358.725
600.89682	24404.225
604.9028	24047.225
608.90594	25270.125
612.90624	26787.925
616.90371	25410.825
620.89834	21947.425
624.89015	20350.125
628.87913	20083.525
632.86528	20154.625
636.84862	20051.725
640.82913	19750.325
644.80683	19356.425
648.78172	19098.425
652.75379	19116.525
656.72306	19304.325
660.68952	19509.325
664.65319	19420.425
668.61405	19122.425
672.57211	19099.825
676.52738	19179.725
680.47986	19152.325
684.42955	19018.825
688.37646	18967.625
692.32058	19100.025
696.26192	19348.825
700.20048	19626.625
704.13626	19795.125
708.06928	19819.125
711.99952	19698.325
715.927	19690.425
719.85171	19726.125
723.77365	19699.525
727.69284	19451.525
731.60928	19199.425
735.52295	19067.725
739.43388	19093.425
743.34206	19158.325
747.24749	19258.725
751.15017	19372.225
755.05012	19693.325
758.94733	20208.925
762.8418	21022.325
766.73354	22372.225
770.62254	23586.225
774.50882	23812.325
778.39237	22835.825
782.27321	21497.025
786.15132	20384.225
790.02671	19645.525
793.89938	19300.725
797.76935	19200.825
801.6366	19158.825
805.50115	19100.825
809.36299	19050.225
813.22213	18883.225
817.07857	18760.325
820.93231	18673.125
824.78336	18622.925
828.63172	18595.725
832.47738	18589.425
836.32036	18681.725
840.16066	18733.025
843.99827	18766.625
847.8332	18716.625
851.66546	18623.425
855.49504	18627.525
859.32195	18587.625
863.1462	18565.325
866.96777	18483.925
870.78668	18481.125
874.60293	18470.525
878.41652	18537.925
882.22745	18570.025
886.03573	18607.925
889.84136	18654.825
893.64433	18549.625
897.44466	18456.625
901.24235	18430.025
905.0374	18365.325
908.8298	18333.725
912.61957	18365.325
916.40671	18492.725
920.19121	18740.925
923.97308	18924.625
927.75233	18973.825
931.52895	18890.225
935.30295	18661.325
939.07433	18368.625
942.84309	18173.925
946.60924	18076.025
950.37278	18039.725
954.13371	18003.925
957.89203	17939.525
961.64774	17906.625
965.40086	17904.425
969.15137	17841.725
972.89929	17819.025
976.64461	17795.625
980.38733	17799.425
984.12747	17882.025
987.86502	17998.625
991.59999	18177.325
995.33237	18409.825
999.06217	18855.225
1002.78939	19349.425
1006.51404	19744.825
1010.23611	20058.625
1013.95561	20278.725
1017.67255	20262.325
1021.38692	20069.825
1025.09872	19774.925
1028.80796	19671.625
1032.51465	20032.525
1036.21877	20401.425
1039.92035	20539.425
1043.61937	20428.425
1047.31584	20111.725
1051.00976	19805.225
1054.70114	19645.725
1058.38998	19764.725
1062.07627	19980.025
1065.76003	20293.525
1069.44126	20743.225
1073.11995	21241.425
1076.79611	21598.725
1080.46974	21654.625
1084.14085	21484.025
1087.80943	21366.225
1091.47549	21266.625
1095.13903	21095.225
1098.80005	20739.825
1102.45857	20313.925
1106.11456	19951.725
1109.76805	19834.525
1113.41903	19840.725
1117.06751	19906.225
1120.71348	20058.025
1124.35696	20212.625
1127.99793	20416.425
1131.63641	20597.125
1135.2724	20489.525
1138.90589	20405.625
1142.5369	20370.525
1146.16542	20433.425
1149.79145	20503.925
1153.415	20630.425
1157.03607	20879.825
1160.65467	21363.725
1164.27079	22249.625
1167.88443	23400.725
1171.49561	24696.025
1175.10432	26325.625
1178.71056	28356.025
1182.31434	30366.425
1185.91565	31232.425
1189.51451	30889.825
1193.11091	29867.025
1196.70485	28719.925
1200.29634	27565.525
1203.88538	26769.425
1207.47197	26350.125
1211.05612	25970.925
1214.63782	25533.725
1218.21708	25048.525
1221.79391	24541.425
1225.36829	24275.725
1228.94024	24097.625
1232.50976	23675.525
1236.07685	23284.825
1239.6415	23020.425
1243.20374	23021.225
1246.76355	23159.125
1250.32093	23501.525
1253.8759	24008.825
1257.42845	24650.925
1260.97859	25324.525
1264.52631	26040.225
1268.07163	26787.025
1271.61453	27549.425
1275.15503	28344.725
1278.69312	29058.025
1282.22882	29703.725
1285.76211	30414.525
1289.29301	31314.025
1292.82151	32489.425
1296.34761	33981.625
1299.87133	35972.525
1303.39266	38177.825
1306.9116	40363.625
1310.42815	42292.725
1313.94233	43276.825
1317.45412	43008.025
1320.96354	41880.225
1324.47058	40803.025
1327.97525	39968.425
1331.47754	39425.525
1334.97747	39053.225
1338.47502	38774.625
1341.97022	38203.825
1345.46305	37725.725
1348.95352	37362.725
1352.44163	37601.125
1355.92738	38781.825
1359.41078	40636.025
1362.89183	42077.125
1366.37053	41426.125
1369.84688	38293.925
1373.32088	34294.225
1376.79254	31467.625
1380.26186	30363.225
1383.72883	30196.025
1387.19347	30101.425
1390.65578	29656.925
1394.11575	29478.825
1397.57339	29660.525
1401.0287	30150.825
1404.48168	30599.725
1407.93234	30660.725
1411.38068	30314.125
1414.82669	29639.125
1418.27039	28623.225
1421.71177	27517.125
1425.15083	26601.725
1428.58758	26173.925
1432.02203	26435.325
1435.45416	27147.125
1438.88399	27951.825
1442.31151	28551.525
1445.73673	28806.925
1449.15965	28924.825
1452.58027	28864.025
1455.9986	28721.725
1459.41463	28807.225
1462.82837	29222.525
1466.23982	29904.025
1469.64898	30457.625
1473.05586	30904.525
1476.46045	31113.525
1479.86276	30970.625
1483.26279	30683.025
1486.66054	30538.725
1490.05602	30645.725
1493.44922	30976.825
1496.84016	31197.525
1500.22882	31612.625
1503.61521	32321.825
1506.99934	33201.525
1510.38121	33868.025
1513.76081	33900.625
1517.13816	33123.925
1520.51324	31950.225
1523.88607	31016.725
1527.25665	30544.525
1530.62498	30470.025
1533.99105	30491.225
1537.35488	30295.825
1540.71647	29887.125
1544.07581	29232.625
1547.4329	28628.725
1550.78776	27952.125
1554.14038	27437.725
1557.49077	27173.925
1560.83892	26990.225
1564.18484	27010.625
1567.52853	27247.325
1570.86999	27656.625
1574.20922	28332.625
1577.54624	29111.925
1580.88103	29571.825
1584.2136	29846.825
1587.54395	30276.425
1590.87208	31299.425
1594.19801	32915.825
1597.52172	34747.625
1600.84321	35417.125
1604.16251	34121.325
1607.47959	31515.025
1610.79447	28597.425
1614.10715	26056.125
1617.41763	24062.825
1620.7259	22780.125
1624.03199	22171.725
1627.33587	22225.525
1630.63757	22862.625
1633.93707	24139.325
1637.23439	26351.825
1640.52951	29635.925
1643.82246	33526.825
1647.11321	36565.325
1650.40179	37047.325
1653.68819	34293.925
1656.97241	29837.125
1660.25446	25691.425
1663.53433	22680.725
1666.81203	20760.025
1670.08756	19594.625
1673.36092	18830.225
1676.63211	18325.125
1679.90115	17978.325
1683.16801	17716.725
1686.43272	17551.625
1689.69527	17428.525
1692.95567	17309.925
1696.2139	17240.425
1699.46999	17214.225
1702.72392	17179.225
1705.97571	17123.625
1709.22535	17068.525
1712.47284	17053.325
1715.71819	16996.125
1718.96139	17001.425
1722.20246	16941.725
1725.44139	16874.325
1728.67818	16800.125
1731.91284	16688.325
1735.14537	16605.425
1738.37576	16516.925
1741.60403	16514.125
1744.83017	16471.825
1748.05418	16430.725
1751.27607	16395.225
1754.49584	16381.625
1757.71349	16355.725
1760.92903	16371.125
1764.14244	16373.325
1767.35375	16322.325
1770.56294	16291.925
1773.77002	16312.625
1776.97499	16287.425
1780.17785	16249.525
1783.37861	16234.225
1786.57727	16180.725
1789.77382	16141.725
1792.96828	16107.925
1796.16064	16105.525
1799.3509	16065.625
1802.53907	16024.025
1805.72514	15980.725
1808.90913	15954.825
1812.09102	15899.925
1815.27083	15901.925
1818.44856	15878.625
1821.6242	15890.225
1824.79776	15841.625
1827.96924	15854.025
1831.13864	15883.425
1834.30597	15881.625
1837.47122	15861.025
1840.6344	15847.525
1843.7955	15860.425
1846.95454	15842.325
1850.11151	15836.325
1853.26642	15811.225
1856.41926	15826.725
1859.57004	15786.225
1862.71876	15796.925
1865.86542	15787.525
1869.01003	15782.225
1872.15258	15766.325
1875.29308	15715.025
1878.43152	15696.625
1881.56792	15712.925
1884.70227	15686.625
1887.83457	15654.425
1890.96482	15641.725
1894.09304	15628.525
1897.21921	15666.425
1900.34335	15619.025
1903.46544	15585.325
1906.58551	15571.525
1909.70353	15573.525
1912.81953	15542.225
1915.93349	15506.325
1919.04543	15493.225
1922.15534	15439.225
1925.26322	15433.125
1928.36908	15392.325
1931.47292	15358.825
1934.57473	15309.725
1937.67453	15306.025
1940.77232	15272.025
1943.86808	15232.325
1946.96184	15194.125
1950.05358	15148.125
1953.14331	15158.025
1956.23103	15090.825
1959.31675	15055.125
1962.40046	15013.125
1965.48217	14963.725
1968.56188	14932.225
1971.63959	14891.525
1974.7153	14854.125
1977.78901	14801.925
1980.86073	14747.725
1983.93046	14737.025
1986.99819	14703.925
1990.06394	14681.425
1993.1277	14600.325
1996.18947	14557.125
1999.24925	14513.625
2002.30706	14489.325
2005.36288	14469.225
2008.41672	14450.125
2011.46859	14373.625
2014.51848	14356.325
2017.56639	14312.025
2020.61233	14302.925
2023.6563	14267.325
2026.6983	14263.125
2029.73833	14245.225
2032.7764	14221.125
2035.8125	14199.425
2038.84664	14157.125
2041.87881	14128.625
2044.90903	14096.325
2047.93729	14069.225
2050.96359	14085.425
2053.98794	14083.725
2057.01034	14071.025
2060.03078	14068.725
2063.04927	14051.225
2066.06582	14019.225
2069.08042	14001.725
2072.09307	13999.525
2075.10378	13965.825
2078.11255	13971.525
2081.11938	13954.425
2084.12426	13956.525
2087.12722	13976.525
2090.12824	13994.825
2093.12732	13994.225
2096.12447	13999.825
2099.11969	13999.725
2102.11299	14013.725
2105.10435	13978.725
2108.09379	14045.025
2111.08131	14043.625
2114.0669	14029.425
2117.05057	14021.325
2120.03233	14069.425
2123.01216	14073.325
2125.99008	14062.525
2128.96609	14089.125
2131.94018	14107.825
2134.91236	14096.525
2137.88263	14128.225
2140.851	14141.725
2143.81746	14151.925
2146.78201	14167.525
2149.74466	14172.525
2152.7054	14169.125
2155.66425	14183.825
2158.6212	14185.125
2161.57625	14164.125
2164.52941	14160.325
2167.48067	14189.425
2170.43004	14163.025
2173.37752	14163.125
2176.32311	14177.625
2179.26681	14165.425
2182.20863	14142.225
2185.14856	14144.825
2188.08661	14174.025
2191.02278	14165.225
2193.95707	14164.625
2196.88948	14143.225
2199.82001	14151.925
2202.74867	14142.225
2205.67545	14148.425
2208.60037	14138.025
2211.52341	14107.925
2214.44458	14091.725
2217.36388	14082.525
2220.28132	14058.625
2223.1969	14017.525
2226.11061	14047.525
2229.02246	14013.125
2231.93245	13995.925
2234.84058	13948.725
2237.74686	13946.425
2240.65128	13949.125
2243.55385	13911.025
2246.45456	13852.925
2249.35343	13865.125
2252.25044	13852.925
2255.14561	13812.025
2258.03893	13829.825
2260.93041	13806.225
2263.82004	13774.325
2266.70783	13736.325
2269.59378	13715.125
2272.4779	13681.125
2275.36017	13632.325
2278.24061	13625.725
2281.11922	13579.625
2283.996	13575.025
2286.87094	13560.025
2289.74405	13551.725
2292.61534	13555.725
2295.4848	13505.225
2298.35243	13582.225
2301.21824	13560.625
2304.08223	13565.525
2306.94439	13532.125
2309.80474	13556.725
2312.66327	13550.725
2315.51999	13566.325
2318.37489	13527.225
2321.22797	13555.025
2324.07925	13459.425
2326.92871	13501.325
2329.77637	13507.425
2332.62222	13464.325
2335.46626	13462.925
2338.3085	13460.325
2341.14893	13459.625
2343.98756	13496.825
2346.8244	13448.825
2349.65943	13440.025
2352.49267	13435.025
2355.32411	13448.325
2358.15376	13421.225
2360.98161	13430.725
2363.80768	13432.925
2366.63195	13398.325
2369.45444	13376.025
2372.27514	13358.725
2375.09405	13363.625
2377.91118	13315.425
2380.72652	13319.325
2383.54009	13270.325
2386.35187	13297.425
2389.16188	13240.125
2391.97011	13258.125
2394.77657	13218.225
2397.58125	13199.425
2400.38416	13205.125
2403.18529	13190.825
2405.98466	13154.325
2408.78226	13128.825
2411.57809	13105.825
2414.37216	13119.325
2417.16446	13100.725
2419.955	13063.025
2422.74378	13062.225
2425.5308	13036.225
2428.31606	13019.925
2431.09956	13043.925
2433.88131	13023.225
2436.6613	13020.725
2439.43954	13015.225
2442.21603	12979.025
2444.99077	12985.225
2447.76377	13000.125
2450.53501	12981.525
2453.30451	13008.525
2456.07226	12957.525
2458.83827	12971.825
2461.60254	12934.525
2464.36507	12956.925
2467.12586	12974.825
2469.88492	12978.225
2472.64224	12988.625
2475.39782	12985.825
2478.15167	12985.125
2480.90379	12984.025
2483.65417	12994.225
2486.40283	13001.625
2489.14976	13025.525
2491.89497	12991.125
2494.63845	13016.725
2497.3802	13002.525
2500.12024	12987.525
2502.85855	12990.125
2505.59514	12980.025
2508.33002	12981.125
2511.06318	12960.625
2513.79462	12935.625
2516.52435	12965.125
2519.25237	12934.725
2521.97867	12931.425
2524.70327	12927.725
2527.42616	12882.525
2530.14734	12920.525
2532.86681	12891.525
2535.58458	12869.725
2538.30065	12859.725
2541.01501	12865.025
2543.72768	12852.825
2546.43864	12846.425
2549.14791	12839.025
2551.85548	12826.025
2554.56136	12805.825
2557.26554	12808.625
2559.96803	12795.325
2562.66883	12781.725
2565.36794	12810.425
2568.06536	12805.225
2570.7611	12785.425
2573.45514	12767.225
2576.14751	12756.025
2578.83819	12731.725
2581.52719	12732.325
2584.21451	12723.425
2586.90015	12736.725
2589.58411	12704.525
2592.2664	12680.025
2594.94701	12686.025
2597.62594	12677.525
2600.30321	12676.025
2602.9788	12658.725
2605.65273	12630.625
2608.32498	12648.425
2610.99557	12634.425
2613.66449	12637.425
2616.33175	12621.325
2618.99734	12621.125
2621.66128	12616.525
2624.32355	12593.525
2626.98416	12608.925
2629.64311	12585.625
2632.30041	12587.225
2634.95605	12604.625
2637.61004	12572.925
2640.26238	12583.825
2642.91306	12539.025
2645.56209	12546.125
2648.20948	12559.325
2650.85521	12534.725
2653.4993	12526.125
2656.14175	12571.525
2658.78255	12552.125
2661.42171	12540.325
2664.05923	12610.125
2666.6951	12552.425
2669.32934	12579.425
2671.96194	12553.825
2674.59291	12535.125
2677.22224	12538.525
2679.84993	12572.425
2682.476	12547.325
2685.10043	12549.425
2687.72324	12564.025
2690.34441	12571.625
2692.96396	12548.225
2695.58188	12562.825
2698.19818	12552.725
2700.81285	12565.625
2703.4259	12589.325
2706.03733	12631.525
2708.64714	12612.625
2711.25533	12719.725
2713.86191	12657.925
2716.46687	12728.925
2719.07021	12679.525
2721.67194	12649.425
2724.27206	12621.925
2726.87057	12605.725
2729.46747	12646.325
2732.06276	12633.325
2734.65644	12650.025
2737.24852	12636.325
2739.83899	12614.825
2742.42786	12626.025
2745.01513	12609.425
2747.60079	12630.325
2750.18486	12613.525
2752.76733	12610.725
2755.3482	12628.125
2757.92747	12641.625
2760.50515	12596.125
2763.08123	12609.025
2765.65573	12580.825
2768.22863	12595.725
2770.79994	12575.525
2773.36967	12591.825
2775.9378	12566.225
2778.50435	12542.425
2781.06932	12561.025
2783.6327	12555.525
2786.1945	12549.425
2788.75471	12528.625
2791.31335	12484.625
2793.87041	12481.025
2796.42589	12458.725
2798.97979	12478.625
2801.53212	12456.325
2804.08288	12432.125
2806.63206	12398.225
2809.17967	12405.625
2811.72571	12352.425
2814.27018	12335.325
2816.81308	12314.125
2819.35442	12328.325
2821.89419	12284.225
2824.43239	12302.525
2826.96904	12315.625
2829.50412	12274.225
2832.03763	12252.025
2834.56959	12262.825
2837.1	12211.825
2839.62884	12244.025
2842.15613	12254.425
2844.68186	12272.225
2847.20604	12215.525
2849.72867	12230.425
2852.24974	12225.625
2854.76927	12235.825
2857.28724	12218.425
2859.80367	12209.725
2862.31855	12205.625
2864.83189	12168.625
2867.34368	12159.125
2869.85393	12195.425
2872.36264	12164.425
2874.8698	12197.325
2877.37543	12174.225
2879.87952	12173.625
2882.38207	12217.325
2884.88308	12184.225
2887.38256	12194.825
2889.88051	12203.025
2892.37692	12213.825
2894.8718	12207.625
2897.36515	12216.125
2899.85698	12215.725
2902.34727	12242.125
2904.83604	12240.425
2907.32328	12245.825
2909.809	12255.025
2912.29319	12279.425
2914.77587	12270.425
2917.25702	12229.425
2919.73665	12224.025
2922.21476	12237.525
2924.69136	12229.125
2927.16644	12265.225
2929.64	12229.225
2932.11205	12223.925
2934.58258	12192.525
2937.05161	12238.525
2939.51912	12221.025
2941.98513	12227.525
2944.44962	12168.225
2946.91261	12152.125
2949.37409	12180.625
2951.83407	12175.825
2954.29254	12182.125
2956.74951	12147.325
2959.20498	12143.925
2961.65895	12164.025
2964.11142	12136.525
2966.56239	12099.425
2969.01186	12111.125
2971.45984	12079.725
2973.90632	12049.725
2976.35131	12004.425
2978.7948	12000.625
2981.23681	11981.025
2983.67732	11961.525
2986.11635	11988.925
2988.55388	11940.825
2990.98993	11897.625
2993.4245	11896.325
2995.85758	11871.025
2998.28917	11849.025
3000.71928	11849.325
3003.14791	11807.725
3005.57506	11793.525
3008.00073	11774.425
3010.42493	11812.825
3012.84764	11764.625
3015.26888	11731.625
3017.68865	11714.625
3020.10694	11696.925
3022.52376	11689.225
3024.9391	11696.925
3027.35298	11669.025
3029.76539	11677.725
3032.17632	11691.525
3034.5858	11659.025
3036.9938	11655.025
3039.40034	11651.925
3041.80542	11626.425
3044.20903	11617.125
3046.61118	11637.025
3049.01187	11601.225
3051.4111	11579.925
3053.80888	11587.825
3056.20519	11568.325
3058.60005	11526.025
3060.99345	11503.425
3063.3854	11483.525
3065.7759	11474.225
3068.16494	11443.525
3070.55254	11420.325
3072.93868	11414.225
3075.32338	11378.025
3077.70662	11337.325
3080.08842	11311.625
3082.46878	11350.125
3084.84769	11305.125
3087.22515	11308.825
3089.60118	11332.225
3091.97576	11313.325
3094.3489	11315.525
3096.72061	11295.225
3099.09087	11295.425
3101.4597	11277.025
3103.82709	11302.525
3106.19305	11258.625
3108.55757	11262.825
3110.92066	11237.825
3113.28232	11201.425
3115.64255	11193.725
3118.00134	11178.725
3120.35871	11161.325
3122.71466	11156.825
3125.06917	11138.325
3127.42226	11130.525
3129.77393	11151.225
