Data from AgNP_FTO_APTES_CRN_2uM_R6G_10uM_NaF_0.1M_Addition_RamanShift__13__14-50-09-341.txt Node

Date: Wed Dec 15 14:50:09 GMT 2021
User: TCL
Spectrometer: QEP01345
Trigger mode: 4
Integration Time (sec): 7.000000E0
Scans to average: 10
Electric dark correction enabled: true
Nonlinearity correction enabled: false
Boxcar width: 0
XAxis mode: Raman Shifts
Number of Pixels in Spectrum: 1044
>>>>>Begin Spectral Data<<<<<
46.04893	0.25
50.45542	-2.75
54.85868	-1.95
59.25871	-0.15
63.6555	137.55
68.04907	150.65
72.43941	151.05
76.82654	157.45
81.21044	163.35
85.59113	170.15
89.96862	177.15
94.34289	177.15
98.71396	188.55
103.08183	196.25
107.4465	202.55
111.80798	202.45
116.16626	207.35
120.52136	217.35
124.87327	225.55
129.222	240.65
133.56755	250.25
137.90993	272.75
142.24913	301.25
146.58517	335.45
150.91804	382.55
155.24774	457.95
159.57429	570.15
163.89768	731.35
168.21792	962.55
172.53501	1303.75
176.84895	1812.25
181.15975	2542.65
185.46741	3566.35
189.77193	4908.05
194.07331	6569.85
198.37157	8447.45
202.6667	10458.25
206.9587	12427.45
211.24758	14344.85
215.53334	16249.85
219.81599	18233.35
224.09553	20385.55
228.37195	22815.25
232.64527	25524.25
236.91549	28407.75
241.18261	31324.75
245.44663	34168.85
249.70755	36719.25
253.96539	38953.25
258.22014	40817.25
262.4718	42300.35
266.72039	43309.65
270.96589	43824.45
275.20832	43907.45
279.44768	43768.65
283.68397	43423.95
287.91719	43090.65
292.14735	42758.65
296.37445	42662.05
300.59849	42598.15
304.81948	42618.25
309.03742	42514.95
313.25231	42344.25
317.46415	41872.65
321.67296	41323.95
325.87872	40747.55
330.08145	40535.95
334.28114	40606.55
338.47781	40916.45
342.67145	41340.05
346.86207	41827.05
351.04966	42381.25
355.23424	42998.45
359.4158	43572.85
363.59435	44047.15
367.76989	44398.55
371.94243	44680.05
376.11196	44791.15
380.27849	44841.25
384.44203	44989.65
388.60257	45252.35
392.76012	45781.45
396.91468	46373.15
401.06626	47151.95
405.21485	47631.55
409.36047	47704.15
413.50311	47452.05
417.64277	47530.95
421.77947	47870.75
425.9132	48350.15
430.04396	48597.95
434.17176	48771.35
438.2966	48799.85
442.41849	49059.85
446.53742	49827.55
450.6534	50750.35
454.76644	51417.25
458.87653	51762.95
462.98368	51791.05
467.08789	51473.55
471.18916	50944.55
475.2875	50324.75
479.38291	49910.65
483.4754	49625.05
487.56496	49268.85
491.6516	48883.35
495.73531	48556.05
499.81612	48443.05
503.89401	48742.05
507.96899	49186.85
512.04106	49406.25
516.11023	49352.85
520.1765	48895.35
524.23987	48292.55
528.30034	47768.25
532.35792	47325.55
536.41261	46942.85
540.46441	46627.25
544.51333	46704.45
548.55936	47175.55
552.60252	47945.35
556.64279	48658.25
560.6802	49219.25
564.71473	49661.05
568.7464	50445.35
572.7752	51892.05
576.80114	53847.75
580.82422	55963.65
584.84444	58113.15
588.86181	60317.65
592.87633	61785.55
596.888	60850.15
600.89682	58418.45
604.9028	57583.35
608.90594	59104.05
612.90624	60377.45
616.90371	56953.25
620.89834	51329.45
624.89015	49081.95
628.87913	49139.05
632.86528	49478.45
636.84862	49487.05
640.82913	48714.75
644.80683	47646.85
648.78172	46996.55
652.75379	46994.15
656.72306	47427.45
660.68952	47878.65
664.65319	47725.45
668.61405	47298.85
672.57211	47235.45
676.52738	47336.15
680.47986	47323.75
684.42955	47040.35
688.37646	46936.95
692.32058	47199.45
696.26192	47730.95
700.20048	48290.95
704.13626	48733.75
708.06928	48944.75
711.99952	48954.75
715.927	48846.95
719.85171	48756.75
723.77365	48424.95
727.69284	47809.25
731.60928	47189.15
735.52295	46835.55
739.43388	46668.25
743.34206	46807.35
747.24749	47137.55
751.15017	47594.55
755.05012	48365.55
758.94733	49466.45
762.8418	51230.15
766.73354	53744.05
770.62254	55646.95
774.50882	55567.25
778.39237	53581.05
782.27321	51178.35
786.15132	49234.75
790.02671	48055.85
793.89938	47374.95
797.76935	47009.85
801.6366	46845.05
805.50115	46765.65
809.36299	46607.05
813.22213	46307.85
817.07857	46081.95
820.93231	45918.85
824.78336	45778.45
828.63172	45700.85
832.47738	45599.95
836.32036	45569.95
840.16066	45563.85
843.99827	45553.55
847.8332	45640.75
851.66546	45672.25
855.49504	45872.45
859.32195	45912.05
863.1462	45757.25
866.96777	45717.25
870.78668	45773.25
874.60293	45744.75
878.41652	45745.35
882.22745	45946.45
886.03573	45977.05
889.84136	46049.35
893.64433	46014.15
897.44466	45909.95
901.24235	45857.25
905.0374	45873.65
908.8298	45823.95
912.61957	46027.85
916.40671	46389.85
920.19121	47009.25
923.97308	47420.55
927.75233	47286.75
931.52895	46711.05
935.30295	46006.85
939.07433	45319.25
942.84309	44909.05
946.60924	44717.65
950.37278	44649.15
954.13371	44608.45
957.89203	44613.75
961.64774	44576.25
965.40086	44613.15
969.15137	44519.55
972.89929	44364.95
976.64461	44208.55
980.38733	44205.35
984.12747	44205.15
987.86502	44322.45
991.59999	44476.45
995.33237	44667.55
999.06217	45222.75
1002.78939	45915.35
1006.51404	46770.15
1010.23611	47704.25
1013.95561	48238.65
1017.67255	48238.55
1021.38692	47708.05
1025.09872	47071.55
1028.80796	46410.15
1032.51465	46180.35
1036.21877	46276.75
1039.92035	46439.65
1043.61937	46662.45
1047.31584	46830.65
1051.00976	47092.25
1054.70114	47353.25
1058.38998	47845.25
1062.07627	48615.75
1065.76003	49646.85
1069.44126	50766.85
1073.11995	51910.35
1076.79611	52789.65
1080.46974	52875.65
1084.14085	52634.55
1087.80943	52603.55
1091.47549	52724.45
1095.13903	52738.25
1098.80005	52106.45
1102.45857	51004.85
1106.11456	49987.35
1109.76805	49339.25
1113.41903	49078.95
1117.06751	49010.65
1120.71348	49187.65
1124.35696	49521.75
1127.99793	49935.45
1131.63641	50244.15
1135.2724	50406.15
1138.90589	50606.95
1142.5369	50874.25
1146.16542	51181.05
1149.79145	51464.75
1153.415	51941.55
1157.03607	52638.45
1160.65467	53827.65
1164.27079	55881.05
1167.88443	58208.55
1171.49561	60529.05
1175.10432	63005.75
1178.71056	66089.25
1182.31434	69126.75
1185.91565	71343.55
1189.51451	72195.65
1193.11091	71824.95
1196.70485	70431.35
1200.29634	68347.65
1203.88538	66643.65
1207.47197	66141.65
1211.05612	65999.25
1214.63782	65283.75
1218.21708	63745.25
1221.79391	61755.45
1225.36829	59955.35
1228.94024	58956.45
1232.50976	58439.15
1236.07685	58169.05
1239.6415	58038.35
1243.20374	58147.85
1246.76355	58426.75
1250.32093	59138.15
1253.8759	60213.15
1257.42845	61711.75
1260.97859	63339.25
1264.52631	64980.35
1268.07163	66572.45
1271.61453	68215.65
1275.15503	69782.35
1278.69312	71459.85
1282.22882	73209.35
1285.76211	75058.35
1289.29301	77218.65
1292.82151	79607.15
1296.34761	82575.15
1299.87133	86157.35
1303.39266	89600.55
1306.9116	92527.75
1310.42815	94280.55
1313.94233	94866.85
1317.45412	94611.55
1320.96354	94225.75
1324.47058	94586.15
1327.97525	95452.25
1331.47754	96392.45
1334.97747	97159.85
1338.47502	97677.15
1341.97022	98150.35
1345.46305	98140.95
1348.95352	97372.15
1352.44163	95901.75
1355.92738	94623.35
1359.41078	94163.25
1362.89183	93957.75
1366.37053	92018.65
1369.84688	87441.55
1373.32088	81415.75
1376.79254	76577.45
1380.26186	74522.95
1383.72883	74343.25
1387.19347	74575.95
1390.65578	74214.55
1394.11575	73815.05
1397.57339	74210.45
1401.0287	75334.85
1404.48168	76151.65
1407.93234	76007.75
1411.38068	74612.35
1414.82669	72493.15
1418.27039	69804.35
1421.71177	67359.85
1425.15083	65579.35
1428.58758	64957.95
1432.02203	65582.65
1435.45416	67155.85
1438.88399	69096.05
1442.31151	70503.75
1445.73673	71180.85
1449.15965	71519.65
1452.58027	71543.85
1455.9986	71544.35
1459.41463	72114.75
1462.82837	73173.45
1466.23982	74365.05
1469.64898	75178.65
1473.05586	75516.45
1476.46045	75388.55
1479.86276	74853.75
1483.26279	74217.55
1486.66054	73825.65
1490.05602	73808.05
1493.44922	74309.85
1496.84016	75053.75
1500.22882	76069.95
1503.61521	77437.25
1506.99934	78769.95
1510.38121	79671.75
1513.76081	79797.85
1517.13816	79387.25
1520.51324	79049.85
1523.88607	79070.35
1527.25665	79484.55
1530.62498	79767.35
1533.99105	79455.95
1537.35488	78280.75
1540.71647	76579.65
1544.07581	74703.35
1547.4329	72869.05
1550.78776	71279.95
1554.14038	70146.55
1557.49077	69327.35
1560.83892	68831.35
1564.18484	68532.95
1567.52853	68461.15
1570.86999	68944.75
1574.20922	70472.15
1577.54624	72247.35
1580.88103	73592.75
1584.2136	74958.35
1587.54395	76860.25
1590.87208	79253.65
1594.19801	82114.45
1597.52172	84480.55
1600.84321	84287.35
1604.16251	80866.95
1607.47959	75931.55
1610.79447	71028.45
1614.10715	66088.75
1617.41763	61776.25
1620.7259	58589.95
1624.03199	56790.55
1627.33587	56677.25
1630.63757	57964.65
1633.93707	61122.55
1637.23439	66670.65
1640.52951	74457.65
1643.82246	82803.65
1647.11321	88751.65
1650.40179	88740.85
1653.68819	82434.85
1656.97241	72834.25
1660.25446	63785.45
1663.53433	57006.85
1666.81203	52342.25
1670.08756	49441.65
1673.36092	47593.65
1676.63211	46375.75
1679.90115	45459.45
1683.16801	44736.95
1686.43272	44284.05
1689.69527	43927.95
1692.95567	43583.05
1696.2139	43444.95
1699.46999	43256.75
1702.72392	43123.55
1705.97571	43016.05
1709.22535	42882.55
1712.47284	42833.25
1715.71819	42818.35
1718.96139	42578.95
1722.20246	42467.05
1725.44139	42296.35
1728.67818	42074.65
1731.91284	41846.95
1735.14537	41596.85
1738.37576	41425.95
1741.60403	41299.35
1744.83017	41214.45
1748.05418	41082.05
1751.27607	40950.85
1754.49584	40914.05
1757.71349	40816.15
1760.92903	40818.05
1764.14244	40728.25
1767.35375	40755.55
1770.56294	40696.05
1773.77002	40617.25
1776.97499	40631.45
1780.17785	40553.65
1783.37861	40466.85
1786.57727	40412.75
1789.77382	40246.85
1792.96828	40185.75
1796.16064	40103.65
1799.3509	40078.75
1802.53907	39996.75
1805.72514	39848.55
1808.90913	39821.05
1812.09102	39732.05
1815.27083	39690.05
1818.44856	39599.95
1821.6242	39661.25
1824.79776	39598.45
1827.96924	39568.05
1831.13864	39548.55
1834.30597	39621.15
1837.47122	39653.15
1840.6344	39701.25
1843.7955	39623.55
1846.95454	39635.25
1850.11151	39623.95
1853.26642	39610.85
1856.41926	39539.75
1859.57004	39526.35
1862.71876	39427.05
1865.86542	39339.05
1869.01003	39337.25
1872.15258	39290.55
1875.29308	39226.85
1878.43152	39125.45
1881.56792	39058.75
1884.70227	39016.45
1887.83457	38971.55
1890.96482	38909.85
1894.09304	38822.15
1897.21921	38787.55
1900.34335	38755.65
1903.46544	38606.15
1906.58551	38615.75
1909.70353	38537.45
1912.81953	38473.65
1915.93349	38398.45
1919.04543	38294.25
1922.15534	38212.15
1925.26322	38157.95
1928.36908	38008.95
1931.47292	37945.65
1934.57473	37821.25
1937.67453	37818.95
1940.77232	37697.05
1943.86808	37626.05
1946.96184	37459.45
1950.05358	37340.75
1953.14331	37269.05
1956.23103	37161.85
1959.31675	37120.55
1962.40046	37019.95
1965.48217	36870.25
1968.56188	36714.35
1971.63959	36609.55
1974.7153	36554.95
1977.78901	36375.75
1980.86073	36315.25
1983.93046	36206.95
1986.99819	36099.65
1990.06394	36053.15
1993.1277	35955.95
1996.18947	35800.05
1999.24925	35675.25
2002.30706	35543.95
2005.36288	35455.25
2008.41672	35388.05
2011.46859	35273.55
2014.51848	35169.75
2017.56639	35123.95
2020.61233	35035.15
2023.6563	34992.85
2026.6983	34888.35
2029.73833	34814.35
2032.7764	34729.75
2035.8125	34630.05
2038.84664	34501.05
2041.87881	34479.95
2044.90903	34439.15
2047.93729	34359.45
2050.96359	34279.25
2053.98794	34267.85
2057.01034	34252.35
2060.03078	34181.15
2063.04927	34139.75
2066.06582	34145.25
2069.08042	34084.65
2072.09307	34124.25
2075.10378	34084.65
2078.11255	34085.85
2081.11938	34051.75
2084.12426	34021.05
2087.12722	33993.95
2090.12824	34014.05
2093.12732	34037.95
2096.12447	34017.15
2099.11969	33939.45
2102.11299	33994.25
2105.10435	33962.25
2108.09379	34021.05
2111.08131	34051.85
2114.0669	34042.95
2117.05057	34085.25
2120.03233	34129.25
2123.01216	34082.75
2125.99008	34108.45
2128.96609	34096.05
2131.94018	34135.75
2134.91236	34172.25
2137.88263	34204.65
2140.851	34121.85
2143.81746	34169.05
2146.78201	34173.15
2149.74466	34132.35
2152.7054	34204.35
2155.66425	34167.75
2158.6212	34172.95
2161.57625	34164.85
2164.52941	34147.75
2167.48067	34158.35
2170.43004	34100.75
2173.37752	34134.05
2176.32311	34103.85
2179.26681	34112.45
2182.20863	34055.85
2185.14856	34106.45
2188.08661	34052.35
2191.02278	34119.45
2193.95707	34007.55
2196.88948	33978.15
2199.82001	33953.65
2202.74867	33902.75
2205.67545	33856.65
2208.60037	33837.15
2211.52341	33783.85
2214.44458	33737.95
2217.36388	33686.75
2220.28132	33584.45
2223.1969	33576.35
2226.11061	33547.55
2229.02246	33459.25
2231.93245	33411.05
2234.84058	33347.85
2237.74686	33301.25
2240.65128	33326.45
2243.55385	33181.55
2246.45456	33123.95
2249.35343	33076.35
2252.25044	32981.75
2255.14561	32919.55
2258.03893	32845.05
2260.93041	32823.95
2263.82004	32688.75
2266.70783	32650.75
2269.59378	32532.05
2272.4779	32514.65
2275.36017	32419.15
2278.24061	32356.05
2281.11922	32306.45
2283.996	32220.75
2286.87094	32214.65
2289.74405	32152.35
2292.61534	32089.55
2295.4848	32047.65
2298.35243	31994.65
2301.21824	31961.95
2304.08223	32001.15
2306.94439	31935.65
2309.80474	31911.25
2312.66327	31876.55
2315.51999	31849.25
2318.37489	31820.75
2321.22797	31795.05
2324.07925	31718.45
2326.92871	31714.55
2329.77637	31636.35
2332.62222	31654.65
2335.46626	31597.95
2338.3085	31521.95
2341.14893	31548.85
2343.98756	31503.35
2346.8244	31467.55
2349.65943	31442.95
2352.49267	31400.85
2355.32411	31394.85
2358.15376	31406.35
2360.98161	31374.05
2363.80768	31329.65
2366.63195	31322.65
2369.45444	31316.65
2372.27514	31263.35
2375.09405	31268.25
2377.91118	31209.65
2380.72652	31128.35
2383.54009	31109.95
2386.35187	31059.25
2389.16188	30949.05
2391.97011	30921.25
2394.77657	30891.85
2397.58125	30809.05
2400.38416	30821.85
2403.18529	30707.85
2405.98466	30675.05
2408.78226	30598.95
2411.57809	30583.05
2414.37216	30555.85
2417.16446	30541.45
2419.955	30506.65
2422.74378	30505.45
2425.5308	30477.95
2428.31606	30462.35
2431.09956	30425.05
2433.88131	30329.95
2436.6613	30377.25
2439.43954	30320.25
2442.21603	30237.65
2444.99077	30256.45
2447.76377	30294.25
2450.53501	30226.35
2453.30451	30224.75
2456.07226	30181.45
2458.83827	30184.45
2461.60254	30156.85
2464.36507	30105.55
2467.12586	30100.85
2469.88492	30090.45
2472.64224	30062.25
2475.39782	30020.65
2478.15167	30043.35
2480.90379	29992.25
2483.65417	30038.25
2486.40283	29961.85
2489.14976	29969.45
2491.89497	29887.15
2494.63845	29939.25
2497.3802	29950.95
2500.12024	29957.85
2502.85855	29945.75
2505.59514	29929.95
2508.33002	29909.45
2511.06318	29908.15
2513.79462	29880.55
2516.52435	29828.65
2519.25237	29829.55
2521.97867	29795.25
2524.70327	29800.35
2527.42616	29706.75
2530.14734	29716.35
2532.86681	29640.55
2535.58458	29667.25
2538.30065	29623.85
2541.01501	29550.35
2543.72768	29565.95
2546.43864	29529.25
2549.14791	29445.75
2551.85548	29422.55
2554.56136	29351.95
2557.26554	29347.45
2559.96803	29307.75
2562.66883	29270.65
2565.36794	29286.65
2568.06536	29231.05
2570.7611	29208.75
2573.45514	29121.45
2576.14751	29114.35
2578.83819	29101.35
2581.52719	29059.55
2584.21451	28977.65
2586.90015	28976.65
2589.58411	28906.55
2592.2664	28899.55
2594.94701	28868.65
2597.62594	28871.95
2600.30321	28758.75
2602.9788	28820.05
2605.65273	28767.85
2608.32498	28711.65
2610.99557	28697.95
2613.66449	28689.55
2616.33175	28625.35
2618.99734	28634.25
2621.66128	28549.85
2624.32355	28609.95
2626.98416	28537.55
2629.64311	28509.15
2632.30041	28476.65
2634.95605	28447.25
2637.61004	28464.45
2640.26238	28438.85
2642.91306	28377.95
2645.56209	28381.45
2648.20948	28407.25
2650.85521	28374.15
2653.4993	28400.85
2656.14175	28388.85
2658.78255	28405.05
2661.42171	28397.95
2664.05923	28450.55
2666.6951	28412.05
2669.32934	28447.35
2671.96194	28462.35
2674.59291	28384.55
2677.22224	28384.25
2679.84993	28371.15
2682.476	28391.15
2685.10043	28405.55
2687.72324	28382.05
2690.34441	28390.05
2692.96396	28384.15
2695.58188	28418.75
2698.19818	28387.75
2700.81285	28367.25
2703.4259	28332.75
2706.03733	28456.55
2708.64714	28448.45
2711.25533	28496.35
2713.86191	28440.25
2716.46687	28483.15
2719.07021	28442.85
2721.67194	28461.95
2724.27206	28427.25
2726.87057	28470.25
2729.46747	28494.45
2732.06276	28523.65
2734.65644	28489.75
2737.24852	28495.65
2739.83899	28469.45
2742.42786	28465.55
2745.01513	28408.15
2747.60079	28368.75
2750.18486	28318.15
2752.76733	28378.05
2755.3482	28368.95
2757.92747	28374.65
2760.50515	28303.35
2763.08123	28268.65
2765.65573	28259.65
2768.22863	28199.65
2770.79994	28113.05
2773.36967	28144.65
2775.9378	28057.25
2778.50435	28082.35
2781.06932	28050.55
2783.6327	28037.85
2786.1945	27998.25
2788.75471	27966.75
2791.31335	27854.95
2793.87041	27861.85
2796.42589	27767.55
2798.97979	27742.25
2801.53212	27724.25
2804.08288	27692.95
2806.63206	27595.45
2809.17967	27522.25
2811.72571	27460.95
2814.27018	27433.15
2816.81308	27376.65
2819.35442	27337.45
2821.89419	27309.35
2824.43239	27273.95
2826.96904	27202.15
2829.50412	27222.05
2832.03763	27107.05
2834.56959	27144.15
2837.1	27048.15
2839.62884	27050.75
2842.15613	26983.55
2844.68186	26980.45
2847.20604	26895.95
2849.72867	26895.75
2852.24974	26873.55
2854.76927	26832.95
2857.28724	26773.05
2859.80367	26785.15
2862.31855	26730.95
2864.83189	26697.35
2867.34368	26590.85
2869.85393	26613.75
2872.36264	26604.95
2874.8698	26588.75
2877.37543	26621.45
2879.87952	26563.85
2882.38207	26581.35
2884.88308	26528.65
2887.38256	26559.15
2889.88051	26524.45
2892.37692	26545.05
2894.8718	26508.35
2897.36515	26564.85
2899.85698	26529.45
2902.34727	26539.05
2904.83604	26592.45
2907.32328	26601.25
2909.809	26586.05
2912.29319	26596.65
2914.77587	26607.55
2917.25702	26557.75
2919.73665	26533.75
2922.21476	26573.75
2924.69136	26552.95
2927.16644	26531.55
2929.64	26502.85
2932.11205	26432.25
2934.58258	26340.05
2937.05161	26443.55
2939.51912	26466.45
2941.98513	26431.95
2944.44962	26348.65
2946.91261	26255.05
2949.37409	26325.95
2951.83407	26298.95
2954.29254	26242.65
2956.74951	26158.55
2959.20498	26182.15
2961.65895	26139.75
2964.11142	26132.15
2966.56239	26049.45
2969.01186	26058.55
2971.45984	25977.75
2973.90632	25936.85
2976.35131	25899.35
2978.7948	25889.35
2981.23681	25842.65
2983.67732	25793.95
2986.11635	25753.05
2988.55388	25626.05
2990.98993	25580.85
2993.4245	25525.25
2995.85758	25448.55
2998.28917	25411.15
3000.71928	25341.55
3003.14791	25282.25
3005.57506	25258.35
3008.00073	25165.95
3010.42493	25137.45
3012.84764	25104.45
3015.26888	25123.55
3017.68865	25006.55
3020.10694	25026.25
3022.52376	24921.55
3024.9391	24929.05
3027.35298	24893.95
3029.76539	24861.95
3032.17632	24783.75
3034.5858	24765.95
3036.9938	24776.55
3039.40034	24717.55
3041.80542	24625.35
3044.20903	24581.85
3046.61118	24618.85
3049.01187	24472.45
3051.4111	24467.05
3053.80888	24379.95
3056.20519	24331.65
3058.60005	24256.15
3060.99345	24245.95
3063.3854	24157.65
3065.7759	24074.95
3068.16494	24020.15
3070.55254	23953.95
3072.93868	23906.45
3075.32338	23833.15
3077.70662	23804.25
3080.08842	23686.55
3082.46878	23662.55
3084.84769	23630.15
3087.22515	23579.15
3089.60118	23604.35
3091.97576	23557.75
3094.3489	23516.95
3096.72061	23484.15
3099.09087	23480.65
3101.4597	23437.55
3103.82709	23428.65
3106.19305	23314.45
3108.55757	23280.95
3110.92066	23217.65
3113.28232	23222.95
3115.64255	23087.75
3118.00134	23072.35
3120.35871	23082.45
3122.71466	22997.55
3125.06917	22960.75
3127.42226	22945.05
3129.77393	22897.65
3132.12417	22838.35
3134.47299	22848.45
3136.82039	22799.75
3139.16636	22837.85
3141.51092	22782.05
3143.85406	22765.55
3146.19579	22779.75
3148.53609	22751.15
3150.87499	22745.25
3153.21246	22729.95
3155.54853	22741.45
3157.88318	22675.85
3160.21642	22689.25
3162.54826	22628.25
3164.87868	22615.85
3167.2077	22552.85
3169.5353	22568.75
3171.86151	22570.65
3174.18631	22489.35
3176.5097	22420.95
3178.83169	22415.45
3181.15228	22390.15
3183.47147	22337.35
3185.78926	22344.45
3188.10565	22260.65
3190.42065	22246.95
3192.73424	22234.05
3195.04645	22242.45
3197.35725	22235.65
3199.66667	22175.35
3201.97469	22179.45
3204.28132	22154.05
3206.58656	22142.25
3208.8904	22107.75
3211.19287	22105.65
3213.49394	22089.15
3215.79363	22036.45
3218.09193	22049.75
3220.38884	22086.05
3222.68438	22066.65
3224.97853	22049.15
3227.2713	22039.25
3229.56269	21962.05
3231.8527	21893.95
3234.14133	21851.15
3236.42858	21851.15
3238.71446	21792.85
