Data from AgNP_FTO_APTES_CRN_500uM_R6G_10uM_NaF_0.1M_Addition_RamanShift__23__20-30-28-240.txt Node

Date: Wed Dec 15 20:30:28 GMT 2021
User: TCL
Spectrometer: QEP01345
Trigger mode: 4
Integration Time (sec): 7.000000E0
Scans to average: 10
Electric dark correction enabled: true
Nonlinearity correction enabled: false
Boxcar width: 0
XAxis mode: Raman Shifts
Number of Pixels in Spectrum: 1044
>>>>>Begin Spectral Data<<<<<
46.04893	0.325
50.45542	-0.675
54.85868	-0.475
59.25871	-0.875
63.6555	60.925
68.04907	67.725
72.43941	72.525
76.82654	75.625
81.21044	78.325
85.59113	82.025
89.96862	83.425
94.34289	85.625
98.71396	85.625
103.08183	95.225
107.4465	98.125
111.80798	95.225
116.16626	98.125
120.52136	103.625
124.87327	105.625
129.222	107.425
133.56755	108.525
137.90993	124.525
142.24913	135.725
146.58517	148.925
150.91804	169.325
155.24774	198.125
159.57429	248.725
163.89768	316.525
168.21792	412.825
172.53501	557.525
176.84895	770.625
181.15975	1073.325
185.46741	1509.425
189.77193	2098.725
194.07331	2807.725
198.37157	3607.025
202.6667	4450.125
206.9587	5317.725
211.24758	6143.925
215.53334	6965.025
219.81599	7849.325
224.09553	8791.925
228.37195	9828.025
232.64527	10924.825
236.91549	12161.025
241.18261	13403.725
245.44663	14538.025
249.70755	15587.925
253.96539	16527.425
258.22014	17291.225
262.4718	17978.825
266.72039	18406.225
270.96589	18649.925
275.20832	18721.325
279.44768	18619.725
283.68397	18424.825
287.91719	18255.425
292.14735	18117.825
296.37445	18066.725
300.59849	18074.725
304.81948	18050.325
309.03742	17964.625
313.25231	17804.125
317.46415	17523.125
321.67296	17173.525
325.87872	16907.125
330.08145	16846.425
334.28114	16940.625
338.47781	17045.525
342.67145	17238.925
346.86207	17509.325
351.04966	17793.625
355.23424	18090.025
359.4158	18418.325
363.59435	18617.225
367.76989	18814.225
371.94243	18945.325
376.11196	19073.425
380.27849	19173.725
384.44203	19342.325
388.60257	19468.025
392.76012	19601.725
396.91468	19779.125
401.06626	20021.025
405.21485	20196.225
409.36047	20163.225
413.50311	20033.925
417.64277	19885.925
421.77947	19845.725
425.9132	19864.325
430.04396	20033.325
434.17176	20244.925
438.2966	20512.725
442.41849	20873.525
446.53742	21375.625
450.6534	21910.025
454.76644	22293.325
458.87653	22442.225
462.98368	22388.125
467.08789	22165.925
471.18916	22034.925
475.2875	21907.625
479.38291	21839.425
483.4754	21728.425
487.56496	21548.825
491.6516	21257.125
495.73531	21009.225
499.81612	20908.025
503.89401	20951.225
507.96899	21034.925
512.04106	21124.625
516.11023	21206.425
520.1765	21224.025
524.23987	21244.625
528.30034	21153.425
532.35792	21036.225
536.41261	20900.225
540.46441	20766.825
544.51333	20744.325
548.55936	20873.925
552.60252	21171.525
556.64279	21546.025
560.6802	21826.225
564.71473	21940.725
568.7464	22140.525
572.7752	22429.225
576.80114	22536.225
580.82422	22549.425
584.84444	22687.925
588.86181	23061.225
592.87633	23574.725
596.888	23872.925
600.89682	23891.925
604.9028	24071.825
608.90594	25247.925
612.90624	26571.125
616.90371	25476.525
620.89834	22638.725
624.89015	21308.725
628.87913	21191.025
632.86528	21264.025
636.84862	21303.225
640.82913	21201.625
644.80683	20940.625
648.78172	20654.025
652.75379	20639.425
656.72306	20758.725
660.68952	20988.225
664.65319	20931.825
668.61405	20732.425
672.57211	20764.825
676.52738	20782.725
680.47986	20848.825
684.42955	20811.925
688.37646	20739.925
692.32058	20787.725
696.26192	20853.025
700.20048	21020.025
704.13626	21054.625
708.06928	21053.325
711.99952	20934.225
715.927	20838.725
719.85171	20818.325
723.77365	20767.025
727.69284	20599.925
731.60928	20438.725
735.52295	20411.025
739.43388	20364.325
743.34206	20376.825
747.24749	20385.325
751.15017	20457.425
755.05012	20569.125
758.94733	20930.825
762.8418	21559.225
766.73354	22579.625
770.62254	23595.625
774.50882	23950.225
778.39237	23180.725
782.27321	21985.425
786.15132	20903.525
790.02671	20286.625
793.89938	19992.925
797.76935	19855.825
801.6366	19880.525
805.50115	19840.325
809.36299	19794.425
813.22213	19727.725
817.07857	19773.125
820.93231	19685.825
824.78336	19665.425
828.63172	19641.325
832.47738	19635.125
836.32036	19619.925
840.16066	19657.425
843.99827	19656.025
847.8332	19615.925
851.66546	19589.825
855.49504	19583.025
859.32195	19599.425
863.1462	19615.725
866.96777	19588.025
870.78668	19529.025
874.60293	19540.825
878.41652	19519.125
882.22745	19519.725
886.03573	19572.825
889.84136	19520.825
893.64433	19508.625
897.44466	19432.625
901.24235	19363.925
905.0374	19343.025
908.8298	19316.125
912.61957	19317.725
916.40671	19426.625
920.19121	19569.325
923.97308	19663.125
927.75233	19738.925
931.52895	19672.525
935.30295	19566.825
939.07433	19367.525
942.84309	19146.225
946.60924	19030.625
950.37278	18951.525
954.13371	18906.025
957.89203	18868.825
961.64774	18847.425
965.40086	18791.725
969.15137	18744.425
972.89929	18672.725
976.64461	18611.825
980.38733	18621.825
984.12747	18663.025
987.86502	18732.625
991.59999	18836.925
995.33237	19013.425
999.06217	19294.425
1002.78939	19612.925
1006.51404	19823.125
1010.23611	19984.525
1013.95561	20109.125
1017.67255	20108.925
1021.38692	19940.025
1025.09872	19797.625
1028.80796	19703.825
1032.51465	19852.525
1036.21877	19978.425
1039.92035	20068.925
1043.61937	20025.125
1047.31584	19924.725
1051.00976	19877.525
1054.70114	19876.625
1058.38998	19951.725
1062.07627	20190.225
1065.76003	20493.325
1069.44126	20910.725
1073.11995	21464.625
1076.79611	21876.125
1080.46974	21869.025
1084.14085	21551.025
1087.80943	21163.025
1091.47549	20908.925
1095.13903	20675.425
1098.80005	20403.125
1102.45857	20097.025
1106.11456	19960.325
1109.76805	19904.625
1113.41903	19966.425
1117.06751	20080.425
1120.71348	20258.125
1124.35696	20415.625
1127.99793	20646.425
1131.63641	20748.125
1135.2724	20632.725
1138.90589	20512.525
1142.5369	20371.425
1146.16542	20322.925
1149.79145	20374.125
1153.415	20494.725
1157.03607	20662.225
1160.65467	20997.725
1164.27079	21573.325
1167.88443	22366.625
1171.49561	23400.225
1175.10432	24749.525
1178.71056	26347.525
1182.31434	27704.825
1185.91565	28180.325
1189.51451	27890.525
1193.11091	27127.125
1196.70485	26342.725
1200.29634	25562.625
1203.88538	24976.725
1207.47197	24522.325
1211.05612	24182.625
1214.63782	23860.025
1218.21708	23648.625
1221.79391	23480.025
1225.36829	23366.625
1228.94024	23130.425
1232.50976	22854.225
1236.07685	22662.425
1239.6415	22577.725
1243.20374	22588.125
1246.76355	22707.625
1250.32093	22861.925
1253.8759	23187.825
1257.42845	23590.525
1260.97859	23956.525
1264.52631	24330.525
1268.07163	24689.825
1271.61453	25147.725
1275.15503	25587.625
1278.69312	26058.625
1282.22882	26439.825
1285.76211	26951.125
1289.29301	27659.425
1292.82151	28617.225
1296.34761	29695.525
1299.87133	31003.225
1303.39266	32428.425
1306.9116	33987.325
1310.42815	35536.925
1313.94233	36586.425
1317.45412	36764.225
1320.96354	36287.125
1324.47058	35683.725
1327.97525	34951.125
1331.47754	34423.025
1334.97747	34246.825
1338.47502	34268.025
1341.97022	34160.625
1345.46305	33911.225
1348.95352	33541.625
1352.44163	33510.025
1355.92738	34015.725
1359.41078	35181.125
1362.89183	36370.325
1366.37053	36031.525
1369.84688	33683.025
1373.32088	30835.125
1376.79254	28802.825
1380.26186	27983.425
1383.72883	27881.325
1387.19347	27911.725
1390.65578	27778.125
1394.11575	27832.725
1397.57339	28132.825
1401.0287	28735.625
1404.48168	29151.225
1407.93234	29363.925
1411.38068	29115.825
1414.82669	28424.025
1418.27039	27446.025
1421.71177	26451.225
1425.15083	25597.625
1428.58758	25056.225
1432.02203	25013.925
1435.45416	25359.425
1438.88399	25836.025
1442.31151	26302.825
1445.73673	26616.925
1449.15965	27001.225
1452.58027	27274.325
1455.9986	27371.525
1459.41463	27501.825
1462.82837	27708.125
1466.23982	28138.925
1469.64898	28463.025
1473.05586	28678.425
1476.46045	28637.625
1479.86276	28520.825
1483.26279	28269.825
1486.66054	28003.225
1490.05602	27917.025
1493.44922	27918.925
1496.84016	27906.125
1500.22882	28002.725
1503.61521	28437.725
1506.99934	29197.425
1510.38121	29939.225
1513.76081	30261.225
1517.13816	29755.625
1520.51324	28820.025
1523.88607	27948.325
1527.25665	27441.325
1530.62498	27301.725
1533.99105	27303.525
1537.35488	27307.125
1540.71647	27153.125
1544.07581	26931.325
1547.4329	26588.025
1550.78776	26263.925
1554.14038	25978.125
1557.49077	25854.725
1560.83892	25859.825
1564.18484	25950.525
1567.52853	26180.325
1570.86999	26647.825
1574.20922	27408.325
1577.54624	28278.925
1580.88103	28730.425
1584.2136	28749.925
1587.54395	28625.825
1590.87208	28891.725
1594.19801	29702.225
1597.52172	30753.125
1600.84321	31169.925
1604.16251	30306.425
1607.47959	28508.325
1610.79447	26572.025
1614.10715	24686.125
1617.41763	23241.125
1620.7259	22273.525
1624.03199	21748.325
1627.33587	21676.525
1630.63757	22133.625
1633.93707	23010.825
1637.23439	24518.225
1640.52951	26637.325
1643.82246	29053.525
1647.11321	31010.425
1650.40179	31496.125
1653.68819	29895.125
1656.97241	26965.525
1660.25446	24029.425
1663.53433	21856.625
1666.81203	20317.325
1670.08756	19449.625
1673.36092	18845.625
1676.63211	18453.025
1679.90115	18168.725
1683.16801	17963.525
1686.43272	17750.125
1689.69527	17655.725
1692.95567	17562.525
1696.2139	17498.825
1699.46999	17463.925
1702.72392	17443.025
1705.97571	17422.125
1709.22535	17350.825
1712.47284	17332.125
1715.71819	17297.925
1718.96139	17243.025
1722.20246	17171.125
1725.44139	17148.525
1728.67818	17043.025
1731.91284	16947.225
1735.14537	16899.125
1738.37576	16870.825
1741.60403	16798.925
1744.83017	16742.425
1748.05418	16764.325
1751.27607	16714.525
1754.49584	16696.825
1757.71349	16720.925
1760.92903	16666.425
1764.14244	16657.125
1767.35375	16627.525
1770.56294	16621.625
1773.77002	16543.125
1776.97499	16550.325
1780.17785	16526.025
1783.37861	16488.625
1786.57727	16432.225
1789.77382	16445.225
1792.96828	16397.225
1796.16064	16383.625
1799.3509	16320.125
1802.53907	16325.125
1805.72514	16269.025
1808.90913	16240.725
1812.09102	16223.825
1815.27083	16186.225
1818.44856	16154.325
1821.6242	16147.925
1824.79776	16102.225
1827.96924	16081.425
1831.13864	16061.625
1834.30597	16095.925
1837.47122	16099.525
1840.6344	16046.025
1843.7955	16069.325
1846.95454	16030.625
1850.11151	16034.925
1853.26642	16026.625
1856.41926	15992.225
1859.57004	15995.625
1862.71876	15990.125
1865.86542	15986.825
1869.01003	15993.125
1872.15258	15989.825
1875.29308	15969.625
1878.43152	15952.625
1881.56792	15956.225
1884.70227	15944.425
1887.83457	15973.125
1890.96482	15927.025
1894.09304	15917.425
1897.21921	15909.025
1900.34335	15932.325
1903.46544	15891.325
1906.58551	15873.925
1909.70353	15831.225
1912.81953	15835.625
1915.93349	15801.625
1919.04543	15776.025
1922.15534	15751.425
1925.26322	15710.825
1928.36908	15692.025
1931.47292	15702.925
1934.57473	15624.625
1937.67453	15578.725
1940.77232	15549.625
1943.86808	15508.025
1946.96184	15511.025
1950.05358	15417.825
1953.14331	15367.025
1956.23103	15359.625
1959.31675	15329.625
1962.40046	15298.625
1965.48217	15253.625
1968.56188	15177.725
1971.63959	15145.925
1974.7153	15088.825
1977.78901	15081.825
1980.86073	15004.025
1983.93046	14977.825
1986.99819	14926.825
1990.06394	14901.925
1993.1277	14853.925
1996.18947	14801.825
1999.24925	14766.325
2002.30706	14747.925
2005.36288	14685.625
2008.41672	14644.025
2011.46859	14581.325
2014.51848	14588.425
2017.56639	14548.825
2020.61233	14507.025
2023.6563	14481.225
2026.6983	14472.525
2029.73833	14409.225
2032.7764	14380.025
2035.8125	14374.025
2038.84664	14341.025
2041.87881	14329.525
2044.90903	14267.725
2047.93729	14268.325
2050.96359	14262.825
2053.98794	14253.925
2057.01034	14235.725
2060.03078	14238.825
2063.04927	14208.225
2066.06582	14173.225
2069.08042	14198.825
2072.09307	14188.825
2075.10378	14167.125
2078.11255	14145.025
2081.11938	14158.125
2084.12426	14130.425
2087.12722	14125.025
2090.12824	14170.025
2093.12732	14149.625
2096.12447	14151.125
2099.11969	14149.925
2102.11299	14160.225
2105.10435	14169.825
2108.09379	14159.425
2111.08131	14134.425
2114.0669	14161.725
2117.05057	14167.625
2120.03233	14163.225
2123.01216	14223.625
2125.99008	14181.625
2128.96609	14226.225
2131.94018	14233.425
2134.91236	14238.325
2137.88263	14245.825
2140.851	14257.025
2143.81746	14251.525
2146.78201	14272.625
2149.74466	14258.725
2152.7054	14263.825
2155.66425	14313.725
2158.6212	14331.925
2161.57625	14265.625
2164.52941	14284.925
2167.48067	14275.225
2170.43004	14237.225
2173.37752	14254.625
2176.32311	14226.025
2179.26681	14249.925
2182.20863	14252.725
2185.14856	14260.525
2188.08661	14238.025
2191.02278	14247.725
2193.95707	14227.225
2196.88948	14220.125
2199.82001	14211.825
2202.74867	14185.625
2205.67545	14204.325
2208.60037	14191.425
2211.52341	14183.925
2214.44458	14147.125
2217.36388	14107.125
2220.28132	14081.825
2223.1969	14032.525
2226.11061	14004.425
2229.02246	13992.625
2231.93245	13991.725
2234.84058	13958.325
2237.74686	13952.325
2240.65128	13932.225
2243.55385	13916.825
2246.45456	13883.725
2249.35343	13866.025
2252.25044	13849.425
2255.14561	13817.125
2258.03893	13816.925
2260.93041	13776.125
2263.82004	13777.225
2266.70783	13730.525
2269.59378	13685.625
2272.4779	13677.625
2275.36017	13648.225
2278.24061	13627.925
2281.11922	13594.725
2283.996	13571.725
2286.87094	13527.825
2289.74405	13528.025
2292.61534	13497.225
2295.4848	13479.725
2298.35243	13502.225
2301.21824	13485.525
2304.08223	13485.225
2306.94439	13462.325
2309.80474	13439.825
2312.66327	13458.525
2315.51999	13417.725
2318.37489	13430.725
2321.22797	13424.125
2324.07925	13397.325
2326.92871	13419.825
2329.77637	13391.825
2332.62222	13351.125
2335.46626	13363.525
2338.3085	13349.925
2341.14893	13300.825
2343.98756	13326.425
2346.8244	13305.025
2349.65943	13295.525
2352.49267	13304.525
2355.32411	13274.525
2358.15376	13260.325
2360.98161	13270.125
2363.80768	13259.725
2366.63195	13229.925
2369.45444	13216.025
2372.27514	13219.825
2375.09405	13205.725
2377.91118	13149.025
2380.72652	13145.225
2383.54009	13127.125
2386.35187	13127.625
2389.16188	13054.525
2391.97011	13023.625
2394.77657	13014.725
2397.58125	13030.225
2400.38416	13016.125
2403.18529	12984.625
2405.98466	12973.725
2408.78226	12948.625
2411.57809	12935.625
2414.37216	12921.125
2417.16446	12902.125
2419.955	12861.425
2422.74378	12851.225
2425.5308	12836.925
2428.31606	12819.325
2431.09956	12825.725
2433.88131	12788.925
2436.6613	12822.025
2439.43954	12816.125
2442.21603	12771.925
2444.99077	12798.125
2447.76377	12768.925
2450.53501	12759.425
2453.30451	12748.425
2456.07226	12744.225
2458.83827	12716.725
2461.60254	12704.625
2464.36507	12700.125
2467.12586	12700.925
2469.88492	12688.925
2472.64224	12639.725
2475.39782	12680.825
2478.15167	12668.125
2480.90379	12665.425
2483.65417	12692.625
2486.40283	12677.425
2489.14976	12693.025
2491.89497	12682.125
2494.63845	12660.225
2497.3802	12651.925
2500.12024	12648.025
2502.85855	12646.025
2505.59514	12678.925
2508.33002	12630.925
2511.06318	12627.525
2513.79462	12619.525
2516.52435	12616.525
2519.25237	12582.225
2521.97867	12554.225
2524.70327	12588.525
2527.42616	12524.525
2530.14734	12538.925
2532.86681	12495.225
2535.58458	12503.225
2538.30065	12492.425
2541.01501	12477.425
2543.72768	12473.325
2546.43864	12474.625
2549.14791	12430.625
2551.85548	12423.525
2554.56136	12372.825
2557.26554	12343.025
2559.96803	12359.425
2562.66883	12332.625
2565.36794	12322.325
2568.06536	12308.725
2570.7611	12338.125
2573.45514	12314.725
2576.14751	12295.925
2578.83819	12259.625
2581.52719	12262.025
2584.21451	12233.925
2586.90015	12243.025
2589.58411	12237.025
2592.2664	12191.825
2594.94701	12164.925
2597.62594	12179.525
2600.30321	12148.725
2602.9788	12121.125
2605.65273	12113.625
2608.32498	12089.525
2610.99557	12080.425
2613.66449	12091.925
2616.33175	12061.225
2618.99734	12079.725
2621.66128	12074.625
2624.32355	12062.425
2626.98416	12046.225
2629.64311	12037.325
2632.30041	12038.925
2634.95605	12044.225
2637.61004	12026.625
2640.26238	11996.025
2642.91306	11992.325
2645.56209	11988.925
2648.20948	11981.925
2650.85521	11996.525
2653.4993	11973.025
2656.14175	11987.025
2658.78255	11967.725
2661.42171	11960.725
2664.05923	11984.425
2666.6951	11993.325
2669.32934	11990.025
2671.96194	11961.025
2674.59291	11988.425
2677.22224	11977.725
2679.84993	11981.525
2682.476	11969.225
2685.10043	11962.525
2687.72324	11940.725
2690.34441	11980.525
2692.96396	11974.925
2695.58188	11980.325
2698.19818	11952.925
2700.81285	11975.525
2703.4259	11978.125
2706.03733	12024.825
2708.64714	12000.625
2711.25533	12002.525
2713.86191	11974.725
2716.46687	12008.425
2719.07021	11983.825
2721.67194	12004.225
2724.27206	11961.125
2726.87057	11956.625
2729.46747	11959.325
2732.06276	11975.525
2734.65644	11986.125
2737.24852	11950.325
2739.83899	11944.725
2742.42786	11944.725
2745.01513	11924.025
2747.60079	11919.125
2750.18486	11926.325
2752.76733	11926.625
2755.3482	11911.325
2757.92747	11888.725
2760.50515	11895.625
2763.08123	11867.425
2765.65573	11874.325
2768.22863	11878.525
2770.79994	11870.325
2773.36967	11897.025
2775.9378	11846.625
2778.50435	11846.325
2781.06932	11816.225
2783.6327	11814.225
2786.1945	11801.725
2788.75471	11782.825
2791.31335	11761.925
2793.87041	11761.225
2796.42589	11708.925
2798.97979	11725.525
2801.53212	11726.125
2804.08288	11677.825
2806.63206	11653.925
2809.17967	11633.125
2811.72571	11593.325
2814.27018	11586.125
2816.81308	11579.425
2819.35442	11570.725
2821.89419	11559.525
2824.43239	11563.425
2826.96904	11525.325
2829.50412	11506.525
2832.03763	11498.925
2834.56959	11495.725
2837.1	11494.625
2839.62884	11481.525
2842.15613	11480.325
2844.68186	11489.425
2847.20604	11500.825
2849.72867	11472.325
2852.24974	11470.925
2854.76927	11442.525
2857.28724	11447.125
2859.80367	11432.025
2862.31855	11424.525
2864.83189	11409.425
2867.34368	11400.325
2869.85393	11393.425
2872.36264	11378.225
2874.8698	11380.225
2877.37543	11393.925
2879.87952	11383.025
2882.38207	11409.125
2884.88308	11410.425
2887.38256	11421.325
2889.88051	11402.825
2892.37692	11409.825
2894.8718	11385.325
2897.36515	11434.525
2899.85698	11444.325
2902.34727	11458.725
2904.83604	11456.625
2907.32328	11518.425
2909.809	11469.925
2912.29319	11494.825
2914.77587	11489.425
2917.25702	11500.825
2919.73665	11449.925
2922.21476	11526.025
2924.69136	11474.025
2927.16644	11465.425
2929.64	11476.525
2932.11205	11466.025
2934.58258	11430.425
2937.05161	11440.325
2939.51912	11446.925
2941.98513	11432.925
2944.44962	11394.425
2946.91261	11379.025
2949.37409	11377.925
2951.83407	11360.925
2954.29254	11338.725
2956.74951	11294.325
2959.20498	11271.825
2961.65895	11267.325
2964.11142	11248.325
2966.56239	11232.425
2969.01186	11222.125
2971.45984	11173.525
2973.90632	11177.625
2976.35131	11131.825
2978.7948	11118.325
2981.23681	11117.825
2983.67732	11051.625
2986.11635	11050.425
2988.55388	11002.725
2990.98993	10992.625
2993.4245	10986.925
2995.85758	10935.825
2998.28917	10931.125
3000.71928	10901.325
3003.14791	10889.425
3005.57506	10890.325
3008.00073	10887.525
3010.42493	10859.225
3012.84764	10844.925
3015.26888	10802.325
3017.68865	10788.125
3020.10694	10783.525
3022.52376	10743.825
3024.9391	10741.025
3027.35298	10749.925
3029.76539	10723.925
3032.17632	10717.825
3034.5858	10694.225
3036.9938	10674.425
3039.40034	10660.925
3041.80542	10672.825
3044.20903	10628.025
3046.61118	10639.725
3049.01187	10587.525
3051.4111	10591.725
3053.80888	10572.625
3056.20519	10543.725
3058.60005	10539.625
3060.99345	10488.325
3063.3854	10498.225
3065.7759	10462.425
3068.16494	10457.025
3070.55254	10400.925
3072.93868	10420.425
3075.32338	10388.325
3077.70662	10325.625
3080.08842	10321.025
3082.46878	10328.725
3084.84769	10325.825
3087.22515	10337.425
3089.60118	10327.325
3091.97576	10322.325
3094.3489	10336.125
3096.72061	10328.625
3099.09087	10317.925
3101.4597	10302.225
3103.82709	10307.125
3106.19305	10298.925
3108.55757	10274.525
3110.92066	10236.625
3113.28232	10218.825
3115.64255	10217.125
3118.00134	10187.325
3120.35871	10181.225
3122.71466	10171.025
3125.06917	10141.625
3127.42226	10137.425
3129.77393	10146.625
