Data from AgNP_FTO_APTES_CRN_20uM_R6G_10uM_NaF_0.1M_Addition_RamanShift__11__17-13-18-017.txt Node

Date: Wed Dec 15 17:13:18 GMT 2021
User: TCL
Spectrometer: QEP01345
Trigger mode: 4
Integration Time (sec): 7.000000E0
Scans to average: 10
Electric dark correction enabled: true
Nonlinearity correction enabled: false
Boxcar width: 0
XAxis mode: Raman Shifts
Number of Pixels in Spectrum: 1044
>>>>>Begin Spectral Data<<<<<
46.04893	0.85
50.45542	-2.45
54.85868	-1.45
59.25871	0.55
63.6555	59.85
68.04907	63.25
72.43941	68.85
76.82654	73.55
81.21044	74.35
85.59113	77.05
89.96862	81.65
94.34289	81.05
98.71396	85.85
103.08183	92.45
107.4465	95.65
111.80798	94.75
116.16626	95.25
120.52136	99.85
124.87327	97.95
129.222	102.05
133.56755	106.25
137.90993	114.85
142.24913	128.15
146.58517	140.55
150.91804	163.85
155.24774	187.05
159.57429	230.65
163.89768	288.95
168.21792	371.75
172.53501	501.95
176.84895	695.55
181.15975	981.95
185.46741	1371.45
189.77193	1900.35
194.07331	2526.05
198.37157	3271.05
202.6667	4038.45
206.9587	4827.35
211.24758	5585.95
215.53334	6330.15
219.81599	7112.95
224.09553	7992.85
228.37195	8947.85
232.64527	9998.85
236.91549	11140.15
241.18261	12294.95
245.44663	13373.85
249.70755	14318.25
253.96539	15153.75
258.22014	15880.45
262.4718	16463.35
266.72039	16842.05
270.96589	17046.85
275.20832	17103.65
279.44768	16997.75
283.68397	16889.05
287.91719	16783.55
292.14735	16749.05
296.37445	16732.05
300.59849	16757.65
304.81948	16781.45
309.03742	16780.45
313.25231	16667.25
317.46415	16407.45
321.67296	16090.95
325.87872	15736.25
330.08145	15596.75
334.28114	15561.25
338.47781	15673.85
342.67145	15846.55
346.86207	16068.15
351.04966	16320.65
355.23424	16557.75
359.4158	16744.75
363.59435	16875.75
367.76989	16956.65
371.94243	17044.85
376.11196	17055.75
380.27849	17095.75
384.44203	17114.75
388.60257	17226.65
392.76012	17433.05
396.91468	17627.45
401.06626	17898.25
405.21485	18083.35
409.36047	18098.85
413.50311	17897.55
417.64277	17792.45
421.77947	17844.15
425.9132	17929.75
430.04396	18050.65
434.17176	18115.45
438.2966	18155.85
442.41849	18243.95
446.53742	18538.65
450.6534	18845.65
454.76644	19122.85
458.87653	19217.45
462.98368	19209.05
467.08789	19109.85
471.18916	18974.75
475.2875	18789.95
479.38291	18613.15
483.4754	18496.15
487.56496	18302.85
491.6516	18113.05
495.73531	17974.05
499.81612	17983.85
503.89401	18143.25
507.96899	18239.95
512.04106	18297.35
516.11023	18243.85
520.1765	18122.15
524.23987	18010.25
528.30034	17880.25
532.35792	17722.45
536.41261	17543.15
540.46441	17419.55
544.51333	17434.65
548.55936	17621.45
552.60252	17936.45
556.64279	18239.35
560.6802	18431.75
564.71473	18486.15
568.7464	18613.55
572.7752	18998.25
576.80114	19515.65
580.82422	20100.65
584.84444	20685.15
588.86181	21141.05
592.87633	21281.65
596.888	21019.75
600.89682	20616.95
604.9028	20623.95
608.90594	21612.75
612.90624	22666.15
616.90371	21597.45
620.89834	18983.85
624.89015	17780.95
628.87913	17670.65
632.86528	17799.95
636.84862	17895.65
640.82913	17712.55
644.80683	17397.95
648.78172	17152.35
652.75379	17130.05
656.72306	17258.15
660.68952	17438.05
664.65319	17417.15
668.61405	17211.75
672.57211	17207.15
676.52738	17295.95
680.47986	17250.65
684.42955	17154.75
688.37646	17084.45
692.32058	17191.75
696.26192	17342.25
700.20048	17544.55
704.13626	17710.35
708.06928	17803.15
711.99952	17736.75
715.927	17691.25
719.85171	17652.85
723.77365	17536.75
727.69284	17326.65
731.60928	17105.55
735.52295	17017.35
739.43388	16975.05
743.34206	17029.15
747.24749	17126.55
751.15017	17239.85
755.05012	17469.85
758.94733	17900.25
762.8418	18629.55
766.73354	19786.95
770.62254	20807.85
774.50882	20926.85
778.39237	20039.45
782.27321	18970.75
786.15132	18059.15
790.02671	17490.35
793.89938	17173.65
797.76935	17043.15
801.6366	16963.05
805.50115	16935.25
809.36299	16888.65
813.22213	16743.75
817.07857	16721.35
820.93231	16647.55
824.78336	16653.05
828.63172	16606.95
832.47738	16607.25
836.32036	16578.35
840.16066	16597.05
843.99827	16590.75
847.8332	16516.45
851.66546	16529.35
855.49504	16516.05
859.32195	16519.35
863.1462	16520.25
866.96777	16488.95
870.78668	16463.65
874.60293	16482.05
878.41652	16543.45
882.22745	16553.15
886.03573	16604.65
889.84136	16629.25
893.64433	16595.55
897.44466	16546.75
901.24235	16489.65
905.0374	16479.55
908.8298	16433.55
912.61957	16477.45
916.40671	16607.65
920.19121	16797.15
923.97308	16851.05
927.75233	16842.85
931.52895	16734.75
935.30295	16509.05
939.07433	16324.35
942.84309	16137.75
946.60924	16051.15
950.37278	16001.35
954.13371	15974.35
957.89203	15944.35
961.64774	15982.45
965.40086	15889.55
969.15137	15885.15
972.89929	15822.55
976.64461	15817.95
980.38733	15757.95
984.12747	15809.65
987.86502	15869.35
991.59999	15906.65
995.33237	15993.55
999.06217	16173.55
1002.78939	16419.45
1006.51404	16639.85
1010.23611	16939.05
1013.95561	17145.15
1017.67255	17107.45
1021.38692	16989.85
1025.09872	16805.25
1028.80796	16653.85
1032.51465	16593.35
1036.21877	16661.05
1039.92035	16757.25
1043.61937	16818.25
1047.31584	16891.05
1051.00976	16939.45
1054.70114	17056.95
1058.38998	17248.05
1062.07627	17605.65
1065.76003	17986.95
1069.44126	18451.15
1073.11995	18890.65
1076.79611	19143.65
1080.46974	19070.45
1084.14085	18811.35
1087.80943	18676.65
1091.47549	18527.95
1095.13903	18437.15
1098.80005	18205.75
1102.45857	17834.95
1106.11456	17450.75
1109.76805	17256.45
1113.41903	17185.45
1117.06751	17227.75
1120.71348	17349.15
1124.35696	17518.65
1127.99793	17734.45
1131.63641	17870.75
1135.2724	17812.75
1138.90589	17732.45
1142.5369	17716.85
1146.16542	17754.45
1149.79145	17844.65
1153.415	17915.05
1157.03607	18070.15
1160.65467	18419.05
1164.27079	18976.75
1167.88443	19782.45
1171.49561	20689.85
1175.10432	21826.75
1178.71056	23197.15
1182.31434	24443.65
1185.91565	25222.55
1189.51451	25439.05
1193.11091	25115.95
1196.70485	24409.95
1200.29634	23490.95
1203.88538	22766.75
1207.47197	22262.85
1211.05612	21811.15
1214.63782	21404.55
1218.21708	20919.55
1221.79391	20411.55
1225.36829	20077.95
1228.94024	19878.85
1232.50976	19777.85
1236.07685	19706.15
1239.6415	19669.95
1243.20374	19685.25
1246.76355	19776.15
1250.32093	19983.65
1253.8759	20282.85
1257.42845	20748.65
1260.97859	21302.95
1264.52631	21815.55
1268.07163	22249.85
1271.61453	22676.15
1275.15503	23071.35
1278.69312	23522.65
1282.22882	23906.25
1285.76211	24440.15
1289.29301	25069.65
1292.82151	25810.75
1296.34761	26750.15
1299.87133	27798.75
1303.39266	28906.95
1306.9116	29982.75
1310.42815	30928.75
1313.94233	31385.55
1317.45412	31355.55
1320.96354	31060.85
1324.47058	30882.75
1327.97525	30908.55
1331.47754	30931.45
1334.97747	31162.85
1338.47502	31297.95
1341.97022	31515.85
1345.46305	31688.95
1348.95352	31712.95
1352.44163	31677.55
1355.92738	31802.25
1359.41078	32285.05
1362.89183	32643.75
1366.37053	32024.15
1369.84688	30054.05
1373.32088	27642.45
1376.79254	25745.85
1380.26186	24815.85
1383.72883	24569.85
1387.19347	24413.15
1390.65578	24152.95
1394.11575	23920.65
1397.57339	23821.45
1401.0287	23888.05
1404.48168	23969.55
1407.93234	23924.95
1411.38068	23606.25
1414.82669	23038.35
1418.27039	22307.85
1421.71177	21619.15
1425.15083	21064.15
1428.58758	20825.75
1432.02203	20959.85
1435.45416	21309.25
1438.88399	21771.65
1442.31151	22123.25
1445.73673	22343.05
1449.15965	22507.25
1452.58027	22604.65
1455.9986	22659.85
1459.41463	22831.85
1462.82837	23206.05
1466.23982	23624.55
1469.64898	24001.95
1473.05586	24228.25
1476.46045	24303.05
1479.86276	24284.85
1483.26279	24206.25
1486.66054	24224.65
1490.05602	24428.25
1493.44922	24807.15
1496.84016	25261.75
1500.22882	25992.55
1503.61521	26898.05
1506.99934	27890.85
1510.38121	28518.45
1513.76081	28478.55
1517.13816	27832.45
1520.51324	26950.35
1523.88607	26294.85
1527.25665	25908.95
1530.62498	25785.05
1533.99105	25658.15
1537.35488	25394.25
1540.71647	24907.05
1544.07581	24374.95
1547.4329	23757.45
1550.78776	23240.65
1554.14038	22817.55
1557.49077	22683.55
1560.83892	22663.35
1564.18484	22767.75
1567.52853	22929.85
1570.86999	23255.05
1574.20922	23819.35
1577.54624	24437.05
1580.88103	24729.95
1584.2136	24727.75
1587.54395	24647.65
1590.87208	24719.75
1594.19801	25304.05
1597.52172	26108.25
1600.84321	26361.05
1604.16251	25583.25
1607.47959	24298.95
1610.79447	22849.25
1614.10715	21384.25
1617.41763	20112.45
1620.7259	19145.05
1624.03199	18560.45
1627.33587	18433.25
1630.63757	18663.55
1633.93707	19454.45
1637.23439	20834.45
1640.52951	22885.85
1643.82246	25274.45
1647.11321	27356.85
1650.40179	27950.25
1653.68819	26668.85
1656.97241	24048.65
1660.25446	21310.65
1663.53433	19116.05
1666.81203	17611.35
1670.08756	16630.85
1673.36092	16014.35
1676.63211	15542.05
1679.90115	15285.25
1683.16801	15058.85
1686.43272	14891.15
1689.69527	14808.85
1692.95567	14697.55
1696.2139	14637.35
1699.46999	14605.95
1702.72392	14557.95
1705.97571	14503.85
1709.22535	14462.15
1712.47284	14421.45
1715.71819	14418.95
1718.96139	14373.25
1722.20246	14357.45
1725.44139	14295.35
1728.67818	14215.45
1731.91284	14111.25
1735.14537	14026.05
1738.37576	13996.25
1741.60403	13958.15
1744.83017	13955.25
1748.05418	13887.95
1751.27607	13876.25
1754.49584	13840.85
1757.71349	13853.05
1760.92903	13830.05
1764.14244	13816.25
1767.35375	13809.85
1770.56294	13777.05
1773.77002	13772.85
1776.97499	13740.25
1780.17785	13739.05
1783.37861	13700.45
1786.57727	13651.65
1789.77382	13601.15
1792.96828	13591.45
1796.16064	13561.25
1799.3509	13522.65
1802.53907	13494.95
1805.72514	13463.95
1808.90913	13437.25
1812.09102	13411.95
1815.27083	13381.55
1818.44856	13368.85
1821.6242	13347.25
1824.79776	13337.05
1827.96924	13343.05
1831.13864	13331.35
1834.30597	13347.45
1837.47122	13353.85
1840.6344	13330.45
1843.7955	13334.45
1846.95454	13319.85
1850.11151	13300.15
1853.26642	13279.75
1856.41926	13276.95
1859.57004	13263.75
1862.71876	13242.75
1865.86542	13227.05
1869.01003	13194.95
1872.15258	13191.95
1875.29308	13169.85
1878.43152	13107.65
1881.56792	13130.05
1884.70227	13088.65
1887.83457	13078.05
1890.96482	13049.05
1894.09304	13051.05
1897.21921	13028.55
1900.34335	13012.55
1903.46544	13008.85
1906.58551	12936.35
1909.70353	12957.55
1912.81953	12922.05
1915.93349	12924.05
1919.04543	12873.95
1922.15534	12825.65
1925.26322	12826.85
1928.36908	12804.85
1931.47292	12764.15
1934.57473	12719.45
1937.67453	12719.35
1940.77232	12662.75
1943.86808	12647.15
1946.96184	12638.75
1950.05358	12588.45
1953.14331	12562.95
1956.23103	12538.65
1959.31675	12507.15
1962.40046	12476.35
1965.48217	12438.75
1968.56188	12418.65
1971.63959	12347.75
1974.7153	12299.25
1977.78901	12261.05
1980.86073	12227.35
1983.93046	12227.05
1986.99819	12153.05
1990.06394	12143.25
1993.1277	12086.85
1996.18947	12047.75
1999.24925	12015.35
2002.30706	11979.55
2005.36288	11964.45
2008.41672	11934.85
2011.46859	11860.65
2014.51848	11846.45
2017.56639	11804.55
2020.61233	11791.65
2023.6563	11744.25
2026.6983	11732.95
2029.73833	11729.65
2032.7764	11676.75
2035.8125	11673.35
2038.84664	11606.35
2041.87881	11592.15
2044.90903	11589.05
2047.93729	11536.65
2050.96359	11556.15
2053.98794	11539.65
2057.01034	11517.15
2060.03078	11519.75
2063.04927	11491.25
2066.06582	11496.95
2069.08042	11502.05
2072.09307	11485.55
2075.10378	11449.15
2078.11255	11436.55
2081.11938	11448.95
2084.12426	11430.55
2087.12722	11428.35
2090.12824	11433.65
2093.12732	11443.85
2096.12447	11460.85
2099.11969	11445.95
2102.11299	11455.55
2105.10435	11455.55
2108.09379	11465.85
2111.08131	11496.55
2114.0669	11506.05
2117.05057	11463.85
2120.03233	11489.75
2123.01216	11487.65
2125.99008	11500.65
2128.96609	11510.75
2131.94018	11506.15
2134.91236	11519.25
2137.88263	11528.85
2140.851	11517.75
2143.81746	11542.95
2146.78201	11565.15
2149.74466	11534.55
2152.7054	11560.65
2155.66425	11566.55
2158.6212	11551.35
2161.57625	11552.25
2164.52941	11541.75
2167.48067	11535.85
2170.43004	11529.15
2173.37752	11537.95
2176.32311	11512.25
2179.26681	11480.15
2182.20863	11507.55
2185.14856	11507.75
2188.08661	11462.15
2191.02278	11481.35
2193.95707	11492.25
2196.88948	11465.85
2199.82001	11456.75
2202.74867	11450.45
2205.67545	11451.55
2208.60037	11419.65
2211.52341	11412.15
2214.44458	11404.45
2217.36388	11352.65
2220.28132	11344.95
2223.1969	11313.85
2226.11061	11342.75
2229.02246	11317.85
2231.93245	11314.75
2234.84058	11246.45
2237.74686	11253.45
2240.65128	11254.55
2243.55385	11205.15
2246.45456	11181.25
2249.35343	11157.05
2252.25044	11144.35
2255.14561	11121.75
2258.03893	11155.65
2260.93041	11135.35
2263.82004	11092.35
2266.70783	11062.85
2269.59378	11045.65
2272.4779	11036.85
2275.36017	10977.45
2278.24061	10935.65
2281.11922	10916.75
2283.996	10905.25
2286.87094	10904.95
2289.74405	10866.65
2292.61534	10884.85
2295.4848	10849.75
2298.35243	10866.15
2301.21824	10848.95
2304.08223	10838.25
2306.94439	10788.05
2309.80474	10792.45
2312.66327	10811.45
2315.51999	10786.15
2318.37489	10777.85
2321.22797	10765.35
2324.07925	10746.75
2326.92871	10727.45
2329.77637	10752.25
2332.62222	10724.75
2335.46626	10683.75
2338.3085	10709.05
2341.14893	10666.55
2343.98756	10647.85
2346.8244	10664.55
2349.65943	10664.05
2352.49267	10638.25
2355.32411	10659.75
2358.15376	10642.15
2360.98161	10643.95
2363.80768	10644.75
2366.63195	10622.05
2369.45444	10601.85
2372.27514	10623.35
2375.09405	10627.55
2377.91118	10582.55
2380.72652	10570.65
2383.54009	10547.05
2386.35187	10524.15
2389.16188	10480.35
2391.97011	10496.25
2394.77657	10454.45
2397.58125	10442.65
2400.38416	10447.95
2403.18529	10390.85
2405.98466	10393.65
2408.78226	10391.85
2411.57809	10364.15
2414.37216	10345.85
2417.16446	10371.45
2419.955	10329.45
2422.74378	10333.55
2425.5308	10316.65
2428.31606	10294.25
2431.09956	10319.45
2433.88131	10284.85
2436.6613	10277.35
2439.43954	10269.15
2442.21603	10272.45
2444.99077	10231.65
2447.76377	10253.85
2450.53501	10261.45
2453.30451	10224.45
2456.07226	10197.15
2458.83827	10202.85
2461.60254	10186.25
2464.36507	10206.15
2467.12586	10172.25
2469.88492	10180.75
2472.64224	10170.35
2475.39782	10165.75
2478.15167	10184.35
2480.90379	10179.85
2483.65417	10180.95
2486.40283	10175.85
2489.14976	10175.95
2491.89497	10158.45
2494.63845	10166.85
2497.3802	10143.45
2500.12024	10126.85
2502.85855	10126.15
2505.59514	10140.85
2508.33002	10119.35
2511.06318	10100.55
2513.79462	10093.15
2516.52435	10094.25
2519.25237	10078.95
2521.97867	10057.35
2524.70327	10046.05
2527.42616	10047.25
2530.14734	10051.95
2532.86681	10025.65
2535.58458	10005.55
2538.30065	9996.15
2541.01501	9984.75
2543.72768	9990.05
2546.43864	9969.15
2549.14791	9964.85
2551.85548	9916.65
2554.56136	9906.05
2557.26554	9911.75
2559.96803	9911.95
2562.66883	9890.75
2565.36794	9881.65
2568.06536	9879.75
2570.7611	9849.85
2573.45514	9857.95
2576.14751	9830.05
2578.83819	9800.45
2581.52719	9806.15
2584.21451	9766.45
2586.90015	9794.15
2589.58411	9762.75
2592.2664	9753.35
2594.94701	9724.65
2597.62594	9717.85
2600.30321	9695.05
2602.9788	9702.75
2605.65273	9675.45
2608.32498	9687.45
2610.99557	9649.65
2613.66449	9651.35
2616.33175	9669.05
2618.99734	9635.55
2621.66128	9626.35
2624.32355	9599.85
2626.98416	9592.05
2629.64311	9583.95
2632.30041	9607.35
2634.95605	9595.05
2637.61004	9565.95
2640.26238	9546.25
2642.91306	9557.55
2645.56209	9521.65
2648.20948	9561.95
2650.85521	9542.95
2653.4993	9551.95
2656.14175	9554.25
2658.78255	9544.05
2661.42171	9520.35
2664.05923	9547.05
2666.6951	9545.85
2669.32934	9541.25
2671.96194	9524.15
2674.59291	9518.85
2677.22224	9534.05
2679.84993	9546.05
2682.476	9530.05
2685.10043	9531.75
2687.72324	9520.25
2690.34441	9534.75
2692.96396	9526.25
2695.58188	9539.35
2698.19818	9519.35
2700.81285	9557.55
2703.4259	9566.35
2706.03733	9595.75
2708.64714	9588.15
2711.25533	9573.25
2713.86191	9548.75
2716.46687	9570.35
2719.07021	9550.35
2721.67194	9563.65
2724.27206	9544.45
2726.87057	9564.65
2729.46747	9528.65
2732.06276	9547.45
2734.65644	9520.25
2737.24852	9545.05
2739.83899	9542.65
2742.42786	9543.05
2745.01513	9509.25
2747.60079	9494.45
2750.18486	9479.85
2752.76733	9471.35
2755.3482	9501.55
2757.92747	9469.15
2760.50515	9482.25
2763.08123	9457.75
2765.65573	9439.75
2768.22863	9442.45
2770.79994	9432.15
2773.36967	9435.45
2775.9378	9430.25
2778.50435	9405.75
2781.06932	9365.25
2783.6327	9374.25
2786.1945	9376.95
2788.75471	9357.55
2791.31335	9340.45
2793.87041	9329.85
2796.42589	9286.95
2798.97979	9297.95
2801.53212	9285.35
2804.08288	9271.25
2806.63206	9259.95
2809.17967	9216.85
2811.72571	9196.75
2814.27018	9212.15
2816.81308	9190.25
2819.35442	9152.75
2821.89419	9153.55
2824.43239	9146.25
2826.96904	9116.15
2829.50412	9147.25
2832.03763	9108.35
2834.56959	9098.35
2837.1	9091.85
2839.62884	9103.65
2842.15613	9111.15
2844.68186	9104.15
2847.20604	9098.65
2849.72867	9097.15
2852.24974	9085.55
2854.76927	9093.95
2857.28724	9091.25
2859.80367	9073.95
2862.31855	9064.55
2864.83189	9060.05
2867.34368	9043.05
2869.85393	9020.15
2872.36264	9000.45
2874.8698	9025.95
2877.37543	9003.15
2879.87952	9003.75
2882.38207	9001.95
2884.88308	9000.55
2887.38256	9012.25
2889.88051	9023.85
2892.37692	8990.15
2894.8718	8993.85
2897.36515	9001.55
2899.85698	8995.45
2902.34727	9011.35
2904.83604	9012.65
2907.32328	9021.05
2909.809	9003.75
2912.29319	9002.35
2914.77587	9008.55
2917.25702	9018.65
2919.73665	8991.55
2922.21476	9011.95
2924.69136	9004.15
2927.16644	9010.85
2929.64	9006.35
2932.11205	8968.25
2934.58258	8962.35
2937.05161	8990.65
2939.51912	8983.45
2941.98513	8969.85
2944.44962	8941.45
2946.91261	8899.35
2949.37409	8921.45
2951.83407	8900.25
2954.29254	8924.05
2956.74951	8875.95
2959.20498	8887.55
2961.65895	8877.05
2964.11142	8868.85
2966.56239	8855.45
2969.01186	8817.05
2971.45984	8811.05
2973.90632	8812.35
2976.35131	8800.15
2978.7948	8765.55
2981.23681	8752.25
2983.67732	8760.75
2986.11635	8741.35
2988.55388	8727.55
2990.98993	8691.95
2993.4245	8667.85
2995.85758	8674.35
2998.28917	8627.15
3000.71928	8625.25
3003.14791	8614.75
3005.57506	8602.65
3008.00073	8595.55
3010.42493	8568.35
3012.84764	8559.25
3015.26888	8527.05
3017.68865	8500.85
3020.10694	8497.65
3022.52376	8508.75
3024.9391	8501.95
3027.35298	8478.95
3029.76539	8479.25
3032.17632	8479.75
3034.5858	8471.75
3036.9938	8458.05
3039.40034	8442.35
3041.80542	8430.25
3044.20903	8412.95
3046.61118	8419.45
3049.01187	8406.85
3051.4111	8395.15
3053.80888	8402.25
3056.20519	8378.35
3058.60005	8352.25
3060.99345	8315.55
3063.3854	8309.65
3065.7759	8272.15
3068.16494	8280.35
3070.55254	8257.85
3072.93868	8266.25
3075.32338	8220.75
3077.70662	8220.85
3080.08842	8177.75
3082.46878	8179.65
3084.84769	8182.45
3087.22515	8183.35
3089.60118	8172.05
3091.97576	8171.85
3094.3489	8145.65
3096.72061	8133.25
3099.09087	8142.45
3101.4597	8138.25
3103.82709	8136.95
3106.19305	8118.25
3108.55757	8118.35
3110.92066	8080.25
3113.28232	8094.85
3115.64255	8051.95
3118.00134	8038.65
3120.35871	8043.85
3122.71466	8041.05
3125.06917	8008.65
3127.42226	8009.05
3129.77393	8016.85
3132.12417	8032.65
3134.47299	8024.65
3136.82039	8012.65
3139.16636	8015.35
3141.51092	8013.05
3143.85406	8034.25
3146.19579	8039.05
3148.53609	8051.75
3150.87499	8032.95
3153.21246	8018.85
3155.54853	8027.25
3157.88318	8033.05
3160.21642	8046.55
3162.54826	8027.05
3164.87868	8029.55
3167.2077	8017.95
3169.5353	8017.35
3171.86151	8015.25
3174.18631	8021.85
3176.5097	8014.75
3178.83169	7967.75
3181.15228	7989.45
3183.47147	7970.15
3185.78926	7976.15
3188.10565	7968.45
3190.42065	7967.85
3192.73424	7953.25
3195.04645	7970.15
3197.35725	7946.05
3199.66667	7961.55
3201.97469	7983.15
3204.28132	7968.25
3206.58656	7964.45
3208.8904	7968.75
3211.19287	7975.45
3213.49394	7948.55
3215.79363	7972.75
3218.09193	7969.15
3220.38884	7970.75
3222.68438	7977.55
3224.97853	7954.25
3227.2713	7941.65
3229.56269	7921.95
3231.8527	7920.35
3234.14133	7905.35
3236.42858	7895.15
3238.71446	7905.75
3240.99896	7874.65
3243.28209	7869.85
3245.56384	7870.75
3247.84423	7870.35
3250.12324	7839.55
3252.40088	7861.95
3254.67715	7834.85
3256.95205	7842.65
3259.22558	7843.95
3261.49775	7815.65
3263.76855	7822.75
3266.03799	7794.95
3268.30606	7779.85
3270.57277	7751.45
3272.83812	7749.15
3275.10211	7729.95
