Data from AgNP_FTO_APTES_CRN_5uM_R6G_10uM_NaF_0.1M_Addition_RamanShift__15__15-43-27-915.txt Node

Date: Wed Dec 15 15:43:27 GMT 2021
User: TCL
Spectrometer: QEP01345
Trigger mode: 4
Integration Time (sec): 7.000000E0
Scans to average: 10
Electric dark correction enabled: true
Nonlinearity correction enabled: false
Boxcar width: 0
XAxis mode: Raman Shifts
Number of Pixels in Spectrum: 1044
>>>>>Begin Spectral Data<<<<<
46.04893	1.2
50.45542	-2.4
54.85868	-1.9
59.25871	-1.2
63.6555	117.6
68.04907	128.4
72.43941	133.2
76.82654	140.5
81.21044	141
85.59113	151.2
89.96862	154.1
94.34289	154.7
98.71396	162.8
103.08183	170.7
107.4465	172.2
111.80798	180.3
116.16626	182.2
120.52136	194.7
124.87327	191.6
129.222	211.2
133.56755	216.3
137.90993	236.1
142.24913	262.6
146.58517	294.6
150.91804	335.8
155.24774	401.9
159.57429	500.4
163.89768	635.4
168.21792	841.9
172.53501	1143.8
176.84895	1585.4
181.15975	2228.5
185.46741	3139.9
189.77193	4334.6
194.07331	5788.4
198.37157	7474.3
202.6667	9221.5
206.9587	10972.2
211.24758	12662.1
215.53334	14380.2
219.81599	16127.2
224.09553	18029.1
228.37195	20171.9
232.64527	22547
236.91549	25094.9
241.18261	27655.7
245.44663	30218
249.70755	32485.6
253.96539	34587.5
258.22014	36235.3
262.4718	37599
266.72039	38502.3
270.96589	38934.1
275.20832	38960
279.44768	38906.8
283.68397	38553.1
287.91719	38237.6
292.14735	37984.4
296.37445	37802.3
300.59849	37715.4
304.81948	37655.1
309.03742	37563.7
313.25231	37333.3
317.46415	36851.5
321.67296	36338.1
325.87872	35904.9
330.08145	35791.8
334.28114	35864.5
338.47781	36207.4
342.67145	36575.2
346.86207	37011
351.04966	37519.2
355.23424	38062.3
359.4158	38536.6
363.59435	38939.7
367.76989	39263.7
371.94243	39464.9
376.11196	39622.4
380.27849	39685.2
384.44203	39823.3
388.60257	40135.2
392.76012	40461.7
396.91468	41005
401.06626	41595
405.21485	41947.6
409.36047	41991.4
413.50311	41782.7
417.64277	41704.5
421.77947	41848.5
425.9132	42195
430.04396	42448
434.17176	42671.5
438.2966	42730.2
442.41849	42991.3
446.53742	43620.6
450.6534	44355
454.76644	44899.8
458.87653	45150.6
462.98368	45244.4
467.08789	45042.7
471.18916	44789.2
475.2875	44364
479.38291	44040.3
483.4754	43775.3
487.56496	43480.5
491.6516	43204.8
495.73531	42947.3
499.81612	42916.3
503.89401	43171.5
507.96899	43454.7
512.04106	43666.6
516.11023	43619.3
520.1765	43306.1
524.23987	42947.8
528.30034	42642.1
532.35792	42352.3
536.41261	42009.9
540.46441	41797.1
544.51333	41848.7
548.55936	42213.4
552.60252	42857
556.64279	43433.6
560.6802	43851.3
564.71473	44176.7
568.7464	44684.2
572.7752	45622.9
576.80114	46869.5
580.82422	48260.5
584.84444	49468
588.86181	50505.6
592.87633	51249
596.888	50766.2
600.89682	49644.2
604.9028	49621.3
608.90594	51292.9
612.90624	52689.5
616.90371	50130.8
620.89834	45546.2
624.89015	43658.2
628.87913	43517.3
632.86528	43846.2
636.84862	43879
640.82913	43353.6
644.80683	42670.7
648.78172	42133.2
652.75379	42091.8
656.72306	42369.9
660.68952	42767.8
664.65319	42726.5
668.61405	42377.5
672.57211	42453.3
676.52738	42514.6
680.47986	42521.9
684.42955	42320.8
688.37646	42207.5
692.32058	42395.1
696.26192	42731.2
700.20048	43156.8
704.13626	43486.7
708.06928	43658.7
711.99952	43616.3
715.927	43500.3
719.85171	43437.7
723.77365	43165.9
727.69284	42766.4
731.60928	42311
735.52295	42102.7
739.43388	41985.8
743.34206	42048.7
747.24749	42309.5
751.15017	42679.1
755.05012	43150.5
758.94733	44011.6
762.8418	45456.3
766.73354	47496.9
770.62254	49256.8
774.50882	49325.4
778.39237	47776.9
782.27321	45852.7
786.15132	44232.5
790.02671	43194.5
793.89938	42544.2
797.76935	42275
801.6366	42141.6
805.50115	42061.4
809.36299	41857.2
813.22213	41646.1
817.07857	41562.4
820.93231	41437.8
824.78336	41369.7
828.63172	41285.4
832.47738	41284.9
836.32036	41325.6
840.16066	41253.3
843.99827	41239.3
847.8332	41239.9
851.66546	41302.4
855.49504	41408
859.32195	41405.8
863.1462	41349.9
866.96777	41371.6
870.78668	41294.6
874.60293	41376.8
878.41652	41428.1
882.22745	41507.8
886.03573	41565.7
889.84136	41657
893.64433	41593.6
897.44466	41566.7
901.24235	41551.9
905.0374	41456.1
908.8298	41505.7
912.61957	41528.8
916.40671	41866.9
920.19121	42269.5
923.97308	42459.3
927.75233	42359.4
931.52895	41935.8
935.30295	41555.5
939.07433	41086.1
942.84309	40768.6
946.60924	40534.5
950.37278	40456.9
954.13371	40405.5
957.89203	40393.6
961.64774	40402.7
965.40086	40393.6
969.15137	40283
972.89929	40148.1
976.64461	40034
980.38733	40000.7
984.12747	40079.6
987.86502	40147.9
991.59999	40262.1
995.33237	40483.9
999.06217	40816
1002.78939	41352.4
1006.51404	41958
1010.23611	42646.2
1013.95561	43097.2
1017.67255	43049.4
1021.38692	42698.3
1025.09872	42257.4
1028.80796	41823.7
1032.51465	41613.4
1036.21877	41667.8
1039.92035	41765.3
1043.61937	42005.3
1047.31584	42140.7
1051.00976	42383.5
1054.70114	42647.9
1058.38998	43050.8
1062.07627	43702.4
1065.76003	44553.6
1069.44126	45462.9
1073.11995	46330.7
1076.79611	46937.6
1080.46974	47047.6
1084.14085	46736.7
1087.80943	46662.4
1091.47549	46622.4
1095.13903	46576.7
1098.80005	46111.5
1102.45857	45324.8
1106.11456	44660.4
1109.76805	44149.9
1113.41903	43940.4
1117.06751	43865.6
1120.71348	44051.6
1124.35696	44298.7
1127.99793	44565.4
1131.63641	44899.9
1135.2724	44996.1
1138.90589	45098.2
1142.5369	45216.6
1146.16542	45286.3
1149.79145	45439.3
1153.415	45736.4
1157.03607	46212
1160.65467	47042
1164.27079	48439.7
1167.88443	50151.7
1171.49561	51978.4
1175.10432	54038.6
1178.71056	56582.2
1182.31434	59110.2
1185.91565	60923.9
1189.51451	61809.1
1193.11091	61747
1196.70485	60635.4
1200.29634	58836
1203.88538	57281.4
1207.47197	56434.6
1211.05612	55839
1214.63782	55176.3
1218.21708	54034.8
1221.79391	52699.4
1225.36829	51607.4
1228.94024	51012.4
1232.50976	50698.3
1236.07685	50565.7
1239.6415	50598.8
1243.20374	50642.5
1246.76355	50874.3
1250.32093	51313
1253.8759	52000.8
1257.42845	53151.5
1260.97859	54340
1264.52631	55500.3
1268.07163	56584.1
1271.61453	57692.8
1275.15503	58849.8
1278.69312	60054.2
1282.22882	61183
1285.76211	62288.7
1289.29301	63624.9
1292.82151	65261.5
1296.34761	67137.5
1299.87133	69397.3
1303.39266	71673.2
1306.9116	73712.2
1310.42815	75254.3
1313.94233	76023.9
1317.45412	76001.5
1320.96354	76003.8
1324.47058	76257.2
1327.97525	76916.3
1331.47754	77583
1334.97747	78363
1338.47502	79223.3
1341.97022	80141.1
1345.46305	80711.2
1348.95352	80655.5
1352.44163	79797.8
1355.92738	78724.3
1359.41078	77979.6
1362.89183	77375.5
1366.37053	75549.4
1369.84688	71833.2
1373.32088	67440.9
1376.79254	63982.3
1380.26186	62403.4
1383.72883	61955
1387.19347	61919.9
1390.65578	61431.2
1394.11575	61044.7
1397.57339	61069.3
1401.0287	61503.8
1404.48168	61932.4
1407.93234	61758.4
1411.38068	60963
1414.82669	59583.6
1418.27039	57805.7
1421.71177	56165.4
1425.15083	54935.9
1428.58758	54400.5
1432.02203	54724.5
1435.45416	55664.4
1438.88399	56825.6
1442.31151	57752.2
1445.73673	58316.7
1449.15965	58684
1452.58027	58914.3
1455.9986	59141.1
1459.41463	59643.4
1462.82837	60500.7
1466.23982	61339.1
1469.64898	61968.4
1473.05586	62307.6
1476.46045	62204.3
1479.86276	61981.9
1483.26279	61624.9
1486.66054	61365.4
1490.05602	61556.2
1493.44922	61952.8
1496.84016	62588.5
1500.22882	63794.3
1503.61521	65200.8
1506.99934	66675.3
1510.38121	67562.7
1513.76081	67660.8
1517.13816	67173.4
1520.51324	66371.8
1523.88607	65933.7
1527.25665	65721.3
1530.62498	65757.4
1533.99105	65441.5
1537.35488	64658.3
1540.71647	63584
1544.07581	62278.8
1547.4329	61033.6
1550.78776	60003.5
1554.14038	59240.7
1557.49077	58740.6
1560.83892	58534.9
1564.18484	58405.7
1567.52853	58485.1
1570.86999	58937
1574.20922	60063.4
1577.54624	61351
1580.88103	62275.1
1584.2136	62958.8
1587.54395	63731.6
1590.87208	64841.1
1594.19801	66291.7
1597.52172	67761.8
1600.84321	67750.3
1604.16251	65649.5
1607.47959	62682
1610.79447	59434
1614.10715	56015.7
1617.41763	52936.4
1620.7259	50462.8
1624.03199	48993
1627.33587	48759.6
1630.63757	49514.3
1633.93707	51580.8
1637.23439	55256.1
1640.52951	60407.2
1643.82246	65929.8
1647.11321	69962.7
1650.40179	70243.2
1653.68819	66486.4
1656.97241	60144.6
1660.25446	53832.6
1663.53433	48906.6
1666.81203	45496.8
1670.08756	43229.4
1673.36092	41825.4
1676.63211	40905.8
1679.90115	40204.7
1683.16801	39681.9
1686.43272	39274.1
1689.69527	39008.2
1692.95567	38795.2
1696.2139	38630.9
1699.46999	38563.4
1702.72392	38377.2
1705.97571	38324.8
1709.22535	38220.7
1712.47284	38137.8
1715.71819	38112.2
1718.96139	37969.9
1722.20246	37842.7
1725.44139	37733.6
1728.67818	37600.7
1731.91284	37354.7
1735.14537	37207.7
1738.37576	37051
1741.60403	36935.6
1744.83017	36836.2
1748.05418	36758.4
1751.27607	36650.6
1754.49584	36567.3
1757.71349	36570.9
1760.92903	36537.8
1764.14244	36451.4
1767.35375	36501.7
1770.56294	36434.7
1773.77002	36389.1
1776.97499	36348.3
1780.17785	36322.9
1783.37861	36211.8
1786.57727	36212.6
1789.77382	36062.3
1792.96828	35992.8
1796.16064	35925.8
1799.3509	35876.8
1802.53907	35813.9
1805.72514	35720.9
1808.90913	35662.1
1812.09102	35567
1815.27083	35515.1
1818.44856	35464.2
1821.6242	35441
1824.79776	35471.4
1827.96924	35425.8
1831.13864	35448.8
1834.30597	35465.6
1837.47122	35509.4
1840.6344	35477.4
1843.7955	35449.7
1846.95454	35489.1
1850.11151	35493.7
1853.26642	35396.7
1856.41926	35440.8
1859.57004	35402.4
1862.71876	35273.2
1865.86542	35290.7
1869.01003	35227.4
1872.15258	35203.7
1875.29308	35117.1
1878.43152	35077.6
1881.56792	34967.4
1884.70227	34890.9
1887.83457	34842.3
1890.96482	34820.1
1894.09304	34765.1
1897.21921	34723.4
1900.34335	34643
1903.46544	34574.9
1906.58551	34552.2
1909.70353	34419.6
1912.81953	34382.6
1915.93349	34336.9
1919.04543	34252.2
1922.15534	34177.7
1925.26322	34122.6
1928.36908	34060.4
1931.47292	33988.8
1934.57473	33913.7
1937.67453	33828.7
1940.77232	33690.2
1943.86808	33662.2
1946.96184	33529.6
1950.05358	33458.3
1953.14331	33378
1956.23103	33289.5
1959.31675	33238.6
1962.40046	33155
1965.48217	32990.3
1968.56188	32877.7
1971.63959	32812
1974.7153	32689
1977.78901	32536
1980.86073	32493.8
1983.93046	32371.9
1986.99819	32336.5
1990.06394	32285
1993.1277	32188.6
1996.18947	32028.1
1999.24925	31938
2002.30706	31849.2
2005.36288	31753.2
2008.41672	31663.7
2011.46859	31561.9
2014.51848	31468.9
2017.56639	31410.2
2020.61233	31295.7
2023.6563	31288.4
2026.6983	31213.3
2029.73833	31141.5
2032.7764	31064.7
2035.8125	30951.1
2038.84664	30890
2041.87881	30823
2044.90903	30757.4
2047.93729	30690.4
2050.96359	30643
2053.98794	30641
2057.01034	30628.3
2060.03078	30577
2063.04927	30546.9
2066.06582	30522.9
2069.08042	30517.6
2072.09307	30507.1
2075.10378	30467.6
2078.11255	30400.3
2081.11938	30446.2
2084.12426	30416.3
2087.12722	30381.1
2090.12824	30375.8
2093.12732	30406.8
2096.12447	30425.5
2099.11969	30322.5
2102.11299	30352.7
2105.10435	30393.1
2108.09379	30444.6
2111.08131	30487.8
2114.0669	30446.7
2117.05057	30454.8
2120.03233	30436.9
2123.01216	30487.7
2125.99008	30525.1
2128.96609	30482.3
2131.94018	30523.6
2134.91236	30534
2137.88263	30547.4
2140.851	30538.3
2143.81746	30522.1
2146.78201	30599.2
2149.74466	30557.8
2152.7054	30554.9
2155.66425	30556.1
2158.6212	30521.5
2161.57625	30522.1
2164.52941	30558
2167.48067	30562.9
2170.43004	30531.5
2173.37752	30495.6
2176.32311	30543.8
2179.26681	30483.5
2182.20863	30428.9
2185.14856	30438.1
2188.08661	30450
2191.02278	30410.7
2193.95707	30396.1
2196.88948	30389.6
2199.82001	30396.7
2202.74867	30322.5
2205.67545	30279.9
2208.60037	30235
2211.52341	30129.5
2214.44458	30161.7
2217.36388	30090.3
2220.28132	30047.8
2223.1969	29964.1
2226.11061	29955.2
2229.02246	29885.2
2231.93245	29774.5
2234.84058	29749
2237.74686	29708.1
2240.65128	29683.6
2243.55385	29620
2246.45456	29555
2249.35343	29488.2
2252.25044	29462.4
2255.14561	29401.4
2258.03893	29386.7
2260.93041	29300.4
2263.82004	29282.3
2266.70783	29215.5
2269.59378	29092.3
2272.4779	29080.7
2275.36017	28974.4
2278.24061	28903.4
2281.11922	28837.6
2283.996	28795
2286.87094	28798.2
2289.74405	28714.4
2292.61534	28669.2
2295.4848	28599
2298.35243	28604.2
2301.21824	28551.8
2304.08223	28504.9
2306.94439	28528.1
2309.80474	28468
2312.66327	28446.3
2315.51999	28375.8
2318.37489	28406.3
2321.22797	28305.1
2324.07925	28307.2
2326.92871	28257.9
2329.77637	28247.7
2332.62222	28194.2
2335.46626	28190.8
2338.3085	28100.4
2341.14893	28089.2
2343.98756	28049.4
2346.8244	28036.7
2349.65943	28043.7
2352.49267	27978.7
2355.32411	27963.6
2358.15376	27959.2
2360.98161	27949.6
2363.80768	27954.5
2366.63195	27936.1
2369.45444	27939.3
2372.27514	27836.1
2375.09405	27835.4
2377.91118	27788.2
2380.72652	27763.5
2383.54009	27683.3
2386.35187	27671.2
2389.16188	27577.6
2391.97011	27526
2394.77657	27487.6
2397.58125	27436.3
2400.38416	27391.3
2403.18529	27338.1
2405.98466	27296.4
2408.78226	27270.4
2411.57809	27240.6
2414.37216	27179.1
2417.16446	27159.7
2419.955	27149.7
2422.74378	27144.5
2425.5308	27119.2
2428.31606	27044.9
2431.09956	27044.9
2433.88131	27012.9
2436.6613	27008.2
2439.43954	26932.4
2442.21603	26912.7
2444.99077	26886.8
2447.76377	26865.9
2450.53501	26904.9
2453.30451	26850.2
2456.07226	26832.4
2458.83827	26821
2461.60254	26815.1
2464.36507	26751.4
2467.12586	26731.6
2469.88492	26709
2472.64224	26692.3
2475.39782	26667.6
2478.15167	26646.5
2480.90379	26625.7
2483.65417	26608.4
2486.40283	26621.1
2489.14976	26605.7
2491.89497	26549.3
2494.63845	26580.8
2497.3802	26566.8
2500.12024	26547
2502.85855	26573.1
2505.59514	26517.6
2508.33002	26524
2511.06318	26484.3
2513.79462	26475.5
2516.52435	26440.6
2519.25237	26448.5
2521.97867	26345.7
2524.70327	26359.1
2527.42616	26339.9
2530.14734	26294.9
2532.86681	26249.2
2535.58458	26227.8
2538.30065	26154.8
2541.01501	26183.1
2543.72768	26138.5
2546.43864	26112.9
2549.14791	26034.7
2551.85548	26034.2
2554.56136	25984.9
2557.26554	25988
2559.96803	25901.2
2562.66883	25887.2
2565.36794	25870.8
2568.06536	25871.3
2570.7611	25788
2573.45514	25697.6
2576.14751	25698.7
2578.83819	25674.1
2581.52719	25628.1
2584.21451	25591.1
2586.90015	25600.6
2589.58411	25526
2592.2664	25450
2594.94701	25435.5
2597.62594	25475.4
2600.30321	25344.3
2602.9788	25342.4
2605.65273	25306.7
2608.32498	25275.9
2610.99557	25202.2
2613.66449	25223.4
2616.33175	25191.1
2618.99734	25157.3
2621.66128	25127.3
2624.32355	25114
2626.98416	25080.3
2629.64311	25045.5
2632.30041	24990.5
2634.95605	24978
2637.61004	24966.8
2640.26238	24925.3
2642.91306	24982.9
2645.56209	24935.4
2648.20948	24924.7
2650.85521	24921
2653.4993	24901.5
2656.14175	24909.5
2658.78255	24905.2
2661.42171	24895.5
2664.05923	24938.8
2666.6951	24921.1
2669.32934	24919.9
2671.96194	24876.9
2674.59291	24912.5
2677.22224	24891.7
2679.84993	24877.4
2682.476	24891.8
2685.10043	24866.7
2687.72324	24843.9
2690.34441	24879.7
2692.96396	24875.3
2695.58188	24863.4
2698.19818	24874
2700.81285	24855
2703.4259	24853.6
2706.03733	24909.2
2708.64714	24916.8
2711.25533	24923.2
2713.86191	24925.7
2716.46687	24908.7
2719.07021	24911.1
2721.67194	24911.2
2724.27206	24852
2726.87057	24884.5
2729.46747	24890.8
2732.06276	24928
2734.65644	24919
2737.24852	24910.7
2739.83899	24866.9
2742.42786	24885.2
2745.01513	24808.5
2747.60079	24797.8
2750.18486	24754.3
2752.76733	24809.1
2755.3482	24760.6
2757.92747	24733.5
2760.50515	24711.5
2763.08123	24672.9
2765.65573	24640.3
2768.22863	24569.8
2770.79994	24544.5
2773.36967	24527.4
2775.9378	24480.1
2778.50435	24460
2781.06932	24401.9
2783.6327	24445.9
2786.1945	24425.5
2788.75471	24349.2
2791.31335	24300.5
2793.87041	24270.6
2796.42589	24173.6
2798.97979	24151.1
2801.53212	24122
2804.08288	24077.3
2806.63206	24026.7
2809.17967	23981.5
2811.72571	23866
2814.27018	23885.8
2816.81308	23794.9
2819.35442	23793.8
2821.89419	23711.2
2824.43239	23739.9
2826.96904	23650.9
2829.50412	23670.3
2832.03763	23580.4
2834.56959	23622.2
2837.1	23555
2839.62884	23499.6
2842.15613	23485.6
2844.68186	23506.1
2847.20604	23424.7
2849.72867	23422.3
2852.24974	23366.9
2854.76927	23379.2
2857.28724	23308.7
2859.80367	23283.2
2862.31855	23246.6
2864.83189	23232.3
2867.34368	23211.8
2869.85393	23175.4
2872.36264	23137.2
2874.8698	23148.4
2877.37543	23119.3
2879.87952	23151.9
2882.38207	23124.7
2884.88308	23104.2
2887.38256	23099.2
2889.88051	23058.8
2892.37692	23038.2
2894.8718	23046
2897.36515	23067.5
2899.85698	23038.3
2902.34727	23091.9
2904.83604	23061.7
2907.32328	23104.2
2909.809	23073.3
2912.29319	23139.1
2914.77587	23077.9
2917.25702	23119
2919.73665	23083.8
2922.21476	23096.5
2924.69136	23046.6
2927.16644	23038.8
2929.64	23001.6
2932.11205	22949.5
2934.58258	22870.2
2937.05161	22927.7
2939.51912	22971.4
2941.98513	22982.8
2944.44962	22871.4
2946.91261	22781.6
2949.37409	22818.3
2951.83407	22829.8
2954.29254	22787.5
2956.74951	22749.2
2959.20498	22694.4
2961.65895	22696.6
2964.11142	22736.5
2966.56239	22650.4
2969.01186	22648.7
2971.45984	22576
2973.90632	22556.9
2976.35131	22560.6
2978.7948	22505.2
2981.23681	22474.5
2983.67732	22444.3
2986.11635	22373.9
2988.55388	22337.2
2990.98993	22263.3
2993.4245	22194.9
2995.85758	22176.8
2998.28917	22101.2
3000.71928	22085.1
3003.14791	22005.5
3005.57506	21982.7
3008.00073	21926.6
3010.42493	21906.1
3012.84764	21857.8
3015.26888	21847.7
3017.68865	21810.2
3020.10694	21775.1
3022.52376	21711.5
3024.9391	21690.9
3027.35298	21709.2
3029.76539	21667.4
3032.17632	21616.1
3034.5858	21589.8
3036.9938	21505.9
3039.40034	21490.9
3041.80542	21466.2
3044.20903	21428.9
3046.61118	21391.3
3049.01187	21343.6
3051.4111	21286.6
3053.80888	21206.1
3056.20519	21174.5
3058.60005	21154.2
3060.99345	21110.3
3063.3854	21071.4
3065.7759	20962
3068.16494	20979.1
3070.55254	20898.9
3072.93868	20828.4
3075.32338	20771.6
3077.70662	20765.4
3080.08842	20684.8
3082.46878	20680.8
3084.84769	20645.2
3087.22515	20595.4
3089.60118	20604
3091.97576	20565.8
3094.3489	20539.9
3096.72061	20541.6
3099.09087	20503.5
3101.4597	20467.1
3103.82709	20443.4
3106.19305	20379.8
3108.55757	20420.4
3110.92066	20307.6
3113.28232	20268.4
3115.64255	20235.5
3118.00134	20172.6
3120.35871	20143.9
3122.71466	20112.4
3125.06917	20094.5
3127.42226	20054.6
3129.77393	20044.3
3132.12417	20011.9
3134.47299	19993.2
3136.82039	19991.2
3139.16636	19963
3141.51092	19927.9
3143.85406	19924.3
3146.19579	19941.7
3148.53609	19950.8
3150.87499	19951.1
3153.21246	19921.7
3155.54853	19913
3157.88318	19915
3160.21642	19882.9
3162.54826	19855.6
3164.87868	19823.2
3167.2077	19803.1
3169.5353	19809.3
3171.86151	19744.3
3174.18631	19706.9
3176.5097	19680.9
3178.83169	19641.5
3181.15228	19613.2
3183.47147	19614
3185.78926	19625.3
3188.10565	19571.1
3190.42065	19515.9
3192.73424	19550.5
3195.04645	19515.3
3197.35725	19517.2
3199.66667	19481
3201.97469	19460.1
3204.28132	19444.5
3206.58656	19441.6
3208.8904	19450.3
3211.19287	19445.3
3213.49394	19411.3
3215.79363	19408
3218.09193	19390.1
3220.38884	19397.9
3222.68438	19418.4
3224.97853	19381.4
3227.2713	19357.7
3229.56269	19316.1
3231.8527	19255.6
3234.14133	19200.5
3236.42858	19183.7
3238.71446	19151
3240.99896	19120.9
3243.28209	19093.7
3245.56384	19076.6
3247.84423	19047.8
3250.12324	19038.6
3252.40088	18985.9
3254.67715	18951
3256.95205	18938.8
3259.22558	18883.4
3261.49775	18860.5
3263.76855	18857.2
3266.03799	18783.8
3268.30606	18775.8
3270.57277	18748.8
3272.83812	18682
3275.10211	18684.4
3277.36474	18653.9
3279.62601	18652.7
3281.88593	18645.4
3284.14448	18628.4
3286.40168	18607.1
3288.65753	18541
3290.91202	18508.8
3293.16516	18464.7
3295.41695	18407.8
3297.66738	18310.9
3299.91647	18230.7
3302.16421	18076
3304.4106	18015.6
3306.65564	17942.8
3308.89933	17803.4
3311.14169	17651.1
3313.38269	17484.7
3315.62236	17406.9
3317.86068	17223.2
3320.09766	17070.5
3322.3333	16932.2
3324.5676	16913
3326.80056	16659.1
3329.03219	16571.1
3331.26248	4.9
3333.49143	-0.2
3335.71905	-0.7
