Data from AgNP_FTO_APTES_CRN_1000uM_R6G_10uM_NaF_0.1M_Addition_RamanShift__9__21-00-48-274.txt Node

Date: Wed Dec 15 21:00:48 GMT 2021
User: TCL
Spectrometer: QEP01345
Trigger mode: 4
Integration Time (sec): 7.000000E0
Scans to average: 10
Electric dark correction enabled: true
Nonlinearity correction enabled: false
Boxcar width: 0
XAxis mode: Raman Shifts
Number of Pixels in Spectrum: 1044
>>>>>Begin Spectral Data<<<<<
46.04893	0.525
50.45542	-2.475
54.85868	-0.575
59.25871	-0.175
63.6555	60.725
68.04907	64.625
72.43941	67.725
76.82654	70.825
81.21044	72.225
85.59113	78.025
89.96862	81.125
94.34289	79.125
98.71396	82.825
103.08183	89.225
107.4465	91.625
111.80798	91.725
116.16626	93.425
120.52136	99.625
124.87327	100.025
129.222	106.025
133.56755	109.725
137.90993	119.725
142.24913	132.325
146.58517	144.525
150.91804	159.925
155.24774	190.225
159.57429	242.325
163.89768	305.325
168.21792	391.725
172.53501	535.525
176.84895	746.825
181.15975	1045.125
185.46741	1468.725
189.77193	2027.025
194.07331	2714.525
198.37157	3498.925
202.6667	4323.725
206.9587	5120.625
211.24758	5926.325
215.53334	6698.925
219.81599	7558.325
224.09553	8427.425
228.37195	9425.625
232.64527	10518.825
236.91549	11657.925
241.18261	12861.825
245.44663	14002.625
249.70755	15033.025
253.96539	15964.125
258.22014	16763.525
262.4718	17381.625
266.72039	17820.325
270.96589	18036.925
275.20832	18100.025
279.44768	18011.025
283.68397	17901.025
287.91719	17818.125
292.14735	17699.325
296.37445	17671.925
300.59849	17655.325
304.81948	17621.625
309.03742	17536.925
313.25231	17350.325
317.46415	17073.525
321.67296	16715.025
325.87872	16461.025
330.08145	16305.625
334.28114	16331.225
338.47781	16457.125
342.67145	16585.225
346.86207	16776.625
351.04966	17038.425
355.23424	17243.925
359.4158	17480.125
363.59435	17638.525
367.76989	17755.725
371.94243	17801.725
376.11196	17899.325
380.27849	17927.525
384.44203	18035.925
388.60257	18149.425
392.76012	18343.025
396.91468	18556.225
401.06626	18793.225
405.21485	18981.525
409.36047	18971.025
413.50311	18896.925
417.64277	18803.525
421.77947	18847.125
425.9132	18929.425
430.04396	19058.325
434.17176	19142.025
438.2966	19273.125
442.41849	19456.925
446.53742	19765.325
450.6534	20090.225
454.76644	20356.025
458.87653	20509.825
462.98368	20562.725
467.08789	20567.925
471.18916	20471.825
475.2875	20475.625
479.38291	20468.025
483.4754	20402.225
487.56496	20156.625
491.6516	19927.625
495.73531	19632.625
499.81612	19551.825
503.89401	19626.925
507.96899	19724.325
512.04106	19736.725
516.11023	19736.125
520.1765	19630.725
524.23987	19511.925
528.30034	19360.325
532.35792	19213.925
536.41261	19077.025
540.46441	19011.525
544.51333	19047.025
548.55936	19246.125
552.60252	19572.625
556.64279	19885.325
560.6802	20124.725
564.71473	20307.025
568.7464	20560.525
572.7752	20993.725
576.80114	21459.325
580.82422	21933.925
584.84444	22267.625
588.86181	22597.825
592.87633	22769.025
596.888	22480.525
600.89682	22100.725
604.9028	22022.025
608.90594	22591.325
612.90624	23307.325
616.90371	22220.925
620.89834	20169.625
624.89015	19244.025
628.87913	19134.025
632.86528	19297.925
636.84862	19337.225
640.82913	19228.925
644.80683	18958.625
648.78172	18766.125
652.75379	18737.325
656.72306	18827.625
660.68952	18963.025
664.65319	18937.425
668.61405	18819.825
672.57211	18841.025
676.52738	18914.625
680.47986	18965.625
684.42955	18903.525
688.37646	18852.325
692.32058	18894.925
696.26192	18975.525
700.20048	19098.725
704.13626	19213.825
708.06928	19266.525
711.99952	19297.325
715.927	19269.025
719.85171	19193.825
723.77365	19105.725
727.69284	18920.125
731.60928	18762.825
735.52295	18659.525
739.43388	18669.625
743.34206	18700.325
747.24749	18754.925
751.15017	18866.825
755.05012	19083.525
758.94733	19427.925
762.8418	20079.325
766.73354	20957.125
770.62254	21705.325
774.50882	21736.425
778.39237	21053.125
782.27321	20107.525
786.15132	19343.325
790.02671	18863.925
793.89938	18626.025
797.76935	18543.325
801.6366	18467.325
805.50115	18477.125
809.36299	18433.125
813.22213	18340.525
817.07857	18322.825
820.93231	18291.225
824.78336	18239.525
828.63172	18206.925
832.47738	18119.925
836.32036	18152.125
840.16066	18120.725
843.99827	18118.425
847.8332	18099.625
851.66546	18119.325
855.49504	18115.825
859.32195	18083.625
863.1462	18069.825
866.96777	18048.125
870.78668	18033.725
874.60293	18043.625
878.41652	18062.025
882.22745	18102.725
886.03573	18116.425
889.84136	18157.225
893.64433	18143.225
897.44466	18107.425
901.24235	18060.725
905.0374	17999.325
908.8298	17995.925
912.61957	18039.925
916.40671	18151.525
920.19121	18307.225
923.97308	18309.425
927.75233	18279.625
931.52895	18140.525
935.30295	17964.425
939.07433	17774.825
942.84309	17574.425
946.60924	17480.425
950.37278	17430.225
954.13371	17430.825
957.89203	17434.125
961.64774	17429.325
965.40086	17378.325
969.15137	17312.525
972.89929	17245.925
976.64461	17180.525
980.38733	17132.925
984.12747	17126.625
987.86502	17166.525
991.59999	17217.325
995.33237	17277.825
999.06217	17445.725
1002.78939	17614.325
1006.51404	17795.525
1010.23611	18007.325
1013.95561	18167.725
1017.67255	18154.425
1021.38692	18083.925
1025.09872	17939.025
1028.80796	17797.125
1032.51465	17746.225
1036.21877	17754.925
1039.92035	17848.725
1043.61937	17920.225
1047.31584	18005.725
1051.00976	18087.225
1054.70114	18191.225
1058.38998	18383.825
1062.07627	18657.525
1065.76003	19010.625
1069.44126	19463.425
1073.11995	19804.325
1076.79611	19951.225
1080.46974	19821.825
1084.14085	19534.925
1087.80943	19363.525
1091.47549	19323.725
1095.13903	19270.725
1098.80005	19086.725
1102.45857	18824.425
1106.11456	18542.225
1109.76805	18337.725
1113.41903	18286.525
1117.06751	18337.825
1120.71348	18432.925
1124.35696	18589.425
1127.99793	18830.925
1131.63641	18990.725
1135.2724	18961.325
1138.90589	18871.625
1142.5369	18884.525
1146.16542	18936.625
1149.79145	19027.125
1153.415	19211.625
1157.03607	19433.425
1160.65467	19820.325
1164.27079	20426.425
1167.88443	21173.225
1171.49561	22035.425
1175.10432	23054.125
1178.71056	24259.825
1182.31434	25410.625
1185.91565	26038.625
1189.51451	26064.225
1193.11091	25798.825
1196.70485	25226.725
1200.29634	24492.625
1203.88538	23979.125
1207.47197	23667.725
1211.05612	23436.125
1214.63782	23131.025
1218.21708	22558.925
1221.79391	21973.425
1225.36829	21554.225
1228.94024	21280.225
1232.50976	21102.025
1236.07685	20963.825
1239.6415	20909.725
1243.20374	20913.825
1246.76355	21061.525
1250.32093	21232.125
1253.8759	21535.725
1257.42845	22017.325
1260.97859	22398.125
1264.52631	22827.125
1268.07163	23235.725
1271.61453	23661.925
1275.15503	24133.725
1278.69312	24588.325
1282.22882	25056.025
1285.76211	25704.525
1289.29301	26467.525
1292.82151	27432.625
1296.34761	28618.725
1299.87133	29884.725
1303.39266	31058.025
1306.9116	32017.725
1310.42815	32719.425
1313.94233	33011.025
1317.45412	32891.625
1320.96354	32712.525
1324.47058	32595.625
1327.97525	32588.525
1331.47754	32632.825
1334.97747	32673.425
1338.47502	32684.425
1341.97022	32614.725
1345.46305	32526.625
1348.95352	32206.325
1352.44163	31979.125
1355.92738	31901.925
1359.41078	32139.625
1362.89183	32392.925
1366.37053	31814.425
1369.84688	30159.425
1373.32088	28018.225
1376.79254	26516.725
1380.26186	25830.025
1383.72883	25839.425
1387.19347	25951.625
1390.65578	25860.425
1394.11575	25868.325
1397.57339	25976.125
1401.0287	26137.625
1404.48168	26162.225
1407.93234	25949.825
1411.38068	25390.225
1414.82669	24554.425
1418.27039	23586.725
1421.71177	22780.925
1425.15083	22144.225
1428.58758	21776.925
1432.02203	21918.425
1435.45416	22322.825
1438.88399	22809.525
1442.31151	23164.525
1445.73673	23432.425
1449.15965	23700.725
1452.58027	23921.025
1455.9986	24093.325
1459.41463	24298.825
1462.82837	24574.925
1466.23982	24864.825
1469.64898	25095.725
1473.05586	25180.125
1476.46045	25190.025
1479.86276	24966.225
1483.26279	24766.325
1486.66054	24662.325
1490.05602	24748.125
1493.44922	24923.925
1496.84016	25196.725
1500.22882	25724.925
1503.61521	26427.025
1506.99934	27087.025
1510.38121	27612.125
1513.76081	27662.825
1517.13816	27359.025
1520.51324	26893.725
1523.88607	26625.725
1527.25665	26524.225
1530.62498	26569.925
1533.99105	26501.925
1537.35488	26217.625
1540.71647	25775.125
1544.07581	25197.025
1547.4329	24594.125
1550.78776	24087.925
1554.14038	23715.025
1557.49077	23508.625
1560.83892	23407.825
1564.18484	23409.925
1567.52853	23623.125
1570.86999	23978.425
1574.20922	24638.925
1577.54624	25343.925
1580.88103	25787.625
1584.2136	25912.025
1587.54395	25982.125
1590.87208	26240.825
1594.19801	26751.325
1597.52172	27347.825
1600.84321	27430.825
1604.16251	26485.725
1607.47959	25093.925
1610.79447	23552.925
1614.10715	22147.325
1617.41763	20855.025
1620.7259	19963.325
1624.03199	19419.225
1627.33587	19356.625
1630.63757	19678.625
1633.93707	20524.825
1637.23439	21975.125
1640.52951	24064.225
1643.82246	26420.125
1647.11321	28275.325
1650.40179	28631.425
1653.68819	27173.825
1656.97241	24542.425
1660.25446	21902.425
1663.53433	19788.825
1666.81203	18313.425
1670.08756	17343.525
1673.36092	16742.025
1676.63211	16313.625
1679.90115	16000.125
1683.16801	15800.525
1686.43272	15608.725
1689.69527	15516.625
1692.95567	15404.925
1696.2139	15374.825
1699.46999	15331.825
1702.72392	15262.525
1705.97571	15194.625
1709.22535	15143.025
1712.47284	15109.525
1715.71819	15113.725
1718.96139	15062.225
1722.20246	14981.525
1725.44139	14972.125
1728.67818	14857.325
1731.91284	14794.525
1735.14537	14694.625
1738.37576	14683.025
1741.60403	14659.425
1744.83017	14599.125
1748.05418	14562.525
1751.27607	14561.225
1754.49584	14523.825
1757.71349	14516.725
1760.92903	14525.625
1764.14244	14516.125
1767.35375	14505.325
1770.56294	14447.725
1773.77002	14407.725
1776.97499	14385.125
1780.17785	14329.725
1783.37861	14318.225
1786.57727	14281.425
1789.77382	14225.425
1792.96828	14191.025
1796.16064	14160.125
1799.3509	14148.625
1802.53907	14095.825
1805.72514	14050.725
1808.90913	13992.725
1812.09102	13977.525
1815.27083	13963.225
1818.44856	13951.325
1821.6242	13886.125
1824.79776	13891.825
1827.96924	13867.725
1831.13864	13854.225
1834.30597	13883.125
1837.47122	13881.025
1840.6344	13845.525
1843.7955	13820.825
1846.95454	13824.525
1850.11151	13784.925
1853.26642	13799.625
1856.41926	13747.525
1859.57004	13760.725
1862.71876	13719.325
1865.86542	13711.525
1869.01003	13698.425
1872.15258	13693.125
1875.29308	13686.925
1878.43152	13613.125
1881.56792	13620.225
1884.70227	13591.425
1887.83457	13576.925
1890.96482	13555.625
1894.09304	13565.325
1897.21921	13504.925
1900.34335	13510.125
1903.46544	13499.025
1906.58551	13464.725
1909.70353	13440.925
1912.81953	13397.725
1915.93349	13387.325
1919.04543	13328.725
1922.15534	13316.225
1925.26322	13295.925
1928.36908	13289.325
1931.47292	13231.825
1934.57473	13240.925
1937.67453	13168.625
1940.77232	13157.425
1943.86808	13106.425
1946.96184	13076.325
1950.05358	13047.125
1953.14331	13030.125
1956.23103	12956.225
1959.31675	12931.325
1962.40046	12895.425
1965.48217	12878.125
1968.56188	12832.325
1971.63959	12762.325
1974.7153	12723.525
1977.78901	12677.125
1980.86073	12643.925
1983.93046	12605.725
1986.99819	12565.525
1990.06394	12540.825
1993.1277	12505.725
1996.18947	12440.325
1999.24925	12430.625
2002.30706	12368.225
2005.36288	12313.025
2008.41672	12279.825
2011.46859	12266.925
2014.51848	12230.625
2017.56639	12220.425
2020.61233	12151.325
2023.6563	12153.825
2026.6983	12101.025
2029.73833	12083.425
2032.7764	12040.625
2035.8125	12031.225
2038.84664	11972.225
2041.87881	11956.325
2044.90903	11950.125
2047.93729	11906.625
2050.96359	11897.225
2053.98794	11882.125
2057.01034	11869.625
2060.03078	11868.625
2063.04927	11836.325
2066.06582	11815.425
2069.08042	11818.625
2072.09307	11830.125
2075.10378	11804.525
2078.11255	11784.725
2081.11938	11787.525
2084.12426	11786.325
2087.12722	11758.125
2090.12824	11742.025
2093.12732	11761.325
2096.12447	11736.125
2099.11969	11739.025
2102.11299	11772.425
2105.10435	11751.525
2108.09379	11761.725
2111.08131	11757.725
2114.0669	11748.825
2117.05057	11744.325
2120.03233	11762.825
2123.01216	11794.325
2125.99008	11769.925
2128.96609	11785.125
2131.94018	11800.625
2134.91236	11774.625
2137.88263	11769.325
2140.851	11812.225
2143.81746	11800.425
2146.78201	11790.425
2149.74466	11793.225
2152.7054	11800.925
2155.66425	11814.925
2158.6212	11825.125
2161.57625	11799.525
2164.52941	11800.725
2167.48067	11767.625
2170.43004	11756.225
2173.37752	11755.725
2176.32311	11741.525
2179.26681	11735.225
2182.20863	11743.925
2185.14856	11731.825
2188.08661	11688.025
2191.02278	11693.525
2193.95707	11675.525
2196.88948	11681.125
2199.82001	11677.325
2202.74867	11623.625
2205.67545	11637.925
2208.60037	11638.025
2211.52341	11634.325
2214.44458	11594.425
2217.36388	11532.625
2220.28132	11511.725
2223.1969	11493.525
2226.11061	11480.925
2229.02246	11447.825
2231.93245	11464.025
2234.84058	11421.925
2237.74686	11410.225
2240.65128	11388.825
2243.55385	11352.325
2246.45456	11339.325
2249.35343	11321.225
2252.25044	11289.225
2255.14561	11245.125
2258.03893	11242.225
2260.93041	11243.625
2263.82004	11190.425
2266.70783	11187.525
2269.59378	11138.225
2272.4779	11114.025
2275.36017	11111.925
2278.24061	11069.325
2281.11922	11024.825
2283.996	11020.525
2286.87094	10988.225
2289.74405	10981.225
2292.61534	10951.925
2295.4848	10926.925
2298.35243	10936.925
2301.21824	10909.225
2304.08223	10908.825
2306.94439	10878.025
2309.80474	10867.925
2312.66327	10839.425
2315.51999	10840.325
2318.37489	10854.825
2321.22797	10819.325
2324.07925	10832.325
2326.92871	10823.225
2329.77637	10797.525
2332.62222	10779.625
2335.46626	10754.225
2338.3085	10743.625
2341.14893	10748.225
2343.98756	10718.125
2346.8244	10686.225
2349.65943	10677.525
2352.49267	10686.025
2355.32411	10686.825
2358.15376	10670.425
2360.98161	10688.125
2363.80768	10645.525
2366.63195	10635.925
2369.45444	10626.625
2372.27514	10601.925
2375.09405	10618.625
2377.91118	10574.225
2380.72652	10549.125
2383.54009	10555.525
2386.35187	10535.725
2389.16188	10492.125
2391.97011	10475.325
2394.77657	10445.525
2397.58125	10411.325
2400.38416	10378.925
2403.18529	10395.925
2405.98466	10390.225
2408.78226	10369.225
2411.57809	10340.125
2414.37216	10336.325
2417.16446	10310.725
2419.955	10298.325
2422.74378	10271.225
2425.5308	10256.425
2428.31606	10252.125
2431.09956	10232.625
2433.88131	10231.525
2436.6613	10241.225
2439.43954	10224.825
2442.21603	10194.125
2444.99077	10186.825
2447.76377	10191.625
2450.53501	10185.825
2453.30451	10151.625
2456.07226	10135.525
2458.83827	10140.325
2461.60254	10134.925
2464.36507	10104.425
2467.12586	10128.825
2469.88492	10075.025
2472.64224	10079.625
2475.39782	10046.425
2478.15167	10110.325
2480.90379	10045.225
2483.65417	10064.825
2486.40283	10053.725
2489.14976	10060.825
2491.89497	10045.125
2494.63845	10053.925
2497.3802	10029.925
2500.12024	10032.125
2502.85855	10011.225
2505.59514	9985.925
2508.33002	9985.325
2511.06318	9985.725
2513.79462	9953.125
2516.52435	9966.825
2519.25237	9941.125
2521.97867	9906.125
2524.70327	9918.825
2527.42616	9904.125
2530.14734	9885.925
2532.86681	9855.325
2535.58458	9849.725
2538.30065	9857.025
2541.01501	9861.525
2543.72768	9817.625
2546.43864	9804.425
2549.14791	9787.325
2551.85548	9776.925
2554.56136	9717.125
2557.26554	9726.825
2559.96803	9706.525
2562.66883	9712.525
2565.36794	9699.925
2568.06536	9691.625
2570.7611	9686.825
2573.45514	9661.225
2576.14751	9649.825
2578.83819	9612.625
2581.52719	9605.625
2584.21451	9578.325
2586.90015	9598.025
2589.58411	9552.725
2592.2664	9531.325
2594.94701	9529.125
2597.62594	9502.525
2600.30321	9480.525
2602.9788	9477.425
2605.65273	9478.525
2608.32498	9442.125
2610.99557	9428.425
2613.66449	9451.625
2616.33175	9405.325
2618.99734	9403.525
2621.66128	9378.825
2624.32355	9373.225
2626.98416	9359.325
2629.64311	9359.925
2632.30041	9343.325
2634.95605	9339.725
2637.61004	9332.325
2640.26238	9329.825
2642.91306	9313.725
2645.56209	9321.325
2648.20948	9326.325
2650.85521	9286.125
2653.4993	9276.225
2656.14175	9281.825
2658.78255	9301.425
2661.42171	9286.225
2664.05923	9265.725
2666.6951	9275.425
2669.32934	9272.325
2671.96194	9272.425
2674.59291	9253.825
2677.22224	9266.325
2679.84993	9277.625
2682.476	9257.325
2685.10043	9257.125
2687.72324	9224.225
2690.34441	9238.925
2692.96396	9259.925
2695.58188	9241.525
2698.19818	9220.425
2700.81285	9251.925
2703.4259	9250.125
2706.03733	9306.725
2708.64714	9258.925
2711.25533	9258.225
2713.86191	9269.225
2716.46687	9276.825
2719.07021	9239.925
2721.67194	9245.525
2724.27206	9244.525
2726.87057	9243.725
2729.46747	9240.125
2732.06276	9240.425
2734.65644	9235.525
2737.24852	9209.625
2739.83899	9201.325
2742.42786	9192.725
2745.01513	9176.225
2747.60079	9184.625
2750.18486	9164.725
2752.76733	9158.425
2755.3482	9168.125
2757.92747	9139.525
2760.50515	9122.225
2763.08123	9122.125
2765.65573	9098.125
2768.22863	9105.025
2770.79994	9109.225
2773.36967	9070.625
2775.9378	9096.325
2778.50435	9069.925
2781.06932	9038.725
2783.6327	9022.725
2786.1945	9029.225
2788.75471	9013.825
2791.31335	9002.025
2793.87041	8980.825
2796.42589	8971.925
2798.97979	8955.625
2801.53212	8935.425
2804.08288	8897.025
2806.63206	8891.925
2809.17967	8842.125
2811.72571	8833.025
2814.27018	8815.325
2816.81308	8803.325
2819.35442	8810.525
2821.89419	8788.725
2824.43239	8752.025
2826.96904	8756.925
2829.50412	8751.425
2832.03763	8729.025
2834.56959	8770.125
2837.1	8731.325
2839.62884	8745.725
2842.15613	8750.925
2844.68186	8776.325
2847.20604	8779.925
2849.72867	8784.325
2852.24974	8784.125
2854.76927	8742.925
2857.28724	8763.925
2859.80367	8715.025
2862.31855	8715.225
2864.83189	8688.025
2867.34368	8681.225
2869.85393	8691.525
2872.36264	8665.725
2874.8698	8660.425
2877.37543	8648.925
2879.87952	8651.525
2882.38207	8689.225
2884.88308	8651.525
2887.38256	8649.625
2889.88051	8644.825
2892.37692	8633.625
2894.8718	8614.025
2897.36515	8615.725
2899.85698	8630.125
2902.34727	8644.825
2904.83604	8635.525
2907.32328	8677.925
2909.809	8660.725
2912.29319	8650.125
2914.77587	8655.725
2917.25702	8619.525
2919.73665	8631.925
2922.21476	8658.525
2924.69136	8639.825
2927.16644	8631.825
2929.64	8619.525
2932.11205	8632.525
2934.58258	8602.525
2937.05161	8614.225
2939.51912	8616.825
2941.98513	8614.725
2944.44962	8580.825
2946.91261	8514.325
2949.37409	8531.025
2951.83407	8513.825
2954.29254	8507.025
2956.74951	8467.025
2959.20498	8470.625
2961.65895	8441.125
2964.11142	8448.525
2966.56239	8419.025
2969.01186	8405.925
2971.45984	8384.325
2973.90632	8382.225
2976.35131	8337.225
2978.7948	8349.625
2981.23681	8328.725
2983.67732	8306.325
2986.11635	8303.125
2988.55388	8238.025
2990.98993	8239.325
2993.4245	8225.225
2995.85758	8182.425
2998.28917	8181.625
3000.71928	8158.825
3003.14791	8156.225
3005.57506	8138.825
3008.00073	8111.425
3010.42493	8123.825
3012.84764	8080.125
3015.26888	8054.625
3017.68865	8076.725
3020.10694	8052.225
3022.52376	8023.825
3024.9391	8004.125
3027.35298	8016.525
3029.76539	8011.825
3032.17632	8018.825
3034.5858	7994.225
3036.9938	7992.225
3039.40034	7975.925
3041.80542	7969.325
3044.20903	7947.525
3046.61118	7940.825
3049.01187	7931.325
3051.4111	7908.125
3053.80888	7889.325
3056.20519	7887.525
3058.60005	7857.725
3060.99345	7836.325
3063.3854	7853.025
3065.7759	7823.825
3068.16494	7813.825
3070.55254	7807.525
3072.93868	7763.125
3075.32338	7735.925
3077.70662	7748.725
3080.08842	7721.125
3082.46878	7705.225
3084.84769	7729.325
3087.22515	7715.325
3089.60118	7706.525
3091.97576	7722.725
3094.3489	7728.725
3096.72061	7702.925
3099.09087	7722.625
3101.4597	7690.525
3103.82709	7677.125
3106.19305	7679.625
3108.55757	7681.425
3110.92066	7654.525
3113.28232	7641.325
3115.64255	7598.625
3118.00134	7610.525
3120.35871	7610.325
3122.71466	7602.325
3125.06917	7574.125
3127.42226	7577.825
3129.77393	7586.825
3132.12417	7568.225
3134.47299	7586.025
3136.82039	7589.225
3139.16636	7586.725
3141.51092	7581.225
3143.85406	7598.025
3146.19579	7590.625
3148.53609	7584.125
3150.87499	7584.525
3153.21246	7592.725
3155.54853	7613.125
3157.88318	7598.125
