Data from AgNP_FTO_APTES_CRN_1000uM_R6G_10uM_NaF_0.1M_Addition_RamanShift__12__21-04-18-278.txt Node

Date: Wed Dec 15 21:04:18 GMT 2021
User: TCL
Spectrometer: QEP01345
Trigger mode: 4
Integration Time (sec): 7.000000E0
Scans to average: 10
Electric dark correction enabled: true
Nonlinearity correction enabled: false
Boxcar width: 0
XAxis mode: Raman Shifts
Number of Pixels in Spectrum: 1044
>>>>>Begin Spectral Data<<<<<
46.04893	-0.0875
50.45542	-1.2875
54.85868	-0.7875
59.25871	0.0125
63.6555	48.8125
68.04907	55.4125
72.43941	55.8125
76.82654	60.3125
81.21044	62.4125
85.59113	64.4125
89.96862	67.9125
94.34289	66.4125
98.71396	70.3125
103.08183	77.2125
107.4465	77.9125
111.80798	77.8125
116.16626	82.0125
120.52136	81.3125
124.87327	83.9125
129.222	86.1125
133.56755	90.7125
137.90993	100.6125
142.24913	111.1125
146.58517	119.7125
150.91804	140.7125
155.24774	164.8125
159.57429	201.2125
163.89768	254.8125
168.21792	335.9125
172.53501	456.7125
176.84895	631.9125
181.15975	883.3125
185.46741	1235.0125
189.77193	1715.7125
194.07331	2295.8125
198.37157	2960.5125
202.6667	3688.1125
206.9587	4363.1125
211.24758	5076.6125
215.53334	5734.3125
219.81599	6479.3125
224.09553	7218.3125
228.37195	8070.2125
232.64527	8985.4125
236.91549	9971.0125
241.18261	11013.3125
245.44663	11945.8125
249.70755	12852.6125
253.96539	13636.6125
258.22014	14282.3125
262.4718	14782.1125
266.72039	15085.0125
270.96589	15249.0125
275.20832	15279.4125
279.44768	15209.4125
283.68397	15096.6125
287.91719	14974.9125
292.14735	14887.0125
296.37445	14835.5125
300.59849	14804.8125
304.81948	14748.3125
309.03742	14699.2125
313.25231	14545.3125
317.46415	14344.6125
321.67296	14070.9125
325.87872	13892.1125
330.08145	13769.3125
334.28114	13768.8125
338.47781	13843.2125
342.67145	13975.2125
346.86207	14117.9125
351.04966	14290.1125
355.23424	14463.0125
359.4158	14609.9125
363.59435	14680.6125
367.76989	14774.4125
371.94243	14865.0125
376.11196	14909.1125
380.27849	14971.6125
384.44203	15063.5125
388.60257	15154.5125
392.76012	15295.8125
396.91468	15448.5125
401.06626	15644.5125
405.21485	15798.8125
409.36047	15875.6125
413.50311	15773.5125
417.64277	15733.2125
421.77947	15715.2125
425.9132	15784.8125
430.04396	15915.2125
434.17176	16022.6125
438.2966	16135.0125
442.41849	16300.9125
446.53742	16530.7125
450.6534	16780.2125
454.76644	16965.8125
458.87653	17076.6125
462.98368	17107.2125
467.08789	17108.2125
471.18916	17045.3125
475.2875	17013.8125
479.38291	16935.4125
483.4754	16870.9125
487.56496	16745.5125
491.6516	16630.4125
495.73531	16502.2125
499.81612	16395.0125
503.89401	16474.6125
507.96899	16511.8125
512.04106	16529.3125
516.11023	16547.4125
520.1765	16503.6125
524.23987	16413.2125
528.30034	16306.7125
532.35792	16238.8125
536.41261	16101.8125
540.46441	16079.9125
544.51333	16117.7125
548.55936	16230.5125
552.60252	16455.1125
556.64279	16691.8125
560.6802	16851.6125
564.71473	16972.7125
568.7464	17161.1125
572.7752	17553.7125
576.80114	17950.0125
580.82422	18293.2125
584.84444	18552.3125
588.86181	18690.6125
592.87633	18730.0125
596.888	18679.0125
600.89682	18504.5125
604.9028	18519.1125
608.90594	19030.2125
612.90624	19502.0125
616.90371	18684.1125
620.89834	17121.5125
624.89015	16467.6125
628.87913	16381.4125
632.86528	16506.9125
636.84862	16567.9125
640.82913	16477.4125
644.80683	16256.5125
648.78172	16106.4125
652.75379	16039.7125
656.72306	16100.4125
660.68952	16240.8125
664.65319	16224.4125
668.61405	16182.2125
672.57211	16182.0125
676.52738	16294.5125
680.47986	16338.4125
684.42955	16315.3125
688.37646	16259.1125
692.32058	16247.4125
696.26192	16284.5125
700.20048	16427.0125
704.13626	16501.2125
708.06928	16582.9125
711.99952	16606.4125
715.927	16540.6125
719.85171	16490.5125
723.77365	16392.6125
727.69284	16217.3125
731.60928	16073.6125
735.52295	16031.8125
739.43388	16006.0125
743.34206	16008.2125
747.24749	16057.6125
751.15017	16172.5125
755.05012	16311.1125
758.94733	16612.4125
762.8418	17154.7125
766.73354	17886.6125
770.62254	18488.3125
774.50882	18561.7125
778.39237	17990.3125
782.27321	17251.8125
786.15132	16633.4125
790.02671	16248.8125
793.89938	15986.2125
797.76935	15884.7125
801.6366	15834.0125
805.50115	15796.4125
809.36299	15776.3125
813.22213	15688.9125
817.07857	15676.8125
820.93231	15666.7125
824.78336	15659.7125
828.63172	15648.8125
832.47738	15590.3125
836.32036	15630.1125
840.16066	15612.0125
843.99827	15575.3125
847.8332	15552.5125
851.66546	15597.8125
855.49504	15616.4125
859.32195	15581.0125
863.1462	15568.6125
866.96777	15576.5125
870.78668	15572.1125
874.60293	15552.8125
878.41652	15561.5125
882.22745	15605.8125
886.03573	15604.2125
889.84136	15643.1125
893.64433	15650.9125
897.44466	15632.9125
901.24235	15600.2125
905.0374	15582.8125
908.8298	15614.4125
912.61957	15605.6125
916.40671	15681.2125
920.19121	15842.4125
923.97308	15899.9125
927.75233	15848.5125
931.52895	15751.8125
935.30295	15585.2125
939.07433	15428.2125
942.84309	15260.3125
946.60924	15178.9125
950.37278	15122.7125
954.13371	15091.7125
957.89203	15025.0125
961.64774	15026.4125
965.40086	15034.2125
969.15137	14991.4125
972.89929	14952.1125
976.64461	14908.8125
980.38733	14859.1125
984.12747	14887.8125
987.86502	14901.2125
991.59999	14925.9125
995.33237	14978.6125
999.06217	15078.9125
1002.78939	15190.0125
1006.51404	15326.0125
1010.23611	15462.5125
1013.95561	15599.7125
1017.67255	15619.8125
1021.38692	15568.8125
1025.09872	15450.7125
1028.80796	15360.4125
1032.51465	15320.4125
1036.21877	15322.6125
1039.92035	15381.5125
1043.61937	15446.4125
1047.31584	15524.7125
1051.00976	15601.8125
1054.70114	15686.7125
1058.38998	15842.0125
1062.07627	16044.8125
1065.76003	16348.4125
1069.44126	16615.9125
1073.11995	16900.2125
1076.79611	17040.8125
1080.46974	16984.4125
1084.14085	16811.3125
1087.80943	16682.2125
1091.47549	16675.4125
1095.13903	16701.5125
1098.80005	16564.2125
1102.45857	16340.4125
1106.11456	16097.4125
1109.76805	15912.0125
1113.41903	15875.9125
1117.06751	15865.5125
1120.71348	15952.2125
1124.35696	16078.8125
1127.99793	16219.0125
1131.63641	16366.0125
1135.2724	16299.2125
1138.90589	16221.2125
1142.5369	16226.1125
1146.16542	16245.4125
1149.79145	16329.7125
1153.415	16451.9125
1157.03607	16617.7125
1160.65467	16843.3125
1164.27079	17200.9125
1167.88443	17649.0125
1171.49561	18250.9125
1175.10432	18976.5125
1178.71056	19832.8125
1182.31434	20684.5125
1185.91565	21219.0125
1189.51451	21447.7125
1193.11091	21440.3125
1196.70485	21117.2125
1200.29634	20590.1125
1203.88538	20102.1125
1207.47197	19756.3125
1211.05612	19463.3125
1214.63782	19195.6125
1218.21708	18848.6125
1221.79391	18480.4125
1225.36829	18200.3125
1228.94024	18000.1125
1232.50976	17917.4125
1236.07685	17831.1125
1239.6415	17816.3125
1243.20374	17815.6125
1246.76355	17890.6125
1250.32093	18021.0125
1253.8759	18208.5125
1257.42845	18526.3125
1260.97859	18814.9125
1264.52631	19144.4125
1268.07163	19447.2125
1271.61453	19744.5125
1275.15503	20054.0125
1278.69312	20380.7125
1282.22882	20715.1125
1285.76211	21031.0125
1289.29301	21530.2125
1292.82151	22053.0125
1296.34761	22704.4125
1299.87133	23441.3125
1303.39266	24197.0125
1306.9116	24837.5125
1310.42815	25335.5125
1313.94233	25635.1125
1317.45412	25609.6125
1320.96354	25519.3125
1324.47058	25418.5125
1327.97525	25462.7125
1331.47754	25547.1125
1334.97747	25661.9125
1338.47502	25889.6125
1341.97022	26095.5125
1345.46305	26338.5125
1348.95352	26390.7125
1352.44163	26250.7125
1355.92738	26052.9125
1359.41078	26006.7125
1362.89183	26000.9125
1366.37053	25459.9125
1369.84688	24280.1125
1373.32088	22827.3125
1376.79254	21769.0125
1380.26186	21232.6125
1383.72883	21079.2125
1387.19347	20996.7125
1390.65578	20947.3125
1394.11575	20821.7125
1397.57339	20789.1125
1401.0287	20762.8125
1404.48168	20777.1125
1407.93234	20578.5125
1411.38068	20290.9125
1414.82669	19809.1125
1418.27039	19274.4125
1421.71177	18727.6125
1425.15083	18291.3125
1428.58758	18034.5125
1432.02203	17999.9125
1435.45416	18203.0125
1438.88399	18421.3125
1442.31151	18607.3125
1445.73673	18777.6125
1449.15965	19000.5125
1452.58027	19187.4125
1455.9986	19355.4125
1459.41463	19576.4125
1462.82837	19769.5125
1466.23982	20043.1125
1469.64898	20246.6125
1473.05586	20388.7125
1476.46045	20475.0125
1479.86276	20473.6125
1483.26279	20465.5125
1486.66054	20486.7125
1490.05602	20603.5125
1493.44922	20834.0125
1496.84016	21172.1125
1500.22882	21738.8125
1503.61521	22375.9125
1506.99934	22971.9125
1510.38121	23360.2125
1513.76081	23365.3125
1517.13816	23061.0125
1520.51324	22674.3125
1523.88607	22331.8125
1527.25665	22102.2125
1530.62498	22036.3125
1533.99105	21906.0125
1537.35488	21670.2125
1540.71647	21288.1125
1544.07581	20862.3125
1547.4329	20435.1125
1550.78776	20104.3125
1554.14038	19809.1125
1557.49077	19695.2125
1560.83892	19688.0125
1564.18484	19685.3125
1567.52853	19809.7125
1570.86999	20007.3125
1574.20922	20322.4125
1577.54624	20671.7125
1580.88103	20798.5125
1584.2136	20860.0125
1587.54395	20820.7125
1590.87208	20941.5125
1594.19801	21261.7125
1597.52172	21645.7125
1600.84321	21800.5125
1604.16251	21311.0125
1607.47959	20524.8125
1610.79447	19636.2125
1614.10715	18660.7125
1617.41763	17765.6125
1620.7259	17059.6125
1624.03199	16597.9125
1627.33587	16444.3125
1630.63757	16513.4125
1633.93707	16971.2125
1637.23439	17804.2125
1640.52951	19048.9125
1643.82246	20562.7125
1647.11321	21912.5125
1650.40179	22635.6125
1653.68819	22185.6125
1656.97241	20761.6125
1660.25446	18983.6125
1663.53433	17335.2125
1666.81203	16113.5125
1670.08756	15245.0125
1673.36092	14679.0125
1676.63211	14323.1125
1679.90115	14071.2125
1683.16801	13870.3125
1686.43272	13738.7125
1689.69527	13621.3125
1692.95567	13534.0125
1696.2139	13490.8125
1699.46999	13435.2125
1702.72392	13383.4125
1705.97571	13364.4125
1709.22535	13330.3125
1712.47284	13275.1125
1715.71819	13264.6125
1718.96139	13230.9125
1722.20246	13159.0125
1725.44139	13149.7125
1728.67818	13060.8125
1731.91284	12992.2125
1735.14537	12970.8125
1738.37576	12901.1125
1741.60403	12897.5125
1744.83017	12862.9125
1748.05418	12792.7125
1751.27607	12789.0125
1754.49584	12788.7125
1757.71349	12801.6125
1760.92903	12794.9125
1764.14244	12770.3125
1767.35375	12775.6125
1770.56294	12725.7125
1773.77002	12720.3125
1776.97499	12661.3125
1780.17785	12621.1125
1783.37861	12595.2125
1786.57727	12545.2125
1789.77382	12487.7125
1792.96828	12498.2125
1796.16064	12445.8125
1799.3509	12406.3125
1802.53907	12363.4125
1805.72514	12338.5125
1808.90913	12301.9125
1812.09102	12259.2125
1815.27083	12234.9125
1818.44856	12238.8125
1821.6242	12192.8125
1824.79776	12198.1125
1827.96924	12175.5125
1831.13864	12167.5125
1834.30597	12149.9125
1837.47122	12133.1125
1840.6344	12129.3125
1843.7955	12106.6125
1846.95454	12093.6125
1850.11151	12085.3125
1853.26642	12030.2125
1856.41926	12057.5125
1859.57004	12043.8125
1862.71876	12018.0125
1865.86542	11997.1125
1869.01003	11988.4125
1872.15258	11992.4125
1875.29308	11965.0125
1878.43152	11962.9125
1881.56792	11938.9125
1884.70227	11925.8125
1887.83457	11902.4125
1890.96482	11882.8125
1894.09304	11858.3125
1897.21921	11840.9125
1900.34335	11822.5125
1903.46544	11814.4125
1906.58551	11810.5125
1909.70353	11771.3125
1912.81953	11750.7125
1915.93349	11731.6125
1919.04543	11703.9125
1922.15534	11654.3125
1925.26322	11647.6125
1928.36908	11626.1125
1931.47292	11617.6125
1934.57473	11609.8125
1937.67453	11555.8125
1940.77232	11517.3125
1943.86808	11486.8125
1946.96184	11475.0125
1950.05358	11431.8125
1953.14331	11365.8125
1956.23103	11386.4125
1959.31675	11337.9125
1962.40046	11302.7125
1965.48217	11245.8125
1968.56188	11207.9125
1971.63959	11183.9125
1974.7153	11155.7125
1977.78901	11122.4125
1980.86073	11033.9125
1983.93046	11052.4125
1986.99819	11002.2125
1990.06394	10982.5125
1993.1277	10941.2125
1996.18947	10896.9125
1999.24925	10871.2125
2002.30706	10840.0125
2005.36288	10794.7125
2008.41672	10756.5125
2011.46859	10722.2125
2014.51848	10692.3125
2017.56639	10672.5125
2020.61233	10642.2125
2023.6563	10645.9125
2026.6983	10586.5125
2029.73833	10562.8125
2032.7764	10529.2125
2035.8125	10501.0125
2038.84664	10473.2125
2041.87881	10458.9125
2044.90903	10431.5125
2047.93729	10402.8125
2050.96359	10416.6125
2053.98794	10385.1125
2057.01034	10377.1125
2060.03078	10363.2125
2063.04927	10339.3125
2066.06582	10327.9125
2069.08042	10311.7125
2072.09307	10315.3125
2075.10378	10312.1125
2078.11255	10285.0125
2081.11938	10304.1125
2084.12426	10297.1125
2087.12722	10269.6125
2090.12824	10256.4125
2093.12732	10274.9125
2096.12447	10269.0125
2099.11969	10260.0125
2102.11299	10280.9125
2105.10435	10265.4125
2108.09379	10268.7125
2111.08131	10267.1125
2114.0669	10255.2125
2117.05057	10269.0125
2120.03233	10284.7125
2123.01216	10281.2125
2125.99008	10277.5125
2128.96609	10311.0125
2131.94018	10291.8125
2134.91236	10289.8125
2137.88263	10288.5125
2140.851	10286.2125
2143.81746	10287.9125
2146.78201	10274.1125
2149.74466	10282.6125
2152.7054	10320.4125
2155.66425	10306.6125
2158.6212	10317.6125
2161.57625	10288.9125
2164.52941	10283.1125
2167.48067	10264.2125
2170.43004	10274.2125
2173.37752	10253.8125
2176.32311	10246.3125
2179.26681	10242.6125
2182.20863	10236.2125
2185.14856	10246.4125
2188.08661	10206.0125
2191.02278	10215.7125
2193.95707	10187.2125
2196.88948	10181.1125
2199.82001	10177.6125
2202.74867	10144.5125
2205.67545	10165.2125
2208.60037	10116.8125
2211.52341	10126.0125
2214.44458	10113.8125
2217.36388	10063.8125
2220.28132	10054.4125
2223.1969	10029.4125
2226.11061	9994.8125
2229.02246	9994.9125
2231.93245	9977.6125
2234.84058	9977.1125
2237.74686	9928.5125
2240.65128	9903.0125
2243.55385	9904.7125
2246.45456	9878.3125
2249.35343	9866.3125
2252.25044	9843.0125
2255.14561	9814.6125
2258.03893	9813.2125
2260.93041	9777.0125
2263.82004	9769.6125
2266.70783	9756.6125
2269.59378	9702.8125
2272.4779	9699.3125
2275.36017	9664.1125
2278.24061	9637.6125
2281.11922	9603.9125
2283.996	9575.5125
2286.87094	9578.5125
2289.74405	9578.5125
2292.61534	9532.0125
2295.4848	9521.7125
2298.35243	9502.6125
2301.21824	9493.4125
2304.08223	9480.3125
2306.94439	9463.9125
2309.80474	9454.8125
2312.66327	9446.1125
2315.51999	9448.3125
2318.37489	9407.0125
2321.22797	9397.8125
2324.07925	9401.8125
2326.92871	9394.9125
2329.77637	9384.5125
2332.62222	9370.4125
2335.46626	9312.9125
2338.3085	9317.1125
2341.14893	9322.9125
2343.98756	9291.0125
2346.8244	9276.6125
2349.65943	9262.2125
2352.49267	9256.3125
2355.32411	9265.5125
2358.15376	9246.6125
2360.98161	9233.7125
2363.80768	9232.8125
2366.63195	9236.1125
2369.45444	9212.1125
2372.27514	9215.0125
2375.09405	9199.0125
2377.91118	9195.9125
2380.72652	9161.3125
2383.54009	9154.9125
2386.35187	9116.5125
2389.16188	9105.5125
2391.97011	9060.8125
2394.77657	9050.8125
2397.58125	9039.1125
2400.38416	9010.3125
2403.18529	9019.2125
2405.98466	8998.2125
2408.78226	8993.6125
2411.57809	8974.0125
2414.37216	8938.8125
2417.16446	8937.8125
2419.955	8932.1125
2422.74378	8917.2125
2425.5308	8885.0125
2428.31606	8860.2125
2431.09956	8876.3125
2433.88131	8843.9125
2436.6613	8833.8125
2439.43954	8840.8125
2442.21603	8848.4125
2444.99077	8811.8125
2447.76377	8826.8125
2450.53501	8816.7125
2453.30451	8791.8125
2456.07226	8766.1125
2458.83827	8759.9125
2461.60254	8755.4125
2464.36507	8741.4125
2467.12586	8729.8125
2469.88492	8711.0125
2472.64224	8687.8125
2475.39782	8697.5125
2478.15167	8701.9125
2480.90379	8680.8125
2483.65417	8676.0125
2486.40283	8673.1125
2489.14976	8674.8125
2491.89497	8666.5125
2494.63845	8668.6125
2497.3802	8621.1125
2500.12024	8624.2125
2502.85855	8613.7125
2505.59514	8600.6125
2508.33002	8609.7125
2511.06318	8601.2125
2513.79462	8587.6125
2516.52435	8540.3125
2519.25237	8547.8125
2521.97867	8544.2125
2524.70327	8555.4125
2527.42616	8536.6125
2530.14734	8509.1125
2532.86681	8485.0125
2535.58458	8493.2125
2538.30065	8480.8125
2541.01501	8465.0125
2543.72768	8463.9125
2546.43864	8434.7125
2549.14791	8406.5125
2551.85548	8401.8125
2554.56136	8391.8125
2557.26554	8348.7125
2559.96803	8371.4125
2562.66883	8316.7125
2565.36794	8323.3125
2568.06536	8332.2125
2570.7611	8302.7125
2573.45514	8296.9125
2576.14751	8286.7125
2578.83819	8249.0125
2581.52719	8234.1125
2584.21451	8213.8125
2586.90015	8209.2125
2589.58411	8196.9125
2592.2664	8166.9125
2594.94701	8143.7125
2597.62594	8157.5125
2600.30321	8130.8125
2602.9788	8103.8125
2605.65273	8104.8125
2608.32498	8068.1125
2610.99557	8058.4125
2613.66449	8082.8125
2616.33175	8046.7125
2618.99734	8024.9125
2621.66128	8010.0125
2624.32355	8016.3125
2626.98416	7999.5125
2629.64311	7997.3125
2632.30041	7980.1125
2634.95605	7983.1125
2637.61004	7948.8125
2640.26238	7949.5125
2642.91306	7959.4125
2645.56209	7934.9125
2648.20948	7951.5125
2650.85521	7933.1125
2653.4993	7940.9125
2656.14175	7929.8125
2658.78255	7908.3125
2661.42171	7923.1125
2664.05923	7927.0125
2666.6951	7900.6125
2669.32934	7919.3125
2671.96194	7895.8125
2674.59291	7900.2125
2677.22224	7887.8125
2679.84993	7906.3125
2682.476	7885.5125
2685.10043	7882.7125
2687.72324	7884.6125
2690.34441	7878.3125
2692.96396	7882.8125
2695.58188	7880.2125
2698.19818	7865.0125
2700.81285	7871.2125
2703.4259	7878.3125
2706.03733	7930.1125
2708.64714	7893.6125
2711.25533	7902.5125
2713.86191	7881.5125
2716.46687	7892.3125
2719.07021	7872.5125
2721.67194	7860.7125
2724.27206	7848.4125
2726.87057	7839.0125
2729.46747	7848.4125
2732.06276	7849.4125
2734.65644	7836.9125
2737.24852	7826.0125
2739.83899	7819.0125
2742.42786	7827.5125
2745.01513	7794.1125
2747.60079	7789.9125
2750.18486	7785.8125
2752.76733	7797.7125
2755.3482	7786.4125
2757.92747	7776.8125
2760.50515	7734.4125
2763.08123	7731.6125
2765.65573	7726.1125
2768.22863	7719.4125
2770.79994	7721.5125
2773.36967	7729.8125
2775.9378	7709.3125
2778.50435	7663.5125
2781.06932	7674.7125
2783.6327	7667.2125
2786.1945	7650.5125
2788.75471	7645.3125
2791.31335	7596.0125
2793.87041	7582.6125
2796.42589	7574.0125
2798.97979	7572.9125
2801.53212	7565.0125
2804.08288	7519.5125
2806.63206	7515.2125
2809.17967	7497.6125
2811.72571	7480.4125
2814.27018	7480.2125
2816.81308	7466.2125
2819.35442	7455.7125
2821.89419	7452.4125
2824.43239	7437.4125
2826.96904	7409.3125
2829.50412	7419.9125
2832.03763	7391.3125
2834.56959	7395.3125
2837.1	7383.8125
2839.62884	7390.1125
2842.15613	7391.2125
2844.68186	7415.7125
2847.20604	7428.8125
2849.72867	7431.3125
2852.24974	7446.2125
2854.76927	7418.7125
2857.28724	7393.6125
2859.80367	7397.5125
2862.31855	7380.4125
2864.83189	7367.9125
2867.34368	7346.7125
2869.85393	7334.6125
2872.36264	7338.0125
2874.8698	7344.3125
2877.37543	7326.4125
2879.87952	7311.7125
2882.38207	7316.9125
2884.88308	7307.7125
2887.38256	7325.6125
2889.88051	7308.7125
2892.37692	7291.3125
2894.8718	7290.9125
2897.36515	7283.4125
2899.85698	7307.7125
2902.34727	7308.3125
2904.83604	7314.5125
2907.32328	7311.2125
2909.809	7314.9125
2912.29319	7312.8125
2914.77587	7290.8125
2917.25702	7290.9125
2919.73665	7310.7125
2922.21476	7308.7125
2924.69136	7292.4125
2927.16644	7295.9125
2929.64	7284.6125
2932.11205	7292.5125
2934.58258	7277.8125
2937.05161	7286.1125
2939.51912	7284.1125
2941.98513	7292.8125
2944.44962	7233.2125
2946.91261	7208.9125
2949.37409	7215.2125
2951.83407	7202.6125
2954.29254	7196.4125
2956.74951	7153.0125
2959.20498	7172.5125
2961.65895	7142.4125
2964.11142	7149.5125
2966.56239	7131.5125
2969.01186	7123.2125
2971.45984	7094.5125
2973.90632	7091.9125
2976.35131	7066.5125
2978.7948	7019.5125
2981.23681	7040.5125
2983.67732	7020.9125
2986.11635	6996.8125
2988.55388	6970.6125
2990.98993	6966.5125
2993.4245	6951.9125
2995.85758	6933.1125
2998.28917	6912.0125
3000.71928	6890.9125
3003.14791	6880.6125
3005.57506	6904.9125
3008.00073	6857.4125
3010.42493	6835.0125
3012.84764	6841.9125
3015.26888	6834.1125
3017.68865	6818.6125
3020.10694	6820.0125
3022.52376	6792.0125
3024.9391	6767.8125
3027.35298	6772.9125
3029.76539	6772.6125
3032.17632	6790.3125
3034.5858	6742.6125
3036.9938	6745.2125
3039.40034	6749.3125
3041.80542	6743.6125
3044.20903	6704.6125
3046.61118	6717.7125
3049.01187	6703.6125
3051.4111	6687.8125
3053.80888	6680.9125
3056.20519	6667.6125
3058.60005	6649.2125
3060.99345	6634.5125
