Data from AgNP_FTO_APTES_CRN_1uM_R6G_10uM_NaF_0.1M_Addition_RamanShift__12__13-59-30-793.txt Node

Date: Wed Dec 15 13:59:30 GMT 2021
User: TCL
Spectrometer: QEP01345
Trigger mode: 4
Integration Time (sec): 7.000000E0
Scans to average: 10
Electric dark correction enabled: true
Nonlinearity correction enabled: false
Boxcar width: 0
XAxis mode: Raman Shifts
Number of Pixels in Spectrum: 1044
>>>>>Begin Spectral Data<<<<<
46.04893	0.8
50.45542	-2
54.85868	-1.7
59.25871	-1
63.6555	159.7
68.04907	171.4
72.43941	178
76.82654	188.5
81.21044	193.9
85.59113	199.6
89.96862	211.2
94.34289	216.7
98.71396	225.7
103.08183	236.9
107.4465	242.7
111.80798	244.2
116.16626	249.3
120.52136	253.1
124.87327	267.2
129.222	276.8
133.56755	292.6
137.90993	316.2
142.24913	344.5
146.58517	384.4
150.91804	438
155.24774	517.5
159.57429	646.7
163.89768	817.4
168.21792	1070.9
172.53501	1445.9
176.84895	2010.1
181.15975	2794
185.46741	3907.5
189.77193	5382.9
194.07331	7198.3
198.37157	9263.9
202.6667	11419.2
206.9587	13543.9
211.24758	15631.3
215.53334	17714.2
219.81599	19867.3
224.09553	22250.7
228.37195	24899.1
232.64527	27790.5
236.91549	30941.5
241.18261	34109.1
245.44663	37109.7
249.70755	39907.6
253.96539	42265.8
258.22014	44280.9
262.4718	45839.7
266.72039	46838.7
270.96589	47375.1
275.20832	47481.3
279.44768	47211
283.68397	46870.6
287.91719	46399.3
292.14735	46062.6
296.37445	45958.8
300.59849	45850.6
304.81948	45881.4
309.03742	45926.5
313.25231	45878.6
317.46415	45507.6
321.67296	44880
325.87872	44257.7
330.08145	44083
334.28114	44045.7
338.47781	44359
342.67145	44816.7
346.86207	45297.2
351.04966	45914.2
355.23424	46609.9
359.4158	47200.8
363.59435	47795.4
367.76989	48170.8
371.94243	48309.7
376.11196	48388.6
380.27849	48428.7
384.44203	48565.8
388.60257	48908.8
392.76012	49529.9
396.91468	50366.3
401.06626	51184.3
405.21485	51756.4
409.36047	51850.4
413.50311	51697.4
417.64277	51853.6
421.77947	52400.7
425.9132	52871.4
430.04396	53229.2
434.17176	53220.7
438.2966	53248.5
442.41849	53600.5
446.53742	54568
450.6534	55686.9
454.76644	56562.4
458.87653	56859.8
462.98368	56635.4
467.08789	56205.3
471.18916	55350
475.2875	54501.2
479.38291	53870.9
483.4754	53448.7
487.56496	53022.3
491.6516	52614.7
495.73531	52163
499.81612	52030.2
503.89401	52500.1
507.96899	52977.3
512.04106	53322.7
516.11023	53138.8
520.1765	52532.5
524.23987	51786.5
528.30034	51062.7
532.35792	50436.7
536.41261	49854
540.46441	49501
544.51333	49577.5
548.55936	50078.7
552.60252	50969.5
556.64279	51823.5
560.6802	52499.9
564.71473	53199.8
568.7464	54246.8
572.7752	56070.9
576.80114	58589
580.82422	61606.2
584.84444	64920.1
588.86181	68842.1
592.87633	71718.4
596.888	70646.7
600.89682	66420.8
604.9028	64050.7
608.90594	65055.6
612.90624	65873.5
616.90371	61615.5
620.89834	55189.5
624.89015	52634.7
628.87913	52706.5
632.86528	53260
636.84862	53002.3
640.82913	51840
644.80683	50569.2
648.78172	49869.6
652.75379	49976.4
656.72306	50545.3
660.68952	51020
664.65319	50701.4
668.61405	50027.3
672.57211	50003.7
676.52738	50126
680.47986	50105.5
684.42955	49762.4
688.37646	49563.5
692.32058	50027.6
696.26192	50718.9
700.20048	51399
704.13626	51901.1
708.06928	52174.2
711.99952	52138.7
715.927	52150.5
719.85171	52197.9
723.77365	51767.5
727.69284	50912
731.60928	50005.9
735.52295	49555.1
739.43388	49414.8
743.34206	49529.2
747.24749	49946.7
751.15017	50528.8
755.05012	51484.8
758.94733	52892
762.8418	54886.4
766.73354	57538.6
770.62254	59641.6
774.50882	59303.8
778.39237	56770.8
782.27321	53952.7
786.15132	51929.2
790.02671	50573.5
793.89938	49850
797.76935	49522.5
801.6366	49412.7
805.50115	49317.9
809.36299	49081.9
813.22213	48721.2
817.07857	48567.1
820.93231	48349.2
824.78336	48129.5
828.63172	47923
832.47738	47805.9
836.32036	47714
840.16066	47699.9
843.99827	47783.6
847.8332	47807.6
851.66546	47919.6
855.49504	48097.7
859.32195	48117.6
863.1462	48052.6
866.96777	47915.8
870.78668	47954.3
874.60293	48006.3
878.41652	47986.7
882.22745	48071.7
886.03573	48255.9
889.84136	48293.2
893.64433	48242.3
897.44466	48038.4
901.24235	48033.1
905.0374	48001.3
908.8298	48053.5
912.61957	48168.2
916.40671	48724.4
920.19121	49414.3
923.97308	50092.9
927.75233	50072.1
931.52895	49386.6
935.30295	48452.7
939.07433	47573.1
942.84309	46885
946.60924	46593.2
950.37278	46601
954.13371	46640.6
957.89203	46606.5
961.64774	46628.8
965.40086	46676.5
969.15137	46562.2
972.89929	46343.5
976.64461	46163.3
980.38733	46127.9
984.12747	46058.7
987.86502	46203.9
991.59999	46414.5
995.33237	46754.9
999.06217	47426.1
1002.78939	48311.7
1006.51404	49394.7
1010.23611	50496.9
1013.95561	51118.3
1017.67255	51095.2
1021.38692	50417.5
1025.09872	49530.1
1028.80796	48780.2
1032.51465	48473.2
1036.21877	48519.5
1039.92035	48691.4
1043.61937	48950.4
1047.31584	49168.5
1051.00976	49348.6
1054.70114	49619.2
1058.38998	50133.6
1062.07627	50972.4
1065.76003	51958.1
1069.44126	53152.9
1073.11995	54510.8
1076.79611	55513.1
1080.46974	55730.4
1084.14085	55651
1087.80943	55776.4
1091.47549	56054.8
1095.13903	56217.3
1098.80005	55546.6
1102.45857	54038.5
1106.11456	52774.7
1109.76805	51979.6
1113.41903	51766
1117.06751	51713.9
1120.71348	51952.9
1124.35696	52236.2
1127.99793	52639.2
1131.63641	53108.3
1135.2724	53312.2
1138.90589	53526.8
1142.5369	53988.8
1146.16542	54462
1149.79145	55025.5
1153.415	55645.4
1157.03607	56514.9
1160.65467	58158.2
1164.27079	60825.9
1167.88443	63806.7
1171.49561	66483.9
1175.10432	69271.5
1178.71056	72567.5
1182.31434	75981.7
1185.91565	78166.6
1189.51451	78536
1193.11091	77834.5
1196.70485	76205.2
1200.29634	74032.2
1203.88538	72708.1
1207.47197	72546.6
1211.05612	72792.3
1214.63782	72234.3
1218.21708	70494.8
1221.79391	67907.2
1225.36829	65763.6
1228.94024	64494.3
1232.50976	63737.1
1236.07685	63180.8
1239.6415	62776.1
1243.20374	62732
1246.76355	63173.9
1250.32093	64097.9
1253.8759	65418.4
1257.42845	67272.2
1260.97859	69264.4
1264.52631	71315.5
1268.07163	73413.9
1271.61453	75531
1275.15503	77647.3
1278.69312	79958.8
1282.22882	82317.2
1285.76211	85053.3
1289.29301	88107.1
1292.82151	91532.7
1296.34761	95642.3
1299.87133	100629.6
1303.39266	105351.8
1306.9116	108922.7
1310.42815	110882.2
1313.94233	111301.9
1317.45412	110602.3
1320.96354	109603.6
1324.47058	109641
1327.97525	110459.7
1331.47754	111395.2
1334.97747	111964.2
1338.47502	111900.1
1341.97022	111246.8
1345.46305	110037.9
1348.95352	108198.2
1352.44163	106505
1355.92738	105784.9
1359.41078	106694.5
1362.89183	107635.3
1366.37053	106262.8
1369.84688	100973.4
1373.32088	92883
1376.79254	86315.9
1380.26186	83768.6
1383.72883	83909.5
1387.19347	84436.8
1390.65578	83776.8
1394.11575	83488.2
1397.57339	84275.6
1401.0287	85963.9
1404.48168	87560.2
1407.93234	87586.3
1411.38068	85821.2
1414.82669	82819
1418.27039	79272.2
1421.71177	76020.3
1425.15083	73625.2
1428.58758	72783.3
1432.02203	73819.7
1435.45416	76281.3
1438.88399	78779.6
1442.31151	80724.6
1445.73673	81452.8
1449.15965	81558.2
1452.58027	81238.8
1455.9986	81031.7
1459.41463	81546.4
1462.82837	82914
1466.23982	84439.5
1469.64898	85507.8
1473.05586	85999.9
1476.46045	85922.2
1479.86276	85344.1
1483.26279	84473.6
1486.66054	83864.9
1490.05602	83954
1493.44922	84436.6
1496.84016	85097.1
1500.22882	85983.1
1503.61521	86844.5
1506.99934	87690.7
1510.38121	88266.3
1513.76081	88358.2
1517.13816	88063.5
1520.51324	87960.4
1523.88607	88619.9
1527.25665	89668.7
1530.62498	90352.4
1533.99105	89971.4
1537.35488	88437.3
1540.71647	85954.1
1544.07581	83335.4
1547.4329	80856.1
1550.78776	78726.5
1554.14038	77269.2
1557.49077	76378.7
1560.83892	75707.1
1564.18484	75136.5
1567.52853	74973.5
1570.86999	75579.5
1574.20922	77343
1577.54624	79336.2
1580.88103	81049.6
1584.2136	83276.9
1587.54395	86538.8
1590.87208	90737.8
1594.19801	95326.2
1597.52172	99005.1
1600.84321	98707.9
1604.16251	93444.9
1607.47959	86123.9
1610.79447	78913.6
1614.10715	72452.6
1617.41763	67141.4
1620.7259	63512.8
1624.03199	61618.7
1627.33587	61674.5
1630.63757	63565.4
1633.93707	68046.7
1637.23439	75453.2
1640.52951	86032.7
1643.82246	98053.4
1647.11321	106479.9
1650.40179	106111.8
1653.68819	96795.3
1656.97241	83411.6
1660.25446	71159.7
1663.53433	62355
1666.81203	56702.2
1670.08756	53076.5
1673.36092	50878.7
1676.63211	49326.4
1679.90115	48231.7
1683.16801	47395.3
1686.43272	46816.9
1689.69527	46323.1
1692.95567	46006
1696.2139	45825.6
1699.46999	45593.6
1702.72392	45416.9
1705.97571	45267.9
1709.22535	45166
1712.47284	45061.3
1715.71819	44948.9
1718.96139	44800.5
1722.20246	44665.9
1725.44139	44432.8
1728.67818	44179.6
1731.91284	43922
1735.14537	43647.9
1738.37576	43465.8
1741.60403	43271.2
1744.83017	43159.9
1748.05418	43041
1751.27607	42915.8
1754.49584	42829.3
1757.71349	42740.3
1760.92903	42670.2
1764.14244	42658.2
1767.35375	42700.7
1770.56294	42596.9
1773.77002	42512.3
1776.97499	42482.6
1780.17785	42376.3
1783.37861	42347.5
1786.57727	42254.2
1789.77382	42099.6
1792.96828	42084.9
1796.16064	41979.2
1799.3509	41895.9
1802.53907	41830.1
1805.72514	41682.8
1808.90913	41598.3
1812.09102	41518.4
1815.27083	41423.7
1818.44856	41395.2
1821.6242	41360.4
1824.79776	41345.3
1827.96924	41271.2
1831.13864	41259.7
1834.30597	41309.8
1837.47122	41361.7
1840.6344	41365.6
1843.7955	41359.2
1846.95454	41321.1
1850.11151	41265.5
1853.26642	41257.4
1856.41926	41228.1
1859.57004	41216.3
1862.71876	41140.2
1865.86542	41136.1
1869.01003	41127.8
1872.15258	41047
1875.29308	40915.8
1878.43152	40852.3
1881.56792	40752.9
1884.70227	40701.2
1887.83457	40694.1
1890.96482	40655.5
1894.09304	40555.6
1897.21921	40501.3
1900.34335	40479.9
1903.46544	40371.9
1906.58551	40360.4
1909.70353	40313.8
1912.81953	40233.4
1915.93349	40153
1919.04543	40059.9
1922.15534	39977
1925.26322	39857.2
1928.36908	39800.4
1931.47292	39753.1
1934.57473	39625.5
1937.67453	39513.3
1940.77232	39356.4
1943.86808	39281.1
1946.96184	39127
1950.05358	39035.6
1953.14331	38926.3
1956.23103	38855.1
1959.31675	38762.9
1962.40046	38637.4
1965.48217	38442.7
1968.56188	38399.4
1971.63959	38238.1
1974.7153	38139.1
1977.78901	38008.8
1980.86073	37872.2
1983.93046	37778.8
1986.99819	37622.2
1990.06394	37552.1
1993.1277	37476.9
1996.18947	37383.8
1999.24925	37281.3
2002.30706	37122.9
2005.36288	37001.6
2008.41672	36916.9
2011.46859	36825.2
2014.51848	36733.9
2017.56639	36615.6
2020.61233	36527.7
2023.6563	36432.2
2026.6983	36340.6
2029.73833	36296.5
2032.7764	36233.8
2035.8125	36140.1
2038.84664	36110.1
2041.87881	36002.4
2044.90903	35903.1
2047.93729	35840.8
2050.96359	35826.7
2053.98794	35713.1
2057.01034	35683.7
2060.03078	35618.9
2063.04927	35660.7
2066.06582	35639.9
2069.08042	35601
2072.09307	35541.1
2075.10378	35562.2
2078.11255	35491.4
2081.11938	35521.9
2084.12426	35458.1
2087.12722	35409.6
2090.12824	35396.6
2093.12732	35424.4
2096.12447	35443.3
2099.11969	35430.8
2102.11299	35419
2105.10435	35402.6
2108.09379	35440.8
2111.08131	35463
2114.0669	35422.2
2117.05057	35476.6
2120.03233	35514.5
2123.01216	35514.4
2125.99008	35561.7
2128.96609	35543.4
2131.94018	35580.6
2134.91236	35599.1
2137.88263	35539.4
2140.851	35537
2143.81746	35589
2146.78201	35545.4
2149.74466	35572.7
2152.7054	35610.6
2155.66425	35606.8
2158.6212	35603.6
2161.57625	35619.4
2164.52941	35594
2167.48067	35557.4
2170.43004	35530.5
2173.37752	35503
2176.32311	35471.2
2179.26681	35507.5
2182.20863	35450.7
2185.14856	35461.9
2188.08661	35477.1
2191.02278	35472.5
2193.95707	35433.6
2196.88948	35412
2199.82001	35419.6
2202.74867	35292.9
2205.67545	35238.9
2208.60037	35166.8
2211.52341	35183.9
2214.44458	35084.8
2217.36388	34997.1
2220.28132	34997.4
2223.1969	34920.5
2226.11061	34854.6
2229.02246	34812
2231.93245	34779
2234.84058	34680.5
2237.74686	34630.1
2240.65128	34696.9
2243.55385	34585.1
2246.45456	34489.9
2249.35343	34462.5
2252.25044	34326.1
2255.14561	34307.8
2258.03893	34264.3
2260.93041	34136.7
2263.82004	34031.2
2266.70783	33962
2269.59378	33904.8
2272.4779	33821.1
2275.36017	33748.9
2278.24061	33632
2281.11922	33582.4
2283.996	33532.7
2286.87094	33435.6
2289.74405	33379.1
2292.61534	33326.2
2295.4848	33333.1
2298.35243	33311
2301.21824	33280.9
2304.08223	33308.6
2306.94439	33231.3
2309.80474	33213.2
2312.66327	33176.8
2315.51999	33142.4
2318.37489	33152.3
2321.22797	33122
2324.07925	33099.6
2326.92871	33028.3
2329.77637	33029.7
2332.62222	32938.8
2335.46626	32909.8
2338.3085	32883
2341.14893	32864
2343.98756	32859.5
2346.8244	32827.8
2349.65943	32789.6
2352.49267	32792.4
2355.32411	32760.1
2358.15376	32779.7
2360.98161	32730.6
2363.80768	32691.7
2366.63195	32680.6
2369.45444	32655.3
2372.27514	32608.1
2375.09405	32597
2377.91118	32545.4
2380.72652	32400.7
2383.54009	32306
2386.35187	32304.7
2389.16188	32223.6
2391.97011	32185.5
2394.77657	32145.5
2397.58125	32122.8
2400.38416	32039.7
2403.18529	32017.6
2405.98466	31973.4
2408.78226	31872
2411.57809	31892.2
2414.37216	31885.3
2417.16446	31877.7
2419.955	31780
2422.74378	31793.1
2425.5308	31748.6
2428.31606	31758.3
2431.09956	31705.3
2433.88131	31684.6
2436.6613	31641.7
2439.43954	31614.1
2442.21603	31634
2444.99077	31577.8
2447.76377	31595.6
2450.53501	31530.7
2453.30451	31549.3
2456.07226	31518.2
2458.83827	31517.6
2461.60254	31478.8
2464.36507	31506.7
2467.12586	31538.4
2469.88492	31477.2
2472.64224	31438.9
2475.39782	31436.2
2478.15167	31479.6
2480.90379	31449.3
2483.65417	31440.5
2486.40283	31419.6
2489.14976	31362.4
2491.89497	31359.6
2494.63845	31352.4
2497.3802	31338.8
2500.12024	31316.5
2502.85855	31302.8
2505.59514	31349.5
2508.33002	31260.1
2511.06318	31254.1
2513.79462	31213.5
2516.52435	31200.7
2519.25237	31217.6
2521.97867	31208.6
2524.70327	31223.8
2527.42616	31122.4
2530.14734	31154.4
2532.86681	31095.2
2535.58458	31054.4
2538.30065	31021.8
2541.01501	31012.5
2543.72768	30954
2546.43864	30976.3
2549.14791	30875
2551.85548	30890.7
2554.56136	30857.8
2557.26554	30785
2559.96803	30812.9
2562.66883	30750.4
2565.36794	30740.4
2568.06536	30670.5
2570.7611	30670.1
2573.45514	30619.7
2576.14751	30646.2
2578.83819	30582.3
2581.52719	30569.5
2584.21451	30493.6
2586.90015	30484
2589.58411	30408.7
2592.2664	30377.6
2594.94701	30311.4
2597.62594	30333.4
2600.30321	30311.4
2602.9788	30317.8
2605.65273	30251.3
2608.32498	30246.7
2610.99557	30268.5
2613.66449	30240.9
2616.33175	30208.4
2618.99734	30211.4
2621.66128	30162.7
2624.32355	30168.3
2626.98416	30116.7
2629.64311	30097.4
2632.30041	30017.6
2634.95605	30074.3
2637.61004	29986
2640.26238	30008.6
2642.91306	30004.2
2645.56209	29981.5
2648.20948	29969.2
2650.85521	29967.8
2653.4993	30045.9
2656.14175	30004.8
2658.78255	30034.7
2661.42171	30006.7
2664.05923	30008.7
2666.6951	30003.4
2669.32934	30083.8
2671.96194	30051.7
2674.59291	30086.8
2677.22224	30085.1
2679.84993	30024.1
2682.476	30017.9
2685.10043	30064.7
2687.72324	30035.7
2690.34441	30082.8
2692.96396	30062
2695.58188	30061.3
2698.19818	30054.8
2700.81285	30063.1
2703.4259	30065.9
2706.03733	30089.2
2708.64714	30081.1
2711.25533	30140.6
2713.86191	30030.9
2716.46687	30126.9
2719.07021	30101.2
2721.67194	30129.3
2724.27206	30128.3
2726.87057	30108.1
2729.46747	30149
2732.06276	30125.6
2734.65644	30142.5
2737.24852	30167.6
2739.83899	30144.9
2742.42786	30182.3
2745.01513	30153.1
2747.60079	30155.2
2750.18486	30151
2752.76733	30130.5
2755.3482	30117.8
2757.92747	30055.8
2760.50515	30009.9
2763.08123	29963.5
2765.65573	29945.9
2768.22863	29940.1
2770.79994	29942.1
2773.36967	29960
2775.9378	29927.3
2778.50435	29851.2
2781.06932	29834.6
2783.6327	29826.6
2786.1945	29790.5
2788.75471	29762.9
2791.31335	29686.6
2793.87041	29678.5
2796.42589	29534.2
2798.97979	29560.8
2801.53212	29467.5
2804.08288	29457.5
2806.63206	29383.2
2809.17967	29324.9
2811.72571	29273.1
2814.27018	29246.1
2816.81308	29156.5
2819.35442	29146.3
2821.89419	29047.5
2824.43239	29005.6
2826.96904	28970.5
2829.50412	28958
2832.03763	28846.4
2834.56959	28817.1
2837.1	28783
2839.62884	28776.4
2842.15613	28720.4
2844.68186	28715.1
2847.20604	28701.3
2849.72867	28641.4
2852.24974	28604.2
2854.76927	28587.6
2857.28724	28562
2859.80367	28533.9
2862.31855	28491.5
2864.83189	28429.6
2867.34368	28403.6
2869.85393	28358.1
2872.36264	28358.7
2874.8698	28309
2877.37543	28307.7
2879.87952	28331.7
2882.38207	28282.7
2884.88308	28268.2
2887.38256	28296.1
2889.88051	28264.6
2892.37692	28290.4
2894.8718	28286.3
2897.36515	28313
2899.85698	28293.1
2902.34727	28315.8
2904.83604	28291.5
2907.32328	28321
2909.809	28330.6
2912.29319	28343.4
2914.77587	28300.1
2917.25702	28283.5
2919.73665	28274.7
2922.21476	28283.4
2924.69136	28304.6
2927.16644	28274
2929.64	28278.6
2932.11205	28224
2934.58258	28163.1
2937.05161	28191.2
2939.51912	28137.3
2941.98513	28115.7
2944.44962	28091.4
2946.91261	28012
2949.37409	28039.4
2951.83407	27987
2954.29254	27982.1
2956.74951	27938
2959.20498	27944
2961.65895	27907.6
2964.11142	27864.8
2966.56239	27857.3
2969.01186	27792.5
2971.45984	27691.8
2973.90632	27698.5
2976.35131	27566.7
2978.7948	27574.2
2981.23681	27480.1
2983.67732	27444
2986.11635	27335.2
2988.55388	27255.4
2990.98993	27217.1
2993.4245	27092.1
2995.85758	27075.7
2998.28917	27008.8
3000.71928	26956
3003.14791	26864.9
3005.57506	26827.5
3008.00073	26729.6
3010.42493	26736.2
3012.84764	26674.6
3015.26888	26659
3017.68865	26571.7
3020.10694	26528.5
3022.52376	26440.5
3024.9391	26426.3
3027.35298	26396.9
3029.76539	26333.1
3032.17632	26284.7
3034.5858	26265
3036.9938	26231.1
3039.40034	26205.4
3041.80542	26178.5
3044.20903	26096.9
3046.61118	26053.1
3049.01187	25982.5
3051.4111	25953.8
3053.80888	25892.7
3056.20519	25865.7
3058.60005	25764.1
3060.99345	25700.5
3063.3854	25675.7
3065.7759	25552.2
3068.16494	25514.8
3070.55254	25390.7
3072.93868	25337.3
3075.32338	25237.9
3077.70662	25193.8
3080.08842	25093.1
3082.46878	25107.3
3084.84769	24977.7
3087.22515	24969.2
3089.60118	24982.8
3091.97576	24968.3
3094.3489	24917.8
3096.72061	24883.3
3099.09087	24885.1
3101.4597	24840.9
3103.82709	24824.2
3106.19305	24762.4
3108.55757	24728.3
3110.92066	24607.3
3113.28232	24597.8
3115.64255	24475
3118.00134	24422.4
3120.35871	24375.9
3122.71466	24318.5
3125.06917	24240.2
3127.42226	24192.7
3129.77393	24193.1
3132.12417	24143.9
3134.47299	24115.7
3136.82039	24076.6
3139.16636	24102.5
3141.51092	24068.5
3143.85406	24091.1
3146.19579	24038.2
3148.53609	24025.1
3150.87499	23999.5
3153.21246	23923.3
3155.54853	23958.5
3157.88318	23893.9
3160.21642	23874
3162.54826	23879.4
3164.87868	23858.9
3167.2077	23779.4
3169.5353	23791.8
3171.86151	23789.3
3174.18631	23751.2
3176.5097	23715.1
3178.83169	23683.4
3181.15228	23654.3
3183.47147	23613.3
3185.78926	23589.9
3188.10565	23524.4
3190.42065	23493.8
3192.73424	23504.9
3195.04645	23460.3
3197.35725	23455.3
3199.66667	23414.1
3201.97469	23386.2
3204.28132	23331
3206.58656	23352.1
3208.8904	23281.5
3211.19287	23280.1
3213.49394	23244
3215.79363	23240.6
3218.09193	23238.6
3220.38884	23173.7
3222.68438	23205.2
3224.97853	23135.7
3227.2713	23137.2
3229.56269	23078.8
3231.8527	23137.5
3234.14133	23067.7
3236.42858	22990.7
3238.71446	22994.9
3240.99896	22933.7
3243.28209	22907.8
3245.56384	22886.4
3247.84423	22843.7
3250.12324	22777.7
3252.40088	22774
3254.67715	22714.8
3256.95205	22667.1
3259.22558	22668.3
3261.49775	22578.6
3263.76855	22582.9
3266.03799	22519.5
3268.30606	22481.1
3270.57277	22420
3272.83812	22361.1
3275.10211	22359.7
3277.36474	22296.4
3279.62601	22311.1
3281.88593	22271.3
3284.14448	22311.6
3286.40168	22277.5
3288.65753	22263.1
3290.91202	22215.4
3293.16516	22136.2
3295.41695	22074.2
3297.66738	21937.4
3299.91647	21850.5
3302.16421	21660.5
3304.4106	21576.7
3306.65564	21447.8
3308.89933	21304.6
3311.14169	21134.9
3313.38269	20936.7
3315.62236	20832.2
3317.86068	20661.6
3320.09766	20444.3
3322.3333	20271.8
3324.5676	20242.1
3326.80056	19881.9
3329.03219	19744.4
3331.26248	4.7
3333.49143	-0.7
3335.71905	0.4
