Data from AgNP_FTO_APTES_CRN_50uM_R6G_10uM_NaF_0.1M_Addition_RamanShift__23__18-12-48-077.txt Node

Date: Wed Dec 15 18:12:48 GMT 2021
User: TCL
Spectrometer: QEP01345
Trigger mode: 4
Integration Time (sec): 7.000000E0
Scans to average: 10
Electric dark correction enabled: true
Nonlinearity correction enabled: false
Boxcar width: 0
XAxis mode: Raman Shifts
Number of Pixels in Spectrum: 1044
>>>>>Begin Spectral Data<<<<<
46.04893	1.5125
50.45542	-2.3875
54.85868	-1.8875
59.25871	-0.6875
63.6555	61.8125
68.04907	65.2125
72.43941	72.6125
76.82654	75.0125
81.21044	72.9125
85.59113	77.6125
89.96862	82.7125
94.34289	81.5125
98.71396	89.7125
103.08183	91.8125
107.4465	93.5125
111.80798	92.0125
116.16626	93.7125
120.52136	99.8125
124.87327	99.1125
129.222	103.2125
133.56755	107.7125
137.90993	113.7125
142.24913	126.6125
146.58517	139.9125
150.91804	156.0125
155.24774	187.5125
159.57429	229.0125
163.89768	281.3125
168.21792	371.0125
172.53501	502.3125
176.84895	697.4125
181.15975	966.7125
185.46741	1365.2125
189.77193	1888.9125
194.07331	2534.6125
198.37157	3253.3125
202.6667	4028.2125
206.9587	4785.8125
211.24758	5535.4125
215.53334	6267.4125
219.81599	7035.3125
224.09553	7878.5125
228.37195	8832.7125
232.64527	9889.6125
236.91549	10992.6125
241.18261	12151.6125
245.44663	13241.2125
249.70755	14212.4125
253.96539	15122.7125
258.22014	15820.2125
262.4718	16462.7125
266.72039	16867.0125
270.96589	17125.9125
275.20832	17154.2125
279.44768	17098.0125
283.68397	16943.0125
287.91719	16776.7125
292.14735	16686.8125
296.37445	16653.6125
300.59849	16692.1125
304.81948	16658.8125
309.03742	16599.3125
313.25231	16374.5125
317.46415	16082.4125
321.67296	15742.7125
325.87872	15445.3125
330.08145	15325.7125
334.28114	15385.4125
338.47781	15505.9125
342.67145	15684.8125
346.86207	15948.2125
351.04966	16240.9125
355.23424	16559.8125
359.4158	16821.9125
363.59435	17040.5125
367.76989	17167.5125
371.94243	17305.7125
376.11196	17430.7125
380.27849	17549.4125
384.44203	17636.6125
388.60257	17729.5125
392.76012	17870.1125
396.91468	18076.6125
401.06626	18321.2125
405.21485	18517.4125
409.36047	18520.4125
413.50311	18289.3125
417.64277	18118.4125
421.77947	18029.0125
425.9132	18111.5125
430.04396	18218.8125
434.17176	18330.1125
438.2966	18507.3125
442.41849	18812.8125
446.53742	19185.9125
450.6534	19594.9125
454.76644	19957.5125
458.87653	20127.9125
462.98368	20085.1125
467.08789	19973.4125
471.18916	19771.3125
475.2875	19616.2125
479.38291	19539.6125
483.4754	19458.3125
487.56496	19241.9125
491.6516	19015.6125
495.73531	18792.2125
499.81612	18730.3125
503.89401	18815.9125
507.96899	18855.9125
512.04106	18840.6125
516.11023	18862.2125
520.1765	18832.5125
524.23987	18844.0125
528.30034	18762.4125
532.35792	18639.0125
536.41261	18477.9125
540.46441	18302.4125
544.51333	18288.5125
548.55936	18427.1125
552.60252	18718.4125
556.64279	18991.5125
560.6802	19168.5125
564.71473	19201.6125
568.7464	19339.4125
572.7752	19545.5125
576.80114	19665.5125
580.82422	19814.0125
584.84444	19961.1125
588.86181	20146.4125
592.87633	20496.6125
596.888	20816.8125
600.89682	20975.8125
604.9028	21505.0125
608.90594	22796.2125
612.90624	24188.6125
616.90371	23178.6125
620.89834	20375.4125
624.89015	19158.9125
628.87913	19043.9125
632.86528	19078.1125
636.84862	19104.7125
640.82913	18900.1125
644.80683	18612.3125
648.78172	18324.2125
652.75379	18237.5125
656.72306	18412.0125
660.68952	18572.1125
664.65319	18602.4125
668.61405	18382.0125
672.57211	18319.0125
676.52738	18304.4125
680.47986	18322.1125
684.42955	18296.9125
688.37646	18281.6125
692.32058	18365.0125
696.26192	18466.8125
700.20048	18639.4125
704.13626	18745.0125
708.06928	18700.8125
711.99952	18624.9125
715.927	18595.3125
719.85171	18570.6125
723.77365	18528.2125
727.69284	18445.5125
731.60928	18347.4125
735.52295	18306.5125
739.43388	18327.3125
743.34206	18359.8125
747.24749	18399.4125
751.15017	18472.3125
755.05012	18721.9125
758.94733	19052.9125
762.8418	19715.7125
766.73354	20767.3125
770.62254	21804.8125
774.50882	22163.4125
778.39237	21374.9125
782.27321	20185.5125
786.15132	19139.5125
790.02671	18556.4125
793.89938	18301.7125
797.76935	18189.8125
801.6366	18176.0125
805.50115	18159.2125
809.36299	18093.0125
813.22213	18045.1125
817.07857	18072.9125
820.93231	18035.9125
824.78336	18000.8125
828.63172	18030.6125
832.47738	18071.7125
836.32036	18093.7125
840.16066	18136.5125
843.99827	18138.3125
847.8332	18100.6125
851.66546	18066.0125
855.49504	18054.6125
859.32195	18057.1125
863.1462	17992.2125
866.96777	17989.6125
870.78668	17925.2125
874.60293	17933.2125
878.41652	17944.2125
882.22745	17964.8125
886.03573	18030.4125
889.84136	17984.4125
893.64433	17931.4125
897.44466	17907.3125
901.24235	17830.4125
905.0374	17805.6125
908.8298	17834.4125
912.61957	17846.9125
916.40671	17937.5125
920.19121	18086.5125
923.97308	18197.5125
927.75233	18230.4125
931.52895	18229.3125
935.30295	18054.3125
939.07433	17901.2125
942.84309	17708.1125
946.60924	17634.7125
950.37278	17554.1125
954.13371	17490.7125
957.89203	17417.6125
961.64774	17400.7125
965.40086	17367.5125
969.15137	17285.4125
972.89929	17234.5125
976.64461	17211.0125
980.38733	17206.9125
984.12747	17256.2125
987.86502	17398.6125
991.59999	17541.8125
995.33237	17795.4125
999.06217	18149.3125
1002.78939	18473.0125
1006.51404	18690.8125
1010.23611	18839.1125
1013.95561	18963.1125
1017.67255	18928.1125
1021.38692	18786.3125
1025.09872	18710.9125
1028.80796	18794.3125
1032.51465	19125.6125
1036.21877	19395.1125
1039.92035	19500.0125
1043.61937	19341.9125
1047.31584	19077.0125
1051.00976	18770.8125
1054.70114	18654.2125
1058.38998	18705.5125
1062.07627	18873.5125
1065.76003	19084.9125
1069.44126	19397.4125
1073.11995	19705.9125
1076.79611	19963.5125
1080.46974	20047.2125
1084.14085	19891.7125
1087.80943	19766.0125
1091.47549	19634.6125
1095.13903	19464.4125
1098.80005	19205.8125
1102.45857	18940.8125
1106.11456	18753.1125
1109.76805	18738.4125
1113.41903	18764.0125
1117.06751	18912.3125
1120.71348	19058.8125
1124.35696	19215.5125
1127.99793	19371.6125
1131.63641	19457.9125
1135.2724	19339.4125
1138.90589	19135.2125
1142.5369	19009.4125
1146.16542	18947.2125
1149.79145	18995.9125
1153.415	19047.5125
1157.03607	19211.2125
1160.65467	19487.5125
1164.27079	19960.4125
1167.88443	20669.2125
1171.49561	21610.6125
1175.10432	22840.2125
1178.71056	24360.5125
1182.31434	25663.8125
1185.91565	26260.8125
1189.51451	26098.7125
1193.11091	25369.8125
1196.70485	24466.5125
1200.29634	23645.9125
1203.88538	22984.6125
1207.47197	22558.4125
1211.05612	22186.8125
1214.63782	21940.2125
1218.21708	21744.3125
1221.79391	21607.6125
1225.36829	21557.1125
1228.94024	21401.4125
1232.50976	21202.0125
1236.07685	21031.3125
1239.6415	21030.8125
1243.20374	21065.0125
1246.76355	21196.4125
1250.32093	21446.6125
1253.8759	21760.2125
1257.42845	22149.5125
1260.97859	22560.6125
1264.52631	22890.5125
1268.07163	23222.2125
1271.61453	23626.3125
1275.15503	24106.8125
1278.69312	24628.7125
1282.22882	25040.2125
1285.76211	25529.3125
1289.29301	26053.6125
1292.82151	26745.4125
1296.34761	27633.0125
1299.87133	28715.1125
1303.39266	29996.3125
1306.9116	31450.7125
1310.42815	32891.1125
1313.94233	33833.7125
1317.45412	33917.5125
1320.96354	33396.2125
1324.47058	32734.2125
1327.97525	32068.9125
1331.47754	31597.2125
1334.97747	31413.2125
1338.47502	31497.8125
1341.97022	31512.4125
1345.46305	31356.4125
1348.95352	31045.2125
1352.44163	30962.4125
1355.92738	31416.2125
1359.41078	32612.4125
1362.89183	33860.9125
1366.37053	33539.4125
1369.84688	31256.9125
1373.32088	28576.5125
1376.79254	26734.1125
1380.26186	25879.4125
1383.72883	25594.6125
1387.19347	25490.9125
1390.65578	25272.3125
1394.11575	25200.2125
1397.57339	25434.5125
1401.0287	25855.8125
1404.48168	26254.5125
1407.93234	26504.3125
1411.38068	26370.1125
1414.82669	25903.6125
1418.27039	25108.8125
1421.71177	24259.2125
1425.15083	23519.9125
1428.58758	23087.8125
1432.02203	23078.2125
1435.45416	23302.1125
1438.88399	23663.1125
1442.31151	23973.3125
1445.73673	24269.9125
1449.15965	24523.4125
1452.58027	24769.9125
1455.9986	24843.0125
1459.41463	25003.8125
1462.82837	25265.7125
1466.23982	25721.3125
1469.64898	26076.8125
1473.05586	26352.9125
1476.46045	26399.1125
1479.86276	26382.3125
1483.26279	26282.5125
1486.66054	26239.5125
1490.05602	26311.4125
1493.44922	26444.4125
1496.84016	26543.9125
1500.22882	26911.4125
1503.61521	27471.2125
1506.99934	28212.4125
1510.38121	28992.1125
1513.76081	29289.4125
1517.13816	28840.3125
1520.51324	27798.5125
1523.88607	26837.9125
1527.25665	26131.5125
1530.62498	25823.9125
1533.99105	25703.4125
1537.35488	25604.4125
1540.71647	25418.0125
1544.07581	25198.5125
1547.4329	24919.0125
1550.78776	24621.9125
1554.14038	24420.2125
1557.49077	24354.4125
1560.83892	24357.0125
1564.18484	24428.9125
1567.52853	24528.7125
1570.86999	24849.2125
1574.20922	25291.4125
1577.54624	25813.3125
1580.88103	26040.4125
1584.2136	26059.6125
1587.54395	26111.0125
1590.87208	26520.7125
1594.19801	27394.1125
1597.52172	28490.6125
1600.84321	28857.5125
1604.16251	28034.2125
1607.47959	26484.9125
1610.79447	24819.6125
1614.10715	23182.3125
1617.41763	21912.0125
1620.7259	21042.6125
1624.03199	20646.1125
1627.33587	20614.2125
1630.63757	20944.2125
1633.93707	21754.5125
1637.23439	23036.8125
1640.52951	24726.1125
1643.82246	26639.3125
1647.11321	28230.9125
1650.40179	28655.9125
1653.68819	27463.4125
1656.97241	25024.8125
1660.25446	22526.9125
1663.53433	20550.6125
1666.81203	19235.9125
1670.08756	18390.6125
1673.36092	17862.1125
1676.63211	17505.6125
1679.90115	17276.7125
1683.16801	17010.6125
1686.43272	16911.1125
1689.69527	16798.6125
1692.95567	16751.7125
1696.2139	16719.1125
1699.46999	16715.4125
1702.72392	16666.6125
1705.97571	16632.7125
1709.22535	16604.0125
1712.47284	16566.6125
1715.71819	16542.4125
1718.96139	16485.1125
1722.20246	16442.7125
1725.44139	16451.9125
1728.67818	16357.8125
1731.91284	16295.4125
1735.14537	16234.5125
1738.37576	16190.8125
1741.60403	16161.3125
1744.83017	16121.8125
1748.05418	16115.5125
1751.27607	16114.3125
1754.49584	16058.6125
1757.71349	16028.5125
1760.92903	16044.4125
1764.14244	16034.8125
1767.35375	16036.8125
1770.56294	16014.3125
1773.77002	16012.6125
1776.97499	16006.4125
1780.17785	15954.7125
1783.37861	15934.4125
1786.57727	15911.0125
1789.77382	15862.3125
1792.96828	15855.8125
1796.16064	15831.9125
1799.3509	15819.4125
1802.53907	15750.6125
1805.72514	15761.6125
1808.90913	15713.8125
1812.09102	15707.5125
1815.27083	15672.8125
1818.44856	15672.9125
1821.6242	15643.7125
1824.79776	15631.4125
1827.96924	15610.3125
1831.13864	15615.7125
1834.30597	15614.4125
1837.47122	15561.9125
1840.6344	15590.1125
1843.7955	15562.8125
1846.95454	15564.4125
1850.11151	15572.2125
1853.26642	15588.2125
1856.41926	15560.0125
1859.57004	15564.1125
1862.71876	15549.4125
1865.86542	15532.3125
1869.01003	15515.4125
1872.15258	15534.5125
1875.29308	15527.5125
1878.43152	15485.9125
1881.56792	15491.5125
1884.70227	15469.9125
1887.83457	15456.7125
1890.96482	15440.6125
1894.09304	15479.6125
1897.21921	15444.4125
1900.34335	15436.2125
1903.46544	15419.4125
1906.58551	15408.2125
1909.70353	15386.0125
1912.81953	15394.7125
1915.93349	15355.2125
1919.04543	15338.0125
1922.15534	15327.8125
1925.26322	15318.3125
1928.36908	15278.6125
1931.47292	15253.8125
1934.57473	15235.8125
1937.67453	15164.8125
1940.77232	15143.4125
1943.86808	15115.0125
1946.96184	15107.1125
1950.05358	15054.8125
1953.14331	15022.1125
1956.23103	14963.1125
1959.31675	14948.4125
1962.40046	14880.1125
1965.48217	14868.5125
1968.56188	14789.7125
1971.63959	14783.6125
1974.7153	14720.7125
1977.78901	14706.6125
1980.86073	14621.4125
1983.93046	14611.2125
1986.99819	14593.5125
1990.06394	14540.3125
1993.1277	14487.7125
1996.18947	14419.4125
1999.24925	14399.8125
2002.30706	14363.8125
2005.36288	14335.3125
2008.41672	14310.7125
2011.46859	14247.8125
2014.51848	14215.2125
2017.56639	14177.7125
2020.61233	14146.3125
2023.6563	14133.9125
2026.6983	14118.4125
2029.73833	14077.9125
2032.7764	14073.8125
2035.8125	14045.0125
2038.84664	14012.9125
2041.87881	13984.9125
2044.90903	13973.2125
2047.93729	13957.3125
2050.96359	13957.0125
2053.98794	13920.3125
2057.01034	13904.0125
2060.03078	13909.3125
2063.04927	13902.7125
2066.06582	13875.7125
2069.08042	13879.7125
2072.09307	13848.7125
2075.10378	13831.8125
2078.11255	13836.1125
2081.11938	13830.6125
2084.12426	13843.8125
2087.12722	13847.2125
2090.12824	13805.4125
2093.12732	13837.5125
2096.12447	13840.6125
2099.11969	13848.2125
2102.11299	13803.3125
2105.10435	13824.8125
2108.09379	13902.5125
2111.08131	13899.4125
2114.0669	13888.2125
2117.05057	13881.3125
2120.03233	13891.5125
2123.01216	13896.2125
2125.99008	13880.3125
2128.96609	13943.9125
2131.94018	13931.6125
2134.91236	13961.2125
2137.88263	13964.2125
2140.851	13968.4125
2143.81746	13974.5125
2146.78201	13987.7125
2149.74466	13986.4125
2152.7054	14018.3125
2155.66425	14031.9125
2158.6212	14013.8125
2161.57625	14026.6125
2164.52941	14025.3125
2167.48067	13996.4125
2170.43004	13993.6125
2173.37752	13994.8125
2176.32311	13969.4125
2179.26681	13967.6125
2182.20863	13977.9125
2185.14856	13969.1125
2188.08661	14000.4125
2191.02278	14015.3125
2193.95707	13975.3125
2196.88948	13975.1125
2199.82001	13968.8125
2202.74867	13954.1125
2205.67545	13957.1125
2208.60037	13969.2125
2211.52341	13957.0125
2214.44458	13927.7125
2217.36388	13875.8125
2220.28132	13884.9125
2223.1969	13889.3125
2226.11061	13853.2125
2229.02246	13833.6125
2231.93245	13837.4125
2234.84058	13779.3125
2237.74686	13756.2125
2240.65128	13748.0125
2243.55385	13743.3125
2246.45456	13726.7125
2249.35343	13675.3125
2252.25044	13671.5125
2255.14561	13661.9125
2258.03893	13641.4125
2260.93041	13619.4125
2263.82004	13598.7125
2266.70783	13591.7125
2269.59378	13541.1125
2272.4779	13507.6125
2275.36017	13484.7125
2278.24061	13461.2125
2281.11922	13413.6125
2283.996	13400.6125
2286.87094	13409.7125
2289.74405	13351.5125
2292.61534	13350.3125
2295.4848	13355.5125
2298.35243	13372.2125
2301.21824	13341.1125
2304.08223	13360.9125
2306.94439	13350.4125
2309.80474	13353.2125
2312.66327	13334.3125
2315.51999	13342.7125
2318.37489	13356.8125
2321.22797	13314.0125
2324.07925	13316.2125
2326.92871	13278.3125
2329.77637	13295.2125
2332.62222	13285.2125
2335.46626	13257.4125
2338.3085	13236.9125
2341.14893	13240.2125
2343.98756	13277.5125
2346.8244	13239.1125
2349.65943	13213.8125
2352.49267	13242.9125
2355.32411	13247.0125
2358.15376	13213.6125
2360.98161	13191.5125
2363.80768	13180.9125
2366.63195	13196.2125
2369.45444	13143.4125
2372.27514	13134.8125
2375.09405	13100.2125
2377.91118	13135.4125
2380.72652	13087.7125
2383.54009	13057.9125
2386.35187	13048.5125
2389.16188	13003.3125
2391.97011	13022.6125
2394.77657	12963.4125
2397.58125	12953.1125
2400.38416	12952.1125
2403.18529	12929.4125
2405.98466	12886.9125
2408.78226	12886.1125
2411.57809	12874.8125
2414.37216	12855.7125
2417.16446	12813.0125
2419.955	12811.3125
2422.74378	12815.2125
2425.5308	12813.5125
2428.31606	12752.4125
2431.09956	12765.1125
2433.88131	12739.8125
2436.6613	12757.0125
2439.43954	12737.9125
2442.21603	12709.0125
2444.99077	12729.7125
2447.76377	12710.8125
2450.53501	12694.8125
2453.30451	12712.1125
2456.07226	12660.5125
2458.83827	12676.9125
2461.60254	12662.5125
2464.36507	12660.2125
2467.12586	12638.8125
2469.88492	12654.2125
2472.64224	12643.2125
2475.39782	12664.5125
2478.15167	12664.7125
2480.90379	12673.8125
2483.65417	12659.4125
2486.40283	12680.0125
2489.14976	12692.3125
2491.89497	12679.0125
2494.63845	12714.5125
2497.3802	12659.4125
2500.12024	12663.5125
2502.85855	12641.5125
2505.59514	12668.9125
2508.33002	12631.0125
2511.06318	12638.4125
2513.79462	12599.2125
2516.52435	12622.6125
2519.25237	12604.5125
2521.97867	12587.2125
2524.70327	12557.1125
2527.42616	12555.0125
2530.14734	12540.7125
2532.86681	12533.4125
2535.58458	12534.3125
2538.30065	12511.5125
2541.01501	12504.1125
2543.72768	12479.4125
2546.43864	12456.9125
2549.14791	12475.5125
2551.85548	12438.6125
2554.56136	12432.1125
2557.26554	12398.5125
2559.96803	12395.2125
2562.66883	12389.2125
2565.36794	12379.0125
2568.06536	12378.6125
2570.7611	12386.6125
2573.45514	12344.9125
2576.14751	12353.1125
2578.83819	12312.3125
2581.52719	12312.3125
2584.21451	12296.8125
2586.90015	12305.9125
2589.58411	12273.7125
2592.2664	12289.6125
2594.94701	12253.9125
2597.62594	12223.9125
2600.30321	12205.6125
2602.9788	12234.2125
2605.65273	12206.9125
2608.32498	12212.6125
2610.99557	12219.9125
2613.66449	12209.3125
2616.33175	12204.6125
2618.99734	12180.5125
2621.66128	12174.5125
2624.32355	12144.9125
2626.98416	12162.7125
2629.64311	12142.2125
2632.30041	12164.2125
2634.95605	12163.3125
2637.61004	12138.1125
2640.26238	12144.0125
2642.91306	12121.5125
2645.56209	12092.6125
2648.20948	12095.9125
2650.85521	12082.6125
2653.4993	12074.0125
2656.14175	12087.1125
2658.78255	12086.7125
2661.42171	12078.8125
2664.05923	12076.8125
2666.6951	12068.3125
2669.32934	12103.5125
2671.96194	12092.3125
2674.59291	12092.5125
2677.22224	12088.8125
2679.84993	12100.3125
2682.476	12093.3125
2685.10043	12128.4125
2687.72324	12113.5125
2690.34441	12110.7125
2692.96396	12105.4125
2695.58188	12119.9125
2698.19818	12091.3125
2700.81285	12083.4125
2703.4259	12076.7125
2706.03733	12139.0125
2708.64714	12108.4125
2711.25533	12105.0125
2713.86191	12110.1125
2716.46687	12142.6125
2719.07021	12116.5125
2721.67194	12109.9125
2724.27206	12103.9125
2726.87057	12105.4125
2729.46747	12097.6125
2732.06276	12102.3125
2734.65644	12101.4125
2737.24852	12113.2125
2739.83899	12097.4125
2742.42786	12081.2125
2745.01513	12073.8125
2747.60079	12069.1125
2750.18486	12088.2125
2752.76733	12069.5125
2755.3482	12096.7125
2757.92747	12069.9125
2760.50515	12060.1125
2763.08123	12056.6125
2765.65573	12024.2125
2768.22863	12034.1125
2770.79994	12017.6125
2773.36967	12019.6125
2775.9378	11994.1125
2778.50435	11982.1125
2781.06932	11963.8125
2783.6327	11964.3125
2786.1945	11981.1125
2788.75471	11960.2125
2791.31335	11921.0125
2793.87041	11907.8125
2796.42589	11880.1125
2798.97979	11883.6125
2801.53212	11838.9125
2804.08288	11861.8125
2806.63206	11821.7125
2809.17967	11795.5125
2811.72571	11761.3125
2814.27018	11751.4125
2816.81308	11745.2125
2819.35442	11760.4125
2821.89419	11723.6125
2824.43239	11691.3125
2826.96904	11687.7125
2829.50412	11717.5125
2832.03763	11659.3125
2834.56959	11694.5125
2837.1	11660.6125
2839.62884	11674.3125
2842.15613	11644.3125
2844.68186	11677.8125
2847.20604	11636.6125
2849.72867	11639.7125
2852.24974	11645.1125
2854.76927	11618.2125
2857.28724	11628.2125
2859.80367	11618.5125
2862.31855	11581.5125
2864.83189	11585.6125
2867.34368	11562.1125
2869.85393	11570.9125
2872.36264	11568.5125
2874.8698	11573.1125
2877.37543	11542.9125
2879.87952	11562.1125
2882.38207	11583.3125
2884.88308	11575.9125
2887.38256	11592.4125
2889.88051	11561.1125
2892.37692	11568.7125
2894.8718	11582.8125
2897.36515	11569.4125
2899.85698	11567.0125
2902.34727	11598.8125
2904.83604	11595.1125
2907.32328	11609.8125
2909.809	11604.8125
2912.29319	11615.8125
2914.77587	11599.9125
2917.25702	11586.0125
2919.73665	11603.8125
2922.21476	11599.3125
2924.69136	11607.2125
2927.16644	11627.9125
2929.64	11572.4125
2932.11205	11589.1125
2934.58258	11556.6125
2937.05161	11560.9125
2939.51912	11564.7125
2941.98513	11578.1125
2944.44962	11538.1125
2946.91261	11510.6125
2949.37409	11520.9125
2951.83407	11504.5125
2954.29254	11509.8125
2956.74951	11495.9125
2959.20498	11501.0125
2961.65895	11489.5125
2964.11142	11493.6125
2966.56239	11463.8125
2969.01186	11448.6125
2971.45984	11405.3125
2973.90632	11373.9125
2976.35131	11358.5125
2978.7948	11344.7125
2981.23681	11324.4125
2983.67732	11318.8125
2986.11635	11304.9125
2988.55388	11286.0125
2990.98993	11274.9125
2993.4245	11259.6125
2995.85758	11222.5125
2998.28917	11214.9125
3000.71928	11186.6125
3003.14791	11182.7125
3005.57506	11152.5125
3008.00073	11160.0125
3010.42493	11150.9125
3012.84764	11123.6125
3015.26888	11107.7125
3017.68865	11045.0125
3020.10694	11062.7125
3022.52376	11062.3125
3024.9391	11018.9125
