Data from AgNP_FTO_APTES_CRN_1000uM_R6G_10uM_NaF_0.1M_Addition_RamanShift__5__20-56-08-269.txt Node

Date: Wed Dec 15 20:56:08 GMT 2021
User: TCL
Spectrometer: QEP01345
Trigger mode: 4
Integration Time (sec): 7.000000E0
Scans to average: 10
Electric dark correction enabled: true
Nonlinearity correction enabled: false
Boxcar width: 0
XAxis mode: Raman Shifts
Number of Pixels in Spectrum: 1044
>>>>>Begin Spectral Data<<<<<
46.04893	1.2875
50.45542	-2.4125
54.85868	-1.5125
59.25871	-0.2125
63.6555	64.3875
68.04907	70.6875
72.43941	73.9875
76.82654	75.8875
81.21044	77.3875
85.59113	83.3875
89.96862	86.1875
94.34289	83.2875
98.71396	90.5875
103.08183	97.1875
107.4465	97.2875
111.80798	99.2875
116.16626	106.2875
120.52136	107.4875
124.87327	112.1875
129.222	114.3875
133.56755	117.8875
137.90993	133.6875
142.24913	139.8875
146.58517	156.4875
150.91804	178.4875
155.24774	217.8875
159.57429	272.8875
163.89768	348.0875
168.21792	450.1875
172.53501	607.9875
176.84895	855.4875
181.15975	1199.9875
185.46741	1676.8875
189.77193	2303.7875
194.07331	3089.2875
198.37157	3992.8875
202.6667	4917.7875
206.9587	5860.2875
211.24758	6755.9875
215.53334	7645.9875
219.81599	8596.3875
224.09553	9637.5875
228.37195	10771.1875
232.64527	12021.8875
236.91549	13320.9875
241.18261	14673.5875
245.44663	15948.0875
249.70755	17143.5875
253.96539	18230.0875
258.22014	19070.8875
262.4718	19796.0875
266.72039	20306.9875
270.96589	20547.1875
275.20832	20603.2875
279.44768	20492.1875
283.68397	20278.4875
287.91719	20146.3875
292.14735	20004.6875
296.37445	19944.7875
300.59849	19952.9875
304.81948	19910.8875
309.03742	19870.3875
313.25231	19649.7875
317.46415	19381.2875
321.67296	18975.1875
325.87872	18687.0875
330.08145	18521.3875
334.28114	18553.3875
338.47781	18661.2875
342.67145	18813.3875
346.86207	19066.2875
351.04966	19331.9875
355.23424	19646.0875
359.4158	19883.0875
363.59435	20099.9875
367.76989	20253.4875
371.94243	20333.5875
376.11196	20408.0875
380.27849	20517.3875
384.44203	20643.1875
388.60257	20851.9875
392.76012	21036.5875
396.91468	21235.5875
401.06626	21463.1875
405.21485	21681.6875
409.36047	21671.2875
413.50311	21547.1875
417.64277	21452.0875
421.77947	21523.3875
425.9132	21634.2875
430.04396	21782.4875
434.17176	21882.0875
438.2966	22012.5875
442.41849	22269.1875
446.53742	22734.4875
450.6534	23190.6875
454.76644	23577.6875
458.87653	23736.9875
462.98368	23661.9875
467.08789	23533.5875
471.18916	23375.8875
475.2875	23302.0875
479.38291	23260.0875
483.4754	23134.9875
487.56496	22865.8875
491.6516	22537.2875
495.73531	22226.3875
499.81612	22113.9875
503.89401	22207.4875
507.96899	22300.9875
512.04106	22358.7875
516.11023	22273.4875
520.1765	22164.9875
524.23987	21962.3875
528.30034	21863.3875
532.35792	21693.4875
536.41261	21496.5875
540.46441	21401.0875
544.51333	21405.8875
548.55936	21559.0875
552.60252	21928.6875
556.64279	22382.5875
560.6802	22702.7875
564.71473	22882.0875
568.7464	23173.0875
572.7752	23681.4875
576.80114	24196.8875
580.82422	24685.6875
584.84444	25181.8875
588.86181	25784.1875
592.87633	26180.1875
596.888	25974.8875
600.89682	25302.4875
604.9028	25196.8875
608.90594	26072.6875
612.90624	26988.9875
616.90371	25662.2875
620.89834	22916.3875
624.89015	21665.3875
628.87913	21519.6875
632.86528	21612.7875
636.84862	21666.7875
640.82913	21498.0875
644.80683	21215.4875
648.78172	20962.6875
652.75379	20905.0875
656.72306	21023.3875
660.68952	21186.5875
664.65319	21115.9875
668.61405	20883.9875
672.57211	20901.5875
676.52738	21003.7875
680.47986	21060.8875
684.42955	20951.7875
688.37646	20912.7875
692.32058	20912.2875
696.26192	21078.9875
700.20048	21286.9875
704.13626	21420.7875
708.06928	21426.9875
711.99952	21430.1875
715.927	21409.5875
719.85171	21398.8875
723.77365	21319.0875
727.69284	21077.1875
731.60928	20946.8875
735.52295	20852.7875
739.43388	20822.9875
743.34206	20924.4875
747.24749	20974.9875
751.15017	21068.9875
755.05012	21322.4875
758.94733	21787.8875
762.8418	22500.3875
766.73354	23523.2875
770.62254	24522.0875
774.50882	24601.2875
778.39237	23769.3875
782.27321	22596.9875
786.15132	21618.7875
790.02671	21027.8875
793.89938	20737.5875
797.76935	20665.1875
801.6366	20636.2875
805.50115	20598.9875
809.36299	20561.7875
813.22213	20422.5875
817.07857	20348.8875
820.93231	20322.3875
824.78336	20219.7875
828.63172	20163.2875
832.47738	20149.9875
836.32036	20173.7875
840.16066	20155.9875
843.99827	20123.5875
847.8332	20106.0875
851.66546	20085.0875
855.49504	20085.4875
859.32195	20063.2875
863.1462	20049.0875
866.96777	20006.5875
870.78668	20020.8875
874.60293	20010.5875
878.41652	20028.3875
882.22745	20067.9875
886.03573	20127.5875
889.84136	20097.5875
893.64433	20087.3875
897.44466	20059.4875
901.24235	19986.7875
905.0374	19887.2875
908.8298	19869.9875
912.61957	19909.7875
916.40671	20034.6875
920.19121	20228.7875
923.97308	20286.6875
927.75233	20287.1875
931.52895	20133.4875
935.30295	19896.0875
939.07433	19657.1875
942.84309	19458.3875
946.60924	19366.6875
950.37278	19285.0875
954.13371	19295.3875
957.89203	19236.7875
961.64774	19249.5875
965.40086	19254.0875
969.15137	19142.6875
972.89929	19081.5875
976.64461	18970.5875
980.38733	18955.3875
984.12747	18963.0875
987.86502	19027.2875
991.59999	19138.0875
995.33237	19268.5875
999.06217	19522.2875
1002.78939	19837.5875
1006.51404	20037.9875
1010.23611	20307.0875
1013.95561	20488.8875
1017.67255	20517.7875
1021.38692	20389.7875
1025.09872	20156.3875
1028.80796	19991.0875
1032.51465	20070.2875
1036.21877	20172.2875
1039.92035	20278.1875
1043.61937	20307.9875
1047.31584	20248.6875
1051.00976	20267.7875
1054.70114	20287.2875
1058.38998	20472.5875
1062.07627	20683.5875
1065.76003	21092.4875
1069.44126	21507.5875
1073.11995	21952.8875
1076.79611	22226.4875
1080.46974	22105.3875
1084.14085	21840.2875
1087.80943	21639.0875
1091.47549	21527.3875
1095.13903	21489.8875
1098.80005	21283.6875
1102.45857	20928.8875
1106.11456	20596.4875
1109.76805	20439.3875
1113.41903	20436.2875
1117.06751	20513.4875
1120.71348	20653.9875
1124.35696	20839.2875
1127.99793	21064.3875
1131.63641	21287.0875
1135.2724	21197.3875
1138.90589	21078.7875
1142.5369	21118.7875
1146.16542	21160.3875
1149.79145	21323.5875
1153.415	21533.5875
1157.03607	21762.3875
1160.65467	22268.4875
1164.27079	23113.8875
1167.88443	24115.2875
1171.49561	25275.7875
1175.10432	26534.1875
1178.71056	28215.0875
1182.31434	29709.7875
1185.91565	30435.2875
1189.51451	30274.3875
1193.11091	29687.1875
1196.70485	28842.4875
1200.29634	27917.7875
1203.88538	27346.3875
1207.47197	27025.9875
1211.05612	26761.0875
1214.63782	26317.7875
1218.21708	25771.4875
1221.79391	25119.8875
1225.36829	24699.6875
1228.94024	24380.3875
1232.50976	24031.1875
1236.07685	23767.5875
1239.6415	23621.5875
1243.20374	23600.3875
1246.76355	23782.9875
1250.32093	24042.9875
1253.8759	24436.3875
1257.42845	24929.1875
1260.97859	25450.3875
1264.52631	26019.0875
1268.07163	26586.7875
1271.61453	27175.9875
1275.15503	27784.8875
1278.69312	28426.5875
1282.22882	29068.3875
1285.76211	29871.1875
1289.29301	30849.8875
1292.82151	32210.4875
1296.34761	33790.4875
1299.87133	35564.0875
1303.39266	37366.9875
1306.9116	38915.7875
1310.42815	40094.2875
1313.94233	40648.4875
1317.45412	40526.1875
1320.96354	40034.1875
1324.47058	39569.7875
1327.97525	39226.8875
1331.47754	38970.5875
1334.97747	38819.5875
1338.47502	38532.0875
1341.97022	38266.5875
1345.46305	37773.9875
1348.95352	37222.2875
1352.44163	37084.0875
1355.92738	37460.4875
1359.41078	38294.8875
1362.89183	39077.8875
1366.37053	38430.2875
1369.84688	36069.5875
1373.32088	33037.4875
1376.79254	30908.2875
1380.26186	30105.2875
1383.72883	30114.2875
1387.19347	30265.1875
1390.65578	30177.2875
1394.11575	30277.7875
1397.57339	30596.2875
1401.0287	31070.1875
1404.48168	31347.7875
1407.93234	31191.9875
1411.38068	30608.2875
1414.82669	29536.9875
1418.27039	28363.9875
1421.71177	27219.4875
1425.15083	26274.0875
1428.58758	25811.7875
1432.02203	25925.7875
1435.45416	26531.3875
1438.88399	27245.4875
1442.31151	27798.1875
1445.73673	28203.9875
1449.15965	28502.1875
1452.58027	28731.9875
1455.9986	28828.1875
1459.41463	28922.5875
1462.82837	29305.3875
1466.23982	29706.6875
1469.64898	30048.6875
1473.05586	30200.2875
1476.46045	30198.4875
1479.86276	29983.4875
1483.26279	29638.5875
1486.66054	29384.3875
1490.05602	29402.3875
1493.44922	29543.2875
1496.84016	29719.1875
1500.22882	30147.6875
1503.61521	30715.4875
1506.99934	31479.0875
1510.38121	31944.4875
1513.76081	32004.9875
1517.13816	31542.8875
1520.51324	30833.0875
1523.88607	30354.0875
1527.25665	30233.7875
1530.62498	30319.8875
1533.99105	30364.0875
1537.35488	30167.7875
1540.71647	29718.0875
1544.07581	29033.5875
1547.4329	28389.0875
1550.78776	27812.7875
1554.14038	27313.1875
1557.49077	27062.3875
1560.83892	26903.5875
1564.18484	26882.0875
1567.52853	27082.4875
1570.86999	27553.7875
1574.20922	28335.3875
1577.54624	29191.3875
1580.88103	29720.4875
1584.2136	30102.2875
1587.54395	30440.7875
1590.87208	31140.7875
1594.19801	32224.1875
1597.52172	33359.9875
1600.84321	33626.4875
1604.16251	32330.8875
1607.47959	30200.3875
1610.79447	27908.4875
1614.10715	25809.3875
1617.41763	24082.1875
1620.7259	22922.3875
1624.03199	22344.6875
1627.33587	22265.7875
1630.63757	22835.6875
1633.93707	24004.6875
1637.23439	26038.5875
1640.52951	28938.7875
1643.82246	32180.3875
1647.11321	34695.8875
1650.40179	34977.2875
1653.68819	32690.6875
1656.97241	28934.4875
1660.25446	25331.2875
1663.53433	22649.6875
1666.81203	20844.3875
1670.08756	19720.3875
1673.36092	18992.2875
1676.63211	18502.0875
1679.90115	18198.6875
1683.16801	17899.1875
1686.43272	17682.4875
1689.69527	17529.3875
1692.95567	17437.8875
1696.2139	17389.8875
1699.46999	17332.4875
1702.72392	17266.7875
1705.97571	17235.5875
1709.22535	17146.4875
1712.47284	17101.7875
1715.71819	17080.2875
1718.96139	17043.0875
1722.20246	17008.6875
1725.44139	16956.2875
1728.67818	16828.4875
1731.91284	16740.8875
1735.14537	16652.8875
1738.37576	16612.5875
1741.60403	16568.7875
1744.83017	16518.6875
1748.05418	16503.8875
1751.27607	16473.5875
1754.49584	16448.2875
1757.71349	16484.3875
1760.92903	16445.7875
1764.14244	16435.2875
1767.35375	16405.7875
1770.56294	16375.6875
1773.77002	16351.7875
1776.97499	16310.3875
1780.17785	16237.2875
1783.37861	16249.5875
1786.57727	16178.9875
1789.77382	16135.0875
1792.96828	16110.5875
1796.16064	16093.4875
1799.3509	16032.4875
1802.53907	15997.5875
1805.72514	15979.5875
1808.90913	15909.9875
1812.09102	15891.0875
1815.27083	15865.3875
1818.44856	15812.3875
1821.6242	15828.9875
1824.79776	15799.2875
1827.96924	15763.8875
1831.13864	15761.9875
1834.30597	15782.3875
1837.47122	15750.9875
1840.6344	15750.0875
1843.7955	15723.4875
1846.95454	15717.3875
1850.11151	15710.2875
1853.26642	15678.7875
1856.41926	15665.0875
1859.57004	15681.7875
1862.71876	15638.4875
1865.86542	15623.7875
1869.01003	15599.2875
1872.15258	15617.5875
1875.29308	15595.5875
1878.43152	15538.9875
1881.56792	15568.8875
1884.70227	15537.4875
1887.83457	15533.6875
1890.96482	15504.6875
1894.09304	15484.3875
1897.21921	15472.4875
1900.34335	15451.3875
1903.46544	15431.4875
1906.58551	15413.9875
1909.70353	15378.0875
1912.81953	15366.8875
1915.93349	15349.5875
1919.04543	15295.8875
1922.15534	15235.9875
1925.26322	15224.0875
1928.36908	15219.0875
1931.47292	15198.3875
1934.57473	15142.0875
1937.67453	15111.6875
1940.77232	15053.3875
1943.86808	15019.3875
1946.96184	14993.4875
1950.05358	14938.9875
1953.14331	14895.9875
1956.23103	14863.6875
1959.31675	14836.9875
1962.40046	14777.5875
1965.48217	14760.9875
1968.56188	14698.3875
1971.63959	14665.9875
1974.7153	14632.3875
1977.78901	14568.7875
1980.86073	14502.6875
1983.93046	14488.5875
1986.99819	14418.5875
1990.06394	14395.4875
1993.1277	14353.6875
1996.18947	14317.7875
1999.24925	14284.5875
2002.30706	14232.4875
2005.36288	14187.4875
2008.41672	14120.4875
2011.46859	14116.8875
2014.51848	14080.5875
2017.56639	14041.3875
2020.61233	13999.7875
2023.6563	13988.3875
2026.6983	13939.0875
2029.73833	13912.7875
2032.7764	13878.1875
2035.8125	13876.6875
2038.84664	13838.4875
2041.87881	13813.0875
2044.90903	13769.6875
2047.93729	13722.3875
2050.96359	13751.1875
2053.98794	13709.3875
2057.01034	13694.2875
2060.03078	13693.5875
2063.04927	13667.3875
2066.06582	13669.0875
2069.08042	13676.8875
2072.09307	13662.7875
2075.10378	13651.7875
2078.11255	13652.3875
2081.11938	13621.8875
2084.12426	13625.8875
2087.12722	13601.3875
2090.12824	13608.5875
2093.12732	13588.4875
2096.12447	13615.6875
2099.11969	13603.9875
2102.11299	13600.3875
2105.10435	13599.7875
2108.09379	13615.3875
2111.08131	13622.7875
2114.0669	13599.0875
2117.05057	13607.3875
2120.03233	13617.1875
2123.01216	13629.4875
2125.99008	13636.7875
2128.96609	13651.5875
2131.94018	13656.6875
2134.91236	13669.0875
2137.88263	13641.4875
2140.851	13653.7875
2143.81746	13675.3875
2146.78201	13701.5875
2149.74466	13700.0875
2152.7054	13698.4875
2155.66425	13698.0875
2158.6212	13706.7875
2161.57625	13685.0875
2164.52941	13681.5875
2167.48067	13640.3875
2170.43004	13642.7875
2173.37752	13646.7875
2176.32311	13663.0875
2179.26681	13649.8875
2182.20863	13657.0875
2185.14856	13650.0875
2188.08661	13610.8875
2191.02278	13615.3875
2193.95707	13584.4875
2196.88948	13612.3875
2199.82001	13564.0875
2202.74867	13572.1875
2205.67545	13556.8875
2208.60037	13534.9875
2211.52341	13506.3875
2214.44458	13516.8875
2217.36388	13460.5875
2220.28132	13434.9875
2223.1969	13409.0875
2226.11061	13378.6875
2229.02246	13358.3875
2231.93245	13377.9875
2234.84058	13357.8875
2237.74686	13314.3875
2240.65128	13302.3875
2243.55385	13232.2875
2246.45456	13224.3875
2249.35343	13239.4875
2252.25044	13234.9875
2255.14561	13165.5875
2258.03893	13168.8875
2260.93041	13142.5875
2263.82004	13095.4875
2266.70783	13066.6875
2269.59378	13077.8875
2272.4779	13020.8875
2275.36017	12990.0875
2278.24061	12963.8875
2281.11922	12913.6875
2283.996	12904.0875
2286.87094	12876.3875
2289.74405	12852.6875
2292.61534	12822.7875
2295.4848	12816.4875
2298.35243	12819.1875
2301.21824	12804.7875
2304.08223	12774.5875
2306.94439	12771.5875
2309.80474	12784.2875
2312.66327	12789.8875
2315.51999	12772.3875
2318.37489	12758.7875
2321.22797	12767.3875
2324.07925	12758.3875
2326.92871	12706.0875
2329.77637	12734.7875
2332.62222	12703.5875
2335.46626	12659.2875
2338.3085	12673.7875
2341.14893	12647.6875
2343.98756	12623.2875
2346.8244	12602.4875
2349.65943	12613.7875
2352.49267	12602.8875
2355.32411	12598.3875
2358.15376	12580.5875
2360.98161	12549.4875
2363.80768	12570.1875
2366.63195	12556.7875
2369.45444	12527.9875
2372.27514	12536.5875
2375.09405	12516.7875
2377.91118	12463.3875
2380.72652	12487.2875
2383.54009	12455.5875
2386.35187	12434.1875
2389.16188	12404.6875
2391.97011	12394.6875
2394.77657	12351.9875
2397.58125	12340.2875
2400.38416	12301.9875
2403.18529	12301.7875
2405.98466	12289.6875
2408.78226	12250.7875
2411.57809	12258.8875
2414.37216	12217.7875
2417.16446	12242.2875
2419.955	12190.9875
2422.74378	12180.0875
2425.5308	12152.6875
2428.31606	12134.2875
2431.09956	12144.8875
2433.88131	12149.1875
2436.6613	12150.8875
2439.43954	12136.6875
2442.21603	12107.2875
2444.99077	12117.0875
2447.76377	12107.1875
2450.53501	12108.9875
2453.30451	12058.7875
2456.07226	12047.9875
2458.83827	12038.1875
2461.60254	12036.2875
2464.36507	12025.5875
2467.12586	12026.4875
2469.88492	11995.6875
2472.64224	11972.9875
2475.39782	11987.8875
2478.15167	12021.1875
2480.90379	11999.6875
2483.65417	11999.1875
2486.40283	11994.4875
2489.14976	11983.5875
2491.89497	12010.3875
2494.63845	11978.4875
2497.3802	11995.8875
2500.12024	11963.7875
2502.85855	11957.5875
2505.59514	11958.7875
2508.33002	11948.9875
2511.06318	11922.5875
2513.79462	11908.2875
2516.52435	11894.1875
2519.25237	11889.5875
2521.97867	11870.0875
2524.70327	11889.3875
2527.42616	11845.8875
2530.14734	11824.7875
2532.86681	11824.5875
2535.58458	11833.6875
2538.30065	11800.8875
2541.01501	11805.2875
2543.72768	11790.2875
2546.43864	11783.2875
2549.14791	11755.5875
2551.85548	11729.2875
2554.56136	11712.5875
2557.26554	11682.8875
2559.96803	11714.1875
2562.66883	11689.5875
2565.36794	11659.5875
2568.06536	11656.4875
2570.7611	11639.8875
2573.45514	11641.9875
2576.14751	11613.7875
2578.83819	11589.5875
2581.52719	11565.2875
2584.21451	11560.0875
2586.90015	11576.2875
2589.58411	11537.0875
2592.2664	11520.8875
2594.94701	11495.6875
2597.62594	11485.3875
2600.30321	11469.8875
2602.9788	11437.8875
2605.65273	11440.2875
2608.32498	11441.9875
2610.99557	11428.8875
2613.66449	11426.3875
2616.33175	11402.4875
2618.99734	11404.5875
2621.66128	11421.4875
2624.32355	11394.7875
2626.98416	11385.3875
2629.64311	11375.6875
2632.30041	11371.9875
2634.95605	11355.8875
2637.61004	11333.5875
2640.26238	11319.7875
2642.91306	11331.0875
2645.56209	11333.7875
2648.20948	11304.4875
2650.85521	11307.8875
2653.4993	11318.3875
2656.14175	11325.1875
2658.78255	11288.8875
2661.42171	11307.9875
2664.05923	11305.6875
2666.6951	11311.0875
2669.32934	11285.0875
2671.96194	11319.9875
2674.59291	11312.9875
2677.22224	11302.1875
2679.84993	11304.9875
2682.476	11285.2875
2685.10043	11292.5875
2687.72324	11293.6875
2690.34441	11286.1875
2692.96396	11276.7875
2695.58188	11306.3875
2698.19818	11279.0875
2700.81285	11287.3875
2703.4259	11298.9875
2706.03733	11343.4875
2708.64714	11310.8875
2711.25533	11314.5875
2713.86191	11284.8875
2716.46687	11336.1875
2719.07021	11302.5875
2721.67194	11316.6875
2724.27206	11299.8875
2726.87057	11307.6875
2729.46747	11305.4875
2732.06276	11317.6875
2734.65644	11286.0875
2737.24852	11299.5875
2739.83899	11262.1875
2742.42786	11285.5875
2745.01513	11268.0875
2747.60079	11282.8875
2750.18486	11260.6875
2752.76733	11296.6875
2755.3482	11269.3875
2757.92747	11236.4875
2760.50515	11212.0875
2763.08123	11228.7875
2765.65573	11187.0875
2768.22863	11221.3875
2770.79994	11219.2875
2773.36967	11200.1875
2775.9378	11190.8875
2778.50435	11192.7875
2781.06932	11156.4875
2783.6327	11148.5875
2786.1945	11126.9875
2788.75471	11127.3875
2791.31335	11098.1875
2793.87041	11096.7875
2796.42589	11055.7875
2798.97979	11040.7875
2801.53212	11015.6875
2804.08288	11023.6875
2806.63206	10970.4875
2809.17967	10958.3875
2811.72571	10900.5875
2814.27018	10905.2875
2816.81308	10904.8875
2819.35442	10877.7875
2821.89419	10839.3875
2824.43239	10861.9875
2826.96904	10832.5875
2829.50412	10826.2875
2832.03763	10808.5875
2834.56959	10827.2875
2837.1	10811.8875
2839.62884	10811.5875
2842.15613	10823.5875
2844.68186	10819.4875
2847.20604	10834.4875
2849.72867	10865.5875
2852.24974	10836.6875
2854.76927	10835.6875
2857.28724	10814.2875
2859.80367	10795.5875
2862.31855	10803.0875
2864.83189	10779.8875
2867.34368	10777.9875
2869.85393	10751.5875
2872.36264	10728.0875
2874.8698	10747.4875
2877.37543	10745.2875
2879.87952	10749.2875
2882.38207	10730.4875
2884.88308	10754.8875
2887.38256	10738.2875
2889.88051	10754.0875
2892.37692	10729.9875
2894.8718	10718.7875
2897.36515	10718.5875
2899.85698	10718.9875
2902.34727	10742.6875
2904.83604	10775.8875
2907.32328	10785.6875
2909.809	10769.3875
2912.29319	10764.1875
2914.77587	10799.8875
2917.25702	10754.6875
2919.73665	10777.8875
2922.21476	10795.8875
2924.69136	10781.8875
2927.16644	10786.2875
2929.64	10778.6875
2932.11205	10742.3875
2934.58258	10744.8875
2937.05161	10739.5875
2939.51912	10740.2875
2941.98513	10719.0875
2944.44962	10723.0875
2946.91261	10627.8875
2949.37409	10671.2875
2951.83407	10634.4875
2954.29254	10635.2875
2956.74951	10614.9875
2959.20498	10605.9875
2961.65895	10583.5875
2964.11142	10575.0875
2966.56239	10561.4875
2969.01186	10557.0875
2971.45984	10502.2875
2973.90632	10491.9875
2976.35131	10463.7875
2978.7948	10448.6875
2981.23681	10431.2875
2983.67732	10408.9875
2986.11635	10402.1875
2988.55388	10352.3875
2990.98993	10338.4875
2993.4245	10319.1875
2995.85758	10306.9875
2998.28917	10266.6875
3000.71928	10246.3875
3003.14791	10225.0875
3005.57506	10210.5875
3008.00073	10222.2875
3010.42493	10190.1875
3012.84764	10188.3875
3015.26888	10172.3875
3017.68865	10141.8875
3020.10694	10122.3875
3022.52376	10097.8875
3024.9391	10082.8875
