Data from AgNP_FTO_APTES_CRN_200uM_R6G_10uM_NaF_0.1M_Addition_RamanShift__34__19-56-38-202.txt Node

Date: Wed Dec 15 19:56:38 GMT 2021
User: TCL
Spectrometer: QEP01345
Trigger mode: 4
Integration Time (sec): 7.000000E0
Scans to average: 10
Electric dark correction enabled: true
Nonlinearity correction enabled: false
Boxcar width: 0
XAxis mode: Raman Shifts
Number of Pixels in Spectrum: 1044
>>>>>Begin Spectral Data<<<<<
46.04893	1.2375
50.45542	-0.9625
54.85868	-1.4625
59.25871	0.3375
63.6555	41.3375
68.04907	46.5375
72.43941	46.6375
76.82654	54.8375
81.21044	54.7375
85.59113	57.1375
89.96862	61.7375
94.34289	58.5375
98.71396	62.9375
103.08183	67.4375
107.4465	66.7375
111.80798	69.3375
116.16626	69.3375
120.52136	72.5375
124.87327	68.7375
129.222	71.2375
133.56755	71.7375
137.90993	75.1375
142.24913	81.0375
146.58517	84.7375
150.91804	96.3375
155.24774	108.8375
159.57429	134.1375
163.89768	167.7375
168.21792	212.6375
172.53501	277.4375
176.84895	375.6375
181.15975	517.8375
185.46741	724.2375
189.77193	994.1375
194.07331	1320.7375
198.37157	1692.6375
202.6667	2089.2375
206.9587	2480.2375
211.24758	2875.2375
215.53334	3291.8375
219.81599	3756.7375
224.09553	4243.6375
228.37195	4820.0375
232.64527	5414.0375
236.91549	6024.6375
241.18261	6569.3375
245.44663	7009.0375
249.70755	7356.0375
253.96539	7646.9375
258.22014	7915.5375
262.4718	8157.2375
266.72039	8332.2375
270.96589	8394.2375
275.20832	8417.4375
279.44768	8304.9375
283.68397	8195.5375
287.91719	8105.5375
292.14735	8148.6375
296.37445	8302.8375
300.59849	8620.1375
304.81948	8989.1375
309.03742	9281.2375
313.25231	9279.9375
317.46415	8865.3375
321.67296	8194.1375
325.87872	7618.9375
330.08145	7361.5375
334.28114	7328.6375
338.47781	7470.2375
342.67145	7682.8375
346.86207	7996.9375
351.04966	8498.9375
355.23424	9063.9375
359.4158	9502.5375
363.59435	9671.9375
367.76989	9713.5375
371.94243	9677.4375
376.11196	9593.4375
380.27849	9536.3375
384.44203	9420.5375
388.60257	9264.7375
392.76012	9199.2375
396.91468	9274.6375
401.06626	9497.2375
405.21485	9683.8375
409.36047	9508.9375
413.50311	9031.4375
417.64277	8572.2375
421.77947	8262.4375
425.9132	8171.0375
430.04396	8150.3375
434.17176	8233.9375
438.2966	8357.5375
442.41849	8573.3375
446.53742	8871.4375
450.6534	9115.1375
454.76644	9260.8375
458.87653	9277.5375
462.98368	9177.2375
467.08789	9019.2375
471.18916	8858.3375
475.2875	8624.6375
479.38291	8438.4375
483.4754	8287.9375
487.56496	8139.9375
491.6516	8065.2375
495.73531	8042.4375
499.81612	8071.1375
503.89401	8179.1375
507.96899	8286.1375
512.04106	8488.4375
516.11023	8694.8375
520.1765	8854.6375
524.23987	8832.6375
528.30034	8699.9375
532.35792	8500.2375
536.41261	8297.6375
540.46441	8099.2375
544.51333	7965.1375
548.55936	7988.6375
552.60252	8170.5375
556.64279	8370.3375
560.6802	8481.4375
564.71473	8618.2375
568.7464	8983.1375
572.7752	9169.8375
576.80114	8859.3375
580.82422	8505.3375
584.84444	8327.7375
588.86181	8331.1375
592.87633	8436.3375
596.888	8596.8375
600.89682	8844.3375
604.9028	9853.5375
608.90594	12556.4375
612.90624	16170.2375
616.90371	15579.7375
620.89834	10930.1375
624.89015	8688.2375
628.87913	8235.4375
632.86528	8283.9375
636.84862	8400.1375
640.82913	8303.6375
644.80683	8003.9375
648.78172	7830.6375
652.75379	7877.8375
656.72306	8242.7375
660.68952	8638.6375
664.65319	8548.1375
668.61405	8121.7375
672.57211	7916.6375
676.52738	7910.4375
680.47986	7930.2375
684.42955	7891.2375
688.37646	7846.2375
692.32058	7868.4375
696.26192	7968.2375
700.20048	8056.9375
704.13626	8111.4375
708.06928	8066.2375
711.99952	7980.6375
715.927	7916.7375
719.85171	7941.9375
723.77365	7924.8375
727.69284	7829.1375
731.60928	7734.4375
735.52295	7714.6375
739.43388	7748.3375
743.34206	7750.8375
747.24749	7738.0375
751.15017	7786.9375
755.05012	7965.7375
758.94733	8346.5375
762.8418	9258.6375
766.73354	10777.9375
770.62254	12428.7375
774.50882	13262.6375
778.39237	12734.0375
782.27321	11035.3375
786.15132	9336.7375
790.02671	8341.8375
793.89938	7936.5375
797.76935	7736.9375
801.6366	7657.6375
805.50115	7607.0375
809.36299	7568.1375
813.22213	7564.2375
817.07857	7535.4375
820.93231	7544.8375
824.78336	7569.6375
828.63172	7623.8375
832.47738	7654.9375
836.32036	7638.6375
840.16066	7586.8375
843.99827	7507.0375
847.8332	7490.4375
851.66546	7472.4375
855.49504	7483.6375
859.32195	7421.7375
863.1462	7406.8375
866.96777	7359.3375
870.78668	7361.6375
874.60293	7350.7375
878.41652	7363.8375
882.22745	7385.5375
886.03573	7420.0375
889.84136	7417.9375
893.64433	7374.4375
897.44466	7353.3375
901.24235	7361.9375
905.0374	7324.4375
908.8298	7319.5375
912.61957	7308.5375
916.40671	7320.8375
920.19121	7382.3375
923.97308	7434.7375
927.75233	7518.5375
931.52895	7613.1375
935.30295	7544.0375
939.07433	7299.2375
942.84309	7117.1375
946.60924	6997.0375
950.37278	6928.4375
954.13371	6886.3375
957.89203	6836.2375
961.64774	6836.1375
965.40086	6799.7375
969.15137	6787.1375
972.89929	6764.9375
976.64461	6782.8375
980.38733	6752.3375
984.12747	6757.0375
987.86502	6791.3375
991.59999	6809.9375
995.33237	6865.9375
999.06217	6977.2375
1002.78939	7096.0375
1006.51404	7239.4375
1010.23611	7383.0375
1013.95561	7478.4375
1017.67255	7460.9375
1021.38692	7341.6375
1025.09872	7224.1375
1028.80796	7148.6375
1032.51465	7160.6375
1036.21877	7221.8375
1039.92035	7347.0375
1043.61937	7408.7375
1047.31584	7415.2375
1051.00976	7422.0375
1054.70114	7423.4375
1058.38998	7413.7375
1062.07627	7492.0375
1065.76003	7577.1375
1069.44126	7715.4375
1073.11995	7925.9375
1076.79611	8137.5375
1080.46974	8285.4375
1084.14085	8398.4375
1087.80943	8466.0375
1091.47549	8422.7375
1095.13903	8161.7375
1098.80005	7837.4375
1102.45857	7577.0375
1106.11456	7473.2375
1109.76805	7536.8375
1113.41903	7695.6375
1117.06751	7965.9375
1120.71348	8317.7375
1124.35696	8735.5375
1127.99793	9002.7375
1131.63641	8969.9375
1135.2724	8513.8375
1138.90589	8112.7375
1142.5369	7845.2375
1146.16542	7676.1375
1149.79145	7584.9375
1153.415	7595.4375
1157.03607	7651.2375
1160.65467	7807.2375
1164.27079	8079.5375
1167.88443	8529.5375
1171.49561	9257.7375
1175.10432	10456.8375
1178.71056	12013.0375
1182.31434	12963.3375
1185.91565	13003.6375
1189.51451	12548.1375
1193.11091	11735.8375
1196.70485	10875.2375
1200.29634	10194.7375
1203.88538	9677.2375
1207.47197	9099.0375
1211.05612	8589.4375
1214.63782	8352.3375
1218.21708	8274.4375
1221.79391	8279.3375
1225.36829	8297.4375
1228.94024	8322.6375
1232.50976	8325.5375
1236.07685	8341.4375
1239.6415	8408.1375
1243.20374	8452.6375
1246.76355	8533.5375
1250.32093	8619.9375
1253.8759	8781.4375
1257.42845	9026.4375
1260.97859	9280.3375
1264.52631	9534.2375
1268.07163	9820.5375
1271.61453	10042.0375
1275.15503	10169.1375
1278.69312	10192.7375
1282.22882	10198.5375
1285.76211	10403.3375
1289.29301	10745.8375
1292.82151	11111.0375
1296.34761	11435.1375
1299.87133	12024.6375
1303.39266	12930.8375
1306.9116	14369.2375
1310.42815	16051.4375
1313.94233	17054.3375
1317.45412	16640.9375
1320.96354	15412.2375
1324.47058	14027.2375
1327.97525	12909.7375
1331.47754	12250.7375
1334.97747	12009.9375
1338.47502	12162.5375
1341.97022	12494.4375
1345.46305	13002.5375
1348.95352	13882.5375
1352.44163	15135.4375
1355.92738	16849.4375
1359.41078	19378.6375
1362.89183	21658.5375
1366.37053	20992.1375
1369.84688	17784.4375
1373.32088	14640.7375
1376.79254	12623.3375
1380.26186	11568.6375
1383.72883	10997.7375
1387.19347	10567.4375
1390.65578	10087.1375
1394.11575	9694.5375
1397.57339	9471.9375
1401.0287	9442.9375
1404.48168	9516.0375
1407.93234	9580.8375
1411.38068	9634.8375
1414.82669	9606.7375
1418.27039	9512.3375
1421.71177	9349.8375
1425.15083	9188.9375
1428.58758	9116.8375
1432.02203	9142.4375
1435.45416	9223.2375
1438.88399	9292.2375
1442.31151	9309.9375
1445.73673	9297.2375
1449.15965	9337.1375
1452.58027	9298.5375
1455.9986	9198.6375
1459.41463	9174.9375
1462.82837	9264.3375
1466.23982	9448.2375
1469.64898	9695.6375
1473.05586	9887.1375
1476.46045	10023.9375
1479.86276	10209.9375
1483.26279	10422.9375
1486.66054	10692.3375
1490.05602	11042.4375
1493.44922	11549.4375
1496.84016	12291.7375
1500.22882	13499.3375
1503.61521	15129.1375
1506.99934	16940.5375
1510.38121	18639.1375
1513.76081	19481.5375
1517.13816	18539.5375
1520.51324	16209.8375
1523.88607	13880.3375
1527.25665	12332.0375
1530.62498	11457.6375
1533.99105	10984.5375
1537.35488	10683.3375
1540.71647	10501.8375
1544.07581	10433.3375
1547.4329	10359.6375
1550.78776	10323.6375
1554.14038	10297.5375
1557.49077	10357.6375
1560.83892	10523.2375
1564.18484	10835.6375
1567.52853	11256.0375
1570.86999	11649.1375
1574.20922	12002.4375
1577.54624	12107.8375
1580.88103	11651.8375
1584.2136	10828.9375
1587.54395	10239.2375
1590.87208	10052.1375
1594.19801	10384.8375
1597.52172	11006.6375
1600.84321	11323.5375
1604.16251	11019.6375
1607.47959	10353.6375
1610.79447	9622.1375
1614.10715	8902.0375
1617.41763	8341.5375
1620.7259	7994.9375
1624.03199	7855.0375
1627.33587	7838.9375
1630.63757	7955.0375
1633.93707	8270.4375
1637.23439	8775.9375
1640.52951	9563.8375
1643.82246	10722.3375
1647.11321	12127.4375
1650.40179	13232.0375
1653.68819	13008.9375
1656.97241	11431.2375
1660.25446	9607.6375
1663.53433	8292.5375
1666.81203	7529.0375
1670.08756	7059.7375
1673.36092	6799.2375
1676.63211	6624.8375
1679.90115	6495.3375
1683.16801	6417.3375
1686.43272	6324.2375
1689.69527	6295.3375
1692.95567	6270.8375
1696.2139	6266.4375
1699.46999	6248.6375
1702.72392	6222.9375
1705.97571	6208.3375
1709.22535	6184.8375
1712.47284	6156.7375
1715.71819	6165.4375
1718.96139	6168.2375
1722.20246	6147.7375
1725.44139	6130.7375
1728.67818	6089.0375
1731.91284	6027.1375
1735.14537	5986.0375
1738.37576	5948.3375
1741.60403	5926.9375
1744.83017	5921.5375
1748.05418	5886.3375
1751.27607	5891.7375
1754.49584	5864.7375
1757.71349	5874.5375
1760.92903	5862.1375
1764.14244	5840.2375
1767.35375	5815.6375
1770.56294	5812.5375
1773.77002	5798.9375
1776.97499	5753.8375
1780.17785	5747.1375
1783.37861	5729.1375
1786.57727	5695.3375
1789.77382	5683.9375
1792.96828	5677.8375
1796.16064	5666.4375
1799.3509	5632.1375
1802.53907	5651.2375
1805.72514	5614.9375
1808.90913	5604.1375
1812.09102	5589.7375
1815.27083	5555.2375
1818.44856	5558.0375
1821.6242	5533.8375
1824.79776	5539.6375
1827.96924	5543.6375
1831.13864	5523.8375
1834.30597	5521.2375
1837.47122	5496.2375
1840.6344	5491.9375
1843.7955	5482.8375
1846.95454	5490.3375
1850.11151	5486.2375
1853.26642	5468.7375
1856.41926	5484.8375
1859.57004	5466.2375
1862.71876	5466.3375
1865.86542	5476.7375
1869.01003	5462.5375
1872.15258	5460.1375
1875.29308	5444.6375
1878.43152	5440.6375
1881.56792	5428.7375
1884.70227	5442.8375
1887.83457	5462.1375
1890.96482	5439.2375
1894.09304	5424.0375
1897.21921	5416.1375
1900.34335	5429.3375
1903.46544	5416.1375
1906.58551	5414.1375
1909.70353	5399.3375
1912.81953	5394.1375
1915.93349	5406.0375
1919.04543	5404.1375
1922.15534	5378.1375
1925.26322	5368.7375
1928.36908	5363.8375
1931.47292	5365.2375
1934.57473	5330.5375
1937.67453	5316.3375
1940.77232	5299.2375
1943.86808	5258.8375
1946.96184	5243.1375
1950.05358	5238.7375
1953.14331	5210.7375
1956.23103	5183.5375
1959.31675	5177.8375
1962.40046	5175.3375
1965.48217	5146.0375
1968.56188	5166.7375
1971.63959	5143.1375
1974.7153	5108.1375
1977.78901	5098.0375
1980.86073	5060.1375
1983.93046	5057.5375
1986.99819	5028.0375
1990.06394	5019.5375
1993.1277	5003.0375
1996.18947	4989.0375
1999.24925	4980.6375
2002.30706	4951.1375
2005.36288	4942.4375
2008.41672	4925.4375
2011.46859	4918.9375
2014.51848	4882.2375
2017.56639	4883.6375
2020.61233	4870.4375
2023.6563	4870.1375
2026.6983	4851.0375
2029.73833	4839.6375
2032.7764	4823.6375
2035.8125	4821.0375
2038.84664	4786.1375
2041.87881	4791.7375
2044.90903	4790.0375
2047.93729	4767.3375
2050.96359	4760.2375
2053.98794	4744.7375
2057.01034	4744.7375
2060.03078	4732.4375
2063.04927	4730.4375
2066.06582	4729.5375
2069.08042	4734.1375
2072.09307	4707.0375
2075.10378	4724.2375
2078.11255	4691.4375
2081.11938	4705.9375
2084.12426	4712.7375
2087.12722	4704.5375
2090.12824	4698.0375
2093.12732	4703.7375
2096.12447	4700.3375
2099.11969	4698.5375
2102.11299	4701.8375
2105.10435	4706.6375
2108.09379	4704.6375
2111.08131	4708.6375
2114.0669	4712.7375
2117.05057	4690.7375
2120.03233	4708.2375
2123.01216	4722.9375
2125.99008	4706.8375
2128.96609	4722.0375
2131.94018	4710.9375
2134.91236	4715.1375
2137.88263	4724.0375
2140.851	4711.6375
2143.81746	4707.8375
2146.78201	4713.4375
2149.74466	4705.2375
2152.7054	4712.2375
2155.66425	4716.8375
2158.6212	4703.8375
2161.57625	4711.1375
2164.52941	4712.3375
2167.48067	4704.9375
2170.43004	4684.8375
2173.37752	4680.3375
2176.32311	4686.9375
2179.26681	4685.3375
2182.20863	4667.8375
2185.14856	4678.0375
2188.08661	4688.6375
2191.02278	4674.5375
2193.95707	4663.4375
2196.88948	4660.8375
2199.82001	4654.5375
2202.74867	4634.1375
2205.67545	4637.8375
2208.60037	4642.4375
2211.52341	4627.0375
2214.44458	4645.6375
2217.36388	4623.1375
2220.28132	4596.7375
2223.1969	4575.6375
2226.11061	4574.1375
2229.02246	4577.1375
2231.93245	4557.2375
2234.84058	4539.5375
2237.74686	4539.7375
2240.65128	4545.2375
2243.55385	4524.4375
2246.45456	4504.5375
2249.35343	4515.9375
2252.25044	4501.5375
2255.14561	4495.2375
2258.03893	4515.6375
2260.93041	4492.2375
2263.82004	4500.9375
2266.70783	4480.9375
2269.59378	4482.3375
2272.4779	4456.2375
2275.36017	4452.0375
2278.24061	4435.0375
2281.11922	4421.4375
2283.996	4410.0375
2286.87094	4390.5375
2289.74405	4390.2375
2292.61534	4374.5375
2295.4848	4375.3375
2298.35243	4386.2375
2301.21824	4354.2375
2304.08223	4353.2375
2306.94439	4351.4375
2309.80474	4350.1375
2312.66327	4335.2375
2315.51999	4341.6375
2318.37489	4322.3375
2321.22797	4326.0375
2324.07925	4338.3375
2326.92871	4319.0375
2329.77637	4315.1375
2332.62222	4318.4375
2335.46626	4290.5375
2338.3085	4305.5375
2341.14893	4299.9375
2343.98756	4280.6375
2346.8244	4274.8375
2349.65943	4282.7375
2352.49267	4280.0375
2355.32411	4288.0375
2358.15376	4294.1375
2360.98161	4306.8375
2363.80768	4295.2375
2366.63195	4299.4375
2369.45444	4310.4375
2372.27514	4313.5375
2375.09405	4300.6375
2377.91118	4283.4375
2380.72652	4265.8375
2383.54009	4250.3375
2386.35187	4236.3375
2389.16188	4218.3375
2391.97011	4206.7375
2394.77657	4194.1375
2397.58125	4181.9375
2400.38416	4168.8375
2403.18529	4159.0375
2405.98466	4151.1375
2408.78226	4146.6375
2411.57809	4129.9375
2414.37216	4125.6375
2417.16446	4120.3375
2419.955	4114.5375
2422.74378	4114.3375
2425.5308	4109.2375
2428.31606	4117.2375
2431.09956	4104.8375
2433.88131	4101.3375
2436.6613	4108.3375
2439.43954	4077.4375
2442.21603	4087.2375
2444.99077	4088.7375
2447.76377	4081.1375
2450.53501	4088.1375
2453.30451	4086.6375
2456.07226	4081.3375
2458.83827	4067.3375
2461.60254	4072.2375
2464.36507	4065.6375
2467.12586	4058.2375
2469.88492	4066.5375
2472.64224	4051.5375
2475.39782	4059.6375
2478.15167	4071.7375
2480.90379	4072.1375
2483.65417	4080.2375
2486.40283	4068.3375
2489.14976	4091.1375
2491.89497	4083.3375
2494.63845	4097.5375
2497.3802	4082.4375
2500.12024	4057.8375
2502.85855	4051.4375
2505.59514	4046.8375
2508.33002	4036.0375
2511.06318	4029.8375
2513.79462	4008.9375
2516.52435	3998.8375
2519.25237	3980.8375
2521.97867	3951.2375
2524.70327	3958.8375
2527.42616	3956.2375
2530.14734	3952.0375
2532.86681	3955.4375
2535.58458	3939.4375
2538.30065	3929.2375
2541.01501	3926.5375
2543.72768	3936.2375
2546.43864	3925.8375
2549.14791	3914.5375
2551.85548	3905.2375
2554.56136	3906.7375
2557.26554	3906.4375
2559.96803	3881.1375
2562.66883	3889.2375
2565.36794	3884.0375
2568.06536	3892.4375
2570.7611	3882.4375
2573.45514	3863.9375
2576.14751	3860.9375
2578.83819	3842.7375
2581.52719	3852.1375
2584.21451	3828.5375
2586.90015	3815.8375
2589.58411	3812.5375
2592.2664	3810.3375
2594.94701	3807.8375
2597.62594	3799.4375
2600.30321	3782.7375
2602.9788	3786.3375
2605.65273	3773.4375
2608.32498	3774.6375
2610.99557	3774.0375
2613.66449	3779.4375
2616.33175	3761.7375
2618.99734	3768.6375
2621.66128	3758.4375
2624.32355	3765.1375
2626.98416	3744.7375
2629.64311	3744.5375
2632.30041	3738.8375
2634.95605	3727.9375
2637.61004	3726.3375
2640.26238	3707.2375
2642.91306	3699.7375
2645.56209	3714.8375
2648.20948	3711.7375
2650.85521	3706.8375
2653.4993	3707.7375
2656.14175	3706.2375
2658.78255	3691.9375
2661.42171	3702.2375
2664.05923	3708.9375
2666.6951	3708.1375
2669.32934	3701.9375
2671.96194	3710.0375
2674.59291	3707.0375
2677.22224	3707.9375
2679.84993	3722.0375
2682.476	3728.3375
2685.10043	3715.8375
2687.72324	3713.5375
2690.34441	3715.2375
2692.96396	3728.1375
2695.58188	3719.5375
2698.19818	3704.3375
2700.81285	3722.4375
2703.4259	3721.7375
2706.03733	3780.3375
2708.64714	3752.8375
2711.25533	3751.7375
2713.86191	3740.8375
2716.46687	3738.0375
2719.07021	3734.2375
2721.67194	3746.8375
2724.27206	3731.6375
2726.87057	3736.9375
2729.46747	3733.2375
2732.06276	3747.8375
2734.65644	3719.3375
2737.24852	3720.2375
2739.83899	3694.9375
2742.42786	3700.0375
2745.01513	3693.4375
2747.60079	3688.1375
2750.18486	3674.8375
2752.76733	3685.4375
2755.3482	3674.9375
2757.92747	3665.0375
2760.50515	3663.7375
2763.08123	3640.1375
2765.65573	3641.7375
2768.22863	3642.6375
2770.79994	3634.6375
2773.36967	3629.2375
2775.9378	3640.0375
2778.50435	3620.8375
2781.06932	3630.0375
2783.6327	3622.7375
2786.1945	3630.8375
2788.75471	3636.6375
2791.31335	3615.3375
2793.87041	3609.7375
2796.42589	3611.1375
2798.97979	3608.9375
2801.53212	3609.1375
2804.08288	3600.7375
2806.63206	3595.8375
2809.17967	3600.9375
2811.72571	3612.8375
2814.27018	3611.6375
2816.81308	3618.2375
2819.35442	3617.1375
2821.89419	3602.8375
2824.43239	3632.6375
2826.96904	3615.7375
2829.50412	3616.8375
2832.03763	3607.5375
2834.56959	3645.1375
2837.1	3646.8375
2839.62884	3656.9375
2842.15613	3684.0375
2844.68186	3747.6375
2847.20604	3799.2375
2849.72867	3848.3375
2852.24974	3862.7375
2854.76927	3881.2375
2857.28724	3868.3375
2859.80367	3849.8375
2862.31855	3839.0375
2864.83189	3803.2375
2867.34368	3797.1375
2869.85393	3793.6375
2872.36264	3788.0375
2874.8698	3777.1375
2877.37543	3781.3375
2879.87952	3787.5375
2882.38207	3797.0375
2884.88308	3783.8375
2887.38256	3783.6375
2889.88051	3767.0375
2892.37692	3777.9375
2894.8718	3769.4375
2897.36515	3785.4375
2899.85698	3789.4375
2902.34727	3792.4375
2904.83604	3795.6375
2907.32328	3803.2375
2909.809	3804.6375
2912.29319	3795.3375
2914.77587	3779.7375
2917.25702	3773.5375
2919.73665	3769.9375
2922.21476	3754.7375
2924.69136	3770.8375
2927.16644	3746.9375
2929.64	3753.6375
2932.11205	3735.3375
2934.58258	3712.9375
2937.05161	3705.8375
2939.51912	3691.5375
2941.98513	3678.6375
2944.44962	3638.6375
2946.91261	3583.5375
2949.37409	3580.3375
2951.83407	3556.7375
2954.29254	3538.5375
2956.74951	3515.3375
2959.20498	3512.8375
2961.65895	3491.1375
2964.11142	3492.2375
2966.56239	3469.4375
2969.01186	3467.3375
2971.45984	3453.2375
2973.90632	3447.2375
2976.35131	3418.2375
2978.7948	3417.0375
2981.23681	3406.1375
2983.67732	3392.2375
2986.11635	3390.3375
2988.55388	3366.3375
2990.98993	3366.6375
2993.4245	3353.6375
2995.85758	3341.8375
2998.28917	3343.6375
3000.71928	3333.5375
3003.14791	3323.0375
3005.57506	3320.8375
3008.00073	3317.0375
3010.42493	3323.4375
3012.84764	3309.7375
3015.26888	3305.3375
3017.68865	3296.0375
3020.10694	3306.3375
3022.52376	3293.8375
3024.9391	3285.2375
3027.35298	3283.2375
3029.76539	3281.7375
3032.17632	3275.5375
3034.5858	3273.0375
3036.9938	3272.1375
3039.40034	3267.3375
3041.80542	3270.5375
3044.20903	3249.0375
3046.61118	3259.3375
3049.01187	3235.3375
3051.4111	3248.8375
3053.80888	3242.0375
3056.20519	3242.9375
3058.60005	3235.0375
3060.99345	3233.7375
3063.3854	3216.2375
3065.7759	3220.3375
3068.16494	3230.6375
3070.55254	3228.2375
3072.93868	3216.2375
3075.32338	3212.4375
3077.70662	3203.6375
3080.08842	3175.2375
3082.46878	3184.7375
3084.84769	3186.8375
3087.22515	3182.7375
3089.60118	3189.2375
3091.97576	3171.6375
3094.3489	3174.7375
3096.72061	3186.7375
3099.09087	3179.8375
3101.4597	3183.4375
3103.82709	3182.9375
3106.19305	3177.7375
3108.55757	3169.8375
3110.92066	3169.3375
3113.28232	3167.5375
3115.64255	3157.9375
