Data from AgNP_FTO_APTES_CRN_100uM_R6G_10uM_NaF_0.1M_Addition_RamanShift__35__19-12-18-151.txt Node

Date: Wed Dec 15 19:12:18 GMT 2021
User: TCL
Spectrometer: QEP01345
Trigger mode: 4
Integration Time (sec): 7.000000E0
Scans to average: 10
Electric dark correction enabled: true
Nonlinearity correction enabled: false
Boxcar width: 0
XAxis mode: Raman Shifts
Number of Pixels in Spectrum: 1044
>>>>>Begin Spectral Data<<<<<
46.04893	0.8375
50.45542	-1.2625
54.85868	-0.9625
59.25871	0.2375
63.6555	37.8375
68.04907	46.2375
72.43941	46.6375
76.82654	50.4375
81.21044	53.5375
85.59113	55.7375
89.96862	61.8375
94.34289	55.7375
98.71396	59.4375
103.08183	67.1375
107.4465	64.8375
111.80798	68.4375
116.16626	67.5375
120.52136	71.6375
124.87327	68.9375
129.222	70.1375
133.56755	70.8375
137.90993	74.8375
142.24913	80.1375
146.58517	84.4375
150.91804	93.8375
155.24774	105.8375
159.57429	126.7375
163.89768	157.2375
168.21792	201.9375
172.53501	270.0375
176.84895	364.1375
181.15975	502.0375
185.46741	697.0375
189.77193	958.9375
194.07331	1275.4375
198.37157	1632.6375
202.6667	2012.0375
206.9587	2398.4375
211.24758	2772.6375
215.53334	3177.8375
219.81599	3611.1375
224.09553	4099.9375
228.37195	4637.8375
232.64527	5244.3375
236.91549	5820.5375
241.18261	6342.6375
245.44663	6787.6375
249.70755	7101.9375
253.96539	7388.9375
258.22014	7636.2375
262.4718	7876.6375
266.72039	8060.0375
270.96589	8152.1375
275.20832	8149.1375
279.44768	8067.3375
283.68397	7941.4375
287.91719	7904.5375
292.14735	7928.3375
296.37445	8076.5375
300.59849	8373.2375
304.81948	8728.0375
309.03742	9017.0375
313.25231	8998.4375
317.46415	8597.4375
321.67296	7953.8375
325.87872	7404.9375
330.08145	7154.9375
334.28114	7124.2375
338.47781	7250.6375
342.67145	7454.2375
346.86207	7779.3375
351.04966	8243.0375
355.23424	8833.5375
359.4158	9198.9375
363.59435	9380.2375
367.76989	9414.9375
371.94243	9375.4375
376.11196	9303.1375
380.27849	9228.5375
384.44203	9108.1375
388.60257	9001.4375
392.76012	8931.1375
396.91468	9005.8375
401.06626	9244.1375
405.21485	9442.7375
409.36047	9273.7375
413.50311	8785.2375
417.64277	8336.4375
421.77947	8081.7375
425.9132	7987.3375
430.04396	7961.6375
434.17176	8024.5375
438.2966	8138.8375
442.41849	8364.4375
446.53742	8653.2375
450.6534	8892.1375
454.76644	9059.1375
458.87653	9071.4375
462.98368	8970.5375
467.08789	8813.9375
471.18916	8645.8375
475.2875	8419.3375
479.38291	8235.8375
483.4754	8067.8375
487.56496	7965.6375
491.6516	7883.0375
495.73531	7856.5375
499.81612	7855.6375
503.89401	7965.0375
507.96899	8069.5375
512.04106	8232.5375
516.11023	8423.6375
520.1765	8573.5375
524.23987	8589.1375
528.30034	8440.5375
532.35792	8250.5375
536.41261	8031.9375
540.46441	7834.6375
544.51333	7716.6375
548.55936	7749.5375
552.60252	7928.9375
556.64279	8125.8375
560.6802	8260.1375
564.71473	8391.8375
568.7464	8709.2375
572.7752	8914.1375
576.80114	8640.0375
580.82422	8321.2375
584.84444	8161.7375
588.86181	8172.6375
592.87633	8312.2375
596.888	8432.5375
600.89682	8681.0375
604.9028	9630.3375
608.90594	12233.1375
612.90624	15697.7375
616.90371	15105.9375
620.89834	10595.5375
624.89015	8405.9375
628.87913	7980.0375
632.86528	8006.3375
636.84862	8140.2375
640.82913	8071.0375
644.80683	7779.9375
648.78172	7563.8375
652.75379	7628.1375
656.72306	7973.2375
660.68952	8346.1375
664.65319	8296.6375
668.61405	7874.8375
672.57211	7672.7375
676.52738	7665.6375
680.47986	7670.9375
684.42955	7631.4375
688.37646	7612.6375
692.32058	7652.9375
696.26192	7700.4375
700.20048	7829.2375
704.13626	7860.9375
708.06928	7843.8375
711.99952	7782.7375
715.927	7732.9375
719.85171	7710.6375
723.77365	7728.0375
727.69284	7589.5375
731.60928	7553.7375
735.52295	7527.7375
739.43388	7545.6375
743.34206	7569.9375
747.24749	7577.6375
751.15017	7632.3375
755.05012	7765.8375
758.94733	8155.6375
762.8418	9040.6375
766.73354	10531.7375
770.62254	12143.1375
774.50882	12943.4375
778.39237	12433.8375
782.27321	10795.5375
786.15132	9135.1375
790.02671	8192.2375
793.89938	7743.8375
797.76935	7569.7375
801.6366	7493.1375
805.50115	7433.5375
809.36299	7415.9375
813.22213	7389.2375
817.07857	7394.2375
820.93231	7391.5375
824.78336	7393.8375
828.63172	7477.3375
832.47738	7479.8375
836.32036	7484.3375
840.16066	7417.5375
843.99827	7379.8375
847.8332	7316.4375
851.66546	7317.5375
855.49504	7331.0375
859.32195	7303.3375
863.1462	7255.2375
866.96777	7222.3375
870.78668	7217.3375
874.60293	7217.4375
878.41652	7230.2375
882.22745	7259.6375
886.03573	7285.5375
889.84136	7300.4375
893.64433	7237.6375
897.44466	7210.0375
901.24235	7238.0375
905.0374	7205.3375
908.8298	7180.5375
912.61957	7166.8375
916.40671	7206.1375
920.19121	7257.7375
923.97308	7305.8375
927.75233	7380.1375
931.52895	7463.2375
935.30295	7394.6375
939.07433	7193.2375
942.84309	6977.4375
946.60924	6876.2375
950.37278	6787.8375
954.13371	6762.7375
957.89203	6744.4375
961.64774	6726.3375
965.40086	6691.2375
969.15137	6666.6375
972.89929	6641.9375
976.64461	6663.2375
980.38733	6644.3375
984.12747	6660.9375
987.86502	6687.0375
991.59999	6706.8375
995.33237	6767.7375
999.06217	6873.8375
1002.78939	7015.0375
1006.51404	7141.0375
1010.23611	7286.5375
1013.95561	7404.9375
1017.67255	7359.2375
1021.38692	7259.9375
1025.09872	7145.5375
1028.80796	7065.4375
1032.51465	7055.6375
1036.21877	7141.7375
1039.92035	7249.4375
1043.61937	7300.3375
1047.31584	7318.2375
1051.00976	7305.6375
1054.70114	7321.3375
1058.38998	7315.3375
1062.07627	7368.6375
1065.76003	7459.5375
1069.44126	7597.0375
1073.11995	7798.3375
1076.79611	7964.3375
1080.46974	8144.1375
1084.14085	8238.8375
1087.80943	8317.0375
1091.47549	8272.8375
1095.13903	8019.4375
1098.80005	7695.6375
1102.45857	7449.8375
1106.11456	7360.6375
1109.76805	7411.9375
1113.41903	7565.2375
1117.06751	7823.4375
1120.71348	8166.3375
1124.35696	8530.2375
1127.99793	8874.0375
1131.63641	8804.3375
1135.2724	8372.2375
1138.90589	7949.8375
1142.5369	7723.9375
1146.16542	7542.0375
1149.79145	7472.0375
1153.415	7478.1375
1157.03607	7544.8375
1160.65467	7682.0375
1164.27079	7969.2375
1167.88443	8403.3375
1171.49561	9118.3375
1175.10432	10302.8375
1178.71056	11800.6375
1182.31434	12791.7375
1185.91565	12841.7375
1189.51451	12378.8375
1193.11091	11580.9375
1196.70485	10680.4375
1200.29634	10041.0375
1203.88538	9547.2375
1207.47197	8956.1375
1211.05612	8482.5375
1214.63782	8243.4375
1218.21708	8190.4375
1221.79391	8177.2375
1225.36829	8182.8375
1228.94024	8236.7375
1232.50976	8216.0375
1236.07685	8244.5375
1239.6415	8287.6375
1243.20374	8347.2375
1246.76355	8411.4375
1250.32093	8499.7375
1253.8759	8680.7375
1257.42845	8915.0375
1260.97859	9185.1375
1264.52631	9467.1375
1268.07163	9703.9375
1271.61453	9922.2375
1275.15503	10077.6375
1278.69312	10078.7375
1282.22882	10120.0375
1285.76211	10317.1375
1289.29301	10660.9375
1292.82151	10995.9375
1296.34761	11369.1375
1299.87133	11873.3375
1303.39266	12800.8375
1306.9116	14203.2375
1310.42815	15850.3375
1313.94233	16872.1375
1317.45412	16544.5375
1320.96354	15357.7375
1324.47058	14032.0375
1327.97525	12907.6375
1331.47754	12262.0375
1334.97747	12079.1375
1338.47502	12194.1375
1341.97022	12492.8375
1345.46305	12962.0375
1348.95352	13762.5375
1352.44163	14911.9375
1355.92738	16576.5375
1359.41078	19008.5375
1362.89183	21296.5375
1366.37053	20736.9375
1369.84688	17630.9375
1373.32088	14496.5375
1376.79254	12472.2375
1380.26186	11450.1375
1383.72883	10906.5375
1387.19347	10450.9375
1390.65578	9991.8375
1394.11575	9632.1375
1397.57339	9426.3375
1401.0287	9411.9375
1404.48168	9512.0375
1407.93234	9587.1375
1411.38068	9650.3375
1414.82669	9650.5375
1418.27039	9508.6375
1421.71177	9325.2375
1425.15083	9172.4375
1428.58758	9080.8375
1432.02203	9131.5375
1435.45416	9215.5375
1438.88399	9296.3375
1442.31151	9239.4375
1445.73673	9288.5375
1449.15965	9339.2375
1452.58027	9272.9375
1455.9986	9178.4375
1459.41463	9141.1375
1462.82837	9219.9375
1466.23982	9420.3375
1469.64898	9650.6375
1473.05586	9846.7375
1476.46045	9990.6375
1479.86276	10185.2375
1483.26279	10432.0375
1486.66054	10703.5375
1490.05602	11043.6375
1493.44922	11528.4375
1496.84016	12232.5375
1500.22882	13384.8375
1503.61521	14905.8375
1506.99934	16662.4375
1510.38121	18343.4375
1513.76081	19206.1375
1517.13816	18381.9375
1520.51324	16155.6375
1523.88607	13849.6375
1527.25665	12282.7375
1530.62498	11409.4375
1533.99105	10929.6375
1537.35488	10638.5375
1540.71647	10455.2375
1544.07581	10359.2375
1547.4329	10302.2375
1550.78776	10202.7375
1554.14038	10167.1375
1557.49077	10225.5375
1560.83892	10383.6375
1564.18484	10702.3375
1567.52853	11106.5375
1570.86999	11484.7375
1574.20922	11807.5375
1577.54624	11922.0375
1580.88103	11482.0375
1584.2136	10672.1375
1587.54395	10121.9375
1590.87208	9969.7375
1594.19801	10364.0375
1597.52172	10993.1375
1600.84321	11367.8375
1604.16251	11085.3375
1607.47959	10372.2375
1610.79447	9592.2375
1614.10715	8856.9375
1617.41763	8299.0375
1620.7259	7955.8375
1624.03199	7768.6375
1627.33587	7761.0375
1630.63757	7912.1375
1633.93707	8218.8375
1637.23439	8738.8375
1640.52951	9515.8375
1643.82246	10701.9375
1647.11321	12121.1375
1650.40179	13183.3375
1653.68819	12979.7375
1656.97241	11418.1375
1660.25446	9577.5375
1663.53433	8245.5375
1666.81203	7467.6375
1670.08756	7018.5375
1673.36092	6741.1375
1676.63211	6555.9375
1679.90115	6435.7375
1683.16801	6335.5375
1686.43272	6264.8375
1689.69527	6211.4375
1692.95567	6197.2375
1696.2139	6174.6375
1699.46999	6177.1375
1702.72392	6151.1375
1705.97571	6134.1375
1709.22535	6110.7375
1712.47284	6101.5375
1715.71819	6112.7375
1718.96139	6102.0375
1722.20246	6086.6375
1725.44139	6076.2375
1728.67818	6031.9375
1731.91284	5977.2375
1735.14537	5932.7375
1738.37576	5909.2375
1741.60403	5868.5375
1744.83017	5842.4375
1748.05418	5830.8375
1751.27607	5845.1375
1754.49584	5801.8375
1757.71349	5795.7375
1760.92903	5803.4375
1764.14244	5810.7375
1767.35375	5796.3375
1770.56294	5777.8375
1773.77002	5748.6375
1776.97499	5724.0375
1780.17785	5697.0375
1783.37861	5658.3375
1786.57727	5672.2375
1789.77382	5649.9375
1792.96828	5638.9375
1796.16064	5632.5375
1799.3509	5617.6375
1802.53907	5588.5375
1805.72514	5587.0375
1808.90913	5560.9375
1812.09102	5542.1375
1815.27083	5548.2375
1818.44856	5536.2375
1821.6242	5524.8375
1824.79776	5497.4375
1827.96924	5505.2375
1831.13864	5485.4375
1834.30597	5495.0375
1837.47122	5477.5375
1840.6344	5472.7375
1843.7955	5463.4375
1846.95454	5444.3375
1850.11151	5452.1375
1853.26642	5443.4375
1856.41926	5447.8375
1859.57004	5443.0375
1862.71876	5426.8375
1865.86542	5447.9375
1869.01003	5432.1375
1872.15258	5434.7375
1875.29308	5436.6375
1878.43152	5418.1375
1881.56792	5403.8375
1884.70227	5429.9375
1887.83457	5412.3375
1890.96482	5415.0375
1894.09304	5411.6375
1897.21921	5409.0375
1900.34335	5395.1375
1903.46544	5389.8375
1906.58551	5398.2375
1909.70353	5374.1375
1912.81953	5368.7375
1915.93349	5374.9375
1919.04543	5363.0375
1922.15534	5362.5375
1925.26322	5341.4375
1928.36908	5347.5375
1931.47292	5320.2375
1934.57473	5295.7375
1937.67453	5280.8375
1940.77232	5268.9375
1943.86808	5224.8375
1946.96184	5216.3375
1950.05358	5210.2375
1953.14331	5188.1375
1956.23103	5172.5375
1959.31675	5180.0375
1962.40046	5136.9375
1965.48217	5131.5375
1968.56188	5134.0375
1971.63959	5093.5375
1974.7153	5123.7375
1977.78901	5070.1375
1980.86073	5059.3375
1983.93046	5030.4375
1986.99819	5018.0375
1990.06394	5001.2375
1993.1277	4989.6375
1996.18947	4955.7375
1999.24925	4951.4375
2002.30706	4925.1375
2005.36288	4907.0375
2008.41672	4895.7375
2011.46859	4878.6375
2014.51848	4859.8375
2017.56639	4873.4375
2020.61233	4850.9375
2023.6563	4835.3375
2026.6983	4838.8375
2029.73833	4819.4375
2032.7764	4809.9375
2035.8125	4788.6375
2038.84664	4773.8375
2041.87881	4774.2375
2044.90903	4758.0375
2047.93729	4748.8375
2050.96359	4739.8375
2053.98794	4737.6375
2057.01034	4719.6375
2060.03078	4717.0375
2063.04927	4715.9375
2066.06582	4718.3375
2069.08042	4697.8375
2072.09307	4713.5375
2075.10378	4693.4375
2078.11255	4678.5375
2081.11938	4696.4375
2084.12426	4697.7375
2087.12722	4685.9375
2090.12824	4679.1375
2093.12732	4682.8375
2096.12447	4672.8375
2099.11969	4670.7375
2102.11299	4679.0375
2105.10435	4682.1375
2108.09379	4683.6375
2111.08131	4686.3375
2114.0669	4681.1375
2117.05057	4699.8375
2120.03233	4693.2375
2123.01216	4684.9375
2125.99008	4685.0375
2128.96609	4689.8375
2131.94018	4709.1375
2134.91236	4694.4375
2137.88263	4692.3375
2140.851	4692.2375
2143.81746	4699.4375
2146.78201	4687.2375
2149.74466	4696.9375
2152.7054	4703.2375
2155.66425	4690.1375
2158.6212	4685.8375
2161.57625	4679.2375
2164.52941	4659.6375
2167.48067	4673.3375
2170.43004	4661.9375
2173.37752	4668.5375
2176.32311	4664.2375
2179.26681	4669.3375
2182.20863	4653.1375
2185.14856	4649.7375
2188.08661	4656.3375
2191.02278	4663.5375
2193.95707	4643.8375
2196.88948	4628.8375
2199.82001	4624.6375
2202.74867	4624.9375
2205.67545	4630.8375
2208.60037	4621.3375
2211.52341	4609.5375
2214.44458	4589.9375
2217.36388	4587.6375
2220.28132	4569.3375
2223.1969	4568.2375
2226.11061	4577.7375
2229.02246	4546.5375
2231.93245	4533.7375
2234.84058	4524.9375
2237.74686	4515.4375
2240.65128	4510.1375
2243.55385	4512.9375
2246.45456	4491.2375
2249.35343	4491.7375
2252.25044	4501.6375
2255.14561	4485.6375
2258.03893	4497.8375
2260.93041	4492.7375
2263.82004	4475.9375
2266.70783	4471.4375
2269.59378	4463.2375
2272.4779	4445.4375
2275.36017	4416.6375
2278.24061	4419.6375
2281.11922	4414.0375
2283.996	4391.1375
2286.87094	4384.3375
2289.74405	4372.1375
2292.61534	4364.9375
2295.4848	4354.1375
2298.35243	4351.9375
2301.21824	4329.0375
2304.08223	4329.3375
2306.94439	4345.3375
2309.80474	4327.0375
2312.66327	4331.2375
2315.51999	4315.7375
2318.37489	4301.5375
2321.22797	4314.2375
2324.07925	4307.4375
2326.92871	4295.9375
2329.77637	4313.4375
2332.62222	4290.7375
2335.46626	4285.9375
2338.3085	4279.7375
2341.14893	4273.1375
2343.98756	4285.9375
2346.8244	4279.2375
2349.65943	4274.6375
2352.49267	4268.4375
2355.32411	4276.9375
2358.15376	4272.7375
2360.98161	4281.1375
2363.80768	4276.8375
2366.63195	4300.6375
2369.45444	4271.3375
2372.27514	4270.7375
2375.09405	4256.7375
2377.91118	4271.1375
2380.72652	4251.8375
2383.54009	4233.4375
2386.35187	4217.4375
2389.16188	4205.3375
2391.97011	4180.1375
2394.77657	4170.7375
2397.58125	4155.9375
2400.38416	4144.6375
2403.18529	4146.6375
2405.98466	4129.5375
2408.78226	4133.2375
2411.57809	4121.6375
2414.37216	4099.9375
2417.16446	4097.9375
2419.955	4097.2375
2422.74378	4094.8375
2425.5308	4083.6375
2428.31606	4088.6375
2431.09956	4069.9375
2433.88131	4079.6375
2436.6613	4079.6375
2439.43954	4076.9375
2442.21603	4072.1375
2444.99077	4063.5375
2447.76377	4077.2375
2450.53501	4066.9375
2453.30451	4066.0375
2456.07226	4052.6375
2458.83827	4040.9375
2461.60254	4056.6375
2464.36507	4041.2375
2467.12586	4037.3375
2469.88492	4048.4375
2472.64224	4020.1375
2475.39782	4038.2375
2478.15167	4041.1375
2480.90379	4060.7375
2483.65417	4052.0375
2486.40283	4061.2375
2489.14976	4068.8375
2491.89497	4067.5375
2494.63845	4078.5375
2497.3802	4073.8375
2500.12024	4059.5375
2502.85855	4039.7375
2505.59514	4037.2375
2508.33002	4020.8375
2511.06318	3994.1375
2513.79462	3993.5375
2516.52435	3974.5375
2519.25237	3967.2375
2521.97867	3946.3375
2524.70327	3954.5375
2527.42616	3926.1375
2530.14734	3917.1375
2532.86681	3921.5375
2535.58458	3922.8375
2538.30065	3913.2375
2541.01501	3912.0375
2543.72768	3919.9375
2546.43864	3903.5375
2549.14791	3894.4375
2551.85548	3895.7375
2554.56136	3880.6375
2557.26554	3885.9375
2559.96803	3871.4375
2562.66883	3879.2375
2565.36794	3867.6375
2568.06536	3867.9375
2570.7611	3862.2375
2573.45514	3847.9375
2576.14751	3842.4375
2578.83819	3839.5375
2581.52719	3822.1375
2584.21451	3818.1375
2586.90015	3817.1375
2589.58411	3800.1375
2592.2664	3807.7375
2594.94701	3782.5375
2597.62594	3782.2375
2600.30321	3778.8375
2602.9788	3766.1375
2605.65273	3767.0375
2608.32498	3754.5375
2610.99557	3767.4375
2613.66449	3760.5375
2616.33175	3757.3375
2618.99734	3761.4375
2621.66128	3748.0375
2624.32355	3748.3375
2626.98416	3745.5375
2629.64311	3728.8375
2632.30041	3727.8375
2634.95605	3728.8375
2637.61004	3720.6375
2640.26238	3709.9375
2642.91306	3699.7375
2645.56209	3696.6375
2648.20948	3692.7375
2650.85521	3687.2375
2653.4993	3689.7375
2656.14175	3684.1375
2658.78255	3694.9375
2661.42171	3697.3375
2664.05923	3696.4375
2666.6951	3689.5375
2669.32934	3694.5375
2671.96194	3688.3375
2674.59291	3697.4375
2677.22224	3699.3375
2679.84993	3702.9375
2682.476	3696.4375
2685.10043	3703.8375
2687.72324	3709.3375
2690.34441	3695.7375
2692.96396	3693.2375
2695.58188	3703.3375
2698.19818	3696.1375
2700.81285	3703.4375
2703.4259	3723.1375
2706.03733	3753.9375
2708.64714	3725.8375
2711.25533	3739.6375
2713.86191	3729.9375
2716.46687	3729.9375
2719.07021	3730.2375
2721.67194	3717.2375
2724.27206	3714.7375
2726.87057	3727.7375
2729.46747	3711.6375
2732.06276	3718.8375
2734.65644	3711.9375
2737.24852	3706.0375
2739.83899	3692.5375
2742.42786	3685.1375
2745.01513	3678.0375
2747.60079	3670.9375
2750.18486	3667.1375
2752.76733	3669.6375
2755.3482	3665.3375
2757.92747	3651.6375
2760.50515	3640.4375
2763.08123	3642.4375
2765.65573	3639.2375
2768.22863	3645.2375
2770.79994	3636.8375
2773.36967	3624.0375
2775.9378	3622.7375
2778.50435	3604.9375
2781.06932	3619.5375
2783.6327	3618.6375
2786.1945	3584.6375
2788.75471	3603.1375
2791.31335	3606.3375
2793.87041	3594.4375
2796.42589	3586.4375
2798.97979	3596.4375
2801.53212	3599.3375
2804.08288	3595.2375
2806.63206	3582.5375
2809.17967	3587.7375
2811.72571	3571.4375
2814.27018	3583.6375
2816.81308	3590.1375
2819.35442	3584.5375
2821.89419	3587.5375
2824.43239	3580.9375
2826.96904	3591.5375
2829.50412	3600.7375
2832.03763	3597.3375
2834.56959	3611.5375
2837.1	3600.3375
2839.62884	3621.9375
2842.15613	3649.1375
2844.68186	3697.4375
2847.20604	3740.3375
2849.72867	3787.2375
2852.24974	3792.4375
2854.76927	3816.4375
2857.28724	3800.6375
2859.80367	3785.6375
2862.31855	3758.5375
2864.83189	3760.4375
2867.34368	3744.8375
2869.85393	3740.6375
2872.36264	3739.4375
2874.8698	3738.0375
2877.37543	3736.5375
2879.87952	3733.2375
2882.38207	3725.6375
2884.88308	3723.2375
2887.38256	3723.4375
2889.88051	3728.8375
2892.37692	3787.0375
2894.8718	3741.5375
2897.36515	3726.3375
2899.85698	3731.0375
2902.34727	3753.1375
2904.83604	3748.7375
2907.32328	3759.7375
2909.809	3747.0375
2912.29319	3748.4375
2914.77587	3737.6375
2917.25702	3735.7375
2919.73665	3711.9375
2922.21476	3721.2375
2924.69136	3702.5375
2927.16644	3684.8375
2929.64	3694.4375
2932.11205	3686.3375
2934.58258	3668.5375
2937.05161	3660.5375
2939.51912	3636.8375
2941.98513	3631.0375
2944.44962	3589.5375
2946.91261	3566.0375
2949.37409	3544.6375
2951.83407	3516.6375
2954.29254	3498.0375
2956.74951	3542.1375
2959.20498	3493.5375
2961.65895	3478.4375
2964.11142	3462.6375
2966.56239	3451.9375
2969.01186	3451.8375
2971.45984	3436.6375
2973.90632	3421.7375
2976.35131	3393.3375
2978.7948	3393.2375
2981.23681	3379.0375
2983.67732	3379.2375
2986.11635	3380.2375
2988.55388	3366.4375
2990.98993	3355.6375
2993.4245	3344.9375
2995.85758	3316.2375
2998.28917	3319.3375
3000.71928	3320.8375
3003.14791	3310.9375
3005.57506	3300.6375
3008.00073	3304.9375
3010.42493	3301.9375
3012.84764	3291.8375
3015.26888	3284.0375
3017.68865	3278.6375
3020.10694	3272.4375
3022.52376	3275.9375
3024.9391	3258.7375
3027.35298	3263.2375
3029.76539	3272.9375
3032.17632	3266.5375
3034.5858	3260.0375
3036.9938	3257.4375
3039.40034	3262.6375
3041.80542	3240.5375
3044.20903	3241.1375
3046.61118	3244.2375
3049.01187	3233.1375
3051.4111	3221.9375
3053.80888	3217.6375
3056.20519	3207.1375
3058.60005	3218.7375
3060.99345	3220.9375
3063.3854	3210.6375
3065.7759	3211.6375
3068.16494	3205.8375
3070.55254	3210.2375
3072.93868	3189.3375
3075.32338	3197.8375
3077.70662	3181.0375
3080.08842	3171.9375
3082.46878	3176.2375
3084.84769	3161.8375
3087.22515	3160.9375
3089.60118	3142.2375
3091.97576	3142.5375
3094.3489	3154.0375
3096.72061	3157.2375
3099.09087	3155.5375
3101.4597	3147.7375
3103.82709	3151.9375
3106.19305	3137.9375
3108.55757	3133.8375
3110.92066	3143.3375
3113.28232	3124.8375
3115.64255	3130.7375
