Data from AgNP_FTO_APTES_CRN_100uM_R6G_10uM_NaF_0.1M_Addition_RamanShift__22__18-57-08-134.txt Node

Date: Wed Dec 15 18:57:08 GMT 2021
User: TCL
Spectrometer: QEP01345
Trigger mode: 4
Integration Time (sec): 7.000000E0
Scans to average: 10
Electric dark correction enabled: true
Nonlinearity correction enabled: false
Boxcar width: 0
XAxis mode: Raman Shifts
Number of Pixels in Spectrum: 1044
>>>>>Begin Spectral Data<<<<<
46.04893	0.7375
50.45542	-1.3625
54.85868	-0.7625
59.25871	-0.3625
63.6555	57.8375
68.04907	63.9375
72.43941	66.1375
76.82654	72.2375
81.21044	69.1375
85.59113	78.8375
89.96862	78.9375
94.34289	77.8375
98.71396	81.0375
103.08183	87.4375
107.4465	91.2375
111.80798	89.6375
116.16626	93.6375
120.52136	95.7375
124.87327	97.1375
129.222	101.7375
133.56755	103.0375
137.90993	112.9375
142.24913	123.1375
146.58517	136.8375
150.91804	156.8375
155.24774	182.3375
159.57429	226.1375
163.89768	284.1375
168.21792	371.7375
172.53501	508.8375
176.84895	702.7375
181.15975	981.6375
185.46741	1383.6375
189.77193	1894.2375
194.07331	2539.3375
198.37157	3262.4375
202.6667	4043.9375
206.9587	4804.0375
211.24758	5542.1375
215.53334	6283.1375
219.81599	7067.2375
224.09553	7933.2375
228.37195	8901.2375
232.64527	9906.7375
236.91549	11032.9375
241.18261	12156.2375
245.44663	13238.5375
249.70755	14204.8375
253.96539	15059.0375
258.22014	15807.7375
262.4718	16416.0375
266.72039	16852.7375
270.96589	17078.1375
275.20832	17133.6375
279.44768	17048.5375
283.68397	16888.8375
287.91719	16725.6375
292.14735	16628.2375
296.37445	16597.5375
300.59849	16588.4375
304.81948	16589.7375
309.03742	16491.5375
313.25231	16300.5375
317.46415	16017.7375
321.67296	15665.8375
325.87872	15445.0375
330.08145	15328.3375
334.28114	15340.8375
338.47781	15477.1375
342.67145	15658.3375
346.86207	15874.5375
351.04966	16153.9375
355.23424	16431.9375
359.4158	16690.7375
363.59435	16897.1375
367.76989	17025.6375
371.94243	17110.4375
376.11196	17258.2375
380.27849	17335.3375
384.44203	17485.1375
388.60257	17576.0375
392.76012	17760.5375
396.91468	17920.5375
401.06626	18157.7375
405.21485	18347.4375
409.36047	18291.0375
413.50311	18128.9375
417.64277	17969.9375
421.77947	17930.1375
425.9132	17987.0375
430.04396	18039.2375
434.17176	18194.6375
438.2966	18426.7375
442.41849	18716.0375
446.53742	19134.4375
450.6534	19656.5375
454.76644	19981.0375
458.87653	20103.1375
462.98368	20033.9375
467.08789	19888.4375
471.18916	19736.2375
475.2875	19624.3375
479.38291	19570.8375
483.4754	19499.2375
487.56496	19277.0375
491.6516	19000.6375
495.73531	18740.5375
499.81612	18632.7375
503.89401	18659.6375
507.96899	18708.6375
512.04106	18726.5375
516.11023	18723.6375
520.1765	18739.1375
524.23987	18739.7375
528.30034	18666.4375
532.35792	18622.0375
536.41261	18424.1375
540.46441	18256.6375
544.51333	18245.1375
548.55936	18374.4375
552.60252	18679.1375
556.64279	18976.4375
560.6802	19214.7375
564.71473	19325.3375
568.7464	19446.3375
572.7752	19701.0375
576.80114	19823.6375
580.82422	19943.8375
584.84444	20121.4375
588.86181	20482.2375
592.87633	20960.9375
596.888	21289.6375
600.89682	21303.0375
604.9028	21575.6375
608.90594	22612.0375
612.90624	23841.5375
616.90371	22754.7375
620.89834	20019.6375
624.89015	18802.8375
628.87913	18681.7375
632.86528	18799.1375
636.84862	18829.2375
640.82913	18682.6375
644.80683	18329.2375
648.78172	18096.7375
652.75379	18003.7375
656.72306	18144.9375
660.68952	18332.9375
664.65319	18266.1375
668.61405	18096.0375
672.57211	18001.7375
676.52738	18067.4375
680.47986	18096.1375
684.42955	18043.8375
688.37646	18060.6375
692.32058	18040.6375
696.26192	18157.8375
700.20048	18296.8375
704.13626	18410.3375
708.06928	18402.0375
711.99952	18329.5375
715.927	18293.5375
719.85171	18270.8375
723.77365	18269.9375
727.69284	18125.6375
731.60928	18044.4375
735.52295	18011.8375
739.43388	18025.3375
743.34206	18046.7375
747.24749	18108.5375
751.15017	18184.8375
755.05012	18395.7375
758.94733	18709.1375
762.8418	19369.7375
766.73354	20422.5375
770.62254	21452.6375
774.50882	21748.2375
778.39237	21014.7375
782.27321	19781.5375
786.15132	18792.4375
790.02671	18186.7375
793.89938	17919.2375
797.76935	17848.3375
801.6366	17836.3375
805.50115	17816.0375
809.36299	17782.6375
813.22213	17690.6375
817.07857	17724.4375
820.93231	17678.4375
824.78336	17659.2375
828.63172	17652.5375
832.47738	17623.1375
836.32036	17673.2375
840.16066	17710.2375
843.99827	17685.4375
847.8332	17642.5375
851.66546	17596.4375
855.49504	17574.2375
859.32195	17567.8375
863.1462	17558.3375
866.96777	17572.1375
870.78668	17527.5375
874.60293	17512.4375
878.41652	17541.1375
882.22745	17523.9375
886.03573	17577.8375
889.84136	17582.6375
893.64433	17496.7375
897.44466	17448.2375
901.24235	17380.5375
905.0374	17392.4375
908.8298	17392.5375
912.61957	17372.3375
916.40671	17487.6375
920.19121	17638.5375
923.97308	17696.7375
927.75233	17744.0375
931.52895	17724.7375
935.30295	17571.0375
939.07433	17331.1375
942.84309	17187.6375
946.60924	17060.5375
950.37278	16991.9375
954.13371	16969.3375
957.89203	16953.8375
961.64774	16916.4375
965.40086	16906.2375
969.15137	16833.4375
972.89929	16758.1375
976.64461	16705.8375
980.38733	16687.3375
984.12747	16749.3375
987.86502	16835.4375
991.59999	16968.0375
995.33237	17157.1375
999.06217	17478.2375
1002.78939	17779.6375
1006.51404	17971.8375
1010.23611	18138.8375
1013.95561	18217.9375
1017.67255	18237.1375
1021.38692	18086.9375
1025.09872	17933.9375
1028.80796	17953.6375
1032.51465	18120.8375
1036.21877	18357.8375
1039.92035	18429.3375
1043.61937	18307.2375
1047.31584	18206.5375
1051.00976	18055.2375
1054.70114	18015.9375
1058.38998	18106.4375
1062.07627	18336.6375
1065.76003	18547.4375
1069.44126	18874.8375
1073.11995	19298.6375
1076.79611	19575.9375
1080.46974	19609.2375
1084.14085	19389.2375
1087.80943	19158.2375
1091.47549	18986.8375
1095.13903	18849.5375
1098.80005	18607.6375
1102.45857	18320.0375
1106.11456	18100.4375
1109.76805	18065.4375
1113.41903	18094.5375
1117.06751	18187.7375
1120.71348	18379.6375
1124.35696	18552.6375
1127.99793	18741.2375
1131.63641	18866.6375
1135.2724	18725.3375
1138.90589	18534.3375
1142.5369	18451.3375
1146.16542	18414.4375
1149.79145	18465.3375
1153.415	18608.3375
1157.03607	18787.3375
1160.65467	19091.7375
1164.27079	19639.8375
1167.88443	20391.2375
1171.49561	21359.3375
1175.10432	22685.1375
1178.71056	24283.1375
1182.31434	25617.2375
1185.91565	26077.3375
1189.51451	25793.1375
1193.11091	25052.6375
1196.70485	24165.5375
1200.29634	23330.9375
1203.88538	22718.4375
1207.47197	22368.3375
1211.05612	22035.0375
1214.63782	21744.8375
1218.21708	21538.4375
1221.79391	21352.6375
1225.36829	21207.3375
1228.94024	21047.4375
1232.50976	20781.5375
1236.07685	20571.5375
1239.6415	20525.1375
1243.20374	20516.8375
1246.76355	20649.4375
1250.32093	20840.1375
1253.8759	21163.1375
1257.42845	21586.5375
1260.97859	21962.3375
1264.52631	22300.5375
1268.07163	22667.9375
1271.61453	23100.6375
1275.15503	23608.6375
1278.69312	24113.4375
1282.22882	24589.2375
1285.76211	25141.3375
1289.29301	25850.2375
1292.82151	26720.1375
1296.34761	27774.7375
1299.87133	29006.9375
1303.39266	30356.3375
1306.9116	31854.6375
1310.42815	33297.0375
1313.94233	34266.5375
1317.45412	34462.9375
1320.96354	34052.0375
1324.47058	33348.1375
1327.97525	32641.3375
1331.47754	32115.1375
1334.97747	31873.9375
1338.47502	31834.5375
1341.97022	31666.1375
1345.46305	31280.8375
1348.95352	30904.6375
1352.44163	30847.1375
1355.92738	31380.3375
1359.41078	32607.2375
1362.89183	33799.0375
1366.37053	33541.9375
1369.84688	31358.7375
1373.32088	28594.4375
1376.79254	26645.2375
1380.26186	25768.3375
1383.72883	25592.4375
1387.19347	25563.9375
1390.65578	25405.6375
1394.11575	25471.3375
1397.57339	25767.5375
1401.0287	26238.3375
1404.48168	26690.8375
1407.93234	26829.4375
1411.38068	26494.4375
1414.82669	25850.7375
1418.27039	24890.8375
1421.71177	23930.5375
1425.15083	23133.5375
1428.58758	22627.2375
1432.02203	22677.6375
1435.45416	22960.5375
1438.88399	23393.5375
1442.31151	23812.1375
1445.73673	24186.2375
1449.15965	24490.1375
1452.58027	24745.2375
1455.9986	24866.8375
1459.41463	25019.6375
1462.82837	25330.8375
1466.23982	25746.8375
1469.64898	26121.0375
1473.05586	26330.2375
1476.46045	26381.0375
1479.86276	26282.6375
1483.26279	26071.1375
1486.66054	25915.1375
1490.05602	25949.6375
1493.44922	26009.1375
1496.84016	26046.1375
1500.22882	26243.5375
1503.61521	26755.6375
1506.99934	27480.3375
1510.38121	28194.5375
1513.76081	28461.7375
1517.13816	27976.8375
1520.51324	27061.8375
1523.88607	26174.9375
1527.25665	25635.3375
1530.62498	25434.5375
1533.99105	25408.4375
1537.35488	25314.7375
1540.71647	25121.5375
1544.07581	24828.6375
1547.4329	24437.4375
1550.78776	24124.2375
1554.14038	23856.2375
1557.49077	23782.9375
1560.83892	23763.0375
1564.18484	23838.1375
1567.52853	24032.3375
1570.86999	24374.2375
1574.20922	24965.6375
1577.54624	25627.1375
1580.88103	25995.2375
1584.2136	26044.7375
1587.54395	26120.0375
1590.87208	26486.3375
1594.19801	27324.6375
1597.52172	28372.1375
1600.84321	28783.9375
1604.16251	27919.6375
1607.47959	26254.5375
1610.79447	24357.6375
1614.10715	22635.5375
1617.41763	21224.1375
1620.7259	20359.5375
1624.03199	19876.4375
1627.33587	19881.0375
1630.63757	20239.9375
1633.93707	21107.5375
1637.23439	22556.5375
1640.52951	24599.0375
1643.82246	26974.4375
1647.11321	28900.6375
1650.40179	29381.6375
1653.68819	27910.1375
1656.97241	25135.0375
1660.25446	22307.9375
1663.53433	20147.4375
1666.81203	18731.5375
1670.08756	17835.2375
1673.36092	17266.0375
1676.63211	16839.5375
1679.90115	16566.0375
1683.16801	16380.7375
1686.43272	16240.4375
1689.69527	16157.1375
1692.95567	16037.1375
1696.2139	16023.0375
1699.46999	16002.5375
1702.72392	15943.1375
1705.97571	15895.3375
1709.22535	15865.6375
1712.47284	15819.7375
1715.71819	15798.6375
1718.96139	15769.4375
1722.20246	15728.8375
1725.44139	15681.9375
1728.67818	15639.5375
1731.91284	15576.7375
1735.14537	15487.7375
1738.37576	15449.8375
1741.60403	15405.0375
1744.83017	15378.9375
1748.05418	15367.1375
1751.27607	15353.0375
1754.49584	15293.1375
1757.71349	15302.0375
1760.92903	15269.6375
1764.14244	15284.4375
1767.35375	15281.6375
1770.56294	15263.3375
1773.77002	15231.6375
1776.97499	15201.2375
1780.17785	15168.4375
1783.37861	15162.0375
1786.57727	15111.8375
1789.77382	15114.6375
1792.96828	15082.0375
1796.16064	15076.8375
1799.3509	15049.9375
1802.53907	14990.0375
1805.72514	14973.6375
1808.90913	14943.6375
1812.09102	14913.7375
1815.27083	14899.9375
1818.44856	14886.1375
1821.6242	14843.4375
1824.79776	14825.4375
1827.96924	14863.8375
1831.13864	14851.4375
1834.30597	14832.9375
1837.47122	14827.1375
1840.6344	14815.3375
1843.7955	14783.3375
1846.95454	14809.5375
1850.11151	14766.7375
1853.26642	14750.7375
1856.41926	14758.2375
1859.57004	14781.4375
1862.71876	14771.6375
1865.86542	14756.6375
1869.01003	14734.4375
1872.15258	14742.8375
1875.29308	14726.0375
1878.43152	14687.6375
1881.56792	14681.9375
1884.70227	14678.6375
1887.83457	14696.5375
1890.96482	14675.4375
1894.09304	14676.7375
1897.21921	14665.6375
1900.34335	14660.1375
1903.46544	14638.0375
1906.58551	14616.1375
1909.70353	14587.4375
1912.81953	14583.0375
1915.93349	14573.5375
1919.04543	14553.2375
1922.15534	14511.3375
1925.26322	14504.4375
1928.36908	14464.6375
1931.47292	14451.7375
1934.57473	14416.6375
1937.67453	14374.9375
1940.77232	14346.0375
1943.86808	14306.7375
1946.96184	14290.4375
1950.05358	14271.4375
1953.14331	14266.6375
1956.23103	14175.5375
1959.31675	14137.0375
1962.40046	14123.1375
1965.48217	14050.5375
1968.56188	14026.3375
1971.63959	13969.9375
1974.7153	13945.3375
1977.78901	13916.7375
1980.86073	13827.0375
1983.93046	13822.9375
1986.99819	13784.0375
1990.06394	13765.8375
1993.1277	13708.2375
1996.18947	13666.9375
1999.24925	13650.5375
2002.30706	13577.9375
2005.36288	13547.9375
2008.41672	13531.3375
2011.46859	13496.7375
2014.51848	13481.0375
2017.56639	13447.8375
2020.61233	13392.2375
2023.6563	13373.7375
2026.6983	13359.1375
2029.73833	13352.7375
2032.7764	13302.9375
2035.8125	13281.4375
2038.84664	13237.0375
2041.87881	13238.1375
2044.90903	13194.0375
2047.93729	13177.9375
2050.96359	13186.2375
2053.98794	13169.3375
2057.01034	13143.9375
2060.03078	13141.1375
2063.04927	13147.3375
2066.06582	13121.3375
2069.08042	13135.8375
2072.09307	13126.1375
2075.10378	13102.1375
2078.11255	13096.0375
2081.11938	13118.0375
2084.12426	13094.8375
2087.12722	13076.6375
2090.12824	13083.7375
2093.12732	13092.8375
2096.12447	13101.9375
2099.11969	13076.3375
2102.11299	13110.1375
2105.10435	13099.2375
2108.09379	13106.2375
2111.08131	13136.3375
2114.0669	13135.9375
2117.05057	13111.9375
2120.03233	13111.4375
2123.01216	13148.0375
2125.99008	13122.6375
2128.96609	13155.3375
2131.94018	13185.0375
2134.91236	13181.3375
2137.88263	13230.7375
2140.851	13207.8375
2143.81746	13215.5375
2146.78201	13189.9375
2149.74466	13226.6375
2152.7054	13252.3375
2155.66425	13229.6375
2158.6212	13234.9375
2161.57625	13217.9375
2164.52941	13231.9375
2167.48067	13233.9375
2170.43004	13230.3375
2173.37752	13232.5375
2176.32311	13215.1375
2179.26681	13220.4375
2182.20863	13222.1375
2185.14856	13186.7375
2188.08661	13219.4375
2191.02278	13204.1375
2193.95707	13179.9375
2196.88948	13208.4375
2199.82001	13180.4375
2202.74867	13138.1375
2205.67545	13180.1375
2208.60037	13179.1375
2211.52341	13150.8375
2214.44458	13147.4375
2217.36388	13108.4375
2220.28132	13091.3375
2223.1969	13102.7375
2226.11061	13068.5375
2229.02246	13060.7375
2231.93245	13022.7375
2234.84058	13005.4375
2237.74686	12939.8375
2240.65128	12965.8375
2243.55385	12924.6375
2246.45456	12922.3375
2249.35343	12894.2375
2252.25044	12913.1375
2255.14561	12861.3375
2258.03893	12876.3375
2260.93041	12830.7375
2263.82004	12810.8375
2266.70783	12819.8375
2269.59378	12758.4375
2272.4779	12739.4375
2275.36017	12700.2375
2278.24061	12665.0375
2281.11922	12664.4375
2283.996	12635.0375
2286.87094	12612.5375
2289.74405	12612.3375
2292.61534	12604.2375
2295.4848	12557.1375
2298.35243	12569.8375
2301.21824	12555.2375
2304.08223	12563.4375
2306.94439	12551.1375
2309.80474	12546.5375
2312.66327	12549.6375
2315.51999	12526.0375
2318.37489	12548.3375
2321.22797	12527.7375
2324.07925	12534.6375
2326.92871	12530.5375
2329.77637	12498.4375
2332.62222	12476.2375
2335.46626	12487.9375
2338.3085	12469.8375
2341.14893	12441.5375
2343.98756	12433.3375
2346.8244	12436.6375
2349.65943	12433.9375
2352.49267	12416.7375
2355.32411	12430.5375
2358.15376	12433.8375
2360.98161	12402.6375
2363.80768	12407.8375
2366.63195	12381.8375
2369.45444	12366.1375
2372.27514	12345.2375
2375.09405	12334.1375
2377.91118	12329.0375
2380.72652	12304.8375
2383.54009	12292.0375
2386.35187	12286.3375
2389.16188	12211.7375
2391.97011	12217.8375
2394.77657	12190.8375
2397.58125	12194.9375
2400.38416	12156.1375
2403.18529	12132.2375
2405.98466	12109.9375
2408.78226	12076.7375
2411.57809	12104.5375
2414.37216	12078.2375
2417.16446	12054.2375
2419.955	12036.2375
2422.74378	12048.5375
2425.5308	12012.4375
2428.31606	12007.5375
2431.09956	11998.3375
2433.88131	11963.1375
2436.6613	12009.1375
2439.43954	11973.5375
2442.21603	11957.4375
2444.99077	11928.2375
2447.76377	11938.1375
2450.53501	11939.6375
2453.30451	11949.4375
2456.07226	11913.6375
2458.83827	11892.5375
2461.60254	11889.9375
2464.36507	11905.4375
2467.12586	11900.5375
2469.88492	11915.4375
2472.64224	11925.4375
2475.39782	11911.0375
2478.15167	11896.6375
2480.90379	11887.7375
2483.65417	11881.4375
2486.40283	11898.8375
2489.14976	11925.8375
2491.89497	11904.4375
2494.63845	11901.1375
2497.3802	11922.8375
2500.12024	11899.5375
2502.85855	11895.1375
2505.59514	11883.4375
2508.33002	11853.3375
2511.06318	11853.3375
2513.79462	11827.9375
2516.52435	11844.1375
2519.25237	11836.2375
2521.97867	11792.8375
2524.70327	11806.8375
2527.42616	11772.6375
2530.14734	11780.6375
2532.86681	11751.7375
2535.58458	11709.8375
2538.30065	11744.6375
2541.01501	11717.4375
2543.72768	11741.6375
2546.43864	11733.3375
2549.14791	11703.5375
2551.85548	11669.8375
2554.56136	11661.3375
2557.26554	11631.7375
2559.96803	11627.0375
2562.66883	11630.6375
2565.36794	11617.2375
2568.06536	11616.6375
2570.7611	11621.2375
2573.45514	11579.8375
2576.14751	11566.8375
2578.83819	11563.7375
2581.52719	11559.4375
2584.21451	11544.0375
2586.90015	11554.4375
2589.58411	11518.1375
2592.2664	11513.5375
2594.94701	11481.6375
2597.62594	11468.8375
2600.30321	11444.0375
2602.9788	11457.7375
2605.65273	11433.3375
2608.32498	11423.6375
2610.99557	11430.5375
2613.66449	11407.6375
2616.33175	11411.8375
2618.99734	11392.9375
2621.66128	11399.3375
2624.32355	11394.9375
2626.98416	11387.1375
2629.64311	11405.3375
2632.30041	11397.1375
2634.95605	11392.8375
2637.61004	11351.1375
2640.26238	11362.6375
2642.91306	11360.9375
2645.56209	11346.1375
2648.20948	11346.0375
2650.85521	11310.1375
2653.4993	11309.9375
2656.14175	11303.2375
2658.78255	11337.9375
2661.42171	11311.1375
2664.05923	11325.2375
2666.6951	11331.0375
2669.32934	11322.1375
2671.96194	11314.5375
2674.59291	11312.7375
2677.22224	11318.6375
2679.84993	11323.5375
2682.476	11314.2375
2685.10043	11303.9375
2687.72324	11319.7375
2690.34441	11332.1375
2692.96396	11337.4375
2695.58188	11329.0375
2698.19818	11309.2375
2700.81285	11297.5375
2703.4259	11330.3375
2706.03733	11377.3375
2708.64714	11372.3375
2711.25533	11355.2375
2713.86191	11356.5375
2716.46687	11343.2375
2719.07021	11381.6375
2721.67194	11360.3375
2724.27206	11330.2375
2726.87057	11359.9375
2729.46747	11357.7375
2732.06276	11362.7375
2734.65644	11341.8375
2737.24852	11327.8375
2739.83899	11331.0375
2742.42786	11338.0375
2745.01513	11336.3375
2747.60079	11321.9375
2750.18486	11330.3375
2752.76733	11331.1375
2755.3482	11314.3375
2757.92747	11286.8375
2760.50515	11309.6375
2763.08123	11279.8375
2765.65573	11262.4375
2768.22863	11276.4375
2770.79994	11260.4375
2773.36967	11260.9375
2775.9378	11262.3375
2778.50435	11209.9375
2781.06932	11213.4375
2783.6327	11244.1375
2786.1945	11205.0375
2788.75471	11171.8375
2791.31335	11172.5375
2793.87041	11177.3375
2796.42589	11154.7375
2798.97979	11164.0375
2801.53212	11125.3375
2804.08288	11098.4375
2806.63206	11088.0375
2809.17967	11041.5375
2811.72571	11039.1375
2814.27018	11050.9375
2816.81308	11001.0375
2819.35442	11017.8375
2821.89419	10979.8375
2824.43239	10971.7375
2826.96904	10963.0375
2829.50412	10961.3375
2832.03763	10918.5375
2834.56959	10937.9375
2837.1	10910.9375
2839.62884	10920.5375
2842.15613	10909.6375
2844.68186	10918.0375
2847.20604	10930.1375
2849.72867	10910.2375
2852.24974	10907.6375
2854.76927	10895.9375
2857.28724	10902.9375
2859.80367	10901.3375
2862.31855	10901.4375
2864.83189	10872.9375
2867.34368	10844.8375
2869.85393	10855.8375
2872.36264	10810.5375
2874.8698	10853.6375
2877.37543	10846.4375
2879.87952	10830.9375
2882.38207	10855.4375
2884.88308	10860.1375
2887.38256	10869.9375
2889.88051	10863.7375
2892.37692	10870.2375
2894.8718	10863.6375
2897.36515	10852.7375
2899.85698	10844.1375
2902.34727	10869.0375
2904.83604	10867.9375
2907.32328	10889.2375
2909.809	10883.2375
2912.29319	10921.8375
2914.77587	10892.5375
2917.25702	10915.0375
2919.73665	10880.8375
2922.21476	10913.5375
2924.69136	10887.6375
2927.16644	10871.6375
2929.64	10903.7375
2932.11205	10877.5375
2934.58258	10824.4375
2937.05161	10865.3375
2939.51912	10851.4375
2941.98513	10860.7375
2944.44962	10828.5375
2946.91261	10785.7375
2949.37409	10816.1375
2951.83407	10816.8375
2954.29254	10769.3375
2956.74951	10764.6375
2959.20498	10736.7375
2961.65895	10760.4375
2964.11142	10779.3375
2966.56239	10765.8375
2969.01186	10722.6375
2971.45984	10678.5375
2973.90632	10694.2375
2976.35131	10617.2375
2978.7948	10610.8375
2981.23681	10582.8375
2983.67732	10585.3375
2986.11635	10585.8375
2988.55388	10551.2375
2990.98993	10523.1375
2993.4245	10509.0375
2995.85758	10491.2375
2998.28917	10478.6375
3000.71928	10447.5375
3003.14791	10414.6375
3005.57506	10431.3375
3008.00073	10442.4375
3010.42493	10407.0375
3012.84764	10371.7375
3015.26888	10353.0375
3017.68865	10346.1375
3020.10694	10332.6375
3022.52376	10335.9375
3024.9391	10301.3375
