Data from AgNP_FTO_APTES_CRN_100uM_R6G_10uM_NaF_0.1M_Addition_RamanShift__3__18-34-58-109.txt Node

Date: Wed Dec 15 18:34:58 GMT 2021
User: TCL
Spectrometer: QEP01345
Trigger mode: 4
Integration Time (sec): 7.000000E0
Scans to average: 10
Electric dark correction enabled: true
Nonlinearity correction enabled: false
Boxcar width: 0
XAxis mode: Raman Shifts
Number of Pixels in Spectrum: 1044
>>>>>Begin Spectral Data<<<<<
46.04893	0.7125
50.45542	-2.5875
54.85868	-0.6875
59.25871	-0.4875
63.6555	62.2125
68.04907	66.4125
72.43941	67.3125
76.82654	74.8125
81.21044	75.2125
85.59113	80.3125
89.96862	83.3125
94.34289	81.1125
98.71396	87.4125
103.08183	92.4125
107.4465	92.2125
111.80798	95.3125
116.16626	100.1125
120.52136	101.8125
124.87327	99.2125
129.222	103.6125
133.56755	108.3125
137.90993	120.1125
142.24913	126.3125
146.58517	141.8125
150.91804	157.4125
155.24774	186.7125
159.57429	227.5125
163.89768	295.3125
168.21792	377.2125
172.53501	519.4125
176.84895	716.8125
181.15975	1006.8125
185.46741	1408.9125
189.77193	1938.9125
194.07331	2587.0125
198.37157	3345.6125
202.6667	4117.5125
206.9587	4903.3125
211.24758	5656.9125
215.53334	6424.8125
219.81599	7242.1125
224.09553	8102.8125
228.37195	9070.1125
232.64527	10151.7125
236.91549	11305.7125
241.18261	12462.4125
245.44663	13575.4125
249.70755	14539.0125
253.96539	15417.4125
258.22014	16110.6125
262.4718	16708.8125
266.72039	17117.1125
270.96589	17286.9125
275.20832	17293.2125
279.44768	17161.9125
283.68397	17015.8125
287.91719	16817.9125
292.14735	16680.4125
296.37445	16621.2125
300.59849	16623.6125
304.81948	16668.0125
309.03742	16656.6125
313.25231	16564.9125
317.46415	16306.9125
321.67296	15986.4125
325.87872	15740.1125
330.08145	15591.2125
334.28114	15565.9125
338.47781	15678.8125
342.67145	15835.5125
346.86207	16082.7125
351.04966	16365.6125
355.23424	16636.3125
359.4158	16824.1125
363.59435	16959.0125
367.76989	17067.3125
371.94243	17105.8125
376.11196	17173.2125
380.27849	17216.3125
384.44203	17304.0125
388.60257	17485.7125
392.76012	17665.3125
396.91468	17890.4125
401.06626	18155.6125
405.21485	18360.6125
409.36047	18353.1125
413.50311	18187.6125
417.64277	18021.3125
421.77947	17981.4125
425.9132	18031.6125
430.04396	18138.6125
434.17176	18174.9125
438.2966	18264.3125
442.41849	18507.8125
446.53742	18890.8125
450.6534	19316.5125
454.76644	19587.2125
458.87653	19668.9125
462.98368	19625.6125
467.08789	19453.5125
471.18916	19282.1125
475.2875	19168.9125
479.38291	19070.4125
483.4754	18988.4125
487.56496	18788.2125
491.6516	18531.1125
495.73531	18388.0125
499.81612	18299.6125
503.89401	18385.0125
507.96899	18455.2125
512.04106	18469.3125
516.11023	18453.0125
520.1765	18396.8125
524.23987	18350.7125
528.30034	18274.0125
532.35792	18101.3125
536.41261	17912.3125
540.46441	17708.9125
544.51333	17712.4125
548.55936	17830.3125
552.60252	18183.4125
556.64279	18514.6125
560.6802	18778.9125
564.71473	18888.8125
568.7464	19063.4125
572.7752	19376.3125
576.80114	19746.5125
580.82422	20197.6125
584.84444	20766.3125
588.86181	21466.5125
592.87633	21961.9125
596.888	21831.9125
600.89682	21223.4125
604.9028	21098.5125
608.90594	22133.5125
612.90624	23338.0125
616.90371	22161.0125
620.89834	19408.7125
624.89015	18187.5125
628.87913	18055.2125
632.86528	18151.1125
636.84862	18122.0125
640.82913	17923.2125
644.80683	17607.3125
648.78172	17437.1125
652.75379	17411.0125
656.72306	17534.8125
660.68952	17698.8125
664.65319	17618.7125
668.61405	17450.0125
672.57211	17387.1125
676.52738	17480.4125
680.47986	17466.6125
684.42955	17413.1125
688.37646	17382.1125
692.32058	17458.2125
696.26192	17574.6125
700.20048	17798.4125
704.13626	17928.2125
708.06928	18005.2125
711.99952	17965.7125
715.927	17996.9125
719.85171	18012.8125
723.77365	17911.5125
727.69284	17711.3125
731.60928	17535.5125
735.52295	17463.0125
739.43388	17488.9125
743.34206	17497.3125
747.24749	17606.8125
751.15017	17719.7125
755.05012	17959.0125
758.94733	18364.0125
762.8418	19092.9125
766.73354	20155.6125
770.62254	21214.9125
774.50882	21438.5125
778.39237	20648.2125
782.27321	19488.9125
786.15132	18499.7125
790.02671	17925.6125
793.89938	17639.8125
797.76935	17533.9125
801.6366	17479.5125
805.50115	17447.3125
809.36299	17406.0125
813.22213	17340.8125
817.07857	17289.9125
820.93231	17228.0125
824.78336	17203.6125
828.63172	17155.7125
832.47738	17227.6125
836.32036	17245.8125
840.16066	17319.3125
843.99827	17311.9125
847.8332	17258.1125
851.66546	17190.5125
855.49504	17145.7125
859.32195	17157.9125
863.1462	17120.5125
866.96777	17126.1125
870.78668	17078.8125
874.60293	17068.8125
878.41652	17080.1125
882.22745	17140.9125
886.03573	17220.6125
889.84136	17189.4125
893.64433	17136.7125
897.44466	17088.2125
901.24235	17032.8125
905.0374	17004.4125
908.8298	17009.9125
912.61957	17034.7125
916.40671	17147.8125
920.19121	17338.8125
923.97308	17491.2125
927.75233	17505.7125
931.52895	17437.3125
935.30295	17250.1125
939.07433	17020.2125
942.84309	16795.0125
946.60924	16720.3125
950.37278	16616.4125
954.13371	16604.2125
957.89203	16552.2125
961.64774	16549.8125
965.40086	16557.9125
969.15137	16502.9125
972.89929	16454.2125
976.64461	16420.3125
980.38733	16386.0125
984.12747	16450.4125
987.86502	16570.1125
991.59999	16673.6125
995.33237	16870.9125
999.06217	17178.3125
1002.78939	17468.2125
1006.51404	17640.8125
1010.23611	17851.3125
1013.95561	18022.8125
1017.67255	18029.1125
1021.38692	17874.5125
1025.09872	17685.3125
1028.80796	17686.8125
1032.51465	17860.9125
1036.21877	18172.1125
1039.92035	18294.1125
1043.61937	18261.3125
1047.31584	18136.7125
1051.00976	17991.6125
1054.70114	17993.3125
1058.38998	18119.0125
1062.07627	18381.8125
1065.76003	18790.7125
1069.44126	19311.8125
1073.11995	19751.9125
1076.79611	19998.8125
1080.46974	19847.5125
1084.14085	19513.0125
1087.80943	19236.7125
1091.47549	19132.0125
1095.13903	19006.6125
1098.80005	18719.3125
1102.45857	18354.1125
1106.11456	18047.1125
1109.76805	17928.5125
1113.41903	17910.6125
1117.06751	17986.3125
1120.71348	18155.7125
1124.35696	18341.9125
1127.99793	18575.9125
1131.63641	18718.7125
1135.2724	18598.0125
1138.90589	18465.5125
1142.5369	18459.5125
1146.16542	18456.9125
1149.79145	18518.7125
1153.415	18647.4125
1157.03607	18822.5125
1160.65467	19186.3125
1164.27079	19811.3125
1167.88443	20665.7125
1171.49561	21713.7125
1175.10432	23061.4125
1178.71056	24715.0125
1182.31434	26144.1125
1185.91565	26774.6125
1189.51451	26411.6125
1193.11091	25545.5125
1196.70485	24642.0125
1200.29634	23684.4125
1203.88538	23068.4125
1207.47197	22714.1125
1211.05612	22389.9125
1214.63782	21999.1125
1218.21708	21597.2125
1221.79391	21235.2125
1225.36829	21006.7125
1228.94024	20813.2125
1232.50976	20572.3125
1236.07685	20328.6125
1239.6415	20169.4125
1243.20374	20168.8125
1246.76355	20298.6125
1250.32093	20563.4125
1253.8759	20923.4125
1257.42845	21353.7125
1260.97859	21863.5125
1264.52631	22351.9125
1268.07163	22828.1125
1271.61453	23370.0125
1275.15503	23908.3125
1278.69312	24492.1125
1282.22882	25049.4125
1285.76211	25729.0125
1289.29301	26624.4125
1292.82151	27580.1125
1296.34761	28788.1125
1299.87133	30210.8125
1303.39266	31726.7125
1306.9116	33219.0125
1310.42815	34474.5125
1313.94233	35151.7125
1317.45412	34907.0125
1320.96354	34239.4125
1324.47058	33433.3125
1327.97525	32826.8125
1331.47754	32360.1125
1334.97747	32043.8125
1338.47502	31714.6125
1341.97022	31419.8125
1345.46305	31098.7125
1348.95352	31007.5125
1352.44163	31297.3125
1355.92738	32290.4125
1359.41078	33734.9125
1362.89183	34935.1125
1366.37053	34492.5125
1369.84688	32205.0125
1373.32088	29144.5125
1376.79254	26978.6125
1380.26186	26034.6125
1383.72883	25763.4125
1387.19347	25551.6125
1390.65578	25205.0125
1394.11575	25058.1125
1397.57339	25228.2125
1401.0287	25457.1125
1404.48168	25659.7125
1407.93234	25577.5125
1411.38068	25214.1125
1414.82669	24572.7125
1418.27039	23771.9125
1421.71177	22968.7125
1425.15083	22293.1125
1428.58758	21921.4125
1432.02203	22070.4125
1435.45416	22431.7125
1438.88399	22883.1125
1442.31151	23273.5125
1445.73673	23456.8125
1449.15965	23642.1125
1452.58027	23748.5125
1455.9986	23731.7125
1459.41463	23867.6125
1462.82837	24186.0125
1466.23982	24613.5125
1469.64898	25068.8125
1473.05586	25365.2125
1476.46045	25534.8125
1479.86276	25566.8125
1483.26279	25524.5125
1486.66054	25574.4125
1490.05602	25829.3125
1493.44922	26186.9125
1496.84016	26587.8125
1500.22882	27104.2125
1503.61521	27934.5125
1506.99934	28867.8125
1510.38121	29540.3125
1513.76081	29535.4125
1517.13816	28799.0125
1520.51324	27745.9125
1523.88607	26804.0125
1527.25665	26291.8125
1530.62498	26072.7125
1533.99105	25918.6125
1537.35488	25680.0125
1540.71647	25277.3125
1544.07581	24726.1125
1547.4329	24211.5125
1550.78776	23772.6125
1554.14038	23483.9125
1557.49077	23324.5125
1560.83892	23275.2125
1564.18484	23384.8125
1567.52853	23697.3125
1570.86999	24230.0125
1574.20922	24958.0125
1577.54624	25710.7125
1580.88103	26029.0125
1584.2136	26019.5125
1587.54395	25947.1125
1590.87208	26277.0125
1594.19801	27067.7125
1597.52172	28057.3125
1600.84321	28457.6125
1604.16251	27594.1125
1607.47959	25894.2125
1610.79447	23984.5125
1614.10715	22219.5125
1617.41763	20858.6125
1620.7259	19921.1125
1624.03199	19478.4125
1627.33587	19431.6125
1630.63757	19832.2125
1633.93707	20739.1125
1637.23439	22285.7125
1640.52951	24545.9125
1643.82246	27337.9125
1647.11321	29835.0125
1650.40179	30581.7125
1653.68819	28936.4125
1656.97241	25878.5125
1660.25446	22743.2125
1663.53433	20394.8125
1666.81203	18810.9125
1670.08756	17790.3125
1673.36092	17156.6125
1676.63211	16724.5125
1679.90115	16433.8125
1683.16801	16229.1125
1686.43272	16088.9125
1689.69527	16000.3125
1692.95567	15906.0125
1696.2139	15836.7125
1699.46999	15823.4125
1702.72392	15807.4125
1705.97571	15765.6125
1709.22535	15710.3125
1712.47284	15651.0125
1715.71819	15659.5125
1718.96139	15619.3125
1722.20246	15587.1125
1725.44139	15548.4125
1728.67818	15482.4125
1731.91284	15416.6125
1735.14537	15368.1125
1738.37576	15314.8125
1741.60403	15273.9125
1744.83017	15217.1125
1748.05418	15224.3125
1751.27607	15210.7125
1754.49584	15175.4125
1757.71349	15156.0125
1760.92903	15172.0125
1764.14244	15162.6125
1767.35375	15153.0125
1770.56294	15141.6125
1773.77002	15134.7125
1776.97499	15097.2125
1780.17785	15051.4125
1783.37861	15031.9125
1786.57727	14979.2125
1789.77382	14984.2125
1792.96828	14940.3125
1796.16064	14921.0125
1799.3509	14908.8125
1802.53907	14890.9125
1805.72514	14840.1125
1808.90913	14808.0125
1812.09102	14779.4125
1815.27083	14737.8125
1818.44856	14747.3125
1821.6242	14721.0125
1824.79776	14717.3125
1827.96924	14718.6125
1831.13864	14703.3125
1834.30597	14732.1125
1837.47122	14709.5125
1840.6344	14697.6125
1843.7955	14693.2125
1846.95454	14672.1125
1850.11151	14668.9125
1853.26642	14644.5125
1856.41926	14666.4125
1859.57004	14638.3125
1862.71876	14637.9125
1865.86542	14615.4125
1869.01003	14598.8125
1872.15258	14609.4125
1875.29308	14570.6125
1878.43152	14549.0125
1881.56792	14540.5125
1884.70227	14542.7125
1887.83457	14494.1125
1890.96482	14533.4125
1894.09304	14471.6125
1897.21921	14488.1125
1900.34335	14475.5125
1903.46544	14473.3125
1906.58551	14429.2125
1909.70353	14413.7125
1912.81953	14416.5125
1915.93349	14384.5125
1919.04543	14330.6125
1922.15534	14335.9125
1925.26322	14294.1125
1928.36908	14296.6125
1931.47292	14263.6125
1934.57473	14218.6125
1937.67453	14213.9125
1940.77232	14168.7125
1943.86808	14156.1125
1946.96184	14109.8125
1950.05358	14086.3125
1953.14331	14041.9125
1956.23103	14011.0125
1959.31675	14019.2125
1962.40046	13968.1125
1965.48217	13903.8125
1968.56188	13874.0125
1971.63959	13839.7125
1974.7153	13797.4125
1977.78901	13773.9125
1980.86073	13697.0125
1983.93046	13666.6125
1986.99819	13631.6125
1990.06394	13633.5125
1993.1277	13571.7125
1996.18947	13529.9125
1999.24925	13480.3125
2002.30706	13479.0125
2005.36288	13408.5125
2008.41672	13407.0125
2011.46859	13366.0125
2014.51848	13334.0125
2017.56639	13305.9125
2020.61233	13292.5125
2023.6563	13295.7125
2026.6983	13229.8125
2029.73833	13217.8125
2032.7764	13188.3125
2035.8125	13171.7125
2038.84664	13119.5125
2041.87881	13109.9125
2044.90903	13107.2125
2047.93729	13087.0125
2050.96359	13065.8125
2053.98794	13050.0125
2057.01034	13022.1125
2060.03078	13031.8125
2063.04927	13036.7125
2066.06582	13024.1125
2069.08042	13011.9125
2072.09307	13026.0125
2075.10378	12998.1125
2078.11255	12960.7125
2081.11938	13003.1125
2084.12426	12995.0125
2087.12722	12971.3125
2090.12824	12969.3125
2093.12732	12999.6125
2096.12447	13002.7125
2099.11969	13001.4125
2102.11299	12989.3125
2105.10435	13002.4125
2108.09379	13023.9125
2111.08131	13051.6125
2114.0669	13034.9125
2117.05057	13031.2125
2120.03233	13042.6125
2123.01216	13065.4125
2125.99008	13043.0125
2128.96609	13083.7125
2131.94018	13103.7125
2134.91236	13105.3125
2137.88263	13119.7125
2140.851	13134.5125
2143.81746	13143.4125
2146.78201	13163.5125
2149.74466	13170.1125
2152.7054	13178.3125
2155.66425	13177.1125
2158.6212	13174.4125
2161.57625	13161.9125
2164.52941	13164.3125
2167.48067	13164.5125
2170.43004	13156.9125
2173.37752	13170.7125
2176.32311	13152.2125
2179.26681	13144.3125
2182.20863	13167.7125
2185.14856	13159.9125
2188.08661	13148.4125
2191.02278	13176.7125
2193.95707	13145.1125
2196.88948	13135.1125
2199.82001	13117.5125
2202.74867	13090.4125
2205.67545	13112.2125
2208.60037	13112.7125
2211.52341	13113.0125
2214.44458	13093.3125
2217.36388	13074.8125
2220.28132	13051.0125
2223.1969	12994.5125
2226.11061	13027.7125
2229.02246	13010.6125
2231.93245	12972.5125
2234.84058	12950.7125
2237.74686	12917.4125
2240.65128	12936.8125
2243.55385	12910.6125
2246.45456	12890.5125
2249.35343	12877.0125
2252.25044	12839.7125
2255.14561	12833.1125
2258.03893	12831.2125
2260.93041	12821.8125
2263.82004	12792.0125
2266.70783	12741.2125
2269.59378	12720.2125
2272.4779	12678.8125
2275.36017	12672.9125
2278.24061	12646.2125
2281.11922	12604.7125
2283.996	12617.1125
2286.87094	12603.2125
2289.74405	12588.3125
2292.61534	12560.1125
2295.4848	12553.2125
2298.35243	12586.0125
2301.21824	12564.0125
2304.08223	12556.5125
2306.94439	12528.5125
2309.80474	12559.8125
2312.66327	12535.4125
2315.51999	12534.6125
2318.37489	12537.1125
2321.22797	12496.6125
2324.07925	12489.0125
2326.92871	12464.3125
2329.77637	12488.7125
2332.62222	12489.9125
2335.46626	12437.6125
2338.3085	12460.8125
2341.14893	12431.6125
2343.98756	12438.6125
2346.8244	12409.8125
2349.65943	12422.4125
2352.49267	12400.8125
2355.32411	12431.6125
2358.15376	12389.9125
2360.98161	12391.9125
2363.80768	12404.2125
2366.63195	12396.7125
2369.45444	12370.7125
2372.27514	12349.3125
2375.09405	12360.8125
2377.91118	12338.0125
2380.72652	12297.3125
2383.54009	12295.0125
2386.35187	12276.8125
2389.16188	12226.8125
2391.97011	12228.9125
2394.77657	12214.4125
2397.58125	12197.8125
2400.38416	12167.4125
2403.18529	12153.3125
2405.98466	12119.1125
2408.78226	12142.2125
2411.57809	12121.1125
2414.37216	12094.3125
2417.16446	12081.7125
2419.955	12052.4125
2422.74378	12077.1125
2425.5308	12042.6125
2428.31606	12039.6125
2431.09956	12027.3125
2433.88131	12026.7125
2436.6613	12051.7125
2439.43954	12011.2125
2442.21603	11983.7125
2444.99077	11984.1125
2447.76377	11983.8125
2450.53501	11991.6125
2453.30451	11978.4125
2456.07226	11954.6125
2458.83827	11952.6125
2461.60254	11960.3125
2464.36507	11953.9125
2467.12586	11962.4125
2469.88492	11967.8125
2472.64224	11962.4125
2475.39782	11935.1125
2478.15167	11950.6125
2480.90379	11941.7125
2483.65417	11961.1125
2486.40283	11923.2125
2489.14976	11954.4125
2491.89497	11961.1125
2494.63845	11963.2125
2497.3802	11953.0125
2500.12024	11926.0125
2502.85855	11922.9125
2505.59514	11910.2125
2508.33002	11933.1125
2511.06318	11870.4125
2513.79462	11884.8125
2516.52435	11849.3125
2519.25237	11861.8125
2521.97867	11859.7125
2524.70327	11821.5125
2527.42616	11828.0125
2530.14734	11811.4125
2532.86681	11792.7125
2535.58458	11772.9125
2538.30065	11785.6125
2541.01501	11773.5125
2543.72768	11787.0125
2546.43864	11760.7125
2549.14791	11747.1125
2551.85548	11725.9125
2554.56136	11703.0125
2557.26554	11691.4125
2559.96803	11701.9125
2562.66883	11670.0125
2565.36794	11696.8125
2568.06536	11673.4125
2570.7611	11675.5125
2573.45514	11672.7125
2576.14751	11654.1125
2578.83819	11608.5125
2581.52719	11642.8125
2584.21451	11615.8125
2586.90015	11624.4125
2589.58411	11597.1125
2592.2664	11576.0125
2594.94701	11526.3125
2597.62594	11527.8125
2600.30321	11509.1125
2602.9788	11493.7125
2605.65273	11509.5125
2608.32498	11479.6125
2610.99557	11448.9125
2613.66449	11436.6125
2616.33175	11462.8125
2618.99734	11452.3125
2621.66128	11433.4125
2624.32355	11435.5125
2626.98416	11416.1125
2629.64311	11435.8125
2632.30041	11454.6125
2634.95605	11421.0125
2637.61004	11417.3125
2640.26238	11386.4125
2642.91306	11396.3125
2645.56209	11394.3125
2648.20948	11389.1125
2650.85521	11368.3125
2653.4993	11349.4125
2656.14175	11351.7125
2658.78255	11371.7125
2661.42171	11349.3125
2664.05923	11379.0125
2666.6951	11392.2125
2669.32934	11404.8125
2671.96194	11367.6125
2674.59291	11375.1125
2677.22224	11352.3125
2679.84993	11369.3125
2682.476	11364.5125
2685.10043	11354.7125
2687.72324	11354.6125
2690.34441	11426.9125
2692.96396	11387.7125
2695.58188	11338.0125
2698.19818	11359.4125
2700.81285	11388.7125
2703.4259	11354.0125
2706.03733	11437.3125
2708.64714	11420.4125
2711.25533	11416.7125
2713.86191	11412.7125
2716.46687	11441.8125
2719.07021	11414.2125
2721.67194	11416.9125
2724.27206	11420.5125
2726.87057	11426.3125
2729.46747	11423.2125
2732.06276	11431.2125
2734.65644	11388.9125
2737.24852	11433.2125
2739.83899	11381.1125
2742.42786	11403.2125
2745.01513	11382.2125
2747.60079	11383.9125
2750.18486	11371.5125
2752.76733	11373.6125
2755.3482	11368.4125
2757.92747	11375.0125
2760.50515	11361.9125
2763.08123	11337.6125
2765.65573	11328.1125
2768.22863	11340.9125
2770.79994	11328.5125
2773.36967	11330.3125
2775.9378	11324.0125
2778.50435	11317.9125
2781.06932	11269.5125
2783.6327	11298.6125
2786.1945	11234.7125
2788.75471	11251.6125
2791.31335	11240.5125
2793.87041	11201.5125
2796.42589	11201.3125
2798.97979	11204.9125
2801.53212	11193.7125
2804.08288	11190.7125
2806.63206	11139.9125
2809.17967	11112.3125
2811.72571	11105.6125
2814.27018	11081.5125
2816.81308	11054.0125
2819.35442	11069.1125
2821.89419	11055.6125
2824.43239	11078.4125
2826.96904	11043.7125
2829.50412	11022.5125
2832.03763	11003.3125
2834.56959	11025.5125
2837.1	11005.1125
2839.62884	11024.3125
2842.15613	11029.1125
2844.68186	11056.8125
2847.20604	11043.1125
2849.72867	11031.6125
2852.24974	11050.6125
2854.76927	11026.5125
2857.28724	11041.4125
2859.80367	11016.2125
2862.31855	11027.1125
2864.83189	11003.0125
2867.34368	10967.0125
2869.85393	10972.6125
2872.36264	10996.6125
2874.8698	10999.7125
2877.37543	10988.9125
2879.87952	10981.4125
2882.38207	10976.3125
2884.88308	10985.4125
2887.38256	10992.5125
2889.88051	10988.3125
2892.37692	10974.0125
2894.8718	10995.4125
2897.36515	10994.8125
2899.85698	10997.5125
2902.34727	11025.3125
2904.83604	11011.8125
2907.32328	11028.4125
2909.809	11012.3125
2912.29319	11050.9125
2914.77587	11061.9125
2917.25702	11050.6125
2919.73665	11019.0125
2922.21476	10999.5125
2924.69136	11018.6125
2927.16644	11012.5125
2929.64	10989.3125
2932.11205	10999.1125
2934.58258	10975.2125
2937.05161	11019.8125
2939.51912	11012.1125
2941.98513	11002.7125
2944.44962	10970.4125
2946.91261	10932.6125
2949.37409	10954.9125
2951.83407	10942.8125
2954.29254	10947.7125
2956.74951	10912.5125
2959.20498	10902.4125
2961.65895	10927.0125
2964.11142	10910.4125
2966.56239	10898.9125
2969.01186	10902.0125
2971.45984	10847.4125
2973.90632	10829.1125
2976.35131	10803.6125
2978.7948	10797.5125
2981.23681	10748.1125
2983.67732	10769.0125
2986.11635	10749.8125
2988.55388	10705.0125
2990.98993	10695.7125
2993.4245	10683.2125
2995.85758	10687.4125
2998.28917	10646.0125
3000.71928	10658.5125
3003.14791	10632.1125
3005.57506	10625.0125
3008.00073	10601.4125
3010.42493	10612.6125
3012.84764	10595.1125
3015.26888	10571.5125
3017.68865	10555.0125
3020.10694	10526.3125
3022.52376	10526.5125
3024.9391	10523.1125
