Data from AgNP_FTO_APTES_CRN_10uM_R6G_10uM_NaF_0.1M_Addition_RamanShift__15__16-32-27-970.txt Node

Date: Wed Dec 15 16:32:27 GMT 2021
User: TCL
Spectrometer: QEP01345
Trigger mode: 4
Integration Time (sec): 7.000000E0
Scans to average: 10
Electric dark correction enabled: true
Nonlinearity correction enabled: false
Boxcar width: 0
XAxis mode: Raman Shifts
Number of Pixels in Spectrum: 1044
>>>>>Begin Spectral Data<<<<<
46.04893	1.45
50.45542	-0.85
54.85868	-0.25
59.25871	-1.85
63.6555	80.65
68.04907	84.15
72.43941	87.15
76.82654	91.15
81.21044	97.05
85.59113	101.15
89.96862	106.35
94.34289	100.95
98.71396	112.75
103.08183	116.95
107.4465	119.15
111.80798	117.15
116.16626	123.55
120.52136	131.45
124.87327	132.05
129.222	136.75
133.56755	145.25
137.90993	155.75
142.24913	167.25
146.58517	188.85
150.91804	215.55
155.24774	255.15
159.57429	318.15
163.89768	406.85
168.21792	522.85
172.53501	713.65
176.84895	996.35
181.15975	1392.95
185.46741	1950.75
189.77193	2689.05
194.07331	3608.45
198.37157	4700.85
202.6667	5825.95
206.9587	6955.95
211.24758	8085.75
215.53334	9214.95
219.81599	10335.25
224.09553	11622.55
228.37195	12987.35
232.64527	14546.55
236.91549	16210.85
241.18261	17898.25
245.44663	19557.75
249.70755	21031.45
253.96539	22245.75
258.22014	23258.55
262.4718	24058.45
266.72039	24502.05
270.96589	24728.35
275.20832	24763.65
279.44768	24598.85
283.68397	24389.75
287.91719	24224.95
292.14735	24119.45
296.37445	24002.95
300.59849	23930.05
304.81948	23847.95
309.03742	23710.85
313.25231	23505.65
317.46415	23044.15
321.67296	22583.35
325.87872	22126.95
330.08145	21949.75
334.28114	21943.15
338.47781	22097.05
342.67145	22313.25
346.86207	22605.05
351.04966	22894.55
355.23424	23236.45
359.4158	23467.45
363.59435	23650.15
367.76989	23788.15
371.94243	23874.95
376.11196	23862.15
380.27849	23878.65
384.44203	23893.05
388.60257	24002.55
392.76012	24243.35
396.91468	24486.75
401.06626	24806.85
405.21485	25101.15
409.36047	25086.15
413.50311	24874.55
417.64277	24680.55
421.77947	24603.65
425.9132	24726.25
430.04396	24863.15
434.17176	24988.15
438.2966	25115.95
442.41849	25268.25
446.53742	25536.65
450.6534	25876.25
454.76644	26129.25
458.87653	26315.05
462.98368	26411.45
467.08789	26354.95
471.18916	26325.05
475.2875	26174.95
479.38291	26073.65
483.4754	25948.45
487.56496	25828.65
491.6516	25663.25
495.73531	25537.75
499.81612	25440.15
503.89401	25581.45
507.96899	25679.75
512.04106	25749.25
516.11023	25741.25
520.1765	25697.75
524.23987	25572.05
528.30034	25466.55
532.35792	25254.75
536.41261	25030.95
540.46441	24864.85
544.51333	24881.05
548.55936	25143.85
552.60252	25544.95
556.64279	25889.35
560.6802	26128.55
564.71473	26265.15
568.7464	26524.95
572.7752	27032.45
576.80114	27563.55
580.82422	28205.55
584.84444	28597.75
588.86181	28771.75
592.87633	28524.85
596.888	28301.35
600.89682	28147.85
604.9028	28526.95
608.90594	29723.45
612.90624	30965.65
616.90371	29695.65
620.89834	26738.25
624.89015	25320.55
628.87913	25126.75
632.86528	25361.25
636.84862	25475.65
640.82913	25331.45
644.80683	24922.75
648.78172	24583.85
652.75379	24492.15
656.72306	24581.95
660.68952	24826.45
664.65319	24852.55
668.61405	24723.25
672.57211	24685.45
676.52738	24694.95
680.47986	24685.15
684.42955	24644.15
688.37646	24602.45
692.32058	24654.75
696.26192	24785.65
700.20048	24994.15
704.13626	25192.55
708.06928	25377.65
711.99952	25376.05
715.927	25301.45
719.85171	25203.85
723.77365	25002.25
727.69284	24754.85
731.60928	24527.85
735.52295	24415.55
739.43388	24349.65
743.34206	24371.55
747.24749	24486.05
751.15017	24601.75
755.05012	24914.25
758.94733	25370.75
762.8418	26344.65
766.73354	27723.05
770.62254	29023.35
774.50882	29124.15
778.39237	28157.65
782.27321	26835.55
786.15132	25709.55
790.02671	24969.35
793.89938	24524.55
797.76935	24378.55
801.6366	24271.45
805.50115	24188.75
809.36299	24141.65
813.22213	24034.65
817.07857	24001.75
820.93231	24007.35
824.78336	23991.45
828.63172	24002.05
832.47738	24060.65
836.32036	24047.55
840.16066	24035.45
843.99827	24017.25
847.8332	23904.15
851.66546	23894.95
855.49504	23941.35
859.32195	23896.65
863.1462	23876.55
866.96777	23854.05
870.78668	23840.25
874.60293	23905.25
878.41652	23872.35
882.22745	23964.25
886.03573	24008.05
889.84136	24060.25
893.64433	24061.55
897.44466	24035.35
901.24235	24027.35
905.0374	24028.25
908.8298	24017.25
912.61957	24109.05
916.40671	24308.75
920.19121	24447.05
923.97308	24571.85
927.75233	24499.35
931.52895	24370.05
935.30295	24157.75
939.07433	23878.05
942.84309	23579.85
946.60924	23442.95
950.37278	23309.85
954.13371	23230.95
957.89203	23236.85
961.64774	23177.65
965.40086	23165.65
969.15137	23115.45
972.89929	23038.25
976.64461	22980.45
980.38733	22926.05
984.12747	22928.15
987.86502	22951.75
991.59999	23000.25
995.33237	23099.95
999.06217	23313.05
1002.78939	23536.45
1006.51404	23832.35
1010.23611	24159.85
1013.95561	24366.05
1017.67255	24306.85
1021.38692	24126.25
1025.09872	23948.65
1028.80796	23779.25
1032.51465	23712.15
1036.21877	23769.25
1039.92035	23884.25
1043.61937	24017.65
1047.31584	24217.35
1051.00976	24396.15
1054.70114	24625.55
1058.38998	25009.75
1062.07627	25524.85
1065.76003	26160.05
1069.44126	26876.05
1073.11995	27441.55
1076.79611	27733.25
1080.46974	27565.65
1084.14085	27073.35
1087.80943	26715.45
1091.47549	26446.95
1095.13903	26306.75
1098.80005	26078.95
1102.45857	25619.65
1106.11456	25145.55
1109.76805	24798.15
1113.41903	24635.65
1117.06751	24631.35
1120.71348	24766.15
1124.35696	24996.05
1127.99793	25285.35
1131.63641	25477.05
1135.2724	25432.45
1138.90589	25338.75
1142.5369	25268.25
1146.16542	25292.65
1149.79145	25338.65
1153.415	25429.45
1157.03607	25665.75
1160.65467	26032.15
1164.27079	26615.85
1167.88443	27454.75
1171.49561	28528.75
1175.10432	29814.15
1178.71056	31507.75
1182.31434	33046.05
1185.91565	34040.25
1189.51451	34389.05
1193.11091	34143.55
1196.70485	33293.95
1200.29634	32057.15
1203.88538	31023.15
1207.47197	30272.15
1211.05612	29619.85
1214.63782	29127.25
1218.21708	28654.65
1221.79391	28116.55
1225.36829	27669.65
1228.94024	27504.75
1232.50976	27385.35
1236.07685	27401.05
1239.6415	27455.65
1243.20374	27479.05
1246.76355	27620.55
1250.32093	27800.05
1253.8759	28162.25
1257.42845	28685.55
1260.97859	29225.25
1264.52631	29840.75
1268.07163	30360.95
1271.61453	30861.35
1275.15503	31351.85
1278.69312	31842.15
1282.22882	32307.35
1285.76211	32887.55
1289.29301	33517.85
1292.82151	34240.25
1296.34761	35056.65
1299.87133	36018.15
1303.39266	37089.45
1306.9116	38095.35
1310.42815	39098.05
1313.94233	39687.05
1317.45412	39843.75
1320.96354	39781.45
1324.47058	39894.95
1327.97525	40178.05
1331.47754	40366.75
1334.97747	40636.05
1338.47502	41049.45
1341.97022	41595.85
1345.46305	42113.95
1348.95352	42298.15
1352.44163	42176.65
1355.92738	41821.95
1359.41078	41672.15
1362.89183	41691.95
1366.37053	40879.95
1369.84688	38861.35
1373.32088	36461.85
1376.79254	34608.45
1380.26186	33559.95
1383.72883	33000.15
1387.19347	32631.15
1390.65578	32206.95
1394.11575	31778.55
1397.57339	31466.85
1401.0287	31267.85
1404.48168	31112.15
1407.93234	30882.45
1411.38068	30470.75
1414.82669	29893.65
1418.27039	29118.95
1421.71177	28412.85
1425.15083	27856.85
1428.58758	27506.55
1432.02203	27549.55
1435.45416	27748.65
1438.88399	28059.25
1442.31151	28360.65
1445.73673	28708.25
1449.15965	29092.15
1452.58027	29440.75
1455.9986	29710.15
1459.41463	30004.55
1462.82837	30454.95
1466.23982	30983.15
1469.64898	31473.05
1473.05586	31803.55
1476.46045	31978.35
1479.86276	32075.55
1483.26279	32150.75
1486.66054	32267.65
1490.05602	32562.15
1493.44922	33157.45
1496.84016	34001.85
1500.22882	35193.05
1503.61521	36633.55
1506.99934	38052.85
1510.38121	38838.75
1513.76081	38783.75
1517.13816	37943.65
1520.51324	36906.45
1523.88607	35925.55
1527.25665	35234.35
1530.62498	34794.95
1533.99105	34402.15
1537.35488	33835.45
1540.71647	33134.25
1544.07581	32430.55
1547.4329	31783.55
1550.78776	31257.55
1554.14038	30998.45
1557.49077	30982.85
1560.83892	31142.65
1564.18484	31420.75
1567.52853	31840.05
1570.86999	32341.85
1574.20922	33035.85
1577.54624	33770.45
1580.88103	34182.55
1584.2136	34173.65
1587.54395	33678.75
1590.87208	33084.45
1594.19801	32978.95
1597.52172	33369.85
1600.84321	33318.75
1604.16251	32470.55
1607.47959	31253.55
1610.79447	29950.85
1614.10715	28628.65
1617.41763	27313.35
1620.7259	26293.25
1624.03199	25585.45
1627.33587	25430.75
1630.63757	25643.65
1633.93707	26427.55
1637.23439	27806.45
1640.52951	29812.15
1643.82246	32258.05
1647.11321	34491.15
1650.40179	35626.65
1653.68819	34805.35
1656.97241	32389.25
1660.25446	29349.65
1663.53433	26778.05
1666.81203	24856.85
1670.08756	23577.35
1673.36092	22700.55
1676.63211	22148.55
1679.90115	21756.85
1683.16801	21480.35
1686.43272	21314.75
1689.69527	21150.25
1692.95567	21041.25
1696.2139	20932.85
1699.46999	20897.85
1702.72392	20856.75
1705.97571	20800.45
1709.22535	20726.65
1712.47284	20656.85
1715.71819	20590.75
1718.96139	20571.95
1722.20246	20481.35
1725.44139	20439.95
1728.67818	20347.35
1731.91284	20229.35
1735.14537	20161.75
1738.37576	20084.95
1741.60403	20028.65
1744.83017	19971.25
1748.05418	19933.85
1751.27607	19909.85
1754.49584	19867.35
1757.71349	19887.75
1760.92903	19903.25
1764.14244	19876.35
1767.35375	19798.75
1770.56294	19789.35
1773.77002	19798.25
1776.97499	19763.65
1780.17785	19646.65
1783.37861	19613.75
1786.57727	19572.75
1789.77382	19521.65
1792.96828	19478.15
1796.16064	19455.25
1799.3509	19414.05
1802.53907	19379.75
1805.72514	19290.15
1808.90913	19272.55
1812.09102	19211.15
1815.27083	19156.05
1818.44856	19145.45
1821.6242	19124.45
1824.79776	19087.45
1827.96924	19109.85
1831.13864	19117.85
1834.30597	19145.55
1837.47122	19110.35
1840.6344	19104.95
1843.7955	19068.35
1846.95454	19059.95
1850.11151	19094.05
1853.26642	19052.75
1856.41926	19058.25
1859.57004	19017.65
1862.71876	18992.25
1865.86542	18979.35
1869.01003	18929.55
1872.15258	18942.65
1875.29308	18861.55
1878.43152	18779.95
1881.56792	18775.95
1884.70227	18714.05
1887.83457	18730.25
1890.96482	18657.55
1894.09304	18619.75
1897.21921	18632.45
1900.34335	18591.85
1903.46544	18542.65
1906.58551	18515.35
1909.70353	18492.75
1912.81953	18471.45
1915.93349	18396.35
1919.04543	18369.55
1922.15534	18335.45
1925.26322	18316.65
1928.36908	18268.55
1931.47292	18221.65
1934.57473	18158.65
1937.67453	18113.55
1940.77232	18126.75
1943.86808	18044.65
1946.96184	17991.75
1950.05358	17951.95
1953.14331	17926.45
1956.23103	17847.05
1959.31675	17804.35
1962.40046	17754.45
1965.48217	17678.65
1968.56188	17641.45
1971.63959	17559.65
1974.7153	17497.65
1977.78901	17433.75
1980.86073	17378.05
1983.93046	17340.15
1986.99819	17280.05
1990.06394	17230.85
1993.1277	17180.55
1996.18947	17127.45
1999.24925	17061.85
2002.30706	17046.15
2005.36288	16990.85
2008.41672	16935.35
2011.46859	16883.55
2014.51848	16830.85
2017.56639	16780.05
2020.61233	16730.05
2023.6563	16683.05
2026.6983	16632.35
2029.73833	16628.45
2032.7764	16545.85
2035.8125	16522.35
2038.84664	16417.25
2041.87881	16418.05
2044.90903	16386.35
2047.93729	16327.75
2050.96359	16318.45
2053.98794	16323.05
2057.01034	16289.75
2060.03078	16272.65
2063.04927	16261.35
2066.06582	16245.75
2069.08042	16241.15
2072.09307	16199.45
2075.10378	16184.95
2078.11255	16166.75
2081.11938	16190.65
2084.12426	16155.45
2087.12722	16155.65
2090.12824	16137.65
2093.12732	16139.95
2096.12447	16165.55
2099.11969	16165.45
2102.11299	16150.35
2105.10435	16174.05
2108.09379	16168.25
2111.08131	16211.85
2114.0669	16225.65
2117.05057	16203.75
2120.03233	16184.95
2123.01216	16194.65
2125.99008	16206.05
2128.96609	16210.05
2131.94018	16230.95
2134.91236	16261.65
2137.88263	16244.55
2140.851	16239.65
2143.81746	16238.25
2146.78201	16233.85
2149.74466	16246.25
2152.7054	16246.45
2155.66425	16254.35
2158.6212	16249.85
2161.57625	16221.35
2164.52941	16221.35
2167.48067	16227.75
2170.43004	16200.55
2173.37752	16194.45
2176.32311	16200.35
2179.26681	16154.35
2182.20863	16171.05
2185.14856	16151.75
2188.08661	16157.75
2191.02278	16168.85
2193.95707	16125.05
2196.88948	16081.55
2199.82001	16104.15
2202.74867	16074.95
2205.67545	16062.85
2208.60037	16047.35
2211.52341	16032.65
2214.44458	15979.25
2217.36388	15950.95
2220.28132	15939.95
2223.1969	15861.55
2226.11061	15860.45
2229.02246	15825.05
2231.93245	15804.25
2234.84058	15769.35
2237.74686	15757.65
2240.65128	15731.55
2243.55385	15731.35
2246.45456	15663.75
2249.35343	15644.85
2252.25044	15589.85
2255.14561	15574.45
2258.03893	15553.45
2260.93041	15551.65
2263.82004	15486.75
2266.70783	15466.55
2269.59378	15433.85
2272.4779	15384.65
2275.36017	15343.75
2278.24061	15257.65
2281.11922	15273.05
2283.996	15227.85
2286.87094	15221.65
2289.74405	15168.75
2292.61534	15131.95
2295.4848	15110.55
2298.35243	15101.25
2301.21824	15066.45
2304.08223	15070.65
2306.94439	15074.75
2309.80474	15020.25
2312.66327	15035.65
2315.51999	14993.95
2318.37489	14993.05
2321.22797	14967.75
2324.07925	14936.65
2326.92871	14900.45
2329.77637	14891.45
2332.62222	14892.15
2335.46626	14848.55
2338.3085	14851.55
2341.14893	14815.15
2343.98756	14796.55
2346.8244	14794.15
2349.65943	14801.85
2352.49267	14765.35
2355.32411	14788.65
2358.15376	14779.45
2360.98161	14718.25
2363.80768	14736.85
2366.63195	14714.15
2369.45444	14703.35
2372.27514	14660.85
2375.09405	14663.55
2377.91118	14651.45
2380.72652	14598.15
2383.54009	14593.95
2386.35187	14583.05
2389.16188	14483.95
2391.97011	14493.95
2394.77657	14473.65
2397.58125	14434.05
2400.38416	14402.95
2403.18529	14386.25
2405.98466	14351.25
2408.78226	14321.05
2411.57809	14304.95
2414.37216	14299.45
2417.16446	14291.05
2419.955	14258.45
2422.74378	14236.65
2425.5308	14225.95
2428.31606	14185.85
2431.09956	14184.45
2433.88131	14151.35
2436.6613	14150.85
2439.43954	14136.05
2442.21603	14111.55
2444.99077	14079.65
2447.76377	14087.55
2450.53501	14082.45
2453.30451	14071.75
2456.07226	14045.55
2458.83827	14010.35
2461.60254	14001.35
2464.36507	13990.85
2467.12586	13972.15
2469.88492	13978.05
2472.64224	13949.45
2475.39782	13948.15
2478.15167	13948.15
2480.90379	13904.35
2483.65417	13911.05
2486.40283	13915.15
2489.14976	13909.05
2491.89497	13895.85
2494.63845	13900.15
2497.3802	13873.55
2500.12024	13840.35
2502.85855	13835.85
2505.59514	13851.05
2508.33002	13800.75
2511.06318	13799.85
2513.79462	13769.65
2516.52435	13756.85
2519.25237	13721.35
2521.97867	13729.05
2524.70327	13704.25
2527.42616	13693.75
2530.14734	13670.55
2532.86681	13649.25
2535.58458	13632.95
2538.30065	13581.65
2541.01501	13602.35
2543.72768	13575.85
2546.43864	13538.85
2549.14791	13552.95
2551.85548	13491.35
2554.56136	13473.15
2557.26554	13476.85
2559.96803	13453.65
2562.66883	13436.45
2565.36794	13428.55
2568.06536	13400.55
2570.7611	13381.35
2573.45514	13346.45
2576.14751	13324.35
2578.83819	13263.55
2581.52719	13273.25
2584.21451	13245.45
2586.90015	13216.75
2589.58411	13181.55
2592.2664	13177.85
2594.94701	13135.05
2597.62594	13101.45
2600.30321	13090.15
2602.9788	13070.95
2605.65273	13046.85
2608.32498	13021.95
2610.99557	13023.25
2613.66449	12981.35
2616.33175	12967.65
2618.99734	12936.55
2621.66128	12952.55
2624.32355	12917.85
2626.98416	12899.75
2629.64311	12903.65
2632.30041	12908.55
2634.95605	12873.75
2637.61004	12826.35
2640.26238	12819.55
2642.91306	12794.35
2645.56209	12785.85
2648.20948	12794.95
2650.85521	12820.95
2653.4993	12786.65
2656.14175	12779.75
2658.78255	12773.85
2661.42171	12743.65
2664.05923	12759.75
2666.6951	12743.65
2669.32934	12747.45
2671.96194	12706.35
2674.59291	12720.55
2677.22224	12721.35
2679.84993	12727.05
2682.476	12711.85
2685.10043	12722.95
2687.72324	12704.05
2690.34441	12740.75
2692.96396	12733.55
2695.58188	12723.05
2698.19818	12699.15
2700.81285	12747.15
2703.4259	12729.55
2706.03733	12802.85
2708.64714	12756.55
2711.25533	12765.05
2713.86191	12720.55
2716.46687	12737.95
2719.07021	12708.95
2721.67194	12707.65
2724.27206	12688.35
2726.87057	12657.05
2729.46747	12695.55
2732.06276	12680.55
2734.65644	12685.85
2737.24852	12664.95
2739.83899	12656.75
2742.42786	12643.15
2745.01513	12612.25
2747.60079	12585.95
2750.18486	12589.35
2752.76733	12620.75
2755.3482	12597.45
2757.92747	12584.85
2760.50515	12551.25
2763.08123	12549.95
2765.65573	12489.15
2768.22863	12496.55
2770.79994	12460.45
2773.36967	12455.25
2775.9378	12421.55
2778.50435	12422.05
2781.06932	12368.95
2783.6327	12398.95
2786.1945	12367.45
2788.75471	12356.55
2791.31335	12320.25
2793.87041	12297.65
2796.42589	12236.75
2798.97979	12250.95
2801.53212	12231.85
2804.08288	12207.65
2806.63206	12171.75
2809.17967	12180.65
2811.72571	12112.65
2814.27018	12124.25
2816.81308	12057.75
2819.35442	12079.15
2821.89419	12065.15
2824.43239	12073.25
2826.96904	12038.75
2829.50412	12022.25
2832.03763	11997.65
2834.56959	11977.05
2837.1	11953.85
2839.62884	11959.35
2842.15613	11948.65
2844.68186	11990.35
2847.20604	11959.35
2849.72867	11958.75
2852.24974	11932.65
2854.76927	11959.65
2857.28724	11935.85
2859.80367	11934.85
2862.31855	11919.85
2864.83189	11875.05
2867.34368	11868.75
2869.85393	11862.85
2872.36264	11860.55
2874.8698	11839.45
2877.37543	11840.35
2879.87952	11842.55
2882.38207	11805.55
2884.88308	11821.55
2887.38256	11830.15
2889.88051	11822.95
2892.37692	11809.05
2894.8718	11778.05
2897.36515	11801.05
2899.85698	11762.55
2902.34727	11809.05
2904.83604	11795.35
2907.32328	11783.95
2909.809	11796.95
2912.29319	11796.05
2914.77587	11797.65
2917.25702	11798.65
2919.73665	11770.15
2922.21476	11767.65
2924.69136	11762.35
2927.16644	11769.45
2929.64	11744.75
2932.11205	11753.95
2934.58258	11705.85
2937.05161	11726.45
2939.51912	11721.05
2941.98513	11686.25
2944.44962	11650.85
2946.91261	11604.65
2949.37409	11638.75
2951.83407	11604.15
2954.29254	11603.35
2956.74951	11605.45
2959.20498	11580.95
2961.65895	11552.95
2964.11142	11570.25
2966.56239	11537.25
2969.01186	11509.15
2971.45984	11464.45
2973.90632	11447.05
2976.35131	11401.95
2978.7948	11401.25
2981.23681	11382.55
2983.67732	11389.35
2986.11635	11350.15
2988.55388	11303.75
2990.98993	11312.15
2993.4245	11261.55
2995.85758	11248.45
2998.28917	11217.55
3000.71928	11191.45
3003.14791	11192.65
3005.57506	11161.05
3008.00073	11133.65
3010.42493	11124.55
3012.84764	11098.35
3015.26888	11086.05
3017.68865	11035.85
3020.10694	11052.95
3022.52376	11029.05
3024.9391	11028.75
3027.35298	11014.35
3029.76539	11008.15
3032.17632	11002.15
3034.5858	10961.05
3036.9938	10953.65
3039.40034	10918.75
3041.80542	10892.55
3044.20903	10865.55
3046.61118	10866.85
3049.01187	10867.75
3051.4111	10842.95
3053.80888	10833.45
3056.20519	10791.95
3058.60005	10792.75
3060.99345	10776.55
3063.3854	10734.55
3065.7759	10716.05
3068.16494	10701.55
3070.55254	10642.75
3072.93868	10650.15
3075.32338	10630.95
3077.70662	10581.25
3080.08842	10556.15
3082.46878	10557.55
3084.84769	10530.55
3087.22515	10537.25
3089.60118	10537.85
3091.97576	10517.65
3094.3489	10545.45
3096.72061	10513.55
3099.09087	10530.15
3101.4597	10510.95
3103.82709	10499.55
3106.19305	10450.75
3108.55757	10484.35
3110.92066	10452.85
3113.28232	10422.95
3115.64255	10384.25
3118.00134	10368.95
3120.35871	10367.05
3122.71466	10358.35
3125.06917	10328.55
3127.42226	10323.25
3129.77393	10320.25
3132.12417	10335.35
3134.47299	10313.25
3136.82039	10330.75
3139.16636	10324.65
3141.51092	10344.55
3143.85406	10318.35
3146.19579	10330.85
3148.53609	10327.85
3150.87499	10327.25
3153.21246	10330.25
3155.54853	10346.85
3157.88318	10335.45
3160.21642	10329.15
3162.54826	10335.35
3164.87868	10319.75
3167.2077	10331.75
3169.5353	10327.95
3171.86151	10314.95
3174.18631	10295.15
3176.5097	10304.35
3178.83169	10267.45
3181.15228	10264.15
3183.47147	10237.45
3185.78926	10256.15
3188.10565	10228.15
3190.42065	10220.45
3192.73424	10224.35
3195.04645	10199.05
3197.35725	10225.05
3199.66667	10192.05
3201.97469	10237.85
3204.28132	10220.85
3206.58656	10226.05
3208.8904	10242.55
3211.19287	10229.25
3213.49394	10204.95
3215.79363	10194.75
3218.09193	10216.25
3220.38884	10238.15
3222.68438	10236.85
3224.97853	10207.55
3227.2713	10193.25
3229.56269	10179.15
3231.8527	10148.45
3234.14133	10115.85
3236.42858	10098.25
3238.71446	10098.85
