Data from AgNP_FTO_APTES_CRN_0uM_R6G_10uM_NaF_0.1M_Addition_RamanShift__5__11-35-32-899.txt Node

Date: Wed Dec 15 11:35:32 GMT 2021
User: TCL
Spectrometer: QEP01345
Trigger mode: 4
Integration Time (sec): 7.000000E0
Scans to average: 10
Electric dark correction enabled: true
Nonlinearity correction enabled: false
Boxcar width: 0
XAxis mode: Raman Shifts
Number of Pixels in Spectrum: 1044
>>>>>Begin Spectral Data<<<<<
46.04893	2.0625
50.45542	-0.3375
54.85868	0.9625
59.25871	0.2625
63.6555	72.8625
68.04907	83.9625
72.43941	87.2625
76.82654	97.4625
81.21044	108.0625
85.59113	108.5625
89.96862	114.1625
94.34289	119.6625
98.71396	124.1625
103.08183	128.5625
107.4465	133.4625
111.80798	130.8625
116.16626	127.7625
120.52136	132.3625
124.87327	127.5625
129.222	126.4625
133.56755	126.8625
137.90993	129.1625
142.24913	127.6625
146.58517	128.5625
150.91804	136.9625
155.24774	143.3625
159.57429	154.7625
163.89768	176.4625
168.21792	203.6625
172.53501	240.6625
176.84895	301.3625
181.15975	383.2625
185.46741	515.6625
189.77193	707.1625
194.07331	940.0625
198.37157	1212.5625
202.6667	1524.1625
206.9587	1836.7625
211.24758	2157.8625
215.53334	2459.8625
219.81599	2795.6625
224.09553	3140.6625
228.37195	3509.8625
232.64527	3912.9625
236.91549	4310.4625
241.18261	4706.1625
245.44663	5056.7625
249.70755	5338.3625
253.96539	5545.6625
258.22014	5683.3625
262.4718	5733.2625
266.72039	5718.9625
270.96589	5643.7625
275.20832	5491.4625
279.44768	5316.7625
283.68397	5133.2625
287.91719	4942.8625
292.14735	4792.7625
296.37445	4688.2625
300.59849	4633.5625
304.81948	4587.1625
309.03742	4540.2625
313.25231	4530.4625
317.46415	4485.7625
321.67296	4430.3625
325.87872	4369.1625
330.08145	4340.3625
334.28114	4341.9625
338.47781	4318.6625
342.67145	4274.0625
346.86207	4238.0625
351.04966	4202.9625
355.23424	4164.7625
359.4158	4121.9625
363.59435	4070.0625
367.76989	4014.8625
371.94243	3960.7625
376.11196	3926.8625
380.27849	3897.9625
384.44203	3866.3625
388.60257	3834.1625
392.76012	3817.4625
396.91468	3822.0625
401.06626	3844.6625
405.21485	3862.1625
409.36047	3856.8625
413.50311	3836.7625
417.64277	3783.7625
421.77947	3765.7625
425.9132	3768.3625
430.04396	3803.6625
434.17176	3817.9625
438.2966	3840.5625
442.41849	3894.7625
446.53742	3922.9625
450.6534	3945.2625
454.76644	3967.1625
458.87653	3993.0625
462.98368	3997.9625
467.08789	4011.8625
471.18916	3994.5625
475.2875	3993.2625
479.38291	3977.3625
483.4754	3992.5625
487.56496	3986.0625
491.6516	3982.4625
495.73531	4023.0625
499.81612	4035.1625
503.89401	4094.3625
507.96899	4130.7625
512.04106	4178.6625
516.11023	4233.4625
520.1765	4263.6625
524.23987	4255.3625
528.30034	4229.5625
532.35792	4203.2625
536.41261	4166.6625
540.46441	4109.4625
544.51333	4104.4625
548.55936	4096.9625
552.60252	4132.0625
556.64279	4165.2625
560.6802	4182.9625
564.71473	4180.1625
568.7464	4160.6625
572.7752	4123.5625
576.80114	4069.2625
580.82422	4009.1625
584.84444	3981.6625
588.86181	4013.9625
592.87633	4082.7625
596.888	4199.0625
600.89682	4388.2625
604.9028	4692.2625
608.90594	5118.2625
612.90624	5594.6625
616.90371	5472.1625
620.89834	4778.4625
624.89015	4252.8625
628.87913	4005.3625
632.86528	3887.6625
636.84862	3847.7625
640.82913	3825.2625
644.80683	3790.7625
648.78172	3762.3625
652.75379	3784.6625
656.72306	3828.0625
660.68952	3890.5625
664.65319	3899.6625
668.61405	3880.0625
672.57211	3879.2625
676.52738	3902.3625
680.47986	3898.8625
684.42955	3918.3625
688.37646	3901.5625
692.32058	3909.6625
696.26192	3927.7625
700.20048	3960.8625
704.13626	3999.5625
708.06928	4054.5625
711.99952	4094.8625
715.927	4141.9625
719.85171	4158.2625
723.77365	4174.0625
727.69284	4160.0625
731.60928	4171.5625
735.52295	4167.6625
739.43388	4135.0625
743.34206	4127.4625
747.24749	4126.9625
751.15017	4116.0625
755.05012	4142.4625
758.94733	4179.4625
762.8418	4231.7625
766.73354	4369.7625
770.62254	4551.7625
774.50882	4671.9625
778.39237	4583.4625
782.27321	4383.3625
786.15132	4211.2625
790.02671	4086.9625
793.89938	4032.4625
797.76935	4022.4625
801.6366	4011.6625
805.50115	3981.9625
809.36299	3976.7625
813.22213	3940.7625
817.07857	3940.2625
820.93231	3907.7625
824.78336	3909.2625
828.63172	3912.8625
832.47738	3901.3625
836.32036	3899.2625
840.16066	3914.7625
843.99827	3941.4625
847.8332	3949.6625
851.66546	3924.7625
855.49504	3924.9625
859.32195	3923.1625
863.1462	3916.6625
866.96777	3930.2625
870.78668	3933.4625
874.60293	3950.4625
878.41652	3953.0625
882.22745	4002.3625
886.03573	4071.2625
889.84136	4149.1625
893.64433	4244.0625
897.44466	4317.5625
901.24235	4428.8625
905.0374	4552.0625
908.8298	4713.7625
912.61957	4899.6625
916.40671	5103.1625
920.19121	5295.3625
923.97308	5479.4625
927.75233	5543.9625
931.52895	5513.8625
935.30295	5366.2625
939.07433	5138.8625
942.84309	4915.7625
946.60924	4726.8625
950.37278	4583.1625
954.13371	4460.2625
957.89203	4318.8625
961.64774	4190.5625
965.40086	4082.7625
969.15137	3998.7625
972.89929	3935.0625
976.64461	3876.7625
980.38733	3848.1625
984.12747	3830.6625
987.86502	3847.9625
991.59999	3879.9625
995.33237	3938.2625
999.06217	4005.0625
1002.78939	4078.5625
1006.51404	4133.8625
1010.23611	4171.1625
1013.95561	4146.3625
1017.67255	4099.6625
1021.38692	4029.5625
1025.09872	3989.3625
1028.80796	3938.5625
1032.51465	3969.5625
1036.21877	4030.3625
1039.92035	4098.8625
1043.61937	4180.7625
1047.31584	4271.7625
1051.00976	4369.9625
1054.70114	4492.8625
1058.38998	4566.8625
1062.07627	4627.0625
1065.76003	4650.5625
1069.44126	4632.0625
1073.11995	4613.1625
1076.79611	4596.1625
1080.46974	4567.5625
1084.14085	4545.7625
1087.80943	4479.2625
1091.47549	4420.1625
1095.13903	4336.0625
1098.80005	4230.7625
1102.45857	4168.3625
1106.11456	4100.5625
1109.76805	4063.5625
1113.41903	4078.4625
1117.06751	4073.7625
1120.71348	4061.2625
1124.35696	4082.3625
1127.99793	4061.3625
1131.63641	4030.5625
1135.2724	3940.6625
1138.90589	3833.6625
1142.5369	3735.0625
1146.16542	3657.7625
1149.79145	3571.6625
1153.415	3520.2625
1157.03607	3479.4625
1160.65467	3487.3625
1164.27079	3524.7625
1167.88443	3599.4625
1171.49561	3748.1625
1175.10432	3988.9625
1178.71056	4366.8625
1182.31434	4794.5625
1185.91565	5145.2625
1189.51451	5308.1625
1193.11091	5267.8625
1196.70485	5035.8625
1200.29634	4714.3625
1203.88538	4390.1625
1207.47197	4088.6625
1211.05612	3872.2625
1214.63782	3714.2625
1218.21708	3680.2625
1221.79391	3712.1625
1225.36829	3784.1625
1228.94024	3823.8625
1232.50976	3850.8625
1236.07685	3802.7625
1239.6415	3721.0625
1243.20374	3631.9625
1246.76355	3564.8625
1250.32093	3555.3625
1253.8759	3555.5625
1257.42845	3590.0625
1260.97859	3636.5625
1264.52631	3714.8625
1268.07163	3785.7625
1271.61453	3854.5625
1275.15503	3902.2625
1278.69312	3976.9625
1282.22882	4023.4625
1285.76211	4116.1625
1289.29301	4241.6625
1292.82151	4348.6625
1296.34761	4420.9625
1299.87133	4466.0625
1303.39266	4508.2625
1306.9116	4582.9625
1310.42815	4679.1625
1313.94233	4689.8625
1317.45412	4585.0625
1320.96354	4419.8625
1324.47058	4242.7625
1327.97525	4100.0625
1331.47754	4040.3625
1334.97747	4028.9625
1338.47502	4049.7625
1341.97022	4093.8625
1345.46305	4198.4625
1348.95352	4342.7625
1352.44163	4569.2625
1355.92738	4830.5625
1359.41078	5178.6625
1362.89183	5523.5625
1366.37053	5594.3625
1369.84688	5252.0625
1373.32088	4817.1625
1376.79254	4490.0625
1380.26186	4339.7625
1383.72883	4249.1625
1387.19347	4209.0625
1390.65578	4157.8625
1394.11575	4119.6625
1397.57339	4062.5625
1401.0287	4024.5625
1404.48168	4004.1625
1407.93234	3959.8625
1411.38068	3945.0625
1414.82669	3915.4625
1418.27039	3858.1625
1421.71177	3824.2625
1425.15083	3759.9625
1428.58758	3696.7625
1432.02203	3648.7625
1435.45416	3645.2625
1438.88399	3671.2625
1442.31151	3708.6625
1445.73673	3748.9625
1449.15965	3736.7625
1452.58027	3681.6625
1455.9986	3647.1625
1459.41463	3611.0625
1462.82837	3580.8625
1466.23982	3587.1625
1469.64898	3593.6625
1473.05586	3600.9625
1476.46045	3645.0625
1479.86276	3668.4625
1483.26279	3693.2625
1486.66054	3718.5625
1490.05602	3734.5625
1493.44922	3769.7625
1496.84016	3801.3625
1500.22882	3913.5625
1503.61521	4078.9625
1506.99934	4307.9625
1510.38121	4498.4625
1513.76081	4564.7625
1517.13816	4414.0625
1520.51324	4147.8625
1523.88607	3861.7625
1527.25665	3661.4625
1530.62498	3542.2625
1533.99105	3488.5625
1537.35488	3463.1625
1540.71647	3423.1625
1544.07581	3416.1625
1547.4329	3392.4625
1550.78776	3386.2625
1554.14038	3374.1625
1557.49077	3380.6625
1560.83892	3393.4625
1564.18484	3404.3625
1567.52853	3432.2625
1570.86999	3459.1625
1574.20922	3491.4625
1577.54624	3509.4625
1580.88103	3466.2625
1584.2136	3383.2625
1587.54395	3283.0625
1590.87208	3239.1625
1594.19801	3226.0625
1597.52172	3256.6625
1600.84321	3268.2625
1604.16251	3241.0625
1607.47959	3181.6625
1610.79447	3149.2625
1614.10715	3101.0625
1617.41763	3071.0625
1620.7259	3041.5625
1624.03199	3027.4625
1627.33587	3031.0625
1630.63757	3037.4625
1633.93707	3040.4625
1637.23439	3080.7625
1640.52951	3118.7625
1643.82246	3203.7625
1647.11321	3320.4625
1650.40179	3419.5625
1653.68819	3390.9625
1656.97241	3201.2625
1660.25446	2959.0625
1663.53433	2769.4625
1666.81203	2652.6625
1670.08756	2568.0625
1673.36092	2483.9625
1676.63211	2452.4625
1679.90115	2413.7625
1683.16801	2372.4625
1686.43272	2344.1625
1689.69527	2332.3625
1692.95567	2301.1625
1696.2139	2279.2625
1699.46999	2259.4625
1702.72392	2233.5625
1705.97571	2230.6625
1709.22535	2221.4625
1712.47284	2208.7625
1715.71819	2209.9625
1718.96139	2198.5625
1722.20246	2183.7625
1725.44139	2163.5625
1728.67818	2140.5625
1731.91284	2123.0625
1735.14537	2122.0625
1738.37576	2098.7625
1741.60403	2097.5625
1744.83017	2079.9625
1748.05418	2065.5625
1751.27607	2068.2625
1754.49584	2050.4625
1757.71349	2047.8625
1760.92903	2035.2625
1764.14244	2026.2625
1767.35375	2033.2625
1770.56294	2020.6625
1773.77002	2011.1625
1776.97499	2017.3625
1780.17785	2007.6625
1783.37861	2003.6625
1786.57727	1997.1625
1789.77382	2000.2625
1792.96828	2000.7625
1796.16064	1995.1625
1799.3509	1987.3625
1802.53907	1986.3625
1805.72514	1985.1625
1808.90913	1968.1625
1812.09102	1960.3625
1815.27083	1953.3625
1818.44856	1962.8625
1821.6242	1975.4625
1824.79776	1953.0625
1827.96924	1951.5625
1831.13864	1941.6625
1834.30597	1941.2625
1837.47122	1942.4625
1840.6344	1934.4625
1843.7955	1922.2625
1846.95454	1931.4625
1850.11151	1922.0625
1853.26642	1916.6625
1856.41926	1918.3625
1859.57004	1902.7625
1862.71876	1900.6625
1865.86542	1904.4625
1869.01003	1892.0625
1872.15258	1885.9625
1875.29308	1880.1625
1878.43152	1872.1625
1881.56792	1878.4625
1884.70227	1875.7625
1887.83457	1868.8625
1890.96482	1856.3625
1894.09304	1862.4625
1897.21921	1852.5625
1900.34335	1854.3625
1903.46544	1845.5625
1906.58551	1847.1625
1909.70353	1839.1625
1912.81953	1839.1625
1915.93349	1835.6625
1919.04543	1836.5625
1922.15534	1817.6625
1925.26322	1819.0625
1928.36908	1815.8625
1931.47292	1811.4625
1934.57473	1796.3625
1937.67453	1792.5625
1940.77232	1786.9625
1943.86808	1786.4625
1946.96184	1774.8625
1950.05358	1773.9625
1953.14331	1762.7625
1956.23103	1750.8625
1959.31675	1761.2625
1962.40046	1746.7625
1965.48217	1748.8625
1968.56188	1733.3625
1971.63959	1727.5625
1974.7153	1733.5625
1977.78901	1720.2625
1980.86073	1726.2625
1983.93046	1711.4625
1986.99819	1707.4625
1990.06394	1699.6625
1993.1277	1696.8625
1996.18947	1682.1625
1999.24925	1680.8625
2002.30706	1678.8625
2005.36288	1669.0625
2008.41672	1678.3625
2011.46859	1659.2625
2014.51848	1652.7625
2017.56639	1646.9625
2020.61233	1641.3625
2023.6563	1640.4625
2026.6983	1630.8625
2029.73833	1615.3625
2032.7764	1623.6625
2035.8125	1613.9625
2038.84664	1609.7625
2041.87881	1611.8625
2044.90903	1600.4625
2047.93729	1596.7625
2050.96359	1590.3625
2053.98794	1589.6625
2057.01034	1592.5625
2060.03078	1582.4625
2063.04927	1584.5625
2066.06582	1582.8625
2069.08042	1582.7625
2072.09307	1581.8625
2075.10378	1581.2625
2078.11255	1579.0625
2081.11938	1582.4625
2084.12426	1577.6625
2087.12722	1573.3625
2090.12824	1570.2625
2093.12732	1577.1625
2096.12447	1573.4625
2099.11969	1577.4625
2102.11299	1587.4625
2105.10435	1566.6625
2108.09379	1573.1625
2111.08131	1573.8625
2114.0669	1580.2625
2117.05057	1568.5625
2120.03233	1565.8625
2123.01216	1575.4625
2125.99008	1570.4625
2128.96609	1563.7625
2131.94018	1563.8625
2134.91236	1565.4625
2137.88263	1559.9625
2140.851	1553.9625
2143.81746	1564.5625
2146.78201	1564.9625
2149.74466	1570.5625
2152.7054	1561.6625
2155.66425	1554.6625
2158.6212	1559.5625
2161.57625	1553.3625
2164.52941	1550.4625
2167.48067	1547.7625
2170.43004	1543.9625
2173.37752	1538.6625
2176.32311	1543.6625
2179.26681	1535.7625
2182.20863	1542.9625
2185.14856	1534.8625
2188.08661	1537.8625
2191.02278	1534.2625
2193.95707	1536.4625
2196.88948	1538.7625
2199.82001	1536.6625
2202.74867	1530.4625
2205.67545	1521.1625
2208.60037	1524.9625
2211.52341	1518.8625
2214.44458	1514.3625
2217.36388	1515.2625
2220.28132	1520.4625
2223.1969	1506.9625
2226.11061	1499.5625
2229.02246	1496.3625
2231.93245	1486.2625
2234.84058	1482.8625
2237.74686	1487.5625
2240.65128	1483.2625
2243.55385	1476.8625
2246.45456	1470.3625
2249.35343	1467.2625
2252.25044	1464.9625
2255.14561	1465.6625
2258.03893	1462.0625
2260.93041	1464.4625
2263.82004	1454.3625
2266.70783	1454.1625
2269.59378	1446.7625
2272.4779	1444.3625
2275.36017	1436.0625
2278.24061	1428.8625
2281.11922	1432.9625
2283.996	1434.6625
2286.87094	1424.1625
2289.74405	1421.4625
2292.61534	1414.0625
2295.4848	1407.6625
2298.35243	1415.7625
2301.21824	1408.1625
2304.08223	1404.5625
2306.94439	1400.1625
2309.80474	1400.3625
2312.66327	1405.5625
2315.51999	1394.9625
2318.37489	1389.9625
2321.22797	1392.4625
2324.07925	1395.7625
2326.92871	1385.4625
2329.77637	1392.1625
2332.62222	1386.1625
2335.46626	1385.0625
2338.3085	1379.0625
2341.14893	1375.5625
2343.98756	1373.3625
2346.8244	1366.4625
2349.65943	1365.0625
2352.49267	1365.9625
2355.32411	1359.9625
2358.15376	1365.9625
2360.98161	1365.2625
2363.80768	1371.9625
2366.63195	1368.9625
2369.45444	1364.4625
2372.27514	1363.0625
2375.09405	1363.7625
2377.91118	1367.2625
2380.72652	1353.6625
2383.54009	1351.6625
2386.35187	1353.2625
2389.16188	1339.8625
2391.97011	1337.4625
2394.77657	1330.8625
2397.58125	1340.8625
2400.38416	1325.6625
2403.18529	1325.2625
2405.98466	1315.9625
2408.78226	1313.1625
2411.57809	1307.8625
2414.37216	1311.2625
2417.16446	1314.8625
2419.955	1314.8625
2422.74378	1303.1625
2425.5308	1296.5625
2428.31606	1295.0625
2431.09956	1290.4625
2433.88131	1289.4625
2436.6613	1289.6625
2439.43954	1292.9625
2442.21603	1272.3625
2444.99077	1274.7625
2447.76377	1276.1625
2450.53501	1277.7625
2453.30451	1272.6625
2456.07226	1274.5625
2458.83827	1262.7625
2461.60254	1269.9625
2464.36507	1265.9625
2467.12586	1257.4625
2469.88492	1265.0625
2472.64224	1252.4625
2475.39782	1249.0625
2478.15167	1246.7625
2480.90379	1257.9625
2483.65417	1248.1625
2486.40283	1248.4625
2489.14976	1251.6625
2491.89497	1240.2625
2494.63845	1242.3625
2497.3802	1246.0625
2500.12024	1247.5625
2502.85855	1248.3625
2505.59514	1236.4625
2508.33002	1237.1625
2511.06318	1231.1625
2513.79462	1218.6625
2516.52435	1216.3625
2519.25237	1222.4625
2521.97867	1209.3625
2524.70327	1215.5625
2527.42616	1216.5625
2530.14734	1208.5625
2532.86681	1207.7625
2535.58458	1201.8625
2538.30065	1204.8625
2541.01501	1206.0625
2543.72768	1208.2625
2546.43864	1205.6625
2549.14791	1194.6625
2551.85548	1192.1625
2554.56136	1200.3625
2557.26554	1192.4625
2559.96803	1192.3625
2562.66883	1180.7625
2565.36794	1192.3625
2568.06536	1186.6625
2570.7611	1178.3625
2573.45514	1176.7625
2576.14751	1176.4625
2578.83819	1176.3625
2581.52719	1175.4625
2584.21451	1162.6625
2586.90015	1171.1625
2589.58411	1160.5625
2592.2664	1168.4625
2594.94701	1152.9625
2597.62594	1160.7625
2600.30321	1152.3625
2602.9788	1157.6625
2605.65273	1152.5625
2608.32498	1151.1625
2610.99557	1150.7625
2613.66449	1147.9625
2616.33175	1143.7625
2618.99734	1146.4625
2621.66128	1146.0625
2624.32355	1139.7625
2626.98416	1137.8625
2629.64311	1142.0625
2632.30041	1140.6625
2634.95605	1151.5625
2637.61004	1139.6625
2640.26238	1134.7625
2642.91306	1140.8625
2645.56209	1140.5625
2648.20948	1132.7625
2650.85521	1142.5625
2653.4993	1145.1625
2656.14175	1134.5625
2658.78255	1145.7625
2661.42171	1141.9625
2664.05923	1149.4625
2666.6951	1142.4625
2669.32934	1142.4625
2671.96194	1145.6625
2674.59291	1146.7625
2677.22224	1144.4625
2679.84993	1149.7625
2682.476	1142.6625
2685.10043	1136.4625
2687.72324	1144.9625
2690.34441	1140.9625
2692.96396	1145.7625
2695.58188	1144.2625
2698.19818	1143.8625
2700.81285	1152.5625
2703.4259	1153.7625
2706.03733	1143.9625
2708.64714	1146.7625
2711.25533	1146.1625
2713.86191	1154.8625
2716.46687	1157.8625
2719.07021	1154.8625
2721.67194	1158.6625
2724.27206	1155.1625
2726.87057	1161.4625
2729.46747	1164.6625
2732.06276	1169.2625
2734.65644	1166.5625
2737.24852	1171.8625
2739.83899	1167.9625
2742.42786	1177.6625
2745.01513	1184.7625
2747.60079	1195.1625
2750.18486	1197.1625
2752.76733	1205.5625
2755.3482	1215.2625
2757.92747	1228.0625
2760.50515	1218.0625
2763.08123	1219.2625
2765.65573	1232.2625
2768.22863	1229.7625
2770.79994	1238.2625
2773.36967	1243.9625
2775.9378	1236.8625
2778.50435	1233.2625
2781.06932	1232.4625
2783.6327	1248.3625
2786.1945	1239.0625
2788.75471	1252.7625
2791.31335	1263.3625
2793.87041	1254.9625
2796.42589	1265.2625
2798.97979	1268.8625
2801.53212	1266.2625
2804.08288	1269.0625
2806.63206	1259.9625
2809.17967	1264.7625
2811.72571	1250.6625
2814.27018	1252.3625
2816.81308	1246.0625
2819.35442	1237.4625
2821.89419	1241.7625
2824.43239	1238.5625
2826.96904	1236.7625
2829.50412	1226.7625
2832.03763	1234.9625
2834.56959	1237.6625
2837.1	1239.0625
2839.62884	1257.6625
2842.15613	1259.0625
2844.68186	1285.7625
2847.20604	1301.7625
2849.72867	1340.3625
2852.24974	1366.8625
2854.76927	1396.5625
2857.28724	1434.1625
2859.80367	1462.6625
2862.31855	1510.4625
2864.83189	1539.8625
2867.34368	1577.1625
2869.85393	1608.0625
2872.36264	1655.6625
2874.8698	1685.2625
2877.37543	1718.0625
2879.87952	1762.8625
2882.38207	1792.2625
2884.88308	1825.7625
2887.38256	1854.3625
2889.88051	1873.6625
2892.37692	1880.9625
2894.8718	1886.8625
2897.36515	1899.0625
2899.85698	1903.6625
2902.34727	1900.4625
2904.83604	1889.8625
2907.32328	1885.8625
2909.809	1886.4625
2912.29319	1879.5625
2914.77587	1877.6625
2917.25702	1887.6625
2919.73665	1893.9625
2922.21476	1892.5625
2924.69136	1896.2625
2927.16644	1883.3625
2929.64	1876.6625
2932.11205	1877.6625
2934.58258	1858.3625
2937.05161	1845.5625
2939.51912	1829.7625
2941.98513	1800.5625
2944.44962	1768.3625
2946.91261	1737.4625
2949.37409	1701.1625
2951.83407	1663.8625
2954.29254	1615.0625
2956.74951	1588.4625
2959.20498	1558.3625
2961.65895	1518.4625
2964.11142	1487.6625
2966.56239	1456.0625
2969.01186	1420.9625
2971.45984	1401.1625
2973.90632	1382.8625
2976.35131	1343.2625
2978.7948	1317.6625
2981.23681	1299.9625
2983.67732	1283.7625
2986.11635	1270.5625
2988.55388	1240.3625
2990.98993	1228.8625
2993.4245	1211.7625
2995.85758	1207.4625
2998.28917	1193.4625
3000.71928	1182.6625
3003.14791	1178.3625
3005.57506	1161.9625
3008.00073	1163.6625
3010.42493	1164.5625
3012.84764	1151.1625
3015.26888	1146.3625
3017.68865	1148.4625
3020.10694	1145.7625
3022.52376	1144.8625
3024.9391	1141.2625
3027.35298	1139.5625
3029.76539	1145.2625
3032.17632	1141.2625
3034.5858	1128.2625
3036.9938	1134.5625
3039.40034	1129.5625
3041.80542	1134.0625
3044.20903	1134.6625
3046.61118	1135.1625
3049.01187	1139.8625
3051.4111	1132.0625
3053.80888	1131.5625
3056.20519	1130.3625
3058.60005	1136.2625
3060.99345	1138.2625
3063.3854	1142.3625
3065.7759	1142.7625
3068.16494	1151.7625
3070.55254	1145.4625
3072.93868	1158.8625
3075.32338	1163.0625
3077.70662	1158.9625
3080.08842	1158.5625
3082.46878	1164.8625
3084.84769	1171.6625
3087.22515	1174.9625
3089.60118	1173.2625
3091.97576	1179.2625
3094.3489	1196.6625
3096.72061	1198.5625
3099.09087	1205.1625
3101.4597	1207.1625
3103.82709	1211.5625
3106.19305	1224.0625
3108.55757	1225.2625
3110.92066	1238.2625
3113.28232	1236.7625
3115.64255	1241.4625
3118.00134	1249.5625
3120.35871	1247.4625
3122.71466	1268.9625
3125.06917	1267.7625
