Data from AgNP_FTO_APTES_CRN_2uM_R6G_10uM_NaF_0.1M_Addition_RamanShift__17__14-54-49-345.txt Node

Date: Wed Dec 15 14:54:49 GMT 2021
User: TCL
Spectrometer: QEP01345
Trigger mode: 4
Integration Time (sec): 7.000000E0
Scans to average: 10
Electric dark correction enabled: true
Nonlinearity correction enabled: false
Boxcar width: 0
XAxis mode: Raman Shifts
Number of Pixels in Spectrum: 1044
>>>>>Begin Spectral Data<<<<<
46.04893	-0.325
50.45542	-2.425
54.85868	-1.325
59.25871	-1.325
63.6555	134.975
68.04907	144.375
72.43941	152.175
76.82654	154.675
81.21044	160.575
85.59113	165.675
89.96862	169.275
94.34289	176.575
98.71396	183.475
103.08183	191.075
107.4465	192.875
111.80798	197.875
116.16626	202.475
120.52136	215.875
124.87327	213.775
129.222	228.075
133.56755	241.275
137.90993	266.575
142.24913	288.975
146.58517	324.975
150.91804	374.275
155.24774	441.575
159.57429	550.275
163.89768	699.575
168.21792	919.575
172.53501	1249.675
176.84895	1746.675
181.15975	2444.175
185.46741	3419.375
189.77193	4733.475
194.07331	6344.075
198.37157	8150.375
202.6667	10064.375
206.9587	11952.875
211.24758	13814.675
215.53334	15689.775
219.81599	17653.975
224.09553	19843.975
228.37195	22247.675
232.64527	24932.775
236.91549	27753.575
241.18261	30616.775
245.44663	33262.075
249.70755	35627.975
253.96539	37710.175
258.22014	39477.775
262.4718	40968.975
266.72039	42099.275
270.96589	42622.875
275.20832	42751.175
279.44768	42538.075
283.68397	42137.075
287.91719	41762.175
292.14735	41513.375
296.37445	41468.475
300.59849	41563.675
304.81948	41815.275
309.03742	41846.375
313.25231	41502.575
317.46415	40668.775
321.67296	39633.275
325.87872	38728.175
330.08145	38332.375
334.28114	38390.175
338.47781	38801.975
342.67145	39340.575
346.86207	40069.875
351.04966	40915.375
355.23424	41941.275
359.4158	42798.675
363.59435	43410.975
367.76989	43807.575
371.94243	44029.575
376.11196	44191.875
380.27849	44264.875
384.44203	44380.375
388.60257	44567.675
392.76012	44936.875
396.91468	45450.675
401.06626	46243.775
405.21485	46833.175
409.36047	46690.575
413.50311	46120.875
417.64277	45491.875
421.77947	45380.975
425.9132	45400.975
430.04396	45625.175
434.17176	45920.575
438.2966	46273.475
442.41849	46806.975
446.53742	47765.475
450.6534	48862.775
454.76644	49816.175
458.87653	50173.375
462.98368	50110.275
467.08789	49674.875
471.18916	49084.175
475.2875	48438.275
479.38291	47975.775
483.4754	47607.475
487.56496	47207.475
491.6516	46780.075
495.73531	46471.575
499.81612	46357.875
503.89401	46702.175
507.96899	46961.375
512.04106	47023.675
516.11023	46944.275
520.1765	46661.675
524.23987	46458.475
528.30034	46122.075
532.35792	45703.775
536.41261	45133.975
540.46441	44725.175
544.51333	44650.275
548.55936	45130.475
552.60252	45881.275
556.64279	46650.775
560.6802	47080.775
564.71473	47413.275
568.7464	48073.075
572.7752	48959.675
576.80114	49663.575
580.82422	50390.275
584.84444	51072.575
588.86181	51638.075
592.87633	52131.875
596.888	52570.875
600.89682	53138.775
604.9028	55164.075
608.90594	59717.275
612.90624	63969.375
616.90371	60243.375
620.89834	51414.675
624.89015	47635.875
628.87913	47211.575
632.86528	47408.175
636.84862	47350.875
640.82913	46820.075
644.80683	45662.975
648.78172	44945.475
652.75379	44810.675
656.72306	45451.175
660.68952	46160.575
664.65319	45960.275
668.61405	45212.175
672.57211	44996.375
676.52738	45014.875
680.47986	44990.775
684.42955	44733.275
688.37646	44695.775
692.32058	44903.575
696.26192	45372.375
700.20048	45857.575
704.13626	46208.875
708.06928	46197.875
711.99952	45937.875
715.927	45840.675
719.85171	45906.575
723.77365	45818.275
727.69284	45387.075
731.60928	44931.475
735.52295	44788.775
739.43388	44737.475
743.34206	44875.975
747.24749	45126.975
751.15017	45523.375
755.05012	46217.475
758.94733	47356.875
762.8418	49514.675
766.73354	53007.175
770.62254	56085.775
774.50882	56796.475
778.39237	54436.375
782.27321	50865.175
786.15132	47910.975
790.02671	46176.075
793.89938	45360.375
797.76935	44993.675
801.6366	44854.875
805.50115	44806.475
809.36299	44577.375
813.22213	44362.175
817.07857	44157.775
820.93231	44062.075
824.78336	44017.775
828.63172	44005.775
832.47738	44067.075
836.32036	44102.175
840.16066	44282.775
843.99827	44341.275
847.8332	44309.875
851.66546	44180.175
855.49504	44148.975
859.32195	44242.475
863.1462	44112.875
866.96777	44025.475
870.78668	43948.175
874.60293	43911.875
878.41652	43972.875
882.22745	44049.675
886.03573	44156.175
889.84136	44083.175
893.64433	43949.175
897.44466	43827.875
901.24235	43744.175
905.0374	43738.175
908.8298	43621.275
912.61957	43667.675
916.40671	44014.375
920.19121	44539.775
923.97308	44979.275
927.75233	45108.575
931.52895	44920.275
935.30295	44470.075
939.07433	43794.275
942.84309	43243.975
946.60924	43115.475
950.37278	43053.875
954.13371	42970.375
957.89203	42821.175
961.64774	42713.575
965.40086	42609.275
969.15137	42586.075
972.89929	42424.575
976.64461	42472.475
980.38733	42565.275
984.12747	42759.475
987.86502	43160.875
991.59999	43714.375
995.33237	44403.475
999.06217	45270.075
1002.78939	46408.375
1006.51404	47210.675
1010.23611	47810.375
1013.95561	48215.575
1017.67255	48027.375
1021.38692	47434.975
1025.09872	46842.575
1028.80796	46895.275
1032.51465	47712.975
1036.21877	48592.375
1039.92035	48892.275
1043.61937	48476.775
1047.31584	47790.875
1051.00976	47034.775
1054.70114	46654.175
1058.38998	46755.875
1062.07627	47284.575
1065.76003	47946.475
1069.44126	48715.975
1073.11995	49718.975
1076.79611	50543.075
1080.46974	50837.475
1084.14085	50974.875
1087.80943	51069.975
1091.47549	51206.675
1095.13903	50954.675
1098.80005	50282.075
1102.45857	49336.675
1106.11456	48653.575
1109.76805	48335.375
1113.41903	48357.575
1117.06751	48606.375
1120.71348	48831.975
1124.35696	49339.175
1127.99793	49812.475
1131.63641	50029.975
1135.2724	49718.075
1138.90589	49401.975
1142.5369	49237.475
1146.16542	49148.575
1149.79145	49136.875
1153.415	49381.275
1157.03607	49881.075
1160.65467	50855.575
1164.27079	52528.075
1167.88443	54766.375
1171.49561	57571.575
1175.10432	61362.275
1178.71056	65905.775
1182.31434	70191.175
1185.91565	72433.975
1189.51451	72177.675
1193.11091	70119.675
1196.70485	67189.175
1200.29634	64457.875
1203.88538	62439.675
1207.47197	61138.075
1211.05612	60078.875
1214.63782	59381.075
1218.21708	58631.075
1221.79391	58185.775
1225.36829	57848.375
1228.94024	57433.775
1232.50976	56881.475
1236.07685	56433.375
1239.6415	56152.975
1243.20374	56248.575
1246.76355	56601.775
1250.32093	57290.375
1253.8759	58414.975
1257.42845	59869.175
1260.97859	61285.275
1264.52631	62691.575
1268.07163	63967.675
1271.61453	65520.175
1275.15503	67085.675
1278.69312	68778.575
1282.22882	70121.375
1285.76211	71419.575
1289.29301	72926.275
1292.82151	74723.775
1296.34761	77116.175
1299.87133	80287.875
1303.39266	84187.575
1306.9116	88746.475
1310.42815	93262.575
1313.94233	95921.575
1317.45412	96207.375
1320.96354	94922.475
1324.47058	93311.675
1327.97525	91859.275
1331.47754	90969.675
1334.97747	90675.975
1338.47502	90752.775
1341.97022	90809.675
1345.46305	89962.775
1348.95352	88792.275
1352.44163	88126.975
1355.92738	89096.875
1359.41078	92385.375
1362.89183	95671.275
1366.37053	94329.375
1369.84688	87462.175
1373.32088	79380.275
1376.79254	73724.875
1380.26186	71159.175
1383.72883	70373.975
1387.19347	69900.475
1390.65578	68932.975
1394.11575	68318.575
1397.57339	68466.275
1401.0287	69446.075
1404.48168	70675.175
1407.93234	71167.175
1411.38068	71136.275
1414.82669	69926.375
1418.27039	67792.175
1421.71177	65549.975
1425.15083	63517.475
1428.58758	62459.975
1432.02203	62638.175
1435.45416	63624.275
1438.88399	64986.775
1442.31151	66259.275
1445.73673	67263.575
1449.15965	68034.375
1452.58027	68411.575
1455.9986	68417.675
1459.41463	68809.475
1462.82837	69787.875
1466.23982	71221.275
1469.64898	72521.675
1473.05586	73361.575
1476.46045	73575.875
1479.86276	73402.775
1483.26279	72938.475
1486.66054	72580.375
1490.05602	72677.475
1493.44922	73198.875
1496.84016	73887.375
1500.22882	75153.775
1503.61521	77332.575
1506.99934	80056.875
1510.38121	82436.775
1513.76081	83213.875
1517.13816	81634.975
1520.51324	78390.475
1523.88607	75301.975
1527.25665	73271.175
1530.62498	72193.775
1533.99105	71520.875
1537.35488	70937.175
1540.71647	70273.875
1544.07581	69409.575
1547.4329	68589.075
1550.78776	67705.875
1554.14038	67137.175
1557.49077	66827.175
1560.83892	66722.475
1564.18484	66801.675
1567.52853	66952.375
1570.86999	67645.975
1574.20922	68699.275
1577.54624	69809.675
1580.88103	70196.075
1584.2136	70301.675
1587.54395	71193.775
1590.87208	73236.475
1594.19801	76515.975
1597.52172	80078.775
1600.84321	81211.075
1604.16251	78262.875
1607.47959	73238.075
1610.79447	68022.475
1614.10715	63114.075
1617.41763	59151.575
1620.7259	56287.875
1624.03199	54817.075
1627.33587	54691.675
1630.63757	55890.175
1633.93707	58552.575
1637.23439	63058.175
1640.52951	69156.075
1643.82246	75782.075
1647.11321	80831.875
1650.40179	81620.475
1653.68819	76998.875
1656.97241	68700.575
1660.25446	60339.275
1663.53433	54111.675
1666.81203	49989.975
1670.08756	47513.775
1673.36092	45847.275
1676.63211	44748.075
1679.90115	43965.975
1683.16801	43374.775
1686.43272	42906.875
1689.69527	42648.775
1692.95567	42365.775
1696.2139	42237.675
1699.46999	42152.875
1702.72392	41996.675
1705.97571	41924.375
1709.22535	41867.375
1712.47284	41799.475
1715.71819	41795.675
1718.96139	41665.875
1722.20246	41549.975
1725.44139	41395.875
1728.67818	41192.075
1731.91284	41001.675
1735.14537	40815.875
1738.37576	40621.375
1741.60403	40498.475
1744.83017	40375.975
1748.05418	40319.675
1751.27607	40170.075
1754.49584	40124.675
1757.71349	40094.675
1760.92903	40066.775
1764.14244	40026.275
1767.35375	40074.975
1770.56294	39973.175
1773.77002	39996.075
1776.97499	39958.375
1780.17785	39859.375
1783.37861	39796.275
1786.57727	39764.075
1789.77382	39644.375
1792.96828	39634.075
1796.16064	39587.975
1799.3509	39532.575
1802.53907	39454.975
1805.72514	39306.175
1808.90913	39235.675
1812.09102	39197.575
1815.27083	39118.375
1818.44856	39059.075
1821.6242	39053.775
1824.79776	39019.175
1827.96924	38946.475
1831.13864	38937.575
1834.30597	38993.275
1837.47122	38976.575
1840.6344	39009.475
1843.7955	38968.175
1846.95454	38927.175
1850.11151	38934.475
1853.26642	38965.475
1856.41926	38976.275
1859.57004	38951.375
1862.71876	38856.575
1865.86542	38894.475
1869.01003	38861.575
1872.15258	38852.175
1875.29308	38846.375
1878.43152	38780.875
1881.56792	38777.575
1884.70227	38726.075
1887.83457	38790.975
1890.96482	38681.775
1894.09304	38699.675
1897.21921	38687.675
1900.34335	38645.575
1903.46544	38605.575
1906.58551	38615.475
1909.70353	38560.675
1912.81953	38531.675
1915.93349	38436.875
1919.04543	38357.675
1922.15534	38302.475
1925.26322	38240.175
1928.36908	38155.775
1931.47292	38064.775
1934.57473	37980.875
1937.67453	37823.675
1940.77232	37754.675
1943.86808	37635.075
1946.96184	37522.075
1950.05358	37397.875
1953.14331	37262.775
1956.23103	37200.775
1959.31675	37090.075
1962.40046	36999.875
1965.48217	36912.275
1968.56188	36780.475
1971.63959	36720.675
1974.7153	36597.975
1977.78901	36466.675
1980.86073	36390.975
1983.93046	36274.775
1986.99819	36116.275
1990.06394	36100.475
1993.1277	36000.875
1996.18947	35851.275
1999.24925	35757.375
2002.30706	35616.375
2005.36288	35509.675
2008.41672	35485.575
2011.46859	35391.075
2014.51848	35300.375
2017.56639	35282.175
2020.61233	35187.275
2023.6563	35110.675
2026.6983	34985.575
2029.73833	34951.475
2032.7764	34869.775
2035.8125	34761.275
2038.84664	34678.075
2041.87881	34685.875
2044.90903	34629.975
2047.93729	34622.775
2050.96359	34586.975
2053.98794	34521.875
2057.01034	34538.575
2060.03078	34482.075
2063.04927	34456.975
2066.06582	34419.075
2069.08042	34414.275
2072.09307	34395.375
2075.10378	34362.675
2078.11255	34302.775
2081.11938	34334.975
2084.12426	34296.575
2087.12722	34301.275
2090.12824	34252.575
2093.12732	34310.175
2096.12447	34274.975
2099.11969	34252.575
2102.11299	34205.075
2105.10435	34241.075
2108.09379	34308.575
2111.08131	34289.375
2114.0669	34338.475
2117.05057	34305.475
2120.03233	34339.175
2123.01216	34319.375
2125.99008	34393.575
2128.96609	34374.875
2131.94018	34451.175
2134.91236	34471.275
2137.88263	34500.575
2140.851	34469.775
2143.81746	34522.475
2146.78201	34546.875
2149.74466	34557.875
2152.7054	34538.075
2155.66425	34552.675
2158.6212	34562.675
2161.57625	34568.175
2164.52941	34549.975
2167.48067	34555.875
2170.43004	34555.375
2173.37752	34548.875
2176.32311	34580.375
2179.26681	34480.275
2182.20863	34516.675
2185.14856	34514.975
2188.08661	34536.075
2191.02278	34522.775
2193.95707	34491.775
2196.88948	34487.675
2199.82001	34506.175
2202.74867	34444.675
2205.67545	34511.675
2208.60037	34437.675
2211.52341	34411.075
2214.44458	34346.375
2217.36388	34304.675
2220.28132	34285.975
2223.1969	34211.375
2226.11061	34159.475
2229.02246	34082.775
2231.93245	34015.175
2234.84058	33937.275
2237.74686	33873.675
2240.65128	33840.575
2243.55385	33793.675
2246.45456	33722.275
2249.35343	33691.375
2252.25044	33653.675
2255.14561	33586.475
2258.03893	33560.975
2260.93041	33516.075
2263.82004	33418.075
2266.70783	33397.475
2269.59378	33271.375
2272.4779	33253.275
2275.36017	33120.875
2278.24061	33090.775
2281.11922	32997.975
2283.996	32982.575
2286.87094	32948.375
2289.74405	32827.975
2292.61534	32826.475
2295.4848	32787.375
2298.35243	32808.375
2301.21824	32798.675
2304.08223	32774.175
2306.94439	32764.175
2309.80474	32811.875
2312.66327	32814.975
2315.51999	32792.275
2318.37489	32763.375
2321.22797	32757.075
2324.07925	32706.875
2326.92871	32626.575
2329.77637	32670.675
2332.62222	32588.275
2335.46626	32553.075
2338.3085	32564.875
2341.14893	32576.475
2343.98756	32574.175
2346.8244	32578.075
2349.65943	32491.875
2352.49267	32487.875
2355.32411	32513.575
2358.15376	32450.475
2360.98161	32431.675
2363.80768	32465.175
2366.63195	32394.675
2369.45444	32342.175
2372.27514	32324.275
2375.09405	32259.775
2377.91118	32189.275
2380.72652	32124.375
2383.54009	32086.175
2386.35187	32043.275
2389.16188	31966.875
2391.97011	31932.575
2394.77657	31897.275
2397.58125	31890.775
2400.38416	31797.775
2403.18529	31752.575
2405.98466	31656.175
2408.78226	31654.775
2411.57809	31563.675
2414.37216	31529.075
2417.16446	31538.975
2419.955	31487.375
2422.74378	31462.075
2425.5308	31391.175
2428.31606	31369.475
2431.09956	31367.075
2433.88131	31299.675
2436.6613	31344.675
2439.43954	31314.275
2442.21603	31229.175
2444.99077	31226.375
2447.76377	31269.475
2450.53501	31211.775
2453.30451	31190.575
2456.07226	31205.775
2458.83827	31159.675
2461.60254	31168.475
2464.36507	31212.375
2467.12586	31116.275
2469.88492	31127.775
2472.64224	31073.175
2475.39782	31120.975
2478.15167	31155.475
2480.90379	31146.175
2483.65417	31151.875
2486.40283	31149.175
2489.14976	31135.075
2491.89497	31095.875
2494.63845	31186.775
2497.3802	31130.475
2500.12024	31136.975
2502.85855	31160.675
2505.59514	31124.475
2508.33002	31129.175
2511.06318	31095.275
2513.79462	31034.975
2516.52435	31006.075
2519.25237	31021.275
2521.97867	30967.875
2524.70327	30942.175
2527.42616	30889.875
2530.14734	30884.675
2532.86681	30818.075
2535.58458	30815.175
2538.30065	30725.275
2541.01501	30776.575
2543.72768	30768.875
2546.43864	30712.775
2549.14791	30663.975
2551.85548	30641.975
2554.56136	30568.875
2557.26554	30584.675
2559.96803	30550.375
2562.66883	30515.175
2565.36794	30491.775
2568.06536	30488.475
2570.7611	30420.175
2573.45514	30371.675
2576.14751	30373.075
2578.83819	30360.475
2581.52719	30357.375
2584.21451	30289.275
2586.90015	30283.275
2589.58411	30270.075
2592.2664	30240.175
2594.94701	30205.175
2597.62594	30217.275
2600.30321	30129.475
2602.9788	30134.675
2605.65273	30063.875
2608.32498	30101.875
2610.99557	30068.775
2613.66449	30017.375
2616.33175	29992.375
2618.99734	30029.875
2621.66128	29989.875
2624.32355	30010.075
2626.98416	30015.475
2629.64311	29966.775
2632.30041	29962.575
2634.95605	29929.275
2637.61004	29897.675
2640.26238	29886.075
2642.91306	29906.575
2645.56209	29819.875
2648.20948	29848.675
2650.85521	29780.375
2653.4993	29789.675
2656.14175	29773.275
2658.78255	29827.375
2661.42171	29747.875
2664.05923	29838.075
2666.6951	29824.975
2669.32934	29884.875
2671.96194	29832.775
2674.59291	29813.675
2677.22224	29841.475
2679.84993	29800.675
2682.476	29769.675
2685.10043	29784.875
2687.72324	29743.475
2690.34441	29739.075
2692.96396	29774.275
2695.58188	29773.375
2698.19818	29720.375
2700.81285	29746.075
2703.4259	29732.375
2706.03733	29794.875
2708.64714	29788.775
2711.25533	29822.075
2713.86191	29816.475
2716.46687	29865.175
2719.07021	29820.975
2721.67194	29836.775
2724.27206	29806.475
2726.87057	29823.875
2729.46747	29814.075
2732.06276	29849.775
2734.65644	29784.375
2737.24852	29825.675
2739.83899	29793.275
2742.42786	29822.075
2745.01513	29731.175
2747.60079	29725.375
2750.18486	29697.775
2752.76733	29705.075
2755.3482	29725.175
2757.92747	29708.575
2760.50515	29669.175
2763.08123	29676.875
2765.65573	29620.375
2768.22863	29598.475
2770.79994	29547.575
2773.36967	29525.975
2775.9378	29469.475
2778.50435	29452.975
2781.06932	29473.275
2783.6327	29472.475
2786.1945	29435.475
2788.75471	29377.575
2791.31335	29304.575
2793.87041	29269.775
2796.42589	29223.675
2798.97979	29134.675
2801.53212	29131.275
2804.08288	29106.875
2806.63206	29015.875
2809.17967	29013.475
2811.72571	28927.375
2814.27018	28886.175
2816.81308	28834.175
2819.35442	28822.375
2821.89419	28741.075
2824.43239	28756.075
2826.96904	28725.275
2829.50412	28696.375
2832.03763	28655.975
2834.56959	28669.075
2837.1	28549.775
2839.62884	28522.675
2842.15613	28466.375
2844.68186	28513.875
2847.20604	28399.675
2849.72867	28436.175
2852.24974	28380.475
2854.76927	28372.375
2857.28724	28359.275
2859.80367	28297.175
2862.31855	28260.875
2864.83189	28241.675
2867.34368	28170.775
2869.85393	28221.375
2872.36264	28183.375
2874.8698	28221.275
2877.37543	28195.675
2879.87952	28178.575
2882.38207	28197.275
2884.88308	28173.575
2887.38256	28215.875
2889.88051	28161.475
2892.37692	28204.675
2894.8718	28152.775
2897.36515	28208.175
2899.85698	28167.075
2902.34727	28221.975
2904.83604	28238.775
2907.32328	28291.275
2909.809	28260.475
2912.29319	28355.475
2914.77587	28271.375
2917.25702	28290.575
2919.73665	28252.575
2922.21476	28288.075
2924.69136	28270.475
2927.16644	28200.675
2929.64	28181.175
2932.11205	28126.475
2934.58258	28038.575
2937.05161	28086.175
2939.51912	28130.575
2941.98513	28141.375
2944.44962	28011.675
2946.91261	27916.375
2949.37409	27965.675
2951.83407	27956.375
2954.29254	27924.775
2956.74951	27854.375
2959.20498	27839.375
2961.65895	27847.175
2964.11142	27833.575
2966.56239	27709.475
2969.01186	27743.075
2971.45984	27657.275
2973.90632	27614.775
2976.35131	27524.675
2978.7948	27548.975
2981.23681	27473.075
2983.67732	27438.375
2986.11635	27336.175
2988.55388	27255.475
2990.98993	27249.275
2993.4245	27190.775
2995.85758	27125.675
2998.28917	27051.475
3000.71928	26992.775
3003.14791	26940.675
3005.57506	26907.675
3008.00073	26863.075
3010.42493	26866.375
3012.84764	26833.675
3015.26888	26845.475
3017.68865	26702.575
3020.10694	26754.175
3022.52376	26658.975
3024.9391	26643.575
3027.35298	26629.875
3029.76539	26562.175
3032.17632	26529.975
3034.5858	26504.875
3036.9938	26467.875
3039.40034	26420.575
3041.80542	26364.675
3044.20903	26330.175
3046.61118	26325.475
3049.01187	26224.375
3051.4111	26150.775
3053.80888	26089.375
3056.20519	26064.575
3058.60005	26021.475
3060.99345	25983.075
3063.3854	25892.375
3065.7759	25828.575
3068.16494	25803.875
3070.55254	25698.975
3072.93868	25698.375
3075.32338	25612.475
3077.70662	25552.975
3080.08842	25462.975
3082.46878	25472.975
3084.84769	25394.175
3087.22515	25364.975
3089.60118	25363.075
3091.97576	25374.075
3094.3489	25342.875
3096.72061	25320.975
3099.09087	25272.075
3101.4597	25251.375
3103.82709	25260.475
3106.19305	25185.875
3108.55757	25117.775
3110.92066	25047.175
3113.28232	24997.375
3115.64255	24965.075
3118.00134	24906.475
3120.35871	24894.575
3122.71466	24855.675
3125.06917	24814.675
3127.42226	24765.975
