Data from AgNP_FTO_APTES_CRN_100uM_R6G_10uM_NaF_0.1M_Addition_RamanShift__19__18-53-38-130.txt Node

Date: Wed Dec 15 18:53:38 GMT 2021
User: TCL
Spectrometer: QEP01345
Trigger mode: 4
Integration Time (sec): 7.000000E0
Scans to average: 10
Electric dark correction enabled: true
Nonlinearity correction enabled: false
Boxcar width: 0
XAxis mode: Raman Shifts
Number of Pixels in Spectrum: 1044
>>>>>Begin Spectral Data<<<<<
46.04893	1.175
50.45542	-1.325
54.85868	-0.425
59.25871	-1.325
63.6555	55.675
68.04907	61.675
72.43941	58.375
76.82654	69.475
81.21044	70.075
85.59113	73.075
89.96862	75.375
94.34289	72.875
98.71396	77.975
103.08183	82.575
107.4465	85.175
111.80798	84.775
116.16626	89.675
120.52136	89.275
124.87327	93.675
129.222	98.475
133.56755	98.975
137.90993	106.775
142.24913	116.575
146.58517	131.075
150.91804	146.775
155.24774	170.275
159.57429	211.175
163.89768	265.875
168.21792	343.975
172.53501	472.775
176.84895	649.475
181.15975	915.475
185.46741	1276.775
189.77193	1761.875
194.07331	2350.875
198.37157	3019.475
202.6667	3730.275
206.9587	4428.475
211.24758	5101.675
215.53334	5800.875
219.81599	6525.775
224.09553	7349.475
228.37195	8204.875
232.64527	9182.975
236.91549	10167.175
241.18261	11226.875
245.44663	12216.275
249.70755	13081.875
253.96539	13875.275
258.22014	14543.375
262.4718	15103.575
266.72039	15480.175
270.96589	15687.475
275.20832	15718.275
279.44768	15603.475
283.68397	15444.275
287.91719	15325.675
292.14735	15219.475
296.37445	15163.275
300.59849	15156.375
304.81948	15165.175
309.03742	15129.775
313.25231	14956.175
317.46415	14739.275
321.67296	14436.675
325.87872	14221.575
330.08145	14091.475
334.28114	14098.175
338.47781	14229.875
342.67145	14352.175
346.86207	14531.975
351.04966	14782.775
355.23424	15053.875
359.4158	15246.475
363.59435	15362.975
367.76989	15540.675
371.94243	15614.275
376.11196	15728.875
380.27849	15786.475
384.44203	15913.375
388.60257	16081.475
392.76012	16216.675
396.91468	16369.275
401.06626	16573.475
405.21485	16749.575
409.36047	16727.275
413.50311	16532.975
417.64277	16367.475
421.77947	16321.275
425.9132	16366.075
430.04396	16454.475
434.17176	16589.175
438.2966	16764.275
442.41849	17041.275
446.53742	17524.775
450.6534	17961.775
454.76644	18311.375
458.87653	18430.475
462.98368	18329.075
467.08789	18122.975
471.18916	18010.775
475.2875	17901.275
479.38291	17884.975
483.4754	17811.275
487.56496	17585.075
491.6516	17324.175
495.73531	17065.075
499.81612	16922.075
503.89401	16967.375
507.96899	17002.575
512.04106	17001.075
516.11023	16987.875
520.1765	16981.375
524.23987	16946.875
528.30034	16917.275
532.35792	16819.275
536.41261	16696.075
540.46441	16510.475
544.51333	16536.275
548.55936	16674.575
552.60252	16935.175
556.64279	17290.375
560.6802	17549.675
564.71473	17683.175
568.7464	17783.575
572.7752	18071.375
576.80114	18243.375
580.82422	18341.975
584.84444	18628.675
588.86181	19032.675
592.87633	19524.475
596.888	19825.575
600.89682	19691.375
604.9028	19792.575
608.90594	20674.275
612.90624	21674.175
616.90371	20629.475
620.89834	18103.275
624.89015	17007.375
628.87913	16848.475
632.86528	16996.375
636.84862	17015.075
640.82913	16860.275
644.80683	16566.675
648.78172	16325.575
652.75379	16255.075
656.72306	16369.275
660.68952	16526.975
664.65319	16485.575
668.61405	16301.075
672.57211	16220.175
676.52738	16271.375
680.47986	16300.175
684.42955	16263.475
688.37646	16209.175
692.32058	16246.675
696.26192	16348.075
700.20048	16481.475
704.13626	16572.175
708.06928	16599.575
711.99952	16547.975
715.927	16529.875
719.85171	16514.975
723.77365	16459.375
727.69284	16375.775
731.60928	16258.175
735.52295	16261.375
739.43388	16245.575
743.34206	16267.975
747.24749	16275.475
751.15017	16408.975
755.05012	16606.475
758.94733	16932.875
762.8418	17566.775
766.73354	18494.275
770.62254	19444.075
774.50882	19708.775
778.39237	19017.675
782.27321	17888.875
786.15132	16970.575
790.02671	16457.475
793.89938	16159.775
797.76935	16104.975
801.6366	16064.275
805.50115	16029.475
809.36299	15996.675
813.22213	15946.175
817.07857	15908.675
820.93231	15889.975
824.78336	15819.975
828.63172	15827.075
832.47738	15828.375
836.32036	15859.775
840.16066	15900.375
843.99827	15890.875
847.8332	15851.675
851.66546	15782.575
855.49504	15762.175
859.32195	15815.975
863.1462	15767.175
866.96777	15790.975
870.78668	15725.175
874.60293	15720.675
878.41652	15722.775
882.22745	15777.275
886.03573	15777.775
889.84136	15794.175
893.64433	15768.475
897.44466	15685.075
901.24235	15647.775
905.0374	15606.475
908.8298	15584.575
912.61957	15637.975
916.40671	15714.875
920.19121	15846.775
923.97308	15962.275
927.75233	15995.175
931.52895	15907.175
935.30295	15767.575
939.07433	15576.775
942.84309	15387.575
946.60924	15317.375
950.37278	15243.275
954.13371	15238.375
957.89203	15231.875
961.64774	15197.175
965.40086	15175.775
969.15137	15123.475
972.89929	15066.475
976.64461	15013.375
980.38733	14999.575
984.12747	15046.375
987.86502	15146.175
991.59999	15254.875
995.33237	15429.375
999.06217	15718.975
1002.78939	16003.775
1006.51404	16179.775
1010.23611	16275.375
1013.95561	16423.375
1017.67255	16391.675
1021.38692	16267.575
1025.09872	16082.375
1028.80796	16057.775
1032.51465	16146.375
1036.21877	16339.675
1039.92035	16438.875
1043.61937	16403.975
1047.31584	16301.075
1051.00976	16199.275
1054.70114	16185.775
1058.38998	16310.975
1062.07627	16502.075
1065.76003	16778.775
1069.44126	17111.075
1073.11995	17430.575
1076.79611	17667.375
1080.46974	17626.675
1084.14085	17451.075
1087.80943	17282.575
1091.47549	17184.675
1095.13903	17072.975
1098.80005	16863.275
1102.45857	16592.675
1106.11456	16378.975
1109.76805	16289.675
1113.41903	16343.175
1117.06751	16400.075
1120.71348	16571.775
1124.35696	16715.175
1127.99793	16898.475
1131.63641	17034.475
1135.2724	16935.775
1138.90589	16783.475
1142.5369	16719.075
1146.16542	16726.475
1149.79145	16830.875
1153.415	16980.975
1157.03607	17145.775
1160.65467	17466.075
1164.27079	17985.875
1167.88443	18755.875
1171.49561	19679.275
1175.10432	20958.575
1178.71056	22483.075
1182.31434	23766.375
1185.91565	24207.875
1189.51451	23828.875
1193.11091	23035.575
1196.70485	22192.975
1200.29634	21416.175
1203.88538	20887.575
1207.47197	20571.975
1211.05612	20310.375
1214.63782	20036.475
1218.21708	19785.875
1221.79391	19639.975
1225.36829	19474.575
1228.94024	19278.775
1232.50976	19043.275
1236.07685	18785.075
1239.6415	18699.575
1243.20374	18706.075
1246.76355	18808.575
1250.32093	19049.775
1253.8759	19319.875
1257.42845	19676.475
1260.97859	20073.175
1264.52631	20415.475
1268.07163	20809.975
1271.61453	21212.975
1275.15503	21696.175
1278.69312	22216.075
1282.22882	22708.975
1285.76211	23316.575
1289.29301	24045.475
1292.82151	24892.175
1296.34761	26009.175
1299.87133	27191.575
1303.39266	28547.775
1306.9116	29984.875
1310.42815	31294.775
1313.94233	32264.875
1317.45412	32418.875
1320.96354	32084.775
1324.47058	31422.175
1327.97525	30765.575
1331.47754	30238.575
1334.97747	29893.775
1338.47502	29622.575
1341.97022	29356.075
1345.46305	28849.275
1348.95352	28455.375
1352.44163	28438.075
1355.92738	29016.875
1359.41078	30232.475
1362.89183	31364.475
1366.37053	31140.375
1369.84688	29081.475
1373.32088	26444.075
1376.79254	24587.475
1380.26186	23878.875
1383.72883	23771.375
1387.19347	23742.975
1390.65578	23630.275
1394.11575	23660.475
1397.57339	23923.175
1401.0287	24385.375
1404.48168	24762.775
1407.93234	24732.575
1411.38068	24275.475
1414.82669	23527.675
1418.27039	22653.375
1421.71177	21728.475
1425.15083	20989.675
1428.58758	20558.975
1432.02203	20592.575
1435.45416	20977.475
1438.88399	21445.775
1442.31151	21908.575
1445.73673	22264.575
1449.15965	22628.675
1452.58027	22883.275
1455.9986	22948.375
1459.41463	23043.275
1462.82837	23383.375
1466.23982	23765.375
1469.64898	24145.775
1473.05586	24320.275
1476.46045	24313.875
1479.86276	24206.775
1483.26279	24015.075
1486.66054	23813.175
1490.05602	23801.875
1493.44922	23858.575
1496.84016	23913.975
1500.22882	24159.775
1503.61521	24674.375
1506.99934	25414.075
1510.38121	26017.775
1513.76081	26199.875
1517.13816	25696.175
1520.51324	24876.275
1523.88607	24075.075
1527.25665	23633.575
1530.62498	23452.775
1533.99105	23439.275
1537.35488	23381.075
1540.71647	23083.275
1544.07581	22740.775
1547.4329	22347.375
1550.78776	21986.875
1554.14038	21737.575
1557.49077	21622.475
1560.83892	21622.275
1564.18484	21684.475
1567.52853	21892.575
1570.86999	22314.775
1574.20922	22909.475
1577.54624	23524.075
1580.88103	23873.275
1584.2136	23944.075
1587.54395	24036.675
1590.87208	24407.075
1594.19801	25199.875
1597.52172	26187.275
1600.84321	26560.075
1604.16251	25726.775
1607.47959	24075.575
1610.79447	22201.575
1614.10715	20541.675
1617.41763	19278.075
1620.7259	18446.275
1624.03199	18045.675
1627.33587	18018.975
1630.63757	18403.375
1633.93707	19292.075
1637.23439	20746.475
1640.52951	22938.175
1643.82246	25405.975
1647.11321	27462.275
1650.40179	27920.475
1653.68819	26266.675
1656.97241	23416.975
1660.25446	20549.075
1663.53433	18455.175
1666.81203	17036.875
1670.08756	16163.275
1673.36092	15591.475
1676.63211	15212.775
1679.90115	14959.675
1683.16801	14773.475
1686.43272	14625.375
1689.69527	14525.575
1692.95567	14424.475
1696.2139	14377.275
1699.46999	14352.275
1702.72392	14322.675
1705.97571	14268.075
1709.22535	14227.975
1712.47284	14223.975
1715.71819	14181.775
1718.96139	14166.875
1722.20246	14139.575
1725.44139	14087.175
1728.67818	14024.575
1731.91284	13960.575
1735.14537	13925.675
1738.37576	13869.475
1741.60403	13813.175
1744.83017	13801.075
1748.05418	13774.075
1751.27607	13743.475
1754.49584	13749.175
1757.71349	13735.375
1760.92903	13704.775
1764.14244	13699.075
1767.35375	13683.775
1770.56294	13682.475
1773.77002	13655.275
1776.97499	13652.575
1780.17785	13603.975
1783.37861	13599.675
1786.57727	13571.975
1789.77382	13530.075
1792.96828	13514.175
1796.16064	13478.675
1799.3509	13435.775
1802.53907	13436.775
1805.72514	13384.675
1808.90913	13377.375
1812.09102	13347.175
1815.27083	13323.975
1818.44856	13294.675
1821.6242	13279.175
1824.79776	13254.175
1827.96924	13267.475
1831.13864	13242.575
1834.30597	13240.275
1837.47122	13246.375
1840.6344	13246.775
1843.7955	13233.775
1846.95454	13209.075
1850.11151	13190.675
1853.26642	13191.875
1856.41926	13187.675
1859.57004	13187.375
1862.71876	13168.675
1865.86542	13163.575
1869.01003	13149.875
1872.15258	13165.775
1875.29308	13148.575
1878.43152	13128.775
1881.56792	13092.475
1884.70227	13099.675
1887.83457	13074.575
1890.96482	13072.975
1894.09304	13076.775
1897.21921	13060.275
1900.34335	13058.875
1903.46544	13013.175
1906.58551	13013.275
1909.70353	13030.575
1912.81953	12983.575
1915.93349	12983.575
1919.04543	12947.875
1922.15534	12932.275
1925.26322	12915.475
1928.36908	12906.275
1931.47292	12868.375
1934.57473	12835.175
1937.67453	12819.775
1940.77232	12806.175
1943.86808	12767.775
1946.96184	12733.175
1950.05358	12706.975
1953.14331	12682.975
1956.23103	12640.175
1959.31675	12604.575
1962.40046	12569.275
1965.48217	12549.575
1968.56188	12535.975
1971.63959	12457.875
1974.7153	12406.075
1977.78901	12389.875
1980.86073	12327.075
1983.93046	12326.875
1986.99819	12276.575
1990.06394	12257.775
1993.1277	12238.275
1996.18947	12176.175
1999.24925	12146.875
2002.30706	12123.275
2005.36288	12078.875
2008.41672	12056.475
2011.46859	11999.575
2014.51848	11987.275
2017.56639	11970.275
2020.61233	11948.175
2023.6563	11913.075
2026.6983	11898.375
2029.73833	11886.475
2032.7764	11848.775
2035.8125	11825.375
2038.84664	11798.475
2041.87881	11782.475
2044.90903	11764.675
2047.93729	11745.675
2050.96359	11744.575
2053.98794	11746.575
2057.01034	11725.175
2060.03078	11704.275
2063.04927	11688.175
2066.06582	11672.075
2069.08042	11685.175
2072.09307	11664.275
2075.10378	11660.775
2078.11255	11665.575
2081.11938	11666.075
2084.12426	11655.775
2087.12722	11659.775
2090.12824	11642.575
2093.12732	11643.275
2096.12447	11648.275
2099.11969	11651.375
2102.11299	11658.075
2105.10435	11649.975
2108.09379	11681.875
2111.08131	11683.775
2114.0669	11681.775
2117.05057	11683.475
2120.03233	11705.075
2123.01216	11699.975
2125.99008	11704.375
2128.96609	11724.975
2131.94018	11742.075
2134.91236	11747.475
2137.88263	11770.175
2140.851	11766.675
2143.81746	11781.775
2146.78201	11773.875
2149.74466	11769.375
2152.7054	11785.075
2155.66425	11783.775
2158.6212	11788.475
2161.57625	11775.275
2164.52941	11776.875
2167.48067	11794.275
2170.43004	11782.775
2173.37752	11763.675
2176.32311	11759.675
2179.26681	11778.075
2182.20863	11742.675
2185.14856	11751.075
2188.08661	11751.875
2191.02278	11754.975
2193.95707	11734.875
2196.88948	11734.075
2199.82001	11726.775
2202.74867	11714.975
2205.67545	11738.175
2208.60037	11693.375
2211.52341	11714.375
2214.44458	11680.175
2217.36388	11653.075
2220.28132	11625.475
2223.1969	11611.875
2226.11061	11618.975
2229.02246	11584.675
2231.93245	11575.875
2234.84058	11553.675
2237.74686	11554.675
2240.65128	11527.575
2243.55385	11523.875
2246.45456	11479.875
2249.35343	11471.075
2252.25044	11460.675
2255.14561	11415.975
2258.03893	11435.775
2260.93041	11439.375
2263.82004	11388.175
2266.70783	11365.975
2269.59378	11376.075
2272.4779	11305.475
2275.36017	11288.175
2278.24061	11249.375
2281.11922	11221.175
2283.996	11219.275
2286.87094	11220.075
2289.74405	11193.175
2292.61534	11193.375
2295.4848	11166.675
2298.35243	11167.575
2301.21824	11155.775
2304.08223	11144.075
2306.94439	11136.275
2309.80474	11125.975
2312.66327	11128.375
2315.51999	11106.475
2318.37489	11110.475
2321.22797	11123.075
2324.07925	11100.275
2326.92871	11084.075
2329.77637	11099.375
2332.62222	11073.075
2335.46626	11072.175
2338.3085	11046.475
2341.14893	11064.975
2343.98756	11053.675
2346.8244	11040.875
2349.65943	11042.375
2352.49267	11017.875
2355.32411	11051.275
2358.15376	11012.575
2360.98161	11001.675
2363.80768	10983.775
2366.63195	10979.175
2369.45444	10972.275
2372.27514	10986.775
2375.09405	10960.275
2377.91118	10936.475
2380.72652	10923.975
2383.54009	10926.275
2386.35187	10883.975
2389.16188	10841.075
2391.97011	10843.175
2394.77657	10822.575
2397.58125	10802.175
2400.38416	10794.075
2403.18529	10758.975
2405.98466	10770.375
2408.78226	10743.575
2411.57809	10735.875
2414.37216	10739.075
2417.16446	10699.175
2419.955	10690.875
2422.74378	10688.775
2425.5308	10657.275
2428.31606	10657.875
2431.09956	10639.375
2433.88131	10656.775
2436.6613	10633.475
2439.43954	10633.975
2442.21603	10614.175
2444.99077	10597.975
2447.76377	10627.175
2450.53501	10618.675
2453.30451	10598.875
2456.07226	10583.075
2458.83827	10590.475
2461.60254	10579.775
2464.36507	10572.575
2467.12586	10564.675
2469.88492	10563.775
2472.64224	10558.075
2475.39782	10581.975
2478.15167	10580.475
2480.90379	10533.175
2483.65417	10557.575
2486.40283	10568.975
2489.14976	10572.275
2491.89497	10554.575
2494.63845	10592.875
2497.3802	10563.775
2500.12024	10542.275
2502.85855	10547.975
2505.59514	10550.275
2508.33002	10532.875
2511.06318	10519.475
2513.79462	10498.475
2516.52435	10481.775
2519.25237	10471.675
2521.97867	10469.675
2524.70327	10474.075
2527.42616	10445.475
2530.14734	10420.075
2532.86681	10435.075
2535.58458	10413.275
2538.30065	10419.375
2541.01501	10395.775
2543.72768	10397.575
2546.43864	10386.475
2549.14791	10377.675
2551.85548	10356.275
2554.56136	10333.475
2557.26554	10339.675
2559.96803	10315.875
2562.66883	10306.275
2565.36794	10310.475
2568.06536	10311.575
2570.7611	10305.875
2573.45514	10315.075
2576.14751	10277.775
2578.83819	10255.175
2581.52719	10242.975
2584.21451	10224.275
2586.90015	10234.675
2589.58411	10219.775
2592.2664	10197.275
2594.94701	10148.275
2597.62594	10168.575
2600.30321	10143.375
2602.9788	10154.075
2605.65273	10138.775
2608.32498	10130.175
2610.99557	10115.275
2613.66449	10092.175
2616.33175	10103.075
2618.99734	10084.875
2621.66128	10110.375
2624.32355	10094.475
2626.98416	10104.575
2629.64311	10077.675
2632.30041	10091.075
2634.95605	10059.275
2637.61004	10072.875
2640.26238	10041.875
2642.91306	10059.475
2645.56209	10038.775
2648.20948	10051.775
2650.85521	10036.875
2653.4993	10007.575
2656.14175	10048.575
2658.78255	10037.875
2661.42171	10025.375
2664.05923	10047.275
2666.6951	10049.475
2669.32934	10016.575
2671.96194	10012.175
2674.59291	10033.275
2677.22224	10036.775
2679.84993	10036.575
2682.476	10031.975
2685.10043	10027.975
2687.72324	10025.075
2690.34441	10039.775
2692.96396	10009.575
2695.58188	10027.975
2698.19818	10022.175
2700.81285	10015.375
2703.4259	10021.075
2706.03733	10069.075
2708.64714	10050.675
2711.25533	10042.375
2713.86191	10043.475
2716.46687	10069.475
2719.07021	10051.875
2721.67194	10060.875
2724.27206	10038.375
2726.87057	10048.275
2729.46747	10046.575
2732.06276	10045.775
2734.65644	10039.975
2737.24852	10034.575
2739.83899	10041.875
2742.42786	10051.675
2745.01513	10017.275
2747.60079	10021.875
2750.18486	10025.975
2752.76733	10027.775
2755.3482	10011.175
2757.92747	10022.375
2760.50515	10004.575
2763.08123	10009.475
2765.65573	9980.975
2768.22863	9975.875
2770.79994	9972.275
2773.36967	9948.875
2775.9378	9971.075
2778.50435	9948.275
2781.06932	9936.475
2783.6327	9933.275
2786.1945	9931.175
2788.75471	9919.975
2791.31335	9901.975
2793.87041	9882.875
2796.42589	9869.575
2798.97979	9855.875
2801.53212	9845.975
2804.08288	9842.775
2806.63206	9785.675
2809.17967	9784.375
2811.72571	9761.475
2814.27018	9778.575
2816.81308	9746.775
2819.35442	9716.175
2821.89419	9712.975
2824.43239	9720.375
2826.96904	9714.075
2829.50412	9709.575
2832.03763	9668.575
2834.56959	9683.375
2837.1	9656.575
2839.62884	9647.275
2842.15613	9635.975
2844.68186	9675.875
2847.20604	9670.475
2849.72867	9680.675
2852.24974	9658.175
2854.76927	9635.275
2857.28724	9653.975
2859.80367	9652.875
2862.31855	9621.875
2864.83189	9613.075
2867.34368	9601.575
2869.85393	9610.675
2872.36264	9595.375
2874.8698	9588.975
2877.37543	9615.675
2879.87952	9591.675
2882.38207	9606.175
2884.88308	9618.375
2887.38256	9612.575
2889.88051	9615.975
2892.37692	9614.875
2894.8718	9589.875
2897.36515	9610.075
2899.85698	9618.375
2902.34727	9608.375
2904.83604	9638.875
2907.32328	9633.875
2909.809	9633.775
2912.29319	9667.675
2914.77587	9671.375
2917.25702	9653.575
2919.73665	9652.075
2922.21476	9641.575
2924.69136	9619.275
2927.16644	9642.875
2929.64	9623.575
2932.11205	9617.375
2934.58258	9581.775
2937.05161	9612.175
2939.51912	9607.375
2941.98513	9605.675
2944.44962	9554.275
2946.91261	9534.475
2949.37409	9560.075
2951.83407	9553.075
2954.29254	9528.675
2956.74951	9506.775
2959.20498	9513.475
2961.65895	9503.175
2964.11142	9531.675
2966.56239	9503.075
2969.01186	9503.175
2971.45984	9464.875
2973.90632	9425.975
2976.35131	9397.775
2978.7948	9383.475
2981.23681	9373.375
2983.67732	9372.775
2986.11635	9353.875
2988.55388	9325.775
2990.98993	9314.875
2993.4245	9296.275
2995.85758	9267.475
2998.28917	9253.675
3000.71928	9263.575
3003.14791	9222.175
3005.57506	9230.975
3008.00073	9225.375
3010.42493	9190.575
3012.84764	9186.075
3015.26888	9166.775
3017.68865	9158.575
3020.10694	9148.375
3022.52376	9128.575
3024.9391	9120.075
3027.35298	9094.075
3029.76539	9125.075
3032.17632	9095.675
3034.5858	9088.675
3036.9938	9088.475
3039.40034	9063.075
3041.80542	9064.775
3044.20903	9042.875
3046.61118	9047.575
3049.01187	9036.875
3051.4111	9035.275
3053.80888	9002.075
3056.20519	8983.875
3058.60005	8994.975
3060.99345	8968.375
3063.3854	8954.775
3065.7759	8915.775
3068.16494	8923.675
3070.55254	8886.975
3072.93868	8896.975
3075.32338	8862.875
3077.70662	8838.675
3080.08842	8823.175
3082.46878	8818.975
3084.84769	8794.775
3087.22515	8828.175
3089.60118	8798.875
3091.97576	8809.375
3094.3489	8794.275
3096.72061	8809.675
3099.09087	8799.475
3101.4597	8798.375
3103.82709	8776.375
3106.19305	8775.075
3108.55757	8785.975
3110.92066	8729.175
3113.28232	8729.675
3115.64255	8698.575
3118.00134	8693.775
3120.35871	8692.475
3122.71466	8692.575
3125.06917	8674.375
3127.42226	8680.375
3129.77393	8697.975
3132.12417	8686.375
3134.47299	8681.675
3136.82039	8686.175
3139.16636	8671.175
3141.51092	8689.575
3143.85406	8690.875
3146.19579	8696.775
3148.53609	8693.375
