Data from AgNP_FTO_APTES_CRN_500uM_R6G_10uM_NaF_0.1M_Addition_RamanShift__8__20-12-58-220.txt Node

Date: Wed Dec 15 20:12:58 GMT 2021
User: TCL
Spectrometer: QEP01345
Trigger mode: 4
Integration Time (sec): 7.000000E0
Scans to average: 10
Electric dark correction enabled: true
Nonlinearity correction enabled: false
Boxcar width: 0
XAxis mode: Raman Shifts
Number of Pixels in Spectrum: 1044
>>>>>Begin Spectral Data<<<<<
46.04893	0.9125
50.45542	-1.6875
54.85868	-0.5875
59.25871	-0.0875
63.6555	57.5125
68.04907	66.4125
72.43941	67.7125
76.82654	72.1125
81.21044	74.5125
85.59113	74.3125
89.96862	78.4125
94.34289	77.3125
98.71396	85.1125
103.08183	90.4125
107.4465	92.3125
111.80798	92.9125
116.16626	93.9125
120.52136	104.4125
124.87327	102.8125
129.222	108.2125
133.56755	111.5125
137.90993	115.7125
142.24913	128.6125
146.58517	144.0125
150.91804	160.5125
155.24774	195.4125
159.57429	234.8125
163.89768	301.5125
168.21792	391.4125
172.53501	526.1125
176.84895	738.8125
181.15975	1026.7125
185.46741	1439.6125
189.77193	2002.3125
194.07331	2669.0125
198.37157	3439.3125
202.6667	4237.9125
206.9587	5066.2125
211.24758	5832.3125
215.53334	6597.7125
219.81599	7408.9125
224.09553	8297.4125
228.37195	9265.7125
232.64527	10331.6125
236.91549	11461.4125
241.18261	12642.8125
245.44663	13757.4125
249.70755	14842.4125
253.96539	15773.8125
258.22014	16542.9125
262.4718	17161.5125
266.72039	17628.7125
270.96589	17844.4125
275.20832	17891.1125
279.44768	17785.5125
283.68397	17668.8125
287.91719	17533.8125
292.14735	17405.6125
296.37445	17332.9125
300.59849	17327.3125
304.81948	17266.9125
309.03742	17196.1125
313.25231	17109.0125
317.46415	16887.9125
321.67296	16594.8125
325.87872	16392.1125
330.08145	16264.5125
334.28114	16301.9125
338.47781	16419.5125
342.67145	16583.7125
346.86207	16815.3125
351.04966	17037.6125
355.23424	17268.3125
359.4158	17460.5125
363.59435	17628.1125
367.76989	17758.4125
371.94243	17834.2125
376.11196	17915.9125
380.27849	17994.5125
384.44203	18094.6125
388.60257	18248.7125
392.76012	18418.1125
396.91468	18605.3125
401.06626	18823.4125
405.21485	18990.6125
409.36047	19018.1125
413.50311	18933.4125
417.64277	18905.4125
421.77947	18944.4125
425.9132	19047.0125
430.04396	19173.3125
434.17176	19320.5125
438.2966	19419.3125
442.41849	19652.7125
446.53742	20008.5125
450.6534	20324.9125
454.76644	20587.8125
458.87653	20736.4125
462.98368	20741.3125
467.08789	20683.9125
471.18916	20590.0125
475.2875	20525.8125
479.38291	20500.4125
483.4754	20412.8125
487.56496	20217.8125
491.6516	19946.1125
495.73531	19678.5125
499.81612	19626.2125
503.89401	19698.3125
507.96899	19779.6125
512.04106	19795.7125
516.11023	19758.3125
520.1765	19687.0125
524.23987	19531.6125
528.30034	19422.1125
532.35792	19286.7125
536.41261	19170.2125
540.46441	19124.4125
544.51333	19110.5125
548.55936	19285.1125
552.60252	19601.3125
556.64279	19927.5125
560.6802	20142.7125
564.71473	20311.7125
568.7464	20521.4125
572.7752	20981.4125
576.80114	21417.0125
580.82422	21887.0125
584.84444	22274.1125
588.86181	22845.3125
592.87633	23211.2125
596.888	23063.4125
600.89682	22477.1125
604.9028	22241.1125
608.90594	22726.4125
612.90624	23316.1125
616.90371	22286.0125
620.89834	20264.7125
624.89015	19400.1125
628.87913	19302.6125
632.86528	19458.9125
636.84862	19496.3125
640.82913	19350.7125
644.80683	19105.7125
648.78172	18941.5125
652.75379	18968.6125
656.72306	19083.0125
660.68952	19152.9125
664.65319	19139.9125
668.61405	18983.8125
672.57211	18959.6125
676.52738	19049.2125
680.47986	19110.3125
684.42955	19054.6125
688.37646	18966.9125
692.32058	19027.6125
696.26192	19154.6125
700.20048	19276.1125
704.13626	19449.0125
708.06928	19493.6125
711.99952	19532.6125
715.927	19494.2125
719.85171	19481.4125
723.77365	19387.7125
727.69284	19239.9125
731.60928	19015.0125
735.52295	18998.6125
739.43388	18968.0125
743.34206	18995.7125
747.24749	19053.7125
751.15017	19213.0125
755.05012	19393.3125
758.94733	19740.9125
762.8418	20293.9125
766.73354	21125.9125
770.62254	21876.2125
774.50882	21903.6125
778.39237	21255.2125
782.27321	20341.2125
786.15132	19651.6125
790.02671	19154.5125
793.89938	18923.6125
797.76935	18862.2125
801.6366	18824.2125
805.50115	18799.0125
809.36299	18740.1125
813.22213	18680.5125
817.07857	18676.2125
820.93231	18636.5125
824.78336	18551.5125
828.63172	18545.3125
832.47738	18454.1125
836.32036	18498.7125
840.16066	18468.8125
843.99827	18457.7125
847.8332	18411.9125
851.66546	18435.0125
855.49504	18462.0125
859.32195	18440.1125
863.1462	18436.8125
866.96777	18406.9125
870.78668	18418.3125
874.60293	18424.2125
878.41652	18420.5125
882.22745	18469.5125
886.03573	18487.5125
889.84136	18528.4125
893.64433	18515.8125
897.44466	18455.6125
901.24235	18422.0125
905.0374	18357.3125
908.8298	18342.1125
912.61957	18373.0125
916.40671	18492.6125
920.19121	18639.9125
923.97308	18698.6125
927.75233	18651.5125
931.52895	18540.6125
935.30295	18345.7125
939.07433	18145.5125
942.84309	17993.4125
946.60924	17874.0125
950.37278	17838.5125
954.13371	17843.0125
957.89203	17810.9125
961.64774	17812.1125
965.40086	17826.7125
969.15137	17738.8125
972.89929	17650.6125
976.64461	17608.0125
980.38733	17561.6125
984.12747	17581.6125
987.86502	17593.0125
991.59999	17642.2125
995.33237	17706.1125
999.06217	17870.1125
1002.78939	18048.4125
1006.51404	18259.5125
1010.23611	18474.0125
1013.95561	18678.7125
1017.67255	18637.5125
1021.38692	18575.4125
1025.09872	18426.0125
1028.80796	18199.3125
1032.51465	18146.2125
1036.21877	18185.8125
1039.92035	18259.6125
1043.61937	18311.7125
1047.31584	18376.9125
1051.00976	18451.7125
1054.70114	18601.7125
1058.38998	18757.5125
1062.07627	19054.1125
1065.76003	19407.4125
1069.44126	19782.9125
1073.11995	20147.4125
1076.79611	20272.8125
1080.46974	20133.5125
1084.14085	19848.5125
1087.80943	19703.7125
1091.47549	19667.4125
1095.13903	19641.4125
1098.80005	19464.3125
1102.45857	19174.2125
1106.11456	18894.2125
1109.76805	18745.1125
1113.41903	18707.4125
1117.06751	18772.0125
1120.71348	18886.2125
1124.35696	19039.5125
1127.99793	19244.3125
1131.63641	19385.2125
1135.2724	19337.1125
1138.90589	19265.8125
1142.5369	19284.1125
1146.16542	19347.0125
1149.79145	19511.8125
1153.415	19658.6125
1157.03607	19813.9125
1160.65467	20212.6125
1164.27079	20846.5125
1167.88443	21606.5125
1171.49561	22459.7125
1175.10432	23436.6125
1178.71056	24634.3125
1182.31434	25718.7125
1185.91565	26187.5125
1189.51451	26078.6125
1193.11091	25652.2125
1196.70485	25103.5125
1200.29634	24439.5125
1203.88538	24036.9125
1207.47197	23830.7125
1211.05612	23632.9125
1214.63782	23339.2125
1218.21708	22801.5125
1221.79391	22257.4125
1225.36829	21876.3125
1228.94024	21676.5125
1232.50976	21511.0125
1236.07685	21315.7125
1239.6415	21272.4125
1243.20374	21251.7125
1246.76355	21356.5125
1250.32093	21505.4125
1253.8759	21791.2125
1257.42845	22201.0125
1260.97859	22601.1125
1264.52631	22974.3125
1268.07163	23344.4125
1271.61453	23765.6125
1275.15503	24232.1125
1278.69312	24660.5125
1282.22882	25194.3125
1285.76211	25866.6125
1289.29301	26741.4125
1292.82151	27754.5125
1296.34761	28988.4125
1299.87133	30332.1125
1303.39266	31560.7125
1306.9116	32483.5125
1310.42815	33219.6125
1313.94233	33529.0125
1317.45412	33440.8125
1320.96354	33172.7125
1324.47058	32949.1125
1327.97525	32766.4125
1331.47754	32670.5125
1334.97747	32567.0125
1338.47502	32374.2125
1341.97022	32213.7125
1345.46305	31985.9125
1348.95352	31756.8125
1352.44163	31615.1125
1355.92738	31774.9125
1359.41078	32373.8125
1362.89183	32813.2125
1366.37053	32352.9125
1369.84688	30567.5125
1373.32088	28302.9125
1376.79254	26733.3125
1380.26186	26169.7125
1383.72883	26186.2125
1387.19347	26225.0125
1390.65578	26140.6125
1394.11575	26108.0125
1397.57339	26211.3125
1401.0287	26471.1125
1404.48168	26590.4125
1407.93234	26424.8125
1411.38068	25878.8125
1414.82669	25046.2125
1418.27039	24136.7125
1421.71177	23305.8125
1425.15083	22619.0125
1428.58758	22273.5125
1432.02203	22379.5125
1435.45416	22780.4125
1438.88399	23297.7125
1442.31151	23705.6125
1445.73673	23956.1125
1449.15965	24216.7125
1452.58027	24337.9125
1455.9986	24452.3125
1459.41463	24578.3125
1462.82837	24871.1125
1466.23982	25218.5125
1469.64898	25413.5125
1473.05586	25617.2125
1476.46045	25643.4125
1479.86276	25484.0125
1483.26279	25235.8125
1486.66054	25083.5125
1490.05602	25146.9125
1493.44922	25366.2125
1496.84016	25606.9125
1500.22882	25941.0125
1503.61521	26413.6125
1506.99934	26993.5125
1510.38121	27391.0125
1513.76081	27417.3125
1517.13816	27089.8125
1520.51324	26672.7125
1523.88607	26494.4125
1527.25665	26460.0125
1530.62498	26540.2125
1533.99105	26484.0125
1537.35488	26220.7125
1540.71647	25797.6125
1544.07581	25227.0125
1547.4329	24671.1125
1550.78776	24127.7125
1554.14038	23781.2125
1557.49077	23564.7125
1560.83892	23449.8125
1564.18484	23478.6125
1567.52853	23677.3125
1570.86999	24113.2125
1574.20922	24788.3125
1577.54624	25480.9125
1580.88103	25937.6125
1584.2136	26117.2125
1587.54395	26275.0125
1590.87208	26606.8125
1594.19801	27265.3125
1597.52172	27945.9125
1600.84321	28020.2125
1604.16251	27069.3125
1607.47959	25532.7125
1610.79447	23917.9125
1614.10715	22458.0125
1617.41763	21207.0125
1620.7259	20366.4125
1624.03199	19903.1125
1627.33587	19890.2125
1630.63757	20252.3125
1633.93707	21170.0125
1637.23439	22724.6125
1640.52951	24908.8125
1643.82246	27459.5125
1647.11321	29379.1125
1650.40179	29663.8125
1653.68819	27951.8125
1656.97241	25105.2125
1660.25446	22339.3125
1663.53433	20264.3125
1666.81203	18832.5125
1670.08756	17898.1125
1673.36092	17325.5125
1676.63211	16953.6125
1679.90115	16613.7125
1683.16801	16442.2125
1686.43272	16279.4125
1689.69527	16139.3125
1692.95567	16058.3125
1696.2139	16009.3125
1699.46999	15986.9125
1702.72392	15955.4125
1705.97571	15916.1125
1709.22535	15839.4125
1712.47284	15814.8125
1715.71819	15798.0125
1718.96139	15772.8125
1722.20246	15701.6125
1725.44139	15663.4125
1728.67818	15583.2125
1731.91284	15503.0125
1735.14537	15442.1125
1738.37576	15396.1125
1741.60403	15373.0125
1744.83017	15329.3125
1748.05418	15273.3125
1751.27607	15252.1125
1754.49584	15242.1125
1757.71349	15256.7125
1760.92903	15230.3125
1764.14244	15219.9125
1767.35375	15208.4125
1770.56294	15163.7125
1773.77002	15140.1125
1776.97499	15118.2125
1780.17785	15056.3125
1783.37861	15065.9125
1786.57727	14989.5125
1789.77382	14983.0125
1792.96828	14943.5125
1796.16064	14931.3125
1799.3509	14898.7125
1802.53907	14819.2125
1805.72514	14806.0125
1808.90913	14763.6125
1812.09102	14761.2125
1815.27083	14715.7125
1818.44856	14685.9125
1821.6242	14673.1125
1824.79776	14639.1125
1827.96924	14652.1125
1831.13864	14631.8125
1834.30597	14642.1125
1837.47122	14629.5125
1840.6344	14607.8125
1843.7955	14609.9125
1846.95454	14574.1125
1850.11151	14585.2125
1853.26642	14537.0125
1856.41926	14536.0125
1859.57004	14506.2125
1862.71876	14513.4125
1865.86542	14506.5125
1869.01003	14481.7125
1872.15258	14456.4125
1875.29308	14408.4125
1878.43152	14403.8125
1881.56792	14403.6125
1884.70227	14377.0125
1887.83457	14340.7125
1890.96482	14371.6125
1894.09304	14312.9125
1897.21921	14295.8125
1900.34335	14262.6125
1903.46544	14263.2125
1906.58551	14250.1125
1909.70353	14204.7125
1912.81953	14170.4125
1915.93349	14176.3125
1919.04543	14117.7125
1922.15534	14105.8125
1925.26322	14070.7125
1928.36908	14054.8125
1931.47292	14027.2125
1934.57473	13992.4125
1937.67453	13930.2125
1940.77232	13921.4125
1943.86808	13896.4125
1946.96184	13861.5125
1950.05358	13794.5125
1953.14331	13793.9125
1956.23103	13745.6125
1959.31675	13705.9125
1962.40046	13693.1125
1965.48217	13652.1125
1968.56188	13593.2125
1971.63959	13528.8125
1974.7153	13478.9125
1977.78901	13450.1125
1980.86073	13424.3125
1983.93046	13363.5125
1986.99819	13328.0125
1990.06394	13282.0125
1993.1277	13301.9125
1996.18947	13203.9125
1999.24925	13185.6125
2002.30706	13120.3125
2005.36288	13083.9125
2008.41672	13060.1125
2011.46859	13006.9125
2014.51848	12978.4125
2017.56639	12964.9125
2020.61233	12927.1125
2023.6563	12902.2125
2026.6983	12872.7125
2029.73833	12826.7125
2032.7764	12799.2125
2035.8125	12777.9125
2038.84664	12742.2125
2041.87881	12708.8125
2044.90903	12673.0125
2047.93729	12660.4125
2050.96359	12668.6125
2053.98794	12620.7125
2057.01034	12610.5125
2060.03078	12593.9125
2063.04927	12592.2125
2066.06582	12589.4125
2069.08042	12558.6125
2072.09307	12544.3125
2075.10378	12523.7125
2078.11255	12546.4125
2081.11938	12525.1125
2084.12426	12531.7125
2087.12722	12519.8125
2090.12824	12514.1125
2093.12732	12508.2125
2096.12447	12511.8125
2099.11969	12481.9125
2102.11299	12530.6125
2105.10435	12519.3125
2108.09379	12528.4125
2111.08131	12533.7125
2114.0669	12525.7125
2117.05057	12534.9125
2120.03233	12544.2125
2123.01216	12559.9125
2125.99008	12560.1125
2128.96609	12563.6125
2131.94018	12567.2125
2134.91236	12552.4125
2137.88263	12577.5125
2140.851	12568.2125
2143.81746	12584.7125
2146.78201	12556.4125
2149.74466	12580.0125
2152.7054	12569.6125
2155.66425	12554.4125
2158.6212	12577.1125
2161.57625	12577.0125
2164.52941	12546.4125
2167.48067	12526.7125
2170.43004	12529.6125
2173.37752	12532.0125
2176.32311	12524.9125
2179.26681	12528.1125
2182.20863	12523.2125
2185.14856	12509.6125
2188.08661	12471.2125
2191.02278	12485.8125
2193.95707	12488.3125
2196.88948	12432.2125
2199.82001	12455.0125
2202.74867	12427.9125
2205.67545	12416.6125
2208.60037	12404.7125
2211.52341	12415.7125
2214.44458	12357.8125
2217.36388	12324.4125
2220.28132	12304.8125
2223.1969	12251.8125
2226.11061	12255.9125
2229.02246	12215.5125
2231.93245	12209.8125
2234.84058	12195.7125
2237.74686	12198.0125
2240.65128	12145.7125
2243.55385	12133.5125
2246.45456	12094.1125
2249.35343	12103.0125
2252.25044	12066.3125
2255.14561	12040.3125
2258.03893	12026.0125
2260.93041	11995.2125
2263.82004	11980.8125
2266.70783	11960.1125
2269.59378	11914.3125
2272.4779	11900.2125
2275.36017	11848.4125
2278.24061	11809.9125
2281.11922	11805.2125
2283.996	11757.8125
2286.87094	11739.5125
2289.74405	11731.3125
2292.61534	11735.1125
2295.4848	11701.2125
2298.35243	11714.0125
2301.21824	11653.1125
2304.08223	11653.0125
2306.94439	11631.8125
2309.80474	11613.9125
2312.66327	11613.4125
2315.51999	11619.1125
2318.37489	11593.1125
2321.22797	11583.9125
2324.07925	11583.4125
2326.92871	11556.4125
2329.77637	11558.2125
2332.62222	11503.8125
2335.46626	11511.5125
2338.3085	11480.0125
2341.14893	11464.0125
2343.98756	11457.2125
2346.8244	11444.2125
2349.65943	11410.3125
2352.49267	11416.4125
2355.32411	11416.4125
2358.15376	11412.5125
2360.98161	11404.6125
2363.80768	11380.6125
2366.63195	11380.7125
2369.45444	11372.4125
2372.27514	11333.0125
2375.09405	11355.5125
2377.91118	11310.9125
2380.72652	11281.7125
2383.54009	11273.8125
2386.35187	11221.7125
2389.16188	11220.0125
2391.97011	11217.7125
2394.77657	11179.7125
2397.58125	11157.2125
2400.38416	11155.3125
2403.18529	11138.2125
2405.98466	11136.1125
2408.78226	11091.6125
2411.57809	11080.4125
2414.37216	11077.2125
2417.16446	11058.1125
2419.955	11017.7125
2422.74378	11035.7125
2425.5308	10984.9125
2428.31606	10952.3125
2431.09956	10963.2125
2433.88131	10932.1125
2436.6613	10975.0125
2439.43954	10948.1125
2442.21603	10922.4125
2444.99077	10901.4125
2447.76377	10920.4125
2450.53501	10920.8125
2453.30451	10884.4125
2456.07226	10859.9125
2458.83827	10867.3125
2461.60254	10836.1125
2464.36507	10840.1125
2467.12586	10843.4125
2469.88492	10807.5125
2472.64224	10798.6125
2475.39782	10769.2125
2478.15167	10783.2125
2480.90379	10770.5125
2483.65417	10767.3125
2486.40283	10761.0125
2489.14976	10746.9125
2491.89497	10763.8125
2494.63845	10746.6125
2497.3802	10732.5125
2500.12024	10718.4125
2502.85855	10737.2125
2505.59514	10702.0125
2508.33002	10684.0125
2511.06318	10708.6125
2513.79462	10668.3125
2516.52435	10661.3125
2519.25237	10658.2125
2521.97867	10640.8125
2524.70327	10638.5125
2527.42616	10623.5125
2530.14734	10594.6125
2532.86681	10531.6125
2535.58458	10572.7125
2538.30065	10548.2125
2541.01501	10519.8125
2543.72768	10514.2125
2546.43864	10500.4125
2549.14791	10472.3125
2551.85548	10443.1125
2554.56136	10463.6125
2557.26554	10421.6125
2559.96803	10441.6125
2562.66883	10390.1125
2565.36794	10373.8125
2568.06536	10387.3125
2570.7611	10376.0125
2573.45514	10350.1125
2576.14751	10330.3125
2578.83819	10330.7125
2581.52719	10285.7125
2584.21451	10277.7125
2586.90015	10255.6125
2589.58411	10245.5125
2592.2664	10241.0125
2594.94701	10199.9125
2597.62594	10193.9125
2600.30321	10160.4125
2602.9788	10143.7125
2605.65273	10139.9125
2608.32498	10132.1125
2610.99557	10107.8125
2613.66449	10098.4125
2616.33175	10065.7125
2618.99734	10088.0125
2621.66128	10070.6125
2624.32355	10061.6125
2626.98416	10043.4125
2629.64311	10047.1125
2632.30041	10022.5125
2634.95605	10023.2125
2637.61004	10010.8125
2640.26238	10004.2125
2642.91306	9982.2125
2645.56209	9985.7125
2648.20948	9981.0125
2650.85521	9950.5125
2653.4993	9958.6125
2656.14175	9945.8125
2658.78255	9982.4125
2661.42171	9939.7125
2664.05923	9981.4125
2666.6951	9966.5125
2669.32934	9942.2125
2671.96194	9953.3125
2674.59291	9961.5125
2677.22224	9940.7125
2679.84993	9947.8125
2682.476	9944.4125
2685.10043	9963.4125
2687.72324	9926.4125
2690.34441	9923.0125
2692.96396	9914.2125
2695.58188	9923.5125
2698.19818	9903.6125
2700.81285	9915.9125
2703.4259	9896.5125
2706.03733	9970.6125
2708.64714	9958.2125
2711.25533	9937.5125
2713.86191	9932.8125
2716.46687	9936.0125
2719.07021	9922.7125
2721.67194	9907.3125
2724.27206	9911.4125
2726.87057	9920.8125
2729.46747	9921.7125
2732.06276	9892.1125
2734.65644	9890.6125
2737.24852	9896.2125
2739.83899	9866.9125
2742.42786	9883.6125
2745.01513	9852.7125
2747.60079	9853.0125
2750.18486	9831.3125
2752.76733	9833.0125
2755.3482	9804.3125
2757.92747	9813.1125
2760.50515	9792.5125
2763.08123	9810.9125
2765.65573	9767.6125
2768.22863	9797.4125
2770.79994	9784.5125
2773.36967	9761.9125
2775.9378	9758.4125
2778.50435	9743.7125
2781.06932	9698.3125
2783.6327	9706.5125
2786.1945	9680.7125
2788.75471	9655.3125
2791.31335	9627.4125
2793.87041	9624.5125
2796.42589	9604.7125
2798.97979	9603.2125
2801.53212	9580.3125
2804.08288	9556.9125
2806.63206	9534.9125
2809.17967	9509.0125
2811.72571	9480.7125
2814.27018	9479.5125
2816.81308	9460.7125
2819.35442	9457.5125
2821.89419	9452.4125
2824.43239	9422.4125
2826.96904	9403.4125
2829.50412	9403.7125
2832.03763	9385.3125
2834.56959	9384.9125
2837.1	9373.5125
2839.62884	9356.1125
2842.15613	9357.9125
2844.68186	9389.7125
2847.20604	9391.6125
2849.72867	9392.2125
2852.24974	9368.9125
2854.76927	9356.6125
2857.28724	9361.9125
2859.80367	9326.4125
2862.31855	9315.9125
2864.83189	9305.4125
2867.34368	9299.8125
2869.85393	9293.2125
2872.36264	9271.9125
2874.8698	9275.9125
2877.37543	9272.3125
2879.87952	9287.4125
2882.38207	9259.7125
2884.88308	9253.7125
2887.38256	9249.7125
2889.88051	9254.5125
2892.37692	9245.8125
2894.8718	9234.3125
2897.36515	9239.8125
2899.85698	9243.7125
2902.34727	9252.3125
2904.83604	9265.5125
2907.32328	9254.8125
2909.809	9258.7125
2912.29319	9257.6125
2914.77587	9259.2125
2917.25702	9237.0125
2919.73665	9228.0125
2922.21476	9241.3125
2924.69136	9224.6125
2927.16644	9226.9125
2929.64	9196.3125
2932.11205	9221.9125
2934.58258	9186.1125
2937.05161	9243.4125
2939.51912	9205.3125
2941.98513	9211.7125
2944.44962	9174.8125
2946.91261	9138.0125
2949.37409	9137.6125
2951.83407	9126.8125
2954.29254	9125.0125
2956.74951	9089.6125
2959.20498	9070.4125
2961.65895	9066.1125
2964.11142	9084.9125
2966.56239	9053.1125
2969.01186	9033.5125
2971.45984	9016.9125
2973.90632	9003.2125
2976.35131	8961.0125
2978.7948	8950.8125
2981.23681	8941.8125
2983.67732	8907.1125
2986.11635	8899.5125
2988.55388	8861.7125
2990.98993	8846.0125
2993.4245	8826.7125
2995.85758	8796.6125
2998.28917	8792.9125
3000.71928	8785.9125
3003.14791	8771.3125
3005.57506	8761.9125
3008.00073	8730.5125
3010.42493	8770.4125
3012.84764	8694.6125
3015.26888	8686.9125
3017.68865	8668.3125
3020.10694	8667.8125
3022.52376	8653.3125
3024.9391	8648.9125
3027.35298	8617.0125
3029.76539	8600.7125
3032.17632	8608.1125
3034.5858	8594.3125
3036.9938	8587.8125
3039.40034	8575.4125
3041.80542	8551.9125
3044.20903	8561.0125
