Data from AgNP_FTO_APTES_CRN_50uM_R6G_10uM_NaF_0.1M_Addition_RamanShift__35__18-26-48-100.txt Node

Date: Wed Dec 15 18:26:48 GMT 2021
User: TCL
Spectrometer: QEP01345
Trigger mode: 4
Integration Time (sec): 7.000000E0
Scans to average: 10
Electric dark correction enabled: true
Nonlinearity correction enabled: false
Boxcar width: 0
XAxis mode: Raman Shifts
Number of Pixels in Spectrum: 1044
>>>>>Begin Spectral Data<<<<<
46.04893	2
50.45542	-1.3
54.85868	-0.3
59.25871	-0.5
63.6555	41.3
68.04907	46
72.43941	46.9
76.82654	54.2
81.21044	53.1
85.59113	56.5
89.96862	58.6
94.34289	56.2
98.71396	65.1
103.08183	64.9
107.4465	65.9
111.80798	65.7
116.16626	70.1
120.52136	71.9
124.87327	65.8
129.222	71.2
133.56755	70.9
137.90993	74.7
142.24913	77.5
146.58517	87.3
150.91804	88.2
155.24774	106.9
159.57429	130.1
163.89768	159.8
168.21792	205.6
172.53501	268.3
176.84895	364.2
181.15975	508
185.46741	702.9
189.77193	963.2
194.07331	1279.8
198.37157	1646.3
202.6667	2043.7
206.9587	2424
211.24758	2813.3
215.53334	3202.3
219.81599	3638.7
224.09553	4144.5
228.37195	4701.2
232.64527	5270.3
236.91549	5876.1
241.18261	6416.5
245.44663	6870.3
249.70755	7249.1
253.96539	7568.3
258.22014	7833.7
262.4718	8111.9
266.72039	8312.2
270.96589	8422.3
275.20832	8434.5
279.44768	8387.3
283.68397	8270.7
287.91719	8208.1
292.14735	8227.7
296.37445	8371.4
300.59849	8612.4
304.81948	8949.9
309.03742	9174
313.25231	9173.4
317.46415	8788.9
321.67296	8201.5
325.87872	7715.8
330.08145	7455.5
334.28114	7434.3
338.47781	7544.7
342.67145	7745.6
346.86207	8052.7
351.04966	8515
355.23424	8995.9
359.4158	9369.5
363.59435	9582
367.76989	9641.6
371.94243	9603
376.11196	9574
380.27849	9506.8
384.44203	9417.1
388.60257	9320.6
392.76012	9247.4
396.91468	9358.1
401.06626	9594.4
405.21485	9779.2
409.36047	9622.2
413.50311	9216.8
417.64277	8799.8
421.77947	8562.1
425.9132	8484.6
430.04396	8468.2
434.17176	8521.1
438.2966	8618.2
442.41849	8835.7
446.53742	9092.3
450.6534	9351.1
454.76644	9498.4
458.87653	9536.5
462.98368	9475.3
467.08789	9344.6
471.18916	9157.5
475.2875	8928.1
479.38291	8757.3
483.4754	8615.8
487.56496	8502.3
491.6516	8417.8
495.73531	8397
499.81612	8405.1
503.89401	8496.3
507.96899	8587.7
512.04106	8720.3
516.11023	8889.4
520.1765	9018.8
524.23987	9026.5
528.30034	8875.4
532.35792	8728.6
536.41261	8537.2
540.46441	8335.7
544.51333	8259.1
548.55936	8275.3
552.60252	8461.6
556.64279	8644.7
560.6802	8767.6
564.71473	8866.1
568.7464	9151.6
572.7752	9354.4
576.80114	9125.3
580.82422	8862.2
584.84444	8747.3
588.86181	8769.5
592.87633	8825.7
596.888	8947.7
600.89682	9196.5
604.9028	10127.1
608.90594	12579.2
612.90624	15796.2
616.90371	15221.6
620.89834	11002.6
624.89015	8989.4
628.87913	8597.9
632.86528	8618.4
636.84862	8755.5
640.82913	8660.5
644.80683	8345.2
648.78172	8176.6
652.75379	8231.2
656.72306	8526.2
660.68952	8941.2
664.65319	8849.7
668.61405	8485.3
672.57211	8303.9
676.52738	8294.6
680.47986	8303.3
684.42955	8274.2
688.37646	8268.4
692.32058	8280.8
696.26192	8351.3
700.20048	8458.9
704.13626	8511.3
708.06928	8488.9
711.99952	8418.7
715.927	8360
719.85171	8392.5
723.77365	8382.4
727.69284	8279.9
731.60928	8219.4
735.52295	8214.3
739.43388	8245.7
743.34206	8266.4
747.24749	8300.7
751.15017	8348.6
755.05012	8506.1
758.94733	8856.6
762.8418	9686.2
766.73354	11110.6
770.62254	12584.8
774.50882	13338.9
778.39237	12813.7
782.27321	11290.8
786.15132	9746.9
790.02671	8864.4
793.89938	8476.5
797.76935	8313.1
801.6366	8254.5
805.50115	8207.1
809.36299	8183.2
813.22213	8137
817.07857	8159.3
820.93231	8147.8
824.78336	8193.4
828.63172	8193.8
832.47738	8222.7
836.32036	8229.9
840.16066	8195.5
843.99827	8133.8
847.8332	8122.1
851.66546	8091.2
855.49504	8102.1
859.32195	8073.5
863.1462	8055.2
866.96777	8039.5
870.78668	8017.3
874.60293	8028.7
878.41652	8043.6
882.22745	8089.4
886.03573	8109.9
889.84136	8104.6
893.64433	8052
897.44466	8032.1
901.24235	8045.7
905.0374	8034.8
908.8298	8003.6
912.61957	7998.4
916.40671	8036.1
920.19121	8069.2
923.97308	8117.4
927.75233	8201.1
931.52895	8269.3
935.30295	8189.8
939.07433	8003.8
942.84309	7819
946.60924	7712.4
950.37278	7665.4
954.13371	7624.8
957.89203	7594.1
961.64774	7576.2
965.40086	7566.5
969.15137	7537.3
972.89929	7519.3
976.64461	7519.1
980.38733	7505.2
984.12747	7526.4
987.86502	7542.6
991.59999	7558.5
995.33237	7642.4
999.06217	7764.5
1002.78939	7914.4
1006.51404	8062.1
1010.23611	8176.5
1013.95561	8316.8
1017.67255	8287.9
1021.38692	8181.4
1025.09872	8082.1
1028.80796	7992.2
1032.51465	8034.3
1036.21877	8114.4
1039.92035	8215.4
1043.61937	8233.3
1047.31584	8227
1051.00976	8206.9
1054.70114	8205.3
1058.38998	8208
1062.07627	8273.3
1065.76003	8365.1
1069.44126	8495.2
1073.11995	8642
1076.79611	8814.2
1080.46974	8959.5
1084.14085	9070.6
1087.80943	9158
1091.47549	9118.1
1095.13903	8899.3
1098.80005	8623.1
1102.45857	8375.7
1106.11456	8276.1
1109.76805	8307.7
1113.41903	8453.8
1117.06751	8697
1120.71348	8970.7
1124.35696	9300
1127.99793	9586.9
1131.63641	9559.3
1135.2724	9176.3
1138.90589	8807.3
1142.5369	8577
1146.16542	8421.2
1149.79145	8336.3
1153.415	8368.2
1157.03607	8438.7
1160.65467	8554.6
1164.27079	8802.9
1167.88443	9222.5
1171.49561	9866.5
1175.10432	10985.7
1178.71056	12391.3
1182.31434	13325.4
1185.91565	13387.6
1189.51451	13012.9
1193.11091	12263.6
1196.70485	11435.5
1200.29634	10793.4
1203.88538	10332.3
1207.47197	9803.6
1211.05612	9373.3
1214.63782	9115.3
1218.21708	9045.1
1221.79391	9046.4
1225.36829	9058.7
1228.94024	9091.5
1232.50976	9126.4
1236.07685	9164.8
1239.6415	9220.8
1243.20374	9318.9
1246.76355	9372.8
1250.32093	9495.4
1253.8759	9666.8
1257.42845	9888.8
1260.97859	10142.6
1264.52631	10376.7
1268.07163	10599.1
1271.61453	10826.4
1275.15503	10955.3
1278.69312	11032.9
1282.22882	11041.3
1285.76211	11230.2
1289.29301	11538.4
1292.82151	11870.1
1296.34761	12180.1
1299.87133	12642.6
1303.39266	13442
1306.9116	14757.8
1310.42815	16236
1313.94233	17237.5
1317.45412	16956.6
1320.96354	15890.3
1324.47058	14685.5
1327.97525	13708.1
1331.47754	13153.8
1334.97747	13038.6
1338.47502	13192.6
1341.97022	13478.8
1345.46305	13906.8
1348.95352	14602
1352.44163	15592.4
1355.92738	17010.2
1359.41078	19225.1
1362.89183	21352.2
1366.37053	20896.4
1369.84688	17960.7
1373.32088	15047.7
1376.79254	13132.9
1380.26186	12181.9
1383.72883	11677.2
1387.19347	11273
1390.65578	10900.6
1394.11575	10531.1
1397.57339	10326.3
1401.0287	10312.6
1404.48168	10429
1407.93234	10543.3
1411.38068	10669.2
1414.82669	10700.7
1418.27039	10554.5
1421.71177	10377.9
1425.15083	10187.8
1428.58758	10096.5
1432.02203	10141.6
1435.45416	10209.5
1438.88399	10268.8
1442.31151	10244
1445.73673	10291.8
1449.15965	10334.9
1452.58027	10271.1
1455.9986	10185.6
1459.41463	10127.7
1462.82837	10205.2
1466.23982	10391.3
1469.64898	10635.6
1473.05586	10791.3
1476.46045	10933.8
1479.86276	11137.8
1483.26279	11389.4
1486.66054	11694.6
1490.05602	12061.4
1493.44922	12540
1496.84016	13217.8
1500.22882	14260.7
1503.61521	15678.7
1506.99934	17327.4
1510.38121	18884.3
1513.76081	19724
1517.13816	18962.2
1520.51324	16871.1
1523.88607	14703.9
1527.25665	13212.9
1530.62498	12367.2
1533.99105	11891
1537.35488	11599.1
1540.71647	11400.5
1544.07581	11327.5
1547.4329	11269.5
1550.78776	11199.1
1554.14038	11154.8
1557.49077	11205.7
1560.83892	11364.8
1564.18484	11670.1
1567.52853	11992.9
1570.86999	12311.6
1574.20922	12565.7
1577.54624	12645.2
1580.88103	12230
1584.2136	11554.2
1587.54395	11044.4
1590.87208	10956.4
1594.19801	11362.5
1597.52172	12018.6
1600.84321	12385.9
1604.16251	12058.1
1607.47959	11408.4
1610.79447	10667.3
1614.10715	9936.4
1617.41763	9374.7
1620.7259	8991.8
1624.03199	8834.8
1627.33587	8816.8
1630.63757	8960.3
1633.93707	9288.7
1637.23439	9766.2
1640.52951	10522.9
1643.82246	11580.4
1647.11321	12877
1650.40179	13831.2
1653.68819	13690.7
1656.97241	12204.7
1660.25446	10488.3
1663.53433	9203.4
1666.81203	8448.7
1670.08756	8004.1
1673.36092	7742.1
1676.63211	7569.2
1679.90115	7414.8
1683.16801	7334.4
1686.43272	7275
1689.69527	7233
1692.95567	7206.1
1696.2139	7201
1699.46999	7190.6
1702.72392	7185.7
1705.97571	7157.3
1709.22535	7131.1
1712.47284	7100
1715.71819	7117
1718.96139	7121.3
1722.20246	7103.8
1725.44139	7113.7
1728.67818	7050.9
1731.91284	6989.4
1735.14537	6945.9
1738.37576	6919.8
1741.60403	6898.7
1744.83017	6888.6
1748.05418	6861.7
1751.27607	6851.7
1754.49584	6834
1757.71349	6850.6
1760.92903	6843
1764.14244	6828
1767.35375	6813
1770.56294	6808.4
1773.77002	6783.2
1776.97499	6767.1
1780.17785	6732.3
1783.37861	6719.1
1786.57727	6702.5
1789.77382	6661
1792.96828	6683.7
1796.16064	6678
1799.3509	6653.9
1802.53907	6662.1
1805.72514	6635.5
1808.90913	6607.5
1812.09102	6579.4
1815.27083	6563.1
1818.44856	6568.9
1821.6242	6542.7
1824.79776	6548.9
1827.96924	6532.9
1831.13864	6516.9
1834.30597	6514.7
1837.47122	6508
1840.6344	6526.3
1843.7955	6497.2
1846.95454	6492.7
1850.11151	6508.1
1853.26642	6478.5
1856.41926	6485.6
1859.57004	6489.4
1862.71876	6493
1865.86542	6471.9
1869.01003	6475.1
1872.15258	6478.4
1875.29308	6476.2
1878.43152	6475.2
1881.56792	6471.8
1884.70227	6439
1887.83457	6454.5
1890.96482	6471.4
1894.09304	6429
1897.21921	6457
1900.34335	6431.3
1903.46544	6429.4
1906.58551	6398.1
1909.70353	6411
1912.81953	6421.2
1915.93349	6416.4
1919.04543	6405.9
1922.15534	6401.1
1925.26322	6357
1928.36908	6358.3
1931.47292	6332.4
1934.57473	6328.3
1937.67453	6298
1940.77232	6280.4
1943.86808	6253
1946.96184	6239.9
1950.05358	6245.8
1953.14331	6204
1956.23103	6202.5
1959.31675	6199.5
1962.40046	6163.3
1965.48217	6179
1968.56188	6135.2
1971.63959	6121.2
1974.7153	6077.1
1977.78901	6082.5
1980.86073	6061.8
1983.93046	6030.9
1986.99819	6023.9
1990.06394	6011.5
1993.1277	5960.9
1996.18947	5955.5
1999.24925	5941.4
2002.30706	5919.7
2005.36288	5901.9
2008.41672	5900.2
2011.46859	5874.8
2014.51848	5851.1
2017.56639	5848.6
2020.61233	5837.9
2023.6563	5805
2026.6983	5789
2029.73833	5771
2032.7764	5759.7
2035.8125	5746.7
2038.84664	5739.1
2041.87881	5735.2
2044.90903	5722.9
2047.93729	5710.7
2050.96359	5708.9
2053.98794	5697.3
2057.01034	5685.7
2060.03078	5681.6
2063.04927	5676
2066.06582	5666.1
2069.08042	5658
2072.09307	5650.8
2075.10378	5642.5
2078.11255	5635.1
2081.11938	5647
2084.12426	5639.3
2087.12722	5655
2090.12824	5633.6
2093.12732	5642
2096.12447	5635.5
2099.11969	5634.8
2102.11299	5626
2105.10435	5634.8
2108.09379	5634
2111.08131	5642.8
2114.0669	5647.8
2117.05057	5632.8
2120.03233	5644.8
2123.01216	5637.6
2125.99008	5639.4
2128.96609	5645.4
2131.94018	5670.7
2134.91236	5645.9
2137.88263	5655.7
2140.851	5655.5
2143.81746	5655.2
2146.78201	5641.8
2149.74466	5653.6
2152.7054	5653.3
2155.66425	5652.6
2158.6212	5664.1
2161.57625	5639.3
2164.52941	5661.6
2167.48067	5643.1
2170.43004	5633.4
2173.37752	5614.6
2176.32311	5628.3
2179.26681	5632
2182.20863	5628.2
2185.14856	5628.8
2188.08661	5607
2191.02278	5621.8
2193.95707	5603.9
2196.88948	5601.7
2199.82001	5603.3
2202.74867	5589.6
2205.67545	5594.1
2208.60037	5579.8
2211.52341	5563.2
2214.44458	5568.4
2217.36388	5561.1
2220.28132	5560.2
2223.1969	5513.9
2226.11061	5521.7
2229.02246	5520.1
2231.93245	5495.9
2234.84058	5475.9
2237.74686	5476.8
2240.65128	5457.9
2243.55385	5471.8
2246.45456	5454.8
2249.35343	5439.5
2252.25044	5445.5
2255.14561	5425.8
2258.03893	5442.3
2260.93041	5431.6
2263.82004	5403.6
2266.70783	5435.8
2269.59378	5389
2272.4779	5383.9
2275.36017	5360.1
2278.24061	5352.1
2281.11922	5328
2283.996	5326.4
2286.87094	5320.7
2289.74405	5298.3
2292.61534	5277.2
2295.4848	5273.1
2298.35243	5283.3
2301.21824	5256.2
2304.08223	5258
2306.94439	5244
2309.80474	5247.5
2312.66327	5245.3
2315.51999	5234
2318.37489	5242
2321.22797	5224
2324.07925	5224.1
2326.92871	5215.1
2329.77637	5219.3
2332.62222	5202.8
2335.46626	5187.7
2338.3085	5194.3
2341.14893	5185.9
2343.98756	5161.3
2346.8244	5179.5
2349.65943	5174.6
2352.49267	5184.7
2355.32411	5197.4
2358.15376	5180.4
2360.98161	5186.1
2363.80768	5168.7
2366.63195	5194.2
2369.45444	5188.3
2372.27514	5176.9
2375.09405	5167.6
2377.91118	5158
2380.72652	5154
2383.54009	5108.7
2386.35187	5117.6
2389.16188	5085.5
2391.97011	5076.7
2394.77657	5061.6
2397.58125	5044.3
2400.38416	5025.9
2403.18529	5028.5
2405.98466	5005
2408.78226	5008.4
2411.57809	5000.2
2414.37216	4988.4
2417.16446	4971.4
2419.955	4972
2422.74378	4967.4
2425.5308	4952.2
2428.31606	4949.8
2431.09956	4959.4
2433.88131	4954
2436.6613	4955.1
2439.43954	4946.3
2442.21603	4924.7
2444.99077	4928.9
2447.76377	4933.6
2450.53501	4923.2
2453.30451	4936
2456.07226	4916.7
2458.83827	4925
2461.60254	4909.6
2464.36507	4908.9
2467.12586	4896.5
2469.88492	4904
2472.64224	4888.7
2475.39782	4896.8
2478.15167	4910.3
2480.90379	4888.7
2483.65417	4908.2
2486.40283	4900.4
2489.14976	4910
2491.89497	4911.1
2494.63845	4917.9
2497.3802	4913.7
2500.12024	4884.4
2502.85855	4895.7
2505.59514	4877.1
2508.33002	4859
2511.06318	4859.2
2513.79462	4835.2
2516.52435	4823.6
2519.25237	4804
2521.97867	4788
2524.70327	4792
2527.42616	4775.5
2530.14734	4770.7
2532.86681	4757.6
2535.58458	4752.8
2538.30065	4752.4
2541.01501	4762.2
2543.72768	4741.9
2546.43864	4728.1
2549.14791	4727
2551.85548	4726.9
2554.56136	4706.2
2557.26554	4716.1
2559.96803	4698.1
2562.66883	4696.3
2565.36794	4696.6
2568.06536	4696
2570.7611	4673.3
2573.45514	4689.1
2576.14751	4664.1
2578.83819	4645.8
2581.52719	4653.9
2584.21451	4628.9
2586.90015	4620.4
2589.58411	4601.9
2592.2664	4613
2594.94701	4596.6
2597.62594	4594.8
2600.30321	4575.1
2602.9788	4579.2
2605.65273	4585.8
2608.32498	4554.9
2610.99557	4564.2
2613.66449	4569
2616.33175	4574
2618.99734	4540.9
2621.66128	4548.8
2624.32355	4534.1
2626.98416	4533.7
2629.64311	4533.7
2632.30041	4510.4
2634.95605	4541.6
2637.61004	4517.5
2640.26238	4499.5
2642.91306	4499
2645.56209	4501
2648.20948	4484.6
2650.85521	4489.8
2653.4993	4477.7
2656.14175	4481.9
2658.78255	4484.5
2661.42171	4483.8
2664.05923	4477.3
2666.6951	4468.2
2669.32934	4497.2
2671.96194	4475.7
2674.59291	4487.6
2677.22224	4491.3
2679.84993	4492.3
2682.476	4489.4
2685.10043	4494.7
2687.72324	4493.3
2690.34441	4499.1
2692.96396	4493.8
2695.58188	4497.4
2698.19818	4480.5
2700.81285	4496.7
2703.4259	4508.8
2706.03733	4545.2
2708.64714	4502
2711.25533	4505.1
2713.86191	4506.5
2716.46687	4490.2
2719.07021	4498.7
2721.67194	4486.2
2724.27206	4486.1
2726.87057	4487.3
2729.46747	4480.5
2732.06276	4481.3
2734.65644	4479.6
2737.24852	4485.5
2739.83899	4469.7
2742.42786	4464.8
2745.01513	4450.7
2747.60079	4463.6
2750.18486	4433.4
2752.76733	4443
2755.3482	4450.7
2757.92747	4434.7
2760.50515	4420
2763.08123	4412.2
2765.65573	4407.9
2768.22863	4415.2
2770.79994	4407.7
2773.36967	4401.7
2775.9378	4378.6
2778.50435	4382.2
2781.06932	4370.3
2783.6327	4361.9
2786.1945	4377.6
2788.75471	4375
2791.31335	4355.9
2793.87041	4351.7
2796.42589	4344.8
2798.97979	4354.4
2801.53212	4347.5
2804.08288	4330.9
2806.63206	4333.2
2809.17967	4319.2
2811.72571	4314.9
2814.27018	4325.3
2816.81308	4320.3
2819.35442	4316.4
2821.89419	4317.3
2824.43239	4314.9
2826.96904	4316.7
2829.50412	4326.2
2832.03763	4311.6
2834.56959	4314.7
2837.1	4305.9
2839.62884	4326.4
2842.15613	4350.3
2844.68186	4389.5
2847.20604	4415.6
2849.72867	4433.7
2852.24974	4450
2854.76927	4450.3
2857.28724	4454.3
2859.80367	4438
2862.31855	4413.1
2864.83189	4404.8
2867.34368	4379.6
2869.85393	4380
2872.36264	4394.9
2874.8698	4373
2877.37543	4382.5
2879.87952	4380.6
2882.38207	4363.3
2884.88308	4363.4
2887.38256	4364
2889.88051	4366.5
2892.37692	4358.4
2894.8718	4351.8
2897.36515	4357.6
2899.85698	4370.2
2902.34727	4376.6
2904.83604	4365.5
2907.32328	4380.9
2909.809	4365
2912.29319	4361.6
2914.77587	4364.4
2917.25702	4381.3
2919.73665	4334.1
2922.21476	4343.4
2924.69136	4327.2
2927.16644	4339.7
2929.64	4342.9
2932.11205	4309.7
2934.58258	4305.6
2937.05161	4308.7
2939.51912	4290.5
2941.98513	4269.3
2944.44962	4245.2
2946.91261	4208.7
2949.37409	4223.1
2951.83407	4200.9
2954.29254	4180.2
2956.74951	4167.7
2959.20498	4166.1
2961.65895	4158.7
2964.11142	4146.5
2966.56239	4142.8
2969.01186	4130.1
2971.45984	4119.6
2973.90632	4104.9
2976.35131	4081.9
2978.7948	4077.3
2981.23681	4076.6
2983.67732	4073.9
2986.11635	4061.2
2988.55388	4053.5
2990.98993	4035.5
2993.4245	4011.7
2995.85758	4009.2
2998.28917	3998.7
3000.71928	3998.8
3003.14791	3991.9
3005.57506	3998
3008.00073	3989.8
3010.42493	3992.6
3012.84764	3963.6
3015.26888	3970.1
3017.68865	3963.1
3020.10694	3942.2
3022.52376	3958.7
3024.9391	3947.8
3027.35298	3940.6
3029.76539	3943.2
3032.17632	3928.7
3034.5858	3931
3036.9938	3919.9
3039.40034	3922.7
3041.80542	3922
3044.20903	3898.7
3046.61118	3894
3049.01187	3886
3051.4111	3901.9
3053.80888	3880.3
3056.20519	3870.7
3058.60005	3864
3060.99345	3866.8
3063.3854	3858
3065.7759	3832.2
3068.16494	3842.4
3070.55254	3834.3
3072.93868	3830.2
3075.32338	3819.1
3077.70662	3805.4
3080.08842	3805.5
3082.46878	3799.9
3084.84769	3784.6
3087.22515	3785.9
3089.60118	3795.8
3091.97576	3771.3
3094.3489	3782.4
3096.72061	3787.5
3099.09087	3789.7
3101.4597	3774.5
3103.82709	3779.2
3106.19305	3762
3108.55757	3769.6
3110.92066	3769.4
3113.28232	3754.6
3115.64255	3762.8
3118.00134	3731.1
3120.35871	3738
3122.71466	3734.9
3125.06917	3735.1
3127.42226	3729.4
3129.77393	3751.8
3132.12417	3730.6
3134.47299	3752.2
3136.82039	3749.4
3139.16636	3760.8
3141.51092	3752.6
3143.85406	3762
3146.19579	3771.8
3148.53609	3761.9
3150.87499	3771
3153.21246	3776.1
3155.54853	3785.8
3157.88318	3765.8
3160.21642	3768.6
3162.54826	3775.2
3164.87868	3797.7
3167.2077	3789.9
3169.5353	3786.8
3171.86151	3793
3174.18631	3789.9
3176.5097	3790.1
3178.83169	3785.6
3181.15228	3777.4
3183.47147	3783.9
3185.78926	3792.1
3188.10565	3789.1
3190.42065	3785.5
3192.73424	3775.4
3195.04645	3784.9
3197.35725	3795
3199.66667	3793.9
3201.97469	3807.8
3204.28132	3791.7
3206.58656	3816.3
3208.8904	3809.8
3211.19287	3821.9
3213.49394	3827.8
3215.79363	3824.5
3218.09193	3821.7
3220.38884	3833.9
3222.68438	3842.8
3224.97853	3828.8
3227.2713	3822.4
3229.56269	3810.8
3231.8527	3825.9
3234.14133	3800
3236.42858	3785.5
3238.71446	3789.9
3240.99896	3787.8
3243.28209	3784.1
3245.56384	3784.2
3247.84423	3789.1
3250.12324	3785.3
3252.40088	3772
3254.67715	3771.9
3256.95205	3760
3259.22558	3759.2
3261.49775	3770.1
3263.76855	3762.5
3266.03799	3750.4
3268.30606	3753.6
3270.57277	3749.4
3272.83812	3729.1
3275.10211	3722
3277.36474	3712.6
3279.62601	3717.8
3281.88593	3708.5
3284.14448	3728.7
3286.40168	3726
3288.65753	3713.2
3290.91202	3699.9
3293.16516	3689.4
3295.41695	3680
3297.66738	3654
3299.91647	3655.2
3302.16421	3621.6
3304.4106	3609.5
3306.65564	3606.7
3308.89933	3573
3311.14169	3543.4
3313.38269	3517.4
3315.62236	3513.1
3317.86068	3478
3320.09766	3444.7
3322.3333	3418.7
3324.5676	3430.7
3326.80056	3371
3329.03219	3352.8
3331.26248	2.1
3333.49143	-0.8
3335.71905	-1.3
