Data from AgNP_FTO_APTES_CRN_200uM_R6G_10uM_NaF_0.1M_Addition_RamanShift__33__19-55-28-200.txt Node

Date: Wed Dec 15 19:55:28 GMT 2021
User: TCL
Spectrometer: QEP01345
Trigger mode: 4
Integration Time (sec): 7.000000E0
Scans to average: 10
Electric dark correction enabled: true
Nonlinearity correction enabled: false
Boxcar width: 0
XAxis mode: Raman Shifts
Number of Pixels in Spectrum: 1044
>>>>>Begin Spectral Data<<<<<
46.04893	1.725
50.45542	-1.975
54.85868	-0.475
59.25871	0.025
63.6555	38.425
68.04907	47.025
72.43941	48.525
76.82654	55.125
81.21044	53.725
85.59113	57.625
89.96862	62.025
94.34289	59.125
98.71396	65.825
103.08183	69.525
107.4465	69.125
111.80798	70.525
116.16626	71.825
120.52136	71.225
124.87327	72.125
129.222	74.525
133.56755	76.025
137.90993	77.525
142.24913	82.925
146.58517	89.825
150.91804	103.325
155.24774	118.125
159.57429	141.725
163.89768	174.025
168.21792	220.625
172.53501	298.725
176.84895	401.525
181.15975	552.825
185.46741	770.225
189.77193	1063.825
194.07331	1418.525
198.37157	1813.225
202.6667	2241.725
206.9587	2658.325
211.24758	3079.125
215.53334	3516.425
219.81599	4000.925
224.09553	4538.625
228.37195	5141.325
232.64527	5787.325
236.91549	6432.325
241.18261	7033.225
245.44663	7496.125
249.70755	7893.525
253.96539	8234.625
258.22014	8559.425
262.4718	8789.925
266.72039	8996.425
270.96589	9072.925
275.20832	9085.425
279.44768	9002.125
283.68397	8872.025
287.91719	8823.325
292.14735	8842.825
296.37445	8979.425
300.59849	9261.325
304.81948	9598.625
309.03742	9865.325
313.25231	9860.825
317.46415	9474.125
321.67296	8807.925
325.87872	8242.225
330.08145	7972.125
334.28114	7969.725
338.47781	8127.825
342.67145	8306.125
346.86207	8644.925
351.04966	9146.525
355.23424	9692.325
359.4158	10099.425
363.59435	10297.925
367.76989	10357.925
371.94243	10344.125
376.11196	10271.625
380.27849	10203.125
384.44203	10115.325
388.60257	9972.325
392.76012	9907.025
396.91468	9997.925
401.06626	10244.625
405.21485	10438.025
409.36047	10284.125
413.50311	9785.425
417.64277	9331.325
421.77947	9077.825
425.9132	8996.425
430.04396	8987.425
434.17176	9041.325
438.2966	9188.125
442.41849	9421.925
446.53742	9714.025
450.6534	9988.225
454.76644	10139.925
458.87653	10169.025
462.98368	10051.625
467.08789	9911.425
471.18916	9724.625
475.2875	9528.625
479.38291	9353.725
483.4754	9194.125
487.56496	9045.125
491.6516	8943.825
495.73531	8923.925
499.81612	8929.525
503.89401	9062.425
507.96899	9181.325
512.04106	9338.625
516.11023	9521.725
520.1765	9698.525
524.23987	9720.325
528.30034	9589.625
532.35792	9385.225
536.41261	9174.525
540.46441	8961.225
544.51333	8851.425
548.55936	8900.325
552.60252	9065.425
556.64279	9280.025
560.6802	9390.125
564.71473	9547.325
568.7464	9855.925
572.7752	10054.025
576.80114	9778.125
580.82422	9432.825
584.84444	9296.325
588.86181	9300.925
592.87633	9415.825
596.888	9556.225
600.89682	9842.425
604.9028	10830.425
608.90594	13487.225
612.90624	16934.825
616.90371	16349.325
620.89834	11801.725
624.89015	9622.925
628.87913	9184.125
632.86528	9204.225
636.84862	9329.325
640.82913	9251.425
644.80683	8951.725
648.78172	8719.025
652.75379	8806.825
656.72306	9153.325
660.68952	9545.825
664.65319	9456.525
668.61405	9055.625
672.57211	8862.725
676.52738	8862.525
680.47986	8895.725
684.42955	8832.425
688.37646	8806.025
692.32058	8826.925
696.26192	8917.725
700.20048	9015.125
704.13626	9089.625
708.06928	9062.025
711.99952	8965.425
715.927	8906.025
719.85171	8910.725
723.77365	8882.225
727.69284	8767.425
731.60928	8681.725
735.52295	8687.025
739.43388	8690.725
743.34206	8740.425
747.24749	8762.225
751.15017	8797.325
755.05012	8973.125
758.94733	9346.125
762.8418	10247.725
766.73354	11783.225
770.62254	13363.525
774.50882	14174.425
778.39237	13624.725
782.27321	11947.225
786.15132	10282.125
790.02671	9302.325
793.89938	8890.625
797.76935	8718.325
801.6366	8640.025
805.50115	8544.525
809.36299	8522.725
813.22213	8498.825
817.07857	8504.525
820.93231	8503.125
824.78336	8530.825
828.63172	8593.325
832.47738	8621.325
836.32036	8628.125
840.16066	8558.825
843.99827	8505.125
847.8332	8463.725
851.66546	8437.125
855.49504	8447.125
859.32195	8412.525
863.1462	8381.425
866.96777	8334.325
870.78668	8346.225
874.60293	8336.225
878.41652	8359.325
882.22745	8390.425
886.03573	8392.625
889.84136	8413.425
893.64433	8358.625
897.44466	8345.225
901.24235	8335.225
905.0374	8328.225
908.8298	8300.125
912.61957	8278.725
916.40671	8344.625
920.19121	8384.825
923.97308	8419.125
927.75233	8523.225
931.52895	8591.625
935.30295	8507.225
939.07433	8298.025
942.84309	8099.025
946.60924	7973.325
950.37278	7896.325
954.13371	7875.425
957.89203	7835.125
961.64774	7831.025
965.40086	7783.925
969.15137	7766.325
972.89929	7737.825
976.64461	7750.025
980.38733	7715.525
984.12747	7730.925
987.86502	7759.325
991.59999	7809.025
995.33237	7841.725
999.06217	7976.625
1002.78939	8127.425
1006.51404	8265.525
1010.23611	8407.325
1013.95561	8518.925
1017.67255	8487.825
1021.38692	8363.525
1025.09872	8241.325
1028.80796	8186.025
1032.51465	8188.225
1036.21877	8270.525
1039.92035	8377.225
1043.61937	8430.925
1047.31584	8475.725
1051.00976	8452.525
1054.70114	8451.025
1058.38998	8482.625
1062.07627	8533.125
1065.76003	8648.225
1069.44126	8808.225
1073.11995	9026.025
1076.79611	9251.825
1080.46974	9374.825
1084.14085	9494.625
1087.80943	9556.625
1091.47549	9460.225
1095.13903	9200.125
1098.80005	8881.025
1102.45857	8607.925
1106.11456	8516.025
1109.76805	8549.025
1113.41903	8719.325
1117.06751	8997.725
1120.71348	9325.725
1124.35696	9731.725
1127.99793	10022.425
1131.63641	9932.525
1135.2724	9527.425
1138.90589	9142.525
1142.5369	8876.025
1146.16542	8698.225
1149.79145	8622.525
1153.415	8622.125
1157.03607	8710.925
1160.65467	8838.125
1164.27079	9140.225
1167.88443	9573.925
1171.49561	10340.525
1175.10432	11538.425
1178.71056	13023.425
1182.31434	14018.425
1185.91565	14089.525
1189.51451	13620.525
1193.11091	12845.825
1196.70485	11975.725
1200.29634	11331.625
1203.88538	10786.625
1207.47197	10211.525
1211.05612	9712.225
1214.63782	9442.625
1218.21708	9394.925
1221.79391	9396.325
1225.36829	9431.425
1228.94024	9458.325
1232.50976	9462.525
1236.07685	9485.125
1239.6415	9539.425
1243.20374	9588.525
1246.76355	9676.025
1250.32093	9747.125
1253.8759	9948.625
1257.42845	10203.825
1260.97859	10472.425
1264.52631	10734.125
1268.07163	10980.425
1271.61453	11198.625
1275.15503	11361.525
1278.69312	11398.525
1282.22882	11422.525
1285.76211	11625.625
1289.29301	11988.425
1292.82151	12362.825
1296.34761	12740.925
1299.87133	13266.425
1303.39266	14179.725
1306.9116	15622.725
1310.42815	17274.025
1313.94233	18228.025
1317.45412	17822.925
1320.96354	16601.125
1324.47058	15320.425
1327.97525	14273.025
1331.47754	13663.725
1334.97747	13480.325
1338.47502	13608.025
1341.97022	13952.825
1345.46305	14478.125
1348.95352	15288.125
1352.44163	16440.725
1355.92738	18135.025
1359.41078	20550.825
1362.89183	22668.825
1366.37053	21933.825
1369.84688	18869.525
1373.32088	15825.325
1376.79254	13876.925
1380.26186	12834.125
1383.72883	12257.725
1387.19347	11796.925
1390.65578	11322.125
1394.11575	10936.825
1397.57339	10729.825
1401.0287	10735.825
1404.48168	10804.225
1407.93234	10897.825
1411.38068	10962.225
1414.82669	10937.725
1418.27039	10771.825
1421.71177	10610.125
1425.15083	10417.425
1428.58758	10304.725
1432.02203	10361.525
1435.45416	10464.125
1438.88399	10490.825
1442.31151	10498.125
1445.73673	10518.525
1449.15965	10536.725
1452.58027	10515.325
1455.9986	10401.825
1459.41463	10394.225
1462.82837	10508.025
1466.23982	10701.325
1469.64898	10933.225
1473.05586	11145.525
1476.46045	11252.025
1479.86276	11472.625
1483.26279	11702.425
1486.66054	11978.325
1490.05602	12357.925
1493.44922	12885.825
1496.84016	13584.725
1500.22882	14775.225
1503.61521	16374.525
1506.99934	18068.125
1510.38121	19655.825
1513.76081	20431.125
1517.13816	19463.125
1520.51324	17247.725
1523.88607	15050.825
1527.25665	13565.125
1530.62498	12720.325
1533.99105	12284.625
1537.35488	11985.625
1540.71647	11850.425
1544.07581	11732.025
1547.4329	11689.325
1550.78776	11651.625
1554.14038	11589.425
1557.49077	11605.825
1560.83892	11793.725
1564.18484	12106.925
1567.52853	12492.325
1570.86999	12863.525
1574.20922	13230.425
1577.54624	13320.725
1580.88103	12904.725
1584.2136	12145.625
1587.54395	11540.825
1590.87208	11404.425
1594.19801	11731.325
1597.52172	12386.425
1600.84321	12703.225
1604.16251	12386.125
1607.47959	11678.225
1610.79447	10874.525
1614.10715	10136.625
1617.41763	9543.825
1620.7259	9191.625
1624.03199	9017.325
1627.33587	9012.325
1630.63757	9135.325
1633.93707	9458.125
1637.23439	10008.925
1640.52951	10836.225
1643.82246	12002.225
1647.11321	13395.325
1650.40179	14378.625
1653.68819	14099.325
1656.97241	12511.925
1660.25446	10701.525
1663.53433	9391.025
1666.81203	8617.325
1670.08756	8156.425
1673.36092	7882.325
1676.63211	7684.625
1679.90115	7573.825
1683.16801	7461.725
1686.43272	7398.825
1689.69527	7334.225
1692.95567	7296.225
1696.2139	7282.625
1699.46999	7291.325
1702.72392	7268.825
1705.97571	7241.325
1709.22535	7213.725
1712.47284	7223.025
1715.71819	7211.525
1718.96139	7189.325
1722.20246	7203.725
1725.44139	7171.725
1728.67818	7111.525
1731.91284	7057.625
1735.14537	7000.925
1738.37576	6997.225
1741.60403	6931.025
1744.83017	6919.925
1748.05418	6905.025
1751.27607	6918.025
1754.49584	6890.925
1757.71349	6896.025
1760.92903	6905.225
1764.14244	6877.125
1767.35375	6862.125
1770.56294	6844.925
1773.77002	6806.525
1776.97499	6768.925
1780.17785	6751.025
1783.37861	6746.725
1786.57727	6717.225
1789.77382	6727.425
1792.96828	6700.025
1796.16064	6688.525
1799.3509	6669.125
1802.53907	6662.925
1805.72514	6634.725
1808.90913	6633.925
1812.09102	6599.925
1815.27083	6597.125
1818.44856	6577.825
1821.6242	6564.125
1824.79776	6557.225
1827.96924	6544.525
1831.13864	6537.225
1834.30597	6517.325
1837.47122	6525.825
1840.6344	6515.625
1843.7955	6503.725
1846.95454	6499.725
1850.11151	6494.225
1853.26642	6479.225
1856.41926	6484.325
1859.57004	6475.625
1862.71876	6492.625
1865.86542	6478.525
1869.01003	6492.825
1872.15258	6495.825
1875.29308	6461.325
1878.43152	6454.825
1881.56792	6469.625
1884.70227	6460.725
1887.83457	6428.425
1890.96482	6443.525
1894.09304	6441.025
1897.21921	6445.325
1900.34335	6440.925
1903.46544	6427.925
1906.58551	6431.025
1909.70353	6428.125
1912.81953	6415.425
1915.93349	6404.625
1919.04543	6416.825
1922.15534	6392.025
1925.26322	6365.625
1928.36908	6374.325
1931.47292	6364.125
1934.57473	6336.025
1937.67453	6308.525
1940.77232	6267.025
1943.86808	6250.625
1946.96184	6231.225
1950.05358	6203.025
1953.14331	6200.925
1956.23103	6164.325
1959.31675	6184.425
1962.40046	6150.825
1965.48217	6128.825
1968.56188	6116.425
1971.63959	6100.225
1974.7153	6076.125
1977.78901	6082.925
1980.86073	6040.625
1983.93046	6029.125
1986.99819	6006.825
1990.06394	5982.025
1993.1277	5964.225
1996.18947	5941.825
1999.24925	5920.525
2002.30706	5908.825
2005.36288	5883.025
2008.41672	5870.225
2011.46859	5862.725
2014.51848	5838.725
2017.56639	5842.725
2020.61233	5810.325
2023.6563	5799.525
2026.6983	5770.225
2029.73833	5768.325
2032.7764	5755.225
2035.8125	5739.925
2038.84664	5732.125
2041.87881	5701.825
2044.90903	5701.425
2047.93729	5684.225
2050.96359	5675.125
2053.98794	5682.425
2057.01034	5673.325
2060.03078	5672.525
2063.04927	5648.125
2066.06582	5630.925
2069.08042	5643.025
2072.09307	5628.525
2075.10378	5622.825
2078.11255	5630.325
2081.11938	5617.325
2084.12426	5617.325
2087.12722	5615.525
2090.12824	5602.325
2093.12732	5631.825
2096.12447	5627.025
2099.11969	5617.625
2102.11299	5620.525
2105.10435	5620.725
2108.09379	5633.325
2111.08131	5615.625
2114.0669	5617.425
2117.05057	5627.325
2120.03233	5627.825
2123.01216	5652.925
2125.99008	5629.725
2128.96609	5652.025
2131.94018	5637.225
2134.91236	5638.425
2137.88263	5634.625
2140.851	5628.425
2143.81746	5649.425
2146.78201	5642.125
2149.74466	5637.825
2152.7054	5637.025
2155.66425	5644.425
2158.6212	5637.025
2161.57625	5636.625
2164.52941	5635.225
2167.48067	5622.925
2170.43004	5611.725
2173.37752	5615.725
2176.32311	5612.825
2179.26681	5615.425
2182.20863	5612.525
2185.14856	5600.625
2188.08661	5578.225
2191.02278	5598.125
2193.95707	5588.525
2196.88948	5583.425
2199.82001	5577.425
2202.74867	5569.825
2205.67545	5559.325
2208.60037	5557.925
2211.52341	5560.925
2214.44458	5542.025
2217.36388	5526.225
2220.28132	5517.825
2223.1969	5495.825
2226.11061	5491.125
2229.02246	5474.225
2231.93245	5473.125
2234.84058	5473.925
2237.74686	5458.125
2240.65128	5454.825
2243.55385	5425.325
2246.45456	5428.125
2249.35343	5405.925
2252.25044	5412.425
2255.14561	5406.025
2258.03893	5410.625
2260.93041	5406.125
2263.82004	5392.625
2266.70783	5384.925
2269.59378	5363.425
2272.4779	5343.525
2275.36017	5334.725
2278.24061	5322.625
2281.11922	5306.525
2283.996	5305.525
2286.87094	5276.825
2289.74405	5252.625
2292.61534	5256.225
2295.4848	5250.925
2298.35243	5264.325
2301.21824	5251.225
2304.08223	5242.125
2306.94439	5218.525
2309.80474	5216.925
2312.66327	5223.925
2315.51999	5226.625
2318.37489	5204.325
2321.22797	5205.725
2324.07925	5205.325
2326.92871	5183.325
2329.77637	5184.025
2332.62222	5179.125
2335.46626	5155.125
2338.3085	5180.525
2341.14893	5152.725
2343.98756	5152.725
2346.8244	5152.525
2349.65943	5126.125
2352.49267	5157.025
2355.32411	5172.025
2358.15376	5151.825
2360.98161	5149.925
2363.80768	5143.225
2366.63195	5162.025
2369.45444	5158.425
2372.27514	5168.325
2375.09405	5159.825
2377.91118	5124.825
2380.72652	5117.325
2383.54009	5088.625
2386.35187	5077.825
2389.16188	5080.525
2391.97011	5036.825
2394.77657	5032.625
2397.58125	5015.525
2400.38416	5005.125
2403.18529	4994.225
2405.98466	4964.925
2408.78226	4986.325
2411.57809	4964.825
2414.37216	4942.925
2417.16446	4956.825
2419.955	4946.025
2422.74378	4937.325
2425.5308	4930.825
2428.31606	4918.325
2431.09956	4922.025
2433.88131	4921.325
2436.6613	4917.825
2439.43954	4920.425
2442.21603	4908.225
2444.99077	4907.225
2447.76377	4917.125
2450.53501	4912.725
2453.30451	4908.925
2456.07226	4890.625
2458.83827	4897.925
2461.60254	4883.725
2464.36507	4892.425
2467.12586	4873.225
2469.88492	4867.525
2472.64224	4871.525
2475.39782	4862.725
2478.15167	4883.225
2480.90379	4885.825
2483.65417	4895.925
2486.40283	4891.325
2489.14976	4889.625
2491.89497	4888.525
2494.63845	4899.025
2497.3802	4879.625
2500.12024	4874.325
2502.85855	4861.125
2505.59514	4848.725
2508.33002	4828.325
2511.06318	4818.525
2513.79462	4805.825
2516.52435	4810.425
2519.25237	4784.325
2521.97867	4777.425
2524.70327	4765.225
2527.42616	4759.325
2530.14734	4754.025
2532.86681	4725.925
2535.58458	4711.925
2538.30065	4728.425
2541.01501	4734.925
2543.72768	4713.525
2546.43864	4718.625
2549.14791	4684.725
2551.85548	4697.725
2554.56136	4699.825
2557.26554	4670.725
2559.96803	4667.425
2562.66883	4670.625
2565.36794	4668.125
2568.06536	4661.125
2570.7611	4656.725
2573.45514	4659.725
2576.14751	4635.525
2578.83819	4629.725
2581.52719	4614.825
2584.21451	4619.825
2586.90015	4613.925
2589.58411	4592.425
2592.2664	4598.425
2594.94701	4571.925
2597.62594	4573.025
2600.30321	4571.325
2602.9788	4557.025
2605.65273	4540.225
2608.32498	4534.625
2610.99557	4529.225
2613.66449	4544.925
2616.33175	4528.525
2618.99734	4516.225
2621.66128	4508.625
2624.32355	4496.825
2626.98416	4514.925
2629.64311	4508.325
2632.30041	4509.425
2634.95605	4480.725
2637.61004	4492.825
2640.26238	4473.325
2642.91306	4460.225
2645.56209	4448.825
2648.20948	4452.525
2650.85521	4445.725
2653.4993	4458.325
2656.14175	4458.125
2658.78255	4462.325
2661.42171	4463.025
2664.05923	4450.325
2666.6951	4455.825
2669.32934	4460.625
2671.96194	4470.825
2674.59291	4474.825
2677.22224	4463.525
2679.84993	4475.325
2682.476	4453.625
2685.10043	4453.225
2687.72324	4461.725
2690.34441	4464.225
2692.96396	4468.125
2695.58188	4467.225
2698.19818	4461.125
2700.81285	4466.025
2703.4259	4496.625
2706.03733	4524.925
2708.64714	4499.025
2711.25533	4504.925
2713.86191	4486.725
2716.46687	4510.625
2719.07021	4483.925
2721.67194	4482.125
2724.27206	4484.025
2726.87057	4483.425
2729.46747	4491.025
2732.06276	4484.425
2734.65644	4475.925
2737.24852	4463.925
2739.83899	4448.025
2742.42786	4448.725
2745.01513	4442.825
2747.60079	4431.125
2750.18486	4420.125
2752.76733	4427.025
2755.3482	4425.025
2757.92747	4422.525
2760.50515	4412.025
2763.08123	4399.525
2765.65573	4385.525
2768.22863	4386.425
2770.79994	4379.325
2773.36967	4385.125
2775.9378	4364.225
2778.50435	4367.725
2781.06932	4356.825
2783.6327	4356.925
2786.1945	4351.625
2788.75471	4356.425
2791.31335	4356.025
2793.87041	4339.125
2796.42589	4357.025
2798.97979	4336.325
2801.53212	4326.325
2804.08288	4339.125
2806.63206	4336.025
2809.17967	4318.525
2811.72571	4320.825
2814.27018	4322.825
2816.81308	4332.625
2819.35442	4337.125
2821.89419	4319.325
2824.43239	4334.425
2826.96904	4330.925
2829.50412	4349.125
2832.03763	4339.725
2834.56959	4338.725
2837.1	4348.025
2839.62884	4353.125
2842.15613	4392.025
2844.68186	4439.325
2847.20604	4489.725
2849.72867	4536.325
2852.24974	4571.725
2854.76927	4566.225
2857.28724	4563.025
2859.80367	4532.925
2862.31855	4535.225
2864.83189	4500.325
2867.34368	4483.325
2869.85393	4483.725
2872.36264	4458.825
2874.8698	4482.025
2877.37543	4486.825
2879.87952	4489.425
2882.38207	4462.525
2884.88308	4471.925
2887.38256	4465.625
2889.88051	4481.025
2892.37692	4468.125
2894.8718	4462.325
2897.36515	4484.925
2899.85698	4491.625
2902.34727	4484.825
2904.83604	4465.325
2907.32328	4481.925
2909.809	4490.025
2912.29319	4496.725
2914.77587	4465.925
2917.25702	4454.125
2919.73665	4449.825
2922.21476	4461.825
2924.69136	4453.125
2927.16644	4443.925
2929.64	4438.225
2932.11205	4416.625
2934.58258	4405.125
2937.05161	4399.525
2939.51912	4370.625
2941.98513	4348.625
2944.44962	4304.425
2946.91261	4280.725
2949.37409	4261.325
2951.83407	4226.125
2954.29254	4210.325
2956.74951	4201.425
2959.20498	4185.025
2961.65895	4169.025
2964.11142	4172.225
2966.56239	4152.125
2969.01186	4144.525
2971.45984	4124.625
2973.90632	4125.825
2976.35131	4093.925
2978.7948	4081.625
2981.23681	4068.225
2983.67732	4064.825
2986.11635	4053.025
2988.55388	4048.525
2990.98993	4019.125
2993.4245	4028.025
2995.85758	4017.325
2998.28917	4002.725
3000.71928	3997.525
3003.14791	3972.825
3005.57506	3988.625
3008.00073	3979.325
3010.42493	3985.725
3012.84764	3974.025
3015.26888	3949.025
3017.68865	3958.825
3020.10694	3962.125
3022.52376	3944.225
3024.9391	3936.525
3027.35298	3933.425
3029.76539	3929.725
3032.17632	3934.125
3034.5858	3920.725
3036.9938	3924.325
3039.40034	3900.925
3041.80542	3905.425
3044.20903	3901.625
3046.61118	3907.925
3049.01187	3895.925
3051.4111	3889.025
3053.80888	3878.025
3056.20519	3884.025
3058.60005	3875.925
3060.99345	3852.025
3063.3854	3876.525
3065.7759	3854.225
3068.16494	3852.625
3070.55254	3851.225
3072.93868	3834.725
3075.32338	3826.925
3077.70662	3820.425
3080.08842	3817.425
3082.46878	3808.025
3084.84769	3801.625
3087.22515	3790.525
3089.60118	3805.225
3091.97576	3802.525
3094.3489	3805.025
3096.72061	3806.125
3099.09087	3819.625
3101.4597	3798.225
3103.82709	3792.525
3106.19305	3796.325
3108.55757	3794.125
3110.92066	3779.025
3113.28232	3773.325
3115.64255	3771.325
3118.00134	3778.625
3120.35871	3767.525
3122.71466	3767.125
3125.06917	3774.525
3127.42226	3773.325
3129.77393	3772.825
3132.12417	3773.125
3134.47299	3767.525
3136.82039	3789.925
3139.16636	3806.225
3141.51092	3791.825
3143.85406	3804.225
3146.19579	3800.325
3148.53609	3809.325
3150.87499	3805.125
3153.21246	3811.925
3155.54853	3821.325
3157.88318	3829.925
3160.21642	3834.425
3162.54826	3834.225
3164.87868	3832.925
3167.2077	3830.925
3169.5353	3846.825
3171.86151	3849.425
3174.18631	3838.025
3176.5097	3858.825
3178.83169	3847.925
3181.15228	3863.025
3183.47147	3840.325
3185.78926	3866.125
3188.10565	3859.825
3190.42065	3878.325
3192.73424	3870.625
3195.04645	3865.925
3197.35725	3872.525
3199.66667	3880.225
3201.97469	3879.625
3204.28132	3874.625
3206.58656	3890.525
3208.8904	3887.925
3211.19287	3894.125
3213.49394	3895.025
3215.79363	3894.725
3218.09193	3908.225
