Data from AgNP_FTO_APTES_CRN_10uM_R6G_10uM_NaF_0.1M_Addition_RamanShift__33__16-53-27-994.txt Node

Date: Wed Dec 15 16:53:27 GMT 2021
User: TCL
Spectrometer: QEP01345
Trigger mode: 4
Integration Time (sec): 7.000000E0
Scans to average: 10
Electric dark correction enabled: true
Nonlinearity correction enabled: false
Boxcar width: 0
XAxis mode: Raman Shifts
Number of Pixels in Spectrum: 1044
>>>>>Begin Spectral Data<<<<<
46.04893	2.275
50.45542	-1.325
54.85868	-1.025
59.25871	-1.125
63.6555	55.375
68.04907	62.875
72.43941	69.775
76.82654	71.275
81.21044	73.975
85.59113	79.975
89.96862	83.875
94.34289	79.675
98.71396	87.275
103.08183	93.875
107.4465	94.975
111.80798	94.275
116.16626	94.875
120.52136	99.175
124.87327	99.375
129.222	104.575
133.56755	103.875
137.90993	112.375
142.24913	120.475
146.58517	127.675
150.91804	146.375
155.24774	164.475
159.57429	201.075
163.89768	256.475
168.21792	321.575
172.53501	438.075
176.84895	600.375
181.15975	826.575
185.46741	1147.875
189.77193	1573.475
194.07331	2104.475
198.37157	2707.875
202.6667	3339.875
206.9587	3970.375
211.24758	4610.675
215.53334	5261.875
219.81599	6028.175
224.09553	6840.975
228.37195	7789.875
232.64527	8778.975
236.91549	9763.675
241.18261	10667.075
245.44663	11381.375
249.70755	11965.275
253.96539	12442.375
258.22014	12899.875
262.4718	13347.275
266.72039	13711.175
270.96589	13890.475
275.20832	13872.975
279.44768	13777.175
283.68397	13624.075
287.91719	13547.575
292.14735	13613.575
296.37445	13921.775
300.59849	14420.575
304.81948	15002.975
309.03742	15513.475
313.25231	15478.575
317.46415	14813.275
321.67296	13655.875
325.87872	12660.575
330.08145	12198.675
334.28114	12131.575
338.47781	12332.175
342.67145	12685.775
346.86207	13196.275
351.04966	13996.675
355.23424	14935.175
359.4158	15608.675
363.59435	15903.675
367.76989	15899.775
371.94243	15823.775
376.11196	15641.275
380.27849	15519.275
384.44203	15345.075
388.60257	15112.575
392.76012	15028.575
396.91468	15183.975
401.06626	15564.875
405.21485	15843.475
409.36047	15559.175
413.50311	14777.275
417.64277	13957.975
421.77947	13529.575
425.9132	13353.875
430.04396	13320.375
434.17176	13390.575
438.2966	13536.475
442.41849	13835.775
446.53742	14264.275
450.6534	14612.875
454.76644	14865.375
458.87653	14901.075
462.98368	14780.575
467.08789	14542.375
471.18916	14265.275
475.2875	13878.575
479.38291	13597.675
483.4754	13368.775
487.56496	13205.975
491.6516	13097.475
495.73531	13057.075
499.81612	13129.675
503.89401	13299.275
507.96899	13442.575
512.04106	13699.075
516.11023	13964.875
520.1765	14184.975
524.23987	14229.375
528.30034	13960.475
532.35792	13649.275
536.41261	13271.075
540.46441	12931.375
544.51333	12741.775
548.55936	12797.075
552.60252	13086.675
556.64279	13412.775
560.6802	13651.075
564.71473	13836.775
568.7464	14384.075
572.7752	14751.975
576.80114	14393.075
580.82422	13902.975
584.84444	13665.075
588.86181	13633.175
592.87633	13692.975
596.888	13915.875
600.89682	14476.575
604.9028	16164.175
608.90594	20531.575
612.90624	26257.575
616.90371	25403.175
620.89834	17715.175
624.89015	14016.975
628.87913	13316.575
632.86528	13346.975
636.84862	13558.075
640.82913	13371.275
644.80683	12823.375
648.78172	12444.075
652.75379	12545.375
656.72306	13055.275
660.68952	13729.875
664.65319	13598.775
668.61405	12898.175
672.57211	12571.075
676.52738	12566.575
680.47986	12500.075
684.42955	12412.375
688.37646	12385.175
692.32058	12432.875
696.26192	12586.375
700.20048	12762.975
704.13626	12891.975
708.06928	12910.475
711.99952	12805.275
715.927	12743.875
719.85171	12749.675
723.77365	12722.975
727.69284	12575.275
731.60928	12446.875
735.52295	12439.375
739.43388	12481.075
743.34206	12529.375
747.24749	12594.175
751.15017	12714.675
755.05012	12952.175
758.94733	13584.775
762.8418	15097.375
766.73354	17705.875
770.62254	20370.175
774.50882	21616.575
778.39237	20588.975
782.27321	17865.475
786.15132	15215.575
790.02671	13642.075
793.89938	12943.575
797.76935	12659.275
801.6366	12488.575
805.50115	12431.775
809.36299	12348.875
813.22213	12288.475
817.07857	12265.975
820.93231	12269.575
824.78336	12335.175
828.63172	12421.175
832.47738	12476.475
836.32036	12484.275
840.16066	12455.475
843.99827	12330.675
847.8332	12294.575
851.66546	12237.675
855.49504	12241.975
859.32195	12210.975
863.1462	12125.875
866.96777	12066.575
870.78668	12053.275
874.60293	12072.975
878.41652	12084.775
882.22745	12159.775
886.03573	12214.675
889.84136	12211.275
893.64433	12116.875
897.44466	12061.475
901.24235	12100.775
905.0374	12067.375
908.8298	12111.175
912.61957	12035.175
916.40671	12111.975
920.19121	12245.375
923.97308	12332.675
927.75233	12490.175
931.52895	12630.375
935.30295	12465.775
939.07433	12097.875
942.84309	11783.575
946.60924	11589.175
950.37278	11484.275
954.13371	11450.575
957.89203	11383.875
961.64774	11357.575
965.40086	11336.175
969.15137	11268.475
972.89929	11243.175
976.64461	11219.175
980.38733	11212.975
984.12747	11254.175
987.86502	11312.275
991.59999	11381.575
995.33237	11500.175
999.06217	11759.075
1002.78939	12032.275
1006.51404	12322.175
1010.23611	12594.675
1013.95561	12773.775
1017.67255	12705.175
1021.38692	12547.275
1025.09872	12352.675
1028.80796	12304.375
1032.51465	12431.575
1036.21877	12605.775
1039.92035	12768.875
1043.61937	12771.975
1047.31584	12702.575
1051.00976	12626.375
1054.70114	12592.275
1058.38998	12607.075
1062.07627	12707.975
1065.76003	12919.075
1069.44126	13199.375
1073.11995	13607.375
1076.79611	13970.775
1080.46974	14282.075
1084.14085	14441.975
1087.80943	14513.875
1091.47549	14357.775
1095.13903	13872.075
1098.80005	13285.775
1102.45857	12767.975
1106.11456	12621.275
1109.76805	12655.575
1113.41903	12887.375
1117.06751	13275.975
1120.71348	13796.075
1124.35696	14376.875
1127.99793	14942.175
1131.63641	14939.975
1135.2724	14286.075
1138.90589	13644.575
1142.5369	13249.875
1146.16542	12969.475
1149.79145	12778.075
1153.415	12756.375
1157.03607	12896.075
1160.65467	13181.475
1164.27079	13659.875
1167.88443	14379.775
1171.49561	15586.575
1175.10432	17619.575
1178.71056	20156.775
1182.31434	21939.675
1185.91565	22163.875
1189.51451	21394.975
1193.11091	19956.075
1196.70485	18386.475
1200.29634	17172.575
1203.88538	16331.975
1207.47197	15393.075
1211.05612	14534.575
1214.63782	14132.775
1218.21708	13955.275
1221.79391	13977.075
1225.36829	14080.475
1228.94024	14171.475
1232.50976	14201.175
1236.07685	14254.975
1239.6415	14298.075
1243.20374	14317.575
1246.76355	14392.975
1250.32093	14593.375
1253.8759	14894.475
1257.42845	15348.175
1260.97859	15831.575
1264.52631	16291.375
1268.07163	16745.975
1271.61453	17180.775
1275.15503	17556.175
1278.69312	17695.775
1282.22882	17786.575
1285.76211	18122.275
1289.29301	18638.675
1292.82151	19209.775
1296.34761	19753.575
1299.87133	20606.375
1303.39266	22103.375
1306.9116	24555.975
1310.42815	27487.275
1313.94233	29384.375
1317.45412	29056.875
1320.96354	27113.875
1324.47058	24917.675
1327.97525	23040.975
1331.47754	21895.675
1334.97747	21439.475
1338.47502	21501.375
1341.97022	21925.275
1345.46305	22707.975
1348.95352	23909.975
1352.44163	25701.775
1355.92738	28247.675
1359.41078	32303.375
1362.89183	36417.775
1366.37053	35932.875
1369.84688	30678.075
1373.32088	25260.075
1376.79254	21741.875
1380.26186	19975.775
1383.72883	19030.275
1387.19347	18305.675
1390.65578	17539.175
1394.11575	16911.975
1397.57339	16533.875
1401.0287	16526.875
1404.48168	16638.375
1407.93234	16813.875
1411.38068	16878.175
1414.82669	16839.475
1418.27039	16578.775
1421.71177	16297.575
1425.15083	15994.175
1428.58758	15805.275
1432.02203	15805.075
1435.45416	15946.475
1438.88399	16030.875
1442.31151	16037.575
1445.73673	16088.075
1449.15965	16184.475
1452.58027	16148.675
1455.9986	15980.675
1459.41463	15954.975
1462.82837	16073.475
1466.23982	16372.975
1469.64898	16762.775
1473.05586	17036.875
1476.46045	17252.375
1479.86276	17572.475
1483.26279	17955.275
1486.66054	18448.475
1490.05602	19019.975
1493.44922	19886.275
1496.84016	21139.675
1500.22882	23103.175
1503.61521	25674.575
1506.99934	28766.775
1510.38121	31719.075
1513.76081	33416.375
1517.13816	32287.975
1520.51324	28672.375
1523.88607	24771.875
1527.25665	21973.275
1530.62498	20281.575
1533.99105	19288.675
1537.35488	18631.875
1540.71647	18201.075
1544.07581	18014.175
1547.4329	17873.575
1550.78776	17786.875
1554.14038	17764.275
1557.49077	17941.475
1560.83892	18340.875
1564.18484	18896.175
1567.52853	19607.275
1570.86999	20204.575
1574.20922	20782.075
1577.54624	21087.075
1580.88103	20515.075
1584.2136	19355.975
1587.54395	18366.975
1590.87208	18016.875
1594.19801	18516.575
1597.52172	19577.575
1600.84321	20016.775
1604.16251	19314.575
1607.47959	18065.475
1610.79447	16792.875
1614.10715	15617.575
1617.41763	14609.575
1620.7259	14022.375
1624.03199	13728.175
1627.33587	13787.675
1630.63757	14069.075
1633.93707	14677.675
1637.23439	15660.275
1640.52951	17065.675
1643.82246	18952.875
1647.11321	21289.275
1650.40179	23145.875
1653.68819	22949.375
1656.97241	20334.775
1660.25446	17144.575
1663.53433	14729.575
1666.81203	13276.075
1670.08756	12430.775
1673.36092	11904.675
1676.63211	11563.975
1679.90115	11347.375
1683.16801	11192.875
1686.43272	11097.275
1689.69527	11005.575
1692.95567	10959.275
1696.2139	10941.775
1699.46999	10930.575
1702.72392	10911.075
1705.97571	10863.975
1709.22535	10814.075
1712.47284	10829.275
1715.71819	10829.075
1718.96139	10809.875
1722.20246	10799.675
1725.44139	10758.975
1728.67818	10669.775
1731.91284	10619.875
1735.14537	10542.175
1738.37576	10468.875
1741.60403	10417.675
1744.83017	10408.475
1748.05418	10364.475
1751.27607	10340.075
1754.49584	10324.575
1757.71349	10350.075
1760.92903	10332.475
1764.14244	10310.375
1767.35375	10299.775
1770.56294	10279.675
1773.77002	10257.675
1776.97499	10241.075
1780.17785	10174.975
1783.37861	10162.575
1786.57727	10112.275
1789.77382	10106.775
1792.96828	10115.775
1796.16064	10085.275
1799.3509	10037.775
1802.53907	10034.675
1805.72514	10023.775
1808.90913	9993.275
1812.09102	9963.275
1815.27083	9923.475
1818.44856	9920.175
1821.6242	9902.875
1824.79776	9864.975
1827.96924	9882.975
1831.13864	9892.775
1834.30597	9865.375
1837.47122	9866.875
1840.6344	9858.875
1843.7955	9860.075
1846.95454	9840.975
1850.11151	9845.775
1853.26642	9837.775
1856.41926	9855.375
1859.57004	9853.175
1862.71876	9867.475
1865.86542	9830.675
1869.01003	9832.775
1872.15258	9860.675
1875.29308	9846.675
1878.43152	9837.875
1881.56792	9821.875
1884.70227	9813.375
1887.83457	9819.475
1890.96482	9824.275
1894.09304	9815.275
1897.21921	9834.075
1900.34335	9800.075
1903.46544	9806.575
1906.58551	9788.875
1909.70353	9792.775
1912.81953	9802.975
1915.93349	9773.875
1919.04543	9754.375
1922.15534	9757.275
1925.26322	9731.175
1928.36908	9709.575
1931.47292	9663.475
1934.57473	9635.775
1937.67453	9618.475
1940.77232	9586.075
1943.86808	9527.275
1946.96184	9486.675
1950.05358	9450.375
1953.14331	9449.475
1956.23103	9399.575
1959.31675	9381.575
1962.40046	9367.675
1965.48217	9313.475
1968.56188	9326.675
1971.63959	9284.275
1974.7153	9242.175
1977.78901	9197.875
1980.86073	9194.175
1983.93046	9141.675
1986.99819	9116.275
1990.06394	9099.575
1993.1277	9037.275
1996.18947	9023.775
1999.24925	9026.375
2002.30706	8969.075
2005.36288	8948.775
2008.41672	8933.375
2011.46859	8905.175
2014.51848	8904.675
2017.56639	8873.075
2020.61233	8832.275
2023.6563	8796.775
2026.6983	8797.975
2029.73833	8784.475
2032.7764	8756.675
2035.8125	8717.775
2038.84664	8720.675
2041.87881	8684.175
2044.90903	8672.675
2047.93729	8660.675
2050.96359	8662.775
2053.98794	8645.875
2057.01034	8634.675
2060.03078	8640.975
2063.04927	8608.775
2066.06582	8609.775
2069.08042	8590.475
2072.09307	8582.475
2075.10378	8555.475
2078.11255	8555.275
2081.11938	8578.775
2084.12426	8574.275
2087.12722	8556.975
2090.12824	8556.375
2093.12732	8562.775
2096.12447	8566.875
2099.11969	8575.075
2102.11299	8565.575
2105.10435	8557.475
2108.09379	8556.875
2111.08131	8576.675
2114.0669	8570.275
2117.05057	8586.775
2120.03233	8589.675
2123.01216	8590.875
2125.99008	8586.775
2128.96609	8602.675
2131.94018	8613.275
2134.91236	8631.675
2137.88263	8613.975
2140.851	8627.775
2143.81746	8626.875
2146.78201	8630.775
2149.74466	8618.875
2152.7054	8629.575
2155.66425	8630.875
2158.6212	8623.475
2161.57625	8615.375
2164.52941	8587.675
2167.48067	8600.275
2170.43004	8603.675
2173.37752	8592.475
2176.32311	8594.575
2179.26681	8594.275
2182.20863	8598.075
2185.14856	8574.275
2188.08661	8562.975
2191.02278	8572.275
2193.95707	8590.375
2196.88948	8542.075
2199.82001	8541.575
2202.74867	8548.575
2205.67545	8548.575
2208.60037	8535.475
2211.52341	8523.975
2214.44458	8510.675
2217.36388	8500.675
2220.28132	8478.575
2223.1969	8468.075
2226.11061	8449.375
2229.02246	8429.475
2231.93245	8412.575
2234.84058	8390.475
2237.74686	8369.175
2240.65128	8397.775
2243.55385	8368.375
2246.45456	8350.375
2249.35343	8320.275
2252.25044	8314.575
2255.14561	8317.175
2258.03893	8342.175
2260.93041	8320.575
2263.82004	8316.975
2266.70783	8286.875
2269.59378	8280.775
2272.4779	8260.875
2275.36017	8216.775
2278.24061	8208.075
2281.11922	8189.075
2283.996	8174.875
2286.87094	8148.875
2289.74405	8131.575
2292.61534	8130.675
2295.4848	8086.275
2298.35243	8117.075
2301.21824	8087.875
2304.08223	8083.875
2306.94439	8067.675
2309.80474	8071.075
2312.66327	8095.175
2315.51999	8069.475
2318.37489	8064.075
2321.22797	8058.175
2324.07925	8051.375
2326.92871	8051.075
2329.77637	8061.275
2332.62222	8038.375
2335.46626	8033.075
2338.3085	8020.475
2341.14893	8040.275
2343.98756	8017.775
2346.8244	8031.875
2349.65943	8019.675
2352.49267	8037.275
2355.32411	8029.975
2358.15376	8029.275
2360.98161	8033.675
2363.80768	8053.475
2366.63195	8060.375
2369.45444	8034.775
2372.27514	8044.175
2375.09405	8006.775
2377.91118	7995.175
2380.72652	7988.775
2383.54009	7943.875
2386.35187	7925.675
2389.16188	7891.475
2391.97011	7866.175
2394.77657	7838.875
2397.58125	7838.175
2400.38416	7813.475
2403.18529	7792.775
2405.98466	7797.975
2408.78226	7772.075
2411.57809	7747.775
2414.37216	7744.175
2417.16446	7723.975
2419.955	7718.175
2422.74378	7727.675
2425.5308	7707.775
2428.31606	7684.075
2431.09956	7691.075
2433.88131	7679.075
2436.6613	7681.375
2439.43954	7671.375
2442.21603	7671.675
2444.99077	7673.775
2447.76377	7684.375
2450.53501	7698.275
2453.30451	7674.375
2456.07226	7640.575
2458.83827	7674.275
2461.60254	7662.375
2464.36507	7655.075
2467.12586	7644.675
2469.88492	7634.775
2472.64224	7637.475
2475.39782	7641.775
2478.15167	7656.875
2480.90379	7651.675
2483.65417	7659.675
2486.40283	7668.975
2489.14976	7695.475
2491.89497	7687.875
2494.63845	7705.075
2497.3802	7719.575
2500.12024	7680.375
2502.85855	7666.075
2505.59514	7659.975
2508.33002	7622.575
2511.06318	7617.575
2513.79462	7581.075
2516.52435	7562.075
2519.25237	7553.275
2521.97867	7523.075
2524.70327	7513.775
2527.42616	7487.875
2530.14734	7483.075
2532.86681	7471.375
2535.58458	7455.375
2538.30065	7445.875
2541.01501	7451.475
2543.72768	7436.875
2546.43864	7465.375
2549.14791	7452.375
2551.85548	7448.075
2554.56136	7440.575
2557.26554	7388.675
2559.96803	7406.575
2562.66883	7392.675
2565.36794	7393.675
2568.06536	7389.475
2570.7611	7386.775
2573.45514	7356.375
2576.14751	7365.275
2578.83819	7321.375
2581.52719	7325.075
2584.21451	7325.775
2586.90015	7322.875
2589.58411	7289.975
2592.2664	7282.475
2594.94701	7277.675
2597.62594	7257.975
2600.30321	7264.475
2602.9788	7262.675
2605.65273	7254.175
2608.32498	7243.675
2610.99557	7205.475
2613.66449	7248.675
2616.33175	7228.875
2618.99734	7208.275
2621.66128	7200.975
2624.32355	7220.575
2626.98416	7209.175
2629.64311	7194.075
2632.30041	7195.175
2634.95605	7167.575
2637.61004	7173.375
2640.26238	7159.675
2642.91306	7155.175
2645.56209	7134.675
2648.20948	7125.175
2650.85521	7129.575
2653.4993	7135.075
2656.14175	7104.775
2658.78255	7110.175
2661.42171	7117.075
2664.05923	7131.475
2666.6951	7122.775
2669.32934	7133.875
2671.96194	7143.475
2674.59291	7149.675
2677.22224	7131.275
2679.84993	7143.575
2682.476	7128.175
2685.10043	7154.875
2687.72324	7149.375
2690.34441	7130.175
2692.96396	7152.775
2695.58188	7129.175
2698.19818	7131.375
2700.81285	7136.075
2703.4259	7146.175
2706.03733	7196.975
2708.64714	7182.675
2711.25533	7152.175
2713.86191	7159.975
2716.46687	7167.075
2719.07021	7169.975
2721.67194	7171.575
2724.27206	7142.875
2726.87057	7167.675
2729.46747	7160.475
2732.06276	7147.475
2734.65644	7141.475
2737.24852	7118.775
2739.83899	7106.475
2742.42786	7113.975
2745.01513	7102.975
2747.60079	7087.475
2750.18486	7071.075
2752.76733	7067.175
2755.3482	7090.875
2757.92747	7073.075
2760.50515	7062.375
2763.08123	7062.975
2765.65573	7055.875
2768.22863	7032.075
2770.79994	7020.475
2773.36967	7028.475
2775.9378	7004.275
2778.50435	7001.675
2781.06932	6992.675
2783.6327	6995.775
2786.1945	6966.575
2788.75471	6962.275
2791.31335	6966.075
2793.87041	6965.975
2796.42589	6931.475
2798.97979	6945.875
2801.53212	6930.875
2804.08288	6914.375
2806.63206	6916.575
2809.17967	6918.775
2811.72571	6907.675
2814.27018	6905.275
2816.81308	6922.575
2819.35442	6901.975
2821.89419	6911.375
2824.43239	6916.775
2826.96904	6909.775
2829.50412	6921.875
2832.03763	6925.675
2834.56959	6916.175
2837.1	6919.875
2839.62884	6938.675
2842.15613	6956.575
2844.68186	6994.975
2847.20604	7043.275
2849.72867	7082.575
2852.24974	7107.375
2854.76927	7117.575
2857.28724	7116.275
2859.80367	7084.075
2862.31855	7083.775
2864.83189	7059.775
2867.34368	7032.175
2869.85393	7046.675
2872.36264	7021.575
2874.8698	7026.575
2877.37543	7014.675
2879.87952	7023.275
2882.38207	7016.575
2884.88308	7007.775
2887.38256	7021.575
2889.88051	7023.075
2892.37692	7010.975
2894.8718	7007.675
2897.36515	6997.375
2899.85698	7016.175
2902.34727	7022.775
2904.83604	7018.975
2907.32328	7030.375
2909.809	7020.375
2912.29319	7037.375
2914.77587	7011.175
2917.25702	7014.475
2919.73665	7005.075
2922.21476	7013.275
2924.69136	7018.075
2927.16644	6983.975
2929.64	6975.775
2932.11205	6982.175
2934.58258	6926.975
2937.05161	6953.975
2939.51912	6922.075
2941.98513	6896.775
2944.44962	6850.075
2946.91261	6792.675
2949.37409	6812.375
2951.83407	6774.375
2954.29254	6758.675
2956.74951	6732.975
2959.20498	6727.675
2961.65895	6722.575
2964.11142	6729.475
2966.56239	6686.075
2969.01186	6684.975
2971.45984	6664.275
2973.90632	6622.975
2976.35131	6622.875
2978.7948	6578.975
2981.23681	6594.375
2983.67732	6553.375
2986.11635	6560.675
2988.55388	6537.775
2990.98993	6532.375
2993.4245	6500.075
2995.85758	6483.475
2998.28917	6486.175
3000.71928	6473.075
3003.14791	6461.075
3005.57506	6456.175
3008.00073	6450.975
3010.42493	6447.275
3012.84764	6412.675
3015.26888	6419.675
3017.68865	6401.475
3020.10694	6399.275
3022.52376	6394.175
3024.9391	6396.975
3027.35298	6382.375
3029.76539	6382.175
3032.17632	6381.075
3034.5858	6352.675
3036.9938	6335.175
3039.40034	6334.375
3041.80542	6306.575
3044.20903	6291.075
3046.61118	6308.775
3049.01187	6299.575
3051.4111	6282.475
3053.80888	6303.175
3056.20519	6279.075
3058.60005	6283.575
3060.99345	6241.475
3063.3854	6252.275
3065.7759	6209.275
3068.16494	6210.375
3070.55254	6209.475
3072.93868	6201.475
3075.32338	6174.575
3077.70662	6156.275
3080.08842	6151.875
3082.46878	6134.675
3084.84769	6123.275
3087.22515	6144.975
3089.60118	6116.675
3091.97576	6115.075
3094.3489	6129.875
3096.72061	6117.175
3099.09087	6122.275
3101.4597	6107.875
3103.82709	6113.275
3106.19305	6081.575
3108.55757	6093.775
3110.92066	6072.675
3113.28232	6060.875
3115.64255	6041.275
3118.00134	6044.675
3120.35871	6047.175
3122.71466	6025.275
3125.06917	6028.475
3127.42226	6015.775
3129.77393	6039.875
3132.12417	6040.675
3134.47299	6052.275
3136.82039	6054.875
3139.16636	6049.175
3141.51092	6075.375
3143.85406	6060.675
3146.19579	6080.375
3148.53609	6055.875
3150.87499	6094.775
3153.21246	6095.175
3155.54853	6091.675
3157.88318	6107.275
3160.21642	6103.675
3162.54826	6090.975
3164.87868	6103.275
3167.2077	6107.775
3169.5353	6103.375
3171.86151	6118.675
3174.18631	6101.975
3176.5097	6118.975
3178.83169	6072.875
3181.15228	6106.375
3183.47147	6087.575
3185.78926	6093.975
