Data from AgNP_FTO_APTES_CRN_1000uM_R6G_10uM_NaF_0.1M_Addition_RamanShift__17__21-10-08-285.txt Node

Date: Wed Dec 15 21:10:08 GMT 2021
User: TCL
Spectrometer: QEP01345
Trigger mode: 4
Integration Time (sec): 7.000000E0
Scans to average: 10
Electric dark correction enabled: true
Nonlinearity correction enabled: false
Boxcar width: 0
XAxis mode: Raman Shifts
Number of Pixels in Spectrum: 1044
>>>>>Begin Spectral Data<<<<<
46.04893	0.8625
50.45542	-2.0375
54.85868	-0.6375
59.25871	-0.5375
63.6555	54.0625
68.04907	61.7625
72.43941	61.6625
76.82654	67.6625
81.21044	72.0625
85.59113	73.4625
89.96862	75.2625
94.34289	71.4625
98.71396	81.5625
103.08183	82.2625
107.4465	85.2625
111.80798	88.0625
116.16626	86.3625
120.52136	96.6625
124.87327	98.4625
129.222	101.1625
133.56755	104.9625
137.90993	115.8625
142.24913	125.7625
146.58517	143.5625
150.91804	161.9625
155.24774	193.4625
159.57429	242.9625
163.89768	311.9625
168.21792	406.2625
172.53501	554.2625
176.84895	775.2625
181.15975	1084.8625
185.46741	1525.6625
189.77193	2108.1625
194.07331	2834.5625
198.37157	3629.7625
202.6667	4501.0625
206.9587	5359.6625
211.24758	6192.8625
215.53334	7033.3625
219.81599	7918.6625
224.09553	8885.2625
228.37195	9956.2625
232.64527	11088.7625
236.91549	12296.7625
241.18261	13491.9625
245.44663	14624.6625
249.70755	15603.1625
253.96539	16492.7625
258.22014	17220.8625
262.4718	17845.1625
266.72039	18249.4625
270.96589	18447.7625
275.20832	18484.0625
279.44768	18331.5625
283.68397	18123.6625
287.91719	17974.0625
292.14735	17840.8625
296.37445	17768.4625
300.59849	17796.6625
304.81948	17850.7625
309.03742	17849.9625
313.25231	17722.2625
317.46415	17470.9625
321.67296	17111.7625
325.87872	16853.9625
330.08145	16687.8625
334.28114	16714.2625
338.47781	16882.5625
342.67145	17057.6625
346.86207	17311.3625
351.04966	17634.1625
355.23424	17973.7625
359.4158	18204.9625
363.59435	18403.0625
367.76989	18533.7625
371.94243	18594.4625
376.11196	18654.1625
380.27849	18767.2625
384.44203	18875.9625
388.60257	19008.0625
392.76012	19121.8625
396.91468	19309.8625
401.06626	19505.6625
405.21485	19690.3625
409.36047	19620.3625
413.50311	19421.3625
417.64277	19213.9625
421.77947	19140.7625
425.9132	19187.8625
430.04396	19354.8625
434.17176	19566.1625
438.2966	19845.0625
442.41849	20351.6625
446.53742	20952.1625
450.6534	21599.7625
454.76644	22025.6625
458.87653	22037.8625
462.98368	21827.3625
467.08789	21516.1625
471.18916	21270.9625
475.2875	21083.7625
479.38291	20967.0625
483.4754	20803.2625
487.56496	20525.1625
491.6516	20243.9625
495.73531	20002.9625
499.81612	19883.6625
503.89401	19941.8625
507.96899	20051.9625
512.04106	20123.3625
516.11023	20201.2625
520.1765	20239.5625
524.23987	20307.2625
528.30034	20303.5625
532.35792	20243.7625
536.41261	20026.4625
540.46441	19810.4625
544.51333	19781.4625
548.55936	19933.9625
552.60252	20246.6625
556.64279	20701.2625
560.6802	21077.1625
564.71473	21217.9625
568.7464	21473.7625
572.7752	21798.6625
576.80114	21897.2625
580.82422	21960.4625
584.84444	22210.2625
588.86181	22769.0625
592.87633	23596.7625
596.888	23951.9625
600.89682	23582.0625
604.9028	23479.1625
608.90594	24619.9625
612.90624	26080.8625
616.90371	24894.5625
620.89834	21705.2625
624.89015	20154.6625
628.87913	19928.6625
632.86528	20025.1625
636.84862	20092.7625
640.82913	19966.3625
644.80683	19619.1625
648.78172	19370.6625
652.75379	19337.4625
656.72306	19486.1625
660.68952	19693.8625
664.65319	19633.2625
668.61405	19388.1625
672.57211	19366.2625
676.52738	19491.3625
680.47986	19530.4625
684.42955	19472.6625
688.37646	19373.8625
692.32058	19361.9625
696.26192	19413.8625
700.20048	19556.6625
704.13626	19650.7625
708.06928	19607.7625
711.99952	19515.1625
715.927	19477.3625
719.85171	19456.1625
723.77365	19374.5625
727.69284	19199.1625
731.60928	19030.6625
735.52295	18950.9625
739.43388	18961.5625
743.34206	18971.2625
747.24749	18937.9625
751.15017	19000.4625
755.05012	19168.6625
758.94733	19564.0625
762.8418	20295.1625
766.73354	21443.2625
770.62254	22629.8625
774.50882	22923.4625
778.39237	22136.5625
782.27321	20809.5625
786.15132	19615.0625
790.02671	18949.8625
793.89938	18546.1625
797.76935	18454.2625
801.6366	18389.7625
805.50115	18305.9625
809.36299	18260.3625
813.22213	18183.1625
817.07857	18173.1625
820.93231	18135.3625
824.78336	18092.7625
828.63172	18102.2625
832.47738	18083.3625
836.32036	18070.5625
840.16066	18078.5625
843.99827	18041.0625
847.8332	17992.1625
851.66546	17971.0625
855.49504	17992.8625
859.32195	17975.8625
863.1462	17985.4625
866.96777	17981.5625
870.78668	17940.1625
874.60293	17923.8625
878.41652	17919.9625
882.22745	17944.2625
886.03573	17975.9625
889.84136	17961.4625
893.64433	17930.7625
897.44466	17848.8625
901.24235	17803.4625
905.0374	17748.7625
908.8298	17722.9625
912.61957	17703.0625
916.40671	17797.4625
920.19121	17907.9625
923.97308	18062.3625
927.75233	18105.6625
931.52895	18069.4625
935.30295	17937.5625
939.07433	17672.1625
942.84309	17474.3625
946.60924	17348.9625
950.37278	17266.0625
954.13371	17216.2625
957.89203	17186.2625
961.64774	17198.4625
965.40086	17197.2625
969.15137	17101.1625
972.89929	17021.6625
976.64461	16991.1625
980.38733	16959.5625
984.12747	17044.2625
987.86502	17091.2625
991.59999	17209.7625
995.33237	17379.9625
999.06217	17635.0625
1002.78939	17929.1625
1006.51404	18136.6625
1010.23611	18355.0625
1013.95561	18526.9625
1017.67255	18522.5625
1021.38692	18319.9625
1025.09872	18089.2625
1028.80796	17916.0625
1032.51465	17927.4625
1036.21877	18040.9625
1039.92035	18109.7625
1043.61937	18113.8625
1047.31584	18128.3625
1051.00976	18149.6625
1054.70114	18209.3625
1058.38998	18338.6625
1062.07627	18593.9625
1065.76003	18977.4625
1069.44126	19514.0625
1073.11995	20074.4625
1076.79611	20503.9625
1080.46974	20435.2625
1084.14085	20048.0625
1087.80943	19650.8625
1091.47549	19394.7625
1095.13903	19167.9625
1098.80005	18866.4625
1102.45857	18528.5625
1106.11456	18303.9625
1109.76805	18208.9625
1113.41903	18297.2625
1117.06751	18437.8625
1120.71348	18618.0625
1124.35696	18841.2625
1127.99793	19111.5625
1131.63641	19242.4625
1135.2724	19104.5625
1138.90589	18916.7625
1142.5369	18833.9625
1146.16542	18786.0625
1149.79145	18865.5625
1153.415	18975.5625
1157.03607	19138.3625
1160.65467	19503.4625
1164.27079	20124.1625
1167.88443	20966.3625
1171.49561	22173.2625
1175.10432	23734.3625
1178.71056	25567.5625
1182.31434	27106.8625
1185.91565	27480.4625
1189.51451	26973.3625
1193.11091	26089.9625
1196.70485	25154.2625
1200.29634	24170.7625
1203.88538	23479.2625
1207.47197	22922.1625
1211.05612	22505.8625
1214.63782	22215.1625
1218.21708	22033.8625
1221.79391	21986.8625
1225.36829	21956.2625
1228.94024	21799.5625
1232.50976	21484.6625
1236.07685	21129.8625
1239.6415	21009.5625
1243.20374	20982.9625
1246.76355	21094.8625
1250.32093	21299.0625
1253.8759	21603.8625
1257.42845	22008.0625
1260.97859	22378.9625
1264.52631	22817.1625
1268.07163	23224.9625
1271.61453	23627.8625
1275.15503	24086.6625
1278.69312	24491.8625
1282.22882	24899.1625
1285.76211	25516.5625
1289.29301	26345.4625
1292.82151	27390.5625
1296.34761	28526.6625
1299.87133	29840.8625
1303.39266	31311.3625
1306.9116	32906.9625
1310.42815	34705.8625
1313.94233	36115.6625
1317.45412	36478.6625
1320.96354	35921.3625
1324.47058	35020.0625
1327.97525	34013.4625
1331.47754	33252.9625
1334.97747	32852.2625
1338.47502	32675.3625
1341.97022	32466.1625
1345.46305	32170.2625
1348.95352	31991.2625
1352.44163	32261.8625
1355.92738	33121.5625
1359.41078	34522.4625
1362.89183	35940.8625
1366.37053	35700.5625
1369.84688	33122.0625
1373.32088	29850.8625
1376.79254	27665.8625
1380.26186	26800.4625
1383.72883	26625.0625
1387.19347	26634.8625
1390.65578	26415.8625
1394.11575	26400.4625
1397.57339	26630.2625
1401.0287	27111.3625
1404.48168	27408.2625
1407.93234	27421.4625
1411.38068	27043.1625
1414.82669	26294.5625
1418.27039	25408.5625
1421.71177	24466.6625
1425.15083	23659.5625
1428.58758	23255.3625
1432.02203	23337.4625
1435.45416	23821.8625
1438.88399	24327.2625
1442.31151	24790.5625
1445.73673	25114.5625
1449.15965	25501.2625
1452.58027	25718.3625
1455.9986	25768.5625
1459.41463	25781.1625
1462.82837	26058.9625
1466.23982	26402.4625
1469.64898	26781.5625
1473.05586	26907.5625
1476.46045	26960.5625
1479.86276	26880.2625
1483.26279	26647.8625
1486.66054	26507.8625
1490.05602	26493.4625
1493.44922	26581.7625
1496.84016	26667.5625
1500.22882	26950.2625
1503.61521	27667.4625
1506.99934	28549.5625
1510.38121	29431.7625
1513.76081	29680.9625
1517.13816	29011.8625
1520.51324	27803.2625
1523.88607	26604.8625
1527.25665	26012.0625
1530.62498	25751.5625
1533.99105	25661.6625
1537.35488	25575.6625
1540.71647	25343.4625
1544.07581	24977.7625
1547.4329	24580.0625
1550.78776	24202.0625
1554.14038	23963.5625
1557.49077	23888.4625
1560.83892	23871.6625
1564.18484	23995.7625
1567.52853	24405.9625
1570.86999	25016.6625
1574.20922	25877.6625
1577.54624	26863.8625
1580.88103	27233.2625
1584.2136	27136.9625
1587.54395	26856.9625
1590.87208	26840.9625
1594.19801	27564.9625
1597.52172	28576.9625
1600.84321	29098.9625
1604.16251	28409.3625
1607.47959	26657.5625
1610.79447	24572.0625
1614.10715	22618.1625
1617.41763	21111.3625
1620.7259	20156.0625
1624.03199	19687.3625
1627.33587	19664.9625
1630.63757	20083.7625
1633.93707	21071.3625
1637.23439	22768.4625
1640.52951	25212.1625
1643.82246	28102.8625
1647.11321	30446.8625
1650.40179	30909.9625
1653.68819	29015.9625
1656.97241	25674.6625
1660.25446	22374.8625
1663.53433	19979.8625
1666.81203	18460.5625
1670.08756	17518.2625
1673.36092	16913.7625
1676.63211	16542.7625
1679.90115	16247.8625
1683.16801	16013.5625
1686.43272	15824.9625
1689.69527	15753.9625
1692.95567	15634.2625
1696.2139	15594.1625
1699.46999	15547.5625
1702.72392	15528.6625
1705.97571	15460.3625
1709.22535	15425.3625
1712.47284	15390.1625
1715.71819	15388.9625
1718.96139	15322.1625
1722.20246	15269.4625
1725.44139	15215.3625
1728.67818	15113.2625
1731.91284	14998.7625
1735.14537	14927.9625
1738.37576	14870.2625
1741.60403	14847.5625
1744.83017	14825.3625
1748.05418	14804.2625
1751.27607	14778.9625
1754.49584	14736.9625
1757.71349	14785.4625
1760.92903	14724.3625
1764.14244	14720.7625
1767.35375	14663.0625
1770.56294	14648.4625
1773.77002	14614.2625
1776.97499	14552.1625
1780.17785	14522.9625
1783.37861	14491.0625
1786.57727	14452.4625
1789.77382	14378.9625
1792.96828	14347.8625
1796.16064	14338.6625
1799.3509	14291.1625
1802.53907	14272.5625
1805.72514	14202.0625
1808.90913	14188.9625
1812.09102	14150.2625
1815.27083	14120.4625
1818.44856	14073.6625
1821.6242	14098.7625
1824.79776	14060.9625
1827.96924	14029.6625
1831.13864	14027.5625
1834.30597	14043.1625
1837.47122	14020.9625
1840.6344	13975.1625
1843.7955	13987.2625
1846.95454	13965.5625
1850.11151	13922.9625
1853.26642	13968.6625
1856.41926	13937.3625
1859.57004	13900.5625
1862.71876	13914.1625
1865.86542	13871.6625
1869.01003	13903.8625
1872.15258	13889.2625
1875.29308	13859.5625
1878.43152	13819.4625
1881.56792	13838.1625
1884.70227	13841.3625
1887.83457	13790.6625
1890.96482	13798.0625
1894.09304	13782.0625
1897.21921	13774.8625
1900.34335	13775.2625
1903.46544	13784.4625
1906.58551	13728.5625
1909.70353	13699.0625
1912.81953	13748.4625
1915.93349	13657.8625
1919.04543	13629.2625
1922.15534	13622.4625
1925.26322	13602.5625
1928.36908	13597.8625
1931.47292	13556.6625
1934.57473	13542.2625
1937.67453	13496.9625
1940.77232	13447.7625
1943.86808	13400.3625
1946.96184	13378.4625
1950.05358	13353.9625
1953.14331	13282.3625
1956.23103	13259.5625
1959.31675	13226.5625
1962.40046	13202.8625
1965.48217	13142.0625
1968.56188	13109.2625
1971.63959	13059.4625
1974.7153	13012.4625
1977.78901	12989.4625
1980.86073	12939.6625
1983.93046	12907.3625
1986.99819	12867.6625
1990.06394	12859.7625
1993.1277	12807.7625
1996.18947	12750.0625
1999.24925	12731.2625
2002.30706	12688.4625
2005.36288	12641.5625
2008.41672	12623.8625
2011.46859	12570.2625
2014.51848	12574.8625
2017.56639	12510.1625
2020.61233	12485.6625
2023.6563	12458.6625
2026.6983	12432.8625
2029.73833	12423.6625
2032.7764	12384.3625
2035.8125	12356.0625
2038.84664	12322.6625
2041.87881	12304.1625
2044.90903	12266.2625
2047.93729	12255.2625
2050.96359	12244.1625
2053.98794	12191.3625
2057.01034	12210.1625
2060.03078	12214.7625
2063.04927	12194.9625
2066.06582	12162.6625
2069.08042	12179.4625
2072.09307	12187.2625
2075.10378	12141.0625
2078.11255	12144.0625
2081.11938	12129.3625
2084.12426	12150.8625
2087.12722	12128.3625
2090.12824	12130.7625
2093.12732	12134.4625
2096.12447	12110.6625
2099.11969	12121.7625
2102.11299	12132.5625
2105.10435	12099.3625
2108.09379	12112.7625
2111.08131	12120.3625
2114.0669	12137.4625
2117.05057	12125.3625
2120.03233	12131.9625
2123.01216	12159.7625
2125.99008	12161.6625
2128.96609	12177.6625
2131.94018	12183.5625
2134.91236	12177.2625
2137.88263	12196.0625
2140.851	12190.6625
2143.81746	12193.4625
2146.78201	12183.9625
2149.74466	12187.3625
2152.7054	12207.1625
2155.66425	12211.2625
2158.6212	12239.1625
2161.57625	12219.8625
2164.52941	12204.2625
2167.48067	12167.5625
2170.43004	12154.1625
2173.37752	12181.7625
2176.32311	12157.1625
2179.26681	12167.2625
2182.20863	12164.0625
2185.14856	12149.6625
2188.08661	12149.8625
2191.02278	12130.6625
2193.95707	12119.9625
2196.88948	12100.5625
2199.82001	12122.0625
2202.74867	12106.2625
2205.67545	12086.3625
2208.60037	12089.4625
2211.52341	12079.3625
2214.44458	12037.2625
2217.36388	12002.7625
2220.28132	11969.3625
2223.1969	11953.9625
2226.11061	11932.9625
2229.02246	11934.3625
2231.93245	11919.8625
2234.84058	11877.2625
2237.74686	11845.7625
2240.65128	11872.9625
2243.55385	11822.1625
2246.45456	11815.6625
2249.35343	11791.2625
2252.25044	11772.1625
2255.14561	11762.3625
2258.03893	11742.8625
2260.93041	11710.1625
2263.82004	11680.6625
2266.70783	11669.8625
2269.59378	11635.5625
2272.4779	11601.5625
2275.36017	11587.6625
2278.24061	11523.9625
2281.11922	11495.9625
2283.996	11493.6625
2286.87094	11468.9625
2289.74405	11450.3625
2292.61534	11447.2625
2295.4848	11434.1625
2298.35243	11435.1625
2301.21824	11396.3625
2304.08223	11392.9625
2306.94439	11382.3625
2309.80474	11369.5625
2312.66327	11384.6625
2315.51999	11392.7625
2318.37489	11354.6625
2321.22797	11341.7625
2324.07925	11348.7625
2326.92871	11336.5625
2329.77637	11342.1625
2332.62222	11326.0625
2335.46626	11284.8625
2338.3085	11269.7625
2341.14893	11257.3625
2343.98756	11234.9625
2346.8244	11248.6625
2349.65943	11235.6625
2352.49267	11218.8625
2355.32411	11197.0625
2358.15376	11208.1625
2360.98161	11212.9625
2363.80768	11210.4625
2366.63195	11192.6625
2369.45444	11151.2625
2372.27514	11152.0625
2375.09405	11168.2625
2377.91118	11116.4625
2380.72652	11100.3625
2383.54009	11069.2625
2386.35187	11060.9625
2389.16188	11025.3625
2391.97011	11021.7625
2394.77657	10975.2625
2397.58125	10950.9625
2400.38416	10959.9625
2403.18529	10926.5625
2405.98466	10926.0625
2408.78226	10930.5625
2411.57809	10901.1625
2414.37216	10881.7625
2417.16446	10850.1625
2419.955	10860.1625
2422.74378	10850.6625
2425.5308	10807.5625
2428.31606	10803.1625
2431.09956	10791.9625
2433.88131	10778.1625
2436.6613	10770.9625
2439.43954	10789.6625
2442.21603	10763.1625
2444.99077	10735.6625
2447.76377	10774.7625
2450.53501	10757.5625
2453.30451	10728.7625
2456.07226	10722.0625
2458.83827	10710.3625
2461.60254	10711.4625
2464.36507	10700.3625
2467.12586	10732.0625
2469.88492	10702.2625
2472.64224	10662.9625
2475.39782	10651.7625
2478.15167	10664.8625
2480.90379	10653.5625
2483.65417	10662.2625
2486.40283	10654.9625
2489.14976	10671.5625
2491.89497	10656.3625
2494.63845	10692.2625
2497.3802	10655.2625
2500.12024	10630.4625
2502.85855	10639.7625
2505.59514	10612.4625
2508.33002	10616.9625
2511.06318	10603.0625
2513.79462	10595.1625
2516.52435	10566.0625
2519.25237	10584.3625
2521.97867	10561.8625
2524.70327	10544.7625
2527.42616	10513.1625
2530.14734	10514.5625
2532.86681	10482.8625
2535.58458	10494.2625
2538.30065	10483.9625
2541.01501	10471.1625
2543.72768	10457.7625
2546.43864	10441.7625
2549.14791	10434.1625
2551.85548	10408.4625
2554.56136	10390.1625
2557.26554	10367.2625
2559.96803	10335.7625
2562.66883	10322.3625
2565.36794	10329.0625
2568.06536	10331.8625
2570.7611	10314.9625
2573.45514	10322.7625
2576.14751	10300.7625
2578.83819	10276.4625
2581.52719	10272.6625
2584.21451	10257.7625
2586.90015	10252.9625
2589.58411	10215.2625
2592.2664	10195.8625
2594.94701	10185.5625
2597.62594	10158.2625
2600.30321	10159.7625
2602.9788	10136.2625
2605.65273	10119.5625
2608.32498	10129.8625
2610.99557	10113.2625
2613.66449	10115.9625
2616.33175	10071.2625
2618.99734	10085.8625
2621.66128	10071.2625
2624.32355	10080.4625
2626.98416	10085.5625
2629.64311	10051.2625
2632.30041	10066.6625
2634.95605	10047.8625
2637.61004	10017.1625
2640.26238	10009.3625
2642.91306	10015.7625
2645.56209	10012.5625
2648.20948	10003.3625
2650.85521	10007.7625
2653.4993	9999.0625
2656.14175	10003.4625
2658.78255	10006.0625
2661.42171	10005.4625
2664.05923	10012.6625
2666.6951	10007.9625
2669.32934	10024.9625
2671.96194	9982.5625
2674.59291	9984.9625
2677.22224	10018.5625
2679.84993	10019.6625
2682.476	9967.8625
2685.10043	9982.6625
2687.72324	9979.2625
2690.34441	9971.2625
2692.96396	9964.1625
2695.58188	9989.2625
2698.19818	9986.1625
2700.81285	9974.5625
2703.4259	9993.9625
2706.03733	10050.1625
2708.64714	10007.8625
2711.25533	10029.7625
2713.86191	9988.5625
2716.46687	10003.6625
2719.07021	10016.5625
2721.67194	9991.9625
2724.27206	10002.1625
2726.87057	10020.6625
2729.46747	9987.0625
2732.06276	9983.7625
2734.65644	10000.2625
2737.24852	9977.9625
2739.83899	9956.5625
2742.42786	9955.4625
2745.01513	9938.1625
2747.60079	9950.4625
2750.18486	9943.0625
2752.76733	9923.7625
2755.3482	9938.2625
2757.92747	9919.1625
2760.50515	9889.2625
2763.08123	9906.1625
2765.65573	9893.5625
2768.22863	9899.2625
2770.79994	9885.0625
2773.36967	9888.6625
2775.9378	9876.7625
2778.50435	9864.1625
2781.06932	9842.7625
2783.6327	9838.0625
2786.1945	9829.1625
2788.75471	9811.0625
2791.31335	9798.6625
2793.87041	9781.1625
2796.42589	9762.6625
2798.97979	9766.8625
2801.53212	9747.1625
2804.08288	9721.5625
2806.63206	9697.4625
2809.17967	9664.7625
2811.72571	9638.5625
2814.27018	9679.3625
2816.81308	9640.9625
2819.35442	9630.6625
2821.89419	9623.5625
2824.43239	9627.2625
2826.96904	9581.7625
2829.50412	9593.6625
2832.03763	9574.8625
2834.56959	9568.5625
2837.1	9545.0625
2839.62884	9576.2625
2842.15613	9561.7625
2844.68186	9568.0625
2847.20604	9573.3625
2849.72867	9587.2625
2852.24974	9578.6625
2854.76927	9560.8625
2857.28724	9551.7625
2859.80367	9542.2625
2862.31855	9520.5625
2864.83189	9517.4625
2867.34368	9518.6625
2869.85393	9481.7625
2872.36264	9488.1625
2874.8698	9508.9625
2877.37543	9523.3625
2879.87952	9532.7625
2882.38207	9527.7625
2884.88308	9521.8625
2887.38256	9528.1625
2889.88051	9526.5625
2892.37692	9504.9625
2894.8718	9513.2625
2897.36515	9501.5625
2899.85698	9529.7625
2902.34727	9565.2625
2904.83604	9578.0625
2907.32328	9587.1625
2909.809	9568.3625
2912.29319	9578.3625
2914.77587	9574.7625
2917.25702	9585.8625
2919.73665	9560.0625
2922.21476	9596.2625
2924.69136	9610.8625
2927.16644	9597.5625
2929.64	9566.7625
2932.11205	9568.4625
2934.58258	9546.7625
2937.05161	9570.3625
2939.51912	9566.6625
2941.98513	9535.7625
2944.44962	9510.2625
2946.91261	9466.4625
2949.37409	9467.0625
2951.83407	9462.4625
2954.29254	9450.9625
2956.74951	9409.7625
2959.20498	9412.5625
2961.65895	9393.4625
2964.11142	9379.5625
2966.56239	9348.0625
2969.01186	9329.9625
2971.45984	9296.6625
2973.90632	9290.0625
2976.35131	9246.2625
2978.7948	9229.6625
2981.23681	9220.1625
2983.67732	9189.8625
2986.11635	9164.3625
2988.55388	9134.8625
2990.98993	9121.3625
2993.4245	9095.3625
2995.85758	9054.6625
2998.28917	9054.5625
3000.71928	9029.1625
3003.14791	9021.6625
3005.57506	9020.9625
3008.00073	8994.1625
3010.42493	8990.4625
3012.84764	8967.7625
3015.26888	8940.0625
3017.68865	8919.9625
3020.10694	8921.1625
3022.52376	8887.7625
3024.9391	8894.1625
3027.35298	8890.4625
3029.76539	8873.6625
3032.17632	8874.9625
3034.5858	8851.2625
3036.9938	8836.5625
3039.40034	8833.7625
3041.80542	8810.5625
