Data from AgNP_FTO_APTES_CRN_0uM_R6G_10uM_NaF_0.1M_Addition_RamanShift__62__12-42-02-974.txt Node

Date: Wed Dec 15 12:42:02 GMT 2021
User: TCL
Spectrometer: QEP01345
Trigger mode: 4
Integration Time (sec): 7.000000E0
Scans to average: 10
Electric dark correction enabled: true
Nonlinearity correction enabled: false
Boxcar width: 0
XAxis mode: Raman Shifts
Number of Pixels in Spectrum: 1044
>>>>>Begin Spectral Data<<<<<
46.04893	-0.55
50.45542	-1.85
54.85868	-1.35
59.25871	-1.25
63.6555	144.95
68.04907	152.35
72.43941	160.05
76.82654	165.45
81.21044	166.65
85.59113	178.65
89.96862	188.25
94.34289	187.95
98.71396	199.65
103.08183	204.95
107.4465	210.75
111.80798	214.75
116.16626	216.95
120.52136	227.55
124.87327	232.45
129.222	244.85
133.56755	256.95
137.90993	274.45
142.24913	303.25
146.58517	331.75
150.91804	379.15
155.24774	448.35
159.57429	550.25
163.89768	698.35
168.21792	921.85
172.53501	1250.95
176.84895	1729.25
181.15975	2410.45
185.46741	3376.15
189.77193	4646.55
194.07331	6192.25
198.37157	7975.15
202.6667	9830.05
206.9587	11641.95
211.24758	13464.85
215.53334	15277.55
219.81599	17262.35
224.09553	19466.15
228.37195	21834.15
232.64527	24529.15
236.91549	27300.35
241.18261	30009.65
245.44663	32474.25
249.70755	34644.85
253.96539	36493.05
258.22014	38073.75
262.4718	39431.85
266.72039	40410.75
270.96589	40861.65
275.20832	40947.65
279.44768	40655.05
283.68397	40183.45
287.91719	39836.15
292.14735	39558.25
296.37445	39578.55
300.59849	39840.25
304.81948	40188.35
309.03742	40443.35
313.25231	40203.45
317.46415	39366.65
321.67296	38177.95
325.87872	37084.45
330.08145	36607.15
334.28114	36648.55
338.47781	37014.15
342.67145	37537.95
346.86207	38316.15
351.04966	39329.95
355.23424	40508.35
359.4158	41491.45
363.59435	42100.75
367.76989	42416.15
371.94243	42556.25
376.11196	42685.55
380.27849	42742.15
384.44203	42832.05
388.60257	43001.35
392.76012	43268.75
396.91468	43857.05
401.06626	44663.35
405.21485	45405.75
409.36047	45230.45
413.50311	44424.65
417.64277	43721.75
421.77947	43527.15
425.9132	43551.25
430.04396	43852.75
434.17176	44132.15
438.2966	44526.55
442.41849	45410.05
446.53742	46673.55
450.6534	48150.45
454.76644	49414.85
458.87653	49736.95
462.98368	49426.45
467.08789	48650.65
471.18916	47542.75
475.2875	46584.75
479.38291	45808.75
483.4754	45383.15
487.56496	44889.65
491.6516	44362.85
495.73531	43970.75
499.81612	43840.05
503.89401	44132.95
507.96899	44344.15
512.04106	44434.85
516.11023	44436.05
520.1765	44418.55
524.23987	44343.95
528.30034	44016.05
532.35792	43479.65
536.41261	42732.85
540.46441	41940.45
544.51333	41710.65
548.55936	42103.15
552.60252	42892.95
556.64279	43777.85
560.6802	44305.65
564.71473	44590.05
568.7464	45275.75
572.7752	46317.45
576.80114	46940.05
580.82422	47583.95
584.84444	48487.25
588.86181	49508.05
592.87633	50703.45
596.888	51816.75
600.89682	52558.85
604.9028	54975.75
608.90594	60737.75
612.90624	66153.65
616.90371	61790.45
620.89834	50904.05
624.89015	46211.15
628.87913	45728.95
632.86528	45584.05
636.84862	44895.95
640.82913	43843.55
644.80683	42363.75
648.78172	41324.15
652.75379	41220.25
656.72306	41969.35
660.68952	42991.55
664.65319	42799.75
668.61405	41916.45
672.57211	41515.95
676.52738	41415.15
680.47986	41338.85
684.42955	41087.35
688.37646	40997.55
692.32058	41250.05
696.26192	41772.35
700.20048	42380.75
704.13626	42671.95
708.06928	42432.05
711.99952	42084.65
715.927	42177.85
719.85171	42246.05
723.77365	41984.25
727.69284	41352.15
731.60928	40839.45
735.52295	40692.45
739.43388	40754.85
743.34206	40951.05
747.24749	41231.45
751.15017	41690.25
755.05012	42484.05
758.94733	43877.95
762.8418	46384.25
766.73354	50462.45
770.62254	54436.25
774.50882	55521.55
778.39237	52704.15
782.27321	48360.25
786.15132	44743.55
790.02671	42642.95
793.89938	41684.35
797.76935	41368.55
801.6366	41309.75
805.50115	41086.55
809.36299	40791.45
813.22213	40438.75
817.07857	40306.45
820.93231	40180.15
824.78336	40159.75
828.63172	40103.35
832.47738	40256.25
836.32036	40464.65
840.16066	40840.95
843.99827	41076.75
847.8332	40881.75
851.66546	40560.45
855.49504	40401.85
859.32195	40305.05
863.1462	40126.55
866.96777	39833.55
870.78668	39670.45
874.60293	39709.55
878.41652	39643.85
882.22745	39847.85
886.03573	40007.45
889.84136	39997.35
893.64433	39759.55
897.44466	39512.85
901.24235	39455.45
905.0374	39381.35
908.8298	39307.25
912.61957	39408.45
916.40671	39849.35
920.19121	40610.15
923.97308	41339.95
927.75233	41892.75
931.52895	41869.05
935.30295	41238.15
939.07433	40244.85
942.84309	39539.75
946.60924	39306.05
950.37278	39195.05
954.13371	38920.95
957.89203	38619.05
961.64774	38361.75
965.40086	38254.25
969.15137	38116.35
972.89929	37957.45
976.64461	38018.15
980.38733	38161.25
984.12747	38442.85
987.86502	38932.45
991.59999	39712.25
995.33237	40909.05
999.06217	42734.15
1002.78939	44760.85
1006.51404	46029.65
1010.23611	46580.65
1013.95561	46941.25
1017.67255	46649.55
1021.38692	45915.35
1025.09872	45567.05
1028.80796	46517.05
1032.51465	48901.45
1036.21877	51007.25
1039.92035	51290.75
1043.61937	49990.95
1047.31584	47832.75
1051.00976	45634.55
1054.70114	44332.15
1058.38998	44081.45
1062.07627	44297.45
1065.76003	44707.55
1069.44126	45442.15
1073.11995	46717.95
1076.79611	47838.85
1080.46974	48291.25
1084.14085	48346.85
1087.80943	48281.55
1091.47549	48039.75
1095.13903	47321.25
1098.80005	46198.55
1102.45857	45063.85
1106.11456	44325.15
1109.76805	44137.05
1113.41903	44386.35
1117.06751	44686.25
1120.71348	45137.65
1124.35696	45608.25
1127.99793	46176.25
1131.63641	46409.85
1135.2724	46086.95
1138.90589	45766.55
1142.5369	45348.75
1146.16542	45109.55
1149.79145	45044.45
1153.415	45341.55
1157.03607	45891.55
1160.65467	46892.95
1164.27079	48747.65
1167.88443	51544.75
1171.49561	55233.45
1175.10432	60325.15
1178.71056	66624.05
1182.31434	72407.25
1185.91565	75368.75
1189.51451	74654.05
1193.11091	71232.05
1196.70485	67004.35
1200.29634	63395.25
1203.88538	60840.85
1207.47197	58950.05
1211.05612	57554.45
1214.63782	56707.35
1218.21708	56426.95
1221.79391	56591.05
1225.36829	56798.45
1228.94024	56326.55
1232.50976	55144.85
1236.07685	53963.65
1239.6415	53391.85
1243.20374	53178.35
1246.76355	53518.45
1250.32093	54367.65
1253.8759	55860.25
1257.42845	57690.85
1260.97859	59625.75
1264.52631	61313.55
1268.07163	63161.05
1271.61453	65289.45
1275.15503	67743.35
1278.69312	70291.05
1282.22882	72408.05
1285.76211	74164.55
1289.29301	75877.95
1292.82151	77891.35
1296.34761	80780.75
1299.87133	85077.85
1303.39266	90811.65
1306.9116	97815.35
1310.42815	104951.15
1313.94233	109455.95
1317.45412	109496.65
1320.96354	106133.25
1324.47058	101979.65
1327.97525	98232.25
1331.47754	95526.75
1334.97747	94156.35
1338.47502	93298.75
1341.97022	92465.85
1345.46305	91075.85
1348.95352	89823.75
1352.44163	89997.05
1355.92738	93006.55
1359.41078	99336.75
1362.89183	105443.85
1366.37053	104635.15
1369.84688	95758.75
1373.32088	84541.45
1376.79254	76584.65
1380.26186	72870.05
1383.72883	71813.45
1387.19347	70909.25
1390.65578	69528.15
1394.11575	68848.05
1397.57339	69231.05
1401.0287	70576.45
1404.48168	71952.35
1407.93234	72697.55
1411.38068	72552.05
1414.82669	71067.05
1418.27039	68729.75
1421.71177	65994.35
1425.15083	63693.15
1428.58758	62413.25
1432.02203	62665.55
1435.45416	63816.95
1438.88399	65322.95
1442.31151	66618.05
1445.73673	67509.35
1449.15965	68310.65
1452.58027	68421.45
1455.9986	68205.85
1459.41463	68256.65
1462.82837	69170.15
1466.23982	70863.25
1469.64898	72427.65
1473.05586	73403.75
1476.46045	73835.05
1479.86276	73848.15
1483.26279	73545.45
1486.66054	73394.45
1490.05602	73761.25
1493.44922	74401.05
1496.84016	75007.95
1500.22882	76224.05
1503.61521	78447.45
1506.99934	81346.75
1510.38121	84281.65
1513.76081	85532.75
1517.13816	83924.15
1520.51324	80088.55
1523.88607	76115.55
1527.25665	73555.35
1530.62498	72222.35
1533.99105	71489.05
1537.35488	70855.85
1540.71647	70164.45
1544.07581	69219.25
1547.4329	68030.95
1550.78776	66857.35
1554.14038	65825.65
1557.49077	65323.65
1560.83892	65022.55
1564.18484	64979.75
1567.52853	65264.85
1570.86999	66056.85
1574.20922	67452.95
1577.54624	69108.95
1580.88103	69863.25
1584.2136	70412.55
1587.54395	71792.05
1590.87208	74819.95
1594.19801	79707.75
1597.52172	84961.75
1600.84321	86804.85
1604.16251	82820.35
1607.47959	75305.85
1610.79447	67587.45
1614.10715	60827.25
1617.41763	56003.15
1620.7259	52860.25
1624.03199	51478.55
1627.33587	51743.15
1630.63757	53574.15
1633.93707	57113.45
1637.23439	62612.95
1640.52951	69682.65
1643.82246	77605.45
1647.11321	83447.45
1650.40179	84189.05
1653.68819	78354.25
1656.97241	68259.45
1660.25446	58205.05
1663.53433	50850.25
1666.81203	46179.85
1670.08756	43255.35
1673.36092	41462.75
1676.63211	40253.45
1679.90115	39386.05
1683.16801	38781.45
1686.43272	38334.55
1689.69527	38025.05
1692.95567	37793.65
1696.2139	37669.35
1699.46999	37529.25
1702.72392	37425.05
1705.97571	37345.15
1709.22535	37294.75
1712.47284	37234.45
1715.71819	37211.35
1718.96139	37133.95
1722.20246	36979.85
1725.44139	36815.15
1728.67818	36597.05
1731.91284	36363.25
1735.14537	36186.35
1738.37576	35999.25
1741.60403	35853.95
1744.83017	35752.35
1748.05418	35723.35
1751.27607	35635.35
1754.49584	35558.45
1757.71349	35522.75
1760.92903	35492.05
1764.14244	35412.85
1767.35375	35456.25
1770.56294	35396.15
1773.77002	35318.85
1776.97499	35377.25
1780.17785	35376.35
1783.37861	35239.75
1786.57727	35214.25
1789.77382	35165.75
1792.96828	35138.85
1796.16064	35078.05
1799.3509	35002.25
1802.53907	34975.75
1805.72514	34832.65
1808.90913	34773.45
1812.09102	34737.45
1815.27083	34633.25
1818.44856	34635.15
1821.6242	34612.95
1824.79776	34548.75
1827.96924	34543.05
1831.13864	34511.45
1834.30597	34545.45
1837.47122	34526.25
1840.6344	34532.45
1843.7955	34541.15
1846.95454	34579.75
1850.11151	34533.35
1853.26642	34553.45
1856.41926	34484.95
1859.57004	34521.75
1862.71876	34501.35
1865.86542	34480.45
1869.01003	34480.25
1872.15258	34447.45
1875.29308	34507.65
1878.43152	34440.75
1881.56792	34494.35
1884.70227	34513.85
1887.83457	34559.55
1890.96482	34543.25
1894.09304	34459.75
1897.21921	34508.25
1900.34335	34498.65
1903.46544	34543.45
1906.58551	34546.75
1909.70353	34542.15
1912.81953	34467.85
1915.93349	34433.35
1919.04543	34290.85
1922.15534	34296.45
1925.26322	34200.45
1928.36908	34129.95
1931.47292	34016.45
1934.57473	33934.15
1937.67453	33820.35
1940.77232	33727.55
1943.86808	33580.25
1946.96184	33456.65
1950.05358	33346.65
1953.14331	33206.35
1956.23103	33141.15
1959.31675	33054.85
1962.40046	32995.35
1965.48217	32913.15
1968.56188	32802.95
1971.63959	32736.75
1974.7153	32625.15
1977.78901	32543.55
1980.86073	32431.05
1983.93046	32313.75
1986.99819	32195.35
1990.06394	32157.85
1993.1277	32057.55
1996.18947	31938.75
1999.24925	31875.65
2002.30706	31809.15
2005.36288	31737.65
2008.41672	31659.85
2011.46859	31572.45
2014.51848	31477.95
2017.56639	31437.55
2020.61233	31310.75
2023.6563	31299.55
2026.6983	31258.75
2029.73833	31235.05
2032.7764	31159.25
2035.8125	31116.85
2038.84664	31111.45
2041.87881	31123.35
2044.90903	31090.95
2047.93729	30987.75
2050.96359	30965.45
2053.98794	30905.35
2057.01034	30900.95
2060.03078	30869.75
2063.04927	30865.65
2066.06582	30855.05
2069.08042	30839.45
2072.09307	30812.95
2075.10378	30786.45
2078.11255	30705.95
2081.11938	30753.15
2084.12426	30673.05
2087.12722	30687.45
2090.12824	30642.75
2093.12732	30662.85
2096.12447	30639.25
2099.11969	30640.45
2102.11299	30622.15
2105.10435	30671.15
2108.09379	30693.45
2111.08131	30734.95
2114.0669	30688.55
2117.05057	30784.55
2120.03233	30718.35
2123.01216	30760.25
2125.99008	30770.85
2128.96609	30785.65
2131.94018	30773.05
2134.91236	30803.55
2137.88263	30894.15
2140.851	30913.45
2143.81746	30947.05
2146.78201	30951.75
2149.74466	30967.05
2152.7054	30997.05
2155.66425	30949.45
2158.6212	30926.65
2161.57625	30956.35
2164.52941	30959.05
2167.48067	30940.95
2170.43004	30962.75
2173.37752	30928.65
2176.32311	30910.55
2179.26681	30898.05
2182.20863	30957.15
2185.14856	30992.25
2188.08661	30973.85
2191.02278	31038.25
2193.95707	31001.25
2196.88948	31002.85
2199.82001	31087.35
2202.74867	31059.35
2205.67545	31082.25
2208.60037	31054.95
2211.52341	31059.65
2214.44458	31052.85
2217.36388	31038.65
2220.28132	30984.95
2223.1969	31004.15
2226.11061	30963.25
2229.02246	30883.15
2231.93245	30804.75
2234.84058	30737.15
2237.74686	30638.95
2240.65128	30631.95
2243.55385	30587.75
2246.45456	30545.05
2249.35343	30528.05
2252.25044	30405.65
2255.14561	30391.35
2258.03893	30431.05
2260.93041	30397.45
2263.82004	30325.25
2266.70783	30233.95
2269.59378	30139.15
2272.4779	30091.35
2275.36017	30000.05
2278.24061	29989.75
2281.11922	29897.55
2283.996	29915.45
2286.87094	29841.25
2289.74405	29799.55
2292.61534	29791.85
2295.4848	29801.75
2298.35243	29781.45
2301.21824	29842.45
2304.08223	29909.55
2306.94439	29942.05
2309.80474	29960.25
2312.66327	30010.15
2315.51999	29992.15
2318.37489	30053.55
2321.22797	30013.85
2324.07925	30028.55
2326.92871	29981.05
2329.77637	30023.65
2332.62222	29971.95
2335.46626	29968.95
2338.3085	30040.15
2341.14893	30118.05
2343.98756	30129.05
2346.8244	30173.75
2349.65943	30146.15
2352.49267	30117.35
2355.32411	30123.45
2358.15376	30034.85
2360.98161	30018.75
2363.80768	29963.75
2366.63195	29899.55
2369.45444	29846.45
2372.27514	29747.75
2375.09405	29718.25
2377.91118	29651.05
2380.72652	29550.35
2383.54009	29488.25
2386.35187	29477.95
2389.16188	29435.45
2391.97011	29390.35
2394.77657	29418.35
2397.58125	29363.95
2400.38416	29308.45
2403.18529	29232.45
2405.98466	29199.65
2408.78226	29091.85
2411.57809	29061.45
2414.37216	29015.35
2417.16446	28966.45
2419.955	28868.45
2422.74378	28863.25
2425.5308	28816.55
2428.31606	28809.55
2431.09956	28780.05
2433.88131	28754.55
2436.6613	28783.85
2439.43954	28787.55
2442.21603	28777.25
2444.99077	28709.35
2447.76377	28753.95
2450.53501	28693.65
2453.30451	28672.95
2456.07226	28689.15
2458.83827	28718.45
2461.60254	28771.95
2464.36507	28739.05
2467.12586	28740.25
2469.88492	28766.25
2472.64224	28766.85
2475.39782	28810.25
2478.15167	28861.35
2480.90379	28824.55
2483.65417	28870.05
2486.40283	28909.15
2489.14976	28938.35
2491.89497	28938.15
2494.63845	28930.55
2497.3802	28982.05
2500.12024	29016.85
2502.85855	28951.55
2505.59514	28942.85
2508.33002	28945.25
2511.06318	28846.05
2513.79462	28839.45
2516.52435	28751.05
2519.25237	28775.45
2521.97867	28750.55
2524.70327	28797.05
2527.42616	28730.35
2530.14734	28793.65
2532.86681	28739.25
2535.58458	28734.25
2538.30065	28731.75
2541.01501	28721.85
2543.72768	28675.75
2546.43864	28697.25
2549.14791	28679.25
2551.85548	28709.85
2554.56136	28659.35
2557.26554	28608.15
2559.96803	28588.15
2562.66883	28565.25
2565.36794	28595.85
2568.06536	28542.55
2570.7611	28575.15
2573.45514	28606.85
2576.14751	28583.05
2578.83819	28564.75
2581.52719	28556.15
2584.21451	28513.85
2586.90015	28552.75
2589.58411	28550.65
2592.2664	28518.25
2594.94701	28492.25
2597.62594	28521.05
2600.30321	28477.15
2602.9788	28487.25
2605.65273	28459.25
2608.32498	28449.45
2610.99557	28442.55
2613.66449	28506.05
2616.33175	28534.05
2618.99734	28550.65
2621.66128	28528.05
2624.32355	28571.35
2626.98416	28599.85
2629.64311	28595.55
2632.30041	28595.05
2634.95605	28590.65
2637.61004	28540.65
2640.26238	28550.15
2642.91306	28483.65
2645.56209	28386.25
2648.20948	28393.45
2650.85521	28344.05
2653.4993	28333.25
2656.14175	28358.95
2658.78255	28349.75
2661.42171	28342.35
2664.05923	28413.95
2666.6951	28440.35
2669.32934	28455.75
2671.96194	28448.95
2674.59291	28463.95
2677.22224	28411.65
2679.84993	28398.35
2682.476	28376.35
2685.10043	28350.35
2687.72324	28337.15
2690.34441	28292.85
2692.96396	28276.25
2695.58188	28302.85
2698.19818	28241.65
2700.81285	28267.55
2703.4259	28193.15
2706.03733	28220.55
2708.64714	28210.85
2711.25533	28237.65
2713.86191	28231.35
2716.46687	28261.95
2719.07021	28270.65
2721.67194	28260.65
2724.27206	28263.35
2726.87057	28276.35
2729.46747	28307.05
2732.06276	28319.55
2734.65644	28331.85
2737.24852	28295.45
2739.83899	28291.95
2742.42786	28323.25
2745.01513	28294.05
2747.60079	28242.75
2750.18486	28197.65
2752.76733	28250.85
2755.3482	28216.65
2757.92747	28293.55
2760.50515	28220.25
2763.08123	28212.25
2765.65573	28243.05
2768.22863	28232.45
2770.79994	28210.65
2773.36967	28184.15
2775.9378	28131.15
2778.50435	28161.55
2781.06932	28176.35
2783.6327	28138.45
2786.1945	28151.75
2788.75471	28101.05
2791.31335	28058.35
2793.87041	28030.95
2796.42589	27938.95
2798.97979	27935.95
2801.53212	27898.25
2804.08288	27830.55
2806.63206	27754.45
2809.17967	27736.55
2811.72571	27688.65
2814.27018	27664.05
2816.81308	27651.85
2819.35442	27659.05
2821.89419	27580.05
2824.43239	27616.35
2826.96904	27560.85
2829.50412	27611.85
2832.03763	27593.15
2834.56959	27566.45
2837.1	27502.15
2839.62884	27511.75
2842.15613	27442.35
2844.68186	27468.65
2847.20604	27452.55
2849.72867	27398.25
2852.24974	27444.65
2854.76927	27396.95
2857.28724	27361.55
2859.80367	27362.25
2862.31855	27352.25
2864.83189	27373.05
2867.34368	27324.35
2869.85393	27296.45
2872.36264	27302.65
2874.8698	27299.75
2877.37543	27336.95
2879.87952	27357.55
2882.38207	27385.55
2884.88308	27360.15
2887.38256	27350.95
2889.88051	27374.45
2892.37692	27448.25
2894.8718	27457.05
2897.36515	27419.95
2899.85698	27454.85
2902.34727	27553.35
2904.83604	27518.85
2907.32328	27545.15
2909.809	27584.85
2912.29319	27628.95
2914.77587	27544.05
2917.25702	27526.45
2919.73665	27574.55
2922.21476	27561.85
2924.69136	27535.55
2927.16644	27483.75
2929.64	27398.15
2932.11205	27387.65
2934.58258	27288.25
2937.05161	27320.15
2939.51912	27351.55
2941.98513	27298.25
2944.44962	27231.15
2946.91261	27121.85
2949.37409	27193.55
2951.83407	27197.45
2954.29254	27191.15
2956.74951	27150.85
2959.20498	27172.85
2961.65895	27063.55
2964.11142	27062.55
2966.56239	26968.65
2969.01186	26900.75
2971.45984	26830.45
2973.90632	26784.85
2976.35131	26701.25
2978.7948	26685.45
2981.23681	26644.55
2983.67732	26547.15
2986.11635	26478.95
2988.55388	26416.95
2990.98993	26371.75
2993.4245	26360.05
2995.85758	26256.45
2998.28917	26237.05
3000.71928	26186.25
3003.14791	26107.85
3005.57506	26069.65
3008.00073	26021.15
3010.42493	26001.95
3012.84764	25973.35
3015.26888	26002.35
3017.68865	25872.65
3020.10694	25849.75
3022.52376	25809.75
3024.9391	25753.85
3027.35298	25696.05
3029.76539	25701.55
3032.17632	25625.55
3034.5858	25631.85
3036.9938	25624.35
3039.40034	25540.75
3041.80542	25549.35
3044.20903	25526.25
3046.61118	25513.05
3049.01187	25412.65
3051.4111	25393.95
3053.80888	25352.65
3056.20519	25265.95
3058.60005	25261.55
3060.99345	25214.45
3063.3854	25180.95
3065.7759	25083.75
3068.16494	25023.45
3070.55254	25003.25
3072.93868	24925.15
3075.32338	24830.35
3077.70662	24788.45
3080.08842	24710.15
3082.46878	24711.55
3084.84769	24687.55
3087.22515	24655.95
3089.60118	24712.95
3091.97576	24689.35
3094.3489	24594.95
3096.72061	24599.05
3099.09087	24556.55
3101.4597	24534.75
3103.82709	24553.35
3106.19305	24497.15
3108.55757	24513.05
3110.92066	24437.95
3113.28232	24386.25
3115.64255	24325.95
3118.00134	24260.95
3120.35871	24281.55
3122.71466	24190.05
3125.06917	24181.75
3127.42226	24128.85
3129.77393	24112.85
3132.12417	24103.05
3134.47299	24087.25
3136.82039	24115.15
3139.16636	24124.35
3141.51092	24086.85
3143.85406	24068.35
3146.19579	24080.35
3148.53609	24022.45
3150.87499	24037.55
3153.21246	24040.75
3155.54853	24093.85
3157.88318	24040.35
3160.21642	24040.55
3162.54826	24028.75
3164.87868	24024.25
3167.2077	23952.65
3169.5353	23971.05
3171.86151	23968.05
3174.18631	23891.25
3176.5097	23915.05
3178.83169	23879.75
3181.15228	23876.05
3183.47147	23838.55
3185.78926	23849.95
3188.10565	23847.25
3190.42065	23843.45
3192.73424	23864.15
3195.04645	23764.75
3197.35725	23823.35
3199.66667	23788.35
3201.97469	23807.05
3204.28132	23760.05
3206.58656	23749.35
3208.8904	23770.95
3211.19287	23794.35
3213.49394	23791.55
3215.79363	23748.45
3218.09193	23793.25
3220.38884	23758.55
3222.68438	23800.25
3224.97853	23739.25
3227.2713	23771.05
3229.56269	23739.85
3231.8527	23674.95
3234.14133	23651.95
3236.42858	23576.55
