Data from AgNP_FTO_APTES_CRN_200uM_R6G_10uM_NaF_0.1M_Addition_RamanShift__16__19-35-38-178.txt Node

Date: Wed Dec 15 19:35:38 GMT 2021
User: TCL
Spectrometer: QEP01345
Trigger mode: 4
Integration Time (sec): 7.000000E0
Scans to average: 10
Electric dark correction enabled: true
Nonlinearity correction enabled: false
Boxcar width: 0
XAxis mode: Raman Shifts
Number of Pixels in Spectrum: 1044
>>>>>Begin Spectral Data<<<<<
46.04893	0.6125
50.45542	-1.2875
54.85868	-0.1875
59.25871	-0.3875
63.6555	55.4125
68.04907	61.3125
72.43941	60.2125
76.82654	68.8125
81.21044	68.7125
85.59113	70.8125
89.96862	76.6125
94.34289	70.8125
98.71396	79.5125
103.08183	84.9125
107.4465	87.5125
111.80798	85.3125
116.16626	88.6125
120.52136	94.0125
124.87327	92.9125
129.222	95.7125
133.56755	97.7125
137.90993	108.0125
142.24913	113.7125
146.58517	127.5125
150.91804	146.3125
155.24774	169.9125
159.57429	208.1125
163.89768	259.8125
168.21792	335.6125
172.53501	458.9125
176.84895	633.0125
181.15975	887.5125
185.46741	1248.3125
189.77193	1730.3125
194.07331	2306.0125
198.37157	2960.4125
202.6667	3682.9125
206.9587	4385.5125
211.24758	5073.8125
215.53334	5750.0125
219.81599	6508.8125
224.09553	7294.9125
228.37195	8169.1125
232.64527	9150.8125
236.91549	10150.7125
241.18261	11240.1125
245.44663	12204.1125
249.70755	13074.4125
253.96539	13845.0125
258.22014	14478.8125
262.4718	14982.8125
266.72039	15314.5125
270.96589	15485.7125
275.20832	15513.8125
279.44768	15400.2125
283.68397	15226.2125
287.91719	15080.2125
292.14735	15011.7125
296.37445	14972.2125
300.59849	15012.3125
304.81948	15020.6125
309.03742	15008.5125
313.25231	14873.2125
317.46415	14622.6125
321.67296	14244.7125
325.87872	13949.1125
330.08145	13840.3125
334.28114	13825.7125
338.47781	14005.6125
342.67145	14133.7125
346.86207	14366.7125
351.04966	14605.5125
355.23424	14925.4125
359.4158	15136.3125
363.59435	15302.7125
367.76989	15455.0125
371.94243	15496.3125
376.11196	15598.8125
380.27849	15653.7125
384.44203	15758.8125
388.60257	15863.6125
392.76012	15931.0125
396.91468	16117.1125
401.06626	16350.3125
405.21485	16549.2125
409.36047	16521.6125
413.50311	16321.0125
417.64277	16123.5125
421.77947	16070.8125
425.9132	16022.8125
430.04396	16103.7125
434.17176	16223.8125
438.2966	16342.9125
442.41849	16595.8125
446.53742	16884.5125
450.6534	17215.0125
454.76644	17450.9125
458.87653	17517.9125
462.98368	17507.4125
467.08789	17447.6125
471.18916	17368.9125
475.2875	17278.1125
479.38291	17261.6125
483.4754	17183.4125
487.56496	17063.9125
491.6516	16912.0125
495.73531	16783.7125
499.81612	16741.8125
503.89401	16823.2125
507.96899	16859.4125
512.04106	16925.8125
516.11023	16960.4125
520.1765	16996.7125
524.23987	16951.2125
528.30034	16927.7125
532.35792	16863.2125
536.41261	16721.7125
540.46441	16621.1125
544.51333	16619.8125
548.55936	16766.4125
552.60252	17001.6125
556.64279	17288.3125
560.6802	17491.1125
564.71473	17572.6125
568.7464	17730.1125
572.7752	17924.1125
576.80114	18006.7125
580.82422	18100.1125
584.84444	18224.1125
588.86181	18371.9125
592.87633	18503.4125
596.888	18589.3125
600.89682	18598.5125
604.9028	18951.7125
608.90594	20176.2125
612.90624	21647.1125
616.90371	20881.1125
620.89834	18314.4125
624.89015	17204.2125
628.87913	17013.5125
632.86528	17141.4125
636.84862	17252.1125
640.82913	17161.3125
644.80683	16916.2125
648.78172	16726.7125
652.75379	16696.1125
656.72306	16797.1125
660.68952	17031.6125
664.65319	17029.5125
668.61405	16838.4125
672.57211	16806.4125
676.52738	16826.9125
680.47986	16936.3125
684.42955	16852.4125
688.37646	16795.5125
692.32058	16843.6125
696.26192	16911.3125
700.20048	17022.8125
704.13626	17129.1125
708.06928	17125.1125
711.99952	17114.8125
715.927	17113.0125
719.85171	17078.7125
723.77365	17033.5125
727.69284	16931.9125
731.60928	16833.8125
735.52295	16836.7125
739.43388	16809.2125
743.34206	16818.9125
747.24749	16858.6125
751.15017	16893.9125
755.05012	17093.3125
758.94733	17398.8125
762.8418	18016.9125
766.73354	18976.3125
770.62254	19939.9125
774.50882	20300.2125
778.39237	19671.8125
782.27321	18628.5125
786.15132	17714.1125
790.02671	17143.3125
793.89938	16864.5125
797.76935	16749.5125
801.6366	16682.4125
805.50115	16663.9125
809.36299	16638.2125
813.22213	16607.7125
817.07857	16600.3125
820.93231	16625.7125
824.78336	16635.4125
828.63172	16658.6125
832.47738	16620.8125
836.32036	16661.0125
840.16066	16630.6125
843.99827	16642.2125
847.8332	16600.3125
851.66546	16582.3125
855.49504	16621.0125
859.32195	16610.2125
863.1462	16598.5125
866.96777	16604.4125
870.78668	16583.0125
874.60293	16626.5125
878.41652	16638.8125
882.22745	16669.5125
886.03573	16684.5125
889.84136	16706.1125
893.64433	16667.1125
897.44466	16635.6125
901.24235	16615.0125
905.0374	16578.9125
908.8298	16551.6125
912.61957	16607.8125
916.40671	16668.7125
920.19121	16760.8125
923.97308	16802.6125
927.75233	16853.7125
931.52895	16831.6125
935.30295	16729.9125
939.07433	16553.7125
942.84309	16410.6125
946.60924	16295.0125
950.37278	16224.3125
954.13371	16219.2125
957.89203	16169.1125
961.64774	16149.1125
965.40086	16152.1125
969.15137	16100.4125
972.89929	16038.1125
976.64461	16025.4125
980.38733	16039.1125
984.12747	16063.7125
987.86502	16138.1125
991.59999	16237.2125
995.33237	16297.8125
999.06217	16477.5125
1002.78939	16600.3125
1006.51404	16739.1125
1010.23611	16871.9125
1013.95561	16962.4125
1017.67255	16987.4125
1021.38692	16903.4125
1025.09872	16760.4125
1028.80796	16714.4125
1032.51465	16735.5125
1036.21877	16832.6125
1039.92035	16874.5125
1043.61937	16904.8125
1047.31584	16928.9125
1051.00976	16936.2125
1054.70114	17009.4125
1058.38998	17073.0125
1062.07627	17265.9125
1065.76003	17506.0125
1069.44126	17742.7125
1073.11995	18015.8125
1076.79611	18202.9125
1080.46974	18189.5125
1084.14085	18059.7125
1087.80943	17988.7125
1091.47549	17939.6125
1095.13903	17925.8125
1098.80005	17755.7125
1102.45857	17516.7125
1106.11456	17288.3125
1109.76805	17188.1125
1113.41903	17171.8125
1117.06751	17277.3125
1120.71348	17390.7125
1124.35696	17615.6125
1127.99793	17829.5125
1131.63641	17896.7125
1135.2724	17708.1125
1138.90589	17528.7125
1142.5369	17427.3125
1146.16542	17378.0125
1149.79145	17384.0125
1153.415	17446.2125
1157.03607	17546.0125
1160.65467	17747.0125
1164.27079	18082.6125
1167.88443	18560.0125
1171.49561	19207.4125
1175.10432	20165.2125
1178.71056	21371.0125
1182.31434	22372.2125
1185.91565	22779.5125
1189.51451	22693.0125
1193.11091	22217.6125
1196.70485	21565.4125
1200.29634	20932.1125
1203.88538	20399.2125
1207.47197	19940.9125
1211.05612	19566.5125
1214.63782	19307.5125
1218.21708	19161.7125
1221.79391	18974.3125
1225.36829	18916.0125
1228.94024	18835.6125
1232.50976	18738.8125
1236.07685	18662.8125
1239.6415	18629.5125
1243.20374	18681.9125
1246.76355	18760.3125
1250.32093	18883.9125
1253.8759	19112.5125
1257.42845	19395.3125
1260.97859	19693.8125
1264.52631	19935.6125
1268.07163	20213.3125
1271.61453	20481.8125
1275.15503	20734.1125
1278.69312	21042.9125
1282.22882	21259.9125
1285.76211	21590.1125
1289.29301	21985.9125
1292.82151	22547.8125
1296.34761	23149.3125
1299.87133	23854.4125
1303.39266	24673.2125
1306.9116	25735.8125
1310.42815	26768.4125
1313.94233	27499.0125
1317.45412	27529.4125
1320.96354	27089.9125
1324.47058	26633.3125
1327.97525	26122.7125
1331.47754	25813.6125
1334.97747	25646.4125
1338.47502	25635.0125
1341.97022	25770.7125
1345.46305	25880.0125
1348.95352	25956.8125
1352.44163	26182.3125
1355.92738	26681.9125
1359.41078	27615.2125
1362.89183	28530.7125
1366.37053	28190.9125
1369.84688	26259.8125
1373.32088	24154.0125
1376.79254	22678.0125
1380.26186	21996.9125
1383.72883	21694.8125
1387.19347	21545.7125
1390.65578	21329.2125
1394.11575	21214.6125
1397.57339	21213.3125
1401.0287	21229.8125
1404.48168	21284.8125
1407.93234	21266.9125
1411.38068	21043.8125
1414.82669	20697.6125
1418.27039	20245.8125
1421.71177	19772.3125
1425.15083	19352.4125
1428.58758	19114.4125
1432.02203	19101.2125
1435.45416	19306.1125
1438.88399	19492.0125
1442.31151	19675.5125
1445.73673	19841.7125
1449.15965	20056.1125
1452.58027	20201.3125
1455.9986	20325.1125
1459.41463	20441.7125
1462.82837	20674.9125
1466.23982	20957.5125
1469.64898	21162.3125
1473.05586	21332.4125
1476.46045	21384.8125
1479.86276	21450.5125
1483.26279	21451.3125
1486.66054	21526.4125
1490.05602	21715.7125
1493.44922	21987.4125
1496.84016	22440.0125
1500.22882	23174.8125
1503.61521	24162.6125
1506.99934	25263.2125
1510.38121	26107.5125
1513.76081	26284.9125
1517.13816	25617.5125
1520.51324	24434.5125
1523.88607	23346.9125
1527.25665	22582.4125
1530.62498	22192.1125
1533.99105	21958.9125
1537.35488	21717.0125
1540.71647	21463.0125
1544.07581	21217.7125
1547.4329	21014.8125
1550.78776	20819.1125
1554.14038	20750.5125
1557.49077	20718.1125
1560.83892	20767.8125
1564.18484	20960.7125
1567.52853	21200.3125
1570.86999	21500.6125
1574.20922	21842.1125
1577.54624	22105.1125
1580.88103	22072.3125
1584.2136	21797.6125
1587.54395	21606.4125
1590.87208	21646.8125
1594.19801	21984.3125
1597.52172	22559.9125
1600.84321	22791.0125
1604.16251	22398.1125
1607.47959	21492.3125
1610.79447	20481.6125
1614.10715	19521.3125
1617.41763	18694.1125
1620.7259	18132.7125
1624.03199	17795.8125
1627.33587	17732.5125
1630.63757	17890.1125
1633.93707	18332.4125
1637.23439	19134.1125
1640.52951	20368.2125
1643.82246	21861.0125
1647.11321	23324.7125
1650.40179	24094.9125
1653.68819	23477.2125
1656.97241	21768.6125
1660.25446	19880.1125
1663.53433	18322.7125
1666.81203	17263.1125
1670.08756	16609.3125
1673.36092	16103.3125
1676.63211	15827.8125
1679.90115	15586.9125
1683.16801	15441.6125
1686.43272	15315.5125
1689.69527	15256.9125
1692.95567	15210.7125
1696.2139	15198.2125
1699.46999	15163.8125
1702.72392	15116.0125
1705.97571	15090.7125
1709.22535	15070.1125
1712.47284	15035.0125
1715.71819	15026.2125
1718.96139	15012.0125
1722.20246	14949.4125
1725.44139	14912.8125
1728.67818	14855.9125
1731.91284	14778.8125
1735.14537	14764.1125
1738.37576	14738.0125
1741.60403	14675.6125
1744.83017	14659.0125
1748.05418	14642.3125
1751.27607	14619.6125
1754.49584	14617.7125
1757.71349	14620.0125
1760.92903	14620.8125
1764.14244	14573.2125
1767.35375	14574.6125
1770.56294	14576.5125
1773.77002	14544.8125
1776.97499	14514.2125
1780.17785	14487.3125
1783.37861	14454.8125
1786.57727	14449.8125
1789.77382	14365.9125
1792.96828	14327.4125
1796.16064	14301.6125
1799.3509	14311.3125
1802.53907	14281.8125
1805.72514	14244.5125
1808.90913	14201.5125
1812.09102	14171.4125
1815.27083	14147.6125
1818.44856	14155.6125
1821.6242	14105.0125
1824.79776	14104.5125
1827.96924	14093.0125
1831.13864	14049.6125
1834.30597	14081.2125
1837.47122	14049.0125
1840.6344	14034.5125
1843.7955	14044.8125
1846.95454	14036.0125
1850.11151	13996.4125
1853.26642	13996.2125
1856.41926	13985.7125
1859.57004	13988.8125
1862.71876	14009.2125
1865.86542	13967.2125
1869.01003	13960.4125
1872.15258	13954.1125
1875.29308	13938.0125
1878.43152	13888.9125
1881.56792	13892.8125
1884.70227	13885.4125
1887.83457	13878.2125
1890.96482	13842.2125
1894.09304	13830.8125
1897.21921	13830.5125
1900.34335	13792.2125
1903.46544	13792.1125
1906.58551	13786.8125
1909.70353	13768.5125
1912.81953	13752.1125
1915.93349	13724.0125
1919.04543	13697.2125
1922.15534	13680.4125
1925.26322	13661.0125
1928.36908	13638.2125
1931.47292	13629.4125
1934.57473	13610.0125
1937.67453	13566.6125
1940.77232	13529.2125
1943.86808	13504.6125
1946.96184	13462.4125
1950.05358	13424.0125
1953.14331	13393.9125
1956.23103	13362.5125
1959.31675	13310.8125
1962.40046	13291.3125
1965.48217	13240.4125
1968.56188	13186.0125
1971.63959	13172.1125
1974.7153	13141.1125
1977.78901	13070.8125
1980.86073	13041.5125
1983.93046	13002.2125
1986.99819	12972.4125
1990.06394	12938.9125
1993.1277	12891.9125
1996.18947	12853.5125
1999.24925	12817.8125
2002.30706	12759.6125
2005.36288	12744.0125
2008.41672	12709.9125
2011.46859	12681.4125
2014.51848	12637.9125
2017.56639	12622.9125
2020.61233	12600.0125
2023.6563	12562.0125
2026.6983	12526.0125
2029.73833	12484.5125
2032.7764	12469.7125
2035.8125	12455.1125
2038.84664	12433.5125
2041.87881	12406.5125
2044.90903	12375.6125
2047.93729	12373.2125
2050.96359	12342.3125
2053.98794	12319.7125
2057.01034	12299.6125
2060.03078	12282.0125
2063.04927	12260.2125
2066.06582	12256.9125
2069.08042	12256.0125
2072.09307	12236.4125
2075.10378	12231.4125
2078.11255	12223.7125
2081.11938	12205.4125
2084.12426	12229.3125
2087.12722	12200.4125
2090.12824	12205.7125
2093.12732	12229.6125
2096.12447	12229.9125
2099.11969	12196.5125
2102.11299	12224.4125
2105.10435	12218.1125
2108.09379	12212.1125
2111.08131	12253.2125
2114.0669	12230.4125
2117.05057	12242.8125
2120.03233	12238.5125
2123.01216	12257.5125
2125.99008	12285.9125
2128.96609	12290.4125
2131.94018	12309.1125
2134.91236	12270.2125
2137.88263	12280.0125
2140.851	12302.0125
2143.81746	12315.6125
2146.78201	12296.7125
2149.74466	12322.7125
2152.7054	12308.8125
2155.66425	12329.2125
2158.6212	12323.8125
2161.57625	12344.9125
2164.52941	12279.9125
2167.48067	12271.7125
2170.43004	12285.2125
2173.37752	12290.6125
2176.32311	12288.9125
2179.26681	12277.6125
2182.20863	12300.4125
2185.14856	12255.1125
2188.08661	12259.8125
2191.02278	12267.3125
2193.95707	12254.8125
2196.88948	12223.2125
2199.82001	12240.8125
2202.74867	12212.6125
2205.67545	12199.5125
2208.60037	12195.8125
2211.52341	12190.4125
2214.44458	12140.7125
2217.36388	12113.8125
2220.28132	12094.6125
2223.1969	12057.3125
2226.11061	12059.3125
2229.02246	12038.3125
2231.93245	12018.6125
2234.84058	11986.6125
2237.74686	11966.4125
2240.65128	11978.6125
2243.55385	11942.4125
2246.45456	11924.8125
2249.35343	11914.7125
2252.25044	11889.6125
2255.14561	11888.1125
2258.03893	11863.2125
2260.93041	11842.6125
2263.82004	11805.7125
2266.70783	11765.3125
2269.59378	11780.5125
2272.4779	11722.6125
2275.36017	11694.2125
2278.24061	11677.3125
2281.11922	11619.2125
2283.996	11619.0125
2286.87094	11622.9125
2289.74405	11562.3125
2292.61534	11545.7125
2295.4848	11549.3125
2298.35243	11560.7125
2301.21824	11523.3125
2304.08223	11538.5125
2306.94439	11497.2125
2309.80474	11495.8125
2312.66327	11495.1125
2315.51999	11482.7125
2318.37489	11498.7125
2321.22797	11473.1125
2324.07925	11432.3125
2326.92871	11421.1125
2329.77637	11414.7125
2332.62222	11411.2125
2335.46626	11388.6125
2338.3085	11364.2125
2341.14893	11339.7125
2343.98756	11329.7125
2346.8244	11307.5125
2349.65943	11316.1125
2352.49267	11301.2125
2355.32411	11315.3125
2358.15376	11280.0125
2360.98161	11262.1125
2363.80768	11280.5125
2366.63195	11273.9125
2369.45444	11241.1125
2372.27514	11259.2125
2375.09405	11215.4125
2377.91118	11222.7125
2380.72652	11162.1125
2383.54009	11143.7125
2386.35187	11146.8125
2389.16188	11094.9125
2391.97011	11050.3125
2394.77657	11061.7125
2397.58125	11065.0125
2400.38416	11025.7125
2403.18529	10996.0125
2405.98466	11001.9125
2408.78226	10960.2125
2411.57809	10936.9125
2414.37216	10955.6125
2417.16446	10922.3125
2419.955	10894.1125
2422.74378	10901.4125
2425.5308	10892.0125
2428.31606	10851.7125
2431.09956	10869.7125
2433.88131	10845.3125
2436.6613	10852.9125
2439.43954	10807.7125
2442.21603	10825.6125
2444.99077	10810.5125
2447.76377	10814.6125
2450.53501	10815.6125
2453.30451	10786.7125
2456.07226	10763.8125
2458.83827	10763.5125
2461.60254	10744.9125
2464.36507	10727.4125
2467.12586	10740.8125
2469.88492	10712.8125
2472.64224	10681.6125
2475.39782	10685.2125
2478.15167	10695.0125
2480.90379	10667.2125
2483.65417	10703.5125
2486.40283	10692.6125
2489.14976	10680.2125
2491.89497	10675.0125
2494.63845	10659.3125
2497.3802	10667.1125
2500.12024	10626.8125
2502.85855	10609.9125
2505.59514	10614.7125
2508.33002	10611.0125
2511.06318	10557.2125
2513.79462	10558.0125
2516.52435	10558.3125
2519.25237	10539.1125
2521.97867	10532.5125
2524.70327	10527.2125
2527.42616	10482.3125
2530.14734	10481.5125
2532.86681	10442.0125
2535.58458	10445.6125
2538.30065	10428.9125
2541.01501	10424.4125
2543.72768	10396.0125
2546.43864	10409.1125
2549.14791	10380.2125
2551.85548	10350.4125
2554.56136	10335.9125
2557.26554	10308.3125
2559.96803	10281.3125
2562.66883	10297.4125
2565.36794	10270.5125
2568.06536	10273.8125
2570.7611	10270.0125
2573.45514	10214.2125
2576.14751	10219.3125
2578.83819	10204.3125
2581.52719	10173.8125
2584.21451	10174.6125
2586.90015	10172.1125
2589.58411	10132.0125
2592.2664	10109.2125
2594.94701	10106.6125
2597.62594	10084.1125
2600.30321	10090.2125
2602.9788	10043.6125
2605.65273	10009.2125
2608.32498	10006.0125
2610.99557	9988.6125
2613.66449	9981.9125
2616.33175	9960.7125
2618.99734	9959.8125
2621.66128	9934.4125
2624.32355	9908.6125
2626.98416	9900.8125
2629.64311	9920.2125
2632.30041	9895.0125
2634.95605	9882.9125
2637.61004	9861.3125
2640.26238	9847.1125
2642.91306	9853.7125
2645.56209	9840.2125
2648.20948	9842.9125
2650.85521	9836.0125
2653.4993	9842.6125
2656.14175	9815.8125
2658.78255	9807.9125
2661.42171	9797.8125
2664.05923	9800.2125
2666.6951	9825.9125
2669.32934	9813.7125
2671.96194	9790.0125
2674.59291	9798.0125
2677.22224	9787.4125
2679.84993	9837.2125
2682.476	9772.9125
2685.10043	9792.5125
2687.72324	9766.5125
2690.34441	9779.9125
2692.96396	9773.8125
2695.58188	9783.4125
2698.19818	9804.5125
2700.81285	9788.2125
2703.4259	9792.9125
2706.03733	9840.4125
2708.64714	9790.6125
2711.25533	9833.5125
2713.86191	9792.9125
2716.46687	9764.7125
2719.07021	9771.0125
2721.67194	9775.6125
2724.27206	9765.4125
2726.87057	9761.7125
2729.46747	9781.7125
2732.06276	9759.9125
2734.65644	9763.7125
2737.24852	9758.0125
2739.83899	9718.4125
2742.42786	9709.9125
2745.01513	9707.8125
2747.60079	9694.8125
2750.18486	9682.0125
2752.76733	9669.8125
2755.3482	9683.9125
2757.92747	9650.4125
2760.50515	9635.5125
2763.08123	9649.2125
2765.65573	9631.7125
2768.22863	9607.6125
2770.79994	9593.0125
2773.36967	9595.5125
2775.9378	9573.2125
2778.50435	9558.9125
2781.06932	9559.0125
2783.6327	9546.0125
2786.1945	9539.0125
2788.75471	9510.8125
2791.31335	9497.4125
2793.87041	9495.3125
2796.42589	9451.1125
2798.97979	9442.0125
2801.53212	9425.5125
2804.08288	9435.9125
2806.63206	9391.3125
2809.17967	9367.5125
2811.72571	9344.7125
2814.27018	9351.6125
2816.81308	9315.2125
2819.35442	9304.4125
2821.89419	9285.0125
2824.43239	9278.2125
2826.96904	9280.4125
2829.50412	9267.7125
2832.03763	9242.5125
2834.56959	9254.3125
2837.1	9225.1125
2839.62884	9228.4125
2842.15613	9248.3125
2844.68186	9257.1125
2847.20604	9219.4125
2849.72867	9232.1125
2852.24974	9215.9125
2854.76927	9224.2125
2857.28724	9197.7125
2859.80367	9195.7125
2862.31855	9158.3125
2864.83189	9147.4125
2867.34368	9145.2125
2869.85393	9157.7125
2872.36264	9117.3125
2874.8698	9133.4125
2877.37543	9125.6125
2879.87952	9131.5125
2882.38207	9133.2125
2884.88308	9106.1125
2887.38256	9121.1125
2889.88051	9146.4125
2892.37692	9099.1125
2894.8718	9125.2125
2897.36515	9099.6125
2899.85698	9109.7125
2902.34727	9112.4125
2904.83604	9119.2125
2907.32328	9127.4125
2909.809	9122.6125
2912.29319	9131.7125
2914.77587	9114.8125
2917.25702	9109.5125
2919.73665	9114.7125
2922.21476	9116.2125
2924.69136	9092.4125
2927.16644	9112.4125
2929.64	9102.0125
2932.11205	9089.0125
2934.58258	9061.3125
2937.05161	9083.3125
2939.51912	9082.0125
2941.98513	9058.0125
2944.44962	9051.9125
2946.91261	9011.6125
2949.37409	9033.1125
2951.83407	9032.9125
2954.29254	9010.0125
2956.74951	8991.1125
2959.20498	8994.4125
2961.65895	8948.7125
2964.11142	8970.1125
2966.56239	8922.2125
2969.01186	8938.6125
2971.45984	8893.6125
2973.90632	8891.1125
2976.35131	8859.2125
2978.7948	8863.6125
2981.23681	8857.4125
2983.67732	8832.6125
2986.11635	8811.7125
2988.55388	8783.2125
2990.98993	8754.0125
2993.4245	8752.2125
2995.85758	8727.8125
2998.28917	8718.3125
3000.71928	8724.4125
3003.14791	8697.4125
3005.57506	8705.8125
3008.00073	8685.8125
3010.42493	8671.5125
3012.84764	8651.9125
3015.26888	8640.5125
3017.68865	8626.6125
3020.10694	8636.2125
3022.52376	8596.2125
3024.9391	8580.4125
3027.35298	8562.8125
3029.76539	8559.9125
3032.17632	8558.6125
3034.5858	8519.0125
3036.9938	8545.5125
3039.40034	8511.7125
3041.80542	8510.2125
3044.20903	8507.1125
