Data from AgNP_FTO_APTES_CRN_50uM_R6G_10uM_NaF_0.1M_Addition_RamanShift__22__18-11-38-083.txt Node

Date: Wed Dec 15 18:11:38 GMT 2021
User: TCL
Spectrometer: QEP01345
Trigger mode: 4
Integration Time (sec): 7.000000E0
Scans to average: 10
Electric dark correction enabled: true
Nonlinearity correction enabled: false
Boxcar width: 0
XAxis mode: Raman Shifts
Number of Pixels in Spectrum: 1044
>>>>>Begin Spectral Data<<<<<
46.04893	1.1875
50.45542	-1.5125
54.85868	-1.2125
59.25871	-0.5125
63.6555	53.2875
68.04907	60.3875
72.43941	61.7875
76.82654	64.8875
81.21044	69.1875
85.59113	69.9875
89.96862	73.4875
94.34289	73.8875
98.71396	79.1875
103.08183	83.3875
107.4465	84.2875
111.80798	86.3875
116.16626	84.3875
120.52136	89.4875
124.87327	90.5875
129.222	94.8875
133.56755	97.6875
137.90993	104.3875
142.24913	116.5875
146.58517	121.5875
150.91804	140.8875
155.24774	160.2875
159.57429	196.8875
163.89768	251.6875
168.21792	322.6875
172.53501	439.7875
176.84895	601.1875
181.15975	839.1875
185.46741	1186.4875
189.77193	1627.4875
194.07331	2164.7875
198.37157	2795.2875
202.6667	3445.1875
206.9587	4099.6875
211.24758	4739.3875
215.53334	5368.8875
219.81599	6049.2875
224.09553	6787.1875
228.37195	7575.8875
232.64527	8462.9875
236.91549	9428.1875
241.18261	10394.6875
245.44663	11315.4875
249.70755	12166.8875
253.96539	12909.1875
258.22014	13556.8875
262.4718	14057.8875
266.72039	14398.2875
270.96589	14604.6875
275.20832	14646.0875
279.44768	14565.5875
283.68397	14472.7875
287.91719	14349.4875
292.14735	14253.2875
296.37445	14214.8875
300.59849	14222.6875
304.81948	14196.6875
309.03742	14083.0875
313.25231	13925.5875
317.46415	13716.5875
321.67296	13416.6875
325.87872	13225.8875
330.08145	13130.6875
334.28114	13133.2875
338.47781	13244.9875
342.67145	13405.0875
346.86207	13590.8875
351.04966	13771.6875
355.23424	14005.5875
359.4158	14222.9875
363.59435	14373.1875
367.76989	14498.0875
371.94243	14579.7875
376.11196	14687.4875
380.27849	14759.9875
384.44203	14864.7875
388.60257	14984.2875
392.76012	15108.2875
396.91468	15274.4875
401.06626	15504.6875
405.21485	15649.5875
409.36047	15632.3875
413.50311	15496.3875
417.64277	15375.8875
421.77947	15289.4875
425.9132	15374.6875
430.04396	15456.9875
434.17176	15586.1875
438.2966	15736.2875
442.41849	15900.3875
446.53742	16286.1875
450.6534	16640.6875
454.76644	16928.3875
458.87653	17102.8875
462.98368	17041.8875
467.08789	16942.0875
471.18916	16821.1875
475.2875	16740.1875
479.38291	16676.7875
483.4754	16556.9875
487.56496	16423.4875
491.6516	16175.2875
495.73531	16003.3875
499.81612	15932.1875
503.89401	15957.9875
507.96899	16005.5875
512.04106	16000.5875
516.11023	15940.1875
520.1765	15937.9875
524.23987	15875.5875
528.30034	15780.4875
532.35792	15720.8875
536.41261	15594.6875
540.46441	15484.4875
544.51333	15446.0875
548.55936	15603.8875
552.60252	15814.1875
556.64279	16087.2875
560.6802	16234.8875
564.71473	16330.9875
568.7464	16474.7875
572.7752	16659.3875
576.80114	16818.9875
580.82422	16990.3875
584.84444	17205.0875
588.86181	17443.5875
592.87633	17737.8875
596.888	17990.3875
600.89682	18025.3875
604.9028	18342.7875
608.90594	19255.8875
612.90624	20101.4875
616.90371	19182.9875
620.89834	16975.2875
624.89015	16073.2875
628.87913	15980.1875
632.86528	16071.0875
636.84862	16068.0875
640.82913	15938.9875
644.80683	15654.2875
648.78172	15445.3875
652.75379	15363.7875
656.72306	15471.9875
660.68952	15613.6875
664.65319	15594.1875
668.61405	15439.8875
672.57211	15404.9875
676.52738	15396.0875
680.47986	15415.9875
684.42955	15378.9875
688.37646	15356.7875
692.32058	15422.0875
696.26192	15505.9875
700.20048	15618.5875
704.13626	15738.0875
708.06928	15763.3875
711.99952	15675.0875
715.927	15674.0875
719.85171	15641.3875
723.77365	15602.7875
727.69284	15526.9875
731.60928	15385.9875
735.52295	15374.3875
739.43388	15386.1875
743.34206	15386.0875
747.24749	15445.9875
751.15017	15518.0875
755.05012	15699.9875
758.94733	15995.4875
762.8418	16546.7875
766.73354	17396.9875
770.62254	18210.0875
774.50882	18394.1875
778.39237	17806.1875
782.27321	16769.7875
786.15132	15983.5875
790.02671	15546.5875
793.89938	15310.0875
797.76935	15251.0875
801.6366	15222.3875
805.50115	15200.6875
809.36299	15172.4875
813.22213	15119.9875
817.07857	15083.7875
820.93231	15070.3875
824.78336	15033.9875
828.63172	15039.4875
832.47738	15033.5875
836.32036	15094.8875
840.16066	15141.0875
843.99827	15141.0875
847.8332	15097.4875
851.66546	15044.8875
855.49504	15026.4875
859.32195	15018.8875
863.1462	15025.6875
866.96777	14988.9875
870.78668	14962.2875
874.60293	14950.9875
878.41652	14940.3875
882.22745	14998.7875
886.03573	15027.4875
889.84136	15004.9875
893.64433	14957.1875
897.44466	14910.5875
901.24235	14882.6875
905.0374	14860.5875
908.8298	14862.9875
912.61957	14891.5875
916.40671	14995.0875
920.19121	15122.4875
923.97308	15228.5875
927.75233	15228.6875
931.52895	15174.8875
935.30295	15086.5875
939.07433	14887.6875
942.84309	14714.1875
946.60924	14657.4875
950.37278	14586.9875
954.13371	14545.0875
957.89203	14516.1875
961.64774	14528.5875
965.40086	14459.1875
969.15137	14434.1875
972.89929	14359.1875
976.64461	14336.0875
980.38733	14337.3875
984.12747	14392.5875
987.86502	14495.4875
991.59999	14603.1875
995.33237	14807.7875
999.06217	15070.6875
1002.78939	15366.1875
1006.51404	15539.2875
1010.23611	15658.1875
1013.95561	15729.8875
1017.67255	15758.8875
1021.38692	15617.5875
1025.09872	15495.9875
1028.80796	15534.7875
1032.51465	15792.1875
1036.21877	16034.7875
1039.92035	16107.0875
1043.61937	16019.8875
1047.31584	15813.1875
1051.00976	15638.3875
1054.70114	15546.5875
1058.38998	15642.2875
1062.07627	15797.4875
1065.76003	15961.9875
1069.44126	16211.8875
1073.11995	16520.1875
1076.79611	16730.1875
1080.46974	16757.4875
1084.14085	16632.5875
1087.80943	16523.6875
1091.47549	16414.2875
1095.13903	16324.2875
1098.80005	16150.9875
1102.45857	15892.4875
1106.11456	15704.2875
1109.76805	15658.4875
1113.41903	15668.4875
1117.06751	15747.8875
1120.71348	15852.1875
1124.35696	15986.8875
1127.99793	16137.9875
1131.63641	16184.9875
1135.2724	16116.8875
1138.90589	16019.8875
1142.5369	15953.7875
1146.16542	15965.4875
1149.79145	16012.9875
1153.415	16126.0875
1157.03607	16267.5875
1160.65467	16552.0875
1164.27079	17043.4875
1167.88443	17686.1875
1171.49561	18520.6875
1175.10432	19534.4875
1178.71056	20855.2875
1182.31434	21947.8875
1185.91565	22402.1875
1189.51451	22227.5875
1193.11091	21601.3875
1196.70485	20876.3875
1200.29634	20152.5875
1203.88538	19685.3875
1207.47197	19390.9875
1211.05612	19120.4875
1214.63782	18879.6875
1218.21708	18672.9875
1221.79391	18481.1875
1225.36829	18350.0875
1228.94024	18217.9875
1232.50976	17999.2875
1236.07685	17830.6875
1239.6415	17774.1875
1243.20374	17819.7875
1246.76355	17922.0875
1250.32093	18118.7875
1253.8759	18419.7875
1257.42845	18780.5875
1260.97859	19121.1875
1264.52631	19400.7875
1268.07163	19745.0875
1271.61453	20131.5875
1275.15503	20543.9875
1278.69312	21016.3875
1282.22882	21466.3875
1285.76211	21911.2875
1289.29301	22449.3875
1292.82151	23127.1875
1296.34761	23959.3875
1299.87133	25015.2875
1303.39266	26201.0875
1306.9116	27426.2875
1310.42815	28587.9875
1313.94233	29378.7875
1317.45412	29467.4875
1320.96354	29179.3875
1324.47058	28688.9875
1327.97525	28196.1875
1331.47754	27830.8875
1334.97747	27625.4875
1338.47502	27582.3875
1341.97022	27439.2875
1345.46305	27070.8875
1348.95352	26679.6875
1352.44163	26555.6875
1355.92738	26910.3875
1359.41078	27811.8875
1362.89183	28704.1875
1366.37053	28406.6875
1369.84688	26611.3875
1373.32088	24459.3875
1376.79254	22867.8875
1380.26186	22234.7875
1383.72883	22079.9875
1387.19347	22048.3875
1390.65578	21917.8875
1394.11575	21894.2875
1397.57339	22104.5875
1401.0287	22512.9875
1404.48168	22886.4875
1407.93234	22930.2875
1411.38068	22671.2875
1414.82669	22087.9875
1418.27039	21322.9875
1421.71177	20545.7875
1425.15083	19859.9875
1428.58758	19501.1875
1432.02203	19466.6875
1435.45416	19750.4875
1438.88399	20159.0875
1442.31151	20513.9875
1445.73673	20813.2875
1449.15965	21069.8875
1452.58027	21308.1875
1455.9986	21401.5875
1459.41463	21539.9875
1462.82837	21789.3875
1466.23982	22216.7875
1469.64898	22558.4875
1473.05586	22774.4875
1476.46045	22824.2875
1479.86276	22763.7875
1483.26279	22565.2875
1486.66054	22409.6875
1490.05602	22359.1875
1493.44922	22382.1875
1496.84016	22460.2875
1500.22882	22700.1875
1503.61521	23132.7875
1506.99934	23756.7875
1510.38121	24288.8875
1513.76081	24395.1875
1517.13816	24095.8875
1520.51324	23381.6875
1523.88607	22683.2875
1527.25665	22297.3875
1530.62498	22139.7875
1533.99105	22101.6875
1537.35488	22010.8875
1540.71647	21816.6875
1544.07581	21550.3875
1547.4329	21205.4875
1550.78776	20884.4875
1554.14038	20688.7875
1557.49077	20571.9875
1560.83892	20552.6875
1564.18484	20581.7875
1567.52853	20731.6875
1570.86999	21019.7875
1574.20922	21500.3875
1577.54624	21913.2875
1580.88103	22174.5875
1584.2136	22265.2875
1587.54395	22453.8875
1590.87208	22843.0875
1594.19801	23645.2875
1597.52172	24581.0875
1600.84321	24876.0875
1604.16251	24093.1875
1607.47959	22650.2875
1610.79447	21065.9875
1614.10715	19657.0875
1617.41763	18529.5875
1620.7259	17745.5875
1624.03199	17359.9875
1627.33587	17341.5875
1630.63757	17694.1875
1633.93707	18417.6875
1637.23439	19630.8875
1640.52951	21349.8875
1643.82246	23313.0875
1647.11321	24837.2875
1650.40179	25217.8875
1653.68819	23957.2875
1656.97241	21661.0875
1660.25446	19315.8875
1663.53433	17504.0875
1666.81203	16265.1875
1670.08756	15513.6875
1673.36092	14974.6875
1676.63211	14655.2875
1679.90115	14439.8875
1683.16801	14239.6875
1686.43272	14099.5875
1689.69527	14014.8875
1692.95567	13978.3875
1696.2139	13943.2875
1699.46999	13881.1875
1702.72392	13864.1875
1705.97571	13823.0875
1709.22535	13779.1875
1712.47284	13776.5875
1715.71819	13726.6875
1718.96139	13709.2875
1722.20246	13694.2875
1725.44139	13614.5875
1728.67818	13597.4875
1731.91284	13537.7875
1735.14537	13463.5875
1738.37576	13434.9875
1741.60403	13379.3875
1744.83017	13366.5875
1748.05418	13328.7875
1751.27607	13343.2875
1754.49584	13311.0875
1757.71349	13317.6875
1760.92903	13310.7875
1764.14244	13303.8875
1767.35375	13266.6875
1770.56294	13230.2875
1773.77002	13276.5875
1776.97499	13231.2875
1780.17785	13191.6875
1783.37861	13174.6875
1786.57727	13153.5875
1789.77382	13125.8875
1792.96828	13098.8875
1796.16064	13106.4875
1799.3509	13069.1875
1802.53907	13049.5875
1805.72514	13002.0875
1808.90913	12966.9875
1812.09102	12949.0875
1815.27083	12924.2875
1818.44856	12890.0875
1821.6242	12912.4875
1824.79776	12897.7875
1827.96924	12879.5875
1831.13864	12879.7875
1834.30597	12891.5875
1837.47122	12889.2875
1840.6344	12873.9875
1843.7955	12857.5875
1846.95454	12862.1875
1850.11151	12835.2875
1853.26642	12848.2875
1856.41926	12836.5875
1859.57004	12830.5875
1862.71876	12786.0875
1865.86542	12813.0875
1869.01003	12806.1875
1872.15258	12784.3875
1875.29308	12797.5875
1878.43152	12760.7875
1881.56792	12783.4875
1884.70227	12761.1875
1887.83457	12750.7875
1890.96482	12738.3875
1894.09304	12744.3875
1897.21921	12711.2875
1900.34335	12722.6875
1903.46544	12702.3875
1906.58551	12679.0875
1909.70353	12660.9875
1912.81953	12672.8875
1915.93349	12666.3875
1919.04543	12613.8875
1922.15534	12605.5875
1925.26322	12596.1875
1928.36908	12567.7875
1931.47292	12574.3875
1934.57473	12517.8875
1937.67453	12474.7875
1940.77232	12448.4875
1943.86808	12466.0875
1946.96184	12412.8875
1950.05358	12379.7875
1953.14331	12359.2875
1956.23103	12321.5875
1959.31675	12296.9875
1962.40046	12268.1875
1965.48217	12238.3875
1968.56188	12187.5875
1971.63959	12157.6875
1974.7153	12129.8875
1977.78901	12082.9875
1980.86073	12050.3875
1983.93046	12011.0875
1986.99819	11996.0875
1990.06394	11970.6875
1993.1277	11939.0875
1996.18947	11868.5875
1999.24925	11871.4875
2002.30706	11818.8875
2005.36288	11811.8875
2008.41672	11778.4875
2011.46859	11727.1875
2014.51848	11714.0875
2017.56639	11696.8875
2020.61233	11653.7875
2023.6563	11629.6875
2026.6983	11606.7875
2029.73833	11601.7875
2032.7764	11562.7875
2035.8125	11560.1875
2038.84664	11535.3875
2041.87881	11504.3875
2044.90903	11499.9875
2047.93729	11461.0875
2050.96359	11469.3875
2053.98794	11449.9875
2057.01034	11452.4875
2060.03078	11431.5875
2063.04927	11443.1875
2066.06582	11439.7875
2069.08042	11405.4875
2072.09307	11428.2875
2075.10378	11420.6875
2078.11255	11387.0875
2081.11938	11393.8875
2084.12426	11391.4875
2087.12722	11370.9875
2090.12824	11395.3875
2093.12732	11405.0875
2096.12447	11412.0875
2099.11969	11388.6875
2102.11299	11389.9875
2105.10435	11402.8875
2108.09379	11416.3875
2111.08131	11436.1875
2114.0669	11430.4875
2117.05057	11433.8875
2120.03233	11438.9875
2123.01216	11463.9875
2125.99008	11452.6875
2128.96609	11488.1875
2131.94018	11479.1875
2134.91236	11477.4875
2137.88263	11487.7875
2140.851	11508.8875
2143.81746	11531.8875
2146.78201	11515.1875
2149.74466	11549.4875
2152.7054	11552.9875
2155.66425	11539.3875
2158.6212	11526.2875
2161.57625	11545.5875
2164.52941	11553.3875
2167.48067	11547.9875
2170.43004	11500.9875
2173.37752	11520.9875
2176.32311	11528.7875
2179.26681	11494.3875
2182.20863	11521.0875
2185.14856	11515.4875
2188.08661	11517.7875
2191.02278	11537.0875
2193.95707	11522.8875
2196.88948	11511.2875
2199.82001	11485.7875
2202.74867	11501.1875
2205.67545	11499.0875
2208.60037	11500.4875
2211.52341	11497.6875
2214.44458	11483.5875
2217.36388	11448.5875
2220.28132	11444.5875
2223.1969	11387.8875
2226.11061	11426.9875
2229.02246	11405.7875
2231.93245	11382.1875
2234.84058	11349.3875
2237.74686	11325.6875
2240.65128	11336.9875
2243.55385	11292.9875
2246.45456	11271.3875
2249.35343	11279.4875
2252.25044	11246.4875
2255.14561	11225.9875
2258.03893	11250.0875
2260.93041	11237.5875
2263.82004	11185.9875
2266.70783	11175.2875
2269.59378	11142.1875
2272.4779	11098.8875
2275.36017	11082.7875
2278.24061	11058.5875
2281.11922	11058.7875
2283.996	11016.9875
2286.87094	11008.2875
2289.74405	11015.3875
2292.61534	11007.9875
2295.4848	10979.2875
2298.35243	11012.6875
2301.21824	10980.8875
2304.08223	10990.4875
2306.94439	10970.0875
2309.80474	10975.4875
2312.66327	10997.5875
2315.51999	10967.3875
2318.37489	10964.6875
2321.22797	10947.9875
2324.07925	10950.9875
2326.92871	10943.6875
2329.77637	10951.5875
2332.62222	10942.7875
2335.46626	10923.1875
2338.3085	10907.5875
2341.14893	10908.3875
2343.98756	10896.5875
2346.8244	10900.8875
2349.65943	10872.7875
2352.49267	10901.6875
2355.32411	10905.5875
2358.15376	10861.9875
2360.98161	10863.6875
2363.80768	10853.2875
2366.63195	10850.5875
2369.45444	10826.3875
2372.27514	10808.6875
2375.09405	10814.8875
2377.91118	10773.4875
2380.72652	10766.3875
2383.54009	10758.3875
2386.35187	10746.8875
2389.16188	10726.8875
2391.97011	10714.1875
2394.77657	10698.4875
2397.58125	10675.8875
2400.38416	10662.4875
2403.18529	10662.8875
2405.98466	10622.8875
2408.78226	10624.1875
2411.57809	10597.6875
2414.37216	10584.1875
2417.16446	10569.6875
2419.955	10571.6875
2422.74378	10567.4875
2425.5308	10541.0875
2428.31606	10527.6875
2431.09956	10505.7875
2433.88131	10526.4875
2436.6613	10511.5875
2439.43954	10509.0875
2442.21603	10507.2875
2444.99077	10492.6875
2447.76377	10501.8875
2450.53501	10460.9875
2453.30451	10457.9875
2456.07226	10448.2875
2458.83827	10442.8875
2461.60254	10450.4875
2464.36507	10461.3875
2467.12586	10454.8875
2469.88492	10460.6875
2472.64224	10441.8875
2475.39782	10474.0875
2478.15167	10443.4875
2480.90379	10419.6875
2483.65417	10468.2875
2486.40283	10451.4875
2489.14976	10473.1875
2491.89497	10448.8875
2494.63845	10479.5875
2497.3802	10449.6875
2500.12024	10453.0875
2502.85855	10444.3875
2505.59514	10443.1875
2508.33002	10442.4875
2511.06318	10422.4875
2513.79462	10414.2875
2516.52435	10420.3875
2519.25237	10412.7875
2521.97867	10396.0875
2524.70327	10381.6875
2527.42616	10374.1875
2530.14734	10371.2875
2532.86681	10330.6875
2535.58458	10341.4875
2538.30065	10330.5875
2541.01501	10319.0875
2543.72768	10312.4875
2546.43864	10322.0875
2549.14791	10308.3875
2551.85548	10281.9875
2554.56136	10278.5875
2557.26554	10252.6875
2559.96803	10252.5875
2562.66883	10231.5875
2565.36794	10246.4875
2568.06536	10260.7875
2570.7611	10244.2875
2573.45514	10214.8875
2576.14751	10186.7875
2578.83819	10186.8875
2581.52719	10176.8875
2584.21451	10179.9875
2586.90015	10184.2875
2589.58411	10151.3875
2592.2664	10168.1875
2594.94701	10154.7875
2597.62594	10119.3875
2600.30321	10121.3875
2602.9788	10109.7875
2605.65273	10114.4875
2608.32498	10087.2875
2610.99557	10064.6875
2613.66449	10076.7875
2616.33175	10069.0875
2618.99734	10074.6875
2621.66128	10062.6875
2624.32355	10058.0875
2626.98416	10067.5875
2629.64311	10067.3875
2632.30041	10071.2875
2634.95605	10073.8875
2637.61004	10022.4875
2640.26238	10027.8875
2642.91306	10046.7875
2645.56209	10008.1875
2648.20948	10024.1875
2650.85521	10003.8875
2653.4993	9978.4875
2656.14175	10000.5875
2658.78255	10011.0875
2661.42171	9992.9875
2664.05923	10003.6875
2666.6951	10021.7875
2669.32934	10010.9875
2671.96194	9999.2875
2674.59291	9992.1875
2677.22224	10002.4875
2679.84993	10018.1875
2682.476	10013.8875
2685.10043	10000.9875
2687.72324	9981.7875
2690.34441	10013.9875
2692.96396	10009.9875
2695.58188	9986.1875
2698.19818	9980.7875
2700.81285	9999.7875
2703.4259	10028.4875
2706.03733	10072.6875
2708.64714	10041.1875
2711.25533	10039.5875
2713.86191	10028.4875
2716.46687	10032.7875
2719.07021	10017.5875
2721.67194	10014.7875
2724.27206	10035.3875
2726.87057	10010.5875
2729.46747	10027.4875
2732.06276	10071.2875
2734.65644	10016.3875
2737.24852	10035.9875
2739.83899	10013.1875
2742.42786	10039.2875
2745.01513	10008.6875
2747.60079	10018.1875
2750.18486	9991.4875
2752.76733	10009.8875
2755.3482	10018.9875
2757.92747	10006.6875
2760.50515	9984.1875
2763.08123	9985.0875
2765.65573	9967.9875
2768.22863	9972.3875
2770.79994	9955.7875
2773.36967	9970.4875
2775.9378	9944.0875
2778.50435	9946.8875
2781.06932	9928.9875
2783.6327	9947.1875
2786.1945	9916.2875
2788.75471	9902.2875
2791.31335	9880.9875
2793.87041	9876.9875
2796.42589	9861.6875
2798.97979	9853.3875
2801.53212	9843.8875
2804.08288	9843.0875
2806.63206	9818.2875
2809.17967	9783.7875
2811.72571	9764.0875
2814.27018	9757.0875
2816.81308	9752.4875
2819.35442	9740.4875
2821.89419	9713.2875
2824.43239	9744.2875
2826.96904	9710.4875
2829.50412	9706.5875
2832.03763	9690.1875
2834.56959	9690.0875
2837.1	9675.6875
2839.62884	9688.0875
2842.15613	9657.6875
2844.68186	9696.2875
2847.20604	9679.6875
2849.72867	9660.8875
2852.24974	9648.2875
2854.76927	9651.8875
2857.28724	9637.6875
2859.80367	9638.8875
2862.31855	9648.0875
2864.83189	9620.9875
2867.34368	9610.0875
2869.85393	9605.1875
2872.36264	9602.2875
2874.8698	9597.7875
2877.37543	9618.2875
2879.87952	9623.7875
2882.38207	9618.9875
2884.88308	9621.6875
2887.38256	9629.7875
2889.88051	9622.0875
2892.37692	9615.7875
2894.8718	9618.6875
2897.36515	9614.1875
2899.85698	9611.8875
2902.34727	9652.1875
2904.83604	9634.3875
2907.32328	9647.5875
2909.809	9648.1875
2912.29319	9688.2875
2914.77587	9671.5875
2917.25702	9667.3875
2919.73665	9658.0875
2922.21476	9661.7875
2924.69136	9654.9875
2927.16644	9634.3875
2929.64	9659.4875
2932.11205	9642.9875
2934.58258	9607.9875
2937.05161	9636.9875
2939.51912	9631.8875
2941.98513	9628.1875
2944.44962	9614.7875
2946.91261	9560.2875
2949.37409	9600.4875
2951.83407	9576.0875
2954.29254	9578.0875
2956.74951	9576.8875
2959.20498	9571.2875
2961.65895	9560.8875
2964.11142	9573.3875
2966.56239	9538.3875
2969.01186	9544.1875
2971.45984	9499.4875
2973.90632	9474.9875
2976.35131	9462.0875
2978.7948	9454.1875
2981.23681	9419.9875
2983.67732	9443.4875
2986.11635	9436.4875
2988.55388	9399.2875
2990.98993	9371.5875
2993.4245	9357.2875
2995.85758	9352.1875
2998.28917	9333.0875
3000.71928	9309.1875
3003.14791	9287.3875
3005.57506	9284.2875
3008.00073	9286.4875
3010.42493	9271.6875
3012.84764	9275.3875
3015.26888	9245.1875
3017.68865	9217.1875
3020.10694	9214.1875
3022.52376	9213.3875
3024.9391	9203.9875
3027.35298	9179.8875
3029.76539	9185.1875
3032.17632	9177.0875
3034.5858	9175.5875
3036.9938	9172.0875
3039.40034	9160.6875
