Data from AgNP_FTO_APTES_CRN_0uM_R6G_10uM_NaF_0.1M_Addition_RamanShift__40__12-16-22-945.txt Node

Date: Wed Dec 15 12:16:22 GMT 2021
User: TCL
Spectrometer: QEP01345
Trigger mode: 4
Integration Time (sec): 7.000000E0
Scans to average: 10
Electric dark correction enabled: true
Nonlinearity correction enabled: false
Boxcar width: 0
XAxis mode: Raman Shifts
Number of Pixels in Spectrum: 1044
>>>>>Begin Spectral Data<<<<<
46.04893	0.875
50.45542	-3.125
54.85868	-1.325
59.25871	-1.525
63.6555	132.975
68.04907	145.175
72.43941	151.075
76.82654	160.475
81.21044	163.475
85.59113	171.075
89.96862	183.175
94.34289	184.875
98.71396	190.875
103.08183	201.675
107.4465	203.075
111.80798	202.375
116.16626	211.075
120.52136	218.775
124.87327	216.075
129.222	223.475
133.56755	231.375
137.90993	250.675
142.24913	270.275
146.58517	293.775
150.91804	329.575
155.24774	380.575
159.57429	460.175
163.89768	578.575
168.21792	748.275
172.53501	1000.875
176.84895	1370.475
181.15975	1915.275
185.46741	2659.775
189.77193	3653.975
194.07331	4874.575
198.37157	6252.575
202.6667	7724.375
206.9587	9189.375
211.24758	10642.075
215.53334	12092.775
219.81599	13654.075
224.09553	15394.975
228.37195	17307.675
232.64527	19392.875
236.91549	21556.275
241.18261	23648.375
245.44663	25578.775
249.70755	27290.875
253.96539	28755.575
258.22014	29969.275
262.4718	31022.575
266.72039	31753.975
270.96589	32058.075
275.20832	31940.475
279.44768	31589.675
283.68397	31128.375
287.91719	30735.575
292.14735	30491.575
296.37445	30404.075
300.59849	30531.675
304.81948	30845.075
309.03742	31165.475
313.25231	31267.975
317.46415	31224.575
321.67296	30984.275
325.87872	30739.075
330.08145	30721.475
334.28114	30808.475
338.47781	31080.875
342.67145	31450.375
346.86207	31894.275
351.04966	32464.075
355.23424	33050.075
359.4158	33519.475
363.59435	33871.375
367.76989	34019.575
371.94243	34117.975
376.11196	34265.875
380.27849	34391.375
384.44203	34568.075
388.60257	34752.175
392.76012	34915.675
396.91468	35148.975
401.06626	35657.075
405.21485	36157.775
409.36047	36174.375
413.50311	35945.875
417.64277	35936.075
421.77947	36118.275
425.9132	36316.275
430.04396	36625.575
434.17176	36888.975
438.2966	37317.575
442.41849	38326.175
446.53742	39941.175
450.6534	41582.475
454.76644	42468.575
458.87653	42196.375
462.98368	41283.275
467.08789	39998.775
471.18916	38813.975
475.2875	37519.975
479.38291	36454.975
483.4754	35851.675
487.56496	35581.975
491.6516	35464.875
495.73531	35503.275
499.81612	35723.675
503.89401	36132.075
507.96899	36326.275
512.04106	36215.775
516.11023	36109.475
520.1765	36078.775
524.23987	36279.275
528.30034	36554.375
532.35792	36507.675
536.41261	36076.575
540.46441	35291.875
544.51333	34846.775
548.55936	34869.275
552.60252	35502.775
556.64279	36444.375
560.6802	37180.075
564.71473	37222.475
568.7464	37092.375
572.7752	37454.075
576.80114	38173.875
580.82422	39471.075
584.84444	41622.375
588.86181	44801.775
592.87633	48311.775
596.888	49485.575
600.89682	46793.475
604.9028	44773.775
608.90594	46742.975
612.90624	49605.675
616.90371	47066.275
620.89834	40517.675
624.89015	37365.175
628.87913	36654.775
632.86528	36383.375
636.84862	35814.575
640.82913	35040.875
644.80683	34258.475
648.78172	33856.375
652.75379	34055.475
656.72306	34674.575
660.68952	35342.075
664.65319	35130.775
668.61405	34546.075
672.57211	34524.375
676.52738	34781.375
680.47986	34636.575
684.42955	34290.475
688.37646	34237.275
692.32058	34653.275
696.26192	35241.875
700.20048	35936.575
704.13626	36175.375
708.06928	35946.275
711.99952	35741.975
715.927	35968.175
719.85171	36263.475
723.77365	36138.775
727.69284	35653.775
731.60928	35159.575
735.52295	35102.475
739.43388	35193.975
743.34206	35357.875
747.24749	35545.275
751.15017	35750.575
755.05012	36202.375
758.94733	36891.275
762.8418	38316.875
766.73354	40515.475
770.62254	42652.375
774.50882	43130.875
778.39237	41758.075
782.27321	39496.075
786.15132	37506.875
790.02671	36301.175
793.89938	35623.875
797.76935	35524.375
801.6366	35506.275
805.50115	35446.575
809.36299	35220.475
813.22213	34988.975
817.07857	34729.775
820.93231	34538.575
824.78336	34496.375
828.63172	34501.675
832.47738	34561.075
836.32036	34711.975
840.16066	34900.275
843.99827	34987.775
847.8332	34959.675
851.66546	34764.275
855.49504	34783.475
859.32195	34780.275
863.1462	34597.575
866.96777	34523.275
870.78668	34458.875
874.60293	34607.175
878.41652	34677.575
882.22745	34852.575
886.03573	35059.975
889.84136	35081.575
893.64433	34887.575
897.44466	34701.575
901.24235	34632.075
905.0374	34603.675
908.8298	34583.975
912.61957	34706.275
916.40671	34908.275
920.19121	35298.675
923.97308	35812.675
927.75233	36186.875
931.52895	36133.475
935.30295	35581.775
939.07433	35032.675
942.84309	34620.075
946.60924	34497.475
950.37278	34473.975
954.13371	34339.875
957.89203	34153.275
961.64774	34041.775
965.40086	33961.675
969.15137	33948.475
972.89929	33895.175
976.64461	34000.675
980.38733	34131.975
984.12747	34341.675
987.86502	34539.075
991.59999	34969.775
995.33237	35554.275
999.06217	36508.875
1002.78939	37714.075
1006.51404	38600.675
1010.23611	39228.275
1013.95561	39683.275
1017.67255	39682.475
1021.38692	39134.575
1025.09872	38426.175
1028.80796	38451.375
1032.51465	39376.575
1036.21877	40334.975
1039.92035	40450.275
1043.61937	40074.175
1047.31584	39230.775
1051.00976	38388.375
1054.70114	37953.475
1058.38998	37822.875
1062.07627	37932.475
1065.76003	38091.875
1069.44126	38482.275
1073.11995	39256.975
1076.79611	39935.675
1080.46974	40280.275
1084.14085	40422.775
1087.80943	40486.675
1091.47549	40357.675
1095.13903	39926.675
1098.80005	39124.675
1102.45857	38285.575
1106.11456	37934.875
1109.76805	37881.075
1113.41903	38015.275
1117.06751	38161.275
1120.71348	38437.575
1124.35696	38659.975
1127.99793	38911.175
1131.63641	39076.875
1135.2724	38908.875
1138.90589	38704.975
1142.5369	38613.575
1146.16542	38649.375
1149.79145	38810.775
1153.415	38883.475
1157.03607	39187.775
1160.65467	40088.575
1164.27079	41756.375
1167.88443	43844.275
1171.49561	46366.075
1175.10432	49710.175
1178.71056	54039.775
1182.31434	58071.875
1185.91565	59511.875
1189.51451	58195.275
1193.11091	55576.675
1196.70485	52979.075
1200.29634	50814.075
1203.88538	49201.875
1207.47197	48010.375
1211.05612	47050.575
1214.63782	46372.675
1218.21708	46049.175
1221.79391	46108.575
1225.36829	46454.475
1228.94024	46233.875
1232.50976	45196.075
1236.07685	43797.675
1239.6415	42976.875
1243.20374	42754.275
1246.76355	43029.075
1250.32093	43753.075
1253.8759	44775.975
1257.42845	45908.075
1260.97859	47315.375
1264.52631	48679.075
1268.07163	50109.775
1271.61453	51529.375
1275.15503	52993.775
1278.69312	54451.475
1282.22882	55926.475
1285.76211	57604.975
1289.29301	59537.975
1292.82151	61756.375
1296.34761	64440.275
1299.87133	68087.875
1303.39266	72400.175
1306.9116	76968.075
1310.42815	81152.775
1313.94233	83689.775
1317.45412	83301.775
1320.96354	80378.875
1324.47058	76604.475
1327.97525	73577.775
1331.47754	71461.675
1334.97747	70258.475
1338.47502	69012.175
1341.97022	67089.075
1345.46305	65268.375
1348.95352	64942.275
1352.44163	67133.775
1355.92738	71973.875
1359.41078	78235.775
1362.89183	82858.575
1366.37053	82785.975
1369.84688	76435.375
1373.32088	66934.175
1376.79254	59860.475
1380.26186	57123.175
1383.72883	56940.675
1387.19347	56639.075
1390.65578	55229.775
1394.11575	54194.375
1397.57339	54326.375
1401.0287	55111.475
1404.48168	56106.775
1407.93234	56694.375
1411.38068	56760.675
1414.82669	56273.975
1418.27039	55126.075
1421.71177	53415.675
1425.15083	51677.775
1428.58758	50959.775
1432.02203	51716.275
1435.45416	53291.675
1438.88399	54947.375
1442.31151	55834.575
1445.73673	56065.775
1449.15965	55860.975
1452.58027	55007.075
1455.9986	53658.875
1459.41463	52828.075
1462.82837	53254.475
1466.23982	54885.075
1469.64898	56753.575
1473.05586	58226.275
1476.46045	59378.575
1479.86276	59951.375
1483.26279	60040.475
1486.66054	60105.275
1490.05602	60601.775
1493.44922	60866.075
1496.84016	60421.775
1500.22882	59805.975
1503.61521	59939.175
1506.99934	60700.775
1510.38121	61408.975
1513.76081	61515.575
1517.13816	60394.075
1520.51324	58429.075
1523.88607	56742.275
1527.25665	56161.575
1530.62498	56174.175
1533.99105	56219.075
1537.35488	55753.475
1540.71647	54943.275
1544.07581	53937.175
1547.4329	52882.875
1550.78776	51708.275
1554.14038	50690.875
1557.49077	49906.275
1560.83892	49357.475
1564.18484	49150.975
1567.52853	49278.275
1570.86999	49775.575
1574.20922	50757.275
1577.54624	51717.175
1580.88103	52209.075
1584.2136	52769.675
1587.54395	54360.375
1590.87208	57708.975
1594.19801	62375.275
1597.52172	67374.075
1600.84321	69685.075
1604.16251	67310.575
1607.47959	61288.775
1610.79447	54406.975
1614.10715	48611.875
1617.41763	44648.875
1620.7259	42580.575
1624.03199	41759.475
1627.33587	42091.575
1630.63757	43415.675
1633.93707	45963.375
1637.23439	50293.075
1640.52951	56908.475
1643.82246	65385.775
1647.11321	72074.975
1650.40179	72538.175
1653.68819	65738.575
1656.97241	55959.375
1660.25446	47637.975
1663.53433	42259.675
1666.81203	39195.375
1670.08756	37454.175
1673.36092	36355.875
1676.63211	35682.275
1679.90115	35100.475
1683.16801	34737.275
1686.43272	34432.575
1689.69527	34266.175
1692.95567	34131.175
1696.2139	34006.975
1699.46999	33943.975
1702.72392	33871.875
1705.97571	33854.175
1709.22535	33837.275
1712.47284	33777.375
1715.71819	33818.175
1718.96139	33743.575
1722.20246	33628.775
1725.44139	33543.775
1728.67818	33407.675
1731.91284	33244.575
1735.14537	33105.075
1738.37576	32934.575
1741.60403	32878.475
1744.83017	32821.775
1748.05418	32739.675
1751.27607	32729.775
1754.49584	32643.875
1757.71349	32639.775
1760.92903	32612.175
1764.14244	32587.675
1767.35375	32597.075
1770.56294	32552.075
1773.77002	32574.975
1776.97499	32547.275
1780.17785	32519.975
1783.37861	32520.875
1786.57727	32485.975
1789.77382	32421.675
1792.96828	32308.975
1796.16064	32283.175
1799.3509	32286.375
1802.53907	32242.275
1805.72514	32193.275
1808.90913	32065.475
1812.09102	32065.575
1815.27083	31966.575
1818.44856	32017.575
1821.6242	31956.175
1824.79776	31983.775
1827.96924	31977.575
1831.13864	31907.575
1834.30597	31900.375
1837.47122	31881.475
1840.6344	31910.075
1843.7955	31911.575
1846.95454	31960.175
1850.11151	31905.475
1853.26642	31838.275
1856.41926	31847.575
1859.57004	31831.075
1862.71876	31816.975
1865.86542	31766.175
1869.01003	31775.975
1872.15258	31803.375
1875.29308	31777.975
1878.43152	31722.175
1881.56792	31754.175
1884.70227	31771.275
1887.83457	31758.175
1890.96482	31728.875
1894.09304	31686.275
1897.21921	31670.375
1900.34335	31699.275
1903.46544	31696.775
1906.58551	31655.575
1909.70353	31641.075
1912.81953	31629.575
1915.93349	31557.875
1919.04543	31476.075
1922.15534	31446.375
1925.26322	31400.775
1928.36908	31339.175
1931.47292	31264.175
1934.57473	31208.375
1937.67453	31159.675
1940.77232	31116.175
1943.86808	31017.975
1946.96184	30958.175
1950.05358	30859.475
1953.14331	30818.875
1956.23103	30797.975
1959.31675	30732.775
1962.40046	30668.975
1965.48217	30584.475
1968.56188	30499.875
1971.63959	30399.075
1974.7153	30355.675
1977.78901	30282.675
1980.86073	30198.375
1983.93046	30104.175
1986.99819	30006.275
1990.06394	29909.475
1993.1277	29928.775
1996.18947	29806.875
1999.24925	29782.575
2002.30706	29684.475
2005.36288	29599.275
2008.41672	29567.375
2011.46859	29454.075
2014.51848	29389.075
2017.56639	29357.575
2020.61233	29339.975
2023.6563	29295.975
2026.6983	29154.175
2029.73833	29169.975
2032.7764	29140.775
2035.8125	29071.975
2038.84664	29057.875
2041.87881	29012.075
2044.90903	28987.675
2047.93729	28931.175
2050.96359	28907.675
2053.98794	28868.475
2057.01034	28882.075
2060.03078	28878.375
2063.04927	28846.975
2066.06582	28881.375
2069.08042	28861.975
2072.09307	28860.475
2075.10378	28793.175
2078.11255	28774.775
2081.11938	28771.575
2084.12426	28805.475
2087.12722	28736.775
2090.12824	28735.975
2093.12732	28761.075
2096.12447	28774.875
2099.11969	28798.575
2102.11299	28786.975
2105.10435	28818.275
2108.09379	28845.275
2111.08131	28855.475
2114.0669	28857.175
2117.05057	28846.475
2120.03233	28819.475
2123.01216	28865.175
2125.99008	28919.375
2128.96609	28967.075
2131.94018	28947.775
2134.91236	29019.475
2137.88263	29061.375
2140.851	29087.075
2143.81746	29111.975
2146.78201	29111.175
2149.74466	29157.875
2152.7054	29151.875
2155.66425	29133.575
2158.6212	29147.775
2161.57625	29147.175
2164.52941	29183.375
2167.48067	29191.275
2170.43004	29154.175
2173.37752	29150.175
2176.32311	29120.975
2179.26681	29094.375
2182.20863	29146.675
2185.14856	29214.075
2188.08661	29200.175
2191.02278	29239.375
2193.95707	29207.875
2196.88948	29195.675
2199.82001	29237.575
2202.74867	29271.475
2205.67545	29235.575
2208.60037	29180.875
2211.52341	29153.475
2214.44458	29135.575
2217.36388	29080.975
2220.28132	29102.875
2223.1969	29033.375
2226.11061	28997.975
2229.02246	28923.775
2231.93245	28893.375
2234.84058	28905.675
2237.74686	28834.575
2240.65128	28862.275
2243.55385	28770.975
2246.45456	28738.675
2249.35343	28715.875
2252.25044	28671.975
2255.14561	28655.775
2258.03893	28646.975
2260.93041	28591.675
2263.82004	28502.775
2266.70783	28396.475
2269.59378	28382.275
2272.4779	28352.975
2275.36017	28318.275
2278.24061	28252.675
2281.11922	28162.775
2283.996	28150.775
2286.87094	28132.675
2289.74405	28090.475
2292.61534	28038.575
2295.4848	28040.475
2298.35243	28078.075
2301.21824	28091.675
2304.08223	28175.775
2306.94439	28203.275
2309.80474	28155.975
2312.66327	28150.075
2315.51999	28146.175
2318.37489	28120.775
2321.22797	28090.175
2324.07925	28063.475
2326.92871	28028.975
2329.77637	28011.975
2332.62222	28003.275
2335.46626	28010.775
2338.3085	28047.175
2341.14893	28044.375
2343.98756	28063.375
2346.8244	28007.375
2349.65943	27969.575
2352.49267	27913.875
2355.32411	27943.475
2358.15376	27838.675
2360.98161	27846.575
2363.80768	27848.475
2366.63195	27845.675
2369.45444	27800.675
2372.27514	27736.975
2375.09405	27712.975
2377.91118	27684.175
2380.72652	27644.975
2383.54009	27596.275
2386.35187	27584.275
2389.16188	27557.675
2391.97011	27579.575
2394.77657	27492.375
2397.58125	27462.075
2400.38416	27435.675
2403.18529	27396.375
2405.98466	27319.575
2408.78226	27271.875
2411.57809	27251.875
2414.37216	27219.175
2417.16446	27239.175
2419.955	27124.375
2422.74378	27133.175
2425.5308	27088.175
2428.31606	27086.975
2431.09956	27098.075
2433.88131	26974.875
2436.6613	27032.475
2439.43954	27036.975
2442.21603	27013.975
2444.99077	27012.275
2447.76377	27020.275
2450.53501	26952.375
2453.30451	26966.875
2456.07226	26964.675
2458.83827	26989.975
2461.60254	26966.275
2464.36507	26958.575
2467.12586	27002.475
2469.88492	26948.975
2472.64224	26975.275
2475.39782	26983.375
2478.15167	26987.275
2480.90379	26938.775
2483.65417	26996.275
2486.40283	26984.175
2489.14976	27003.475
2491.89497	26979.375
2494.63845	26963.975
2497.3802	26957.575
2500.12024	27016.575
2502.85855	27031.175
2505.59514	26992.975
2508.33002	26974.275
2511.06318	26886.175
2513.79462	26864.975
2516.52435	26871.075
2519.25237	26861.575
2521.97867	26817.975
2524.70327	26808.475
2527.42616	26803.075
2530.14734	26844.575
2532.86681	26816.875
2535.58458	26743.375
2538.30065	26698.675
2541.01501	26749.275
2543.72768	26702.575
2546.43864	26677.075
2549.14791	26694.475
2551.85548	26680.275
2554.56136	26675.675
2557.26554	26594.675
2559.96803	26579.875
2562.66883	26590.275
2565.36794	26561.175
2568.06536	26556.475
2570.7611	26574.075
2573.45514	26549.075
2576.14751	26558.475
2578.83819	26538.475
2581.52719	26480.175
2584.21451	26434.075
2586.90015	26449.375
2589.58411	26386.775
2592.2664	26409.575
2594.94701	26353.175
2597.62594	26322.275
2600.30321	26279.875
2602.9788	26276.975
2605.65273	26275.675
2608.32498	26281.475
2610.99557	26238.375
2613.66449	26262.375
2616.33175	26211.975
2618.99734	26200.375
2621.66128	26194.875
2624.32355	26206.375
2626.98416	26195.775
2629.64311	26173.675
2632.30041	26159.075
2634.95605	26112.775
2637.61004	26094.475
2640.26238	26088.475
2642.91306	26071.075
2645.56209	26036.975
2648.20948	25987.275
2650.85521	25957.275
2653.4993	25998.575
2656.14175	26030.575
2658.78255	26091.275
2661.42171	26064.775
2664.05923	26111.075
2666.6951	26071.175
2669.32934	26123.875
2671.96194	26123.775
2674.59291	26103.375
2677.22224	26082.275
2679.84993	26102.775
2682.476	26071.975
2685.10043	26069.175
2687.72324	26085.175
2690.34441	26075.375
2692.96396	26049.675
2695.58188	26132.575
2698.19818	26078.975
2700.81285	26092.175
2703.4259	26028.875
2706.03733	26095.475
2708.64714	26086.375
2711.25533	26126.375
2713.86191	26107.075
2716.46687	26173.775
2719.07021	26157.175
2721.67194	26152.675
2724.27206	26169.575
2726.87057	26238.675
2729.46747	26192.875
2732.06276	26237.875
2734.65644	26252.075
2737.24852	26239.075
2739.83899	26213.875
2742.42786	26210.175
2745.01513	26189.675
2747.60079	26208.375
2750.18486	26141.575
2752.76733	26146.175
2755.3482	26178.375
2757.92747	26205.975
2760.50515	26214.575
2763.08123	26162.475
2765.65573	26158.075
2768.22863	26199.375
2770.79994	26129.575
2773.36967	26120.875
2775.9378	26112.275
2778.50435	26084.375
2781.06932	26073.775
2783.6327	26065.975
2786.1945	26035.375
2788.75471	26020.875
2791.31335	25976.675
2793.87041	25988.775
2796.42589	25895.675
2798.97979	25922.775
2801.53212	25813.275
2804.08288	25775.575
2806.63206	25725.675
2809.17967	25701.475
2811.72571	25656.675
2814.27018	25673.475
2816.81308	25602.575
2819.35442	25601.775
2821.89419	25549.775
2824.43239	25602.575
2826.96904	25528.975
2829.50412	25589.975
2832.03763	25530.875
2834.56959	25574.875
2837.1	25505.175
2839.62884	25511.075
2842.15613	25424.175
2844.68186	25484.775
2847.20604	25468.975
2849.72867	25480.275
2852.24974	25494.975
2854.76927	25487.075
2857.28724	25502.875
2859.80367	25460.675
2862.31855	25471.975
2864.83189	25442.175
2867.34368	25486.175
2869.85393	25463.175
2872.36264	25428.175
2874.8698	25430.375
2877.37543	25504.675
2879.87952	25510.275
2882.38207	25530.175
2884.88308	25531.475
2887.38256	25547.175
2889.88051	25575.575
2892.37692	25583.275
2894.8718	25600.675
2897.36515	25611.975
2899.85698	25634.375
2902.34727	25672.975
2904.83604	25692.775
2907.32328	25692.575
2909.809	25700.075
2912.29319	25770.075
2914.77587	25695.275
2917.25702	25641.475
2919.73665	25660.975
2922.21476	25693.075
2924.69136	25654.275
2927.16644	25594.575
2929.64	25597.075
2932.11205	25549.775
2934.58258	25483.975
2937.05161	25555.175
2939.51912	25546.975
2941.98513	25544.375
2944.44962	25429.275
2946.91261	25325.475
2949.37409	25386.775
2951.83407	25346.375
2954.29254	25355.075
2956.74951	25307.975
2959.20498	25323.175
2961.65895	25274.075
2964.11142	25254.375
2966.56239	25195.775
2969.01186	25140.875
2971.45984	25078.075
2973.90632	25031.275
2976.35131	24973.675
2978.7948	24961.275
2981.23681	24901.975
2983.67732	24871.575
2986.11635	24768.875
2988.55388	24719.975
2990.98993	24712.975
2993.4245	24681.975
2995.85758	24593.475
2998.28917	24537.975
3000.71928	24490.575
3003.14791	24430.575
3005.57506	24401.175
3008.00073	24337.475
3010.42493	24370.975
3012.84764	24358.675
3015.26888	24364.475
3017.68865	24300.475
3020.10694	24260.175
3022.52376	24214.575
3024.9391	24185.475
3027.35298	24143.675
3029.76539	24100.475
3032.17632	24083.175
3034.5858	24034.475
3036.9938	24095.475
3039.40034	24010.075
3041.80542	24036.775
3044.20903	24004.875
3046.61118	23954.275
3049.01187	23885.175
3051.4111	23882.475
3053.80888	23859.075
3056.20519	23800.475
3058.60005	23760.475
3060.99345	23745.375
3063.3854	23698.975
3065.7759	23641.975
3068.16494	23631.575
3070.55254	23580.275
3072.93868	23559.675
3075.32338	23439.875
3077.70662	23382.875
3080.08842	23366.175
3082.46878	23350.175
3084.84769	23314.075
3087.22515	23357.075
3089.60118	23382.075
3091.97576	23378.975
3094.3489	23316.175
3096.72061	23284.975
3099.09087	23278.775
3101.4597	23257.775
3103.82709	23273.775
3106.19305	23216.875
3108.55757	23216.375
3110.92066	23157.875
3113.28232	23129.875
3115.64255	23066.475
3118.00134	22986.375
3120.35871	22990.475
3122.71466	22999.475
3125.06917	22956.875
3127.42226	22900.475
