Data from AgNP_FTO_APTES_CRN_5uM_R6G_10uM_NaF_0.1M_Addition_RamanShift__16__15-44-37-916.txt Node

Date: Wed Dec 15 15:44:37 GMT 2021
User: TCL
Spectrometer: QEP01345
Trigger mode: 4
Integration Time (sec): 7.000000E0
Scans to average: 10
Electric dark correction enabled: true
Nonlinearity correction enabled: false
Boxcar width: 0
XAxis mode: Raman Shifts
Number of Pixels in Spectrum: 1044
>>>>>Begin Spectral Data<<<<<
46.04893	-0.3125
50.45542	-1.4125
54.85868	-0.8125
59.25871	-0.7125
63.6555	121.3875
68.04907	130.4875
72.43941	133.6875
76.82654	141.9875
81.21044	145.2875
85.59113	150.2875
89.96862	155.2875
94.34289	156.9875
98.71396	162.9875
103.08183	176.0875
107.4465	182.4875
111.80798	177.5875
116.16626	184.9875
120.52136	189.8875
124.87327	198.4875
129.222	212.9875
133.56755	221.4875
137.90993	237.1875
142.24913	264.4875
146.58517	296.3875
150.91804	334.8875
155.24774	400.9875
159.57429	497.0875
163.89768	635.1875
168.21792	841.3875
172.53501	1142.0875
176.84895	1588.3875
181.15975	2230.1875
185.46741	3110.5875
189.77193	4316.5875
194.07331	5796.3875
198.37157	7438.5875
202.6667	9223.4875
206.9587	10932.3875
211.24758	12678.4875
215.53334	14331.7875
219.81599	16121.7875
224.09553	18051.8875
228.37195	20142.6875
232.64527	22575.5875
236.91549	25059.7875
241.18261	27721.2875
245.44663	30188.6875
249.70755	32508.0875
253.96539	34567.8875
258.22014	36211.8875
262.4718	37638.4875
266.72039	38494.6875
270.96589	39040.6875
275.20832	39142.2875
279.44768	38991.6875
283.68397	38706.2875
287.91719	38390.8875
292.14735	38098.3875
296.37445	37902.6875
300.59849	37849.5875
304.81948	37790.6875
309.03742	37771.3875
313.25231	37443.5875
317.46415	36959.9875
321.67296	36406.4875
325.87872	35942.4875
330.08145	35753.7875
334.28114	35871.4875
338.47781	36190.9875
342.67145	36638.5875
346.86207	37110.2875
351.04966	37686.1875
355.23424	38245.1875
359.4158	38815.5875
363.59435	39287.6875
367.76989	39574.2875
371.94243	39834.8875
376.11196	39993.3875
380.27849	40031.7875
384.44203	40228.6875
388.60257	40495.6875
392.76012	40865.1875
396.91468	41369.2875
401.06626	41924.2875
405.21485	42364.1875
409.36047	42377.7875
413.50311	42108.1875
417.64277	41950.4875
421.77947	42105.8875
425.9132	42352.3875
430.04396	42568.6875
434.17176	42865.7875
438.2966	43001.1875
442.41849	43280.6875
446.53742	43905.7875
450.6534	44646.9875
454.76644	45192.2875
458.87653	45439.7875
462.98368	45596.8875
467.08789	45490.0875
471.18916	45132.0875
475.2875	44649.8875
479.38291	44401.8875
483.4754	44150.1875
487.56496	43906.0875
491.6516	43551.7875
495.73531	43285.3875
499.81612	43276.8875
503.89401	43510.8875
507.96899	43825.5875
512.04106	43971.1875
516.11023	44018.8875
520.1765	43783.2875
524.23987	43451.2875
528.30034	43151.4875
532.35792	42831.4875
536.41261	42481.0875
540.46441	42266.5875
544.51333	42365.0875
548.55936	42737.0875
552.60252	43331.1875
556.64279	43917.6875
560.6802	44266.5875
564.71473	44557.5875
568.7464	45050.5875
572.7752	45857.4875
576.80114	46913.8875
580.82422	48064.3875
584.84444	49069.8875
588.86181	49848.8875
592.87633	50308.4875
596.888	50045.7875
600.89682	49349.9875
604.9028	49784.2875
608.90594	51904.1875
612.90624	53859.3875
616.90371	51311.2875
620.89834	46378.6875
624.89015	44232.3875
628.87913	44059.7875
632.86528	44302.6875
636.84862	44386.6875
640.82913	43934.7875
644.80683	43189.8875
648.78172	42730.2875
652.75379	42683.8875
656.72306	43067.1875
660.68952	43490.0875
664.65319	43414.9875
668.61405	43077.4875
672.57211	43008.6875
676.52738	43182.0875
680.47986	43084.2875
684.42955	42945.8875
688.37646	42920.4875
692.32058	43069.3875
696.26192	43359.0875
700.20048	43827.5875
704.13626	44112.9875
708.06928	44249.8875
711.99952	44215.2875
715.927	44100.2875
719.85171	44017.4875
723.77365	43816.4875
727.69284	43481.6875
731.60928	43034.2875
735.52295	42835.7875
739.43388	42759.1875
743.34206	42856.0875
747.24749	43096.6875
751.15017	43433.6875
755.05012	43958.7875
758.94733	44780.7875
762.8418	46305.5875
766.73354	48380.4875
770.62254	50289.4875
774.50882	50491.1875
778.39237	48922.1875
782.27321	46828.7875
786.15132	45107.0875
790.02671	43976.3875
793.89938	43369.6875
797.76935	43045.5875
801.6366	42945.6875
805.50115	42815.9875
809.36299	42663.4875
813.22213	42486.4875
817.07857	42436.1875
820.93231	42321.4875
824.78336	42274.6875
828.63172	42214.0875
832.47738	42175.8875
836.32036	42178.4875
840.16066	42224.4875
843.99827	42188.9875
847.8332	42181.3875
851.66546	42260.6875
855.49504	42298.7875
859.32195	42338.7875
863.1462	42224.3875
866.96777	42241.5875
870.78668	42227.7875
874.60293	42268.8875
878.41652	42340.2875
882.22745	42426.1875
886.03573	42543.2875
889.84136	42571.0875
893.64433	42511.9875
897.44466	42472.1875
901.24235	42434.4875
905.0374	42438.5875
908.8298	42379.5875
912.61957	42438.5875
916.40671	42741.9875
920.19121	43061.8875
923.97308	43243.5875
927.75233	43165.6875
931.52895	42869.6875
935.30295	42498.9875
939.07433	42073.7875
942.84309	41787.1875
946.60924	41528.7875
950.37278	41445.6875
954.13371	41395.5875
957.89203	41347.2875
961.64774	41306.8875
965.40086	41367.1875
969.15137	41277.5875
972.89929	41086.0875
976.64461	41077.9875
980.38733	41078.9875
984.12747	41070.0875
987.86502	41173.8875
991.59999	41327.5875
995.33237	41558.6875
999.06217	42018.3875
1002.78939	42583.2875
1006.51404	43204.0875
1010.23611	43781.9875
1013.95561	44284.7875
1017.67255	44201.9875
1021.38692	43867.5875
1025.09872	43433.7875
1028.80796	43071.0875
1032.51465	43007.8875
1036.21877	43124.8875
1039.92035	43235.8875
1043.61937	43338.4875
1047.31584	43505.7875
1051.00976	43576.1875
1054.70114	43741.4875
1058.38998	44066.7875
1062.07627	44737.3875
1065.76003	45551.9875
1069.44126	46321.6875
1073.11995	47183.3875
1076.79611	47812.7875
1080.46974	47910.3875
1084.14085	47681.9875
1087.80943	47535.1875
1091.47549	47517.8875
1095.13903	47424.7875
1098.80005	46973.8875
1102.45857	46215.2875
1106.11456	45546.4875
1109.76805	45132.8875
1113.41903	45012.0875
1117.06751	44991.0875
1120.71348	45173.3875
1124.35696	45510.9875
1127.99793	45723.2875
1131.63641	46002.3875
1135.2724	46023.8875
1138.90589	46029.1875
1142.5369	46058.3875
1146.16542	46124.0875
1149.79145	46253.3875
1153.415	46458.0875
1157.03607	46879.1875
1160.65467	47673.9875
1164.27079	48948.2875
1167.88443	50548.3875
1171.49561	52387.6875
1175.10432	54574.0875
1178.71056	57221.4875
1182.31434	59907.8875
1185.91565	61703.6875
1189.51451	62518.3875
1193.11091	62108.4875
1196.70485	60861.0875
1200.29634	59053.4875
1203.88538	57465.4875
1207.47197	56451.4875
1211.05612	55785.3875
1214.63782	55061.1875
1218.21708	54109.0875
1221.79391	52957.6875
1225.36829	52173.5875
1228.94024	51720.2875
1232.50976	51533.4875
1236.07685	51406.4875
1239.6415	51407.5875
1243.20374	51543.2875
1246.76355	51691.0875
1250.32093	52122.4875
1253.8759	52868.9875
1257.42845	54007.0875
1260.97859	55076.4875
1264.52631	56205.0875
1268.07163	57202.8875
1271.61453	58215.7875
1275.15503	59209.1875
1278.69312	60298.5875
1282.22882	61326.7875
1285.76211	62331.0875
1289.29301	63597.1875
1292.82151	65061.6875
1296.34761	66800.9875
1299.87133	68791.1875
1303.39266	71010.8875
1306.9116	73180.0875
1310.42815	75038.8875
1313.94233	75970.3875
1317.45412	76105.9875
1320.96354	76063.7875
1324.47058	76020.1875
1327.97525	76370.1875
1331.47754	76932.3875
1334.97747	77570.6875
1338.47502	78408.5875
1341.97022	79370.1875
1345.46305	79962.9875
1348.95352	79876.6875
1352.44163	79135.3875
1355.92738	78288.7875
1359.41078	78122.8875
1362.89183	77979.0875
1366.37053	76320.6875
1369.84688	72401.8875
1373.32088	67788.7875
1376.79254	64328.6875
1380.26186	62632.6875
1383.72883	62054.7875
1387.19347	61843.7875
1390.65578	61286.1875
1394.11575	60881.9875
1397.57339	60824.2875
1401.0287	61173.2875
1404.48168	61609.6875
1407.93234	61690.7875
1411.38068	61186.7875
1414.82669	60107.4875
1418.27039	58493.9875
1421.71177	56854.4875
1425.15083	55596.6875
1428.58758	55118.3875
1432.02203	55388.9875
1435.45416	56145.0875
1438.88399	57109.1875
1442.31151	57951.6875
1445.73673	58419.0875
1449.15965	58810.7875
1452.58027	59095.9875
1455.9986	59300.5875
1459.41463	59726.3875
1462.82837	60502.2875
1466.23982	61312.3875
1469.64898	61983.6875
1473.05586	62390.0875
1476.46045	62471.4875
1479.86276	62348.6875
1483.26279	62094.5875
1486.66054	62010.9875
1490.05602	62197.5875
1493.44922	62728.8875
1496.84016	63456.3875
1500.22882	64660.6875
1503.61521	66197.3875
1506.99934	67795.3875
1510.38121	68941.7875
1513.76081	69175.4875
1517.13816	68383.4875
1520.51324	67303.1875
1523.88607	66283.4875
1527.25665	65735.2875
1530.62498	65511.3875
1533.99105	65079.6875
1537.35488	64346.3875
1540.71647	63465.0875
1544.07581	62418.4875
1547.4329	61367.6875
1550.78776	60419.3875
1554.14038	59779.9875
1557.49077	59454.4875
1560.83892	59250.2875
1564.18484	59263.6875
1567.52853	59382.2875
1570.86999	59839.4875
1574.20922	60828.7875
1577.54624	61964.4875
1580.88103	62644.6875
1584.2136	63097.3875
1587.54395	63629.0875
1590.87208	64584.6875
1594.19801	65951.3875
1597.52172	67546.2875
1600.84321	67760.4875
1604.16251	65922.4875
1607.47959	63033.6875
1610.79447	59974.6875
1614.10715	56591.3875
1617.41763	53640.6875
1620.7259	51321.4875
1624.03199	49949.3875
1627.33587	49645.5875
1630.63757	50381.7875
1633.93707	52391.4875
1637.23439	55687.6875
1640.52951	60349.7875
1643.82246	65345.7875
1647.11321	68994.3875
1650.40179	69461.5875
1653.68819	66124.9875
1656.97241	60238.2875
1660.25446	54231.7875
1663.53433	49577.3875
1666.81203	46364.3875
1670.08756	44248.1875
1673.36092	42937.5875
1676.63211	42067.3875
1679.90115	41393.7875
1683.16801	40852.5875
1686.43272	40495.1875
1689.69527	40273.7875
1692.95567	40057.2875
1696.2139	39905.5875
1699.46999	39830.3875
1702.72392	39744.1875
1705.97571	39610.1875
1709.22535	39516.9875
1712.47284	39436.9875
1715.71819	39444.2875
1718.96139	39328.9875
1722.20246	39192.2875
1725.44139	39100.9875
1728.67818	38922.3875
1731.91284	38743.3875
1735.14537	38566.3875
1738.37576	38439.2875
1741.60403	38299.6875
1744.83017	38180.0875
1748.05418	38104.0875
1751.27607	38064.6875
1754.49584	37952.3875
1757.71349	37959.0875
1760.92903	37945.6875
1764.14244	37943.6875
1767.35375	37915.8875
1770.56294	37815.8875
1773.77002	37805.9875
1776.97499	37764.7875
1780.17785	37708.0875
1783.37861	37618.4875
1786.57727	37552.7875
1789.77382	37461.7875
1792.96828	37423.4875
1796.16064	37347.8875
1799.3509	37281.1875
1802.53907	37232.1875
1805.72514	37167.2875
1808.90913	37055.3875
1812.09102	37039.1875
1815.27083	36961.6875
1818.44856	36895.3875
1821.6242	36929.4875
1824.79776	36848.4875
1827.96924	36816.4875
1831.13864	36819.2875
1834.30597	36880.0875
1837.47122	36901.8875
1840.6344	36920.4875
1843.7955	36864.8875
1846.95454	36818.0875
1850.11151	36849.9875
1853.26642	36834.4875
1856.41926	36861.4875
1859.57004	36848.1875
1862.71876	36773.2875
1865.86542	36738.6875
1869.01003	36673.6875
1872.15258	36624.1875
1875.29308	36615.8875
1878.43152	36511.4875
1881.56792	36465.2875
1884.70227	36391.1875
1887.83457	36398.0875
1890.96482	36338.6875
1894.09304	36277.5875
1897.21921	36259.3875
1900.34335	36107.2875
1903.46544	36065.6875
1906.58551	36051.8875
1909.70353	36009.2875
1912.81953	35930.0875
1915.93349	35868.7875
1919.04543	35818.7875
1922.15534	35752.4875
1925.26322	35687.2875
1928.36908	35576.6875
1931.47292	35482.9875
1934.57473	35409.1875
1937.67453	35335.4875
1940.77232	35271.7875
1943.86808	35165.5875
1946.96184	35052.5875
1950.05358	34932.8875
1953.14331	34863.3875
1956.23103	34801.4875
1959.31675	34725.5875
1962.40046	34582.1875
1965.48217	34470.4875
1968.56188	34384.7875
1971.63959	34263.8875
1974.7153	34155.7875
1977.78901	34057.8875
1980.86073	33990.0875
1983.93046	33848.1875
1986.99819	33763.4875
1990.06394	33703.5875
1993.1277	33638.2875
1996.18947	33516.0875
1999.24925	33379.0875
2002.30706	33310.3875
2005.36288	33212.8875
2008.41672	33132.9875
2011.46859	33032.0875
2014.51848	32998.6875
2017.56639	32912.4875
2020.61233	32831.0875
2023.6563	32731.9875
2026.6983	32673.9875
2029.73833	32612.5875
2032.7764	32484.7875
2035.8125	32372.6875
2038.84664	32305.3875
2041.87881	32258.5875
2044.90903	32201.6875
2047.93729	32161.3875
2050.96359	32124.9875
2053.98794	32072.7875
2057.01034	32069.7875
2060.03078	31984.8875
2063.04927	31961.2875
2066.06582	31930.9875
2069.08042	31936.0875
2072.09307	31928.6875
2075.10378	31903.2875
2078.11255	31840.2875
2081.11938	31846.2875
2084.12426	31862.6875
2087.12722	31806.1875
2090.12824	31805.7875
2093.12732	31852.3875
2096.12447	31822.7875
2099.11969	31786.6875
2102.11299	31778.9875
2105.10435	31819.6875
2108.09379	31864.3875
2111.08131	31907.6875
2114.0669	31915.5875
2117.05057	31826.7875
2120.03233	31835.6875
2123.01216	31916.5875
2125.99008	31972.0875
2128.96609	31910.8875
2131.94018	31955.3875
2134.91236	31973.7875
2137.88263	32042.8875
2140.851	31984.7875
2143.81746	32056.6875
2146.78201	32043.4875
2149.74466	31988.5875
2152.7054	32038.0875
2155.66425	32029.5875
2158.6212	32013.6875
2161.57625	31983.9875
2164.52941	32019.0875
2167.48067	32018.7875
2170.43004	32018.7875
2173.37752	31977.8875
2176.32311	31958.0875
2179.26681	31948.0875
2182.20863	31926.1875
2185.14856	31976.9875
2188.08661	31911.0875
2191.02278	31923.1875
2193.95707	31879.5875
2196.88948	31853.4875
2199.82001	31844.5875
2202.74867	31771.7875
2205.67545	31751.0875
2208.60037	31681.8875
2211.52341	31677.0875
2214.44458	31651.5875
2217.36388	31562.4875
2220.28132	31495.5875
2223.1969	31461.8875
2226.11061	31435.8875
2229.02246	31390.8875
2231.93245	31285.2875
2234.84058	31217.8875
2237.74686	31138.0875
2240.65128	31124.3875
2243.55385	31079.1875
2246.45456	31042.8875
2249.35343	31038.0875
2252.25044	30953.6875
2255.14561	30850.9875
2258.03893	30800.8875
2260.93041	30831.6875
2263.82004	30729.9875
2266.70783	30701.7875
2269.59378	30593.6875
2272.4779	30536.0875
2275.36017	30387.6875
2278.24061	30359.8875
2281.11922	30267.2875
2283.996	30259.7875
2286.87094	30197.8875
2289.74405	30143.5875
2292.61534	30110.2875
2295.4848	30062.8875
2298.35243	30004.3875
2301.21824	29973.8875
2304.08223	29989.5875
2306.94439	29953.8875
2309.80474	29936.4875
2312.66327	29911.7875
2315.51999	29852.8875
2318.37489	29851.0875
2321.22797	29802.9875
2324.07925	29758.6875
2326.92871	29716.3875
2329.77637	29668.7875
2332.62222	29674.0875
2335.46626	29595.7875
2338.3085	29573.9875
2341.14893	29576.4875
2343.98756	29518.5875
2346.8244	29510.9875
2349.65943	29465.6875
2352.49267	29430.5875
2355.32411	29444.2875
2358.15376	29405.2875
2360.98161	29407.7875
2363.80768	29393.7875
2366.63195	29341.3875
2369.45444	29308.2875
2372.27514	29316.2875
2375.09405	29273.2875
2377.91118	29188.5875
2380.72652	29189.8875
2383.54009	29118.5875
2386.35187	29122.9875
2389.16188	28965.4875
2391.97011	28938.1875
2394.77657	28918.3875
2397.58125	28878.6875
2400.38416	28827.3875
2403.18529	28777.4875
2405.98466	28685.4875
2408.78226	28658.5875
2411.57809	28626.0875
2414.37216	28548.7875
2417.16446	28597.1875
2419.955	28549.1875
2422.74378	28508.9875
2425.5308	28456.4875
2428.31606	28436.4875
2431.09956	28429.9875
2433.88131	28421.2875
2436.6613	28380.1875
2439.43954	28360.7875
2442.21603	28290.1875
2444.99077	28262.5875
2447.76377	28325.1875
2450.53501	28291.4875
2453.30451	28227.9875
2456.07226	28177.1875
2458.83827	28151.9875
2461.60254	28138.2875
2464.36507	28115.5875
2467.12586	28109.7875
2469.88492	28063.9875
2472.64224	28026.3875
2475.39782	28046.1875
2478.15167	28022.8875
2480.90379	27974.9875
2483.65417	27996.6875
2486.40283	27980.7875
2489.14976	27973.9875
2491.89497	27924.7875
2494.63845	27915.7875
2497.3802	27945.3875
2500.12024	27924.7875
2502.85855	27963.6875
2505.59514	27897.1875
2508.33002	27875.4875
2511.06318	27855.4875
2513.79462	27793.0875
2516.52435	27770.5875
2519.25237	27758.4875
2521.97867	27753.6875
2524.70327	27671.7875
2527.42616	27675.2875
2530.14734	27665.1875
2532.86681	27610.0875
2535.58458	27557.6875
2538.30065	27497.5875
2541.01501	27529.6875
2543.72768	27488.5875
2546.43864	27457.0875
2549.14791	27387.5875
2551.85548	27413.8875
2554.56136	27288.2875
2557.26554	27299.6875
2559.96803	27258.7875
2562.66883	27177.7875
2565.36794	27170.4875
2568.06536	27152.8875
2570.7611	27098.1875
2573.45514	27027.8875
2576.14751	27037.6875
2578.83819	26979.4875
2581.52719	26943.1875
2584.21451	26908.8875
2586.90015	26865.0875
2589.58411	26781.1875
2592.2664	26769.3875
2594.94701	26750.1875
2597.62594	26761.8875
2600.30321	26656.3875
2602.9788	26646.0875
2605.65273	26589.9875
2608.32498	26549.1875
2610.99557	26518.1875
2613.66449	26546.8875
2616.33175	26491.0875
2618.99734	26450.6875
2621.66128	26477.6875
2624.32355	26423.5875
2626.98416	26375.3875
2629.64311	26339.2875
2632.30041	26314.7875
2634.95605	26268.4875
2637.61004	26232.5875
2640.26238	26268.8875
2642.91306	26192.1875
2645.56209	26236.3875
2648.20948	26218.4875
2650.85521	26185.6875
2653.4993	26228.8875
2656.14175	26184.3875
2658.78255	26207.2875
2661.42171	26176.1875
2664.05923	26211.7875
2666.6951	26206.1875
2669.32934	26180.1875
2671.96194	26181.5875
2674.59291	26226.2875
2677.22224	26165.4875
2679.84993	26173.5875
2682.476	26101.2875
2685.10043	26135.7875
2687.72324	26137.8875
2690.34441	26151.0875
2692.96396	26170.1875
2695.58188	26192.3875
2698.19818	26100.4875
2700.81285	26164.1875
2703.4259	26113.2875
2706.03733	26195.1875
2708.64714	26196.6875
2711.25533	26228.0875
2713.86191	26195.4875
2716.46687	26225.9875
2719.07021	26151.1875
2721.67194	26165.6875
2724.27206	26120.9875
2726.87057	26145.6875
2729.46747	26163.7875
2732.06276	26177.7875
2734.65644	26147.9875
2737.24852	26195.0875
2739.83899	26131.0875
2742.42786	26132.4875
2745.01513	26049.2875
2747.60079	26065.8875
2750.18486	26051.2875
2752.76733	26034.3875
2755.3482	26037.9875
2757.92747	26016.3875
2760.50515	25934.0875
2763.08123	25926.7875
2765.65573	25902.6875
2768.22863	25894.0875
2770.79994	25797.2875
2773.36967	25772.3875
2775.9378	25741.2875
2778.50435	25692.4875
2781.06932	25709.4875
2783.6327	25691.9875
2786.1945	25633.3875
2788.75471	25546.3875
2791.31335	25527.2875
2793.87041	25516.9875
2796.42589	25429.4875
2798.97979	25405.4875
2801.53212	25339.7875
2804.08288	25350.6875
2806.63206	25232.0875
2809.17967	25212.6875
2811.72571	25128.2875
2814.27018	25123.8875
2816.81308	25079.3875
2819.35442	25032.2875
2821.89419	24973.7875
2824.43239	24935.4875
2826.96904	24891.8875
2829.50412	24899.3875
2832.03763	24844.0875
2834.56959	24846.4875
2837.1	24782.0875
2839.62884	24746.2875
2842.15613	24700.4875
2844.68186	24684.1875
2847.20604	24620.5875
2849.72867	24636.0875
2852.24974	24623.1875
2854.76927	24567.5875
2857.28724	24524.1875
2859.80367	24504.9875
2862.31855	24444.3875
2864.83189	24465.9875
2867.34368	24401.1875
2869.85393	24375.2875
2872.36264	24358.4875
2874.8698	24356.5875
2877.37543	24346.9875
2879.87952	24329.0875
2882.38207	24335.4875
2884.88308	24301.3875
2887.38256	24306.4875
2889.88051	24264.1875
2892.37692	24259.3875
2894.8718	24243.4875
2897.36515	24284.1875
2899.85698	24223.5875
2902.34727	24330.7875
2904.83604	24332.9875
2907.32328	24348.1875
2909.809	24289.6875
2912.29319	24359.8875
2914.77587	24325.4875
2917.25702	24289.4875
2919.73665	24271.3875
2922.21476	24296.4875
2924.69136	24279.8875
2927.16644	24292.5875
2929.64	24220.6875
2932.11205	24179.2875
2934.58258	24078.8875
2937.05161	24144.8875
2939.51912	24162.3875
2941.98513	24151.7875
2944.44962	24099.6875
2946.91261	23974.0875
2949.37409	24055.3875
2951.83407	24036.4875
2954.29254	23968.5875
2956.74951	23944.9875
2959.20498	23936.7875
2961.65895	23886.0875
2964.11142	23936.2875
2966.56239	23851.8875
2969.01186	23872.7875
2971.45984	23790.2875
2973.90632	23792.6875
2976.35131	23722.1875
2978.7948	23678.5875
2981.23681	23660.5875
2983.67732	23673.5875
2986.11635	23546.0875
2988.55388	23509.8875
2990.98993	23442.6875
2993.4245	23448.1875
2995.85758	23369.0875
2998.28917	23257.6875
3000.71928	23253.6875
3003.14791	23207.4875
3005.57506	23137.4875
3008.00073	23084.8875
3010.42493	23092.1875
3012.84764	23051.4875
3015.26888	23062.5875
3017.68865	22985.3875
3020.10694	22959.2875
3022.52376	22896.6875
