Data from AgNP_FTO_APTES_CRN_0uM_R6G_10uM_NaF_0.1M_Addition_RamanShift__65__12-45-32-978.txt Node

Date: Wed Dec 15 12:45:32 GMT 2021
User: TCL
Spectrometer: QEP01345
Trigger mode: 4
Integration Time (sec): 7.000000E0
Scans to average: 10
Electric dark correction enabled: true
Nonlinearity correction enabled: false
Boxcar width: 0
XAxis mode: Raman Shifts
Number of Pixels in Spectrum: 1044
>>>>>Begin Spectral Data<<<<<
46.04893	0.7875
50.45542	-2.0125
54.85868	-1.5125
59.25871	-2.2125
63.6555	159.0875
68.04907	165.2875
72.43941	170.8875
76.82654	183.6875
81.21044	183.2875
85.59113	194.8875
89.96862	207.7875
94.34289	203.6875
98.71396	215.2875
103.08183	222.3875
107.4465	231.2875
111.80798	232.5875
116.16626	234.1875
120.52136	247.5875
124.87327	250.5875
129.222	264.7875
133.56755	278.6875
137.90993	302.8875
142.24913	326.4875
146.58517	360.9875
150.91804	414.6875
155.24774	489.8875
159.57429	593.9875
163.89768	760.8875
168.21792	999.5875
172.53501	1350.6875
176.84895	1871.1875
181.15975	2609.5875
185.46741	3641.2875
189.77193	5028.0875
194.07331	6714.1875
198.37157	8638.9875
202.6667	10665.3875
206.9587	12669.4875
211.24758	14622.7875
215.53334	16631.3875
219.81599	18768.0875
224.09553	21137.8875
228.37195	23793.9875
232.64527	26703.0875
236.91549	29759.3875
241.18261	32683.9875
245.44663	35343.5875
249.70755	37690.1875
253.96539	39684.4875
258.22014	41378.2875
262.4718	42895.8875
266.72039	44001.2875
270.96589	44610.9875
275.20832	44717.5875
279.44768	44418.8875
283.68397	43947.1875
287.91719	43523.9875
292.14735	43259.5875
296.37445	43324.4875
300.59849	43672.4875
304.81948	44241.8875
309.03742	44688.3875
313.25231	44418.7875
317.46415	43411.3875
321.67296	41886.2875
325.87872	40555.8875
330.08145	39954.9875
334.28114	40045.7875
338.47781	40463.8875
342.67145	41104.4875
346.86207	42042.4875
351.04966	43354.3875
355.23424	44788.7875
359.4158	46034.3875
363.59435	46836.4875
367.76989	47212.9875
371.94243	47330.4875
376.11196	47451.3875
380.27849	47587.1875
384.44203	47587.9875
388.60257	47731.9875
392.76012	47948.9875
396.91468	48609.9875
401.06626	49574.0875
405.21485	50400.4875
409.36047	50295.1875
413.50311	49302.3875
417.64277	48477.3875
421.77947	48117.7875
425.9132	48203.3875
430.04396	48501.3875
434.17176	48870.9875
438.2966	49384.9875
442.41849	50435.9875
446.53742	51881.2875
450.6534	53563.5875
454.76644	54915.4875
458.87653	55436.8875
462.98368	55077.3875
467.08789	54095.3875
471.18916	52781.0875
475.2875	51499.8875
479.38291	50658.1875
483.4754	49991.3875
487.56496	49427.4875
491.6516	48835.3875
495.73531	48348.8875
499.81612	48198.8875
503.89401	48504.9875
507.96899	48751.1875
512.04106	48838.8875
516.11023	49013.4875
520.1765	49093.3875
524.23987	49023.9875
528.30034	48650.8875
532.35792	48042.4875
536.41261	47246.6875
540.46441	46419.4875
544.51333	46206.6875
548.55936	46583.1875
552.60252	47421.2875
556.64279	48285.1875
560.6802	48662.2875
564.71473	49022.4875
568.7464	49981.4875
572.7752	51082.6875
576.80114	51540.3875
580.82422	51889.0875
584.84444	52580.8875
588.86181	53463.0875
592.87633	54747.8875
596.888	56093.6875
600.89682	57168.1875
604.9028	60200.6875
608.90594	67365.8875
612.90624	74741.8875
616.90371	70321.1875
620.89834	57269.9875
624.89015	51637.3875
628.87913	50963.8875
632.86528	50634.3875
636.84862	49861.8875
640.82913	48680.7875
644.80683	47035.7875
648.78172	45915.7875
652.75379	45897.4875
656.72306	46810.6875
660.68952	48147.5875
664.65319	47931.6875
668.61405	46798.5875
672.57211	46325.5875
676.52738	46205.6875
680.47986	46171.3875
684.42955	45974.9875
688.37646	45902.6875
692.32058	46162.2875
696.26192	46577.0875
700.20048	47239.5875
704.13626	47541.4875
708.06928	47239.4875
711.99952	46844.1875
715.927	46809.6875
719.85171	46931.3875
723.77365	46591.7875
727.69284	45995.5875
731.60928	45500.2875
735.52295	45457.9875
739.43388	45586.0875
743.34206	45868.1875
747.24749	46204.0875
751.15017	46703.7875
755.05012	47593.3875
758.94733	49131.7875
762.8418	52089.2875
766.73354	56750.2875
770.62254	61372.5875
774.50882	62827.7875
778.39237	59823.6875
782.27321	54711.0875
786.15132	50419.0875
790.02671	47884.1875
793.89938	46722.0875
797.76935	46324.2875
801.6366	46226.4875
805.50115	45998.3875
809.36299	45633.6875
813.22213	45375.6875
817.07857	45346.8875
820.93231	45278.4875
824.78336	45203.1875
828.63172	45362.1875
832.47738	45505.0875
836.32036	45754.5875
840.16066	46088.4875
843.99827	46254.4875
847.8332	46183.6875
851.66546	45777.0875
855.49504	45600.5875
859.32195	45443.0875
863.1462	45176.6875
866.96777	44832.3875
870.78668	44680.2875
874.60293	44633.7875
878.41652	44644.6875
882.22745	44906.4875
886.03573	45073.7875
889.84136	44997.8875
893.64433	44758.7875
897.44466	44522.2875
901.24235	44429.5875
905.0374	44399.9875
908.8298	44358.2875
912.61957	44449.5875
916.40671	44931.3875
920.19121	45670.2875
923.97308	46543.6875
927.75233	47133.8875
931.52895	47154.7875
935.30295	46513.2875
939.07433	45486.6875
942.84309	44715.5875
946.60924	44419.0875
950.37278	44235.1875
954.13371	43799.1875
957.89203	43422.1875
961.64774	43197.7875
965.40086	43033.6875
969.15137	42855.1875
972.89929	42729.2875
976.64461	42764.1875
980.38733	42920.9875
984.12747	43180.5875
987.86502	43803.5875
991.59999	44655.3875
995.33237	45958.4875
999.06217	48094.3875
1002.78939	50458.5875
1006.51404	51980.4875
1010.23611	52613.8875
1013.95561	53032.1875
1017.67255	52780.2875
1021.38692	52013.2875
1025.09872	51718.5875
1028.80796	53005.9875
1032.51465	55804.2875
1036.21877	58269.8875
1039.92035	58492.7875
1043.61937	57001.2875
1047.31584	54368.3875
1051.00976	51606.0875
1054.70114	49912.8875
1058.38998	49377.8875
1062.07627	49381.8875
1065.76003	49632.9875
1069.44126	50217.6875
1073.11995	51337.6875
1076.79611	52404.5875
1080.46974	52956.8875
1084.14085	53068.9875
1087.80943	53246.8875
1091.47549	52912.5875
1095.13903	52102.9875
1098.80005	50869.0875
1102.45857	49667.2875
1106.11456	49072.7875
1109.76805	49111.3875
1113.41903	49521.5875
1117.06751	50018.4875
1120.71348	50612.3875
1124.35696	51242.4875
1127.99793	51931.5875
1131.63641	52153.8875
1135.2724	51580.7875
1138.90589	50938.4875
1142.5369	50390.5875
1146.16542	49969.7875
1149.79145	49811.7875
1153.415	50072.0875
1157.03607	50658.0875
1160.65467	51648.7875
1164.27079	53506.5875
1167.88443	56289.5875
1171.49561	60273.6875
1175.10432	65761.7875
1178.71056	72913.2875
1182.31434	79371.7875
1185.91565	82509.8875
1189.51451	81914.0875
1193.11091	78236.7875
1196.70485	73259.9875
1200.29634	69300.7875
1203.88538	66289.1875
1207.47197	63965.8875
1211.05612	62180.2875
1214.63782	61266.0875
1218.21708	61241.1875
1221.79391	61706.3875
1225.36829	62179.3875
1228.94024	61808.0875
1232.50976	60653.9875
1236.07685	59629.4875
1239.6415	59096.8875
1243.20374	58994.9875
1246.76355	59250.9875
1250.32093	60207.4875
1253.8759	61842.8875
1257.42845	63878.9875
1260.97859	65839.5875
1264.52631	67431.5875
1268.07163	69126.8875
1271.61453	71323.4875
1275.15503	73821.3875
1278.69312	76414.1875
1282.22882	78599.4875
1285.76211	80499.1875
1289.29301	82290.6875
1292.82151	84409.6875
1296.34761	87219.8875
1299.87133	91448.1875
1303.39266	97358.3875
1306.9116	104970.1875
1310.42815	112999.7875
1313.94233	118100.7875
1317.45412	117974.4875
1320.96354	114107.6875
1324.47058	108938.0875
1327.97525	104494.9875
1331.47754	101396.4875
1334.97747	100172.9875
1338.47502	99980.6875
1341.97022	100013.6875
1345.46305	99317.3875
1348.95352	98554.4875
1352.44163	98914.7875
1355.92738	102370.5875
1359.41078	109736.9875
1362.89183	117120.9875
1366.37053	116182.4875
1369.84688	105524.2875
1373.32088	92670.0875
1376.79254	83652.1875
1380.26186	79279.8875
1383.72883	77684.4875
1387.19347	76564.6875
1390.65578	75157.9875
1394.11575	74439.6875
1397.57339	74861.3875
1401.0287	76459.7875
1404.48168	78083.9875
1407.93234	79511.7875
1411.38068	80173.6875
1414.82669	79508.4875
1418.27039	77240.6875
1421.71177	74215.7875
1425.15083	71532.2875
1428.58758	70002.1875
1432.02203	70020.1875
1435.45416	70950.2875
1438.88399	72164.4875
1442.31151	73055.7875
1445.73673	73916.6875
1449.15965	74634.0875
1452.58027	74809.5875
1455.9986	74367.9875
1459.41463	74175.1875
1462.82837	74865.3875
1466.23982	76411.9875
1469.64898	78027.3875
1473.05586	79054.2875
1476.46045	79731.8875
1479.86276	80274.9875
1483.26279	80607.7875
1486.66054	81108.2875
1490.05602	81939.5875
1493.44922	83171.4875
1496.84016	84108.6875
1500.22882	85381.4875
1503.61521	87743.9875
1506.99934	91126.3875
1510.38121	94901.0875
1513.76081	96915.9875
1517.13816	95473.8875
1520.51324	90600.1875
1523.88607	85449.8875
1527.25665	81821.1875
1530.62498	79714.7875
1533.99105	78456.5875
1537.35488	77498.4875
1540.71647	76793.4875
1544.07581	75977.6875
1547.4329	74893.2875
1550.78776	73709.9875
1554.14038	72781.4875
1557.49077	72317.9875
1560.83892	72165.3875
1564.18484	72181.9875
1567.52853	72321.8875
1570.86999	72838.9875
1574.20922	73990.5875
1577.54624	75253.5875
1580.88103	75871.3875
1584.2136	76033.8875
1587.54395	77449.3875
1590.87208	80779.1875
1594.19801	86360.1875
1597.52172	92333.0875
1600.84321	94817.8875
1604.16251	90977.6875
1607.47959	83183.7875
1610.79447	74835.4875
1614.10715	67638.9875
1617.41763	62319.5875
1620.7259	58992.4875
1624.03199	57544.7875
1627.33587	57920.8875
1630.63757	59890.9875
1633.93707	63683.8875
1637.23439	68901.9875
1640.52951	75598.0875
1643.82246	82804.0875
1647.11321	88364.4875
1650.40179	89376.4875
1653.68819	84141.7875
1656.97241	74073.1875
1660.25446	63639.3875
1663.53433	56063.0875
1666.81203	51216.9875
1670.08756	48247.5875
1673.36092	46452.1875
1676.63211	45250.8875
1679.90115	44357.6875
1683.16801	43696.3875
1686.43272	43274.5875
1689.69527	42985.7875
1692.95567	42777.2875
1696.2139	42625.9875
1699.46999	42510.6875
1702.72392	42392.1875
1705.97571	42366.9875
1709.22535	42319.1875
1712.47284	42331.3875
1715.71819	42232.6875
1718.96139	42175.0875
1722.20246	41991.1875
1725.44139	41883.2875
1728.67818	41637.3875
1731.91284	41385.5875
1735.14537	41178.2875
1738.37576	41043.8875
1741.60403	40891.5875
1744.83017	40759.8875
1748.05418	40636.1875
1751.27607	40593.8875
1754.49584	40537.0875
1757.71349	40470.5875
1760.92903	40460.2875
1764.14244	40428.1875
1767.35375	40408.2875
1770.56294	40349.5875
1773.77002	40334.2875
1776.97499	40350.3875
1780.17785	40273.5875
1783.37861	40268.4875
1786.57727	40220.7875
1789.77382	40183.1875
1792.96828	40081.0875
1796.16064	40083.7875
1799.3509	39989.2875
1802.53907	40007.6875
1805.72514	39890.4875
1808.90913	39821.0875
1812.09102	39712.0875
1815.27083	39639.8875
1818.44856	39600.0875
1821.6242	39547.8875
1824.79776	39522.7875
1827.96924	39555.8875
1831.13864	39470.7875
1834.30597	39526.3875
1837.47122	39530.7875
1840.6344	39515.8875
1843.7955	39541.0875
1846.95454	39491.3875
1850.11151	39522.7875
1853.26642	39492.2875
1856.41926	39513.3875
1859.57004	39469.9875
1862.71876	39448.3875
1865.86542	39504.6875
1869.01003	39451.4875
1872.15258	39543.8875
1875.29308	39504.0875
1878.43152	39508.2875
1881.56792	39538.7875
1884.70227	39634.2875
1887.83457	39640.8875
1890.96482	39591.4875
1894.09304	39577.7875
1897.21921	39596.4875
1900.34335	39561.0875
1903.46544	39603.7875
1906.58551	39590.2875
1909.70353	39618.2875
1912.81953	39623.8875
1915.93349	39543.4875
1919.04543	39429.8875
1922.15534	39450.3875
1925.26322	39355.0875
1928.36908	39208.7875
1931.47292	39073.0875
1934.57473	38997.7875
1937.67453	38892.4875
1940.77232	38761.4875
1943.86808	38604.4875
1946.96184	38445.6875
1950.05358	38341.3875
1953.14331	38145.2875
1956.23103	38082.0875
1959.31675	37972.0875
1962.40046	37906.0875
1965.48217	37784.8875
1968.56188	37733.8875
1971.63959	37585.6875
1974.7153	37478.2875
1977.78901	37394.8875
1980.86073	37251.9875
1983.93046	37199.3875
1986.99819	36992.4875
1990.06394	36863.9875
1993.1277	36813.6875
1996.18947	36646.4875
1999.24925	36564.9875
2002.30706	36501.2875
2005.36288	36397.0875
2008.41672	36332.0875
2011.46859	36226.0875
2014.51848	36123.9875
2017.56639	36061.0875
2020.61233	35980.0875
2023.6563	35909.5875
2026.6983	35825.9875
2029.73833	35798.2875
2032.7764	35756.0875
2035.8125	35737.9875
2038.84664	35657.7875
2041.87881	35691.1875
2044.90903	35586.8875
2047.93729	35514.8875
2050.96359	35558.6875
2053.98794	35435.4875
2057.01034	35462.5875
2060.03078	35399.7875
2063.04927	35369.7875
2066.06582	35326.5875
2069.08042	35361.4875
2072.09307	35300.0875
2075.10378	35230.1875
2078.11255	35151.8875
2081.11938	35181.5875
2084.12426	35095.8875
2087.12722	35070.3875
2090.12824	35052.5875
2093.12732	35047.7875
2096.12447	35078.2875
2099.11969	35008.1875
2102.11299	35081.8875
2105.10435	35069.6875
2108.09379	35061.5875
2111.08131	35152.2875
2114.0669	35100.7875
2117.05057	35127.0875
2120.03233	35138.3875
2123.01216	35143.1875
2125.99008	35216.4875
2128.96609	35194.8875
2131.94018	35246.8875
2134.91236	35247.0875
2137.88263	35265.3875
2140.851	35261.6875
2143.81746	35347.2875
2146.78201	35352.2875
2149.74466	35375.4875
2152.7054	35373.4875
2155.66425	35366.6875
2158.6212	35356.7875
2161.57625	35385.2875
2164.52941	35358.3875
2167.48067	35354.7875
2170.43004	35322.7875
2173.37752	35292.7875
2176.32311	35322.1875
2179.26681	35284.2875
2182.20863	35316.5875
2185.14856	35407.2875
2188.08661	35410.2875
2191.02278	35443.0875
2193.95707	35380.4875
2196.88948	35419.9875
2199.82001	35517.2875
2202.74867	35457.7875
2205.67545	35489.9875
2208.60037	35459.3875
2211.52341	35445.0875
2214.44458	35418.2875
2217.36388	35420.7875
2220.28132	35370.5875
2223.1969	35330.7875
2226.11061	35336.7875
2229.02246	35199.1875
2231.93245	35163.1875
2234.84058	35063.0875
2237.74686	35002.0875
2240.65128	35002.6875
2243.55385	34917.2875
2246.45456	34849.1875
2249.35343	34824.3875
2252.25044	34744.1875
2255.14561	34682.0875
2258.03893	34687.4875
2260.93041	34661.9875
2263.82004	34552.1875
2266.70783	34514.3875
2269.59378	34353.9875
2272.4779	34298.5875
2275.36017	34230.9875
2278.24061	34151.7875
2281.11922	34092.9875
2283.996	34033.6875
2286.87094	34060.9875
2289.74405	33975.0875
2292.61534	33960.6875
2295.4848	33959.8875
2298.35243	34003.1875
2301.21824	34031.6875
2304.08223	34103.3875
2306.94439	34118.6875
2309.80474	34136.3875
2312.66327	34160.4875
2315.51999	34233.9875
2318.37489	34214.2875
2321.22797	34204.0875
2324.07925	34238.8875
2326.92871	34196.6875
2329.77637	34183.2875
2332.62222	34169.4875
2335.46626	34207.0875
2338.3085	34234.1875
2341.14893	34289.4875
2343.98756	34341.3875
2346.8244	34385.1875
2349.65943	34328.9875
2352.49267	34299.2875
2355.32411	34304.6875
2358.15376	34230.0875
2360.98161	34144.0875
2363.80768	34130.6875
2366.63195	34078.5875
2369.45444	34038.1875
2372.27514	33908.8875
2375.09405	33795.4875
2377.91118	33686.4875
2380.72652	33642.2875
2383.54009	33586.3875
2386.35187	33525.2875
2389.16188	33488.6875
2391.97011	33498.2875
2394.77657	33447.0875
2397.58125	33419.2875
2400.38416	33347.2875
2403.18529	33276.3875
2405.98466	33184.9875
2408.78226	33066.6875
2411.57809	33009.9875
2414.37216	32947.2875
2417.16446	32905.9875
2419.955	32814.1875
2422.74378	32749.9875
2425.5308	32737.4875
2428.31606	32698.7875
2431.09956	32680.9875
2433.88131	32636.2875
2436.6613	32630.1875
2439.43954	32619.5875
2442.21603	32645.8875
2444.99077	32578.2875
2447.76377	32594.9875
2450.53501	32542.0875
2453.30451	32568.2875
2456.07226	32565.4875
2458.83827	32556.9875
2461.60254	32536.5875
2464.36507	32579.8875
2467.12586	32606.0875
2469.88492	32561.0875
2472.64224	32604.6875
2475.39782	32649.5875
2478.15167	32705.8875
2480.90379	32679.7875
2483.65417	32688.4875
2486.40283	32781.9875
2489.14976	32817.2875
2491.89497	32772.7875
2494.63845	32847.0875
2497.3802	32843.2875
2500.12024	32856.8875
2502.85855	32841.7875
2505.59514	32849.9875
2508.33002	32758.5875
2511.06318	32720.4875
2513.79462	32677.6875
2516.52435	32631.2875
2519.25237	32577.4875
2521.97867	32527.5875
2524.70327	32557.6875
2527.42616	32562.5875
2530.14734	32570.8875
2532.86681	32527.1875
2535.58458	32504.5875
2538.30065	32445.0875
2541.01501	32487.4875
2543.72768	32468.9875
2546.43864	32429.3875
2549.14791	32448.1875
2551.85548	32446.7875
2554.56136	32421.0875
2557.26554	32342.4875
2559.96803	32288.8875
2562.66883	32296.5875
2565.36794	32297.9875
2568.06536	32323.3875
2570.7611	32265.3875
2573.45514	32332.2875
2576.14751	32325.6875
2578.83819	32323.6875
2581.52719	32281.0875
2584.21451	32230.4875
2586.90015	32252.5875
2589.58411	32239.3875
2592.2664	32219.0875
2594.94701	32211.8875
2597.62594	32239.3875
2600.30321	32193.4875
2602.9788	32202.6875
2605.65273	32196.5875
2608.32498	32176.5875
2610.99557	32158.1875
2613.66449	32213.7875
2616.33175	32214.2875
2618.99734	32236.5875
2621.66128	32230.1875
2624.32355	32245.5875
2626.98416	32293.2875
2629.64311	32351.1875
2632.30041	32372.5875
2634.95605	32310.6875
2637.61004	32239.1875
2640.26238	32222.8875
2642.91306	32147.5875
2645.56209	32077.5875
2648.20948	32015.0875
2650.85521	32046.9875
2653.4993	31996.0875
2656.14175	32038.7875
2658.78255	32025.6875
2661.42171	32011.5875
2664.05923	32064.2875
2666.6951	32073.7875
2669.32934	32113.4875
2671.96194	32146.8875
2674.59291	32114.5875
2677.22224	32133.6875
2679.84993	32082.5875
2682.476	32069.0875
2685.10043	32012.6875
2687.72324	31979.1875
2690.34441	31963.8875
2692.96396	31910.4875
2695.58188	31956.7875
2698.19818	31905.9875
2700.81285	31855.9875
2703.4259	31840.1875
2706.03733	31881.3875
2708.64714	31848.1875
2711.25533	31887.0875
2713.86191	31830.3875
2716.46687	31890.0875
2719.07021	31857.5875
2721.67194	31844.5875
2724.27206	31851.3875
2726.87057	31876.0875
2729.46747	31883.2875
2732.06276	31931.5875
2734.65644	31950.1875
2737.24852	31929.7875
2739.83899	31882.0875
2742.42786	31903.5875
2745.01513	31836.0875
2747.60079	31873.2875
2750.18486	31841.4875
2752.76733	31884.3875
2755.3482	31885.6875
2757.92747	31913.8875
2760.50515	31813.3875
2763.08123	31868.6875
2765.65573	31840.4875
2768.22863	31845.0875
2770.79994	31782.4875
2773.36967	31786.0875
2775.9378	31722.4875
2778.50435	31686.0875
2781.06932	31725.9875
2783.6327	31729.5875
2786.1945	31747.6875
2788.75471	31688.1875
2791.31335	31659.1875
2793.87041	31574.5875
2796.42589	31507.5875
2798.97979	31471.3875
2801.53212	31373.0875
2804.08288	31400.3875
2806.63206	31282.9875
2809.17967	31253.8875
2811.72571	31197.8875
2814.27018	31169.4875
2816.81308	31192.2875
2819.35442	31197.5875
2821.89419	31191.0875
2824.43239	31161.1875
2826.96904	31163.8875
2829.50412	31180.9875
2832.03763	31109.3875
2834.56959	31100.3875
2837.1	31088.5875
2839.62884	31038.7875
2842.15613	30985.9875
2844.68186	31031.0875
2847.20604	30975.8875
2849.72867	30936.4875
2852.24974	30930.7875
2854.76927	30909.0875
2857.28724	30858.6875
2859.80367	30847.6875
2862.31855	30839.5875
2864.83189	30826.2875
2867.34368	30811.7875
2869.85393	30789.9875
2872.36264	30697.6875
2874.8698	30720.7875
2877.37543	30791.8875
2879.87952	30834.8875
2882.38207	30807.4875
2884.88308	30799.1875
2887.38256	30876.9875
2889.88051	30837.5875
2892.37692	30863.3875
2894.8718	30866.8875
2897.36515	30873.4875
2899.85698	30878.2875
2902.34727	30950.5875
2904.83604	30946.9875
2907.32328	31012.5875
2909.809	30986.5875
2912.29319	31043.3875
2914.77587	31018.7875
2917.25702	30987.4875
2919.73665	30966.1875
2922.21476	30953.9875
2924.69136	30886.7875
2927.16644	30873.1875
2929.64	30840.0875
2932.11205	30769.9875
2934.58258	30635.2875
2937.05161	30738.4875
2939.51912	30756.4875
2941.98513	30723.4875
2944.44962	30603.1875
2946.91261	30526.9875
2949.37409	30553.2875
2951.83407	30521.5875
2954.29254	30532.0875
2956.74951	30488.6875
2959.20498	30468.9875
2961.65895	30418.4875
2964.11142	30376.3875
2966.56239	30298.0875
2969.01186	30249.9875
2971.45984	30177.1875
2973.90632	30053.3875
2976.35131	29998.1875
2978.7948	29939.4875
2981.23681	29889.7875
2983.67732	29824.3875
2986.11635	29759.7875
2988.55388	29704.2875
2990.98993	29655.0875
2993.4245	29606.4875
2995.85758	29483.3875
2998.28917	29418.8875
3000.71928	29392.0875
3003.14791	29290.7875
3005.57506	29242.7875
3008.00073	29214.6875
3010.42493	29176.1875
3012.84764	29181.7875
3015.26888	29155.8875
3017.68865	29069.6875
3020.10694	29075.4875
