Data from AgNP_FTO_APTES_CRN_100uM_R6G_10uM_NaF_0.1M_Addition_RamanShift__9__18-41-58-117.txt Node

Date: Wed Dec 15 18:41:58 GMT 2021
User: TCL
Spectrometer: QEP01345
Trigger mode: 4
Integration Time (sec): 7.000000E0
Scans to average: 10
Electric dark correction enabled: true
Nonlinearity correction enabled: false
Boxcar width: 0
XAxis mode: Raman Shifts
Number of Pixels in Spectrum: 1044
>>>>>Begin Spectral Data<<<<<
46.04893	1.975
50.45542	-1.925
54.85868	-0.925
59.25871	-0.825
63.6555	53.875
68.04907	56.275
72.43941	59.775
76.82654	66.175
81.21044	65.975
85.59113	71.275
89.96862	72.175
94.34289	70.375
98.71396	77.275
103.08183	80.575
107.4465	86.775
111.80798	83.575
116.16626	84.775
120.52136	91.075
124.87327	89.775
129.222	92.675
133.56755	95.275
137.90993	105.575
142.24913	112.975
146.58517	119.475
150.91804	139.475
155.24774	165.775
159.57429	200.175
163.89768	253.275
168.21792	329.075
172.53501	449.275
176.84895	618.475
181.15975	867.875
185.46741	1207.875
189.77193	1671.175
194.07331	2216.175
198.37157	2868.675
202.6667	3542.075
206.9587	4210.775
211.24758	4875.475
215.53334	5543.075
219.81599	6207.675
224.09553	6967.175
228.37195	7782.975
232.64527	8708.275
236.91549	9661.475
241.18261	10671.875
245.44663	11639.575
249.70755	12511.675
253.96539	13281.175
258.22014	13953.575
262.4718	14429.875
266.72039	14754.475
270.96589	14962.375
275.20832	14991.475
279.44768	14891.675
283.68397	14804.075
287.91719	14698.375
292.14735	14658.175
296.37445	14575.875
300.59849	14587.575
304.81948	14576.175
309.03742	14511.675
313.25231	14377.975
317.46415	14164.475
321.67296	13870.975
325.87872	13623.675
330.08145	13481.275
334.28114	13447.875
338.47781	13544.175
342.67145	13673.075
346.86207	13864.675
351.04966	14094.175
355.23424	14256.875
359.4158	14434.675
363.59435	14553.675
367.76989	14601.575
371.94243	14657.375
376.11196	14694.275
380.27849	14717.275
384.44203	14783.475
388.60257	14877.675
392.76012	15067.875
396.91468	15249.975
401.06626	15471.175
405.21485	15650.575
409.36047	15637.475
413.50311	15513.475
417.64277	15434.375
421.77947	15445.775
425.9132	15497.975
430.04396	15554.975
434.17176	15628.175
438.2966	15684.975
442.41849	15816.775
446.53742	16026.475
450.6534	16282.075
454.76644	16526.275
458.87653	16603.275
462.98368	16639.975
467.08789	16586.475
471.18916	16527.875
475.2875	16451.675
479.38291	16455.275
483.4754	16355.575
487.56496	16180.875
491.6516	16011.075
495.73531	15856.575
499.81612	15785.475
503.89401	15879.275
507.96899	15966.375
512.04106	16027.275
516.11023	16001.875
520.1765	15950.475
524.23987	15825.675
528.30034	15724.875
532.35792	15582.075
536.41261	15442.375
540.46441	15341.075
544.51333	15363.575
548.55936	15532.875
552.60252	15785.175
556.64279	16049.275
560.6802	16196.475
564.71473	16318.675
568.7464	16459.875
572.7752	16805.375
576.80114	17197.475
580.82422	17645.075
584.84444	18059.075
588.86181	18400.075
592.87633	18527.475
596.888	18360.175
600.89682	17951.575
604.9028	17919.175
608.90594	18542.975
612.90624	19277.275
616.90371	18343.375
620.89834	16401.075
624.89015	15521.775
628.87913	15439.975
632.86528	15616.475
636.84862	15634.875
640.82913	15536.475
644.80683	15314.375
648.78172	15159.575
652.75379	15117.575
656.72306	15190.375
660.68952	15285.275
664.65319	15281.475
668.61405	15189.375
672.57211	15162.875
676.52738	15179.275
680.47986	15226.675
684.42955	15177.475
688.37646	15161.475
692.32058	15172.175
696.26192	15245.775
700.20048	15397.875
704.13626	15537.875
708.06928	15640.075
711.99952	15687.475
715.927	15648.275
719.85171	15600.875
723.77365	15473.375
727.69284	15324.775
731.60928	15166.275
735.52295	15115.275
739.43388	15092.975
743.34206	15111.975
747.24749	15193.975
751.15017	15300.575
755.05012	15491.175
758.94733	15794.375
762.8418	16376.175
766.73354	17256.475
770.62254	18045.675
774.50882	18165.075
778.39237	17466.475
782.27321	16579.975
786.15132	15843.575
790.02671	15411.775
793.89938	15161.275
797.76935	15044.575
801.6366	15029.475
805.50115	14992.375
809.36299	14980.775
813.22213	14909.075
817.07857	14903.475
820.93231	14852.175
824.78336	14824.875
828.63172	14816.875
832.47738	14782.675
836.32036	14830.575
840.16066	14826.675
843.99827	14800.175
847.8332	14776.175
851.66546	14719.175
855.49504	14721.075
859.32195	14697.275
863.1462	14714.775
866.96777	14667.575
870.78668	14693.275
874.60293	14709.075
878.41652	14708.675
882.22745	14750.275
886.03573	14795.175
889.84136	14796.275
893.64433	14780.275
897.44466	14770.275
901.24235	14726.475
905.0374	14703.775
908.8298	14699.275
912.61957	14699.675
916.40671	14814.675
920.19121	14954.675
923.97308	15036.975
927.75233	14999.375
931.52895	14908.075
935.30295	14745.675
939.07433	14564.575
942.84309	14370.875
946.60924	14303.375
950.37278	14270.975
954.13371	14229.675
957.89203	14200.675
961.64774	14222.275
965.40086	14188.175
969.15137	14139.275
972.89929	14076.475
976.64461	14043.775
980.38733	14012.775
984.12747	14052.175
987.86502	14096.375
991.59999	14110.475
995.33237	14170.175
999.06217	14281.875
1002.78939	14450.775
1006.51404	14635.675
1010.23611	14806.475
1013.95561	14951.575
1017.67255	14955.775
1021.38692	14886.075
1025.09872	14706.975
1028.80796	14594.275
1032.51465	14542.275
1036.21877	14626.875
1039.92035	14684.575
1043.61937	14774.575
1047.31584	14872.975
1051.00976	14968.175
1054.70114	15114.975
1058.38998	15336.175
1062.07627	15639.875
1065.76003	16098.975
1069.44126	16541.975
1073.11995	16922.275
1076.79611	17027.975
1080.46974	16844.275
1084.14085	16487.675
1087.80943	16226.375
1091.47549	16146.475
1095.13903	16068.875
1098.80005	15845.275
1102.45857	15555.775
1106.11456	15285.375
1109.76805	15076.875
1113.41903	15051.975
1117.06751	15107.075
1120.71348	15208.675
1124.35696	15369.675
1127.99793	15548.475
1131.63641	15709.675
1135.2724	15655.975
1138.90589	15549.675
1142.5369	15538.375
1146.16542	15555.175
1149.79145	15639.075
1153.415	15763.375
1157.03607	15868.075
1160.65467	16163.575
1164.27079	16624.975
1167.88443	17249.575
1171.49561	17980.575
1175.10432	18915.475
1178.71056	20033.275
1182.31434	21087.175
1185.91565	21578.975
1189.51451	21503.575
1193.11091	21135.575
1196.70485	20527.875
1200.29634	19817.775
1203.88538	19285.375
1207.47197	19016.475
1211.05612	18791.175
1214.63782	18485.275
1218.21708	18072.675
1221.79391	17650.575
1225.36829	17307.875
1228.94024	17166.575
1232.50976	17050.875
1236.07685	16969.375
1239.6415	16950.175
1243.20374	16949.275
1246.76355	17057.675
1250.32093	17200.475
1253.8759	17467.075
1257.42845	17853.575
1260.97859	18175.275
1264.52631	18544.075
1268.07163	18857.375
1271.61453	19194.475
1275.15503	19586.275
1278.69312	19942.175
1282.22882	20338.175
1285.76211	20835.275
1289.29301	21519.675
1292.82151	22179.675
1296.34761	23018.275
1299.87133	23960.775
1303.39266	24902.275
1306.9116	25691.375
1310.42815	26341.875
1313.94233	26688.175
1317.45412	26709.275
1320.96354	26464.275
1324.47058	26352.575
1327.97525	26207.475
1331.47754	26252.175
1334.97747	26240.775
1338.47502	26255.675
1341.97022	26316.775
1345.46305	26275.375
1348.95352	26205.675
1352.44163	26181.875
1355.92738	26354.175
1359.41078	26872.775
1362.89183	27348.975
1366.37053	26972.375
1369.84688	25434.775
1373.32088	23488.175
1376.79254	22000.575
1380.26186	21321.475
1383.72883	21128.275
1387.19347	20947.975
1390.65578	20770.175
1394.11575	20621.075
1397.57339	20614.975
1401.0287	20695.675
1404.48168	20734.375
1407.93234	20602.775
1411.38068	20220.875
1414.82669	19658.375
1418.27039	18988.175
1421.71177	18373.075
1425.15083	17898.575
1428.58758	17643.675
1432.02203	17710.975
1435.45416	17971.575
1438.88399	18280.275
1442.31151	18564.775
1445.73673	18723.875
1449.15965	18909.275
1452.58027	19052.675
1455.9986	19215.175
1459.41463	19337.275
1462.82837	19649.975
1466.23982	19983.475
1469.64898	20220.275
1473.05586	20437.475
1476.46045	20528.975
1479.86276	20519.075
1483.26279	20482.775
1486.66054	20512.075
1490.05602	20715.575
1493.44922	20972.875
1496.84016	21377.975
1500.22882	21983.075
1503.61521	22680.375
1506.99934	23442.775
1510.38121	23902.575
1513.76081	23920.375
1517.13816	23504.775
1520.51324	22830.175
1523.88607	22303.275
1527.25665	22060.375
1530.62498	21887.775
1533.99105	21720.975
1537.35488	21454.875
1540.71647	21020.375
1544.07581	20534.275
1547.4329	20062.875
1550.78776	19661.175
1554.14038	19403.175
1557.49077	19274.075
1560.83892	19235.775
1564.18484	19344.975
1567.52853	19621.975
1570.86999	20056.175
1574.20922	20677.475
1577.54624	21283.775
1580.88103	21608.475
1584.2136	21544.075
1587.54395	21368.375
1590.87208	21255.575
1594.19801	21508.575
1597.52172	22051.475
1600.84321	22171.175
1604.16251	21554.275
1607.47959	20465.775
1610.79447	19271.475
1614.10715	18137.475
1617.41763	17155.675
1620.7259	16419.175
1624.03199	15986.575
1627.33587	15904.175
1630.63757	16133.375
1633.93707	16724.875
1637.23439	17800.975
1640.52951	19461.075
1643.82246	21426.775
1647.11321	23201.475
1650.40179	23843.775
1653.68819	22857.475
1656.97241	20787.675
1660.25446	18543.375
1663.53433	16755.375
1666.81203	15468.275
1670.08756	14619.875
1673.36092	14065.475
1676.63211	13759.675
1679.90115	13500.975
1683.16801	13297.675
1686.43272	13169.575
1689.69527	13052.875
1692.95567	12985.175
1696.2139	12967.575
1699.46999	12938.075
1702.72392	12866.075
1705.97571	12832.975
1709.22535	12777.975
1712.47284	12776.875
1715.71819	12734.575
1718.96139	12698.475
1722.20246	12657.675
1725.44139	12658.475
1728.67818	12579.275
1731.91284	12518.175
1735.14537	12446.575
1738.37576	12431.275
1741.60403	12383.775
1744.83017	12327.175
1748.05418	12363.275
1751.27607	12350.575
1754.49584	12303.575
1757.71349	12316.575
1760.92903	12299.075
1764.14244	12307.975
1767.35375	12286.175
1770.56294	12274.775
1773.77002	12237.475
1776.97499	12216.675
1780.17785	12160.575
1783.37861	12169.775
1786.57727	12140.075
1789.77382	12073.775
1792.96828	12075.675
1796.16064	12033.975
1799.3509	12042.175
1802.53907	11996.275
1805.72514	11973.575
1808.90913	11902.775
1812.09102	11880.675
1815.27083	11903.375
1818.44856	11858.775
1821.6242	11849.275
1824.79776	11859.675
1827.96924	11803.575
1831.13864	11848.575
1834.30597	11843.675
1837.47122	11840.475
1840.6344	11821.375
1843.7955	11823.375
1846.95454	11801.875
1850.11151	11772.075
1853.26642	11782.975
1856.41926	11792.975
1859.57004	11743.575
1862.71876	11755.075
1865.86542	11718.175
1869.01003	11711.275
1872.15258	11712.075
1875.29308	11682.275
1878.43152	11660.375
1881.56792	11640.775
1884.70227	11627.475
1887.83457	11597.075
1890.96482	11577.375
1894.09304	11561.475
1897.21921	11575.475
1900.34335	11543.775
1903.46544	11522.175
1906.58551	11508.075
1909.70353	11494.275
1912.81953	11452.575
1915.93349	11452.475
1919.04543	11428.675
1922.15534	11387.575
1925.26322	11389.475
1928.36908	11373.475
1931.47292	11326.375
1934.57473	11303.875
1937.67453	11278.175
1940.77232	11258.575
1943.86808	11232.075
1946.96184	11202.975
1950.05358	11158.175
1953.14331	11145.675
1956.23103	11128.075
1959.31675	11114.675
1962.40046	11043.775
1965.48217	11021.175
1968.56188	11008.375
1971.63959	10974.775
1974.7153	10900.875
1977.78901	10888.975
1980.86073	10846.775
1983.93046	10829.275
1986.99819	10788.275
1990.06394	10746.575
1993.1277	10751.775
1996.18947	10681.175
1999.24925	10640.275
2002.30706	10617.475
2005.36288	10592.475
2008.41672	10580.875
2011.46859	10517.875
2014.51848	10509.975
2017.56639	10499.275
2020.61233	10476.475
2023.6563	10438.075
2026.6983	10413.575
2029.73833	10398.275
2032.7764	10370.875
2035.8125	10344.175
2038.84664	10281.975
2041.87881	10290.475
2044.90903	10253.075
2047.93729	10248.775
2050.96359	10235.775
2053.98794	10227.775
2057.01034	10212.075
2060.03078	10185.375
2063.04927	10186.675
2066.06582	10187.675
2069.08042	10163.075
2072.09307	10169.775
2075.10378	10134.675
2078.11255	10150.875
2081.11938	10146.175
2084.12426	10168.975
2087.12722	10146.275
2090.12824	10144.975
2093.12732	10145.375
2096.12447	10151.475
2099.11969	10125.775
2102.11299	10121.975
2105.10435	10143.775
2108.09379	10154.875
2111.08131	10169.175
2114.0669	10158.675
2117.05057	10166.275
2120.03233	10156.375
2123.01216	10171.675
2125.99008	10182.475
2128.96609	10188.675
2131.94018	10177.175
2134.91236	10179.275
2137.88263	10201.175
2140.851	10215.975
2143.81746	10222.075
2146.78201	10199.675
2149.74466	10220.275
2152.7054	10187.675
2155.66425	10217.175
2158.6212	10220.775
2161.57625	10205.475
2164.52941	10195.375
2167.48067	10223.975
2170.43004	10206.575
2173.37752	10184.675
2176.32311	10172.475
2179.26681	10158.675
2182.20863	10186.775
2185.14856	10185.075
2188.08661	10157.075
2191.02278	10177.275
2193.95707	10164.075
2196.88948	10148.475
2199.82001	10120.175
2202.74867	10090.575
2205.67545	10119.475
2208.60037	10107.975
2211.52341	10081.975
2214.44458	10079.375
2217.36388	10031.375
2220.28132	10037.075
2223.1969	10000.875
2226.11061	9970.875
2229.02246	9991.175
2231.93245	9959.575
2234.84058	9944.675
2237.74686	9925.775
2240.65128	9919.975
2243.55385	9904.575
2246.45456	9883.875
2249.35343	9852.375
2252.25044	9877.875
2255.14561	9840.375
2258.03893	9826.175
2260.93041	9801.875
2263.82004	9773.475
2266.70783	9756.175
2269.59378	9746.775
2272.4779	9697.875
2275.36017	9686.475
2278.24061	9662.075
2281.11922	9624.475
2283.996	9618.975
2286.87094	9604.475
2289.74405	9566.775
2292.61534	9576.175
2295.4848	9535.275
2298.35243	9577.275
2301.21824	9565.475
2304.08223	9529.675
2306.94439	9531.775
2309.80474	9514.375
2312.66327	9499.175
2315.51999	9498.375
2318.37489	9503.275
2321.22797	9453.875
2324.07925	9457.475
2326.92871	9428.575
2329.77637	9438.575
2332.62222	9453.675
2335.46626	9419.275
2338.3085	9398.075
2341.14893	9383.875
2343.98756	9368.775
2346.8244	9354.175
2349.65943	9356.075
2352.49267	9355.275
2355.32411	9363.475
2358.15376	9353.775
2360.98161	9351.975
2363.80768	9348.775
2366.63195	9358.375
2369.45444	9321.175
2372.27514	9292.475
2375.09405	9313.675
2377.91118	9299.375
2380.72652	9285.475
2383.54009	9256.375
2386.35187	9254.475
2389.16188	9211.775
2391.97011	9181.375
2394.77657	9140.075
2397.58125	9150.075
2400.38416	9156.175
2403.18529	9126.375
2405.98466	9111.975
2408.78226	9094.575
2411.57809	9084.575
2414.37216	9083.075
2417.16446	9074.975
2419.955	9058.275
2422.74378	9080.375
2425.5308	9035.175
2428.31606	9023.675
2431.09956	9018.575
2433.88131	9010.675
2436.6613	8993.975
2439.43954	9016.575
2442.21603	8969.575
2444.99077	8952.875
2447.76377	8957.875
2450.53501	8943.575
2453.30451	8939.475
2456.07226	8939.475
2458.83827	8921.575
2461.60254	8923.875
2464.36507	8884.675
2467.12586	8899.975
2469.88492	8912.775
2472.64224	8898.075
2475.39782	8893.575
2478.15167	8883.875
2480.90379	8895.675
2483.65417	8876.675
2486.40283	8874.375
2489.14976	8872.075
2491.89497	8867.275
2494.63845	8864.675
2497.3802	8852.375
2500.12024	8846.475
2502.85855	8843.375
2505.59514	8819.375
2508.33002	8818.575
2511.06318	8793.875
2513.79462	8796.275
2516.52435	8786.375
2519.25237	8754.075
2521.97867	8756.175
2524.70327	8756.375
2527.42616	8734.075
2530.14734	8725.875
2532.86681	8731.775
2535.58458	8710.275
2538.30065	8681.875
2541.01501	8687.575
2543.72768	8681.475
2546.43864	8671.575
2549.14791	8639.375
2551.85548	8645.275
2554.56136	8622.275
2557.26554	8589.075
2559.96803	8602.175
2562.66883	8572.175
2565.36794	8568.475
2568.06536	8554.875
2570.7611	8549.075
2573.45514	8554.975
2576.14751	8528.275
2578.83819	8511.975
2581.52719	8511.875
2584.21451	8483.575
2586.90015	8480.475
2589.58411	8461.275
2592.2664	8456.275
2594.94701	8427.875
2597.62594	8412.475
2600.30321	8399.275
2602.9788	8414.275
2605.65273	8371.375
2608.32498	8368.875
2610.99557	8354.575
2613.66449	8339.075
2616.33175	8323.775
2618.99734	8331.175
2621.66128	8321.275
2624.32355	8281.175
2626.98416	8285.775
2629.64311	8306.075
2632.30041	8270.575
2634.95605	8272.875
2637.61004	8268.075
2640.26238	8255.775
2642.91306	8248.675
2645.56209	8250.175
2648.20948	8254.375
2650.85521	8234.175
2653.4993	8245.375
2656.14175	8224.475
2658.78255	8233.875
2661.42171	8234.675
2664.05923	8245.775
2666.6951	8225.075
2669.32934	8238.975
2671.96194	8208.875
2674.59291	8206.975
2677.22224	8217.875
2679.84993	8220.375
2682.476	8223.175
2685.10043	8204.975
2687.72324	8213.875
2690.34441	8213.075
2692.96396	8217.375
2695.58188	8238.075
2698.19818	8190.875
2700.81285	8211.975
2703.4259	8227.675
2706.03733	8258.275
2708.64714	8239.075
2711.25533	8232.475
2713.86191	8224.075
2716.46687	8241.175
2719.07021	8220.875
2721.67194	8228.775
2724.27206	8213.475
2726.87057	8225.475
2729.46747	8238.775
2732.06276	8220.975
2734.65644	8184.675
2737.24852	8224.175
2739.83899	8195.175
2742.42786	8185.875
2745.01513	8166.275
2747.60079	8171.575
2750.18486	8162.675
2752.76733	8152.775
2755.3482	8153.375
2757.92747	8150.775
2760.50515	8149.675
2763.08123	8111.375
2765.65573	8104.275
2768.22863	8073.775
2770.79994	8089.575
2773.36967	8064.375
2775.9378	8084.075
2778.50435	8071.675
2781.06932	8066.675
2783.6327	8053.075
2786.1945	8038.475
2788.75471	8008.075
2791.31335	8011.775
2793.87041	7991.875
2796.42589	7965.475
2798.97979	7990.175
2801.53212	7957.275
2804.08288	7938.675
2806.63206	7931.175
2809.17967	7899.575
2811.72571	7896.075
2814.27018	7889.475
2816.81308	7868.375
2819.35442	7855.975
2821.89419	7849.275
2824.43239	7831.875
2826.96904	7831.875
2829.50412	7821.275
2832.03763	7807.575
2834.56959	7807.975
2837.1	7805.375
2839.62884	7809.875
2842.15613	7804.875
2844.68186	7820.975
2847.20604	7829.975
2849.72867	7834.975
2852.24974	7813.275
2854.76927	7817.475
2857.28724	7821.075
2859.80367	7813.675
2862.31855	7808.075
2864.83189	7799.975
2867.34368	7780.875
2869.85393	7762.875
2872.36264	7757.775
2874.8698	7750.675
2877.37543	7764.475
2879.87952	7752.275
2882.38207	7744.075
2884.88308	7745.375
2887.38256	7744.175
2889.88051	7742.675
2892.37692	7747.975
2894.8718	7738.475
2897.36515	7736.275
2899.85698	7739.275
2902.34727	7745.675
2904.83604	7735.675
2907.32328	7751.375
2909.809	7756.375
2912.29319	7745.175
2914.77587	7738.175
2917.25702	7722.075
2919.73665	7738.875
2922.21476	7738.975
2924.69136	7733.275
2927.16644	7734.075
2929.64	7734.275
2932.11205	7711.375
2934.58258	7721.575
2937.05161	7741.775
2939.51912	7718.475
2941.98513	7696.275
2944.44962	7686.075
2946.91261	7641.475
2949.37409	7650.075
2951.83407	7638.975
2954.29254	7626.675
2956.74951	7609.975
2959.20498	7616.775
2961.65895	7609.675
2964.11142	7603.475
2966.56239	7591.675
2969.01186	7585.275
2971.45984	7541.975
2973.90632	7520.075
2976.35131	7517.975
2978.7948	7483.775
2981.23681	7467.675
2983.67732	7482.775
2986.11635	7455.775
2988.55388	7449.475
2990.98993	7421.275
2993.4245	7402.875
2995.85758	7418.475
2998.28917	7395.975
3000.71928	7365.475
3003.14791	7361.075
3005.57506	7346.075
3008.00073	7326.475
3010.42493	7337.675
3012.84764	7303.375
3015.26888	7283.275
3017.68865	7270.175
3020.10694	7280.875
3022.52376	7251.875
3024.9391	7264.775
3027.35298	7241.075
3029.76539	7248.875
3032.17632	7251.375
3034.5858	7220.475
3036.9938	7223.275
3039.40034	7221.375
3041.80542	7210.275
3044.20903	7168.475
3046.61118	7179.275
3049.01187	7185.075
3051.4111	7160.975
3053.80888	7158.975
3056.20519	7153.175
3058.60005	7115.475
3060.99345	7104.575
3063.3854	7108.575
3065.7759	7088.975
3068.16494	7084.675
3070.55254	7058.475
3072.93868	7052.975
3075.32338	7020.175
3077.70662	7024.675
3080.08842	7007.975
3082.46878	6997.175
3084.84769	6994.275
3087.22515	6986.975
3089.60118	6969.175
3091.97576	6987.175
3094.3489	6987.175
3096.72061	6985.575
3099.09087	7003.175
3101.4597	6965.175
3103.82709	6956.975
3106.19305	6957.475
3108.55757	6952.775
3110.92066	6944.975
3113.28232	6923.075
3115.64255	6921.075
3118.00134	6899.175
3120.35871	6901.975
3122.71466	6888.075
3125.06917	6875.375
3127.42226	6868.575
3129.77393	6885.675
3132.12417	6877.875
3134.47299	6895.675
3136.82039	6886.475
3139.16636	6877.875
3141.51092	6897.175
3143.85406	6909.175
3146.19579	6911.775
3148.53609	6911.275
3150.87499	6905.475
3153.21246	6914.175
3155.54853	6932.875
3157.88318	6913.775
3160.21642	6935.075
3162.54826	6926.175
3164.87868	6936.475
3167.2077	6917.375
3169.5353	6901.775
3171.86151	6911.675
