Data from AgNP_FTO_APTES_CRN_5uM_R6G_10uM_NaF_0.1M_Addition_RamanShift__27__15-57-27-931.txt Node

Date: Wed Dec 15 15:57:27 GMT 2021
User: TCL
Spectrometer: QEP01345
Trigger mode: 4
Integration Time (sec): 7.000000E0
Scans to average: 10
Electric dark correction enabled: true
Nonlinearity correction enabled: false
Boxcar width: 0
XAxis mode: Raman Shifts
Number of Pixels in Spectrum: 1044
>>>>>Begin Spectral Data<<<<<
46.04893	0.3125
50.45542	-1.4875
54.85868	-1.0875
59.25871	-1.0875
63.6555	109.3125
68.04907	117.9125
72.43941	122.0125
76.82654	127.9125
81.21044	134.2125
85.59113	140.3125
89.96862	142.4125
94.34289	144.5125
98.71396	154.4125
103.08183	156.0125
107.4465	161.6125
111.80798	164.6125
116.16626	170.7125
120.52136	178.5125
124.87327	181.8125
129.222	192.7125
133.56755	197.7125
137.90993	217.9125
142.24913	238.0125
146.58517	261.4125
150.91804	297.6125
155.24774	355.9125
159.57429	440.6125
163.89768	557.3125
168.21792	735.7125
172.53501	1003.7125
176.84895	1377.6125
181.15975	1940.8125
185.46741	2711.5125
189.77193	3717.4125
194.07331	4985.6125
198.37157	6422.0125
202.6667	7909.9125
206.9587	9402.0125
211.24758	10857.4125
215.53334	12321.0125
219.81599	13915.9125
224.09553	15651.0125
228.37195	17627.1125
232.64527	19806.1125
236.91549	22053.6125
241.18261	24338.8125
245.44663	26330.4125
249.70755	28108.4125
253.96539	29688.1125
258.22014	31024.5125
262.4718	32165.3125
266.72039	33088.6125
270.96589	33558.7125
275.20832	33672.3125
279.44768	33586.3125
283.68397	33316.0125
287.91719	33075.3125
292.14735	32983.3125
296.37445	33093.7125
300.59849	33403.2125
304.81948	33764.1125
309.03742	33931.8125
313.25231	33698.8125
317.46415	32811.2125
321.67296	31648.6125
325.87872	30718.0125
330.08145	30241.1125
334.28114	30319.5125
338.47781	30653.7125
342.67145	31155.3125
346.86207	31847.1125
351.04966	32783.1125
355.23424	33829.3125
359.4158	34633.0125
363.59435	35198.1125
367.76989	35468.5125
371.94243	35615.2125
376.11196	35654.0125
380.27849	35687.0125
384.44203	35767.7125
388.60257	35811.5125
392.76012	36074.7125
396.91468	36475.0125
401.06626	37198.8125
405.21485	37713.7125
409.36047	37531.4125
413.50311	36772.0125
417.64277	36091.0125
421.77947	35834.0125
425.9132	35852.3125
430.04396	36131.3125
434.17176	36373.6125
438.2966	36806.5125
442.41849	37373.0125
446.53742	38310.5125
450.6534	39364.9125
454.76644	40224.7125
458.87653	40592.0125
462.98368	40377.3125
467.08789	39925.6125
471.18916	39168.3125
475.2875	38395.7125
479.38291	37795.2125
483.4754	37334.9125
487.56496	36901.0125
491.6516	36512.0125
495.73531	36240.5125
499.81612	36233.4125
503.89401	36502.0125
507.96899	36662.5125
512.04106	36781.5125
516.11023	36905.5125
520.1765	36981.4125
524.23987	36980.8125
528.30034	36657.0125
532.35792	36205.4125
536.41261	35659.2125
540.46441	35080.9125
544.51333	34983.9125
548.55936	35336.1125
552.60252	36013.8125
556.64279	36650.0125
560.6802	36954.1125
564.71473	37154.0125
568.7464	37733.9125
572.7752	38409.2125
576.80114	38728.9125
580.82422	38966.0125
584.84444	39201.1125
588.86181	39518.0125
592.87633	40044.3125
596.888	40674.0125
600.89682	41526.8125
604.9028	43885.6125
608.90594	49235.1125
612.90624	54833.7125
616.90371	51614.6125
620.89834	42209.0125
624.89015	38192.9125
628.87913	37692.3125
632.86528	37588.1125
636.84862	37280.3125
640.82913	36614.9125
644.80683	35542.5125
648.78172	34820.6125
652.75379	34878.5125
656.72306	35485.6125
660.68952	36352.8125
664.65319	36209.7125
668.61405	35429.3125
672.57211	35153.6125
676.52738	35042.3125
680.47986	35082.1125
684.42955	34979.4125
688.37646	34959.6125
692.32058	35114.8125
696.26192	35449.0125
700.20048	35791.1125
704.13626	36086.1125
708.06928	35991.3125
711.99952	35690.2125
715.927	35612.7125
719.85171	35600.1125
723.77365	35478.9125
727.69284	35119.3125
731.60928	34864.7125
735.52295	34780.6125
739.43388	34850.0125
743.34206	35000.1125
747.24749	35244.1125
751.15017	35639.5125
755.05012	36281.8125
758.94733	37405.6125
762.8418	39644.3125
766.73354	43200.5125
770.62254	46602.7125
774.50882	47544.9125
778.39237	45186.5125
782.27321	41337.8125
786.15132	38151.4125
790.02671	36321.1125
793.89938	35534.5125
797.76935	35240.6125
801.6366	35133.8125
805.50115	35004.1125
809.36299	34790.8125
813.22213	34591.8125
817.07857	34490.2125
820.93231	34496.6125
824.78336	34472.1125
828.63172	34562.3125
832.47738	34675.4125
836.32036	34808.2125
840.16066	34965.5125
843.99827	35088.2125
847.8332	34959.6125
851.66546	34752.8125
855.49504	34662.9125
859.32195	34569.9125
863.1462	34398.3125
866.96777	34227.6125
870.78668	34130.8125
874.60293	34101.0125
878.41652	34151.5125
882.22745	34280.9125
886.03573	34412.8125
889.84136	34336.1125
893.64433	34186.4125
897.44466	34079.8125
901.24235	34052.8125
905.0374	34016.3125
908.8298	34020.7125
912.61957	34085.7125
916.40671	34456.2125
920.19121	34902.2125
923.97308	35399.4125
927.75233	35644.8125
931.52895	35539.6125
935.30295	35184.7125
939.07433	34467.4125
942.84309	33998.6125
946.60924	33815.4125
950.37278	33658.3125
954.13371	33425.0125
957.89203	33193.8125
961.64774	33076.0125
965.40086	33018.0125
969.15137	32864.8125
972.89929	32773.7125
976.64461	32732.6125
980.38733	32873.2125
984.12747	33019.4125
987.86502	33352.6125
991.59999	33808.2125
995.33237	34562.4125
999.06217	35872.2125
1002.78939	37291.2125
1006.51404	38228.5125
1010.23611	38763.2125
1013.95561	39105.1125
1017.67255	38996.8125
1021.38692	38562.5125
1025.09872	38374.9125
1028.80796	39015.4125
1032.51465	40560.1125
1036.21877	41945.8125
1039.92035	42035.3125
1043.61937	41234.6125
1047.31584	39856.5125
1051.00976	38482.7125
1054.70114	37685.2125
1058.38998	37511.9125
1062.07627	37722.5125
1065.76003	38085.7125
1069.44126	38668.7125
1073.11995	39512.1125
1076.79611	40248.3125
1080.46974	40658.5125
1084.14085	40711.7125
1087.80943	40677.2125
1091.47549	40251.2125
1095.13903	39582.4125
1098.80005	38666.3125
1102.45857	37807.6125
1106.11456	37394.0125
1109.76805	37416.9125
1113.41903	37710.3125
1117.06751	38097.3125
1120.71348	38626.1125
1124.35696	39127.4125
1127.99793	39651.4125
1131.63641	39841.4125
1135.2724	39415.0125
1138.90589	38888.7125
1142.5369	38587.0125
1146.16542	38239.5125
1149.79145	38143.4125
1153.415	38385.7125
1157.03607	38840.9125
1160.65467	39624.3125
1164.27079	40938.2125
1167.88443	42839.3125
1171.49561	45557.6125
1175.10432	49454.2125
1178.71056	54330.4125
1182.31434	58743.8125
1185.91565	60877.0125
1189.51451	60577.1125
1193.11091	58178.9125
1196.70485	54812.0125
1200.29634	51877.0125
1203.88538	49758.7125
1207.47197	48035.3125
1211.05612	46638.3125
1214.63782	45866.0125
1218.21708	45702.9125
1221.79391	45883.0125
1225.36829	46076.7125
1228.94024	45941.8125
1232.50976	45472.9125
1236.07685	45055.2125
1239.6415	44898.1125
1243.20374	44915.8125
1246.76355	45050.8125
1250.32093	45751.9125
1253.8759	46839.5125
1257.42845	48334.5125
1260.97859	49584.7125
1264.52631	50657.6125
1268.07163	51712.8125
1271.61453	53147.0125
1275.15503	54784.9125
1278.69312	56422.7125
1282.22882	57664.7125
1285.76211	58680.6125
1289.29301	59733.8125
1292.82151	60947.6125
1296.34761	62673.5125
1299.87133	65424.3125
1303.39266	69286.1125
1306.9116	74341.9125
1310.42815	79696.7125
1313.94233	83192.0125
1317.45412	83231.6125
1320.96354	80979.2125
1324.47058	78099.2125
1327.97525	75485.0125
1331.47754	73770.6125
1334.97747	73147.2125
1338.47502	73649.7125
1341.97022	74340.7125
1345.46305	74450.8125
1348.95352	74213.8125
1352.44163	74351.1125
1355.92738	76472.8125
1359.41078	81290.2125
1362.89183	85927.8125
1366.37053	84511.0125
1369.84688	76580.7125
1373.32088	67873.8125
1376.79254	61993.1125
1380.26186	59097.7125
1383.72883	57990.7125
1387.19347	57081.8125
1390.65578	56064.3125
1394.11575	55474.1125
1397.57339	55633.6125
1401.0287	56463.7125
1404.48168	57631.1125
1407.93234	58728.5125
1411.38068	59271.1125
1414.82669	58802.0125
1418.27039	57226.8125
1421.71177	55257.8125
1425.15083	53466.3125
1428.58758	52340.9125
1432.02203	52219.7125
1435.45416	52700.6125
1438.88399	53387.9125
1442.31151	54101.8125
1445.73673	54707.0125
1449.15965	55264.5125
1452.58027	55571.6125
1455.9986	55482.1125
1459.41463	55579.4125
1462.82837	56244.4125
1466.23982	57321.5125
1469.64898	58504.2125
1473.05586	59361.2125
1476.46045	59854.3125
1479.86276	60163.9125
1483.26279	60353.4125
1486.66054	60689.1125
1490.05602	61246.2125
1493.44922	62033.3125
1496.84016	62854.3125
1500.22882	64211.0125
1503.61521	66326.3125
1506.99934	69266.0125
1510.38121	72297.5125
1513.76081	73743.8125
1517.13816	72289.5125
1520.51324	68706.2125
1523.88607	64840.9125
1527.25665	62040.1125
1530.62498	60396.2125
1533.99105	59451.4125
1537.35488	58824.2125
1540.71647	58345.7125
1544.07581	57891.8125
1547.4329	57283.3125
1550.78776	56610.1125
1554.14038	56076.4125
1557.49077	55991.0125
1560.83892	55990.0125
1564.18484	56233.1125
1567.52853	56404.0125
1570.86999	56766.5125
1574.20922	57645.6125
1577.54624	58708.5125
1580.88103	58977.7125
1584.2136	58903.1125
1587.54395	59294.0125
1590.87208	60855.4125
1594.19801	63815.2125
1597.52172	67419.6125
1600.84321	68774.9125
1604.16251	66371.5125
1607.47959	61756.4125
1610.79447	56788.3125
1614.10715	52269.5125
1617.41763	48722.8125
1620.7259	46238.8125
1624.03199	45001.6125
1627.33587	45123.5125
1630.63757	46288.4125
1633.93707	48664.6125
1637.23439	52177.3125
1640.52951	56540.8125
1643.82246	61084.8125
1647.11321	64730.6125
1650.40179	65775.1125
1653.68819	62454.0125
1656.97241	55807.2125
1660.25446	48906.8125
1663.53433	43677.6125
1666.81203	40317.1125
1670.08756	38190.1125
1673.36092	36882.3125
1676.63211	35960.8125
1679.90115	35356.6125
1683.16801	34864.0125
1686.43272	34497.0125
1689.69527	34302.4125
1692.95567	34038.0125
1696.2139	33983.0125
1699.46999	33939.1125
1702.72392	33824.5125
1705.97571	33755.6125
1709.22535	33713.7125
1712.47284	33729.3125
1715.71819	33684.1125
1718.96139	33618.2125
1722.20246	33486.8125
1725.44139	33422.8125
1728.67818	33239.6125
1731.91284	33032.9125
1735.14537	32850.2125
1738.37576	32786.3125
1741.60403	32690.8125
1744.83017	32606.9125
1748.05418	32538.6125
1751.27607	32475.6125
1754.49584	32409.8125
1757.71349	32402.1125
1760.92903	32402.9125
1764.14244	32365.3125
1767.35375	32366.4125
1770.56294	32374.0125
1773.77002	32313.0125
1776.97499	32330.8125
1780.17785	32260.8125
1783.37861	32202.6125
1786.57727	32167.0125
1789.77382	32099.9125
1792.96828	32099.8125
1796.16064	32062.1125
1799.3509	32027.4125
1802.53907	31973.5125
1805.72514	31903.0125
1808.90913	31829.7125
1812.09102	31842.6125
1815.27083	31734.4125
1818.44856	31739.9125
1821.6242	31740.1125
1824.79776	31691.8125
1827.96924	31649.3125
1831.13864	31629.3125
1834.30597	31664.4125
1837.47122	31709.7125
1840.6344	31709.9125
1843.7955	31643.2125
1846.95454	31671.6125
1850.11151	31682.2125
1853.26642	31685.2125
1856.41926	31719.1125
1859.57004	31736.6125
1862.71876	31729.7125
1865.86542	31748.5125
1869.01003	31754.0125
1872.15258	31759.9125
1875.29308	31763.6125
1878.43152	31778.3125
1881.56792	31741.8125
1884.70227	31804.8125
1887.83457	31776.0125
1890.96482	31803.3125
1894.09304	31777.8125
1897.21921	31814.3125
1900.34335	31777.0125
1903.46544	31787.1125
1906.58551	31745.3125
1909.70353	31744.1125
1912.81953	31733.6125
1915.93349	31720.5125
1919.04543	31625.0125
1922.15534	31626.6125
1925.26322	31575.4125
1928.36908	31496.2125
1931.47292	31437.2125
1934.57473	31314.3125
1937.67453	31238.9125
1940.77232	31170.8125
1943.86808	31000.1125
1946.96184	30910.5125
1950.05358	30840.8125
1953.14331	30707.3125
1956.23103	30646.9125
1959.31675	30543.9125
1962.40046	30453.6125
1965.48217	30355.2125
1968.56188	30304.3125
1971.63959	30234.4125
1974.7153	30123.0125
1977.78901	30027.8125
1980.86073	29967.8125
1983.93046	29877.5125
1986.99819	29748.1125
1990.06394	29701.0125
1993.1277	29652.7125
1996.18947	29512.3125
1999.24925	29457.0125
2002.30706	29352.1125
2005.36288	29253.3125
2008.41672	29211.0125
2011.46859	29171.7125
2014.51848	29131.6125
2017.56639	29080.5125
2020.61233	28994.3125
2023.6563	28954.9125
2026.6983	28897.8125
2029.73833	28855.5125
2032.7764	28822.5125
2035.8125	28705.9125
2038.84664	28709.9125
2041.87881	28704.8125
2044.90903	28640.8125
2047.93729	28597.1125
2050.96359	28634.5125
2053.98794	28561.7125
2057.01034	28534.6125
2060.03078	28541.5125
2063.04927	28484.5125
2066.06582	28457.8125
2069.08042	28413.6125
2072.09307	28380.4125
2075.10378	28397.9125
2078.11255	28355.1125
2081.11938	28356.0125
2084.12426	28318.8125
2087.12722	28317.7125
2090.12824	28314.9125
2093.12732	28315.4125
2096.12447	28359.1125
2099.11969	28281.8125
2102.11299	28267.9125
2105.10435	28317.5125
2108.09379	28346.0125
2111.08131	28409.0125
2114.0669	28390.9125
2117.05057	28372.2125
2120.03233	28390.0125
2123.01216	28439.8125
2125.99008	28413.5125
2128.96609	28464.2125
2131.94018	28470.7125
2134.91236	28496.7125
2137.88263	28521.1125
2140.851	28527.6125
2143.81746	28586.7125
2146.78201	28580.1125
2149.74466	28624.0125
2152.7054	28661.2125
2155.66425	28626.8125
2158.6212	28610.3125
2161.57625	28593.2125
2164.52941	28555.0125
2167.48067	28644.2125
2170.43004	28584.8125
2173.37752	28559.3125
2176.32311	28667.0125
2179.26681	28596.2125
2182.20863	28600.5125
2185.14856	28620.0125
2188.08661	28639.7125
2191.02278	28675.7125
2193.95707	28604.8125
2196.88948	28651.5125
2199.82001	28657.0125
2202.74867	28597.1125
2205.67545	28639.2125
2208.60037	28614.8125
2211.52341	28620.3125
2214.44458	28613.5125
2217.36388	28574.7125
2220.28132	28575.6125
2223.1969	28560.5125
2226.11061	28489.6125
2229.02246	28426.5125
2231.93245	28349.8125
2234.84058	28256.4125
2237.74686	28213.1125
2240.65128	28255.5125
2243.55385	28166.7125
2246.45456	28109.1125
2249.35343	28141.7125
2252.25044	28066.4125
2255.14561	28006.4125
2258.03893	28000.1125
2260.93041	28018.2125
2263.82004	27907.0125
2266.70783	27880.0125
2269.59378	27806.2125
2272.4779	27761.5125
2275.36017	27657.2125
2278.24061	27614.4125
2281.11922	27574.8125
2283.996	27505.9125
2286.87094	27528.4125
2289.74405	27506.3125
2292.61534	27482.2125
2295.4848	27462.2125
2298.35243	27479.0125
2301.21824	27457.7125
2304.08223	27471.0125
2306.94439	27499.3125
2309.80474	27524.8125
2312.66327	27583.7125
2315.51999	27579.3125
2318.37489	27578.2125
2321.22797	27553.1125
2324.07925	27553.9125
2326.92871	27508.3125
2329.77637	27512.9125
2332.62222	27548.8125
2335.46626	27499.8125
2338.3085	27532.6125
2341.14893	27558.8125
2343.98756	27601.3125
2346.8244	27565.5125
2349.65943	27601.0125
2352.49267	27590.9125
2355.32411	27535.4125
2358.15376	27588.3125
2360.98161	27524.0125
2363.80768	27483.7125
2366.63195	27502.9125
2369.45444	27421.0125
2372.27514	27341.5125
2375.09405	27293.1125
2377.91118	27205.1125
2380.72652	27162.2125
2383.54009	27131.9125
2386.35187	27093.4125
2389.16188	27041.7125
2391.97011	27024.3125
2394.77657	26995.1125
2397.58125	26944.5125
2400.38416	26957.9125
2403.18529	26839.3125
2405.98466	26832.1125
2408.78226	26717.9125
2411.57809	26682.7125
2414.37216	26616.9125
2417.16446	26603.6125
2419.955	26573.2125
2422.74378	26590.4125
2425.5308	26494.1125
2428.31606	26501.3125
2431.09956	26502.9125
2433.88131	26463.6125
2436.6613	26490.3125
2439.43954	26458.1125
2442.21603	26453.1125
2444.99077	26375.3125
2447.76377	26427.3125
2450.53501	26413.8125
2453.30451	26416.5125
2456.07226	26398.0125
2458.83827	26411.6125
2461.60254	26417.2125
2464.36507	26395.4125
2467.12586	26399.3125
2469.88492	26387.9125
2472.64224	26359.3125
2475.39782	26383.2125
2478.15167	26426.0125
2480.90379	26424.9125
2483.65417	26518.3125
2486.40283	26483.0125
2489.14976	26521.7125
2491.89497	26542.0125
2494.63845	26588.5125
2497.3802	26578.4125
2500.12024	26570.3125
2502.85855	26607.9125
2505.59514	26566.3125
2508.33002	26552.5125
2511.06318	26506.5125
2513.79462	26468.9125
2516.52435	26458.2125
2519.25237	26410.9125
2521.97867	26388.9125
2524.70327	26351.3125
2527.42616	26320.9125
2530.14734	26376.4125
2532.86681	26273.3125
2535.58458	26286.9125
2538.30065	26284.9125
2541.01501	26348.2125
2543.72768	26267.4125
2546.43864	26256.8125
2549.14791	26235.4125
2551.85548	26208.0125
2554.56136	26181.9125
2557.26554	26184.4125
2559.96803	26158.2125
2562.66883	26149.3125
2565.36794	26072.8125
2568.06536	26118.7125
2570.7611	26104.2125
2573.45514	26056.8125
2576.14751	26086.5125
2578.83819	26031.3125
2581.52719	26050.4125
2584.21451	26039.1125
2586.90015	26068.0125
2589.58411	26020.6125
2592.2664	26039.4125
2594.94701	26023.5125
2597.62594	26055.4125
2600.30321	25997.8125
2602.9788	25971.1125
2605.65273	26024.6125
2608.32498	25994.3125
2610.99557	25956.0125
2613.66449	25962.3125
2616.33175	25986.2125
2618.99734	26000.0125
2621.66128	25989.3125
2624.32355	25982.4125
2626.98416	26021.2125
2629.64311	26000.5125
2632.30041	26048.3125
2634.95605	25985.1125
2637.61004	25993.9125
2640.26238	25952.9125
2642.91306	25924.7125
2645.56209	25874.6125
2648.20948	25863.2125
2650.85521	25823.0125
2653.4993	25816.6125
2656.14175	25758.8125
2658.78255	25810.6125
2661.42171	25809.6125
2664.05923	25875.9125
2666.6951	25835.2125
2669.32934	25879.1125
2671.96194	25879.1125
2674.59291	25915.3125
2677.22224	25909.7125
2679.84993	25848.9125
2682.476	25840.7125
2685.10043	25842.4125
2687.72324	25824.3125
2690.34441	25830.5125
2692.96396	25840.8125
2695.58188	25827.2125
2698.19818	25788.2125
2700.81285	25779.5125
2703.4259	25740.4125
2706.03733	25861.3125
2708.64714	25835.6125
2711.25533	25828.0125
2713.86191	25838.1125
2716.46687	25907.8125
2719.07021	25816.4125
2721.67194	25866.2125
2724.27206	25838.8125
2726.87057	25831.5125
2729.46747	25881.3125
2732.06276	25919.6125
2734.65644	25875.3125
2737.24852	25878.3125
2739.83899	25885.7125
2742.42786	25869.1125
2745.01513	25853.4125
2747.60079	25832.4125
2750.18486	25845.3125
2752.76733	25807.1125
2755.3482	25847.8125
2757.92747	25879.7125
2760.50515	25821.5125
2763.08123	25822.8125
2765.65573	25755.9125
2768.22863	25741.6125
2770.79994	25672.8125
2773.36967	25685.3125
2775.9378	25692.8125
2778.50435	25650.7125
2781.06932	25660.2125
2783.6327	25698.8125
2786.1945	25665.9125
2788.75471	25669.6125
2791.31335	25557.8125
2793.87041	25598.8125
2796.42589	25504.0125
2798.97979	25483.3125
2801.53212	25426.3125
2804.08288	25417.4125
2806.63206	25360.8125
2809.17967	25304.0125
2811.72571	25273.3125
2814.27018	25299.7125
2816.81308	25256.5125
2819.35442	25257.6125
2821.89419	25204.5125
2824.43239	25223.7125
2826.96904	25180.6125
2829.50412	25197.3125
2832.03763	25139.3125
2834.56959	25164.7125
2837.1	25116.0125
2839.62884	25101.4125
2842.15613	25061.0125
2844.68186	25098.5125
2847.20604	25025.6125
2849.72867	25002.2125
2852.24974	25030.2125
2854.76927	25002.9125
2857.28724	24961.6125
2859.80367	24939.2125
2862.31855	24883.0125
2864.83189	24884.5125
2867.34368	24861.1125
2869.85393	24852.2125
2872.36264	24883.5125
2874.8698	24881.8125
2877.37543	24858.4125
2879.87952	24898.9125
2882.38207	24866.9125
2884.88308	24892.2125
2887.38256	24916.9125
2889.88051	24905.1125
2892.37692	24866.4125
2894.8718	24909.0125
2897.36515	24906.3125
2899.85698	24906.6125
2902.34727	24976.2125
2904.83604	24990.1125
2907.32328	25004.5125
2909.809	25058.0125
2912.29319	25094.5125
2914.77587	25081.2125
2917.25702	25054.1125
2919.73665	25047.2125
2922.21476	25065.2125
2924.69136	25036.5125
2927.16644	25027.0125
2929.64	24931.0125
2932.11205	24931.4125
2934.58258	24793.6125
2937.05161	24841.2125
2939.51912	24912.6125
2941.98513	24889.8125
2944.44962	24805.8125
2946.91261	24743.2125
2949.37409	24765.2125
2951.83407	24808.3125
2954.29254	24723.8125
2956.74951	24736.9125
2959.20498	24710.7125
2961.65895	24657.3125
2964.11142	24661.5125
2966.56239	24576.8125
2969.01186	24581.4125
2971.45984	24528.2125
2973.90632	24480.8125
2976.35131	24464.7125
2978.7948	24408.1125
2981.23681	24342.4125
2983.67732	24328.7125
2986.11635	24243.1125
2988.55388	24168.4125
2990.98993	24152.8125
2993.4245	24103.6125
2995.85758	24007.5125
2998.28917	24022.4125
3000.71928	23983.1125
3003.14791	23964.6125
3005.57506	23904.6125
3008.00073	23847.1125
3010.42493	23850.1125
3012.84764	23821.7125
3015.26888	23841.4125
3017.68865	23761.8125
3020.10694	23714.8125
3022.52376	23639.0125
