Data from AgNP_FTO_APTES_CRN_1000uM_R6G_10uM_NaF_0.1M_Addition_RamanShift__33__21-28-48-306.txt Node

Date: Wed Dec 15 21:28:48 GMT 2021
User: TCL
Spectrometer: QEP01345
Trigger mode: 4
Integration Time (sec): 7.000000E0
Scans to average: 10
Electric dark correction enabled: true
Nonlinearity correction enabled: false
Boxcar width: 0
XAxis mode: Raman Shifts
Number of Pixels in Spectrum: 1044
>>>>>Begin Spectral Data<<<<<
46.04893	1.725
50.45542	-1.475
54.85868	-0.275
59.25871	0.125
63.6555	41.925
68.04907	46.525
72.43941	47.925
76.82654	52.925
81.21044	53.325
85.59113	56.725
89.96862	59.225
94.34289	57.125
98.71396	63.025
103.08183	67.825
107.4465	70.125
111.80798	67.025
116.16626	68.325
120.52136	72.025
124.87327	71.125
129.222	73.625
133.56755	74.425
137.90993	83.625
142.24913	88.425
146.58517	96.625
150.91804	111.925
155.24774	132.125
159.57429	160.925
163.89768	206.725
168.21792	265.125
172.53501	361.725
176.84895	489.825
181.15975	679.725
185.46741	946.525
189.77193	1298.425
194.07331	1746.525
198.37157	2248.425
202.6667	2767.725
206.9587	3279.825
211.24758	3809.225
215.53334	4345.125
219.81599	4934.325
224.09553	5567.125
228.37195	6314.125
232.64527	7058.525
236.91549	7811.425
241.18261	8548.625
245.44663	9137.225
249.70755	9609.125
253.96539	10009.525
258.22014	10304.425
262.4718	10595.725
266.72039	10793.625
270.96589	10851.425
275.20832	10851.825
279.44768	10714.925
283.68397	10544.525
287.91719	10444.125
292.14735	10412.025
296.37445	10559.525
300.59849	10910.725
304.81948	11329.825
309.03742	11675.225
313.25231	11694.025
317.46415	11207.225
321.67296	10444.925
325.87872	9787.725
330.08145	9480.725
334.28114	9480.725
338.47781	9636.725
342.67145	9883.125
346.86207	10339.925
351.04966	10910.225
355.23424	11616.925
359.4158	12097.025
363.59435	12315.725
367.76989	12340.525
371.94243	12308.125
376.11196	12224.125
380.27849	12177.625
384.44203	12016.425
388.60257	11860.525
392.76012	11770.025
396.91468	11840.925
401.06626	12149.625
405.21485	12370.625
409.36047	12190.425
413.50311	11595.125
417.64277	11065.325
421.77947	10723.225
425.9132	10618.425
430.04396	10617.525
434.17176	10699.225
438.2966	10878.325
442.41849	11169.925
446.53742	11534.125
450.6534	11868.625
454.76644	12066.225
458.87653	12099.025
462.98368	11989.725
467.08789	11770.525
471.18916	11528.625
475.2875	11292.325
479.38291	11040.525
483.4754	10851.925
487.56496	10651.825
491.6516	10555.425
495.73531	10511.125
499.81612	10569.225
503.89401	10707.525
507.96899	10909.125
512.04106	11156.125
516.11023	11480.725
520.1765	11720.725
524.23987	11766.425
528.30034	11632.725
532.35792	11370.525
536.41261	11074.525
540.46441	10784.025
544.51333	10657.325
548.55936	10677.125
552.60252	10853.025
556.64279	11077.625
560.6802	11217.425
564.71473	11371.425
568.7464	11784.825
572.7752	11995.525
576.80114	11641.925
580.82422	11152.925
584.84444	10927.525
588.86181	10939.625
592.87633	11079.025
596.888	11291.425
600.89682	11648.425
604.9028	12906.825
608.90594	16234.225
612.90624	20490.325
616.90371	19836.725
620.89834	14267.225
624.89015	11567.325
628.87913	11020.325
632.86528	11060.925
636.84862	11242.725
640.82913	11152.125
644.80683	10822.525
648.78172	10617.525
652.75379	10779.525
656.72306	11250.425
660.68952	11728.925
664.65319	11594.425
668.61405	11128.225
672.57211	10900.925
676.52738	10912.125
680.47986	10902.925
684.42955	10829.525
688.37646	10764.725
692.32058	10790.725
696.26192	10841.825
700.20048	10969.225
704.13626	11015.625
708.06928	10905.125
711.99952	10747.125
715.927	10621.525
719.85171	10582.225
723.77365	10495.825
727.69284	10304.425
731.60928	10158.925
735.52295	10126.125
739.43388	10101.325
743.34206	10098.325
747.24749	10094.025
751.15017	10113.025
755.05012	10279.825
758.94733	10745.925
762.8418	11845.325
766.73354	13613.725
770.62254	15528.525
774.50882	16532.325
778.39237	15986.325
782.27321	13968.425
786.15132	11844.725
790.02671	10652.025
793.89938	10121.425
797.76935	9892.925
801.6366	9756.925
805.50115	9686.625
809.36299	9649.125
813.22213	9570.525
817.07857	9577.425
820.93231	9598.225
824.78336	9646.325
828.63172	9711.525
832.47738	9735.325
836.32036	9748.625
840.16066	9673.525
843.99827	9603.325
847.8332	9532.225
851.66546	9520.225
855.49504	9508.925
859.32195	9475.925
863.1462	9432.025
866.96777	9355.525
870.78668	9302.525
874.60293	9244.925
878.41652	9267.925
882.22745	9283.225
886.03573	9303.925
889.84136	9273.825
893.64433	9223.225
897.44466	9235.925
901.24235	9219.125
905.0374	9205.025
908.8298	9167.625
912.61957	9138.025
916.40671	9187.725
920.19121	9255.925
923.97308	9332.025
927.75233	9449.925
931.52895	9582.325
935.30295	9496.025
939.07433	9185.725
942.84309	8919.025
946.60924	8764.825
950.37278	8670.425
954.13371	8603.125
957.89203	8561.525
961.64774	8518.025
965.40086	8471.925
969.15137	8434.825
972.89929	8434.625
976.64461	8434.425
980.38733	8409.625
984.12747	8421.825
987.86502	8453.325
991.59999	8481.025
995.33237	8560.925
999.06217	8686.825
1002.78939	8847.025
1006.51404	8996.225
1010.23611	9169.325
1013.95561	9283.825
1017.67255	9246.625
1021.38692	9118.925
1025.09872	8983.725
1028.80796	8907.625
1032.51465	8938.525
1036.21877	9042.725
1039.92035	9178.625
1043.61937	9277.125
1047.31584	9329.525
1051.00976	9312.825
1054.70114	9306.725
1058.38998	9322.425
1062.07627	9417.425
1065.76003	9603.825
1069.44126	9910.825
1073.11995	10335.325
1076.79611	10740.025
1080.46974	10983.325
1084.14085	10962.725
1087.80943	10804.525
1091.47549	10552.825
1095.13903	10127.825
1098.80005	9700.825
1102.45857	9353.125
1106.11456	9260.025
1109.76805	9332.325
1113.41903	9558.925
1117.06751	9882.425
1120.71348	10327.125
1124.35696	10811.625
1127.99793	11234.825
1131.63641	11133.825
1135.2724	10571.125
1138.90589	10080.725
1142.5369	9739.525
1146.16542	9501.325
1149.79145	9386.025
1153.415	9375.925
1157.03607	9449.225
1160.65467	9652.925
1164.27079	10011.925
1167.88443	10592.925
1171.49561	11558.825
1175.10432	13019.025
1178.71056	14808.725
1182.31434	15895.725
1185.91565	15873.725
1189.51451	15289.725
1193.11091	14329.825
1196.70485	13361.425
1200.29634	12606.125
1203.88538	11992.425
1207.47197	11298.025
1211.05612	10702.325
1214.63782	10410.725
1218.21708	10318.025
1221.79391	10340.025
1225.36829	10350.025
1228.94024	10391.925
1232.50976	10387.725
1236.07685	10436.325
1239.6415	10540.225
1243.20374	10612.625
1246.76355	10660.025
1250.32093	10786.225
1253.8759	10993.525
1257.42845	11283.925
1260.97859	11590.825
1264.52631	11970.425
1268.07163	12284.325
1271.61453	12530.225
1275.15503	12686.825
1278.69312	12685.225
1282.22882	12697.825
1285.76211	12926.525
1289.29301	13357.125
1292.82151	13794.325
1296.34761	14240.725
1299.87133	14932.025
1303.39266	16061.125
1306.9116	17816.825
1310.42815	19725.625
1313.94233	20713.425
1317.45412	20076.525
1320.96354	18619.525
1324.47058	17004.025
1327.97525	15781.625
1331.47754	15057.325
1334.97747	14921.425
1338.47502	15182.525
1341.97022	15656.325
1345.46305	16420.725
1348.95352	17603.125
1352.44163	19216.625
1355.92738	21454.725
1359.41078	24447.825
1362.89183	26881.625
1366.37053	25684.325
1369.84688	21920.325
1373.32088	18312.325
1376.79254	15957.125
1380.26186	14667.625
1383.72883	13913.225
1387.19347	13284.625
1390.65578	12661.925
1394.11575	12154.925
1397.57339	11873.325
1401.0287	11784.025
1404.48168	11842.925
1407.93234	11951.525
1411.38068	12039.825
1414.82669	12035.525
1418.27039	11890.725
1421.71177	11734.725
1425.15083	11578.525
1428.58758	11496.725
1432.02203	11562.625
1435.45416	11658.825
1438.88399	11670.225
1442.31151	11630.425
1445.73673	11619.125
1449.15965	11670.725
1452.58027	11609.625
1455.9986	11482.125
1459.41463	11443.425
1462.82837	11530.225
1466.23982	11781.525
1469.64898	12042.525
1473.05586	12235.825
1476.46045	12395.625
1479.86276	12602.025
1483.26279	12850.225
1486.66054	13183.225
1490.05602	13617.625
1493.44922	14227.425
1496.84016	15162.225
1500.22882	16617.125
1503.61521	18536.825
1506.99934	20646.725
1510.38121	22529.925
1513.76081	23320.325
1517.13816	22001.425
1520.51324	19246.925
1523.88607	16566.825
1527.25665	14886.925
1530.62498	14015.925
1533.99105	13537.325
1537.35488	13262.425
1540.71647	13141.125
1544.07581	13096.125
1547.4329	13033.225
1550.78776	13002.325
1554.14038	12936.425
1557.49077	12975.425
1560.83892	13147.625
1564.18484	13506.425
1567.52853	14039.925
1570.86999	14602.725
1574.20922	15196.125
1577.54624	15464.725
1580.88103	15024.425
1584.2136	13992.225
1587.54395	13066.525
1590.87208	12669.825
1594.19801	12961.125
1597.52172	13644.325
1600.84321	14005.625
1604.16251	13627.725
1607.47959	12802.625
1610.79447	11895.225
1614.10715	10993.525
1617.41763	10308.125
1620.7259	9897.025
1624.03199	9700.025
1627.33587	9710.725
1630.63757	9825.125
1633.93707	10190.625
1637.23439	10805.525
1640.52951	11796.025
1643.82246	13179.825
1647.11321	14778.625
1650.40179	15873.425
1653.68819	15424.925
1656.97241	13503.625
1660.25446	11419.325
1663.53433	9936.525
1666.81203	9078.325
1670.08756	8579.425
1673.36092	8292.525
1676.63211	8081.625
1679.90115	7930.425
1683.16801	7818.825
1686.43272	7725.425
1689.69527	7647.225
1692.95567	7611.125
1696.2139	7572.425
1699.46999	7569.625
1702.72392	7558.225
1705.97571	7496.625
1709.22535	7452.925
1712.47284	7472.825
1715.71819	7485.925
1718.96139	7458.525
1722.20246	7436.825
1725.44139	7407.725
1728.67818	7350.725
1731.91284	7290.425
1735.14537	7223.425
1738.37576	7165.925
1741.60403	7145.325
1744.83017	7097.525
1748.05418	7074.725
1751.27607	7058.725
1754.49584	7049.925
1757.71349	7030.025
1760.92903	7012.125
1764.14244	7003.025
1767.35375	7012.025
1770.56294	6958.625
1773.77002	6933.625
1776.97499	6909.525
1780.17785	6877.125
1783.37861	6861.125
1786.57727	6832.425
1789.77382	6822.225
1792.96828	6808.625
1796.16064	6790.925
1799.3509	6776.525
1802.53907	6749.025
1805.72514	6726.725
1808.90913	6715.725
1812.09102	6691.625
1815.27083	6666.125
1818.44856	6656.825
1821.6242	6626.425
1824.79776	6616.225
1827.96924	6611.325
1831.13864	6609.825
1834.30597	6597.425
1837.47122	6580.325
1840.6344	6576.025
1843.7955	6564.525
1846.95454	6550.525
1850.11151	6543.225
1853.26642	6528.825
1856.41926	6508.625
1859.57004	6518.725
1862.71876	6534.325
1865.86542	6502.525
1869.01003	6510.325
1872.15258	6512.625
1875.29308	6502.525
1878.43152	6501.625
1881.56792	6499.725
1884.70227	6501.525
1887.83457	6497.025
1890.96482	6485.125
1894.09304	6475.325
1897.21921	6482.725
1900.34335	6460.325
1903.46544	6471.925
1906.58551	6459.725
1909.70353	6439.725
1912.81953	6419.925
1915.93349	6433.425
1919.04543	6416.025
1922.15534	6399.025
1925.26322	6389.925
1928.36908	6378.125
1931.47292	6367.525
1934.57473	6345.225
1937.67453	6305.325
1940.77232	6308.525
1943.86808	6278.525
1946.96184	6249.325
1950.05358	6235.325
1953.14331	6217.925
1956.23103	6175.625
1959.31675	6178.525
1962.40046	6177.625
1965.48217	6153.425
1968.56188	6126.625
1971.63959	6113.825
1974.7153	6108.825
1977.78901	6072.425
1980.86073	6060.725
1983.93046	6033.425
1986.99819	6006.725
1990.06394	5989.225
1993.1277	5974.525
1996.18947	5939.225
1999.24925	5923.125
2002.30706	5921.725
2005.36288	5886.425
2008.41672	5865.025
2011.46859	5848.725
2014.51848	5817.425
2017.56639	5829.025
2020.61233	5801.325
2023.6563	5779.925
2026.6983	5774.625
2029.73833	5755.125
2032.7764	5747.625
2035.8125	5723.225
2038.84664	5703.725
2041.87881	5702.825
2044.90903	5694.325
2047.93729	5681.925
2050.96359	5659.625
2053.98794	5675.025
2057.01034	5651.025
2060.03078	5654.625
2063.04927	5632.225
2066.06582	5622.025
2069.08042	5634.425
2072.09307	5631.125
2075.10378	5601.825
2078.11255	5601.625
2081.11938	5594.325
2084.12426	5588.825
2087.12722	5588.825
2090.12824	5595.325
2093.12732	5589.425
2096.12447	5594.325
2099.11969	5584.825
2102.11299	5584.325
2105.10435	5587.825
2108.09379	5590.725
2111.08131	5590.325
2114.0669	5586.425
2117.05057	5597.425
2120.03233	5589.325
2123.01216	5580.525
2125.99008	5597.325
2128.96609	5604.025
2131.94018	5614.225
2134.91236	5600.625
2137.88263	5615.025
2140.851	5604.725
2143.81746	5621.625
2146.78201	5620.725
2149.74466	5595.525
2152.7054	5603.525
2155.66425	5610.125
2158.6212	5609.325
2161.57625	5594.625
2164.52941	5576.425
2167.48067	5576.025
2170.43004	5573.425
2173.37752	5571.225
2176.32311	5563.425
2179.26681	5549.925
2182.20863	5541.225
2185.14856	5540.225
2188.08661	5548.025
2191.02278	5541.425
2193.95707	5549.825
2196.88948	5531.325
2199.82001	5536.525
2202.74867	5511.025
2205.67545	5504.125
2208.60037	5490.525
2211.52341	5486.825
2214.44458	5482.625
2217.36388	5462.825
2220.28132	5450.525
2223.1969	5437.525
2226.11061	5435.425
2229.02246	5420.325
2231.93245	5414.425
2234.84058	5404.425
2237.74686	5367.425
2240.65128	5367.625
2243.55385	5359.625
2246.45456	5353.825
2249.35343	5358.225
2252.25044	5343.025
2255.14561	5337.825
2258.03893	5351.525
2260.93041	5348.825
2263.82004	5327.225
2266.70783	5327.325
2269.59378	5312.225
2272.4779	5294.825
2275.36017	5271.025
2278.24061	5243.625
2281.11922	5242.025
2283.996	5214.825
2286.87094	5204.325
2289.74405	5189.725
2292.61534	5209.025
2295.4848	5173.325
2298.35243	5178.825
2301.21824	5142.525
2304.08223	5144.925
2306.94439	5153.925
2309.80474	5151.925
2312.66327	5157.625
2315.51999	5149.825
2318.37489	5135.725
2321.22797	5138.325
2324.07925	5124.025
2326.92871	5120.525
2329.77637	5110.125
2332.62222	5105.725
2335.46626	5082.625
2338.3085	5069.925
2341.14893	5064.825
2343.98756	5077.725
2346.8244	5077.925
2349.65943	5074.725
2352.49267	5082.825
2355.32411	5075.825
2358.15376	5064.125
2360.98161	5082.825
2363.80768	5084.425
2366.63195	5097.625
2369.45444	5076.425
2372.27514	5079.125
2375.09405	5086.525
2377.91118	5048.925
2380.72652	5048.125
2383.54009	5000.125
2386.35187	5015.425
2389.16188	4996.925
2391.97011	4973.125
2394.77657	4958.525
2397.58125	4914.925
2400.38416	4931.625
2403.18529	4911.325
2405.98466	4900.925
2408.78226	4897.925
2411.57809	4883.925
2414.37216	4883.525
2417.16446	4866.025
2419.955	4857.125
2422.74378	4852.825
2425.5308	4855.725
2428.31606	4856.325
2431.09956	4838.525
2433.88131	4857.325
2436.6613	4851.325
2439.43954	4834.325
2442.21603	4836.125
2444.99077	4833.125
2447.76377	4841.925
2450.53501	4830.625
2453.30451	4822.325
2456.07226	4814.125
2458.83827	4827.725
2461.60254	4815.225
2464.36507	4803.425
2467.12586	4793.725
2469.88492	4801.725
2472.64224	4791.025
2475.39782	4788.625
2478.15167	4808.225
2480.90379	4794.925
2483.65417	4808.825
2486.40283	4813.525
2489.14976	4842.525
2491.89497	4807.225
2494.63845	4839.325
2497.3802	4823.825
2500.12024	4813.225
2502.85855	4802.825
2505.59514	4796.425
2508.33002	4784.525
2511.06318	4753.425
2513.79462	4730.625
2516.52435	4713.125
2519.25237	4696.625
2521.97867	4702.325
2524.70327	4665.125
2527.42616	4669.725
2530.14734	4649.125
2532.86681	4650.025
2535.58458	4651.725
2538.30065	4646.425
2541.01501	4646.725
2543.72768	4663.925
2546.43864	4641.325
2549.14791	4639.925
2551.85548	4622.425
2554.56136	4630.325
2557.26554	4586.925
2559.96803	4612.625
2562.66883	4614.525
2565.36794	4582.225
2568.06536	4588.025
2570.7611	4576.525
2573.45514	4569.125
2576.14751	4565.325
2578.83819	4556.425
2581.52719	4532.425
2584.21451	4535.125
2586.90015	4526.225
2589.58411	4498.825
2592.2664	4502.125
2594.94701	4492.025
2597.62594	4483.425
2600.30321	4481.725
2602.9788	4478.025
2605.65273	4487.325
2608.32498	4449.725
2610.99557	4470.425
2613.66449	4463.425
2616.33175	4453.925
2618.99734	4449.525
2621.66128	4442.025
2624.32355	4441.825
2626.98416	4432.125
2629.64311	4434.425
2632.30041	4414.425
2634.95605	4401.125
2637.61004	4402.125
2640.26238	4393.925
2642.91306	4383.525
2645.56209	4382.125
2648.20948	4380.425
2650.85521	4392.925
2653.4993	4378.425
2656.14175	4381.625
2658.78255	4388.925
2661.42171	4371.625
2664.05923	4391.125
2666.6951	4378.725
2669.32934	4402.025
2671.96194	4391.325
2674.59291	4404.725
2677.22224	4406.225
2679.84993	4412.425
2682.476	4396.625
2685.10043	4412.125
2687.72324	4402.725
2690.34441	4395.025
2692.96396	4408.825
2695.58188	4400.725
2698.19818	4399.125
2700.81285	4417.425
2703.4259	4439.325
2706.03733	4487.925
2708.64714	4459.725
2711.25533	4446.725
2713.86191	4455.425
2716.46687	4452.025
2719.07021	4456.125
2721.67194	4450.025
2724.27206	4451.325
2726.87057	4444.625
2729.46747	4455.525
2732.06276	4444.625
2734.65644	4415.825
2737.24852	4411.425
2739.83899	4418.425
2742.42786	4405.025
2745.01513	4389.725
2747.60079	4381.125
2750.18486	4383.325
2752.76733	4377.525
2755.3482	4371.325
2757.92747	4353.425
2760.50515	4359.025
2763.08123	4347.725
2765.65573	4345.425
2768.22863	4343.225
2770.79994	4329.725
2773.36967	4346.625
2775.9378	4336.025
2778.50435	4347.125
2781.06932	4345.125
2783.6327	4338.725
2786.1945	4349.425
2788.75471	4348.025
2791.31335	4345.425
2793.87041	4339.325
2796.42589	4341.325
2798.97979	4369.625
2801.53212	4350.325
2804.08288	4348.925
2806.63206	4364.725
2809.17967	4375.625
2811.72571	4353.225
2814.27018	4383.125
2816.81308	4387.325
2819.35442	4400.825
2821.89419	4401.325
2824.43239	4400.425
2826.96904	4407.325
2829.50412	4412.525
2832.03763	4418.025
2834.56959	4423.825
2837.1	4448.625
2839.62884	4474.325
2842.15613	4554.625
2844.68186	4611.825
2847.20604	4693.925
2849.72867	4770.725
2852.24974	4812.125
2854.76927	4812.725
2857.28724	4815.625
2859.80367	4788.925
2862.31855	4760.825
2864.83189	4746.325
2867.34368	4730.325
2869.85393	4700.925
2872.36264	4708.725
2874.8698	4713.225
2877.37543	4690.325
2879.87952	4695.125
2882.38207	4697.025
2884.88308	4704.825
2887.38256	4703.525
2889.88051	4710.325
2892.37692	4705.225
2894.8718	4700.125
2897.36515	4712.925
2899.85698	4712.825
2902.34727	4735.425
2904.83604	4738.125
2907.32328	4759.625
2909.809	4731.625
2912.29319	4720.525
2914.77587	4722.625
2917.25702	4704.625
2919.73665	4704.125
2922.21476	4697.825
2924.69136	4677.325
2927.16644	4695.525
2929.64	4664.125
2932.11205	4652.825
2934.58258	4625.925
2937.05161	4599.925
2939.51912	4551.725
2941.98513	4519.225
2944.44962	4471.425
2946.91261	4389.425
2949.37409	4365.925
2951.83407	4314.325
2954.29254	4290.525
2956.74951	4245.625
2959.20498	4230.525
2961.65895	4215.125
2964.11142	4197.825
2966.56239	4167.125
2969.01186	4159.125
2971.45984	4134.525
2973.90632	4130.025
2976.35131	4078.725
2978.7948	4091.825
2981.23681	4078.925
2983.67732	4040.125
2986.11635	4031.725
2988.55388	4016.725
2990.98993	3996.925
2993.4245	4006.225
2995.85758	3981.825
2998.28917	3965.525
3000.71928	3947.325
3003.14791	3952.525
3005.57506	3947.625
3008.00073	3957.525
3010.42493	3934.825
3012.84764	3920.625
3015.26888	3916.225
3017.68865	3920.425
3020.10694	3914.025
3022.52376	3900.225
3024.9391	3892.025
3027.35298	3899.825
3029.76539	3894.525
3032.17632	3881.625
3034.5858	3871.225
3036.9938	3870.925
3039.40034	3865.725
3041.80542	3857.825
3044.20903	3852.625
3046.61118	3859.025
3049.01187	3859.025
3051.4111	3833.125
3053.80888	3832.825
3056.20519	3830.825
3058.60005	3829.525
3060.99345	3823.225
3063.3854	3827.625
3065.7759	3814.325
3068.16494	3812.225
3070.55254	3819.925
3072.93868	3801.625
3075.32338	3780.325
3077.70662	3777.425
3080.08842	3755.825
3082.46878	3768.425
3084.84769	3764.325
3087.22515	3760.925
3089.60118	3751.025
3091.97576	3746.825
3094.3489	3745.825
3096.72061	3743.625
3099.09087	3750.025
3101.4597	3733.425
3103.82709	3748.625
3106.19305	3728.125
3108.55757	3728.725
3110.92066	3730.825
3113.28232	3726.025
3115.64255	3717.625
3118.00134	3711.725
3120.35871	3715.325
3122.71466	3704.825
3125.06917	3707.125
3127.42226	3708.325
3129.77393	3722.125
3132.12417	3727.425
3134.47299	3714.325
3136.82039	3731.825
3139.16636	3751.525
3141.51092	3753.925
3143.85406	3736.925
3146.19579	3774.925
3148.53609	3762.225
3150.87499	3779.925
3153.21246	3767.225
3155.54853	3797.925
3157.88318	3769.725
3160.21642	3790.825
3162.54826	3786.625
3164.87868	3776.125
3167.2077	3806.225
3169.5353	3803.525
3171.86151	3811.625
3174.18631	3806.125
3176.5097	3809.025
3178.83169	3795.625
3181.15228	3814.025
3183.47147	3826.425
3185.78926	3821.725
3188.10565	3821.925
3190.42065	3817.925
3192.73424	3817.525
3195.04645	3816.425
3197.35725	3833.325
3199.66667	3836.325
3201.97469	3846.825
3204.28132	3857.925
