Data from AgNP_FTO_APTES_CRN_100uM_R6G_10uM_NaF_0.1M_Addition_RamanShift__14__18-47-48-123.txt Node

Date: Wed Dec 15 18:47:48 GMT 2021
User: TCL
Spectrometer: QEP01345
Trigger mode: 4
Integration Time (sec): 7.000000E0
Scans to average: 10
Electric dark correction enabled: true
Nonlinearity correction enabled: false
Boxcar width: 0
XAxis mode: Raman Shifts
Number of Pixels in Spectrum: 1044
>>>>>Begin Spectral Data<<<<<
46.04893	0.575
50.45542	-2.725
54.85868	-1.725
59.25871	-0.625
63.6555	45.075
68.04907	54.675
72.43941	53.175
76.82654	57.875
81.21044	57.975
85.59113	62.975
89.96862	64.875
94.34289	63.475
98.71396	68.975
103.08183	74.075
107.4465	72.775
111.80798	73.475
116.16626	76.575
120.52136	77.575
124.87327	78.975
129.222	81.175
133.56755	81.375
137.90993	89.775
142.24913	96.575
146.58517	106.775
150.91804	122.575
155.24774	140.375
159.57429	169.875
163.89768	213.675
168.21792	276.075
172.53501	375.775
176.84895	514.575
181.15975	721.175
185.46741	1017.175
189.77193	1407.175
194.07331	1875.575
198.37157	2435.475
202.6667	3019.375
206.9587	3600.675
211.24758	4169.875
215.53334	4733.675
219.81599	5334.175
224.09553	5996.675
228.37195	6701.375
232.64527	7501.175
236.91549	8326.975
241.18261	9227.975
245.44663	10057.575
249.70755	10823.075
253.96539	11469.875
258.22014	11993.875
262.4718	12411.575
266.72039	12653.675
270.96589	12775.675
275.20832	12765.575
279.44768	12734.675
283.68397	12614.175
287.91719	12550.975
292.14735	12442.075
296.37445	12390.475
300.59849	12350.975
304.81948	12269.875
309.03742	12191.475
313.25231	12066.075
317.46415	11858.975
321.67296	11645.075
325.87872	11471.075
330.08145	11359.975
334.28114	11367.975
338.47781	11474.375
342.67145	11592.575
346.86207	11720.875
351.04966	11872.975
355.23424	11990.575
359.4158	12095.075
363.59435	12217.375
367.76989	12292.975
371.94243	12362.075
376.11196	12389.775
380.27849	12465.475
384.44203	12503.575
388.60257	12598.575
392.76012	12725.975
396.91468	12873.775
401.06626	13068.275
405.21485	13209.775
409.36047	13253.275
413.50311	13179.375
417.64277	13126.975
421.77947	13069.375
425.9132	13072.975
430.04396	13118.775
434.17176	13198.775
438.2966	13276.575
442.41849	13362.475
446.53742	13498.075
450.6534	13655.675
454.76644	13773.075
458.87653	13869.375
462.98368	13936.275
467.08789	13956.875
471.18916	13918.675
475.2875	13888.475
479.38291	13846.975
483.4754	13784.175
487.56496	13750.075
491.6516	13668.775
495.73531	13637.775
499.81612	13643.175
503.89401	13640.875
507.96899	13747.575
512.04106	13764.975
516.11023	13740.875
520.1765	13726.575
524.23987	13677.875
528.30034	13618.975
532.35792	13573.175
536.41261	13480.475
540.46441	13411.975
544.51333	13492.975
548.55936	13565.875
552.60252	13785.775
556.64279	13973.275
560.6802	14029.975
564.71473	14102.675
568.7464	14186.975
572.7752	14345.775
576.80114	14554.575
580.82422	14800.275
584.84444	14970.975
588.86181	15045.375
592.87633	14949.075
596.888	14819.975
600.89682	14817.575
604.9028	15027.075
608.90594	15647.675
612.90624	16284.475
616.90371	15708.975
620.89834	14353.675
624.89015	13768.175
628.87913	13715.775
632.86528	13787.275
636.84862	13881.975
640.82913	13856.275
644.80683	13679.875
648.78172	13531.675
652.75379	13519.175
656.72306	13531.875
660.68952	13702.775
664.65319	13705.875
668.61405	13674.075
672.57211	13633.275
676.52738	13661.075
680.47986	13648.775
684.42955	13656.075
688.37646	13654.275
692.32058	13660.875
696.26192	13732.675
700.20048	13800.975
704.13626	13891.875
708.06928	13955.275
711.99952	13994.975
715.927	13920.575
719.85171	13898.975
723.77365	13853.675
727.69284	13730.275
731.60928	13634.375
735.52295	13581.475
739.43388	13586.175
743.34206	13587.975
747.24749	13633.375
751.15017	13669.175
755.05012	13797.675
758.94733	14048.075
762.8418	14458.775
766.73354	15091.775
770.62254	15699.175
774.50882	15799.275
778.39237	15344.675
782.27321	14725.675
786.15132	14182.575
790.02671	13821.975
793.89938	13623.075
797.76935	13522.375
801.6366	13492.375
805.50115	13466.075
809.36299	13453.775
813.22213	13401.975
817.07857	13430.275
820.93231	13425.075
824.78336	13432.275
828.63172	13454.975
832.47738	13472.375
836.32036	13469.175
840.16066	13460.975
843.99827	13435.475
847.8332	13407.275
851.66546	13398.775
855.49504	13400.975
859.32195	13410.675
863.1462	13394.475
866.96777	13402.875
870.78668	13406.675
874.60293	13400.675
878.41652	13424.075
882.22745	13494.175
886.03573	13499.275
889.84136	13516.375
893.64433	13515.175
897.44466	13464.275
901.24235	13461.175
905.0374	13442.275
908.8298	13453.775
912.61957	13488.375
916.40671	13558.275
920.19121	13634.275
923.97308	13677.475
927.75233	13624.775
931.52895	13604.475
935.30295	13513.075
939.07433	13382.975
942.84309	13247.375
946.60924	13191.375
950.37278	13119.375
954.13371	13117.975
957.89203	13056.375
961.64774	13062.175
965.40086	13018.575
969.15137	13023.975
972.89929	12977.975
976.64461	12973.675
980.38733	12957.075
984.12747	12969.175
987.86502	12955.475
991.59999	12978.375
995.33237	13004.575
999.06217	13105.975
1002.78939	13162.375
1006.51404	13276.575
1010.23611	13373.575
1013.95561	13426.875
1017.67255	13434.875
1021.38692	13382.975
1025.09872	13363.175
1028.80796	13272.575
1032.51465	13252.575
1036.21877	13296.575
1039.92035	13331.575
1043.61937	13393.475
1047.31584	13486.275
1051.00976	13527.975
1054.70114	13619.675
1058.38998	13737.775
1062.07627	13911.375
1065.76003	14135.175
1069.44126	14336.675
1073.11995	14559.475
1076.79611	14650.375
1080.46974	14625.575
1084.14085	14483.275
1087.80943	14393.275
1091.47549	14379.675
1095.13903	14352.275
1098.80005	14320.775
1102.45857	14119.775
1106.11456	13910.275
1109.76805	13715.375
1113.41903	13626.875
1117.06751	13675.675
1120.71348	13709.075
1124.35696	13825.075
1127.99793	13977.375
1131.63641	14084.575
1135.2724	13990.575
1138.90589	13871.275
1142.5369	13859.375
1146.16542	13861.475
1149.79145	13870.275
1153.415	13935.775
1157.03607	14012.975
1160.65467	14122.275
1164.27079	14343.775
1167.88443	14607.375
1171.49561	15017.875
1175.10432	15548.275
1178.71056	16185.575
1182.31434	16813.675
1185.91565	17205.975
1189.51451	17342.175
1193.11091	17302.875
1196.70485	16935.575
1200.29634	16497.175
1203.88538	16076.875
1207.47197	15710.775
1211.05612	15398.675
1214.63782	15218.475
1218.21708	14986.175
1221.79391	14819.575
1225.36829	14666.675
1228.94024	14605.775
1232.50976	14591.075
1236.07685	14593.575
1239.6415	14635.375
1243.20374	14641.475
1246.76355	14705.975
1250.32093	14802.875
1253.8759	14942.775
1257.42845	15139.375
1260.97859	15389.875
1264.52631	15573.075
1268.07163	15753.575
1271.61453	15906.775
1275.15503	16060.375
1278.69312	16218.075
1282.22882	16392.875
1285.76211	16575.875
1289.29301	16799.375
1292.82151	17026.575
1296.34761	17314.975
1299.87133	17716.575
1303.39266	18093.475
1306.9116	18526.775
1310.42815	18954.675
1313.94233	19247.475
1317.45412	19278.275
1320.96354	19224.975
1324.47058	19236.375
1327.97525	19236.375
1331.47754	19275.875
1334.97747	19421.075
1338.47502	19593.375
1341.97022	19860.075
1345.46305	20135.675
1348.95352	20279.075
1352.44163	20325.575
1355.92738	20268.175
1359.41078	20346.375
1362.89183	20452.175
1366.37053	20119.275
1369.84688	19171.275
1373.32088	18116.875
1376.79254	17278.475
1380.26186	16762.975
1383.72883	16512.075
1387.19347	16294.975
1390.65578	16107.675
1394.11575	15926.875
1397.57339	15776.775
1401.0287	15677.175
1404.48168	15611.075
1407.93234	15565.975
1411.38068	15418.475
1414.82669	15228.275
1418.27039	14920.775
1421.71177	14661.575
1425.15083	14385.575
1428.58758	14247.075
1432.02203	14186.175
1435.45416	14269.275
1438.88399	14345.175
1442.31151	14397.675
1445.73673	14511.775
1449.15965	14649.575
1452.58027	14765.575
1455.9986	14845.175
1459.41463	15016.475
1462.82837	15203.575
1466.23982	15462.975
1469.64898	15659.075
1473.05586	15863.475
1476.46045	16022.075
1479.86276	16102.175
1483.26279	16176.475
1486.66054	16285.275
1490.05602	16443.875
1493.44922	16742.975
1496.84016	17151.375
1500.22882	17752.875
1503.61521	18480.875
1506.99934	19176.475
1510.38121	19594.875
1513.76081	19528.275
1517.13816	19129.475
1520.51324	18542.775
1523.88607	18015.875
1527.25665	17625.875
1530.62498	17307.475
1533.99105	17089.775
1537.35488	16875.475
1540.71647	16618.675
1544.07581	16294.475
1547.4329	16074.875
1550.78776	15870.375
1554.14038	15773.975
1557.49077	15781.275
1560.83892	15811.575
1564.18484	15978.875
1567.52853	16089.275
1570.86999	16250.175
1574.20922	16426.675
1577.54624	16542.875
1580.88103	16485.275
1584.2136	16334.275
1587.54395	16159.375
1590.87208	16037.975
1594.19801	16100.375
1597.52172	16353.775
1600.84321	16394.575
1604.16251	16161.675
1607.47959	15766.575
1610.79447	15343.675
1614.10715	14866.875
1617.41763	14324.875
1620.7259	13934.275
1624.03199	13671.875
1627.33587	13540.075
1630.63757	13531.575
1633.93707	13757.675
1637.23439	14130.375
1640.52951	14785.075
1643.82246	15675.575
1647.11321	16569.575
1650.40179	17258.175
1653.68819	17226.275
1656.97241	16514.375
1660.25446	15463.875
1663.53433	14434.675
1666.81203	13615.575
1670.08756	13012.775
1673.36092	12598.075
1676.63211	12347.175
1679.90115	12149.375
1683.16801	12038.175
1686.43272	11937.475
1689.69527	11876.475
1692.95567	11799.975
1696.2139	11787.675
1699.46999	11784.475
1702.72392	11739.675
1705.97571	11685.475
1709.22535	11665.275
1712.47284	11633.675
1715.71819	11634.875
1718.96139	11584.775
1722.20246	11588.575
1725.44139	11537.175
1728.67818	11508.475
1731.91284	11478.875
1735.14537	11448.775
1738.37576	11388.275
1741.60403	11370.775
1744.83017	11351.575
1748.05418	11339.575
1751.27607	11305.175
1754.49584	11278.575
1757.71349	11283.975
1760.92903	11277.875
1764.14244	11275.375
1767.35375	11281.775
1770.56294	11259.075
1773.77002	11221.175
1776.97499	11233.875
1780.17785	11177.475
1783.37861	11172.575
1786.57727	11127.875
1789.77382	11122.275
1792.96828	11068.075
1796.16064	11054.375
1799.3509	11010.275
1802.53907	11009.275
1805.72514	10984.075
1808.90913	10955.275
1812.09102	10934.775
1815.27083	10910.175
1818.44856	10906.275
1821.6242	10884.275
1824.79776	10862.375
1827.96924	10844.175
1831.13864	10854.875
1834.30597	10865.975
1837.47122	10846.475
1840.6344	10792.875
1843.7955	10806.175
1846.95454	10801.875
1850.11151	10787.475
1853.26642	10767.475
1856.41926	10765.575
1859.57004	10761.675
1862.71876	10752.975
1865.86542	10744.075
1869.01003	10743.275
1872.15258	10716.575
1875.29308	10701.175
1878.43152	10670.875
1881.56792	10649.575
1884.70227	10649.875
1887.83457	10619.975
1890.96482	10580.875
1894.09304	10571.875
1897.21921	10564.675
1900.34335	10558.975
1903.46544	10522.275
1906.58551	10521.575
1909.70353	10518.275
1912.81953	10485.975
1915.93349	10472.875
1919.04543	10435.175
1922.15534	10443.275
1925.26322	10410.175
1928.36908	10407.375
1931.47292	10378.375
1934.57473	10357.575
1937.67453	10326.075
1940.77232	10308.075
1943.86808	10285.975
1946.96184	10232.975
1950.05358	10224.875
1953.14331	10211.675
1956.23103	10171.575
1959.31675	10146.675
1962.40046	10118.575
1965.48217	10073.175
1968.56188	10089.675
1971.63959	10017.175
1974.7153	9982.475
1977.78901	9946.675
1980.86073	9910.475
1983.93046	9898.175
1986.99819	9863.875
1990.06394	9825.375
1993.1277	9796.975
1996.18947	9753.175
1999.24925	9716.675
2002.30706	9707.075
2005.36288	9697.475
2008.41672	9657.475
2011.46859	9622.875
2014.51848	9577.275
2017.56639	9578.275
2020.61233	9528.875
2023.6563	9514.875
2026.6983	9499.875
2029.73833	9468.975
2032.7764	9441.075
2035.8125	9402.875
2038.84664	9408.675
2041.87881	9374.775
2044.90903	9347.075
2047.93729	9342.575
2050.96359	9314.075
2053.98794	9297.375
2057.01034	9301.175
2060.03078	9279.475
2063.04927	9259.975
2066.06582	9266.075
2069.08042	9260.675
2072.09307	9248.975
2075.10378	9259.975
2078.11255	9233.075
2081.11938	9256.475
2084.12426	9224.875
2087.12722	9233.475
2090.12824	9210.975
2093.12732	9235.275
2096.12447	9218.875
2099.11969	9215.875
2102.11299	9213.275
2105.10435	9227.775
2108.09379	9225.675
2111.08131	9242.775
2114.0669	9216.875
2117.05057	9229.675
2120.03233	9227.875
2123.01216	9246.675
2125.99008	9236.975
2128.96609	9246.175
2131.94018	9250.475
2134.91236	9242.575
2137.88263	9273.175
2140.851	9278.875
2143.81746	9262.575
2146.78201	9266.275
2149.74466	9272.175
2152.7054	9277.775
2155.66425	9251.575
2158.6212	9274.975
2161.57625	9287.275
2164.52941	9284.575
2167.48067	9251.575
2170.43004	9250.775
2173.37752	9236.575
2176.32311	9221.275
2179.26681	9221.275
2182.20863	9229.275
2185.14856	9236.475
2188.08661	9221.175
2191.02278	9208.175
2193.95707	9181.775
2196.88948	9201.675
2199.82001	9186.375
2202.74867	9157.075
2205.67545	9165.475
2208.60037	9136.375
2211.52341	9137.375
2214.44458	9098.375
2217.36388	9070.475
2220.28132	9076.075
2223.1969	9051.275
2226.11061	9051.075
2229.02246	8993.175
2231.93245	9015.475
2234.84058	8987.375
2237.74686	8979.475
2240.65128	8960.075
2243.55385	8943.875
2246.45456	8924.875
2249.35343	8909.475
2252.25044	8908.775
2255.14561	8877.975
2258.03893	8890.075
2260.93041	8877.875
2263.82004	8842.575
2266.70783	8826.475
2269.59378	8811.875
2272.4779	8767.875
2275.36017	8739.675
2278.24061	8721.275
2281.11922	8681.375
2283.996	8699.975
2286.87094	8670.775
2289.74405	8654.575
2292.61534	8644.875
2295.4848	8639.075
2298.35243	8614.875
2301.21824	8617.475
2304.08223	8631.475
2306.94439	8600.475
2309.80474	8583.875
2312.66327	8583.575
2315.51999	8558.175
2318.37489	8547.175
2321.22797	8523.375
2324.07925	8530.775
2326.92871	8496.975
2329.77637	8526.775
2332.62222	8493.175
2335.46626	8479.675
2338.3085	8459.375
2341.14893	8425.975
2343.98756	8403.175
2346.8244	8424.575
2349.65943	8401.375
2352.49267	8416.875
2355.32411	8396.775
2358.15376	8401.575
2360.98161	8370.875
2363.80768	8388.575
2366.63195	8369.475
2369.45444	8374.175
2372.27514	8364.575
2375.09405	8325.975
2377.91118	8350.375
2380.72652	8311.475
2383.54009	8286.275
2386.35187	8288.575
2389.16188	8258.075
2391.97011	8235.675
2394.77657	8218.875
2397.58125	8193.275
2400.38416	8188.675
2403.18529	8164.475
2405.98466	8169.775
2408.78226	8151.375
2411.57809	8153.075
2414.37216	8112.575
2417.16446	8111.475
2419.955	8083.575
2422.74378	8115.575
2425.5308	8079.275
2428.31606	8083.875
2431.09956	8053.975
2433.88131	8030.875
2436.6613	8040.875
2439.43954	8037.875
2442.21603	8018.075
2444.99077	7990.775
2447.76377	8014.075
2450.53501	7987.275
2453.30451	7977.075
2456.07226	7965.475
2458.83827	7954.575
2461.60254	7946.075
2464.36507	7923.675
2467.12586	7935.075
2469.88492	7936.375
2472.64224	7910.675
2475.39782	7894.575
2478.15167	7894.975
2480.90379	7894.075
2483.65417	7901.975
2486.40283	7856.775
2489.14976	7878.475
2491.89497	7877.375
2494.63845	7847.475
2497.3802	7850.075
2500.12024	7835.875
2502.85855	7842.075
2505.59514	7828.475
2508.33002	7807.775
2511.06318	7796.075
2513.79462	7782.075
2516.52435	7767.775
2519.25237	7776.475
2521.97867	7751.275
2524.70327	7748.975
2527.42616	7730.975
2530.14734	7718.075
2532.86681	7707.075
2535.58458	7701.075
2538.30065	7679.575
2541.01501	7664.675
2543.72768	7670.375
2546.43864	7647.875
2549.14791	7630.175
2551.85548	7610.975
2554.56136	7590.675
2557.26554	7580.675
2559.96803	7557.075
2562.66883	7556.175
2565.36794	7553.975
2568.06536	7525.675
2570.7611	7532.875
2573.45514	7521.275
2576.14751	7502.475
2578.83819	7472.475
2581.52719	7460.275
2584.21451	7433.675
2586.90015	7431.975
2589.58411	7409.275
2592.2664	7393.975
2594.94701	7384.875
2597.62594	7370.275
2600.30321	7323.175
2602.9788	7337.775
2605.65273	7319.175
2608.32498	7310.075
2610.99557	7302.775
2613.66449	7271.775
2616.33175	7280.775
2618.99734	7269.575
2621.66128	7250.975
2624.32355	7236.075
2626.98416	7221.075
2629.64311	7219.275
2632.30041	7216.675
2634.95605	7213.275
2637.61004	7194.975
2640.26238	7193.575
2642.91306	7181.175
2645.56209	7180.575
2648.20948	7154.375
2650.85521	7143.175
2653.4993	7130.975
2656.14175	7133.375
2658.78255	7155.775
2661.42171	7142.575
2664.05923	7129.675
2666.6951	7115.175
2669.32934	7142.075
2671.96194	7113.975
2674.59291	7109.675
2677.22224	7120.475
2679.84993	7127.475
2682.476	7097.375
2685.10043	7098.975
2687.72324	7098.675
2690.34441	7086.175
2692.96396	7109.375
2695.58188	7084.875
2698.19818	7104.875
2700.81285	7109.575
2703.4259	7101.375
2706.03733	7147.575
2708.64714	7117.475
2711.25533	7097.975
2713.86191	7111.075
2716.46687	7120.475
2719.07021	7075.575
2721.67194	7064.675
2724.27206	7062.275
2726.87057	7083.475
2729.46747	7065.475
2732.06276	7063.475
2734.65644	7031.975
2737.24852	7050.275
2739.83899	7035.075
2742.42786	7027.775
2745.01513	7002.175
2747.60079	6997.975
2750.18486	7012.175
2752.76733	6997.975
2755.3482	7000.275
2757.92747	6980.775
2760.50515	6951.775
2763.08123	6950.375
2765.65573	6938.875
2768.22863	6943.575
2770.79994	6911.975
2773.36967	6922.675
2775.9378	6905.075
2778.50435	6891.975
2781.06932	6864.475
2783.6327	6874.775
2786.1945	6851.175
2788.75471	6841.975
2791.31335	6828.675
2793.87041	6822.575
2796.42589	6798.775
2798.97979	6810.675
2801.53212	6767.175
2804.08288	6777.275
2806.63206	6757.075
2809.17967	6742.175
2811.72571	6698.375
2814.27018	6696.275
2816.81308	6697.275
2819.35442	6699.075
2821.89419	6676.075
2824.43239	6660.075
2826.96904	6653.275
2829.50412	6653.375
2832.03763	6640.775
2834.56959	6623.675
2837.1	6611.975
2839.62884	6637.375
2842.15613	6630.775
2844.68186	6640.775
2847.20604	6626.975
2849.72867	6630.275
2852.24974	6626.075
2854.76927	6628.275
2857.28724	6616.875
2859.80367	6588.375
2862.31855	6594.975
2864.83189	6576.575
2867.34368	6557.075
2869.85393	6570.975
2872.36264	6560.775
2874.8698	6554.375
2877.37543	6563.875
2879.87952	6555.575
2882.38207	6540.675
2884.88308	6533.975
2887.38256	6548.175
2889.88051	6527.575
2892.37692	6522.775
2894.8718	6505.175
2897.36515	6521.675
2899.85698	6517.175
2902.34727	6506.875
2904.83604	6514.375
2907.32328	6536.075
2909.809	6524.275
2912.29319	6517.675
2914.77587	6511.375
2917.25702	6517.375
2919.73665	6505.975
2922.21476	6488.975
2924.69136	6498.375
2927.16644	6504.775
2929.64	6488.175
2932.11205	6481.875
2934.58258	6472.675
2937.05161	6453.775
2939.51912	6462.175
2941.98513	6461.075
2944.44962	6432.175
2946.91261	6419.275
2949.37409	6427.375
2951.83407	6430.875
2954.29254	6418.675
2956.74951	6391.575
2959.20498	6399.075
2961.65895	6387.375
2964.11142	6398.075
2966.56239	6367.475
2969.01186	6373.975
2971.45984	6342.775
2973.90632	6358.175
2976.35131	6317.775
2978.7948	6306.375
2981.23681	6292.775
2983.67732	6302.975
2986.11635	6271.875
2988.55388	6265.175
2990.98993	6257.475
2993.4245	6253.275
2995.85758	6239.375
2998.28917	6207.775
3000.71928	6229.775
3003.14791	6214.775
3005.57506	6188.375
3008.00073	6185.575
3010.42493	6179.775
3012.84764	6152.375
3015.26888	6131.575
3017.68865	6141.675
3020.10694	6125.475
3022.52376	6117.475
3024.9391	6115.975
3027.35298	6100.075
3029.76539	6117.575
3032.17632	6105.375
3034.5858	6098.275
3036.9938	6074.075
3039.40034	6060.875
3041.80542	6070.975
3044.20903	6026.575
3046.61118	6065.475
3049.01187	6025.275
3051.4111	6025.775
3053.80888	6023.575
3056.20519	6015.975
3058.60005	6004.475
3060.99345	5991.575
3063.3854	5983.675
3065.7759	5972.075
3068.16494	5972.775
3070.55254	5957.375
3072.93868	5935.975
3075.32338	5928.175
3077.70662	5909.775
3080.08842	5914.375
3082.46878	5917.775
3084.84769	5887.075
3087.22515	5884.175
3089.60118	5891.975
3091.97576	5889.575
3094.3489	5887.775
3096.72061	5892.175
3099.09087	5882.475
3101.4597	5867.775
3103.82709	5875.375
3106.19305	5845.375
3108.55757	5862.875
3110.92066	5855.975
3113.28232	5848.675
3115.64255	5840.275
3118.00134	5808.675
3120.35871	5819.375
3122.71466	5825.475
3125.06917	5816.075
3127.42226	5777.775
3129.77393	5833.575
3132.12417	5809.775
3134.47299	5824.975
3136.82039	5814.675
3139.16636	5803.375
3141.51092	5822.275
3143.85406	5817.375
3146.19579	5818.675
3148.53609	5828.075
3150.87499	5843.675
3153.21246	5855.575
3155.54853	5837.275
3157.88318	5832.575
3160.21642	5848.075
3162.54826	5847.875
3164.87868	5850.875
3167.2077	5842.575
3169.5353	5845.175
3171.86151	5833.175
3174.18631	5838.475
3176.5097	5854.975
3178.83169	5829.475
3181.15228	5824.775
