Data from AgNP_FTO_APTES_CRN_10uM_R6G_10uM_NaF_0.1M_Addition_RamanShift__22__16-40-37-980.txt Node

Date: Wed Dec 15 16:40:37 GMT 2021
User: TCL
Spectrometer: QEP01345
Trigger mode: 4
Integration Time (sec): 7.000000E0
Scans to average: 10
Electric dark correction enabled: true
Nonlinearity correction enabled: false
Boxcar width: 0
XAxis mode: Raman Shifts
Number of Pixels in Spectrum: 1044
>>>>>Begin Spectral Data<<<<<
46.04893	1.1875
50.45542	-2.0125
54.85868	-1.2125
59.25871	-0.5125
63.6555	77.8875
68.04907	85.0875
72.43941	85.9875
76.82654	91.4875
81.21044	94.7875
85.59113	100.9875
89.96862	105.9875
94.34289	100.8875
98.71396	113.0875
103.08183	117.3875
107.4465	118.9875
111.80798	118.5875
116.16626	122.3875
120.52136	130.0875
124.87327	127.9875
129.222	134.8875
133.56755	141.8875
137.90993	151.6875
142.24913	167.8875
146.58517	184.3875
150.91804	209.4875
155.24774	251.0875
159.57429	303.7875
163.89768	388.4875
168.21792	504.4875
172.53501	677.4875
176.84895	939.3875
181.15975	1320.8875
185.46741	1854.4875
189.77193	2550.0875
194.07331	3401.4875
198.37157	4369.6875
202.6667	5404.8875
206.9587	6398.6875
211.24758	7397.8875
215.53334	8392.1875
219.81599	9463.5875
224.09553	10639.1875
228.37195	11944.7875
232.64527	13353.2875
236.91549	14919.7875
241.18261	16449.6875
245.44663	17841.1875
249.70755	19102.7875
253.96539	20201.7875
258.22014	21159.4875
262.4718	21905.7875
266.72039	22450.2875
270.96589	22747.0875
275.20832	22849.8875
279.44768	22722.9875
283.68397	22460.9875
287.91719	22355.4875
292.14735	22280.7875
296.37445	22337.4875
300.59849	22466.2875
304.81948	22556.3875
309.03742	22556.0875
313.25231	22276.9875
317.46415	21747.2875
321.67296	21065.0875
325.87872	20482.9875
330.08145	20195.7875
334.28114	20182.6875
338.47781	20363.4875
342.67145	20623.0875
346.86207	21026.3875
351.04966	21527.6875
355.23424	22086.9875
359.4158	22493.9875
363.59435	22809.6875
367.76989	22939.5875
371.94243	22952.8875
376.11196	22935.8875
380.27849	22952.3875
384.44203	23032.9875
388.60257	23089.4875
392.76012	23269.0875
396.91468	23523.3875
401.06626	23911.9875
405.21485	24132.0875
409.36047	24056.2875
413.50311	23610.5875
417.64277	23207.9875
421.77947	23091.0875
425.9132	23114.4875
430.04396	23270.7875
434.17176	23442.0875
438.2966	23707.2875
442.41849	24088.1875
446.53742	24680.0875
450.6534	25384.8875
454.76644	25900.3875
458.87653	26113.8875
462.98368	26011.3875
467.08789	25742.5875
471.18916	25447.1875
475.2875	25132.1875
479.38291	24888.9875
483.4754	24638.7875
487.56496	24286.2875
491.6516	23904.6875
495.73531	23617.2875
499.81612	23552.7875
503.89401	23670.0875
507.96899	23795.9875
512.04106	23834.7875
516.11023	23957.6875
520.1765	24002.9875
524.23987	24023.7875
528.30034	23909.5875
532.35792	23652.5875
536.41261	23198.7875
540.46441	22813.8875
544.51333	22653.7875
548.55936	22876.6875
552.60252	23303.3875
556.64279	23770.1875
560.6802	24050.2875
564.71473	24173.0875
568.7464	24424.6875
572.7752	24850.9875
576.80114	25159.5875
580.82422	25408.7875
584.84444	25740.6875
588.86181	26184.2875
592.87633	26792.1875
596.888	27342.0875
600.89682	27769.5875
604.9028	28670.7875
608.90594	30931.8875
612.90624	33358.6875
616.90371	31415.6875
620.89834	26135.9875
624.89015	23828.1875
628.87913	23615.8875
632.86528	23724.3875
636.84862	23685.3875
640.82913	23257.5875
644.80683	22615.7875
648.78172	22075.7875
652.75379	21935.1875
656.72306	22167.6875
660.68952	22498.7875
664.65319	22405.3875
668.61405	21987.8875
672.57211	21838.4875
676.52738	21852.7875
680.47986	21853.7875
684.42955	21752.2875
688.37646	21704.7875
692.32058	21719.2875
696.26192	21924.4875
700.20048	22196.4875
704.13626	22397.4875
708.06928	22399.2875
711.99952	22299.9875
715.927	22271.3875
719.85171	22313.1875
723.77365	22144.3875
727.69284	21887.7875
731.60928	21684.2875
735.52295	21623.6875
739.43388	21656.2875
743.34206	21704.2875
747.24749	21795.5875
751.15017	21964.8875
755.05012	22317.1875
758.94733	23006.6875
762.8418	24282.2875
766.73354	26328.0875
770.62254	28372.5875
774.50882	28881.4875
778.39237	27459.5875
782.27321	25219.1875
786.15132	23392.1875
790.02671	22350.6875
793.89938	21849.0875
797.76935	21672.6875
801.6366	21653.8875
805.50115	21550.7875
809.36299	21452.3875
813.22213	21255.0875
817.07857	21162.4875
820.93231	21154.4875
824.78336	21128.6875
828.63172	21144.9875
832.47738	21200.1875
836.32036	21293.0875
840.16066	21376.6875
843.99827	21468.6875
847.8332	21344.1875
851.66546	21166.4875
855.49504	21095.3875
859.32195	21050.1875
863.1462	20967.9875
866.96777	20903.6875
870.78668	20800.8875
874.60293	20771.1875
878.41652	20793.1875
882.22745	20856.2875
886.03573	20927.2875
889.84136	20936.3875
893.64433	20856.8875
897.44466	20751.7875
901.24235	20666.0875
905.0374	20662.9875
908.8298	20636.4875
912.61957	20673.3875
916.40671	20906.4875
920.19121	21183.3875
923.97308	21438.6875
927.75233	21576.9875
931.52895	21528.1875
935.30295	21294.3875
939.07433	20830.3875
942.84309	20494.5875
946.60924	20329.7875
950.37278	20237.7875
954.13371	20171.2875
957.89203	20043.5875
961.64774	20006.6875
965.40086	19967.6875
969.15137	19892.4875
972.89929	19798.7875
976.64461	19692.7875
980.38733	19753.8875
984.12747	19867.8875
987.86502	20007.7875
991.59999	20262.0875
995.33237	20722.1875
999.06217	21382.7875
1002.78939	22148.9875
1006.51404	22585.5875
1010.23611	22897.8875
1013.95561	23126.8875
1017.67255	23065.3875
1021.38692	22785.0875
1025.09872	22535.4875
1028.80796	22794.1875
1032.51465	23575.7875
1036.21877	24292.6875
1039.92035	24407.4875
1043.61937	24073.2875
1047.31584	23458.8875
1051.00976	22972.9875
1054.70114	22745.3875
1058.38998	22949.5875
1062.07627	23283.0875
1065.76003	23899.6875
1069.44126	24711.7875
1073.11995	25675.2875
1076.79611	26435.4875
1080.46974	26592.8875
1084.14085	26119.1875
1087.80943	25551.7875
1091.47549	24872.9875
1095.13903	24256.6875
1098.80005	23603.7875
1102.45857	22919.7875
1106.11456	22524.7875
1109.76805	22403.0875
1113.41903	22465.7875
1117.06751	22677.6875
1120.71348	22914.1875
1124.35696	23226.8875
1127.99793	23567.5875
1131.63641	23796.1875
1135.2724	23643.3875
1138.90589	23414.1875
1142.5369	23264.5875
1146.16542	23103.5875
1149.79145	23125.3875
1153.415	23277.5875
1157.03607	23611.9875
1160.65467	24188.0875
1164.27079	25172.4875
1167.88443	26574.2875
1171.49561	28458.7875
1175.10432	30991.4875
1178.71056	34131.0875
1182.31434	36885.7875
1185.91565	38099.0875
1189.51451	37688.5875
1193.11091	36148.1875
1196.70485	34214.3875
1200.29634	32408.6875
1203.88538	31124.3875
1207.47197	30163.1875
1211.05612	29475.4875
1214.63782	28926.7875
1218.21708	28593.1875
1221.79391	28404.4875
1225.36829	28305.7875
1228.94024	28064.8875
1232.50976	27651.7875
1236.07685	27260.4875
1239.6415	27030.3875
1243.20374	26996.5875
1246.76355	27118.3875
1250.32093	27540.9875
1253.8759	28152.7875
1257.42845	29010.6875
1260.97859	29798.1875
1264.52631	30588.6875
1268.07163	31478.8875
1271.61453	32489.9875
1275.15503	33564.1875
1278.69312	34591.7875
1282.22882	35533.0875
1285.76211	36347.7875
1289.29301	37286.0875
1292.82151	38484.9875
1296.34761	40106.5875
1299.87133	42301.4875
1303.39266	44966.0875
1306.9116	48087.0875
1310.42815	51130.0875
1313.94233	53030.0875
1317.45412	53130.1875
1320.96354	51965.3875
1324.47058	50468.4875
1327.97525	49059.4875
1331.47754	47961.3875
1334.97747	47381.0875
1338.47502	47180.0875
1341.97022	47025.1875
1345.46305	46659.9875
1348.95352	46251.2875
1352.44163	46303.3875
1355.92738	47465.7875
1359.41078	50071.1875
1362.89183	52622.5875
1366.37053	51982.6875
1369.84688	47746.3875
1373.32088	42665.8875
1376.79254	38912.6875
1380.26186	37197.7875
1383.72883	36711.9875
1387.19347	36298.7875
1390.65578	35893.5875
1394.11575	35612.6875
1397.57339	35878.4875
1401.0287	36540.9875
1404.48168	37152.6875
1407.93234	37297.4875
1411.38068	36835.5875
1414.82669	35814.1875
1418.27039	34306.7875
1421.71177	32894.6875
1425.15083	31662.6875
1428.58758	30974.5875
1432.02203	31036.2875
1435.45416	31545.4875
1438.88399	32300.6875
1442.31151	32987.0875
1445.73673	33546.4875
1449.15965	34074.2875
1452.58027	34466.8875
1455.9986	34683.3875
1459.41463	35056.3875
1462.82837	35667.4875
1466.23982	36539.0875
1469.64898	37306.8875
1473.05586	37745.5875
1476.46045	37738.6875
1479.86276	37557.8875
1483.26279	37155.4875
1486.66054	36856.8875
1490.05602	36842.1875
1493.44922	37105.0875
1496.84016	37516.2875
1500.22882	38240.4875
1503.61521	39576.1875
1506.99934	41210.0875
1510.38121	42679.7875
1513.76081	43258.9875
1517.13816	42324.6875
1520.51324	40392.6875
1523.88607	38501.4875
1527.25665	37290.8875
1530.62498	36581.7875
1533.99105	36337.3875
1537.35488	36033.7875
1540.71647	35612.3875
1544.07581	35104.6875
1547.4329	34489.2875
1550.78776	33931.8875
1554.14038	33591.5875
1557.49077	33489.0875
1560.83892	33478.0875
1564.18484	33692.6875
1567.52853	34081.7875
1570.86999	34889.4875
1574.20922	36186.8875
1577.54624	37711.8875
1580.88103	38856.3875
1584.2136	39188.6875
1587.54395	39236.0875
1590.87208	39318.4875
1594.19801	40374.4875
1597.52172	41977.8875
1600.84321	42422.0875
1604.16251	40566.7875
1607.47959	37356.9875
1610.79447	34105.7875
1614.10715	31148.7875
1617.41763	28790.2875
1620.7259	27120.8875
1624.03199	26290.9875
1627.33587	26324.0875
1630.63757	27040.1875
1633.93707	28747.1875
1637.23439	31391.4875
1640.52951	34956.9875
1643.82246	39011.7875
1647.11321	42108.3875
1650.40179	42741.2875
1653.68819	40151.4875
1656.97241	35188.6875
1660.25446	30190.1875
1663.53433	26445.6875
1666.81203	24012.0875
1670.08756	22453.4875
1673.36092	21453.5875
1676.63211	20785.5875
1679.90115	20338.4875
1683.16801	20000.3875
1686.43272	19779.2875
1689.69527	19547.6875
1692.95567	19456.5875
1696.2139	19337.3875
1699.46999	19345.2875
1702.72392	19248.6875
1705.97571	19214.2875
1709.22535	19140.4875
1712.47284	19069.5875
1715.71819	19012.9875
1718.96139	18967.5875
1722.20246	18898.6875
1725.44139	18825.5875
1728.67818	18735.3875
1731.91284	18628.0875
1735.14537	18490.1875
1738.37576	18409.0875
1741.60403	18385.7875
1744.83017	18334.5875
1748.05418	18307.3875
1751.27607	18258.9875
1754.49584	18212.9875
1757.71349	18228.3875
1760.92903	18223.8875
1764.14244	18193.3875
1767.35375	18190.6875
1770.56294	18157.8875
1773.77002	18142.3875
1776.97499	18107.2875
1780.17785	18044.7875
1783.37861	18019.3875
1786.57727	17960.6875
1789.77382	17957.9875
1792.96828	17918.9875
1796.16064	17885.7875
1799.3509	17821.4875
1802.53907	17816.5875
1805.72514	17767.7875
1808.90913	17726.9875
1812.09102	17666.8875
1815.27083	17656.4875
1818.44856	17632.6875
1821.6242	17592.2875
1824.79776	17559.9875
1827.96924	17583.7875
1831.13864	17562.1875
1834.30597	17615.2875
1837.47122	17592.4875
1840.6344	17596.5875
1843.7955	17586.3875
1846.95454	17585.1875
1850.11151	17576.0875
1853.26642	17586.5875
1856.41926	17586.7875
1859.57004	17576.2875
1862.71876	17599.8875
1865.86542	17558.8875
1869.01003	17559.8875
1872.15258	17533.3875
1875.29308	17539.5875
1878.43152	17502.7875
1881.56792	17493.9875
1884.70227	17479.5875
1887.83457	17468.4875
1890.96482	17454.8875
1894.09304	17480.7875
1897.21921	17488.6875
1900.34335	17481.1875
1903.46544	17457.2875
1906.58551	17481.8875
1909.70353	17432.5875
1912.81953	17374.8875
1915.93349	17389.7875
1919.04543	17331.6875
1922.15534	17313.7875
1925.26322	17261.2875
1928.36908	17234.8875
1931.47292	17191.4875
1934.57473	17149.9875
1937.67453	17080.1875
1940.77232	17058.5875
1943.86808	17015.6875
1946.96184	16950.7875
1950.05358	16918.5875
1953.14331	16850.2875
1956.23103	16812.7875
1959.31675	16766.1875
1962.40046	16740.4875
1965.48217	16666.8875
1968.56188	16622.7875
1971.63959	16567.8875
1974.7153	16511.3875
1977.78901	16463.5875
1980.86073	16400.9875
1983.93046	16366.7875
1986.99819	16324.2875
1990.06394	16266.1875
1993.1277	16249.7875
1996.18947	16145.0875
1999.24925	16118.0875
2002.30706	16064.1875
2005.36288	16065.4875
2008.41672	16019.8875
2011.46859	15953.9875
2014.51848	15957.7875
2017.56639	15873.7875
2020.61233	15842.6875
2023.6563	15818.5875
2026.6983	15822.1875
2029.73833	15791.6875
2032.7764	15775.6875
2035.8125	15769.7875
2038.84664	15739.1875
2041.87881	15704.7875
2044.90903	15678.8875
2047.93729	15656.3875
2050.96359	15664.4875
2053.98794	15646.8875
2057.01034	15596.7875
2060.03078	15623.5875
2063.04927	15585.7875
2066.06582	15586.1875
2069.08042	15581.5875
2072.09307	15546.2875
2075.10378	15543.6875
2078.11255	15489.0875
2081.11938	15538.8875
2084.12426	15511.6875
2087.12722	15522.5875
2090.12824	15523.0875
2093.12732	15515.8875
2096.12447	15532.1875
2099.11969	15495.7875
2102.11299	15515.0875
2105.10435	15521.3875
2108.09379	15549.0875
2111.08131	15567.4875
2114.0669	15575.1875
2117.05057	15559.0875
2120.03233	15592.5875
2123.01216	15607.5875
2125.99008	15606.3875
2128.96609	15620.5875
2131.94018	15635.6875
2134.91236	15651.0875
2137.88263	15657.6875
2140.851	15683.3875
2143.81746	15696.2875
2146.78201	15692.2875
2149.74466	15702.8875
2152.7054	15669.3875
2155.66425	15720.6875
2158.6212	15733.3875
2161.57625	15697.2875
2164.52941	15697.2875
2167.48067	15681.9875
2170.43004	15686.0875
2173.37752	15690.6875
2176.32311	15701.4875
2179.26681	15692.4875
2182.20863	15693.4875
2185.14856	15700.2875
2188.08661	15681.1875
2191.02278	15708.0875
2193.95707	15719.2875
2196.88948	15721.8875
2199.82001	15676.0875
2202.74867	15696.1875
2205.67545	15714.0875
2208.60037	15693.8875
2211.52341	15707.0875
2214.44458	15677.9875
2217.36388	15673.3875
2220.28132	15667.6875
2223.1969	15614.6875
2226.11061	15611.4875
2229.02246	15603.9875
2231.93245	15551.3875
2234.84058	15546.4875
2237.74686	15529.8875
2240.65128	15498.0875
2243.55385	15446.5875
2246.45456	15383.9875
2249.35343	15377.6875
2252.25044	15391.0875
2255.14561	15353.5875
2258.03893	15384.1875
2260.93041	15360.5875
2263.82004	15295.5875
2266.70783	15273.4875
2269.59378	15237.5875
2272.4779	15196.2875
2275.36017	15168.1875
2278.24061	15148.8875
2281.11922	15107.5875
2283.996	15087.9875
2286.87094	15087.1875
2289.74405	15048.6875
2292.61534	15043.9875
2295.4848	15045.4875
2298.35243	15038.0875
2301.21824	15028.3875
2304.08223	15043.1875
2306.94439	15048.9875
2309.80474	15069.0875
2312.66327	15082.3875
2315.51999	15079.4875
2318.37489	15129.1875
2321.22797	15099.2875
2324.07925	15060.7875
2326.92871	15030.4875
2329.77637	15038.7875
2332.62222	15030.2875
2335.46626	15066.2875
2338.3085	15024.5875
2341.14893	15059.7875
2343.98756	15060.5875
2346.8244	15065.0875
2349.65943	15083.0875
2352.49267	15058.0875
2355.32411	15088.0875
2358.15376	15037.0875
2360.98161	15011.3875
2363.80768	15024.7875
2366.63195	15003.7875
2369.45444	14956.4875
2372.27514	14955.6875
2375.09405	14938.5875
2377.91118	14910.4875
2380.72652	14861.0875
2383.54009	14825.3875
2386.35187	14817.2875
2389.16188	14766.9875
2391.97011	14769.5875
2394.77657	14731.8875
2397.58125	14741.7875
2400.38416	14722.7875
2403.18529	14665.9875
2405.98466	14650.6875
2408.78226	14642.9875
2411.57809	14606.5875
2414.37216	14588.3875
2417.16446	14578.7875
2419.955	14531.3875
2422.74378	14533.2875
2425.5308	14513.7875
2428.31606	14503.8875
2431.09956	14487.5875
2433.88131	14502.4875
2436.6613	14494.6875
2439.43954	14490.9875
2442.21603	14481.9875
2444.99077	14456.5875
2447.76377	14511.8875
2450.53501	14474.5875
2453.30451	14494.5875
2456.07226	14454.0875
2458.83827	14453.1875
2461.60254	14461.9875
2464.36507	14455.9875
2467.12586	14465.8875
2469.88492	14454.7875
2472.64224	14469.4875
2475.39782	14459.2875
2478.15167	14490.5875
2480.90379	14487.2875
2483.65417	14515.1875
2486.40283	14529.9875
2489.14976	14546.9875
2491.89497	14571.0875
2494.63845	14588.4875
2497.3802	14554.0875
2500.12024	14543.0875
2502.85855	14577.6875
2505.59514	14543.3875
2508.33002	14508.5875
2511.06318	14486.0875
2513.79462	14466.1875
2516.52435	14479.0875
2519.25237	14460.2875
2521.97867	14440.0875
2524.70327	14442.7875
2527.42616	14425.1875
2530.14734	14453.0875
2532.86681	14410.5875
2535.58458	14406.9875
2538.30065	14415.7875
2541.01501	14382.1875
2543.72768	14395.9875
2546.43864	14411.5875
2549.14791	14364.0875
2551.85548	14374.0875
2554.56136	14332.4875
2557.26554	14345.0875
2559.96803	14356.8875
2562.66883	14335.2875
2565.36794	14348.5875
2568.06536	14331.5875
2570.7611	14336.7875
2573.45514	14341.8875
2576.14751	14325.1875
2578.83819	14292.3875
2581.52719	14304.4875
2584.21451	14265.4875
2586.90015	14338.4875
2589.58411	14280.4875
2592.2664	14253.2875
2594.94701	14255.9875
2597.62594	14251.0875
2600.30321	14248.7875
2602.9788	14239.6875
2605.65273	14227.2875
2608.32498	14209.7875
2610.99557	14211.3875
2613.66449	14233.5875
2616.33175	14211.7875
2618.99734	14239.0875
2621.66128	14238.5875
2624.32355	14248.0875
2626.98416	14267.4875
2629.64311	14253.9875
2632.30041	14277.7875
2634.95605	14274.9875
2637.61004	14226.6875
2640.26238	14195.6875
2642.91306	14198.4875
2645.56209	14179.1875
2648.20948	14183.0875
2650.85521	14195.9875
2653.4993	14176.0875
2656.14175	14160.5875
2658.78255	14162.8875
2661.42171	14157.3875
2664.05923	14163.7875
2666.6951	14197.2875
2669.32934	14210.4875
2671.96194	14201.3875
2674.59291	14187.4875
2677.22224	14196.6875
2679.84993	14175.7875
2682.476	14179.1875
2685.10043	14166.5875
2687.72324	14164.6875
2690.34441	14183.9875
2692.96396	14187.9875
2695.58188	14156.3875
2698.19818	14164.5875
2700.81285	14196.4875
2703.4259	14200.0875
2706.03733	14249.0875
2708.64714	14212.9875
2711.25533	14232.1875
2713.86191	14203.4875
2716.46687	14231.9875
2719.07021	14223.1875
2721.67194	14241.3875
2724.27206	14205.7875
2726.87057	14238.5875
2729.46747	14246.0875
2732.06276	14260.7875
2734.65644	14254.0875
2737.24852	14243.4875
2739.83899	14251.6875
2742.42786	14235.4875
2745.01513	14199.9875
2747.60079	14222.7875
2750.18486	14210.1875
2752.76733	14240.2875
2755.3482	14244.4875
2757.92747	14242.5875
2760.50515	14221.8875
2763.08123	14232.0875
2765.65573	14223.5875
2768.22863	14205.2875
2770.79994	14168.7875
2773.36967	14202.0875
2775.9378	14193.4875
2778.50435	14200.3875
2781.06932	14164.7875
2783.6327	14201.3875
2786.1945	14178.7875
2788.75471	14144.7875
2791.31335	14130.6875
2793.87041	14107.8875
2796.42589	14074.2875
2798.97979	14101.4875
2801.53212	14082.4875
2804.08288	14091.9875
2806.63206	14008.7875
2809.17967	14008.4875
2811.72571	13971.1875
2814.27018	13988.6875
2816.81308	13950.5875
2819.35442	13938.3875
2821.89419	13922.7875
2824.43239	13947.9875
2826.96904	13932.0875
2829.50412	13938.0875
2832.03763	13910.2875
2834.56959	13903.8875
2837.1	13858.7875
2839.62884	13854.6875
2842.15613	13886.8875
2844.68186	13905.2875
2847.20604	13920.5875
2849.72867	13919.3875
2852.24974	13904.4875
2854.76927	13920.7875
2857.28724	13928.1875
2859.80367	13903.1875
2862.31855	13877.4875
2864.83189	13891.3875
2867.34368	13864.3875
2869.85393	13862.9875
2872.36264	13880.2875
2874.8698	13893.0875
2877.37543	13893.8875
2879.87952	13917.6875
2882.38207	13894.8875
2884.88308	13869.0875
2887.38256	13927.4875
2889.88051	13907.9875
2892.37692	13937.9875
2894.8718	13889.4875
2897.36515	13935.5875
2899.85698	13917.4875
2902.34727	13948.5875
2904.83604	13952.6875
2907.32328	13998.3875
2909.809	13982.9875
2912.29319	14001.3875
2914.77587	14023.0875
2917.25702	14007.3875
2919.73665	13985.7875
2922.21476	14012.3875
2924.69136	13999.8875
2927.16644	13998.8875
2929.64	13967.2875
2932.11205	13945.2875
2934.58258	13931.0875
2937.05161	13960.0875
2939.51912	13949.4875
2941.98513	13940.1875
2944.44962	13877.3875
2946.91261	13818.0875
2949.37409	13869.0875
2951.83407	13878.1875
2954.29254	13853.7875
2956.74951	13819.0875
2959.20498	13810.4875
2961.65895	13803.9875
2964.11142	13813.7875
2966.56239	13763.1875
2969.01186	13730.9875
2971.45984	13687.1875
2973.90632	13655.9875
2976.35131	13618.4875
2978.7948	13609.8875
2981.23681	13576.4875
2983.67732	13580.5875
2986.11635	13552.1875
2988.55388	13516.9875
2990.98993	13480.8875
2993.4245	13435.6875
2995.85758	13435.5875
2998.28917	13417.2875
3000.71928	13406.4875
3003.14791	13362.2875
3005.57506	13366.2875
3008.00073	13333.4875
3010.42493	13336.8875
3012.84764	13272.4875
3015.26888	13276.3875
3017.68865	13238.0875
3020.10694	13245.0875
3022.52376	13221.9875
3024.9391	13244.8875
