Data from AgNP_FTO_APTES_CRN_2uM_R6G_10uM_NaF_0.1M_Addition_RamanShift__19__14-57-09-348.txt Node

Date: Wed Dec 15 14:57:09 GMT 2021
User: TCL
Spectrometer: QEP01345
Trigger mode: 4
Integration Time (sec): 7.000000E0
Scans to average: 10
Electric dark correction enabled: true
Nonlinearity correction enabled: false
Boxcar width: 0
XAxis mode: Raman Shifts
Number of Pixels in Spectrum: 1044
>>>>>Begin Spectral Data<<<<<
46.04893	-0.125
50.45542	-2.025
54.85868	-1.225
59.25871	-0.725
63.6555	127.075
68.04907	135.175
72.43941	138.975
76.82654	146.475
81.21044	153.375
85.59113	157.075
89.96862	161.875
94.34289	165.975
98.71396	174.575
103.08183	176.975
107.4465	183.075
111.80798	186.075
116.16626	189.575
120.52136	202.775
124.87327	207.075
129.222	218.575
133.56755	225.975
137.90993	247.575
142.24913	267.675
146.58517	296.375
150.91804	344.075
155.24774	410.075
159.57429	506.975
163.89768	645.275
168.21792	840.775
172.53501	1146.275
176.84895	1605.675
181.15975	2244.875
185.46741	3129.175
189.77193	4319.275
194.07331	5753.575
198.37157	7402.775
202.6667	9128.375
206.9587	10824.075
211.24758	12494.175
215.53334	14204.775
219.81599	15997.975
224.09553	17987.975
228.37195	20213.875
232.64527	22672.775
236.91549	25283.775
241.18261	27815.375
245.44663	30145.075
249.70755	32184.975
253.96539	33961.975
258.22014	35489.175
262.4718	36777.875
266.72039	37736.975
270.96589	38249.075
275.20832	38361.875
279.44768	38141.075
283.68397	37765.575
287.91719	37477.475
292.14735	37301.475
296.37445	37308.375
300.59849	37588.375
304.81948	37835.975
309.03742	37913.375
313.25231	37593.375
317.46415	36735.075
321.67296	35631.175
325.87872	34770.975
330.08145	34298.675
334.28114	34297.575
338.47781	34632.375
342.67145	35043.275
346.86207	35758.375
351.04966	36580.075
355.23424	37509.275
359.4158	38311.575
363.59435	38936.875
367.76989	39260.475
371.94243	39425.775
376.11196	39521.975
380.27849	39558.775
384.44203	39594.775
388.60257	39807.075
392.76012	40086.375
396.91468	40618.775
401.06626	41331.775
405.21485	41770.575
409.36047	41644.775
413.50311	40920.675
417.64277	40280.575
421.77947	40086.375
425.9132	40146.075
430.04396	40356.875
434.17176	40581.875
438.2966	40940.075
442.41849	41601.875
446.53742	42584.575
450.6534	43797.275
454.76644	44741.475
458.87653	45167.975
462.98368	44978.175
467.08789	44427.975
471.18916	43708.375
475.2875	42998.475
479.38291	42471.675
483.4754	42059.475
487.56496	41613.775
491.6516	41104.875
495.73531	40730.175
499.81612	40734.075
503.89401	41030.375
507.96899	41245.375
512.04106	41329.375
516.11023	41269.275
520.1765	41043.475
524.23987	40837.475
528.30034	40475.775
532.35792	40065.075
536.41261	39422.775
540.46441	38880.975
544.51333	38791.475
548.55936	39249.275
552.60252	40028.775
556.64279	40870.075
560.6802	41362.875
564.71473	41590.875
568.7464	42232.875
572.7752	43175.775
576.80114	43869.775
580.82422	44587.675
584.84444	45329.175
588.86181	46046.175
592.87633	46778.575
596.888	47519.875
600.89682	48071.975
604.9028	50155.375
608.90594	54774.175
612.90624	58995.275
616.90371	54982.475
620.89834	45814.775
624.89015	41907.175
628.87913	41659.675
632.86528	41765.275
636.84862	41468.875
640.82913	40691.375
644.80683	39459.875
648.78172	38595.675
652.75379	38475.775
656.72306	39058.675
660.68952	39766.975
664.65319	39561.575
668.61405	38795.275
672.57211	38485.675
676.52738	38473.775
680.47986	38411.775
684.42955	38233.575
688.37646	38111.775
692.32058	38326.475
696.26192	38775.675
700.20048	39276.975
704.13626	39546.275
708.06928	39476.475
711.99952	39215.475
715.927	39171.875
719.85171	39285.175
723.77365	39091.275
727.69284	38649.075
731.60928	38205.475
735.52295	38059.575
739.43388	37946.375
743.34206	38082.475
747.24749	38335.575
751.15017	38739.375
755.05012	39472.675
758.94733	40698.475
762.8418	42959.175
766.73354	46535.175
770.62254	49881.775
774.50882	50581.575
778.39237	48078.575
782.27321	44258.675
786.15132	41180.275
790.02671	39468.275
793.89938	38646.975
797.76935	38297.675
801.6366	38246.675
805.50115	38159.375
809.36299	37876.075
813.22213	37563.775
817.07857	37344.275
820.93231	37312.275
824.78336	37189.275
828.63172	37194.075
832.47738	37192.875
836.32036	37331.375
840.16066	37595.175
843.99827	37692.875
847.8332	37602.275
851.66546	37386.975
855.49504	37331.575
859.32195	37298.475
863.1462	37154.875
866.96777	36987.575
870.78668	36822.275
874.60293	36863.375
878.41652	36823.375
882.22745	36981.875
886.03573	37082.675
889.84136	37018.975
893.64433	36837.075
897.44466	36691.275
901.24235	36588.575
905.0374	36561.775
908.8298	36515.475
912.61957	36590.875
916.40671	36947.875
920.19121	37571.975
923.97308	38149.975
927.75233	38389.975
931.52895	38211.175
935.30295	37660.175
939.07433	36928.475
942.84309	36390.775
946.60924	36194.975
950.37278	36170.775
954.13371	36002.075
957.89203	35781.275
961.64774	35688.775
965.40086	35583.775
969.15137	35489.775
972.89929	35350.275
976.64461	35358.075
980.38733	35476.675
984.12747	35714.275
987.86502	36100.875
991.59999	36714.075
995.33237	37580.975
999.06217	38849.375
1002.78939	40295.575
1006.51404	41164.975
1010.23611	41644.775
1013.95561	41944.275
1017.67255	41789.075
1021.38692	41109.575
1025.09872	40743.075
1028.80796	41206.375
1032.51465	42677.075
1036.21877	44105.475
1039.92035	44302.775
1043.61937	43564.375
1047.31584	42257.675
1051.00976	41016.775
1054.70114	40320.275
1058.38998	40318.975
1062.07627	40708.575
1065.76003	41233.775
1069.44126	41926.575
1073.11995	42906.275
1076.79611	43834.275
1080.46974	44222.875
1084.14085	44288.275
1087.80943	44335.375
1091.47549	44274.975
1095.13903	43921.175
1098.80005	43127.775
1102.45857	42040.875
1106.11456	41422.875
1109.76805	41232.475
1113.41903	41327.575
1117.06751	41553.775
1120.71348	41912.975
1124.35696	42320.575
1127.99793	42835.675
1131.63641	43069.775
1135.2724	42830.875
1138.90589	42530.975
1142.5369	42400.875
1146.16542	42287.375
1149.79145	42303.275
1153.415	42684.275
1157.03607	43211.775
1160.65467	44330.275
1164.27079	46158.675
1167.88443	48657.275
1171.49561	51808.275
1175.10432	56080.575
1178.71056	61306.675
1182.31434	66076.575
1185.91565	68479.075
1189.51451	68000.675
1193.11091	65402.875
1196.70485	61925.775
1200.29634	58854.575
1203.88538	56704.575
1207.47197	55254.375
1211.05612	54249.175
1214.63782	53492.275
1218.21708	52846.475
1221.79391	52536.575
1225.36829	52375.975
1228.94024	51816.775
1232.50976	50959.275
1236.07685	50175.775
1239.6415	49824.475
1243.20374	49744.075
1246.76355	50071.875
1250.32093	50847.375
1253.8759	52083.475
1257.42845	53723.575
1260.97859	55266.375
1264.52631	56833.675
1268.07163	58442.475
1271.61453	60285.875
1275.15503	62331.175
1278.69312	64395.875
1282.22882	66058.875
1285.76211	67491.675
1289.29301	68933.775
1292.82151	70757.775
1296.34761	73445.475
1299.87133	77245.075
1303.39266	82092.275
1306.9116	87697.475
1310.42815	93159.675
1313.94233	96506.775
1317.45412	96681.675
1320.96354	94687.875
1324.47058	92115.475
1327.97525	89888.775
1331.47754	88292.275
1334.97747	87514.175
1338.47502	87158.175
1341.97022	86832.575
1345.46305	85744.075
1348.95352	84509.175
1352.44163	83876.775
1355.92738	85489.275
1359.41078	89657.275
1362.89183	93560.575
1366.37053	92246.975
1369.84688	84557.775
1373.32088	75515.575
1376.79254	69348.475
1380.26186	66653.175
1383.72883	65967.575
1387.19347	65467.075
1390.65578	64581.475
1394.11575	63954.075
1397.57339	64241.775
1401.0287	65415.675
1404.48168	66698.275
1407.93234	67249.075
1411.38068	66767.575
1414.82669	65189.375
1418.27039	62868.075
1421.71177	60378.975
1425.15083	58280.575
1428.58758	57131.775
1432.02203	57279.875
1435.45416	58420.975
1438.88399	60059.075
1442.31151	61558.075
1445.73673	62653.175
1449.15965	63518.875
1452.58027	63906.275
1455.9986	63942.475
1459.41463	64366.575
1462.82837	65457.375
1466.23982	67078.175
1469.64898	68496.375
1473.05586	69477.175
1476.46045	69602.675
1479.86276	69273.675
1483.26279	68566.375
1486.66054	67933.275
1490.05602	67886.875
1493.44922	68180.075
1496.84016	68644.275
1500.22882	69856.975
1503.61521	71994.375
1506.99934	74810.175
1510.38121	77386.075
1513.76081	78262.575
1517.13816	76623.875
1520.51324	73340.975
1523.88607	70121.375
1527.25665	68056.075
1530.62498	67073.775
1533.99105	66512.575
1537.35488	66020.575
1540.71647	65338.075
1544.07581	64475.475
1547.4329	63454.075
1550.78776	62501.575
1554.14038	61733.275
1557.49077	61367.275
1560.83892	61110.975
1564.18484	61114.975
1567.52853	61429.175
1570.86999	62009.275
1574.20922	63326.375
1577.54624	64646.375
1580.88103	65218.275
1584.2136	65642.175
1587.54395	66859.675
1590.87208	69241.575
1594.19801	73100.975
1597.52172	77220.575
1600.84321	78472.275
1604.16251	74960.075
1607.47959	69094.875
1610.79447	63082.475
1614.10715	57635.975
1617.41763	53197.875
1620.7259	50251.675
1624.03199	48633.375
1627.33587	48655.175
1630.63757	50127.475
1633.93707	53291.175
1637.23439	58225.075
1640.52951	65074.675
1643.82246	72419.975
1647.11321	77872.575
1650.40179	78549.975
1653.68819	73263.575
1656.97241	64051.975
1660.25446	54927.675
1663.53433	48225.175
1666.81203	43766.875
1670.08756	40990.575
1673.36092	39257.875
1676.63211	38095.675
1679.90115	37307.875
1683.16801	36592.575
1686.43272	36210.075
1689.69527	35859.875
1692.95567	35610.075
1696.2139	35485.775
1699.46999	35380.475
1702.72392	35238.375
1705.97571	35116.875
1709.22535	35071.075
1712.47284	35041.675
1715.71819	34947.875
1718.96139	34826.075
1722.20246	34723.375
1725.44139	34600.275
1728.67818	34391.575
1731.91284	34200.575
1735.14537	33998.275
1738.37576	33853.575
1741.60403	33721.475
1744.83017	33585.375
1748.05418	33504.075
1751.27607	33405.875
1754.49584	33372.575
1757.71349	33291.875
1760.92903	33269.275
1764.14244	33282.175
1767.35375	33277.375
1770.56294	33233.675
1773.77002	33146.875
1776.97499	33156.075
1780.17785	33118.975
1783.37861	33041.775
1786.57727	32955.175
1789.77382	32879.975
1792.96828	32864.875
1796.16064	32856.175
1799.3509	32769.975
1802.53907	32717.975
1805.72514	32612.275
1808.90913	32553.975
1812.09102	32476.675
1815.27083	32420.675
1818.44856	32350.775
1821.6242	32322.675
1824.79776	32296.375
1827.96924	32280.775
1831.13864	32254.275
1834.30597	32289.575
1837.47122	32287.575
1840.6344	32262.475
1843.7955	32262.475
1846.95454	32235.875
1850.11151	32220.275
1853.26642	32289.075
1856.41926	32266.775
1859.57004	32250.775
1862.71876	32227.375
1865.86542	32171.275
1869.01003	32217.875
1872.15258	32181.175
1875.29308	32228.375
1878.43152	32170.475
1881.56792	32226.075
1884.70227	32178.475
1887.83457	32149.575
1890.96482	32178.375
1894.09304	32149.175
1897.21921	32173.875
1900.34335	32133.175
1903.46544	32093.875
1906.58551	32123.175
1909.70353	32035.775
1912.81953	31995.975
1915.93349	31954.775
1919.04543	31867.275
1922.15534	31868.175
1925.26322	31798.875
1928.36908	31714.575
1931.47292	31636.675
1934.57473	31548.575
1937.67453	31467.775
1940.77232	31367.875
1943.86808	31257.775
1946.96184	31168.775
1950.05358	31024.675
1953.14331	30935.075
1956.23103	30865.775
1959.31675	30796.175
1962.40046	30710.475
1965.48217	30631.375
1968.56188	30531.475
1971.63959	30444.575
1974.7153	30359.875
1977.78901	30268.575
1980.86073	30167.275
1983.93046	30100.975
1986.99819	29998.075
1990.06394	29986.775
1993.1277	29872.575
1996.18947	29815.675
1999.24925	29681.375
2002.30706	29541.275
2005.36288	29517.675
2008.41672	29427.875
2011.46859	29366.275
2014.51848	29292.475
2017.56639	29235.075
2020.61233	29205.375
2023.6563	29145.575
2026.6983	29084.275
2029.73833	29077.075
2032.7764	29026.275
2035.8125	28963.075
2038.84664	28907.775
2041.87881	28915.475
2044.90903	28897.875
2047.93729	28834.575
2050.96359	28781.875
2053.98794	28758.975
2057.01034	28730.075
2060.03078	28791.975
2063.04927	28739.475
2066.06582	28721.975
2069.08042	28675.575
2072.09307	28655.575
2075.10378	28623.475
2078.11255	28570.175
2081.11938	28627.275
2084.12426	28566.475
2087.12722	28569.875
2090.12824	28560.475
2093.12732	28546.075
2096.12447	28533.775
2099.11969	28513.275
2102.11299	28522.575
2105.10435	28524.975
2108.09379	28582.675
2111.08131	28663.475
2114.0669	28592.075
2117.05057	28604.775
2120.03233	28669.775
2123.01216	28669.675
2125.99008	28662.375
2128.96609	28677.375
2131.94018	28694.475
2134.91236	28721.875
2137.88263	28771.075
2140.851	28743.075
2143.81746	28796.375
2146.78201	28797.775
2149.74466	28792.475
2152.7054	28858.175
2155.66425	28864.575
2158.6212	28889.875
2161.57625	28850.175
2164.52941	28854.275
2167.48067	28818.175
2170.43004	28797.175
2173.37752	28832.875
2176.32311	28814.275
2179.26681	28796.675
2182.20863	28825.275
2185.14856	28846.075
2188.08661	28858.375
2191.02278	28841.975
2193.95707	28829.575
2196.88948	28849.975
2199.82001	28777.875
2202.74867	28818.575
2205.67545	28864.275
2208.60037	28788.875
2211.52341	28781.375
2214.44458	28788.975
2217.36388	28737.975
2220.28132	28741.275
2223.1969	28710.875
2226.11061	28710.875
2229.02246	28627.175
2231.93245	28530.475
2234.84058	28445.875
2237.74686	28392.475
2240.65128	28398.475
2243.55385	28324.375
2246.45456	28289.975
2249.35343	28219.075
2252.25044	28190.575
2255.14561	28135.375
2258.03893	28149.675
2260.93041	28106.975
2263.82004	28051.575
2266.70783	28003.875
2269.59378	27919.375
2272.4779	27886.775
2275.36017	27781.675
2278.24061	27797.775
2281.11922	27702.775
2283.996	27688.975
2286.87094	27658.975
2289.74405	27627.675
2292.61534	27618.975
2295.4848	27548.175
2298.35243	27589.875
2301.21824	27582.975
2304.08223	27606.675
2306.94439	27647.475
2309.80474	27686.275
2312.66327	27687.475
2315.51999	27686.175
2318.37489	27683.975
2321.22797	27661.975
2324.07925	27670.575
2326.92871	27630.575
2329.77637	27616.475
2332.62222	27623.275
2335.46626	27563.075
2338.3085	27639.475
2341.14893	27679.475
2343.98756	27696.675
2346.8244	27697.775
2349.65943	27658.675
2352.49267	27638.275
2355.32411	27638.275
2358.15376	27628.175
2360.98161	27598.075
2363.80768	27622.675
2366.63195	27533.875
2369.45444	27471.875
2372.27514	27390.775
2375.09405	27347.475
2377.91118	27353.075
2380.72652	27293.475
2383.54009	27241.775
2386.35187	27214.775
2389.16188	27102.975
2391.97011	27112.175
2394.77657	27058.075
2397.58125	27039.775
2400.38416	27062.375
2403.18529	26960.675
2405.98466	26890.775
2408.78226	26848.775
2411.57809	26801.775
2414.37216	26751.875
2417.16446	26745.375
2419.955	26686.875
2422.74378	26721.375
2425.5308	26632.875
2428.31606	26656.375
2431.09956	26616.675
2433.88131	26601.875
2436.6613	26648.875
2439.43954	26574.575
2442.21603	26572.675
2444.99077	26537.975
2447.76377	26548.475
2450.53501	26534.875
2453.30451	26581.575
2456.07226	26545.475
2458.83827	26562.075
2461.60254	26509.075
2464.36507	26570.875
2467.12586	26579.175
2469.88492	26548.975
2472.64224	26519.575
2475.39782	26569.975
2478.15167	26617.375
2480.90379	26611.975
2483.65417	26662.375
2486.40283	26682.275
2489.14976	26689.775
2491.89497	26666.375
2494.63845	26707.975
2497.3802	26737.275
2500.12024	26702.475
2502.85855	26727.775
2505.59514	26691.775
2508.33002	26677.775
2511.06318	26658.275
2513.79462	26614.875
2516.52435	26591.775
2519.25237	26568.675
2521.97867	26568.375
2524.70327	26534.975
2527.42616	26514.375
2530.14734	26513.575
2532.86681	26504.375
2535.58458	26516.175
2538.30065	26453.075
2541.01501	26493.675
2543.72768	26483.675
2546.43864	26486.675
2549.14791	26413.675
2551.85548	26454.875
2554.56136	26376.575
2557.26554	26368.575
2559.96803	26367.875
2562.66883	26320.275
2565.36794	26309.875
2568.06536	26359.875
2570.7611	26314.375
2573.45514	26216.275
2576.14751	26270.875
2578.83819	26305.775
2581.52719	26266.075
2584.21451	26275.875
2586.90015	26259.275
2589.58411	26235.775
2592.2664	26242.775
2594.94701	26231.775
2597.62594	26255.575
2600.30321	26189.475
2602.9788	26194.475
2605.65273	26174.875
2608.32498	26187.575
2610.99557	26108.075
2613.66449	26160.375
2616.33175	26150.775
2618.99734	26159.975
2621.66128	26185.875
2624.32355	26159.075
2626.98416	26212.375
2629.64311	26190.075
2632.30041	26196.675
2634.95605	26195.875
2637.61004	26176.375
2640.26238	26150.475
2642.91306	26098.475
2645.56209	26091.475
2648.20948	26066.475
2650.85521	26038.475
2653.4993	26049.575
2656.14175	26013.575
2658.78255	26058.075
2661.42171	26082.375
2664.05923	26107.175
2666.6951	26134.375
2669.32934	26136.675
2671.96194	26143.075
2674.59291	26105.775
2677.22224	26101.075
2679.84993	26064.775
2682.476	26047.175
2685.10043	26062.675
2687.72324	26031.675
2690.34441	26022.675
2692.96396	25984.775
2695.58188	25974.575
2698.19818	25943.675
2700.81285	25964.475
2703.4259	25956.375
2706.03733	26014.575
2708.64714	26003.375
2711.25533	26057.675
2713.86191	26049.775
2716.46687	26094.775
2719.07021	26080.575
2721.67194	26115.275
2724.27206	26085.575
2726.87057	26079.975
2729.46747	26102.075
2732.06276	26131.075
2734.65644	26108.575
2737.24852	26122.675
2739.83899	26096.875
2742.42786	26087.475
2745.01513	26046.775
2747.60079	26047.475
2750.18486	26032.375
2752.76733	26061.075
2755.3482	26058.675
2757.92747	26058.475
2760.50515	26028.875
2763.08123	26026.375
2765.65573	26002.375
2768.22863	25999.375
2770.79994	25949.575
2773.36967	25953.975
2775.9378	25945.375
2778.50435	25935.075
2781.06932	25953.275
2783.6327	25982.175
2786.1945	25961.975
2788.75471	25886.175
2791.31335	25863.275
2793.87041	25821.475
2796.42589	25749.575
2798.97979	25738.775
2801.53212	25717.875
2804.08288	25677.675
2806.63206	25626.875
2809.17967	25535.375
2811.72571	25503.475
2814.27018	25505.375
2816.81308	25446.175
2819.35442	25488.575
2821.89419	25435.975
2824.43239	25419.475
2826.96904	25396.875
2829.50412	25378.675
2832.03763	25333.975
2834.56959	25323.975
2837.1	25250.675
2839.62884	25238.275
2842.15613	25209.375
2844.68186	25209.475
2847.20604	25165.275
2849.72867	25180.975
2852.24974	25114.775
2854.76927	25109.875
2857.28724	25079.975
2859.80367	25082.675
2862.31855	25044.275
2864.83189	25001.375
2867.34368	25012.475
2869.85393	25014.875
2872.36264	25038.875
2874.8698	25056.575
2877.37543	25072.175
2879.87952	25054.075
2882.38207	25024.075
2884.88308	25087.775
2887.38256	25089.375
2889.88051	25074.675
2892.37692	25070.875
2894.8718	25072.975
2897.36515	25092.375
2899.85698	25096.475
2902.34727	25153.475
2904.83604	25216.175
2907.32328	25202.875
2909.809	25246.075
2912.29319	25282.775
2914.77587	25295.175
2917.25702	25310.175
2919.73665	25267.875
2922.21476	25295.275
2924.69136	25253.675
2927.16644	25201.975
2929.64	25153.275
2932.11205	25135.075
2934.58258	25024.875
2937.05161	25103.875
2939.51912	25099.975
2941.98513	25113.975
2944.44962	25026.075
2946.91261	24885.175
2949.37409	24983.375
2951.83407	24965.575
2954.29254	24956.275
2956.74951	24898.575
2959.20498	24897.375
2961.65895	24864.175
2964.11142	24864.875
2966.56239	24760.975
2969.01186	24715.975
2971.45984	24675.675
2973.90632	24686.775
2976.35131	24624.875
2978.7948	24550.275
2981.23681	24540.175
2983.67732	24506.175
2986.11635	24439.075
2988.55388	24335.675
2990.98993	24299.875
2993.4245	24238.475
2995.85758	24211.075
2998.28917	24159.275
3000.71928	24146.375
3003.14791	24092.675
3005.57506	24053.475
3008.00073	23964.675
3010.42493	23984.175
3012.84764	23935.075
3015.26888	23962.375
3017.68865	23885.775
3020.10694	23868.575
3022.52376	23783.775
3024.9391	23790.475
3027.35298	23784.775
3029.76539	23773.075
3032.17632	23733.975
3034.5858	23681.175
3036.9938	23678.075
3039.40034	23607.375
3041.80542	23558.975
3044.20903	23548.075
3046.61118	23554.975
3049.01187	23471.475
3051.4111	23448.975
3053.80888	23418.975
3056.20519	23329.175
3058.60005	23345.375
3060.99345	23298.875
3063.3854	23231.575
3065.7759	23132.575
3068.16494	23111.075
3070.55254	23058.075
3072.93868	23000.075
3075.32338	22947.375
3077.70662	22945.175
3080.08842	22893.375
3082.46878	22889.775
3084.84769	22824.075
3087.22515	22771.675
3089.60118	22799.475
3091.97576	22777.875
3094.3489	22736.575
3096.72061	22727.975
3099.09087	22729.175
3101.4597	22707.475
3103.82709	22665.275
3106.19305	22632.475
3108.55757	22623.575
3110.92066	22518.575
3113.28232	22477.275
3115.64255	22455.975
3118.00134	22387.075
3120.35871	22409.275
3122.71466	22378.475
3125.06917	22349.975
3127.42226	22300.575
