Data from AgNP_FTO_APTES_CRN_200uM_R6G_10uM_NaF_0.1M_Addition_RamanShift__18__19-37-58-181.txt Node

Date: Wed Dec 15 19:37:58 GMT 2021
User: TCL
Spectrometer: QEP01345
Trigger mode: 4
Integration Time (sec): 7.000000E0
Scans to average: 10
Electric dark correction enabled: true
Nonlinearity correction enabled: false
Boxcar width: 0
XAxis mode: Raman Shifts
Number of Pixels in Spectrum: 1044
>>>>>Begin Spectral Data<<<<<
46.04893	0.975
50.45542	-1.625
54.85868	-0.325
59.25871	-0.325
63.6555	54.675
68.04907	60.775
72.43941	63.975
76.82654	68.375
81.21044	71.975
85.59113	72.375
89.96862	72.975
94.34289	74.175
98.71396	80.775
103.08183	86.275
107.4465	87.375
111.80798	88.675
116.16626	90.475
120.52136	93.175
124.87327	95.375
129.222	96.675
133.56755	101.875
137.90993	108.475
142.24913	118.675
146.58517	129.775
150.91804	149.575
155.24774	178.975
159.57429	216.175
163.89768	269.775
168.21792	356.575
172.53501	480.375
176.84895	665.475
181.15975	930.775
185.46741	1285.275
189.77193	1794.375
194.07331	2389.675
198.37157	3081.375
202.6667	3807.775
206.9587	4520.775
211.24758	5221.575
215.53334	5942.975
219.81599	6656.875
224.09553	7475.175
228.37195	8368.275
232.64527	9355.975
236.91549	10397.975
241.18261	11441.475
245.44663	12434.875
249.70755	13311.675
253.96539	14140.675
258.22014	14784.775
262.4718	15322.075
266.72039	15703.175
270.96589	15918.475
275.20832	15946.375
279.44768	15864.175
283.68397	15693.575
287.91719	15518.775
292.14735	15420.775
296.37445	15433.275
300.59849	15403.075
304.81948	15417.275
309.03742	15370.575
313.25231	15242.975
317.46415	14976.975
321.67296	14667.675
325.87872	14456.775
330.08145	14285.075
334.28114	14314.775
338.47781	14445.175
342.67145	14584.775
346.86207	14809.575
351.04966	15031.675
355.23424	15287.275
359.4158	15463.875
363.59435	15640.175
367.76989	15778.975
371.94243	15853.475
376.11196	15952.775
380.27849	16075.275
384.44203	16180.675
388.60257	16289.175
392.76012	16475.775
396.91468	16623.675
401.06626	16787.875
405.21485	16941.275
409.36047	16933.375
413.50311	16712.775
417.64277	16560.275
421.77947	16514.675
425.9132	16537.675
430.04396	16689.175
434.17176	16828.675
438.2966	17046.775
442.41849	17379.075
446.53742	17845.775
450.6534	18373.075
454.76644	18700.075
458.87653	18781.975
462.98368	18662.875
467.08789	18429.175
471.18916	18310.375
475.2875	18242.575
479.38291	18200.875
483.4754	18080.375
487.56496	17832.175
491.6516	17526.475
495.73531	17228.975
499.81612	17135.075
503.89401	17161.675
507.96899	17220.675
512.04106	17206.375
516.11023	17181.275
520.1765	17208.175
524.23987	17176.575
528.30034	17147.975
532.35792	17067.375
536.41261	16925.275
540.46441	16758.475
544.51333	16743.475
548.55936	16923.175
552.60252	17197.775
556.64279	17574.575
560.6802	17861.275
564.71473	17991.075
568.7464	18174.075
572.7752	18397.675
576.80114	18581.975
580.82422	18689.775
584.84444	18921.275
588.86181	19358.475
592.87633	19998.375
596.888	20319.775
600.89682	20071.775
604.9028	20059.075
608.90594	20935.275
612.90624	21968.575
616.90371	20948.675
620.89834	18312.575
624.89015	17154.275
628.87913	17008.375
632.86528	17112.975
636.84862	17175.475
640.82913	17046.175
644.80683	16772.375
648.78172	16520.775
652.75379	16418.975
656.72306	16517.175
660.68952	16701.275
664.65319	16652.975
668.61405	16463.175
672.57211	16442.775
676.52738	16474.975
680.47986	16491.475
684.42955	16411.675
688.37646	16364.675
692.32058	16380.875
696.26192	16502.375
700.20048	16615.475
704.13626	16728.175
708.06928	16735.975
711.99952	16687.675
715.927	16660.675
719.85171	16653.075
723.77365	16616.875
727.69284	16514.775
731.60928	16419.275
735.52295	16362.775
739.43388	16363.775
743.34206	16395.475
747.24749	16436.875
751.15017	16521.175
755.05012	16716.475
758.94733	17061.375
762.8418	17661.075
766.73354	18649.975
770.62254	19602.175
774.50882	19864.975
778.39237	19187.575
782.27321	18036.975
786.15132	17080.875
790.02671	16528.375
793.89938	16280.175
797.76935	16175.375
801.6366	16144.675
805.50115	16120.875
809.36299	16081.875
813.22213	16027.075
817.07857	16018.475
820.93231	15992.575
824.78336	15934.675
828.63172	15934.475
832.47738	15945.375
836.32036	15941.575
840.16066	15974.575
843.99827	15954.575
847.8332	15905.975
851.66546	15855.375
855.49504	15901.275
859.32195	15891.775
863.1462	15839.775
866.96777	15842.775
870.78668	15824.675
874.60293	15831.475
878.41652	15824.175
882.22745	15842.975
886.03573	15873.575
889.84136	15827.375
893.64433	15858.275
897.44466	15781.575
901.24235	15720.175
905.0374	15669.175
908.8298	15689.075
912.61957	15686.575
916.40671	15778.075
920.19121	15923.775
923.97308	16012.075
927.75233	16047.275
931.52895	15985.575
935.30295	15841.875
939.07433	15629.175
942.84309	15442.975
946.60924	15358.675
950.37278	15317.375
954.13371	15290.775
957.89203	15276.475
961.64774	15286.875
965.40086	15244.275
969.15137	15176.575
972.89929	15108.675
976.64461	15077.775
980.38733	15073.875
984.12747	15090.975
987.86502	15180.675
991.59999	15296.175
995.33237	15425.275
999.06217	15672.975
1002.78939	15949.375
1006.51404	16147.075
1010.23611	16301.275
1013.95561	16427.575
1017.67255	16446.475
1021.38692	16283.875
1025.09872	16095.075
1028.80796	16014.175
1032.51465	16084.975
1036.21877	16221.375
1039.92035	16296.975
1043.61937	16281.775
1047.31584	16209.875
1051.00976	16138.975
1054.70114	16176.675
1058.38998	16271.975
1062.07627	16490.975
1065.76003	16749.375
1069.44126	17092.775
1073.11995	17417.475
1076.79611	17641.475
1080.46974	17602.275
1084.14085	17422.375
1087.80943	17248.475
1091.47549	17192.875
1095.13903	17063.775
1098.80005	16864.175
1102.45857	16588.675
1106.11456	16364.575
1109.76805	16319.275
1113.41903	16343.875
1117.06751	16412.175
1120.71348	16575.575
1124.35696	16758.475
1127.99793	16943.675
1131.63641	17071.975
1135.2724	16966.875
1138.90589	16846.275
1142.5369	16794.175
1146.16542	16798.975
1149.79145	16874.575
1153.415	17057.975
1157.03607	17205.075
1160.65467	17536.075
1164.27079	18095.475
1167.88443	18858.075
1171.49561	19863.675
1175.10432	21159.775
1178.71056	22719.275
1182.31434	24023.075
1185.91565	24491.375
1189.51451	24069.375
1193.11091	23340.875
1196.70485	22459.775
1200.29634	21701.675
1203.88538	21077.175
1207.47197	20707.675
1211.05612	20387.375
1214.63782	20092.775
1218.21708	19879.375
1221.79391	19695.675
1225.36829	19601.675
1228.94024	19450.475
1232.50976	19129.575
1236.07685	18921.175
1239.6415	18775.475
1243.20374	18796.175
1246.76355	18878.875
1250.32093	19093.875
1253.8759	19383.675
1257.42845	19745.775
1260.97859	20109.075
1264.52631	20458.575
1268.07163	20861.775
1271.61453	21257.475
1275.15503	21720.675
1278.69312	22196.875
1282.22882	22680.875
1285.76211	23300.275
1289.29301	24059.775
1292.82151	24994.575
1296.34761	26119.475
1299.87133	27327.275
1303.39266	28694.175
1306.9116	30069.175
1310.42815	31561.975
1313.94233	32651.875
1317.45412	32933.275
1320.96354	32524.575
1324.47058	31875.975
1327.97525	31188.175
1331.47754	30571.775
1334.97747	30221.275
1338.47502	29945.275
1341.97022	29566.075
1345.46305	29115.375
1348.95352	28650.475
1352.44163	28701.775
1355.92738	29314.875
1359.41078	30557.675
1362.89183	31672.375
1366.37053	31368.075
1369.84688	29337.075
1373.32088	26608.775
1376.79254	24743.675
1380.26186	24050.275
1383.72883	23970.875
1387.19347	24001.175
1390.65578	23927.675
1394.11575	23977.175
1397.57339	24278.875
1401.0287	24734.375
1404.48168	25101.675
1407.93234	25029.075
1411.38068	24600.675
1414.82669	23896.575
1418.27039	22926.275
1421.71177	21974.775
1425.15083	21178.975
1428.58758	20790.575
1432.02203	20812.275
1435.45416	21233.375
1438.88399	21724.075
1442.31151	22190.375
1445.73673	22565.275
1449.15965	22941.175
1452.58027	23189.575
1455.9986	23318.375
1459.41463	23447.075
1462.82837	23699.575
1466.23982	24136.375
1469.64898	24387.975
1473.05586	24558.075
1476.46045	24528.375
1479.86276	24420.175
1483.26279	24168.075
1486.66054	23998.275
1490.05602	23990.175
1493.44922	24033.575
1496.84016	24068.075
1500.22882	24299.475
1503.61521	24874.875
1506.99934	25632.875
1510.38121	26203.075
1513.76081	26435.275
1517.13816	25931.775
1520.51324	25001.275
1523.88607	24167.775
1527.25665	23737.775
1530.62498	23585.975
1533.99105	23515.475
1537.35488	23404.775
1540.71647	23186.375
1544.07581	22826.775
1547.4329	22425.075
1550.78776	22072.775
1554.14038	21821.175
1557.49077	21716.275
1560.83892	21682.875
1564.18484	21786.875
1567.52853	22041.075
1570.86999	22439.075
1574.20922	23069.975
1577.54624	23729.775
1580.88103	24004.375
1584.2136	24072.275
1587.54395	24133.375
1590.87208	24529.275
1594.19801	25327.275
1597.52172	26309.275
1600.84321	26695.375
1604.16251	25949.175
1607.47959	24281.975
1610.79447	22408.475
1614.10715	20625.275
1617.41763	19308.775
1620.7259	18458.275
1624.03199	18070.075
1627.33587	18046.775
1630.63757	18464.375
1633.93707	19357.275
1637.23439	20902.275
1640.52951	23077.475
1643.82246	25680.075
1647.11321	27796.175
1650.40179	28261.675
1653.68819	26602.075
1656.97241	23610.675
1660.25446	20644.575
1663.53433	18466.375
1666.81203	17031.775
1670.08756	16138.875
1673.36092	15567.875
1676.63211	15199.275
1679.90115	14909.075
1683.16801	14723.575
1686.43272	14560.675
1689.69527	14450.175
1692.95567	14388.675
1696.2139	14331.575
1699.46999	14314.075
1702.72392	14280.875
1705.97571	14230.375
1709.22535	14179.375
1712.47284	14129.175
1715.71819	14119.875
1718.96139	14104.775
1722.20246	14042.775
1725.44139	13982.675
1728.67818	13901.775
1731.91284	13862.175
1735.14537	13814.575
1738.37576	13754.475
1741.60403	13717.575
1744.83017	13709.375
1748.05418	13679.275
1751.27607	13682.175
1754.49584	13625.875
1757.71349	13661.775
1760.92903	13643.175
1764.14244	13615.975
1767.35375	13609.575
1770.56294	13605.375
1773.77002	13545.875
1776.97499	13541.575
1780.17785	13459.575
1783.37861	13467.275
1786.57727	13424.975
1789.77382	13402.775
1792.96828	13397.575
1796.16064	13379.375
1799.3509	13355.375
1802.53907	13311.975
1805.72514	13299.775
1808.90913	13205.175
1812.09102	13214.175
1815.27083	13193.675
1818.44856	13169.875
1821.6242	13144.375
1824.79776	13146.575
1827.96924	13152.475
1831.13864	13119.775
1834.30597	13128.275
1837.47122	13109.075
1840.6344	13087.675
1843.7955	13105.775
1846.95454	13070.275
1850.11151	13067.975
1853.26642	13068.775
1856.41926	13061.175
1859.57004	13046.975
1862.71876	13007.575
1865.86542	13044.775
1869.01003	13049.175
1872.15258	13011.175
1875.29308	12992.575
1878.43152	12994.575
1881.56792	12975.675
1884.70227	12975.575
1887.83457	12959.275
1890.96482	12955.875
1894.09304	12930.775
1897.21921	12908.975
1900.34335	12925.475
1903.46544	12921.975
1906.58551	12905.475
1909.70353	12869.475
1912.81953	12864.975
1915.93349	12872.175
1919.04543	12804.175
1922.15534	12802.575
1925.26322	12800.875
1928.36908	12760.475
1931.47292	12736.675
1934.57473	12726.475
1937.67453	12696.175
1940.77232	12642.075
1943.86808	12609.775
1946.96184	12597.075
1950.05358	12573.375
1953.14331	12515.675
1956.23103	12495.975
1959.31675	12455.875
1962.40046	12425.075
1965.48217	12388.175
1968.56188	12360.575
1971.63959	12343.375
1974.7153	12274.075
1977.78901	12241.675
1980.86073	12216.475
1983.93046	12154.475
1986.99819	12113.475
1990.06394	12102.875
1993.1277	12071.775
1996.18947	12029.975
1999.24925	11993.575
2002.30706	11972.675
2005.36288	11945.175
2008.41672	11905.375
2011.46859	11886.575
2014.51848	11849.875
2017.56639	11796.675
2020.61233	11795.775
2023.6563	11765.875
2026.6983	11750.675
2029.73833	11741.275
2032.7764	11696.575
2035.8125	11671.575
2038.84664	11664.375
2041.87881	11626.875
2044.90903	11618.275
2047.93729	11618.275
2050.96359	11605.475
2053.98794	11558.975
2057.01034	11562.475
2060.03078	11559.275
2063.04927	11547.875
2066.06582	11512.275
2069.08042	11521.875
2072.09307	11513.975
2075.10378	11496.275
2078.11255	11492.675
2081.11938	11496.375
2084.12426	11498.075
2087.12722	11486.475
2090.12824	11479.175
2093.12732	11503.775
2096.12447	11513.775
2099.11969	11482.875
2102.11299	11506.675
2105.10435	11495.975
2108.09379	11492.275
2111.08131	11508.175
2114.0669	11519.875
2117.05057	11505.775
2120.03233	11509.975
2123.01216	11537.175
2125.99008	11540.175
2128.96609	11543.075
2131.94018	11563.775
2134.91236	11572.875
2137.88263	11593.075
2140.851	11577.175
2143.81746	11591.675
2146.78201	11591.375
2149.74466	11587.975
2152.7054	11605.475
2155.66425	11608.675
2158.6212	11623.075
2161.57625	11596.375
2164.52941	11586.075
2167.48067	11554.975
2170.43004	11554.975
2173.37752	11542.475
2176.32311	11553.075
2179.26681	11580.275
2182.20863	11577.275
2185.14856	11556.275
2188.08661	11557.775
2191.02278	11534.175
2193.95707	11533.475
2196.88948	11516.375
2199.82001	11534.275
2202.74867	11519.575
2205.67545	11517.575
2208.60037	11509.575
2211.52341	11491.575
2214.44458	11474.375
2217.36388	11444.175
2220.28132	11418.975
2223.1969	11368.975
2226.11061	11383.675
2229.02246	11377.975
2231.93245	11348.075
2234.84058	11334.975
2237.74686	11317.075
2240.65128	11305.075
2243.55385	11283.775
2246.45456	11290.175
2249.35343	11269.275
2252.25044	11253.175
2255.14561	11241.475
2258.03893	11214.575
2260.93041	11185.575
2263.82004	11168.775
2266.70783	11127.275
2269.59378	11116.375
2272.4779	11089.375
2275.36017	11055.375
2278.24061	11021.175
2281.11922	10998.075
2283.996	10996.575
2286.87094	10931.475
2289.74405	10966.575
2292.61534	10930.875
2295.4848	10948.475
2298.35243	10954.175
2301.21824	10937.875
2304.08223	10914.575
2306.94439	10912.275
2309.80474	10894.675
2312.66327	10930.575
2315.51999	10900.175
2318.37489	10898.175
2321.22797	10896.875
2324.07925	10865.975
2326.92871	10843.975
2329.77637	10838.575
2332.62222	10817.575
2335.46626	10823.275
2338.3085	10788.475
2341.14893	10797.175
2343.98756	10788.775
2346.8244	10764.175
2349.65943	10775.975
2352.49267	10763.475
2355.32411	10765.775
2358.15376	10755.175
2360.98161	10740.375
2363.80768	10747.975
2366.63195	10740.075
2369.45444	10739.375
2372.27514	10716.975
2375.09405	10711.875
2377.91118	10686.475
2380.72652	10660.775
2383.54009	10656.275
2386.35187	10621.075
2389.16188	10579.475
2391.97011	10593.175
2394.77657	10558.575
2397.58125	10554.775
2400.38416	10523.975
2403.18529	10533.775
2405.98466	10517.575
2408.78226	10471.475
2411.57809	10484.375
2414.37216	10449.975
2417.16446	10442.275
2419.955	10418.475
2422.74378	10427.775
2425.5308	10410.375
2428.31606	10377.775
2431.09956	10401.075
2433.88131	10374.575
2436.6613	10376.575
2439.43954	10358.875
2442.21603	10346.475
2444.99077	10361.175
2447.76377	10347.775
2450.53501	10353.275
2453.30451	10343.275
2456.07226	10305.375
2458.83827	10336.875
2461.60254	10327.575
2464.36507	10314.675
2467.12586	10316.775
2469.88492	10312.975
2472.64224	10284.675
2475.39782	10295.175
2478.15167	10307.675
2480.90379	10293.875
2483.65417	10299.275
2486.40283	10311.775
2489.14976	10295.175
2491.89497	10297.475
2494.63845	10301.875
2497.3802	10281.675
2500.12024	10285.275
2502.85855	10251.775
2505.59514	10257.575
2508.33002	10250.675
2511.06318	10226.175
2513.79462	10234.175
2516.52435	10231.775
2519.25237	10198.675
2521.97867	10185.275
2524.70327	10214.375
2527.42616	10172.075
2530.14734	10166.975
2532.86681	10151.975
2535.58458	10141.575
2538.30065	10155.275
2541.01501	10129.275
2543.72768	10139.575
2546.43864	10125.975
2549.14791	10101.775
2551.85548	10065.575
2554.56136	10058.575
2557.26554	10034.175
2559.96803	10017.475
2562.66883	10014.475
2565.36794	9997.275
2568.06536	10018.075
2570.7611	10013.175
2573.45514	9999.275
2576.14751	10007.475
2578.83819	9968.575
2581.52719	9964.975
2584.21451	9957.575
2586.90015	9963.675
2589.58411	9933.875
2592.2664	9937.775
2594.94701	9919.175
2597.62594	9899.375
2600.30321	9888.275
2602.9788	9863.775
2605.65273	9844.875
2608.32498	9858.275
2610.99557	9834.075
2613.66449	9833.875
2616.33175	9809.875
2618.99734	9799.875
2621.66128	9798.575
2624.32355	9807.175
2626.98416	9790.975
2629.64311	9788.475
2632.30041	9778.675
2634.95605	9782.175
2637.61004	9783.775
2640.26238	9773.375
2642.91306	9758.875
2645.56209	9746.175
2648.20948	9751.175
2650.85521	9749.975
2653.4993	9730.975
2656.14175	9731.475
2658.78255	9756.875
2661.42171	9732.175
2664.05923	9750.175
2666.6951	9740.075
2669.32934	9746.775
2671.96194	9728.175
2674.59291	9729.375
2677.22224	9762.475
2679.84993	9736.475
2682.476	9748.775
2685.10043	9741.775
2687.72324	9713.175
2690.34441	9736.175
2692.96396	9714.875
2695.58188	9737.475
2698.19818	9726.375
2700.81285	9733.075
2703.4259	9737.275
2706.03733	9789.675
2708.64714	9762.475
2711.25533	9762.175
2713.86191	9759.475
2716.46687	9770.275
2719.07021	9758.775
2721.67194	9732.075
2724.27206	9738.075
2726.87057	9776.375
2729.46747	9786.875
2732.06276	9743.475
2734.65644	9740.775
2737.24852	9750.775
2739.83899	9716.075
2742.42786	9743.475
2745.01513	9727.775
2747.60079	9728.075
2750.18486	9703.875
2752.76733	9703.975
2755.3482	9715.475
2757.92747	9716.575
2760.50515	9685.275
2763.08123	9690.075
2765.65573	9676.275
2768.22863	9674.075
2770.79994	9682.375
2773.36967	9680.575
2775.9378	9650.275
2778.50435	9660.975
2781.06932	9647.575
2783.6327	9640.975
2786.1945	9635.375
2788.75471	9631.175
2791.31335	9597.875
2793.87041	9594.475
2796.42589	9566.175
2798.97979	9573.575
2801.53212	9555.875
2804.08288	9519.275
2806.63206	9512.175
2809.17967	9480.975
2811.72571	9483.775
2814.27018	9470.275
2816.81308	9453.275
2819.35442	9440.375
2821.89419	9408.875
2824.43239	9429.075
2826.96904	9411.175
2829.50412	9395.675
2832.03763	9372.575
2834.56959	9400.275
2837.1	9387.275
2839.62884	9399.475
2842.15613	9367.875
2844.68186	9394.475
2847.20604	9373.075
2849.72867	9402.675
2852.24974	9371.875
2854.76927	9378.075
2857.28724	9361.975
2859.80367	9353.275
2862.31855	9329.075
2864.83189	9337.575
2867.34368	9314.775
2869.85393	9283.775
2872.36264	9299.575
2874.8698	9294.375
2877.37543	9291.575
2879.87952	9318.375
2882.38207	9320.375
2884.88308	9317.375
2887.38256	9315.675
2889.88051	9307.875
2892.37692	9316.075
2894.8718	9308.375
2897.36515	9309.675
2899.85698	9313.575
2902.34727	9359.075
2904.83604	9329.075
2907.32328	9359.475
2909.809	9353.475
2912.29319	9363.975
2914.77587	9378.275
2917.25702	9407.375
2919.73665	9371.175
2922.21476	9355.675
2924.69136	9342.275
2927.16644	9348.075
2929.64	9321.875
2932.11205	9326.175
2934.58258	9328.375
2937.05161	9319.575
2939.51912	9412.775
2941.98513	9343.675
2944.44962	9292.475
2946.91261	9276.575
2949.37409	9283.775
2951.83407	9261.975
2954.29254	9255.575
2956.74951	9232.875
2959.20498	9243.075
2961.65895	9212.975
2964.11142	9219.775
2966.56239	9194.075
2969.01186	9177.875
2971.45984	9152.875
2973.90632	9134.275
2976.35131	9126.975
2978.7948	9104.075
2981.23681	9084.775
2983.67732	9085.975
2986.11635	9039.275
2988.55388	9021.775
2990.98993	9021.975
2993.4245	8989.975
2995.85758	8983.275
2998.28917	8937.775
3000.71928	8953.375
3003.14791	8943.875
3005.57506	8955.375
3008.00073	8894.875
3010.42493	8911.375
3012.84764	8886.075
3015.26888	8871.175
3017.68865	8852.775
3020.10694	8864.875
3022.52376	8835.075
3024.9391	8820.175
3027.35298	8814.075
3029.76539	8786.775
3032.17632	8827.575
3034.5858	8784.675
3036.9938	8794.975
3039.40034	8752.875
3041.80542	8772.975
3044.20903	8760.875
3046.61118	8752.575
3049.01187	8718.075
3051.4111	8732.575
3053.80888	8701.875
3056.20519	8698.475
3058.60005	8683.675
3060.99345	8650.975
3063.3854	8638.775
3065.7759	8630.175
3068.16494	8612.975
3070.55254	8573.875
3072.93868	8594.375
3075.32338	8567.975
3077.70662	8534.075
3080.08842	8520.875
3082.46878	8519.775
3084.84769	8517.075
3087.22515	8517.475
3089.60118	8524.475
3091.97576	8520.475
3094.3489	8532.475
3096.72061	8538.675
3099.09087	8550.675
3101.4597	8535.875
3103.82709	8505.175
3106.19305	8496.775
3108.55757	8498.575
3110.92066	8477.275
3113.28232	8471.975
3115.64255	8449.875
3118.00134	8425.275
3120.35871	8428.975
3122.71466	8426.675
3125.06917	8401.675
3127.42226	8399.875
3129.77393	8399.075
3132.12417	8398.975
3134.47299	8405.575
3136.82039	8410.675
3139.16636	8431.075
3141.51092	8397.675
3143.85406	8412.175
3146.19579	8419.175
3148.53609	8408.775
3150.87499	8419.375
3153.21246	8431.275
3155.54853	8432.375
