Data from AgNP_FTO_APTES_CRN_500uM_R6G_10uM_NaF_0.1M_Addition_RamanShift__6__20-10-38-218.txt Node

Date: Wed Dec 15 20:10:38 GMT 2021
User: TCL
Spectrometer: QEP01345
Trigger mode: 4
Integration Time (sec): 7.000000E0
Scans to average: 10
Electric dark correction enabled: true
Nonlinearity correction enabled: false
Boxcar width: 0
XAxis mode: Raman Shifts
Number of Pixels in Spectrum: 1044
>>>>>Begin Spectral Data<<<<<
46.04893	0.1125
50.45542	-1.1875
54.85868	-1.9875
59.25871	0.5125
63.6555	62.4125
68.04907	66.8125
72.43941	69.0125
76.82654	73.5125
81.21044	76.7125
85.59113	81.2125
89.96862	82.3125
94.34289	81.0125
98.71396	87.6125
103.08183	94.9125
107.4465	94.0125
111.80798	95.1125
116.16626	98.2125
120.52136	100.9125
124.87327	101.7125
129.222	111.4125
133.56755	108.4125
137.90993	120.5125
142.24913	130.2125
146.58517	147.3125
150.91804	166.2125
155.24774	196.3125
159.57429	248.7125
163.89768	308.0125
168.21792	404.9125
172.53501	554.2125
176.84895	766.4125
181.15975	1075.7125
185.46741	1513.2125
189.77193	2078.4125
194.07331	2804.9125
198.37157	3597.6125
202.6667	4444.8125
206.9587	5303.2125
211.24758	6091.6125
215.53334	6920.9125
219.81599	7781.4125
224.09553	8699.1125
228.37195	9728.3125
232.64527	10845.9125
236.91549	12075.1125
241.18261	13302.3125
245.44663	14460.4125
249.70755	15542.0125
253.96539	16515.4125
258.22014	17319.8125
262.4718	17973.4125
266.72039	18394.5125
270.96589	18625.5125
275.20832	18693.6125
279.44768	18555.0125
283.68397	18430.2125
287.91719	18267.5125
292.14735	18114.4125
296.37445	18049.4125
300.59849	18060.0125
304.81948	18043.8125
309.03742	18006.5125
313.25231	17857.5125
317.46415	17592.1125
321.67296	17315.8125
325.87872	17078.5125
330.08145	16931.5125
334.28114	16940.4125
338.47781	17067.8125
342.67145	17221.1125
346.86207	17474.9125
351.04966	17756.8125
355.23424	17997.6125
359.4158	18224.4125
363.59435	18427.7125
367.76989	18566.8125
371.94243	18651.7125
376.11196	18720.2125
380.27849	18826.0125
384.44203	18913.2125
388.60257	19063.5125
392.76012	19218.5125
396.91468	19454.6125
401.06626	19636.5125
405.21485	19816.4125
409.36047	19818.8125
413.50311	19688.3125
417.64277	19634.0125
421.77947	19656.9125
425.9132	19720.3125
430.04396	19825.9125
434.17176	19967.6125
438.2966	20108.4125
442.41849	20393.1125
446.53742	20772.9125
450.6534	21175.0125
454.76644	21480.9125
458.87653	21602.4125
462.98368	21567.4125
467.08789	21397.9125
471.18916	21247.4125
475.2875	21154.2125
479.38291	21094.6125
483.4754	20971.9125
487.56496	20806.3125
491.6516	20509.6125
495.73531	20278.2125
499.81612	20152.8125
503.89401	20248.5125
507.96899	20365.7125
512.04106	20386.9125
516.11023	20339.3125
520.1765	20254.3125
524.23987	20148.1125
528.30034	20038.4125
532.35792	19899.7125
536.41261	19700.7125
540.46441	19575.9125
544.51333	19577.4125
548.55936	19774.5125
552.60252	20073.0125
556.64279	20451.0125
560.6802	20695.3125
564.71473	20838.4125
568.7464	21045.0125
572.7752	21462.6125
576.80114	21890.4125
580.82422	22273.1125
584.84444	22719.7125
588.86181	23310.1125
592.87633	23750.3125
596.888	23641.5125
600.89682	23136.9125
604.9028	22964.1125
608.90594	23761.4125
612.90624	24673.7125
616.90371	23527.4125
620.89834	21000.9125
624.89015	19891.5125
628.87913	19774.6125
632.86528	19861.5125
636.84862	19914.5125
640.82913	19720.3125
644.80683	19437.6125
648.78172	19264.4125
652.75379	19311.9125
656.72306	19410.7125
660.68952	19520.9125
664.65319	19423.4125
668.61405	19248.6125
672.57211	19240.3125
676.52738	19302.0125
680.47986	19382.3125
684.42955	19295.2125
688.37646	19218.1125
692.32058	19257.4125
696.26192	19375.8125
700.20048	19598.7125
704.13626	19700.0125
708.06928	19740.8125
711.99952	19712.0125
715.927	19754.7125
719.85171	19748.5125
723.77365	19633.4125
727.69284	19478.2125
731.60928	19264.9125
735.52295	19214.9125
739.43388	19230.4125
743.34206	19254.1125
747.24749	19299.6125
751.15017	19396.4125
755.05012	19635.1125
758.94733	19994.5125
762.8418	20678.8125
766.73354	21634.0125
770.62254	22527.6125
774.50882	22680.6125
778.39237	21915.9125
782.27321	20859.9125
786.15132	19975.0125
790.02671	19433.3125
793.89938	19133.6125
797.76935	19025.1125
801.6366	19019.2125
805.50115	19008.6125
809.36299	18949.9125
813.22213	18813.3125
817.07857	18822.4125
820.93231	18780.6125
824.78336	18676.6125
828.63172	18687.2125
832.47738	18627.6125
836.32036	18638.0125
840.16066	18656.2125
843.99827	18665.9125
847.8332	18620.5125
851.66546	18623.7125
855.49504	18624.3125
859.32195	18594.5125
863.1462	18578.9125
866.96777	18541.3125
870.78668	18561.2125
874.60293	18545.6125
878.41652	18533.2125
882.22745	18583.1125
886.03573	18639.0125
889.84136	18620.1125
893.64433	18591.0125
897.44466	18530.7125
901.24235	18475.3125
905.0374	18445.1125
908.8298	18443.0125
912.61957	18429.7125
916.40671	18547.1125
920.19121	18705.5125
923.97308	18783.8125
927.75233	18754.4125
931.52895	18655.9125
935.30295	18472.7125
939.07433	18225.2125
942.84309	18060.0125
946.60924	17980.2125
950.37278	17923.5125
954.13371	17892.3125
957.89203	17887.2125
961.64774	17903.6125
965.40086	17867.2125
969.15137	17816.3125
972.89929	17716.8125
976.64461	17630.8125
980.38733	17624.9125
984.12747	17649.4125
987.86502	17686.1125
991.59999	17781.4125
995.33237	17907.5125
999.06217	18117.3125
1002.78939	18370.6125
1006.51404	18588.2125
1010.23611	18765.3125
1013.95561	18954.6125
1017.67255	18968.5125
1021.38692	18868.9125
1025.09872	18640.7125
1028.80796	18536.9125
1032.51465	18569.0125
1036.21877	18680.8125
1039.92035	18754.0125
1043.61937	18755.0125
1047.31584	18771.1125
1051.00976	18735.8125
1054.70114	18807.5125
1058.38998	18916.2125
1062.07627	19212.6125
1065.76003	19524.7125
1069.44126	19940.7125
1073.11995	20325.4125
1076.79611	20563.6125
1080.46974	20438.7125
1084.14085	20192.7125
1087.80943	19957.3125
1091.47549	19886.3125
1095.13903	19819.2125
1098.80005	19605.8125
1102.45857	19262.8125
1106.11456	19029.5125
1109.76805	18898.4125
1113.41903	18900.6125
1117.06751	18969.9125
1120.71348	19143.8125
1124.35696	19284.5125
1127.99793	19501.7125
1131.63641	19674.7125
1135.2724	19566.1125
1138.90589	19465.0125
1142.5369	19436.2125
1146.16542	19491.5125
1149.79145	19615.0125
1153.415	19778.7125
1157.03607	19957.1125
1160.65467	20393.6125
1164.27079	21090.9125
1167.88443	21947.5125
1171.49561	22922.3125
1175.10432	24137.8125
1178.71056	25585.0125
1182.31434	26914.8125
1185.91565	27444.6125
1189.51451	27191.3125
1193.11091	26580.5125
1196.70485	25798.4125
1200.29634	25036.8125
1203.88538	24532.2125
1207.47197	24199.6125
1211.05612	23987.8125
1214.63782	23584.4125
1218.21708	23112.3125
1221.79391	22654.1125
1225.36829	22356.5125
1228.94024	22122.6125
1232.50976	21886.0125
1236.07685	21682.7125
1239.6415	21547.1125
1243.20374	21525.5125
1246.76355	21618.9125
1250.32093	21839.9125
1253.8759	22150.0125
1257.42845	22557.4125
1260.97859	23016.1125
1264.52631	23422.9125
1268.07163	23884.1125
1271.61453	24345.5125
1275.15503	24894.5125
1278.69312	25421.0125
1282.22882	25964.2125
1285.76211	26653.5125
1289.29301	27525.6125
1292.82151	28662.2125
1296.34761	30015.1125
1299.87133	31486.9125
1303.39266	32954.8125
1306.9116	34225.4125
1310.42815	35287.9125
1313.94233	35824.8125
1317.45412	35694.4125
1320.96354	35188.7125
1324.47058	34784.0125
1327.97525	34372.8125
1331.47754	34096.9125
1334.97747	33869.2125
1338.47502	33630.7125
1341.97022	33311.8125
1345.46305	32979.7125
1348.95352	32756.8125
1352.44163	32771.1125
1355.92738	33320.8125
1359.41078	34294.3125
1362.89183	35066.3125
1366.37053	34599.6125
1369.84688	32403.3125
1373.32088	29635.8125
1376.79254	27691.5125
1380.26186	26997.2125
1383.72883	26969.6125
1387.19347	26985.2125
1390.65578	26825.9125
1394.11575	26809.2125
1397.57339	27040.7125
1401.0287	27349.3125
1404.48168	27601.8125
1407.93234	27452.7125
1411.38068	26937.8125
1414.82669	26105.8125
1418.27039	25147.4125
1421.71177	24252.6125
1425.15083	23480.0125
1428.58758	23038.7125
1432.02203	23165.2125
1435.45416	23599.7125
1438.88399	24212.7125
1442.31151	24638.2125
1445.73673	24928.5125
1449.15965	25148.0125
1452.58027	25295.1125
1455.9986	25351.6125
1459.41463	25418.8125
1462.82837	25740.9125
1466.23982	26087.2125
1469.64898	26428.8125
1473.05586	26649.1125
1476.46045	26685.3125
1479.86276	26558.9125
1483.26279	26282.5125
1486.66054	26152.6125
1490.05602	26197.0125
1493.44922	26393.4125
1496.84016	26611.6125
1500.22882	27020.3125
1503.61521	27591.9125
1506.99934	28278.0125
1510.38121	28852.1125
1513.76081	28868.6125
1517.13816	28375.9125
1520.51324	27738.9125
1523.88607	27232.8125
1527.25665	27049.7125
1530.62498	27049.4125
1533.99105	27050.4125
1537.35488	26846.8125
1540.71647	26439.0125
1544.07581	25902.1125
1547.4329	25250.2125
1550.78776	24776.9125
1554.14038	24359.9125
1557.49077	24185.4125
1560.83892	24106.9125
1564.18484	24165.3125
1567.52853	24378.6125
1570.86999	24813.9125
1574.20922	25511.9125
1577.54624	26326.3125
1580.88103	26774.5125
1584.2136	26959.9125
1587.54395	27098.8125
1590.87208	27539.6125
1594.19801	28400.9125
1597.52172	29297.0125
1600.84321	29478.3125
1604.16251	28480.4125
1607.47959	26709.4125
1610.79447	24821.6125
1614.10715	23109.7125
1617.41763	21705.7125
1620.7259	20777.8125
1624.03199	20259.2125
1627.33587	20255.2125
1630.63757	20663.6125
1633.93707	21711.7125
1637.23439	23390.7125
1640.52951	25814.9125
1643.82246	28672.8125
1647.11321	30799.9125
1650.40179	31120.3125
1653.68819	29231.5125
1656.97241	26033.5125
1660.25446	22965.7125
1663.53433	20665.3125
1666.81203	19126.1125
1670.08756	18205.0125
1673.36092	17532.5125
1676.63211	17140.1125
1679.90115	16828.8125
1683.16801	16599.5125
1686.43272	16418.8125
1689.69527	16334.5125
1692.95567	16211.2125
1696.2139	16189.3125
1699.46999	16143.5125
1702.72392	16099.9125
1705.97571	16044.9125
1709.22535	15996.4125
1712.47284	15985.0125
1715.71819	15925.4125
1718.96139	15916.6125
1722.20246	15857.1125
1725.44139	15797.0125
1728.67818	15728.9125
1731.91284	15672.6125
1735.14537	15567.0125
1738.37576	15525.3125
1741.60403	15516.0125
1744.83017	15450.7125
1748.05418	15417.5125
1751.27607	15400.8125
1754.49584	15398.3125
1757.71349	15370.0125
1760.92903	15376.7125
1764.14244	15389.9125
1767.35375	15338.0125
1770.56294	15321.2125
1773.77002	15292.0125
1776.97499	15254.0125
1780.17785	15221.5125
1783.37861	15193.1125
1786.57727	15167.0125
1789.77382	15140.5125
1792.96828	15064.2125
1796.16064	15051.6125
1799.3509	15003.6125
1802.53907	14975.6125
1805.72514	14952.0125
1808.90913	14916.2125
1812.09102	14903.2125
1815.27083	14868.1125
1818.44856	14863.1125
1821.6242	14799.5125
1824.79776	14824.3125
1827.96924	14773.8125
1831.13864	14777.5125
1834.30597	14758.8125
1837.47122	14781.3125
1840.6344	14739.9125
1843.7955	14736.2125
1846.95454	14755.0125
1850.11151	14721.6125
1853.26642	14689.6125
1856.41926	14699.6125
1859.57004	14655.1125
1862.71876	14646.5125
1865.86542	14670.4125
1869.01003	14622.0125
1872.15258	14637.2125
1875.29308	14609.8125
1878.43152	14572.8125
1881.56792	14585.3125
1884.70227	14550.1125
1887.83457	14545.7125
1890.96482	14538.7125
1894.09304	14529.5125
1897.21921	14503.9125
1900.34335	14505.7125
1903.46544	14452.4125
1906.58551	14444.9125
1909.70353	14398.6125
1912.81953	14404.1125
1915.93349	14371.2125
1919.04543	14355.3125
1922.15534	14295.6125
1925.26322	14292.2125
1928.36908	14254.2125
1931.47292	14228.7125
1934.57473	14167.6125
1937.67453	14176.5125
1940.77232	14109.8125
1943.86808	14080.8125
1946.96184	14063.5125
1950.05358	14019.5125
1953.14331	13985.6125
1956.23103	13930.0125
1959.31675	13900.2125
1962.40046	13883.1125
1965.48217	13859.8125
1968.56188	13807.3125
1971.63959	13748.2125
1974.7153	13706.5125
1977.78901	13678.4125
1980.86073	13600.6125
1983.93046	13603.6125
1986.99819	13544.0125
1990.06394	13498.4125
1993.1277	13465.0125
1996.18947	13417.4125
1999.24925	13383.7125
2002.30706	13350.4125
2005.36288	13322.3125
2008.41672	13266.1125
2011.46859	13228.7125
2014.51848	13217.1125
2017.56639	13181.0125
2020.61233	13127.2125
2023.6563	13125.2125
2026.6983	13113.9125
2029.73833	13073.9125
2032.7764	13025.6125
2035.8125	13006.7125
2038.84664	12975.3125
2041.87881	12953.7125
2044.90903	12914.9125
2047.93729	12891.8125
2050.96359	12875.5125
2053.98794	12854.5125
2057.01034	12858.0125
2060.03078	12874.7125
2063.04927	12821.7125
2066.06582	12828.1125
2069.08042	12818.5125
2072.09307	12817.0125
2075.10378	12786.5125
2078.11255	12780.8125
2081.11938	12794.4125
2084.12426	12789.7125
2087.12722	12762.4125
2090.12824	12757.3125
2093.12732	12759.4125
2096.12447	12769.3125
2099.11969	12758.7125
2102.11299	12768.4125
2105.10435	12774.2125
2108.09379	12784.6125
2111.08131	12779.4125
2114.0669	12783.3125
2117.05057	12781.1125
2120.03233	12811.3125
2123.01216	12826.8125
2125.99008	12839.6125
2128.96609	12835.3125
2131.94018	12832.3125
2134.91236	12833.7125
2137.88263	12814.7125
2140.851	12838.2125
2143.81746	12833.7125
2146.78201	12842.5125
2149.74466	12870.3125
2152.7054	12867.1125
2155.66425	12864.3125
2158.6212	12884.0125
2161.57625	12889.6125
2164.52941	12850.9125
2167.48067	12848.9125
2170.43004	12830.3125
2173.37752	12826.3125
2176.32311	12821.4125
2179.26681	12824.2125
2182.20863	12839.0125
2185.14856	12810.4125
2188.08661	12794.8125
2191.02278	12811.9125
2193.95707	12771.5125
2196.88948	12718.8125
2199.82001	12738.3125
2202.74867	12733.6125
2205.67545	12741.7125
2208.60037	12742.8125
2211.52341	12711.0125
2214.44458	12692.2125
2217.36388	12655.5125
2220.28132	12634.7125
2223.1969	12603.2125
2226.11061	12580.4125
2229.02246	12573.2125
2231.93245	12555.3125
2234.84058	12529.8125
2237.74686	12512.7125
2240.65128	12504.4125
2243.55385	12455.6125
2246.45456	12449.5125
2249.35343	12402.0125
2252.25044	12431.8125
2255.14561	12404.6125
2258.03893	12404.9125
2260.93041	12360.5125
2263.82004	12301.2125
2266.70783	12319.9125
2269.59378	12262.2125
2272.4779	12236.0125
2275.36017	12211.1125
2278.24061	12191.0125
2281.11922	12129.2125
2283.996	12125.5125
2286.87094	12090.7125
2289.74405	12084.6125
2292.61534	12066.6125
2295.4848	12022.2125
2298.35243	12088.4125
2301.21824	12041.0125
2304.08223	12041.3125
2306.94439	12009.1125
2309.80474	12017.0125
2312.66327	12021.7125
2315.51999	11976.6125
2318.37489	11974.9125
2321.22797	11984.3125
2324.07925	11966.5125
2326.92871	11948.7125
2329.77637	11953.4125
2332.62222	11918.4125
2335.46626	11899.9125
2338.3085	11893.8125
2341.14893	11902.9125
2343.98756	11871.0125
2346.8244	11852.6125
2349.65943	11848.0125
2352.49267	11819.8125
2355.32411	11830.4125
2358.15376	11810.3125
2360.98161	11817.5125
2363.80768	11809.3125
2366.63195	11808.4125
2369.45444	11777.4125
2372.27514	11782.4125
2375.09405	11764.2125
2377.91118	11740.4125
2380.72652	11697.3125
2383.54009	11703.7125
2386.35187	11676.5125
2389.16188	11638.4125
2391.97011	11612.1125
2394.77657	11604.9125
2397.58125	11573.0125
2400.38416	11560.4125
2403.18529	11533.1125
2405.98466	11529.1125
2408.78226	11520.2125
2411.57809	11500.4125
2414.37216	11478.8125
2417.16446	11467.3125
2419.955	11442.0125
2422.74378	11429.0125
2425.5308	11391.6125
2428.31606	11399.2125
2431.09956	11408.3125
2433.88131	11367.5125
2436.6613	11377.7125
2439.43954	11382.6125
2442.21603	11378.2125
2444.99077	11377.8125
2447.76377	11364.7125
2450.53501	11355.0125
2453.30451	11337.3125
2456.07226	11303.6125
2458.83827	11338.4125
2461.60254	11295.7125
2464.36507	11280.5125
2467.12586	11284.5125
2469.88492	11263.7125
2472.64224	11252.3125
2475.39782	11250.1125
2478.15167	11277.5125
2480.90379	11261.2125
2483.65417	11243.4125
2486.40283	11255.4125
2489.14976	11262.2125
2491.89497	11230.9125
2494.63845	11265.5125
2497.3802	11231.4125
2500.12024	11205.6125
2502.85855	11214.2125
2505.59514	11203.3125
2508.33002	11169.7125
2511.06318	11187.6125
2513.79462	11178.3125
2516.52435	11165.7125
2519.25237	11159.9125
2521.97867	11131.0125
2524.70327	11134.7125
2527.42616	11109.3125
2530.14734	11088.6125
2532.86681	11066.6125
2535.58458	11054.3125
2538.30065	11040.5125
2541.01501	11060.0125
2543.72768	11041.7125
2546.43864	11009.7125
2549.14791	10987.4125
2551.85548	10973.0125
2554.56136	10962.2125
2557.26554	10924.9125
2559.96803	10944.6125
2562.66883	10926.7125
2565.36794	10912.9125
2568.06536	10919.2125
2570.7611	10902.4125
2573.45514	10892.3125
2576.14751	10862.3125
2578.83819	10842.5125
2581.52719	10842.2125
2584.21451	10813.0125
2586.90015	10811.7125
2589.58411	10774.2125
2592.2664	10771.2125
2594.94701	10748.3125
2597.62594	10744.7125
2600.30321	10713.3125
2602.9788	10713.4125
2605.65273	10685.0125
2608.32498	10696.7125
2610.99557	10656.8125
2613.66449	10658.1125
2616.33175	10631.3125
2618.99734	10643.2125
2621.66128	10628.5125
2624.32355	10648.9125
2626.98416	10609.3125
2629.64311	10617.2125
2632.30041	10596.6125
2634.95605	10600.5125
2637.61004	10556.1125
2640.26238	10556.3125
2642.91306	10549.3125
2645.56209	10547.5125
2648.20948	10570.7125
2650.85521	10535.3125
2653.4993	10544.9125
2656.14175	10546.6125
2658.78255	10527.5125
2661.42171	10522.8125
2664.05923	10559.7125
2666.6951	10532.9125
2669.32934	10566.7125
2671.96194	10547.4125
2674.59291	10552.2125
2677.22224	10538.1125
2679.84993	10534.8125
2682.476	10526.5125
2685.10043	10518.4125
2687.72324	10513.7125
2690.34441	10505.5125
2692.96396	10530.1125
2695.58188	10534.0125
2698.19818	10509.7125
2700.81285	10514.6125
2703.4259	10518.4125
2706.03733	10587.2125
2708.64714	10566.6125
2711.25533	10553.6125
2713.86191	10560.6125
2716.46687	10533.9125
2719.07021	10554.6125
2721.67194	10545.4125
2724.27206	10513.4125
2726.87057	10515.9125
2729.46747	10558.3125
2732.06276	10513.3125
2734.65644	10510.3125
2737.24852	10518.2125
2739.83899	10493.9125
2742.42786	10511.8125
2745.01513	10481.3125
2747.60079	10441.7125
2750.18486	10473.9125
2752.76733	10473.6125
2755.3482	10461.5125
2757.92747	10452.7125
2760.50515	10445.0125
2763.08123	10434.4125
2765.65573	10422.2125
2768.22863	10422.0125
2770.79994	10394.8125
2773.36967	10401.6125
2775.9378	10396.8125
2778.50435	10376.3125
2781.06932	10368.8125
2783.6327	10350.8125
2786.1945	10355.7125
2788.75471	10333.1125
2791.31335	10295.0125
2793.87041	10268.2125
2796.42589	10253.5125
2798.97979	10259.0125
2801.53212	10232.8125
2804.08288	10227.8125
2806.63206	10193.2125
2809.17967	10166.0125
2811.72571	10142.1125
2814.27018	10143.7125
2816.81308	10103.9125
2819.35442	10128.8125
2821.89419	10104.5125
2824.43239	10103.4125
2826.96904	10094.4125
2829.50412	10091.0125
2832.03763	10050.9125
2834.56959	10050.1125
2837.1	10022.7125
2839.62884	10063.6125
2842.15613	10053.1125
2844.68186	10070.6125
2847.20604	10067.1125
2849.72867	10095.9125
2852.24974	10074.1125
2854.76927	10047.7125
2857.28724	10056.5125
2859.80367	10038.3125
2862.31855	10013.8125
2864.83189	9996.1125
2867.34368	9968.1125
2869.85393	9992.8125
2872.36264	9967.0125
2874.8698	9981.1125
2877.37543	9944.6125
2879.87952	9966.6125
2882.38207	9975.3125
2884.88308	9954.9125
2887.38256	9963.4125
2889.88051	9949.9125
2892.37692	9960.4125
2894.8718	9953.9125
2897.36515	9963.9125
2899.85698	9965.7125
2902.34727	9991.0125
2904.83604	9962.9125
2907.32328	9992.0125
2909.809	9966.2125
2912.29319	9988.3125
2914.77587	10008.4125
2917.25702	9976.0125
2919.73665	9989.5125
2922.21476	9977.7125
2924.69136	9977.1125
2927.16644	9979.7125
2929.64	9953.3125
2932.11205	9939.5125
2934.58258	9926.4125
2937.05161	9945.8125
2939.51912	9950.1125
2941.98513	9952.3125
2944.44962	9877.3125
2946.91261	9870.2125
2949.37409	9892.4125
2951.83407	9872.2125
2954.29254	9868.2125
2956.74951	9838.9125
2959.20498	9837.9125
2961.65895	9800.1125
2964.11142	9823.6125
2966.56239	9776.5125
2969.01186	9779.0125
2971.45984	9754.6125
2973.90632	9751.8125
2976.35131	9714.2125
2978.7948	9711.7125
2981.23681	9685.8125
2983.67732	9652.4125
2986.11635	9634.1125
2988.55388	9612.0125
2990.98993	9608.8125
2993.4245	9591.8125
2995.85758	9552.4125
2998.28917	9537.7125
3000.71928	9526.5125
3003.14791	9489.3125
3005.57506	9516.1125
3008.00073	9477.1125
3010.42493	9493.3125
3012.84764	9446.6125
3015.26888	9441.6125
3017.68865	9430.0125
3020.10694	9426.9125
3022.52376	9388.2125
3024.9391	9350.6125
3027.35298	9360.3125
3029.76539	9369.3125
3032.17632	9378.2125
