Data from AgNP_FTO_APTES_CRN_0uM_R6G_10uM_NaF_0.1M_Addition_RamanShift__49__12-26-52-957.txt Node

Date: Wed Dec 15 12:26:52 GMT 2021
User: TCL
Spectrometer: QEP01345
Trigger mode: 4
Integration Time (sec): 7.000000E0
Scans to average: 10
Electric dark correction enabled: true
Nonlinearity correction enabled: false
Boxcar width: 0
XAxis mode: Raman Shifts
Number of Pixels in Spectrum: 1044
>>>>>Begin Spectral Data<<<<<
46.04893	-0.15
50.45542	-1.75
54.85868	-2.15
59.25871	-0.65
63.6555	154.95
68.04907	165.75
72.43941	173.95
76.82654	182.25
81.21044	184.95
85.59113	195.05
89.96862	204.85
94.34289	207.45
98.71396	215.95
103.08183	224.35
107.4465	227.65
111.80798	231.25
116.16626	239.05
120.52136	242.85
124.87327	253.85
129.222	270.05
133.56755	281.05
137.90993	302.25
142.24913	326.35
146.58517	364.25
150.91804	421.95
155.24774	495.55
159.57429	611.85
163.89768	778.15
168.21792	1017.65
172.53501	1384.15
176.84895	1912.35
181.15975	2662.95
185.46741	3710.55
189.77193	5121.25
194.07331	6817.55
198.37157	8765.85
202.6667	10809.85
206.9587	12846.95
211.24758	14806.45
215.53334	16813.85
219.81599	18962.65
224.09553	21311.95
228.37195	23888.55
232.64527	26723.35
236.91549	29745.65
241.18261	32729.85
245.44663	35532.75
249.70755	38130.55
253.96539	40325.65
258.22014	42125.45
262.4718	43591.35
266.72039	44516.45
270.96589	44937.65
275.20832	44860.65
279.44768	44496.45
283.68397	44041.85
287.91719	43593.25
292.14735	43271.35
296.37445	43107.25
300.59849	43069.15
304.81948	43239.85
309.03742	43353.35
313.25231	43377.25
317.46415	42987.85
321.67296	42565.15
325.87872	42061.65
330.08145	41914.85
334.28114	41849.05
338.47781	42134.45
342.67145	42537.55
346.86207	43168.75
351.04966	43850.15
355.23424	44622.55
359.4158	45314.15
363.59435	45940.45
367.76989	46219.05
371.94243	46335.95
376.11196	46382.85
380.27849	46465.05
384.44203	46566.95
388.60257	46936.35
392.76012	47443.65
396.91468	48121.35
401.06626	48969.35
405.21485	49541.35
409.36047	49598.25
413.50311	49434.15
417.64277	49677.15
421.77947	50200.15
425.9132	50609.35
430.04396	50810.75
434.17176	50851.75
438.2966	50894.25
442.41849	51443.05
446.53742	52676.65
450.6534	53959.95
454.76644	54914.75
458.87653	55108.25
462.98368	54681.45
467.08789	53886.45
471.18916	52784.35
475.2875	51663.25
479.38291	50952.05
483.4754	50527.35
487.56496	50243.05
491.6516	49955.65
495.73531	49565.35
499.81612	49526.65
503.89401	50047.85
507.96899	50462.35
512.04106	50479.25
516.11023	50099.65
520.1765	49529.75
524.23987	48913.05
528.30034	48430.35
532.35792	47988.65
536.41261	47418.15
540.46441	46958.15
544.51333	46835.35
548.55936	47191.15
552.60252	48079.15
556.64279	49113.75
560.6802	49982.45
564.71473	50647.45
568.7464	51445.65
572.7752	53051.35
576.80114	55304.85
580.82422	58151.25
584.84444	61901.65
588.86181	66410.95
592.87633	69635.25
596.888	68309.75
600.89682	63567.65
604.9028	61031.15
608.90594	62486.95
612.90624	63897.95
616.90371	59786.65
620.89834	52767.25
624.89015	49658.05
628.87913	49440.75
632.86528	49729.25
636.84862	49335.85
640.82913	48135.85
644.80683	46964.25
648.78172	46502.55
652.75379	46859.45
656.72306	47511.25
660.68952	47870.15
664.65319	47371.15
668.61405	46607.95
672.57211	46636.25
676.52738	46894.85
680.47986	46900.15
684.42955	46488.65
688.37646	46323.75
692.32058	46755.65
696.26192	47602.55
700.20048	48483.35
704.13626	49024.75
708.06928	49138.15
711.99952	49172.65
715.927	49318.35
719.85171	49582.55
723.77365	49242.55
727.69284	48247.15
731.60928	47290.05
735.52295	46795.35
739.43388	46790.85
743.34206	46930.65
747.24749	47318.75
751.15017	47843.25
755.05012	48765.55
758.94733	50092.35
762.8418	52092.95
766.73354	54776.55
770.62254	56656.75
774.50882	56222.05
778.39237	53589.45
782.27321	50945.65
786.15132	48928.15
790.02671	47693.75
793.89938	47062.05
797.76935	46810.05
801.6366	46781.95
805.50115	46822.45
809.36299	46666.15
813.22213	46273.15
817.07857	45960.15
820.93231	45595.35
824.78336	45322.75
828.63172	45080.95
832.47738	45006.15
836.32036	45025.05
840.16066	45162.35
843.99827	45202.95
847.8332	45192.65
851.66546	45191.05
855.49504	45263.55
859.32195	45317.45
863.1462	45201.55
866.96777	45136.35
870.78668	45159.95
874.60293	45203.05
878.41652	45283.05
882.22745	45485.95
886.03573	45696.15
889.84136	45797.15
893.64433	45615.45
897.44466	45428.05
901.24235	45361.85
905.0374	45327.95
908.8298	45355.95
912.61957	45507.45
916.40671	45990.75
920.19121	46750.55
923.97308	47452.55
927.75233	47589.55
931.52895	46952.35
935.30295	45907.95
939.07433	44942.05
942.84309	44409.05
946.60924	44154.65
950.37278	44093.35
954.13371	44090.65
957.89203	44051.85
961.64774	43970.65
965.40086	43971.15
969.15137	43883.85
972.89929	43695.15
976.64461	43595.15
980.38733	43533.95
984.12747	43625.25
987.86502	43677.55
991.59999	43939.35
995.33237	44286.35
999.06217	45026.95
1002.78939	46075.05
1006.51404	47252.35
1010.23611	48364.35
1013.95561	49094.05
1017.67255	48970.15
1021.38692	48250.35
1025.09872	47311.45
1028.80796	46594.05
1032.51465	46587.95
1036.21877	46909.65
1039.92035	47167.05
1043.61937	47241.55
1047.31584	47160.95
1051.00976	47058.25
1054.70114	47190.75
1058.38998	47594.35
1062.07627	48227.65
1065.76003	49104.75
1069.44126	50333.15
1073.11995	51850.55
1076.79611	52956.95
1080.46974	53226.65
1084.14085	53076.05
1087.80943	53116.75
1091.47549	53222.45
1095.13903	53059.65
1098.80005	52169.45
1102.45857	50649.55
1106.11456	49433.95
1109.76805	48814.95
1113.41903	48587.85
1117.06751	48608.85
1120.71348	48886.25
1124.35696	49117.55
1127.99793	49403.55
1131.63641	49683.35
1135.2724	49954.15
1138.90589	50231.55
1142.5369	50609.85
1146.16542	50993.75
1149.79145	51518.15
1153.415	52051.75
1157.03607	52877.45
1160.65467	54778.05
1164.27079	57697.35
1167.88443	60899.75
1171.49561	63720.75
1175.10432	66560.05
1178.71056	70319.35
1182.31434	74112.95
1185.91565	75768.95
1189.51451	75154.95
1193.11091	73389.55
1196.70485	71335.65
1200.29634	69231.15
1203.88538	68085.95
1207.47197	68036.75
1211.05612	68172.45
1214.63782	67419.75
1218.21708	65632.65
1221.79391	63373.95
1225.36829	61634.05
1228.94024	60608.15
1232.50976	59748.45
1236.07685	58826.15
1239.6415	58176.25
1243.20374	58044.95
1246.76355	58440.95
1250.32093	59311.15
1253.8759	60628.65
1257.42845	62390.75
1260.97859	64360.65
1264.52631	66382.75
1268.07163	68580.35
1271.61453	70748.45
1275.15503	72942.75
1278.69312	75376.05
1282.22882	78054.75
1285.76211	81182.45
1289.29301	84713.45
1292.82151	88501.75
1296.34761	92987.15
1299.87133	98463.55
1303.39266	103820.15
1306.9116	107987.35
1310.42815	110301.75
1313.94233	110672.55
1317.45412	109525.85
1320.96354	107995.55
1324.47058	107205.25
1327.97525	107469.55
1331.47754	107801.15
1334.97747	107354.15
1338.47502	105765.35
1341.97022	103322.55
1345.46305	100363.85
1348.95352	97855.35
1352.44163	96944.45
1355.92738	98715.15
1359.41078	102762.05
1362.89183	106215.15
1366.37053	106457.85
1369.84688	100628.15
1373.32088	90758.95
1376.79254	82704.55
1380.26186	79692.05
1383.72883	80064.85
1387.19347	80399.05
1390.65578	79530.85
1394.11575	78816.85
1397.57339	79724.95
1401.0287	81729.25
1404.48168	83400.65
1407.93234	83763.15
1411.38068	82242.95
1414.82669	79386.35
1418.27039	75928.05
1421.71177	72566.35
1425.15083	69927.55
1428.58758	69066.05
1432.02203	70248.55
1435.45416	72765.55
1438.88399	75558.65
1442.31151	77240.15
1445.73673	77905.15
1449.15965	77679.75
1452.58027	76880.25
1455.9986	75955.85
1459.41463	75829.75
1462.82837	76924.05
1466.23982	78681.25
1469.64898	80245.15
1473.05586	81317.45
1476.46045	81670.55
1479.86276	81343.25
1483.26279	80616.75
1486.66054	80228.05
1490.05602	80474.85
1493.44922	81068.35
1496.84016	81168.95
1500.22882	81193.25
1503.61521	81321.25
1506.99934	81602.05
1510.38121	81783.65
1513.76081	81541.35
1517.13816	81141.85
1520.51324	80979.45
1523.88607	81419.35
1527.25665	82665.55
1530.62498	83675.75
1533.99105	83497.15
1537.35488	82167.25
1540.71647	79889.75
1544.07581	77024.55
1547.4329	74398.75
1550.78776	72257.35
1554.14038	70660.55
1557.49077	69833.75
1560.83892	69155.45
1564.18484	68677.05
1567.52853	68518.45
1570.86999	69208.05
1574.20922	70950.05
1577.54624	73239.15
1580.88103	75264.75
1584.2136	77722.35
1587.54395	81448.15
1590.87208	86506.75
1594.19801	91863.05
1597.52172	96050.45
1600.84321	95841.75
1604.16251	89821.05
1607.47959	81123.05
1610.79447	72864.85
1614.10715	66045.75
1617.41763	61011.35
1620.7259	57831.15
1624.03199	56419.25
1627.33587	56727.75
1630.63757	58855.25
1633.93707	63259.55
1637.23439	70827.85
1640.52951	81927.85
1643.82246	95009.15
1647.11321	104508.75
1650.40179	104345.65
1653.68819	94186.05
1656.97241	79773.85
1660.25446	66933.25
1663.53433	58183.85
1666.81203	52679.45
1670.08756	49353.05
1673.36092	47319.45
1676.63211	45955.35
1679.90115	44976.95
1683.16801	44302.35
1686.43272	43719.55
1689.69527	43383.35
1692.95567	43079.55
1696.2139	42939.45
1699.46999	42731.75
1702.72392	42540.45
1705.97571	42467.75
1709.22535	42386.95
1712.47284	42292.55
1715.71819	42228.85
1718.96139	42082.15
1722.20246	41911.15
1725.44139	41733.85
1728.67818	41514.95
1731.91284	41282.65
1735.14537	41015.95
1738.37576	40858.75
1741.60403	40624.95
1744.83017	40576.45
1748.05418	40462.45
1751.27607	40381.95
1754.49584	40302.95
1757.71349	40231.45
1760.92903	40204.25
1764.14244	40147.65
1767.35375	40173.85
1770.56294	40055.25
1773.77002	39982.55
1776.97499	39977.35
1780.17785	39924.55
1783.37861	39886.05
1786.57727	39803.15
1789.77382	39686.15
1792.96828	39628.55
1796.16064	39550.25
1799.3509	39450.95
1802.53907	39395.75
1805.72514	39340.05
1808.90913	39209.05
1812.09102	39179.25
1815.27083	39097.35
1818.44856	39049.55
1821.6242	39032.65
1824.79776	39017.15
1827.96924	39032.85
1831.13864	38996.75
1834.30597	39011.05
1837.47122	39074.05
1840.6344	39040.55
1843.7955	39059.25
1846.95454	39084.85
1850.11151	38983.35
1853.26642	38999.35
1856.41926	38933.85
1859.57004	38881.05
1862.71876	38810.35
1865.86542	38757.05
1869.01003	38731.05
1872.15258	38727.15
1875.29308	38642.05
1878.43152	38515.95
1881.56792	38537.15
1884.70227	38495.15
1887.83457	38512.25
1890.96482	38511.25
1894.09304	38379.35
1897.21921	38377.85
1900.34335	38329.75
1903.46544	38270.95
1906.58551	38259.25
1909.70353	38233.55
1912.81953	38144.65
1915.93349	38061.55
1919.04543	37900.45
1922.15534	37857.55
1925.26322	37791.75
1928.36908	37683.95
1931.47292	37529.45
1934.57473	37514.25
1937.67453	37395.05
1940.77232	37335.95
1943.86808	37183.55
1946.96184	37130.65
1950.05358	37025.55
1953.14331	36979.05
1956.23103	36836.05
1959.31675	36741.35
1962.40046	36707.95
1965.48217	36556.95
1968.56188	36486.95
1971.63959	36360.55
1974.7153	36251.15
1977.78901	36143.45
1980.86073	36031.15
1983.93046	35958.15
1986.99819	35779.75
1990.06394	35723.55
1993.1277	35691.05
1996.18947	35550.45
1999.24925	35525.45
2002.30706	35352.65
2005.36288	35298.25
2008.41672	35227.75
2011.46859	35079.65
2014.51848	34994.55
2017.56639	34967.05
2020.61233	34855.25
2023.6563	34745.75
2026.6983	34676.85
2029.73833	34655.95
2032.7764	34556.35
2035.8125	34518.95
2038.84664	34461.75
2041.87881	34357.45
2044.90903	34268.15
2047.93729	34250.05
2050.96359	34233.25
2053.98794	34169.65
2057.01034	34143.85
2060.03078	34115.95
2063.04927	34070.35
2066.06582	34120.35
2069.08042	34090.05
2072.09307	34068.35
2075.10378	34027.55
2078.11255	33993.55
2081.11938	34033.75
2084.12426	33999.75
2087.12722	33953.65
2090.12824	33883.55
2093.12732	33910.15
2096.12447	33939.05
2099.11969	33971.45
2102.11299	33956.15
2105.10435	34029.55
2108.09379	34020.55
2111.08131	34050.75
2114.0669	33994.95
2117.05057	34023.05
2120.03233	34002.85
2123.01216	33988.45
2125.99008	34063.35
2128.96609	34054.65
2131.94018	34083.75
2134.91236	34122.15
2137.88263	34127.95
2140.851	34146.85
2143.81746	34151.25
2146.78201	34140.55
2149.74466	34164.85
2152.7054	34204.25
2155.66425	34151.65
2158.6212	34158.25
2161.57625	34153.45
2164.52941	34148.45
2167.48067	34194.55
2170.43004	34128.15
2173.37752	34144.55
2176.32311	34068.75
2179.26681	34046.65
2182.20863	34100.45
2185.14856	34107.85
2188.08661	34132.45
2191.02278	34130.65
2193.95707	34089.25
2196.88948	34106.95
2199.82001	34114.75
2202.74867	34014.25
2205.67545	33994.65
2208.60037	33909.65
2211.52341	33865.35
2214.44458	33888.25
2217.36388	33785.45
2220.28132	33774.55
2223.1969	33699.25
2226.11061	33704.15
2229.02246	33645.85
2231.93245	33576.25
2234.84058	33532.55
2237.74686	33556.55
2240.65128	33486.25
2243.55385	33475.25
2246.45456	33382.65
2249.35343	33298.65
2252.25044	33241.35
2255.14561	33165.25
2258.03893	33114.15
2260.93041	33060.25
2263.82004	32981.65
2266.70783	32897.35
2269.59378	32803.55
2272.4779	32745.15
2275.36017	32696.85
2278.24061	32605.75
2281.11922	32573.85
2283.996	32497.75
2286.87094	32470.85
2289.74405	32400.65
2292.61534	32396.45
2295.4848	32335.25
2298.35243	32375.55
2301.21824	32327.45
2304.08223	32406.35
2306.94439	32401.75
2309.80474	32328.65
2312.66327	32278.95
2315.51999	32277.05
2318.37489	32271.15
2321.22797	32224.55
2324.07925	32189.95
2326.92871	32151.95
2329.77637	32147.15
2332.62222	32084.45
2335.46626	32016.55
2338.3085	32066.55
2341.14893	32059.05
2343.98756	32010.05
2346.8244	31946.25
2349.65943	31960.05
2352.49267	31927.25
2355.32411	31899.85
2358.15376	31880.45
2360.98161	31864.25
2363.80768	31865.75
2366.63195	31826.75
2369.45444	31804.25
2372.27514	31761.45
2375.09405	31692.85
2377.91118	31643.15
2380.72652	31611.95
2383.54009	31551.95
2386.35187	31539.45
2389.16188	31459.15
2391.97011	31463.25
2394.77657	31425.85
2397.58125	31329.45
2400.38416	31307.65
2403.18529	31227.95
2405.98466	31201.35
2408.78226	31166.05
2411.57809	31188.65
2414.37216	31111.95
2417.16446	31110.25
2419.955	31079.55
2422.74378	30976.55
2425.5308	31040.25
2428.31606	31004.55
2431.09956	30933.65
2433.88131	30901.55
2436.6613	30905.15
2439.43954	30898.65
2442.21603	30896.05
2444.99077	30846.35
2447.76377	30874.75
2450.53501	30843.45
2453.30451	30782.15
2456.07226	30797.15
2458.83827	30839.25
2461.60254	30807.15
2464.36507	30797.75
2467.12586	30788.25
2469.88492	30746.35
2472.64224	30793.55
2475.39782	30753.35
2478.15167	30820.35
2480.90379	30723.85
2483.65417	30736.65
2486.40283	30724.75
2489.14976	30740.75
2491.89497	30687.95
2494.63845	30683.65
2497.3802	30683.85
2500.12024	30752.25
2502.85855	30674.85
2505.59514	30656.45
2508.33002	30707.15
2511.06318	30632.15
2513.79462	30583.65
2516.52435	30592.15
2519.25237	30563.25
2521.97867	30515.75
2524.70327	30552.55
2527.42616	30540.85
2530.14734	30563.55
2532.86681	30506.55
2535.58458	30515.35
2538.30065	30405.05
2541.01501	30424.55
2543.72768	30379.05
2546.43864	30382.55
2549.14791	30378.35
2551.85548	30367.45
2554.56136	30334.95
2557.26554	30251.85
2559.96803	30273.45
2562.66883	30231.05
2565.36794	30237.75
2568.06536	30219.05
2570.7611	30175.05
2573.45514	30176.85
2576.14751	30140.45
2578.83819	30119.85
2581.52719	30089.65
2584.21451	30044.35
2586.90015	30009.75
2589.58411	29981.65
2592.2664	29950.05
2594.94701	29891.85
2597.62594	29888.55
2600.30321	29832.05
2602.9788	29835.05
2605.65273	29820.45
2608.32498	29844.75
2610.99557	29818.75
2613.66449	29820.65
2616.33175	29784.75
2618.99734	29759.25
2621.66128	29692.35
2624.32355	29663.75
2626.98416	29701.05
2629.64311	29696.15
2632.30041	29671.05
2634.95605	29648.85
2637.61004	29582.35
2640.26238	29586.95
2642.91306	29561.75
2645.56209	29543.75
2648.20948	29552.75
2650.85521	29529.65
2653.4993	29594.25
2656.14175	29655.65
2658.78255	29694.55
2661.42171	29654.55
2664.05923	29659.35
2666.6951	29667.35
2669.32934	29702.15
2671.96194	29718.15
2674.59291	29705.85
2677.22224	29640.95
2679.84993	29647.45
2682.476	29661.25
2685.10043	29681.25
2687.72324	29630.15
2690.34441	29643.45
2692.96396	29641.25
2695.58188	29731.35
2698.19818	29635.85
2700.81285	29726.45
2703.4259	29657.55
2706.03733	29698.05
2708.64714	29700.95
2711.25533	29694.65
2713.86191	29709.55
2716.46687	29714.75
2719.07021	29737.65
2721.67194	29732.05
2724.27206	29712.25
2726.87057	29749.15
2729.46747	29765.75
2732.06276	29826.55
2734.65644	29855.15
2737.24852	29803.95
2739.83899	29797.35
2742.42786	29774.85
2745.01513	29788.25
2747.60079	29765.25
2750.18486	29743.35
2752.76733	29744.15
2755.3482	29735.45
2757.92747	29749.05
2760.50515	29696.35
2763.08123	29651.05
2765.65573	29665.45
2768.22863	29711.55
2770.79994	29658.05
2773.36967	29622.85
2775.9378	29590.85
2778.50435	29566.95
2781.06932	29558.45
2783.6327	29503.65
2786.1945	29507.35
2788.75471	29494.35
2791.31335	29430.85
2793.87041	29392.75
2796.42589	29307.25
2798.97979	29288.65
2801.53212	29253.35
2804.08288	29167.95
2806.63206	29131.95
2809.17967	29097.15
2811.72571	29037.15
2814.27018	28965.45
2816.81308	28919.05
2819.35442	28919.25
2821.89419	28839.65
2824.43239	28817.85
2826.96904	28784.95
2829.50412	28817.65
2832.03763	28737.95
2834.56959	28694.65
2837.1	28662.15
2839.62884	28635.15
2842.15613	28569.55
2844.68186	28625.15
2847.20604	28548.25
2849.72867	28524.25
2852.24974	28515.15
2854.76927	28502.15
2857.28724	28478.05
2859.80367	28437.25
2862.31855	28430.95
2864.83189	28416.05
2867.34368	28381.65
2869.85393	28350.35
2872.36264	28302.35
2874.8698	28284.35
2877.37543	28309.85
2879.87952	28340.05
2882.38207	28320.75
2884.88308	28348.25
2887.38256	28327.95
2889.88051	28367.05
2892.37692	28435.45
2894.8718	28398.85
2897.36515	28436.85
2899.85698	28374.25
2902.34727	28484.05
2904.83604	28437.65
2907.32328	28493.65
2909.809	28438.45
2912.29319	28473.75
2914.77587	28425.85
2917.25702	28432.55
2919.73665	28413.85
2922.21476	28411.05
2924.69136	28385.35
2927.16644	28386.55
2929.64	28354.45
2932.11205	28361.15
2934.58258	28260.65
2937.05161	28344.85
2939.51912	28352.75
2941.98513	28304.35
2944.44962	28240.05
2946.91261	28158.35
2949.37409	28184.15
2951.83407	28157.75
2954.29254	28176.85
2956.74951	28103.95
2959.20498	28108.75
2961.65895	28058.15
2964.11142	28026.15
2966.56239	27957.85
2969.01186	27931.25
2971.45984	27864.45
2973.90632	27796.75
2976.35131	27744.45
2978.7948	27722.95
2981.23681	27696.15
2983.67732	27603.25
2986.11635	27525.05
2988.55388	27460.55
2990.98993	27386.15
2993.4245	27349.45
2995.85758	27241.55
2998.28917	27157.45
3000.71928	27098.75
3003.14791	27038.65
3005.57506	26970.85
3008.00073	26908.35
3010.42493	26950.05
3012.84764	26942.55
3015.26888	26899.55
3017.68865	26843.45
3020.10694	26783.05
3022.52376	26734.55
3024.9391	26671.05
3027.35298	26641.85
3029.76539	26601.65
3032.17632	26583.85
3034.5858	26561.85
3036.9938	26500.35
3039.40034	26492.45
3041.80542	26435.15
3044.20903	26381.65
3046.61118	26396.45
3049.01187	26270.95
3051.4111	26244.25
3053.80888	26214.55
3056.20519	26114.35
3058.60005	26082.05
3060.99345	26028.55
3063.3854	25967.45
3065.7759	25878.55
3068.16494	25840.55
3070.55254	25755.25
3072.93868	25694.55
3075.32338	25600.75
3077.70662	25525.05
3080.08842	25429.55
3082.46878	25462.25
3084.84769	25401.65
3087.22515	25390.25
3089.60118	25443.35
3091.97576	25405.45
3094.3489	25339.85
3096.72061	25288.75
3099.09087	25279.65
3101.4597	25242.85
3103.82709	25211.15
3106.19305	25202.45
3108.55757	25150.75
3110.92066	25085.75
3113.28232	25021.75
3115.64255	24970.15
3118.00134	24897.45
3120.35871	24827.65
3122.71466	24758.45
3125.06917	24762.55
3127.42226	24653.35
3129.77393	24696.55
3132.12417	24695.55
3134.47299	24630.35
3136.82039	24653.85
3139.16636	24655.05
3141.51092	24625.55
3143.85406	24599.05
3146.19579	24570.65
3148.53609	24527.35
3150.87499	24555.45
3153.21246	24562.85
3155.54853	24552.65
3157.88318	24496.65
3160.21642	24513.15
3162.54826	24512.65
3164.87868	24395.95
3167.2077	24388.85
3169.5353	24416.75
3171.86151	24385.45
3174.18631	24352.95
3176.5097	24342.35
3178.83169	24331.25
3181.15228	24312.45
3183.47147	24206.75
3185.78926	24207.65
3188.10565	24219.65
3190.42065	24179.85
3192.73424	24184.45
3195.04645	24123.65
3197.35725	24128.55
3199.66667	24079.45
3201.97469	24057.65
3204.28132	24043.55
3206.58656	24031.75
3208.8904	23999.95
3211.19287	24028.85
3213.49394	23953.45
3215.79363	24008.25
3218.09193	23955.95
3220.38884	23985.65
3222.68438	23942.65
3224.97853	23899.65
3227.2713	23880.15
3229.56269	23894.95
3231.8527	23857.85
3234.14133	23820.75
3236.42858	23739.35
