Data from AgNP_FTO_APTES_CRN_20uM_R6G_10uM_NaF_0.1M_Addition_RamanShift__33__17-38-58-046.txt Node

Date: Wed Dec 15 17:38:58 GMT 2021
User: TCL
Spectrometer: QEP01345
Trigger mode: 4
Integration Time (sec): 7.000000E0
Scans to average: 10
Electric dark correction enabled: true
Nonlinearity correction enabled: false
Boxcar width: 0
XAxis mode: Raman Shifts
Number of Pixels in Spectrum: 1044
>>>>>Begin Spectral Data<<<<<
46.04893	-0.1125
50.45542	-1.2125
54.85868	-0.1125
59.25871	-0.3125
63.6555	47.9875
68.04907	60.9875
72.43941	57.6875
76.82654	61.3875
81.21044	63.4875
85.59113	66.9875
89.96862	70.0875
94.34289	71.0875
98.71396	74.6875
103.08183	78.5875
107.4465	81.0875
111.80798	78.2875
116.16626	79.8875
120.52136	84.4875
124.87327	83.0875
129.222	83.5875
133.56755	89.4875
137.90993	93.3875
142.24913	101.5875
146.58517	109.7875
150.91804	120.3875
155.24774	136.0875
159.57429	167.2875
163.89768	208.5875
168.21792	260.1875
172.53501	352.8875
176.84895	483.9875
181.15975	676.2875
185.46741	939.3875
189.77193	1285.5875
194.07331	1715.0875
198.37157	2210.2875
202.6667	2742.7875
206.9587	3258.4875
211.24758	3778.2875
215.53334	4320.5875
219.81599	4880.2875
224.09553	5542.6875
228.37195	6242.1875
232.64527	7043.3875
236.91549	7832.8875
241.18261	8597.0875
245.44663	9281.7875
249.70755	9829.3875
253.96539	10346.8875
258.22014	10783.9875
262.4718	11190.4875
266.72039	11484.5875
270.96589	11671.8875
275.20832	11701.6875
279.44768	11619.9875
283.68397	11492.7875
287.91719	11421.4875
292.14735	11448.4875
296.37445	11582.9875
300.59849	11816.3875
304.81948	12098.0875
309.03742	12315.6875
313.25231	12277.6875
317.46415	11873.6875
321.67296	11246.0875
325.87872	10659.5875
330.08145	10382.0875
334.28114	10404.7875
338.47781	10517.1875
342.67145	10761.9875
346.86207	11117.8875
351.04966	11624.4875
355.23424	12163.5875
359.4158	12600.9875
363.59435	12819.3875
367.76989	12902.6875
371.94243	12918.2875
376.11196	12876.3875
380.27849	12866.9875
384.44203	12799.8875
388.60257	12749.8875
392.76012	12720.7875
396.91468	12842.2875
401.06626	13138.4875
405.21485	13364.2875
409.36047	13250.6875
413.50311	12821.8875
417.64277	12377.1875
421.77947	12161.3875
425.9132	12082.6875
430.04396	12078.2875
434.17176	12173.6875
438.2966	12297.0875
442.41849	12556.8875
446.53742	12895.6875
450.6534	13185.2875
454.76644	13434.2875
458.87653	13511.4875
462.98368	13459.9875
467.08789	13294.2875
471.18916	13038.1875
475.2875	12783.4875
479.38291	12586.0875
483.4754	12408.3875
487.56496	12298.3875
491.6516	12186.8875
495.73531	12134.2875
499.81612	12158.7875
503.89401	12254.5875
507.96899	12347.2875
512.04106	12501.9875
516.11023	12635.6875
520.1765	12783.9875
524.23987	12774.2875
528.30034	12652.9875
532.35792	12429.9875
536.41261	12234.8875
540.46441	12031.3875
544.51333	11950.5875
548.55936	11996.6875
552.60252	12191.4875
556.64279	12440.9875
560.6802	12537.7875
564.71473	12657.8875
568.7464	12955.6875
572.7752	13190.5875
576.80114	13031.6875
580.82422	12832.8875
584.84444	12760.7875
588.86181	12759.0875
592.87633	12821.3875
596.888	12976.4875
600.89682	13308.8875
604.9028	14298.7875
608.90594	16934.6875
612.90624	20351.9875
616.90371	19812.0875
620.89834	15208.5875
624.89015	12981.1875
628.87913	12592.5875
632.86528	12586.6875
636.84862	12662.0875
640.82913	12519.0875
644.80683	12209.6875
648.78172	11971.5875
652.75379	12013.1875
656.72306	12337.8875
660.68952	12742.9875
664.65319	12715.5875
668.61405	12328.2875
672.57211	12095.9875
676.52738	12095.5875
680.47986	12103.8875
684.42955	12048.6875
688.37646	12036.9875
692.32058	12108.4875
696.26192	12180.8875
700.20048	12308.1875
704.13626	12425.3875
708.06928	12405.1875
711.99952	12340.4875
715.927	12295.4875
719.85171	12320.0875
723.77365	12293.7875
727.69284	12171.5875
731.60928	12104.2875
735.52295	12100.1875
739.43388	12144.9875
743.34206	12188.6875
747.24749	12241.9875
751.15017	12341.7875
755.05012	12567.8875
758.94733	12931.0875
762.8418	13844.6875
766.73354	15376.0875
770.62254	16969.6875
774.50882	17748.4875
778.39237	17101.3875
782.27321	15432.7875
786.15132	13798.2875
790.02671	12857.3875
793.89938	12438.1875
797.76935	12284.9875
801.6366	12207.3875
805.50115	12113.5875
809.36299	12099.9875
813.22213	12061.7875
817.07857	12071.0875
820.93231	12068.9875
824.78336	12097.8875
828.63172	12164.2875
832.47738	12195.4875
836.32036	12210.2875
840.16066	12211.5875
843.99827	12180.5875
847.8332	12132.1875
851.66546	12095.4875
855.49504	12081.1875
859.32195	12050.2875
863.1462	12040.2875
866.96777	12007.5875
870.78668	11970.3875
874.60293	12006.3875
878.41652	12027.7875
882.22745	12058.4875
886.03573	12108.4875
889.84136	12090.1875
893.64433	12025.7875
897.44466	12002.4875
901.24235	12016.0875
905.0374	12005.0875
908.8298	11951.1875
912.61957	11975.7875
916.40671	12053.1875
920.19121	12131.6875
923.97308	12214.6875
927.75233	12284.0875
931.52895	12344.0875
935.30295	12266.0875
939.07433	12045.6875
942.84309	11835.9875
946.60924	11746.7875
950.37278	11646.1875
954.13371	11606.6875
957.89203	11550.4875
961.64774	11544.9875
965.40086	11479.2875
969.15137	11484.5875
972.89929	11444.0875
976.64461	11401.8875
980.38733	11430.1875
984.12747	11481.2875
987.86502	11518.5875
991.59999	11586.8875
995.33237	11713.9875
999.06217	11940.6875
1002.78939	12217.2875
1006.51404	12411.2875
1010.23611	12567.7875
1013.95561	12723.3875
1017.67255	12732.8875
1021.38692	12606.6875
1025.09872	12514.3875
1028.80796	12516.0875
1032.51465	12662.3875
1036.21877	12861.4875
1039.92035	12919.8875
1043.61937	12893.0875
1047.31584	12719.1875
1051.00976	12592.0875
1054.70114	12513.1875
1058.38998	12524.2875
1062.07627	12634.0875
1065.76003	12756.9875
1069.44126	12899.8875
1073.11995	13127.7875
1076.79611	13330.5875
1080.46974	13455.6875
1084.14085	13557.4875
1087.80943	13613.1875
1091.47549	13548.2875
1095.13903	13296.5875
1098.80005	12927.8875
1102.45857	12618.3875
1106.11456	12508.4875
1109.76805	12535.2875
1113.41903	12675.1875
1117.06751	12916.6875
1120.71348	13181.2875
1124.35696	13543.9875
1127.99793	13851.2875
1131.63641	13834.7875
1135.2724	13489.0875
1138.90589	13120.5875
1142.5369	12881.6875
1146.16542	12699.6875
1149.79145	12637.7875
1153.415	12631.3875
1157.03607	12738.6875
1160.65467	12867.2875
1164.27079	13178.7875
1167.88443	13681.2875
1171.49561	14449.6875
1175.10432	15691.7875
1178.71056	17306.5875
1182.31434	18502.6875
1185.91565	18815.2875
1189.51451	18467.1875
1193.11091	17584.6875
1196.70485	16535.8875
1200.29634	15765.6875
1203.88538	15167.4875
1207.47197	14562.1875
1211.05612	14073.5875
1214.63782	13804.9875
1218.21708	13698.8875
1221.79391	13725.1875
1225.36829	13783.3875
1228.94024	13827.4875
1232.50976	13838.8875
1236.07685	13895.1875
1239.6415	13934.7875
1243.20374	14020.4875
1246.76355	14089.3875
1250.32093	14265.6875
1253.8759	14536.2875
1257.42845	14859.2875
1260.97859	15175.2875
1264.52631	15498.0875
1268.07163	15735.1875
1271.61453	16012.4875
1275.15503	16265.3875
1278.69312	16459.2875
1282.22882	16591.5875
1285.76211	16851.2875
1289.29301	17157.5875
1292.82151	17525.2875
1296.34761	17922.6875
1299.87133	18503.0875
1303.39266	19500.1875
1306.9116	21034.3875
1310.42815	22806.0875
1313.94233	23961.8875
1317.45412	23814.1875
1320.96354	22662.0875
1324.47058	21336.0875
1327.97525	20260.2875
1331.47754	19603.1875
1334.97747	19490.1875
1338.47502	19740.1875
1341.97022	20124.3875
1345.46305	20558.4875
1348.95352	21095.3875
1352.44163	21906.9875
1355.92738	23229.8875
1359.41078	25526.4875
1362.89183	27849.3875
1366.37053	27498.6875
1369.84688	24292.0875
1373.32088	20965.6875
1376.79254	18761.4875
1380.26186	17699.4875
1383.72883	17114.3875
1387.19347	16678.3875
1390.65578	16252.6875
1394.11575	15859.2875
1397.57339	15688.9875
1401.0287	15736.4875
1404.48168	15898.0875
1407.93234	16162.4875
1411.38068	16389.2875
1414.82669	16382.0875
1418.27039	16179.2875
1421.71177	15819.9875
1425.15083	15525.9875
1428.58758	15321.7875
1432.02203	15370.2875
1435.45416	15473.7875
1438.88399	15552.9875
1442.31151	15583.0875
1445.73673	15610.3875
1449.15965	15688.6875
1452.58027	15639.1875
1455.9986	15536.6875
1459.41463	15471.2875
1462.82837	15583.2875
1466.23982	15793.2875
1469.64898	16050.3875
1473.05586	16284.5875
1476.46045	16478.7875
1479.86276	16753.4875
1483.26279	17054.4875
1486.66054	17388.4875
1490.05602	17786.5875
1493.44922	18348.8875
1496.84016	19030.1875
1500.22882	20091.0875
1503.61521	21515.8875
1506.99934	23168.9875
1510.38121	24822.1875
1513.76081	25720.0875
1517.13816	25038.7875
1520.51324	22916.8875
1523.88607	20680.5875
1527.25665	19086.0875
1530.62498	18097.3875
1533.99105	17543.2875
1537.35488	17216.8875
1540.71647	17012.5875
1544.07581	16909.2875
1547.4329	16834.6875
1550.78776	16748.9875
1554.14038	16658.2875
1557.49077	16733.9875
1560.83892	16899.0875
1564.18484	17196.0875
1567.52853	17530.0875
1570.86999	17831.2875
1574.20922	18098.1875
1577.54624	18239.7875
1580.88103	17866.7875
1584.2136	17246.9875
1587.54395	16830.9875
1590.87208	16864.3875
1594.19801	17424.3875
1597.52172	18390.2875
1600.84321	18830.4875
1604.16251	18374.3875
1607.47959	17407.7875
1610.79447	16333.3875
1614.10715	15289.4875
1617.41763	14524.1875
1620.7259	13989.2875
1624.03199	13751.4875
1627.33587	13729.5875
1630.63757	13964.3875
1633.93707	14463.3875
1637.23439	15169.9875
1640.52951	16121.4875
1643.82246	17353.5875
1647.11321	18710.3875
1650.40179	19692.9875
1653.68819	19382.9875
1656.97241	17642.5875
1660.25446	15540.1875
1663.53433	14002.6875
1666.81203	13035.2875
1670.08756	12471.2875
1673.36092	12125.4875
1676.63211	11912.5875
1679.90115	11742.6875
1683.16801	11593.1875
1686.43272	11501.5875
1689.69527	11465.1875
1692.95567	11428.8875
1696.2139	11391.9875
1699.46999	11423.0875
1702.72392	11391.0875
1705.97571	11375.6875
1709.22535	11344.1875
1712.47284	11357.1875
1715.71819	11346.9875
1718.96139	11341.1875
1722.20246	11341.5875
1725.44139	11306.1875
1728.67818	11272.6875
1731.91284	11197.9875
1735.14537	11130.8875
1738.37576	11105.1875
1741.60403	11051.1875
1744.83017	11044.5875
1748.05418	11026.9875
1751.27607	11012.7875
1754.49584	11000.2875
1757.71349	11001.7875
1760.92903	10992.3875
1764.14244	10999.3875
1767.35375	10971.1875
1770.56294	10957.8875
1773.77002	10958.1875
1776.97499	10946.2875
1780.17785	10909.8875
1783.37861	10895.0875
1786.57727	10865.9875
1789.77382	10845.9875
1792.96828	10843.0875
1796.16064	10835.5875
1799.3509	10808.9875
1802.53907	10808.8875
1805.72514	10788.9875
1808.90913	10757.5875
1812.09102	10743.2875
1815.27083	10692.6875
1818.44856	10708.3875
1821.6242	10698.4875
1824.79776	10702.1875
1827.96924	10672.7875
1831.13864	10660.0875
1834.30597	10675.3875
1837.47122	10671.3875
1840.6344	10631.5875
1843.7955	10632.9875
1846.95454	10658.0875
1850.11151	10637.0875
1853.26642	10633.8875
1856.41926	10643.9875
1859.57004	10641.2875
1862.71876	10632.1875
1865.86542	10634.3875
1869.01003	10617.8875
1872.15258	10622.3875
1875.29308	10627.3875
1878.43152	10635.7875
1881.56792	10624.3875
1884.70227	10599.6875
1887.83457	10619.1875
1890.96482	10593.2875
1894.09304	10598.3875
1897.21921	10596.7875
1900.34335	10599.1875
1903.46544	10588.3875
1906.58551	10574.2875
1909.70353	10564.3875
1912.81953	10566.7875
1915.93349	10542.4875
1919.04543	10541.6875
1922.15534	10513.4875
1925.26322	10492.3875
1928.36908	10482.5875
1931.47292	10466.4875
1934.57473	10463.1875
1937.67453	10426.7875
1940.77232	10395.4875
1943.86808	10366.3875
1946.96184	10320.8875
1950.05358	10299.1875
1953.14331	10267.8875
1956.23103	10244.6875
1959.31675	10224.3875
1962.40046	10195.8875
1965.48217	10167.8875
1968.56188	10137.3875
1971.63959	10102.8875
1974.7153	10057.6875
1977.78901	10047.7875
1980.86073	9991.7875
1983.93046	9978.8875
1986.99819	9952.2875
1990.06394	9920.3875
1993.1277	9890.6875
1996.18947	9843.2875
1999.24925	9832.1875
2002.30706	9787.6875
2005.36288	9784.5875
2008.41672	9758.8875
2011.46859	9729.9875
2014.51848	9691.0875
2017.56639	9683.1875
2020.61233	9641.5875
2023.6563	9648.5875
2026.6983	9623.0875
2029.73833	9588.2875
2032.7764	9570.3875
2035.8125	9556.9875
2038.84664	9530.1875
2041.87881	9532.9875
2044.90903	9504.2875
2047.93729	9475.8875
2050.96359	9473.0875
2053.98794	9459.7875
2057.01034	9470.9875
2060.03078	9433.2875
2063.04927	9432.5875
2066.06582	9421.3875
2069.08042	9404.1875
2072.09307	9415.4875
2075.10378	9390.3875
2078.11255	9355.6875
2081.11938	9415.7875
2084.12426	9388.3875
2087.12722	9386.7875
2090.12824	9385.3875
2093.12732	9361.6875
2096.12447	9374.6875
2099.11969	9369.5875
2102.11299	9394.0875
2105.10435	9366.1875
2108.09379	9398.7875
2111.08131	9416.7875
2114.0669	9400.1875
2117.05057	9408.8875
2120.03233	9408.3875
2123.01216	9408.5875
2125.99008	9427.8875
2128.96609	9453.2875
2131.94018	9426.6875
2134.91236	9458.2875
2137.88263	9441.8875
2140.851	9446.2875
2143.81746	9451.6875
2146.78201	9468.6875
2149.74466	9469.8875
2152.7054	9471.3875
2155.66425	9484.8875
2158.6212	9485.9875
2161.57625	9473.4875
2164.52941	9456.4875
2167.48067	9454.4875
2170.43004	9453.4875
2173.37752	9453.4875
2176.32311	9443.3875
2179.26681	9449.5875
2182.20863	9439.5875
2185.14856	9435.6875
2188.08661	9429.0875
2191.02278	9443.9875
2193.95707	9403.5875
2196.88948	9421.2875
2199.82001	9397.9875
2202.74867	9387.0875
2205.67545	9395.9875
2208.60037	9403.3875
2211.52341	9375.8875
2214.44458	9379.1875
2217.36388	9364.6875
2220.28132	9347.3875
2223.1969	9316.2875
2226.11061	9317.8875
2229.02246	9308.4875
2231.93245	9274.0875
2234.84058	9240.2875
2237.74686	9242.2875
2240.65128	9242.8875
2243.55385	9224.4875
2246.45456	9211.8875
2249.35343	9187.5875
2252.25044	9187.5875
2255.14561	9172.3875
2258.03893	9158.2875
2260.93041	9176.5875
2263.82004	9154.3875
2266.70783	9127.9875
2269.59378	9104.6875
2272.4779	9081.0875
2275.36017	9084.3875
2278.24061	9038.8875
2281.11922	9004.3875
2283.996	9009.2875
2286.87094	8987.8875
2289.74405	8972.1875
2292.61534	8950.8875
2295.4848	8955.4875
2298.35243	8952.7875
2301.21824	8941.7875
2304.08223	8940.3875
2306.94439	8931.5875
2309.80474	8918.7875
2312.66327	8943.0875
2315.51999	8924.7875
2318.37489	8908.2875
2321.22797	8886.5875
2324.07925	8903.0875
2326.92871	8889.3875
2329.77637	8893.1875
2332.62222	8881.2875
2335.46626	8868.8875
2338.3085	8858.3875
2341.14893	8864.5875
2343.98756	8830.0875
2346.8244	8858.7875
2349.65943	8830.9875
2352.49267	8820.8875
2355.32411	8821.1875
2358.15376	8840.4875
2360.98161	8831.4875
2363.80768	8828.1875
2366.63195	8815.4875
2369.45444	8811.0875
2372.27514	8810.3875
2375.09405	8798.7875
2377.91118	8759.6875
2380.72652	8741.2875
2383.54009	8715.3875
2386.35187	8697.0875
2389.16188	8678.0875
2391.97011	8656.3875
2394.77657	8649.0875
2397.58125	8620.6875
2400.38416	8616.1875
2403.18529	8591.8875
2405.98466	8555.1875
2408.78226	8553.7875
2411.57809	8551.5875
2414.37216	8545.7875
2417.16446	8522.0875
2419.955	8499.5875
2422.74378	8500.0875
2425.5308	8474.4875
2428.31606	8479.4875
2431.09956	8472.2875
2433.88131	8456.5875
2436.6613	8457.8875
2439.43954	8452.7875
2442.21603	8449.3875
2444.99077	8436.2875
2447.76377	8416.6875
2450.53501	8423.6875
2453.30451	8412.8875
2456.07226	8388.6875
2458.83827	8394.1875
2461.60254	8393.5875
2464.36507	8363.4875
2467.12586	8384.4875
2469.88492	8395.6875
2472.64224	8384.6875
2475.39782	8385.5875
2478.15167	8382.9875
2480.90379	8391.4875
2483.65417	8392.2875
2486.40283	8402.2875
2489.14976	8392.6875
2491.89497	8390.0875
2494.63845	8402.4875
2497.3802	8391.1875
2500.12024	8391.8875
2502.85855	8385.8875
2505.59514	8368.8875
2508.33002	8332.3875
2511.06318	8341.0875
2513.79462	8316.9875
2516.52435	8288.3875
2519.25237	8292.0875
2521.97867	8257.7875
2524.70327	8272.8875
2527.42616	8244.5875
2530.14734	8227.7875
2532.86681	8231.0875
2535.58458	8203.8875
2538.30065	8208.4875
2541.01501	8199.2875
2543.72768	8186.6875
2546.43864	8177.6875
2549.14791	8167.6875
2551.85548	8157.0875
2554.56136	8158.6875
2557.26554	8122.0875
2559.96803	8128.9875
2562.66883	8121.3875
2565.36794	8119.1875
2568.06536	8102.2875
2570.7611	8093.1875
2573.45514	8077.5875
2576.14751	8056.6875
2578.83819	8031.4875
2581.52719	8036.2875
2584.21451	8039.4875
2586.90015	8036.3875
2589.58411	8015.7875
2592.2664	7998.1875
2594.94701	7978.5875
2597.62594	7981.0875
2600.30321	7952.8875
2602.9788	7958.9875
2605.65273	7954.3875
2608.32498	7941.5875
2610.99557	7933.3875
2613.66449	7939.6875
2616.33175	7921.8875
2618.99734	7922.8875
2621.66128	7926.5875
2624.32355	7904.9875
2626.98416	7904.8875
2629.64311	7903.2875
2632.30041	7889.5875
2634.95605	7896.9875
2637.61004	7882.8875
2640.26238	7842.0875
2642.91306	7860.6875
2645.56209	7839.2875
2648.20948	7845.0875
2650.85521	7828.2875
2653.4993	7800.2875
2656.14175	7797.7875
2658.78255	7808.1875
2661.42171	7791.3875
2664.05923	7822.4875
2666.6951	7817.4875
2669.32934	7830.9875
2671.96194	7825.9875
2674.59291	7824.1875
2677.22224	7813.6875
2679.84993	7819.7875
2682.476	7818.5875
2685.10043	7826.7875
2687.72324	7822.9875
2690.34441	7829.1875
2692.96396	7830.7875
2695.58188	7831.9875
2698.19818	7838.7875
2700.81285	7817.5875
2703.4259	7830.5875
2706.03733	7879.3875
2708.64714	7839.9875
2711.25533	7835.6875
2713.86191	7841.9875
2716.46687	7844.1875
2719.07021	7826.3875
2721.67194	7830.0875
2724.27206	7814.1875
2726.87057	7825.4875
2729.46747	7794.1875
2732.06276	7825.8875
2734.65644	7816.8875
2737.24852	7804.6875
2739.83899	7802.1875
2742.42786	7791.8875
2745.01513	7764.1875
2747.60079	7771.7875
2750.18486	7765.9875
2752.76733	7761.0875
2755.3482	7760.7875
2757.92747	7760.0875
2760.50515	7741.5875
2763.08123	7740.2875
2765.65573	7711.8875
2768.22863	7710.9875
2770.79994	7705.6875
2773.36967	7690.2875
2775.9378	7688.5875
2778.50435	7678.6875
2781.06932	7672.9875
2783.6327	7654.3875
2786.1945	7648.9875
2788.75471	7626.6875
2791.31335	7628.5875
2793.87041	7606.6875
2796.42589	7601.2875
2798.97979	7592.3875
2801.53212	7590.9875
2804.08288	7576.4875
2806.63206	7570.8875
2809.17967	7537.3875
2811.72571	7532.1875
2814.27018	7522.6875
2816.81308	7515.8875
2819.35442	7500.2875
2821.89419	7519.9875
2824.43239	7525.0875
2826.96904	7512.6875
2829.50412	7526.0875
2832.03763	7500.7875
2834.56959	7496.6875
2837.1	7500.3875
2839.62884	7511.4875
2842.15613	7505.1875
2844.68186	7528.3875
2847.20604	7533.8875
2849.72867	7564.5875
2852.24974	7565.3875
2854.76927	7559.2875
2857.28724	7539.5875
2859.80367	7535.7875
2862.31855	7539.7875
2864.83189	7507.1875
2867.34368	7508.9875
2869.85393	7502.3875
2872.36264	7492.6875
2874.8698	7480.4875
2877.37543	7475.1875
2879.87952	7466.1875
2882.38207	7481.9875
2884.88308	7464.4875
2887.38256	7459.3875
2889.88051	7470.5875
2892.37692	7469.3875
2894.8718	7463.4875
2897.36515	7485.9875
2899.85698	7458.9875
2902.34727	7483.6875
2904.83604	7470.6875
2907.32328	7479.9875
2909.809	7474.7875
2912.29319	7495.3875
2914.77587	7475.1875
2917.25702	7448.9875
2919.73665	7445.5875
2922.21476	7454.6875
2924.69136	7462.5875
2927.16644	7428.1875
2929.64	7427.8875
2932.11205	7417.8875
2934.58258	7410.8875
2937.05161	7431.5875
2939.51912	7407.3875
2941.98513	7389.3875
2944.44962	7354.5875
2946.91261	7320.9875
2949.37409	7320.1875
2951.83407	7330.8875
2954.29254	7323.6875
2956.74951	7292.0875
2959.20498	7270.6875
2961.65895	7272.4875
2964.11142	7274.3875
2966.56239	7248.4875
2969.01186	7250.7875
2971.45984	7208.4875
2973.90632	7210.4875
2976.35131	7181.6875
2978.7948	7189.4875
2981.23681	7157.9875
2983.67732	7153.0875
2986.11635	7135.8875
2988.55388	7141.2875
2990.98993	7091.1875
2993.4245	7108.8875
2995.85758	7077.0875
2998.28917	7065.2875
3000.71928	7049.9875
3003.14791	7041.0875
3005.57506	7042.1875
3008.00073	7029.0875
3010.42493	7037.7875
3012.84764	7005.9875
3015.26888	7003.7875
3017.68865	6970.4875
3020.10694	6981.9875
3022.52376	6969.2875
3024.9391	6951.8875
3027.35298	6949.0875
3029.76539	6946.9875
3032.17632	6925.9875
3034.5858	6919.8875
3036.9938	6921.7875
3039.40034	6906.7875
3041.80542	6908.8875
3044.20903	6894.7875
3046.61118	6894.9875
3049.01187	6879.6875
3051.4111	6861.9875
3053.80888	6849.6875
3056.20519	6831.0875
3058.60005	6824.9875
3060.99345	6801.8875
3063.3854	6805.4875
3065.7759	6769.2875
3068.16494	6758.3875
3070.55254	6746.4875
