Data from AgNP_FTO_APTES_CRN_200uM_R6G_10uM_NaF_0.1M_Addition_RamanShift__25__19-46-08-190.txt Node

Date: Wed Dec 15 19:46:08 GMT 2021
User: TCL
Spectrometer: QEP01345
Trigger mode: 4
Integration Time (sec): 7.000000E0
Scans to average: 10
Electric dark correction enabled: true
Nonlinearity correction enabled: false
Boxcar width: 0
XAxis mode: Raman Shifts
Number of Pixels in Spectrum: 1044
>>>>>Begin Spectral Data<<<<<
46.04893	1.825
50.45542	-1.875
54.85868	-1.575
59.25871	0.725
63.6555	59.725
68.04907	66.825
72.43941	70.225
76.82654	73.825
81.21044	72.025
85.59113	76.625
89.96862	82.725
94.34289	82.325
98.71396	85.925
103.08183	91.725
107.4465	94.525
111.80798	92.725
116.16626	93.625
120.52136	103.825
124.87327	102.125
129.222	109.025
133.56755	107.625
137.90993	120.525
142.24913	127.525
146.58517	139.825
150.91804	162.625
155.24774	191.125
159.57429	231.925
163.89768	297.025
168.21792	384.025
172.53501	528.825
176.84895	725.425
181.15975	1023.125
185.46741	1419.825
189.77193	1955.925
194.07331	2635.225
198.37157	3394.325
202.6667	4187.625
206.9587	5002.625
211.24758	5759.525
215.53334	6559.725
219.81599	7363.025
224.09553	8253.325
228.37195	9241.525
232.64527	10348.925
236.91549	11472.725
241.18261	12653.325
245.44663	13756.525
249.70755	14763.025
253.96539	15647.325
258.22014	16384.025
262.4718	17046.125
266.72039	17470.025
270.96589	17686.825
275.20832	17785.225
279.44768	17661.725
283.68397	17487.825
287.91719	17365.225
292.14735	17285.525
296.37445	17210.425
300.59849	17289.625
304.81948	17285.825
309.03742	17179.525
313.25231	17034.225
317.46415	16678.625
321.67296	16293.725
325.87872	16025.625
330.08145	15889.725
334.28114	15950.125
338.47781	16057.225
342.67145	16252.125
346.86207	16481.525
351.04966	16798.125
355.23424	17108.625
359.4158	17408.125
363.59435	17585.925
367.76989	17717.625
371.94243	17866.525
376.11196	17938.325
380.27849	18066.925
384.44203	18172.925
388.60257	18327.925
392.76012	18485.925
396.91468	18659.325
401.06626	18867.825
405.21485	19057.125
409.36047	19005.725
413.50311	18786.025
417.64277	18571.825
421.77947	18541.325
425.9132	18555.325
430.04396	18690.425
434.17176	18892.825
438.2966	19152.725
442.41849	19508.925
446.53742	20009.625
450.6534	20566.825
454.76644	20950.425
458.87653	21062.225
462.98368	20942.925
467.08789	20753.925
471.18916	20575.625
475.2875	20418.125
479.38291	20380.725
483.4754	20281.925
487.56496	20028.525
491.6516	19736.625
495.73531	19453.025
499.81612	19292.725
503.89401	19366.925
507.96899	19417.325
512.04106	19436.325
516.11023	19417.125
520.1765	19466.125
524.23987	19488.525
528.30034	19444.125
532.35792	19324.425
536.41261	19208.225
540.46441	19000.725
544.51333	18984.025
548.55936	19119.425
552.60252	19427.025
556.64279	19815.325
560.6802	20082.625
564.71473	20174.625
568.7464	20360.625
572.7752	20568.025
576.80114	20670.425
580.82422	20632.125
584.84444	20797.025
588.86181	21225.125
592.87633	21780.325
596.888	22189.725
600.89682	22164.025
604.9028	22392.125
608.90594	23556.025
612.90624	24956.425
616.90371	23863.525
620.89834	20869.325
624.89015	19527.525
628.87913	19383.225
632.86528	19461.925
636.84862	19519.325
640.82913	19346.525
644.80683	18991.225
648.78172	18744.725
652.75379	18666.725
656.72306	18786.925
660.68952	18997.725
664.65319	18977.325
668.61405	18752.625
672.57211	18667.325
676.52738	18736.325
680.47986	18759.225
684.42955	18715.625
688.37646	18649.025
692.32058	18683.225
696.26192	18806.625
700.20048	18953.125
704.13626	19053.225
708.06928	19030.425
711.99952	18932.025
715.927	18873.825
719.85171	18880.125
723.77365	18836.525
727.69284	18726.625
731.60928	18647.425
735.52295	18618.625
739.43388	18602.325
743.34206	18623.725
747.24749	18691.825
751.15017	18761.025
755.05012	18918.625
758.94733	19318.825
762.8418	19988.125
766.73354	21135.225
770.62254	22209.725
774.50882	22520.025
778.39237	21758.925
782.27321	20443.925
786.15132	19380.925
790.02671	18784.225
793.89938	18455.725
797.76935	18350.525
801.6366	18358.325
805.50115	18287.825
809.36299	18298.225
813.22213	18230.725
817.07857	18252.925
820.93231	18221.525
824.78336	18186.025
828.63172	18163.125
832.47738	18165.725
836.32036	18221.725
840.16066	18234.525
843.99827	18199.825
847.8332	18174.025
851.66546	18108.925
855.49504	18092.125
859.32195	18082.525
863.1462	18117.825
866.96777	18062.725
870.78668	18026.925
874.60293	18051.725
878.41652	18057.025
882.22745	18049.825
886.03573	18108.025
889.84136	18097.925
893.64433	18024.025
897.44466	17971.825
901.24235	17943.125
905.0374	17855.125
908.8298	17858.725
912.61957	17887.925
916.40671	17968.825
920.19121	18108.525
923.97308	18190.325
927.75233	18247.425
931.52895	18231.425
935.30295	18120.725
939.07433	17873.125
942.84309	17668.325
946.60924	17531.925
950.37278	17476.825
954.13371	17432.725
957.89203	17404.025
961.64774	17418.825
965.40086	17350.425
969.15137	17275.625
972.89929	17203.125
976.64461	17166.325
980.38733	17130.825
984.12747	17187.925
987.86502	17271.725
991.59999	17433.125
995.33237	17599.725
999.06217	17912.125
1002.78939	18211.125
1006.51404	18438.725
1010.23611	18604.925
1013.95561	18729.925
1017.67255	18722.325
1021.38692	18553.825
1025.09872	18386.725
1028.80796	18349.025
1032.51465	18510.025
1036.21877	18662.525
1039.92035	18738.725
1043.61937	18667.625
1047.31584	18549.825
1051.00976	18427.325
1054.70114	18395.125
1058.38998	18460.125
1062.07627	18668.725
1065.76003	18960.525
1069.44126	19263.325
1073.11995	19690.025
1076.79611	19983.225
1080.46974	19992.425
1084.14085	19759.925
1087.80943	19548.925
1091.47549	19400.025
1095.13903	19281.025
1098.80005	18980.125
1102.45857	18649.925
1106.11456	18463.025
1109.76805	18391.025
1113.41903	18512.925
1117.06751	18672.525
1120.71348	18809.325
1124.35696	19018.025
1127.99793	19190.925
1131.63641	19337.725
1135.2724	19164.325
1138.90589	19018.425
1142.5369	18892.025
1146.16542	18860.225
1149.79145	18877.125
1153.415	19020.625
1157.03607	19149.125
1160.65467	19493.325
1164.27079	19999.625
1167.88443	20797.325
1171.49561	21841.725
1175.10432	23232.825
1178.71056	24922.925
1182.31434	26265.325
1185.91565	26843.925
1189.51451	26548.225
1193.11091	25806.125
1196.70485	24884.225
1200.29634	24016.325
1203.88538	23367.325
1207.47197	22900.625
1211.05612	22573.625
1214.63782	22271.125
1218.21708	22054.825
1221.79391	21936.125
1225.36829	21785.525
1228.94024	21530.125
1232.50976	21270.525
1236.07685	21034.525
1239.6415	20991.825
1243.20374	21012.725
1246.76355	21134.125
1250.32093	21351.925
1253.8759	21657.525
1257.42845	22035.725
1260.97859	22422.525
1264.52631	22769.525
1268.07163	23160.025
1271.61453	23611.725
1275.15503	24082.225
1278.69312	24595.925
1282.22882	24985.825
1285.76211	25469.225
1289.29301	26187.425
1292.82151	27104.625
1296.34761	28189.525
1299.87133	29469.425
1303.39266	30898.225
1306.9116	32480.025
1310.42815	34144.225
1313.94233	35253.425
1317.45412	35470.225
1320.96354	34986.725
1324.47058	34345.625
1327.97525	33578.225
1331.47754	32943.225
1334.97747	32688.525
1338.47502	32727.725
1341.97022	32648.525
1345.46305	32289.925
1348.95352	31905.725
1352.44163	31782.325
1355.92738	32372.225
1359.41078	33607.825
1362.89183	34938.325
1366.37053	34633.825
1369.84688	32228.725
1373.32088	29332.325
1376.79254	27228.925
1380.26186	26322.425
1383.72883	26229.525
1387.19347	26206.925
1390.65578	26080.425
1394.11575	26158.725
1397.57339	26487.025
1401.0287	27103.125
1404.48168	27650.125
1407.93234	27880.425
1411.38068	27715.425
1414.82669	27026.025
1418.27039	25995.425
1421.71177	24973.425
1425.15083	24023.125
1428.58758	23482.925
1432.02203	23441.025
1435.45416	23708.025
1438.88399	24216.625
1442.31151	24586.525
1445.73673	24978.225
1449.15965	25354.025
1452.58027	25673.425
1455.9986	25780.525
1459.41463	25968.225
1462.82837	26302.925
1466.23982	26720.725
1469.64898	27071.225
1473.05586	27324.825
1476.46045	27335.925
1479.86276	27234.425
1483.26279	27012.225
1486.66054	26831.225
1490.05602	26813.025
1493.44922	26797.025
1496.84016	26755.925
1500.22882	26921.825
1503.61521	27402.025
1506.99934	28129.725
1510.38121	28915.425
1513.76081	29205.125
1517.13816	28760.825
1520.51324	27683.825
1523.88607	26716.925
1527.25665	26100.125
1530.62498	25877.125
1533.99105	25829.225
1537.35488	25830.325
1540.71647	25675.225
1544.07581	25473.225
1547.4329	25152.725
1550.78776	24812.225
1554.14038	24499.025
1557.49077	24416.825
1560.83892	24397.725
1564.18484	24475.125
1567.52853	24663.025
1570.86999	25001.125
1574.20922	25597.725
1577.54624	26255.325
1580.88103	26569.425
1584.2136	26610.225
1587.54395	26650.025
1590.87208	27108.425
1594.19801	28038.625
1597.52172	29198.025
1600.84321	29715.025
1604.16251	28910.425
1607.47959	27140.325
1610.79447	25086.425
1614.10715	23153.825
1617.41763	21677.025
1620.7259	20763.925
1624.03199	20295.425
1627.33587	20228.725
1630.63757	20625.025
1633.93707	21494.725
1637.23439	23007.125
1640.52951	25062.025
1643.82246	27468.025
1647.11321	29485.825
1650.40179	30059.325
1653.68819	28604.225
1656.97241	25702.625
1660.25446	22762.125
1663.53433	20520.725
1666.81203	19020.325
1670.08756	18068.025
1673.36092	17513.525
1676.63211	17078.625
1679.90115	16807.325
1683.16801	16592.525
1686.43272	16438.725
1689.69527	16322.725
1692.95567	16253.125
1696.2139	16229.425
1699.46999	16189.525
1702.72392	16139.425
1705.97571	16103.825
1709.22535	16077.725
1712.47284	16012.125
1715.71819	15981.025
1718.96139	15972.625
1722.20246	15925.525
1725.44139	15858.925
1728.67818	15801.125
1731.91284	15713.025
1735.14537	15652.425
1738.37576	15638.325
1741.60403	15589.825
1744.83017	15549.125
1748.05418	15533.825
1751.27607	15518.425
1754.49584	15477.825
1757.71349	15475.325
1760.92903	15479.025
1764.14244	15458.225
1767.35375	15429.825
1770.56294	15420.825
1773.77002	15409.725
1776.97499	15407.025
1780.17785	15379.225
1783.37861	15364.025
1786.57727	15311.425
1789.77382	15288.325
1792.96828	15277.325
1796.16064	15264.325
1799.3509	15225.325
1802.53907	15199.525
1805.72514	15156.925
1808.90913	15096.225
1812.09102	15094.025
1815.27083	15054.925
1818.44856	15042.425
1821.6242	15024.725
1824.79776	15015.825
1827.96924	15007.225
1831.13864	14993.725
1834.30597	14976.725
1837.47122	14981.925
1840.6344	14942.625
1843.7955	14995.325
1846.95454	14959.225
1850.11151	14914.525
1853.26642	14932.025
1856.41926	14925.525
1859.57004	14932.825
1862.71876	14923.525
1865.86542	14916.525
1869.01003	14930.425
1872.15258	14941.025
1875.29308	14892.225
1878.43152	14889.325
1881.56792	14870.225
1884.70227	14859.625
1887.83457	14853.825
1890.96482	14867.925
1894.09304	14835.625
1897.21921	14843.925
1900.34335	14831.925
1903.46544	14831.325
1906.58551	14811.025
1909.70353	14801.025
1912.81953	14776.025
1915.93349	14741.225
1919.04543	14729.625
1922.15534	14684.625
1925.26322	14696.825
1928.36908	14653.725
1931.47292	14666.725
1934.57473	14614.725
1937.67453	14606.725
1940.77232	14569.025
1943.86808	14489.225
1946.96184	14474.425
1950.05358	14453.125
1953.14331	14373.025
1956.23103	14344.225
1959.31675	14301.025
1962.40046	14265.725
1965.48217	14221.725
1968.56188	14183.325
1971.63959	14160.825
1974.7153	14093.125
1977.78901	14070.225
1980.86073	13993.125
1983.93046	13968.925
1986.99819	13918.825
1990.06394	13897.025
1993.1277	13875.225
1996.18947	13798.025
1999.24925	13774.525
2002.30706	13744.025
2005.36288	13711.925
2008.41672	13694.725
2011.46859	13644.825
2014.51848	13624.025
2017.56639	13595.625
2020.61233	13554.725
2023.6563	13529.325
2026.6983	13499.525
2029.73833	13476.325
2032.7764	13454.125
2035.8125	13428.625
2038.84664	13383.625
2041.87881	13393.525
2044.90903	13355.525
2047.93729	13327.325
2050.96359	13320.725
2053.98794	13316.625
2057.01034	13297.725
2060.03078	13287.025
2063.04927	13254.925
2066.06582	13249.025
2069.08042	13280.925
2072.09307	13233.525
2075.10378	13233.325
2078.11255	13215.825
2081.11938	13211.025
2084.12426	13231.025
2087.12722	13200.525
2090.12824	13210.725
2093.12732	13209.825
2096.12447	13207.425
2099.11969	13232.825
2102.11299	13212.625
2105.10435	13225.825
2108.09379	13220.425
2111.08131	13247.125
2114.0669	13252.225
2117.05057	13238.025
2120.03233	13261.025
2123.01216	13260.425
2125.99008	13277.825
2128.96609	13279.125
2131.94018	13292.025
2134.91236	13285.425
2137.88263	13316.325
2140.851	13315.425
2143.81746	13332.925
2146.78201	13315.625
2149.74466	13343.325
2152.7054	13338.025
2155.66425	13354.925
2158.6212	13359.425
2161.57625	13370.725
2164.52941	13320.625
2167.48067	13330.625
2170.43004	13310.725
2173.37752	13306.425
2176.32311	13304.625
2179.26681	13317.225
2182.20863	13315.725
2185.14856	13304.425
2188.08661	13287.225
2191.02278	13293.525
2193.95707	13301.625
2196.88948	13271.025
2199.82001	13307.325
2202.74867	13286.525
2205.67545	13252.425
2208.60037	13289.925
2211.52341	13261.225
2214.44458	13256.925
2217.36388	13183.425
2220.28132	13169.925
2223.1969	13148.425
2226.11061	13126.125
2229.02246	13085.125
2231.93245	13077.325
2234.84058	13063.625
2237.74686	13044.025
2240.65128	13065.925
2243.55385	13035.025
2246.45456	12992.625
2249.35343	12975.725
2252.25044	12980.325
2255.14561	12937.325
2258.03893	12933.725
2260.93041	12910.125
2263.82004	12881.525
2266.70783	12856.225
2269.59378	12805.325
2272.4779	12787.825
2275.36017	12753.525
2278.24061	12724.725
2281.11922	12695.225
2283.996	12685.225
2286.87094	12647.925
2289.74405	12630.525
2292.61534	12637.825
2295.4848	12646.325
2298.35243	12641.125
2301.21824	12610.425
2304.08223	12603.225
2306.94439	12614.725
2309.80474	12593.725
2312.66327	12631.025
2315.51999	12593.725
2318.37489	12591.025
2321.22797	12584.725
2324.07925	12569.325
2326.92871	12587.725
2329.77637	12550.725
2332.62222	12510.025
2335.46626	12506.225
2338.3085	12486.825
2341.14893	12498.225
2343.98756	12485.825
2346.8244	12451.525
2349.65943	12472.025
2352.49267	12436.525
2355.32411	12451.525
2358.15376	12432.425
2360.98161	12436.625
2363.80768	12452.525
2366.63195	12432.825
2369.45444	12395.825
2372.27514	12372.325
2375.09405	12420.925
2377.91118	12348.325
2380.72652	12341.225
2383.54009	12334.425
2386.35187	12301.925
2389.16188	12263.925
2391.97011	12236.725
2394.77657	12230.025
2397.58125	12178.325
2400.38416	12175.925
2403.18529	12174.325
2405.98466	12148.525
2408.78226	12138.125
2411.57809	12108.325
2414.37216	12097.525
2417.16446	12076.025
2419.955	12049.225
2422.74378	12056.325
2425.5308	12040.325
2428.31606	12013.925
2431.09956	12021.425
2433.88131	11998.525
2436.6613	12002.425
2439.43954	11987.225
2442.21603	11986.725
2444.99077	11978.925
2447.76377	11969.425
2450.53501	11955.325
2453.30451	11934.325
2456.07226	11918.825
2458.83827	11922.825
2461.60254	11913.025
2464.36507	11905.525
2467.12586	11894.825
2469.88492	11915.225
2472.64224	11889.525
2475.39782	11909.225
2478.15167	11912.925
2480.90379	11892.925
2483.65417	11919.425
2486.40283	11900.525
2489.14976	11936.925
2491.89497	11894.125
2494.63845	11934.825
2497.3802	11894.025
2500.12024	11911.525
2502.85855	11900.825
2505.59514	11897.925
2508.33002	11861.025
2511.06318	11858.725
2513.79462	11829.625
2516.52435	11840.125
2519.25237	11825.225
2521.97867	11821.025
2524.70327	11816.225
2527.42616	11778.925
2530.14734	11758.825
2532.86681	11735.525
2535.58458	11739.325
2538.30065	11734.125
2541.01501	11742.425
2543.72768	11728.025
2546.43864	11688.625
2549.14791	11702.525
2551.85548	11664.225
2554.56136	11637.425
2557.26554	11590.925
2559.96803	11602.125
2562.66883	11617.525
2565.36794	11586.525
2568.06536	11546.525
2570.7611	11580.725
2573.45514	11570.525
2576.14751	11575.425
2578.83819	11523.225
2581.52719	11527.725
2584.21451	11538.525
2586.90015	11514.225
2589.58411	11508.525
2592.2664	11500.925
2594.94701	11467.025
2597.62594	11462.725
2600.30321	11476.525
2602.9788	11444.725
2605.65273	11395.225
2608.32498	11392.425
2610.99557	11396.525
2613.66449	11411.825
2616.33175	11374.125
2618.99734	11370.425
2621.66128	11351.825
2624.32355	11368.625
2626.98416	11338.825
2629.64311	11352.125
2632.30041	11354.625
2634.95605	11338.325
2637.61004	11301.225
2640.26238	11316.225
2642.91306	11316.925
2645.56209	11321.625
2648.20948	11308.625
2650.85521	11313.825
2653.4993	11298.025
2656.14175	11293.825
2658.78255	11297.825
2661.42171	11277.625
2664.05923	11316.625
2666.6951	11309.425
2669.32934	11300.325
2671.96194	11290.225
2674.59291	11291.925
2677.22224	11294.425
2679.84993	11296.925
2682.476	11278.825
2685.10043	11281.725
2687.72324	11258.425
2690.34441	11288.525
2692.96396	11299.525
2695.58188	11292.225
2698.19818	11279.625
2700.81285	11289.625
2703.4259	11292.325
2706.03733	11347.525
2708.64714	11324.425
2711.25533	11343.525
2713.86191	11305.925
2716.46687	11310.025
2719.07021	11291.825
2721.67194	11307.525
2724.27206	11308.025
2726.87057	11295.425
2729.46747	11317.225
2732.06276	11310.525
2734.65644	11313.725
2737.24852	11302.725
2739.83899	11270.925
2742.42786	11285.425
2745.01513	11257.425
2747.60079	11258.225
2750.18486	11259.025
2752.76733	11251.225
2755.3482	11274.025
2757.92747	11253.925
2760.50515	11247.925
2763.08123	11237.225
2765.65573	11218.825
2768.22863	11235.525
2770.79994	11215.225
2773.36967	11191.525
2775.9378	11201.125
2778.50435	11171.725
2781.06932	11181.825
2783.6327	11170.025
2786.1945	11148.025
2788.75471	11171.325
2791.31335	11125.725
2793.87041	11123.925
2796.42589	11089.325
2798.97979	11103.825
2801.53212	11078.925
2804.08288	11047.725
2806.63206	11022.325
2809.17967	10990.125
2811.72571	10987.125
2814.27018	10965.625
2816.81308	10942.725
2819.35442	10934.125
2821.89419	10939.925
2824.43239	10901.025
2826.96904	10920.725
2829.50412	10900.925
2832.03763	10887.825
2834.56959	10868.625
2837.1	10904.625
2839.62884	10894.225
2842.15613	10851.525
2844.68186	10901.625
2847.20604	10888.025
2849.72867	10884.725
2852.24974	10861.825
2854.76927	10866.725
2857.28724	10834.025
2859.80367	10834.625
2862.31855	10795.325
2864.83189	10799.625
2867.34368	10794.925
2869.85393	10779.725
2872.36264	10773.325
2874.8698	10784.025
2877.37543	10793.525
2879.87952	10798.125
2882.38207	10812.125
2884.88308	10787.925
2887.38256	10790.025
2889.88051	10807.425
2892.37692	10814.325
2894.8718	10788.025
2897.36515	10816.325
2899.85698	10805.125
2902.34727	10828.425
2904.83604	10823.225
2907.32328	10858.725
2909.809	10841.925
2912.29319	10842.825
2914.77587	10847.825
2917.25702	10823.425
2919.73665	10826.825
2922.21476	10841.925
2924.69136	10844.925
2927.16644	10832.925
2929.64	10809.825
2932.11205	10808.925
2934.58258	10768.525
2937.05161	10800.625
2939.51912	10794.325
2941.98513	10814.825
2944.44962	10775.725
2946.91261	10744.925
2949.37409	10747.025
2951.83407	10724.025
2954.29254	10704.625
2956.74951	10674.225
2959.20498	10677.725
2961.65895	10650.925
2964.11142	10663.825
2966.56239	10628.525
2969.01186	10623.425
2971.45984	10582.625
2973.90632	10587.025
2976.35131	10535.025
2978.7948	10527.325
2981.23681	10466.925
2983.67732	10492.525
2986.11635	10477.325
2988.55388	10442.225
2990.98993	10405.925
2993.4245	10400.825
2995.85758	10390.925
2998.28917	10373.625
3000.71928	10345.725
3003.14791	10349.125
3005.57506	10340.125
3008.00073	10313.125
3010.42493	10293.125
3012.84764	10281.025
3015.26888	10251.125
3017.68865	10231.925
3020.10694	10238.625
3022.52376	10209.425
3024.9391	10165.225
3027.35298	10163.525
3029.76539	10169.925
3032.17632	10156.425
3034.5858	10133.225
3036.9938	10161.025
3039.40034	10153.925
3041.80542	10118.725
3044.20903	10140.925
3046.61118	10119.825
3049.01187	10071.925
3051.4111	10064.125
3053.80888	10049.725
3056.20519	10040.125
3058.60005	10005.025
3060.99345	9989.725
3063.3854	9974.025
3065.7759	9940.825
3068.16494	9943.525
3070.55254	9903.125
3072.93868	9880.725
3075.32338	9851.125
3077.70662	9854.925
3080.08842	9813.625
3082.46878	9821.125
3084.84769	9825.025
3087.22515	9800.125
3089.60118	9832.925
3091.97576	9850.125
3094.3489	9832.625
3096.72061	9819.125
3099.09087	9819.225
3101.4597	9810.425
3103.82709	9808.125
3106.19305	9763.225
3108.55757	9779.425
3110.92066	9763.725
3113.28232	9730.825
3115.64255	9708.925
3118.00134	9695.225
3120.35871	9668.225
3122.71466	9659.925
3125.06917	9661.625
3127.42226	9642.925
3129.77393	9647.125
3132.12417	9639.625
