Data from AgNP_FTO_APTES_CRN_1uM_R6G_10uM_NaF_0.1M_Addition_RamanShift__9__13-56-00-789.txt Node

Date: Wed Dec 15 13:56:00 GMT 2021
User: TCL
Spectrometer: QEP01345
Trigger mode: 4
Integration Time (sec): 7.000000E0
Scans to average: 10
Electric dark correction enabled: true
Nonlinearity correction enabled: false
Boxcar width: 0
XAxis mode: Raman Shifts
Number of Pixels in Spectrum: 1044
>>>>>Begin Spectral Data<<<<<
46.04893	-0.95
50.45542	-1.35
54.85868	-0.95
59.25871	-0.45
63.6555	167.45
68.04907	182.75
72.43941	192.55
76.82654	199.65
81.21044	212.85
85.59113	219.65
89.96862	225.55
94.34289	225.25
98.71396	242.55
103.08183	246.15
107.4465	255.85
111.80798	257.35
116.16626	265.75
120.52136	274.75
124.87327	285.75
129.222	292.55
133.56755	311.15
137.90993	335.15
142.24913	362.25
146.58517	403.15
150.91804	465.75
155.24774	559.05
159.57429	681.75
163.89768	870.25
168.21792	1135.35
172.53501	1542.35
176.84895	2133.95
181.15975	2988.75
185.46741	4182.75
189.77193	5717.85
194.07331	7650.35
198.37157	9813.55
202.6667	12087.95
206.9587	14372.85
211.24758	16572.95
215.53334	18779.65
219.81599	21116.45
224.09553	23701.95
228.37195	26518.45
232.64527	29682.25
236.91549	32978.95
241.18261	36329.65
245.44663	39476.05
249.70755	42303.55
253.96539	44790.65
258.22014	46932.55
262.4718	48529.65
266.72039	49575.25
270.96589	50209.35
275.20832	50213.65
279.44768	49874.45
283.68397	49431.55
287.91719	49021.15
292.14735	48709.55
296.37445	48625.95
300.59849	48660.65
304.81948	48722.15
309.03742	48810.45
313.25231	48729.45
317.46415	48339.45
321.67296	47664.85
325.87872	47050.85
330.08145	46802.35
334.28114	46732.85
338.47781	47046.35
342.67145	47523.95
346.86207	48155.95
351.04966	48921.85
355.23424	49735.95
359.4158	50520.75
363.59435	51160.55
367.76989	51634.45
371.94243	51885.55
376.11196	52033.75
380.27849	52098.05
384.44203	52276.55
388.60257	52690.45
392.76012	53335.15
396.91468	54135.35
401.06626	55058.55
405.21485	55639.85
409.36047	55780.35
413.50311	55649.75
417.64277	55925.25
421.77947	56508.35
425.9132	57055.95
430.04396	57313.45
434.17176	57313.45
438.2966	57351.35
442.41849	57830.05
446.53742	59091.35
450.6534	60546.35
454.76644	61687.15
458.87653	62004.75
462.98368	61519.35
467.08789	60652.85
471.18916	59545.45
475.2875	58191.95
479.38291	57364.35
483.4754	56787.05
487.56496	56250.25
491.6516	55792.45
495.73531	55454.15
499.81612	55431.05
503.89401	56093.65
507.96899	56666.15
512.04106	56842.85
516.11023	56480.95
520.1765	55716.25
524.23987	54854.75
528.30034	54180.75
532.35792	53520.75
536.41261	52867.65
540.46441	52336.35
544.51333	52391.85
548.55936	52947.05
552.60252	53870.65
556.64279	54934.85
560.6802	55892.45
564.71473	56633.05
568.7464	57689.25
572.7752	59635.85
576.80114	62320.95
580.82422	65676.75
584.84444	69893.45
588.86181	74852.65
592.87633	77996.15
596.888	76169.55
600.89682	70877.65
604.9028	68260.75
608.90594	69818.35
612.90624	71108.35
616.90371	66478.85
620.89834	58726.35
624.89015	55404.75
628.87913	55308.25
632.86528	55712.15
636.84862	55372.95
640.82913	54129.45
644.80683	52854.15
648.78172	52358.35
652.75379	52673.85
656.72306	53319.55
660.68952	53762.55
664.65319	53225.75
668.61405	52405.55
672.57211	52417.35
676.52738	52676.95
680.47986	52684.55
684.42955	52233.55
688.37646	52010.85
692.32058	52449.15
696.26192	53470.35
700.20048	54346.45
704.13626	54872.85
708.06928	55040.85
711.99952	54989.15
715.927	55116.05
719.85171	55403.55
723.77365	55024.75
727.69284	54085.65
731.60928	53019.85
735.52295	52500.75
739.43388	52362.65
743.34206	52458.15
747.24749	52933.15
751.15017	53583.85
755.05012	54612.35
758.94733	56150.45
762.8418	58349.55
766.73354	61292.75
770.62254	63492.75
774.50882	63046.35
778.39237	60208.45
782.27321	57113.35
786.15132	54721.15
790.02671	53286.85
793.89938	52594.35
797.76935	52244.85
801.6366	52284.35
805.50115	52295.65
809.36299	52076.45
813.22213	51638.35
817.07857	51170.35
820.93231	50881.85
824.78336	50599.25
828.63172	50399.45
832.47738	50209.35
836.32036	50225.95
840.16066	50232.55
843.99827	50321.35
847.8332	50365.75
851.66546	50445.45
855.49504	50572.05
859.32195	50574.15
863.1462	50462.95
866.96777	50330.05
870.78668	50309.55
874.60293	50383.95
878.41652	50452.65
882.22745	50581.85
886.03573	50739.95
889.84136	50715.35
893.64433	50560.45
897.44466	50307.75
901.24235	50230.05
905.0374	50232.25
908.8298	50215.45
912.61957	50353.75
916.40671	50927.05
920.19121	51723.35
923.97308	52463.55
927.75233	52478.35
931.52895	51760.85
935.30295	50713.75
939.07433	49765.15
942.84309	49136.35
946.60924	48893.35
950.37278	48931.95
954.13371	49059.65
957.89203	49018.85
961.64774	49075.95
965.40086	49039.95
969.15137	49051.85
972.89929	48813.95
976.64461	48692.25
980.38733	48650.35
984.12747	48698.35
987.86502	48825.95
991.59999	49173.75
995.33237	49640.55
999.06217	50466.55
1002.78939	51634.05
1006.51404	52997.35
1010.23611	54228.15
1013.95561	54935.95
1017.67255	54869.35
1021.38692	54035.65
1025.09872	52941.85
1028.80796	52157.65
1032.51465	52120.85
1036.21877	52382.75
1039.92035	52675.75
1043.61937	52776.65
1047.31584	52705.55
1051.00976	52609.75
1054.70114	52792.15
1058.38998	53285.95
1062.07627	54040.25
1065.76003	55035.95
1069.44126	56283.75
1073.11995	57819.65
1076.79611	58983.85
1080.46974	59262.55
1084.14085	59246.05
1087.80943	59424.25
1091.47549	59579.85
1095.13903	59622.85
1098.80005	58676.85
1102.45857	57074.35
1106.11456	55775.35
1109.76805	55075.75
1113.41903	54909.45
1117.06751	55006.15
1120.71348	55176.45
1124.35696	55515.15
1127.99793	55931.55
1131.63641	56485.55
1135.2724	56730.45
1138.90589	56948.85
1142.5369	57433.65
1146.16542	58007.85
1149.79145	58733.85
1153.415	59314.15
1157.03607	60433.35
1160.65467	62719.15
1164.27079	66153.85
1167.88443	69871.65
1171.49561	73096.45
1175.10432	76129.35
1178.71056	80244.25
1182.31434	84430.45
1185.91565	86470.25
1189.51451	85972.85
1193.11091	84218.65
1196.70485	82031.95
1200.29634	79764.65
1203.88538	78635.35
1207.47197	78757.55
1211.05612	79016.35
1214.63782	78281.75
1218.21708	76192.75
1221.79391	73318.15
1225.36829	71083.45
1228.94024	69782.95
1232.50976	68782.45
1236.07685	67906.55
1239.6415	67304.85
1243.20374	67212.25
1246.76355	67728.05
1250.32093	68921.35
1253.8759	70514.45
1257.42845	72578.65
1260.97859	74797.95
1264.52631	77164.25
1268.07163	79642.15
1271.61453	82103.65
1275.15503	84687.55
1278.69312	87265.65
1282.22882	90108.35
1285.76211	93466.65
1289.29301	97316.35
1292.82151	101592.45
1296.34761	106888.25
1299.87133	113354.85
1303.39266	119719.45
1306.9116	124607.35
1310.42815	127364.65
1313.94233	127942.25
1317.45412	126754.85
1320.96354	125027.15
1324.47058	124485.35
1327.97525	124931.55
1331.47754	125647.55
1334.97747	125701.75
1338.47502	124643.75
1341.97022	122366.55
1345.46305	119228.25
1348.95352	116423.65
1352.44163	114864.45
1355.92738	116044.95
1359.41078	119547.35
1362.89183	122459.65
1366.37053	121488.45
1369.84688	114586.55
1373.32088	103723.25
1376.79254	95125.85
1380.26186	91950.95
1383.72883	92637.05
1387.19347	93264.55
1390.65578	92476.55
1394.11575	91974.25
1397.57339	93152.95
1401.0287	95701.75
1404.48168	97942.15
1407.93234	98609.75
1411.38068	96882.35
1414.82669	93442.45
1418.27039	89197.25
1421.71177	85047.25
1425.15083	81995.95
1428.58758	80815.95
1432.02203	82169.55
1435.45416	85238.15
1438.88399	88697.85
1442.31151	91023.75
1445.73673	91791.95
1449.15965	91569.55
1452.58027	90703.35
1455.9986	89831.05
1459.41463	90054.35
1462.82837	91385.95
1466.23982	93341.05
1469.64898	95018.75
1473.05586	96147.05
1476.46045	96209.65
1479.86276	95637.35
1483.26279	94390.95
1486.66054	93532.45
1490.05602	93637.05
1493.44922	94014.65
1496.84016	94139.35
1500.22882	94478.05
1503.61521	94939.95
1506.99934	95517.45
1510.38121	95788.85
1513.76081	95667.35
1517.13816	95128.25
1520.51324	94831.75
1523.88607	95318.55
1527.25665	96712.85
1530.62498	97875.85
1533.99105	97905.75
1537.35488	96397.05
1540.71647	93761.05
1544.07581	90738.85
1547.4329	87813.45
1550.78776	85261.95
1554.14038	83454.05
1557.49077	82312.95
1560.83892	81573.45
1564.18484	80850.95
1567.52853	80583.95
1570.86999	81294.25
1574.20922	83273.75
1577.54624	85824.25
1580.88103	87890.55
1584.2136	90801.15
1587.54395	95241.55
1590.87208	101309.45
1594.19801	107862.75
1597.52172	113177.95
1600.84321	113124.85
1604.16251	106303.85
1607.47959	96296.85
1610.79447	86674.85
1614.10715	78520.65
1617.41763	72326.55
1620.7259	68245.65
1624.03199	66351.45
1627.33587	66612.45
1630.63757	69104.25
1633.93707	74415.15
1637.23439	83383.85
1640.52951	96398.85
1643.82246	111092.25
1647.11321	121450.35
1650.40179	120572.45
1653.68819	108457.95
1656.97241	91824.55
1660.25446	77119.15
1663.53433	66909.05
1666.81203	60624.65
1670.08756	56620.85
1673.36092	54201.05
1676.63211	52546.55
1679.90115	51353.75
1683.16801	50436.15
1686.43272	49812.15
1689.69527	49329.25
1692.95567	48933.55
1696.2139	48768.45
1699.46999	48514.45
1702.72392	48293.55
1705.97571	48217.15
1709.22535	48057.55
1712.47284	47978.45
1715.71819	47914.05
1718.96139	47753.35
1722.20246	47536.95
1725.44139	47360.15
1728.67818	47116.55
1731.91284	46780.95
1735.14537	46506.15
1738.37576	46264.05
1741.60403	46057.15
1744.83017	45960.65
1748.05418	45744.15
1751.27607	45734.65
1754.49584	45580.15
1757.71349	45510.85
1760.92903	45469.25
1764.14244	45497.05
1767.35375	45450.35
1770.56294	45383.85
1773.77002	45213.95
1776.97499	45228.25
1780.17785	45118.85
1783.37861	45118.85
1786.57727	45037.35
1789.77382	44896.85
1792.96828	44760.05
1796.16064	44700.25
1799.3509	44685.15
1802.53907	44576.25
1805.72514	44454.35
1808.90913	44330.85
1812.09102	44286.25
1815.27083	44200.35
1818.44856	44133.75
1821.6242	44114.25
1824.79776	44107.65
1827.96924	44083.05
1831.13864	44028.95
1834.30597	44093.95
1837.47122	44131.65
1840.6344	44155.95
1843.7955	44098.05
1846.95454	44035.95
1850.11151	44020.85
1853.26642	44012.55
1856.41926	43946.85
1859.57004	43923.55
1862.71876	43836.95
1865.86542	43841.45
1869.01003	43838.55
1872.15258	43789.15
1875.29308	43733.25
1878.43152	43597.45
1881.56792	43560.05
1884.70227	43506.85
1887.83457	43540.15
1890.96482	43523.35
1894.09304	43370.35
1897.21921	43321.05
1900.34335	43244.55
1903.46544	43168.15
1906.58551	43185.85
1909.70353	43106.75
1912.81953	43037.15
1915.93349	42989.75
1919.04543	42880.85
1922.15534	42819.75
1925.26322	42651.75
1928.36908	42597.75
1931.47292	42511.75
1934.57473	42405.65
1937.67453	42304.45
1940.77232	42145.35
1943.86808	42056.85
1946.96184	41953.05
1950.05358	41814.15
1953.14331	41686.35
1956.23103	41654.65
1959.31675	41557.25
1962.40046	41446.35
1965.48217	41247.75
1968.56188	41209.45
1971.63959	41057.65
1974.7153	40874.95
1977.78901	40751.15
1980.86073	40659.95
1983.93046	40576.85
1986.99819	40334.05
1990.06394	40311.25
1993.1277	40291.15
1996.18947	40164.95
1999.24925	40018.25
2002.30706	39857.15
2005.36288	39804.25
2008.41672	39658.15
2011.46859	39502.35
2014.51848	39441.45
2017.56639	39357.25
2020.61233	39253.15
2023.6563	39187.05
2026.6983	39102.15
2029.73833	39041.55
2032.7764	39003.65
2035.8125	38928.25
2038.84664	38876.35
2041.87881	38752.65
2044.90903	38730.85
2047.93729	38655.55
2050.96359	38549.75
2053.98794	38553.15
2057.01034	38511.45
2060.03078	38470.05
2063.04927	38405.75
2066.06582	38448.25
2069.08042	38391.35
2072.09307	38310.45
2075.10378	38314.25
2078.11255	38247.95
2081.11938	38292.85
2084.12426	38242.45
2087.12722	38179.65
2090.12824	38188.05
2093.12732	38204.55
2096.12447	38189.05
2099.11969	38227.95
2102.11299	38243.95
2105.10435	38309.55
2108.09379	38223.25
2111.08131	38281.35
2114.0669	38332.45
2117.05057	38331.05
2120.03233	38332.65
2123.01216	38378.45
2125.99008	38402.85
2128.96609	38370.95
2131.94018	38423.05
2134.91236	38460.95
2137.88263	38437.65
2140.851	38416.15
2143.81746	38461.75
2146.78201	38453.55
2149.74466	38460.35
2152.7054	38461.15
2155.66425	38487.05
2158.6212	38549.75
2161.57625	38502.95
2164.52941	38457.25
2167.48067	38470.95
2170.43004	38368.15
2173.37752	38387.15
2176.32311	38420.55
2179.26681	38383.95
2182.20863	38406.75
2185.14856	38387.45
2188.08661	38435.45
2191.02278	38400.75
2193.95707	38346.35
2196.88948	38348.35
2199.82001	38306.25
2202.74867	38199.45
2205.67545	38173.05
2208.60037	38122.25
2211.52341	38089.35
2214.44458	38096.25
2217.36388	37927.75
2220.28132	37976.05
2223.1969	37864.45
2226.11061	37817.25
2229.02246	37793.05
2231.93245	37769.45
2234.84058	37670.25
2237.74686	37636.55
2240.65128	37604.35
2243.55385	37524.55
2246.45456	37474.55
2249.35343	37401.65
2252.25044	37294.55
2255.14561	37237.55
2258.03893	37208.45
2260.93041	37127.55
2263.82004	36987.05
2266.70783	36941.05
2269.59378	36834.45
2272.4779	36729.45
2275.36017	36628.55
2278.24061	36610.05
2281.11922	36550.95
2283.996	36467.25
2286.87094	36404.85
2289.74405	36301.25
2292.61534	36344.55
2295.4848	36315.55
2298.35243	36344.45
2301.21824	36304.45
2304.08223	36294.25
2306.94439	36237.55
2309.80474	36217.05
2312.66327	36236.95
2315.51999	36175.85
2318.37489	36210.25
2321.22797	36153.55
2324.07925	36141.15
2326.92871	36147.25
2329.77637	36052.95
2332.62222	36027.05
2335.46626	35959.55
2338.3085	35993.05
2341.14893	35989.55
2343.98756	35969.45
2346.8244	35904.75
2349.65943	35902.85
2352.49267	35857.45
2355.32411	35843.75
2358.15376	35833.05
2360.98161	35789.25
2363.80768	35778.05
2366.63195	35759.05
2369.45444	35717.45
2372.27514	35721.95
2375.09405	35669.75
2377.91118	35580.15
2380.72652	35447.95
2383.54009	35409.75
2386.35187	35325.85
2389.16188	35269.35
2391.97011	35246.35
2394.77657	35198.55
2397.58125	35166.85
2400.38416	35149.35
2403.18529	35084.15
2405.98466	35078.25
2408.78226	35010.45
2411.57809	34952.15
2414.37216	34944.75
2417.16446	34935.45
2419.955	34909.25
2422.74378	34830.75
2425.5308	34826.25
2428.31606	34813.25
2431.09956	34768.85
2433.88131	34704.45
2436.6613	34750.75
2439.43954	34720.75
2442.21603	34640.25
2444.99077	34649.15
2447.76377	34670.95
2450.53501	34652.65
2453.30451	34691.85
2456.07226	34626.95
2458.83827	34635.65
2461.60254	34604.35
2464.36507	34639.65
2467.12586	34612.95
2469.88492	34595.65
2472.64224	34589.45
2475.39782	34573.55
2478.15167	34597.45
2480.90379	34629.75
2483.65417	34573.55
2486.40283	34532.85
2489.14976	34569.85
2491.89497	34519.65
2494.63845	34562.85
2497.3802	34527.05
2500.12024	34491.95
2502.85855	34492.75
2505.59514	34510.75
2508.33002	34489.05
2511.06318	34448.35
2513.79462	34414.45
2516.52435	34447.05
2519.25237	34459.65
2521.97867	34444.95
2524.70327	34441.55
2527.42616	34336.95
2530.14734	34372.05
2532.86681	34336.35
2535.58458	34319.55
2538.30065	34236.85
2541.01501	34264.65
2543.72768	34222.35
2546.43864	34195.05
2549.14791	34121.25
2551.85548	34188.15
2554.56136	34151.25
2557.26554	34061.55
2559.96803	34101.55
2562.66883	34072.65
2565.36794	34033.35
2568.06536	34007.75
2570.7611	33992.05
2573.45514	33990.25
2576.14751	33909.55
2578.83819	33870.75
2581.52719	33876.85
2584.21451	33836.85
2586.90015	33813.35
2589.58411	33762.65
2592.2664	33790.95
2594.94701	33647.45
2597.62594	33696.55
2600.30321	33710.45
2602.9788	33688.65
2605.65273	33674.15
2608.32498	33647.05
2610.99557	33690.45
2613.66449	33641.25
2616.33175	33667.75
2618.99734	33628.05
2621.66128	33594.55
2624.32355	33573.75
2626.98416	33590.65
2629.64311	33513.05
2632.30041	33503.95
2634.95605	33456.55
2637.61004	33375.45
2640.26238	33384.45
2642.91306	33415.15
2645.56209	33419.35
2648.20948	33397.75
2650.85521	33430.45
2653.4993	33464.05
2656.14175	33419.25
2658.78255	33464.75
2661.42171	33455.55
2664.05923	33447.75
2666.6951	33434.25
2669.32934	33516.35
2671.96194	33541.65
2674.59291	33609.45
2677.22224	33537.35
2679.84993	33572.75
2682.476	33527.15
2685.10043	33535.85
2687.72324	33518.85
2690.34441	33549.35
2692.96396	33499.15
2695.58188	33524.55
2698.19818	33475.55
2700.81285	33537.95
2703.4259	33533.85
2706.03733	33594.95
2708.64714	33577.65
2711.25533	33622.05
2713.86191	33580.15
2716.46687	33687.35
2719.07021	33617.95
2721.67194	33679.85
2724.27206	33658.95
2726.87057	33661.65
2729.46747	33696.75
2732.06276	33718.85
2734.65644	33702.45
2737.24852	33682.15
2739.83899	33724.75
2742.42786	33778.85
2745.01513	33789.05
2747.60079	33777.55
2750.18486	33706.05
2752.76733	33756.25
2755.3482	33698.95
2757.92747	33645.45
2760.50515	33595.85
2763.08123	33611.85
2765.65573	33556.25
2768.22863	33571.05
2770.79994	33565.25
2773.36967	33576.75
2775.9378	33559.75
2778.50435	33522.75
2781.06932	33496.85
2783.6327	33444.25
2786.1945	33519.85
2788.75471	33412.05
2791.31335	33395.65
2793.87041	33354.95
2796.42589	33192.75
2798.97979	33150.75
2801.53212	33143.25
2804.08288	33138.05
2806.63206	33038.05
2809.17967	32982.75
2811.72571	32945.75
2814.27018	32932.95
2816.81308	32833.25
2819.35442	32808.95
2821.89419	32700.45
2824.43239	32639.75
2826.96904	32578.65
2829.50412	32555.75
2832.03763	32432.15
2834.56959	32443.95
2837.1	32380.25
2839.62884	32387.05
2842.15613	32339.95
2844.68186	32319.25
2847.20604	32335.85
2849.72867	32287.45
2852.24974	32226.45
2854.76927	32182.45
2857.28724	32193.05
2859.80367	32169.35
2862.31855	32123.85
2864.83189	32070.25
2867.34368	31986.15
2869.85393	32024.45
2872.36264	32018.25
2874.8698	31964.55
2877.37543	31942.45
2879.87952	31947.05
2882.38207	31933.85
2884.88308	31923.95
2887.38256	31969.05
2889.88051	31916.45
2892.37692	31960.35
2894.8718	31942.05
2897.36515	32025.85
2899.85698	32036.65
2902.34727	32083.25
2904.83604	32016.55
2907.32328	32092.65
2909.809	32052.05
2912.29319	32129.15
2914.77587	32052.65
2917.25702	32036.45
2919.73665	32013.95
2922.21476	32080.85
2924.69136	32044.25
2927.16644	32034.55
2929.64	31959.75
2932.11205	31966.25
2934.58258	31903.45
2937.05161	31953.45
2939.51912	31874.35
2941.98513	31843.55
2944.44962	31813.85
2946.91261	31708.65
2949.37409	31799.15
2951.83407	31718.45
2954.29254	31738.75
2956.74951	31685.05
2959.20498	31692.85
2961.65895	31632.95
2964.11142	31627.65
2966.56239	31538.65
2969.01186	31521.45
2971.45984	31421.65
2973.90632	31418.95
2976.35131	31276.75
2978.7948	31203.05
2981.23681	31161.35
2983.67732	31080.45
2986.11635	30981.65
2988.55388	30916.65
2990.98993	30841.55
2993.4245	30757.25
2995.85758	30701.15
2998.28917	30607.15
3000.71928	30578.95
3003.14791	30524.35
3005.57506	30494.95
3008.00073	30357.45
3010.42493	30371.75
3012.84764	30263.55
3015.26888	30266.35
3017.68865	30200.95
3020.10694	30120.65
3022.52376	30064.95
3024.9391	30011.45
3027.35298	29943.25
3029.76539	29973.75
3032.17632	29905.35
3034.5858	29820.15
3036.9938	29798.65
3039.40034	29761.25
3041.80542	29714.35
3044.20903	29676.95
3046.61118	29628.25
3049.01187	29574.15
3051.4111	29552.25
3053.80888	29467.45
3056.20519	29383.65
3058.60005	29311.25
3060.99345	29307.25
3063.3854	29214.15
3065.7759	29091.65
3068.16494	29075.65
3070.55254	28884.35
3072.93868	28851.15
3075.32338	28757.95
3077.70662	28690.05
3080.08842	28592.15
3082.46878	28581.75
3084.84769	28443.95
3087.22515	28476.55
3089.60118	28451.95
3091.97576	28431.15
3094.3489	28417.15
3096.72061	28425.05
3099.09087	28354.05
3101.4597	28318.25
3103.82709	28304.35
3106.19305	28181.45
3108.55757	28205.55
3110.92066	28110.75
3113.28232	28008.15
3115.64255	27908.35
3118.00134	27861.95
3120.35871	27791.65
3122.71466	27738.75
3125.06917	27674.25
3127.42226	27643.75
3129.77393	27642.05
3132.12417	27569.85
3134.47299	27547.75
3136.82039	27507.25
3139.16636	27521.65
3141.51092	27488.95
3143.85406	27540.55
3146.19579	27453.25
3148.53609	27411.15
3150.87499	27430.05
3153.21246	27370.15
3155.54853	27389.35
3157.88318	27288.55
3160.21642	27316.35
3162.54826	27285.55
3164.87868	27250.85
3167.2077	27184.35
3169.5353	27205.85
3171.86151	27211.25
3174.18631	27122.45
3176.5097	27138.85
3178.83169	27035.15
3181.15228	27046.35
3183.47147	26989.55
3185.78926	27001.05
3188.10565	26943.55
3190.42065	26919.75
3192.73424	26886.85
3195.04645	26890.95
3197.35725	26853.55
3199.66667	26804.85
3201.97469	26777.35
3204.28132	26727.95
3206.58656	26741.75
3208.8904	26698.95
3211.19287	26670.65
3213.49394	26602.05
3215.79363	26601.25
3218.09193	26614.35
3220.38884	26578.45
3222.68438	26594.55
3224.97853	26520.35
3227.2713	26529.85
3229.56269	26481.55
3231.8527	26542.05
3234.14133	26434.65
