Data from AgNP_FTO_APTES_CRN_500uM_R6G_10uM_NaF_0.1M_Addition_RamanShift__19__20-25-48-235.txt Node

Date: Wed Dec 15 20:25:48 GMT 2021
User: TCL
Spectrometer: QEP01345
Trigger mode: 4
Integration Time (sec): 7.000000E0
Scans to average: 10
Electric dark correction enabled: true
Nonlinearity correction enabled: false
Boxcar width: 0
XAxis mode: Raman Shifts
Number of Pixels in Spectrum: 1044
>>>>>Begin Spectral Data<<<<<
46.04893	0.6125
50.45542	-2.2875
54.85868	-0.9875
59.25871	-0.9875
63.6555	59.6125
68.04907	65.1125
72.43941	64.3125
76.82654	72.6125
81.21044	71.1125
85.59113	77.2125
89.96862	80.0125
94.34289	80.6125
98.71396	83.5125
103.08183	91.7125
107.4465	91.1125
111.80798	92.7125
116.16626	96.5125
120.52136	99.6125
124.87327	98.7125
129.222	105.3125
133.56755	106.5125
137.90993	118.3125
142.24913	126.9125
146.58517	140.1125
150.91804	163.8125
155.24774	189.3125
159.57429	233.1125
163.89768	292.3125
168.21792	383.0125
172.53501	518.3125
176.84895	720.1125
181.15975	1005.3125
185.46741	1404.5125
189.77193	1951.9125
194.07331	2600.9125
198.37157	3357.6125
202.6667	4146.8125
206.9587	4942.2125
211.24758	5720.0125
215.53334	6467.5125
219.81599	7287.3125
224.09553	8155.5125
228.37195	9135.9125
232.64527	10191.1125
236.91549	11316.1125
241.18261	12425.8125
245.44663	13497.3125
249.70755	14465.1125
253.96539	15336.0125
258.22014	16061.0125
262.4718	16628.8125
266.72039	17007.4125
270.96589	17248.4125
275.20832	17257.1125
279.44768	17174.3125
283.68397	16989.5125
287.91719	16826.2125
292.14735	16686.2125
296.37445	16650.6125
300.59849	16629.5125
304.81948	16621.3125
309.03742	16574.1125
313.25231	16437.5125
317.46415	16203.5125
321.67296	15898.8125
325.87872	15681.7125
330.08145	15648.5125
334.28114	15671.4125
338.47781	15813.1125
342.67145	15973.9125
346.86207	16142.4125
351.04966	16421.7125
355.23424	16703.0125
359.4158	16961.4125
363.59435	17147.6125
367.76989	17269.3125
371.94243	17390.1125
376.11196	17482.6125
380.27849	17595.6125
384.44203	17712.1125
388.60257	17850.5125
392.76012	17976.4125
396.91468	18140.3125
401.06626	18345.1125
405.21485	18495.1125
409.36047	18502.7125
413.50311	18343.0125
417.64277	18204.3125
421.77947	18173.9125
425.9132	18217.4125
430.04396	18381.5125
434.17176	18561.3125
438.2966	18797.8125
442.41849	19178.9125
446.53742	19679.6125
450.6534	20209.7125
454.76644	20599.6125
458.87653	20666.9125
462.98368	20555.7125
467.08789	20319.6125
471.18916	20118.9125
475.2875	20060.4125
479.38291	19971.3125
483.4754	19870.4125
487.56496	19645.8125
491.6516	19365.4125
495.73531	19144.8125
499.81612	19045.2125
503.89401	19113.6125
507.96899	19172.1125
512.04106	19234.5125
516.11023	19261.5125
520.1765	19279.2125
524.23987	19232.1125
528.30034	19205.3125
532.35792	19118.3125
536.41261	19004.0125
540.46441	18826.3125
544.51333	18811.5125
548.55936	18955.6125
552.60252	19269.8125
556.64279	19652.4125
560.6802	19929.7125
564.71473	20103.9125
568.7464	20271.4125
572.7752	20544.4125
576.80114	20702.4125
580.82422	20795.2125
584.84444	21017.4125
588.86181	21459.7125
592.87633	22063.8125
596.888	22373.1125
600.89682	22123.0125
604.9028	22153.5125
608.90594	23032.6125
612.90624	24094.1125
616.90371	23074.8125
620.89834	20435.9125
624.89015	19289.8125
628.87913	19122.2125
632.86528	19213.4125
636.84862	19309.4125
640.82913	19150.9125
644.80683	18881.5125
648.78172	18626.9125
652.75379	18603.1125
656.72306	18750.9125
660.68952	18930.8125
664.65319	18893.5125
668.61405	18701.4125
672.57211	18664.8125
676.52738	18753.8125
680.47986	18810.1125
684.42955	18756.0125
688.37646	18665.2125
692.32058	18669.6125
696.26192	18748.2125
700.20048	18886.0125
704.13626	18996.4125
708.06928	18969.0125
711.99952	18874.9125
715.927	18870.0125
719.85171	18857.9125
723.77365	18758.9125
727.69284	18623.5125
731.60928	18469.6125
735.52295	18417.7125
739.43388	18416.6125
743.34206	18459.0125
747.24749	18452.9125
751.15017	18491.5125
755.05012	18657.8125
758.94733	18972.4125
762.8418	19610.3125
766.73354	20548.2125
770.62254	21475.2125
774.50882	21771.4125
778.39237	21070.3125
782.27321	19917.5125
786.15132	18980.4125
790.02671	18427.9125
793.89938	18122.0125
797.76935	18015.6125
801.6366	17981.8125
805.50115	17956.6125
809.36299	17906.5125
813.22213	17853.1125
817.07857	17859.9125
820.93231	17826.5125
824.78336	17788.1125
828.63172	17758.2125
832.47738	17755.5125
836.32036	17735.2125
840.16066	17752.0125
843.99827	17759.1125
847.8332	17735.7125
851.66546	17681.2125
855.49504	17713.4125
859.32195	17718.7125
863.1462	17712.7125
866.96777	17690.4125
870.78668	17633.7125
874.60293	17666.3125
878.41652	17666.0125
882.22745	17700.5125
886.03573	17722.7125
889.84136	17705.8125
893.64433	17661.4125
897.44466	17618.9125
901.24235	17516.1125
905.0374	17510.8125
908.8298	17485.7125
912.61957	17497.7125
916.40671	17595.3125
920.19121	17740.2125
923.97308	17815.7125
927.75233	17887.5125
931.52895	17828.3125
935.30295	17682.8125
939.07433	17490.7125
942.84309	17304.9125
946.60924	17202.4125
950.37278	17143.6125
954.13371	17087.3125
957.89203	17094.9125
961.64774	17075.9125
965.40086	17038.7125
969.15137	16942.3125
972.89929	16864.3125
976.64461	16854.6125
980.38733	16832.6125
984.12747	16878.1125
987.86502	16978.3125
991.59999	17101.2125
995.33237	17231.6125
999.06217	17466.1125
1002.78939	17752.5125
1006.51404	17945.9125
1010.23611	18119.2125
1013.95561	18254.8125
1017.67255	18224.2125
1021.38692	18094.8125
1025.09872	17915.3125
1028.80796	17782.1125
1032.51465	17861.0125
1036.21877	17999.1125
1039.92035	18042.9125
1043.61937	18011.6125
1047.31584	18006.6125
1051.00976	17984.6125
1054.70114	18015.4125
1058.38998	18084.7125
1062.07627	18324.3125
1065.76003	18631.7125
1069.44126	19026.2125
1073.11995	19481.7125
1076.79611	19749.3125
1080.46974	19737.6125
1084.14085	19438.1125
1087.80943	19173.5125
1091.47549	18966.4125
1095.13903	18850.8125
1098.80005	18630.5125
1102.45857	18348.6125
1106.11456	18179.8125
1109.76805	18098.6125
1113.41903	18157.1125
1117.06751	18218.3125
1120.71348	18385.7125
1124.35696	18567.9125
1127.99793	18774.0125
1131.63641	18917.0125
1135.2724	18798.3125
1138.90589	18667.6125
1142.5369	18609.8125
1146.16542	18584.2125
1149.79145	18656.8125
1153.415	18813.6125
1157.03607	18984.5125
1160.65467	19321.8125
1164.27079	19877.5125
1167.88443	20668.3125
1171.49561	21648.6125
1175.10432	22913.9125
1178.71056	24466.5125
1182.31434	25758.7125
1185.91565	26210.7125
1189.51451	25774.2125
1193.11091	25087.5125
1196.70485	24311.2125
1200.29634	23518.9125
1203.88538	22987.6125
1207.47197	22584.6125
1211.05612	22215.3125
1214.63782	21958.1125
1218.21708	21705.2125
1221.79391	21568.6125
1225.36829	21511.4125
1228.94024	21350.9125
1232.50976	21052.1125
1236.07685	20782.1125
1239.6415	20669.5125
1243.20374	20664.9125
1246.76355	20799.1125
1250.32093	20965.5125
1253.8759	21251.2125
1257.42845	21590.6125
1260.97859	21975.2125
1264.52631	22286.3125
1268.07163	22677.6125
1271.61453	23059.0125
1275.15503	23458.3125
1278.69312	23925.9125
1282.22882	24334.6125
1285.76211	24912.8125
1289.29301	25667.0125
1292.82151	26619.6125
1296.34761	27685.8125
1299.87133	28977.4125
1303.39266	30282.8125
1306.9116	31723.9125
1310.42815	33144.5125
1313.94233	34248.7125
1317.45412	34486.4125
1320.96354	34120.9125
1324.47058	33525.1125
1327.97525	32808.9125
1331.47754	32239.8125
1334.97747	31875.4125
1338.47502	31729.7125
1341.97022	31467.3125
1345.46305	31097.7125
1348.95352	30719.4125
1352.44163	30728.3125
1355.92738	31345.0125
1359.41078	32499.0125
1362.89183	33605.6125
1366.37053	33242.3125
1369.84688	31099.7125
1373.32088	28394.0125
1376.79254	26506.8125
1380.26186	25868.1125
1383.72883	25863.0125
1387.19347	25879.6125
1390.65578	25791.6125
1394.11575	25834.2125
1397.57339	26065.4125
1401.0287	26508.3125
1404.48168	26879.8125
1407.93234	26820.6125
1411.38068	26442.5125
1414.82669	25715.1125
1418.27039	24811.8125
1421.71177	23887.5125
1425.15083	23080.0125
1428.58758	22654.0125
1432.02203	22701.5125
1435.45416	23137.5125
1438.88399	23663.3125
1442.31151	24130.7125
1445.73673	24472.5125
1449.15965	24809.0125
1452.58027	25046.0125
1455.9986	25105.3125
1459.41463	25158.7125
1462.82837	25409.5125
1466.23982	25705.8125
1469.64898	26043.3125
1473.05586	26174.0125
1476.46045	26184.6125
1479.86276	26061.6125
1483.26279	25806.2125
1486.66054	25554.1125
1490.05602	25472.9125
1493.44922	25528.6125
1496.84016	25525.7125
1500.22882	25679.0125
1503.61521	26163.8125
1506.99934	26900.6125
1510.38121	27529.7125
1513.76081	27732.7125
1517.13816	27274.9125
1520.51324	26389.9125
1523.88607	25661.5125
1527.25665	25245.8125
1530.62498	25138.0125
1533.99105	25148.6125
1537.35488	25114.7125
1540.71647	24853.3125
1544.07581	24541.2125
1547.4329	24178.4125
1550.78776	23808.8125
1554.14038	23547.4125
1557.49077	23397.1125
1560.83892	23388.2125
1564.18484	23507.3125
1567.52853	23739.8125
1570.86999	24211.7125
1574.20922	24931.6125
1577.54624	25705.2125
1580.88103	26165.8125
1584.2136	26173.2125
1587.54395	26119.0125
1590.87208	26377.9125
1594.19801	27080.4125
1597.52172	28046.2125
1600.84321	28518.4125
1604.16251	27685.2125
1607.47959	26031.9125
1610.79447	24096.8125
1614.10715	22372.5125
1617.41763	21036.0125
1620.7259	20182.2125
1624.03199	19756.5125
1627.33587	19724.1125
1630.63757	20142.2125
1633.93707	21116.1125
1637.23439	22619.2125
1640.52951	24820.6125
1643.82246	27408.7125
1647.11321	29393.9125
1650.40179	29766.7125
1653.68819	27938.5125
1656.97241	24949.1125
1660.25446	22020.5125
1663.53433	19893.4125
1666.81203	18513.8125
1670.08756	17647.1125
1673.36092	17067.2125
1676.63211	16694.0125
1679.90115	16431.7125
1683.16801	16222.3125
1686.43272	16081.3125
1689.69527	15970.4125
1692.95567	15901.4125
1696.2139	15877.4125
1699.46999	15804.0125
1702.72392	15763.9125
1705.97571	15739.7125
1709.22535	15682.2125
1712.47284	15671.3125
1715.71819	15648.9125
1718.96139	15590.0125
1722.20246	15558.4125
1725.44139	15501.9125
1728.67818	15411.6125
1731.91284	15349.2125
1735.14537	15263.0125
1738.37576	15222.1125
1741.60403	15202.9125
1744.83017	15150.9125
1748.05418	15131.0125
1751.27607	15121.8125
1754.49584	15088.5125
1757.71349	15097.9125
1760.92903	15072.0125
1764.14244	15062.4125
1767.35375	15025.5125
1770.56294	14977.7125
1773.77002	14962.7125
1776.97499	14958.3125
1780.17785	14908.0125
1783.37861	14876.5125
1786.57727	14847.8125
1789.77382	14824.4125
1792.96828	14781.2125
1796.16064	14766.8125
1799.3509	14729.5125
1802.53907	14705.2125
1805.72514	14672.1125
1808.90913	14611.0125
1812.09102	14617.3125
1815.27083	14593.8125
1818.44856	14565.2125
1821.6242	14523.1125
1824.79776	14521.4125
1827.96924	14510.7125
1831.13864	14501.6125
1834.30597	14480.0125
1837.47122	14448.6125
1840.6344	14425.8125
1843.7955	14453.2125
1846.95454	14445.2125
1850.11151	14427.1125
1853.26642	14416.3125
1856.41926	14410.5125
1859.57004	14401.3125
1862.71876	14364.5125
1865.86542	14368.9125
1869.01003	14364.8125
1872.15258	14349.5125
1875.29308	14349.0125
1878.43152	14314.7125
1881.56792	14307.5125
1884.70227	14321.7125
1887.83457	14297.0125
1890.96482	14306.6125
1894.09304	14274.7125
1897.21921	14288.8125
1900.34335	14272.4125
1903.46544	14246.6125
1906.58551	14232.3125
1909.70353	14197.5125
1912.81953	14191.0125
1915.93349	14179.3125
1919.04543	14144.4125
1922.15534	14142.0125
1925.26322	14097.8125
1928.36908	14073.0125
1931.47292	14044.2125
1934.57473	14020.0125
1937.67453	13980.5125
1940.77232	13938.4125
1943.86808	13905.1125
1946.96184	13871.8125
1950.05358	13868.1125
1953.14331	13816.8125
1956.23103	13755.8125
1959.31675	13717.9125
1962.40046	13699.4125
1965.48217	13654.1125
1968.56188	13619.2125
1971.63959	13597.2125
1974.7153	13537.9125
1977.78901	13485.8125
1980.86073	13437.1125
1983.93046	13402.2125
1986.99819	13386.1125
1990.06394	13352.4125
1993.1277	13333.1125
1996.18947	13262.6125
1999.24925	13232.3125
2002.30706	13185.6125
2005.36288	13167.1125
2008.41672	13121.7125
2011.46859	13073.8125
2014.51848	13051.7125
2017.56639	13018.1125
2020.61233	12984.3125
2023.6563	12975.6125
2026.6983	12939.6125
2029.73833	12889.0125
2032.7764	12905.4125
2035.8125	12873.4125
2038.84664	12823.8125
2041.87881	12819.9125
2044.90903	12797.8125
2047.93729	12775.0125
2050.96359	12753.4125
2053.98794	12741.8125
2057.01034	12741.6125
2060.03078	12728.8125
2063.04927	12712.0125
2066.06582	12700.8125
2069.08042	12697.4125
2072.09307	12679.3125
2075.10378	12643.0125
2078.11255	12643.6125
2081.11938	12667.4125
2084.12426	12658.4125
2087.12722	12663.4125
2090.12824	12657.1125
2093.12732	12658.0125
2096.12447	12670.6125
2099.11969	12651.2125
2102.11299	12649.7125
2105.10435	12644.8125
2108.09379	12689.2125
2111.08131	12667.8125
2114.0669	12683.0125
2117.05057	12662.5125
2120.03233	12683.3125
2123.01216	12717.9125
2125.99008	12744.8125
2128.96609	12717.8125
2131.94018	12739.7125
2134.91236	12730.5125
2137.88263	12717.0125
2140.851	12753.5125
2143.81746	12748.3125
2146.78201	12765.5125
2149.74466	12755.9125
2152.7054	12750.7125
2155.66425	12758.5125
2158.6212	12787.0125
2161.57625	12759.9125
2164.52941	12766.3125
2167.48067	12754.7125
2170.43004	12758.6125
2173.37752	12734.1125
2176.32311	12717.8125
2179.26681	12727.3125
2182.20863	12746.8125
2185.14856	12746.9125
2188.08661	12727.5125
2191.02278	12719.6125
2193.95707	12706.7125
2196.88948	12695.6125
2199.82001	12689.5125
2202.74867	12663.3125
2205.67545	12679.7125
2208.60037	12666.9125
2211.52341	12660.9125
2214.44458	12643.1125
2217.36388	12592.2125
2220.28132	12580.7125
2223.1969	12565.9125
2226.11061	12539.3125
2229.02246	12512.3125
2231.93245	12497.7125
2234.84058	12454.9125
2237.74686	12440.0125
2240.65128	12433.9125
2243.55385	12429.5125
2246.45456	12389.6125
2249.35343	12383.5125
2252.25044	12345.4125
2255.14561	12356.6125
2258.03893	12319.7125
2260.93041	12310.2125
2263.82004	12261.0125
2266.70783	12228.3125
2269.59378	12225.6125
2272.4779	12215.2125
2275.36017	12162.0125
2278.24061	12122.8125
2281.11922	12098.1125
2283.996	12091.2125
2286.87094	12094.4125
2289.74405	12052.2125
2292.61534	12039.0125
2295.4848	12026.5125
2298.35243	12054.8125
2301.21824	12024.7125
2304.08223	11997.9125
2306.94439	11997.1125
2309.80474	12002.2125
2312.66327	11994.0125
2315.51999	11972.3125
2318.37489	11986.0125
2321.22797	11963.7125
2324.07925	11965.8125
2326.92871	11940.9125
2329.77637	11924.8125
2332.62222	11908.2125
2335.46626	11896.2125
2338.3085	11889.0125
2341.14893	11878.9125
2343.98756	11864.6125
2346.8244	11838.8125
2349.65943	11835.9125
2352.49267	11825.3125
2355.32411	11816.6125
2358.15376	11799.8125
2360.98161	11791.2125
2363.80768	11785.7125
2366.63195	11809.7125
2369.45444	11760.8125
2372.27514	11776.3125
2375.09405	11752.3125
2377.91118	11734.5125
2380.72652	11699.2125
2383.54009	11696.8125
2386.35187	11690.5125
2389.16188	11643.0125
2391.97011	11635.4125
2394.77657	11607.0125
2397.58125	11597.8125
2400.38416	11559.9125
2403.18529	11536.8125
2405.98466	11541.6125
2408.78226	11510.9125
2411.57809	11503.4125
2414.37216	11475.4125
2417.16446	11485.3125
2419.955	11431.3125
2422.74378	11456.1125
2425.5308	11423.3125
2428.31606	11416.8125
2431.09956	11414.7125
2433.88131	11385.6125
2436.6613	11394.8125
2439.43954	11406.4125
2442.21603	11382.2125
2444.99077	11360.5125
2447.76377	11379.7125
2450.53501	11373.8125
2453.30451	11347.9125
2456.07226	11332.7125
2458.83827	11317.9125
2461.60254	11330.1125
2464.36507	11289.5125
2467.12586	11289.6125
2469.88492	11282.7125
2472.64224	11282.7125
2475.39782	11267.0125
2478.15167	11289.5125
2480.90379	11269.4125
2483.65417	11275.5125
2486.40283	11284.9125
2489.14976	11294.5125
2491.89497	11264.8125
2494.63845	11304.9125
2497.3802	11262.8125
2500.12024	11259.7125
2502.85855	11244.8125
2505.59514	11252.4125
2508.33002	11237.6125
2511.06318	11226.1125
2513.79462	11182.6125
2516.52435	11198.8125
2519.25237	11183.0125
2521.97867	11155.5125
2524.70327	11181.5125
2527.42616	11156.4125
2530.14734	11144.1125
2532.86681	11122.6125
2535.58458	11134.8125
2538.30065	11089.5125
2541.01501	11090.7125
2543.72768	11080.2125
2546.43864	11069.9125
2549.14791	11023.5125
2551.85548	11038.3125
2554.56136	11002.1125
2557.26554	10989.2125
2559.96803	10978.6125
2562.66883	10965.0125
2565.36794	10946.8125
2568.06536	10967.5125
2570.7611	10961.1125
2573.45514	10938.7125
2576.14751	10907.5125
2578.83819	10899.1125
2581.52719	10885.8125
2584.21451	10852.8125
2586.90015	10872.3125
2589.58411	10846.1125
2592.2664	10822.8125
2594.94701	10805.5125
2597.62594	10810.5125
2600.30321	10785.3125
2602.9788	10769.1125
2605.65273	10756.4125
2608.32498	10742.2125
2610.99557	10717.3125
2613.66449	10736.5125
2616.33175	10717.4125
2618.99734	10704.2125
2621.66128	10709.6125
2624.32355	10701.0125
2626.98416	10672.3125
2629.64311	10670.9125
2632.30041	10667.1125
2634.95605	10658.2125
2637.61004	10643.8125
2640.26238	10638.1125
2642.91306	10614.7125
2645.56209	10656.2125
2648.20948	10638.0125
2650.85521	10609.0125
2653.4993	10607.1125
2656.14175	10616.0125
2658.78255	10607.3125
2661.42171	10607.7125
2664.05923	10639.9125
2666.6951	10631.4125
2669.32934	10623.1125
2671.96194	10607.6125
2674.59291	10627.2125
2677.22224	10622.9125
2679.84993	10623.0125
2682.476	10603.0125
2685.10043	10604.9125
2687.72324	10595.9125
2690.34441	10603.0125
2692.96396	10603.5125
2695.58188	10596.6125
2698.19818	10574.2125
2700.81285	10588.2125
2703.4259	10624.1125
2706.03733	10650.0125
2708.64714	10647.6125
2711.25533	10632.6125
2713.86191	10625.7125
2716.46687	10635.9125
2719.07021	10613.3125
2721.67194	10603.0125
2724.27206	10607.2125
2726.87057	10601.8125
2729.46747	10636.0125
2732.06276	10609.3125
2734.65644	10595.9125
2737.24852	10601.6125
2739.83899	10589.7125
2742.42786	10599.9125
2745.01513	10563.6125
2747.60079	10556.6125
2750.18486	10566.4125
2752.76733	10552.8125
2755.3482	10556.3125
2757.92747	10553.5125
2760.50515	10532.3125
2763.08123	10533.3125
2765.65573	10513.2125
2768.22863	10506.1125
2770.79994	10526.9125
2773.36967	10519.4125
2775.9378	10475.3125
2778.50435	10464.7125
2781.06932	10466.9125
2783.6327	10468.8125
2786.1945	10453.7125
2788.75471	10434.6125
2791.31335	10426.9125
2793.87041	10404.9125
2796.42589	10358.7125
2798.97979	10377.5125
2801.53212	10358.9125
2804.08288	10333.8125
2806.63206	10315.8125
2809.17967	10290.5125
2811.72571	10271.1125
2814.27018	10262.6125
2816.81308	10253.0125
2819.35442	10252.7125
2821.89419	10217.4125
2824.43239	10210.7125
2826.96904	10205.1125
2829.50412	10207.7125
2832.03763	10169.9125
2834.56959	10165.0125
2837.1	10167.1125
2839.62884	10181.5125
2842.15613	10163.8125
2844.68186	10170.6125
2847.20604	10156.8125
2849.72867	10158.6125
2852.24974	10153.3125
2854.76927	10138.4125
2857.28724	10141.4125
2859.80367	10131.4125
2862.31855	10122.4125
2864.83189	10095.3125
2867.34368	10074.0125
2869.85393	10069.2125
2872.36264	10074.4125
2874.8698	10064.3125
2877.37543	10075.8125
2879.87952	10094.3125
2882.38207	10089.6125
2884.88308	10070.6125
2887.38256	10085.2125
2889.88051	10070.8125
2892.37692	10099.6125
2894.8718	10082.2125
2897.36515	10090.8125
2899.85698	10115.5125
2902.34727	10120.3125
2904.83604	10121.0125
2907.32328	10155.1125
2909.809	10141.4125
2912.29319	10133.6125
2914.77587	10157.8125
2917.25702	10137.9125
2919.73665	10152.9125
2922.21476	10154.5125
2924.69136	10129.5125
2927.16644	10154.5125
2929.64	10118.9125
2932.11205	10128.6125
2934.58258	10074.2125
2937.05161	10133.0125
2939.51912	10132.9125
2941.98513	10114.6125
2944.44962	10094.4125
2946.91261	10022.9125
2949.37409	10057.1125
2951.83407	10054.8125
2954.29254	10012.8125
2956.74951	9992.5125
2959.20498	9983.0125
2961.65895	9972.7125
2964.11142	9984.8125
2966.56239	9952.2125
2969.01186	9912.5125
2971.45984	9887.6125
2973.90632	9878.2125
2976.35131	9857.7125
2978.7948	9845.8125
2981.23681	9820.8125
2983.67732	9791.4125
2986.11635	9775.0125
2988.55388	9751.0125
2990.98993	9742.5125
2993.4245	9713.8125
2995.85758	9680.9125
2998.28917	9678.7125
3000.71928	9650.5125
3003.14791	9628.4125
3005.57506	9636.9125
3008.00073	9653.0125
3010.42493	9635.5125
3012.84764	9575.5125
3015.26888	9562.7125
3017.68865	9551.9125
3020.10694	9550.0125
3022.52376	9531.1125
3024.9391	9493.4125
3027.35298	9493.9125
3029.76539	9486.7125
