Data from AgNP_FTO_APTES_CRN_20uM_R6G_10uM_NaF_0.1M_Addition_RamanShift__38__17-44-48-053.txt Node

Date: Wed Dec 15 17:44:48 GMT 2021
User: TCL
Spectrometer: QEP01345
Trigger mode: 4
Integration Time (sec): 7.000000E0
Scans to average: 10
Electric dark correction enabled: true
Nonlinearity correction enabled: false
Boxcar width: 0
XAxis mode: Raman Shifts
Number of Pixels in Spectrum: 1044
>>>>>Begin Spectral Data<<<<<
46.04893	0.7875
50.45542	-1.0125
54.85868	-0.1125
59.25871	0.1875
63.6555	12.6875
68.04907	16.5875
72.43941	16.1875
76.82654	15.9875
81.21044	17.3875
85.59113	19.3875
89.96862	21.4875
94.34289	14.3875
98.71396	21.1875
103.08183	21.4875
107.4465	22.8875
111.80798	23.5875
116.16626	23.0875
120.52136	22.7875
124.87327	21.6875
129.222	23.9875
133.56755	21.5875
137.90993	23.1875
142.24913	25.0875
146.58517	25.1875
150.91804	29.5875
155.24774	31.6875
159.57429	42.4875
163.89768	50.8875
168.21792	61.6875
172.53501	86.4875
176.84895	114.2875
181.15975	161.9875
185.46741	225.4875
189.77193	312.1875
194.07331	408.4875
198.37157	527.4875
202.6667	648.2875
206.9587	771.1875
211.24758	893.4875
215.53334	1020.9875
219.81599	1164.6875
224.09553	1330.8875
228.37195	1504.4875
232.64527	1705.2875
236.91549	1894.9875
241.18261	2067.2875
245.44663	2207.0875
249.70755	2307.1875
253.96539	2411.8875
258.22014	2497.5875
262.4718	2571.8875
266.72039	2640.6875
270.96589	2672.1875
275.20832	2699.9875
279.44768	2655.0875
283.68397	2620.0875
287.91719	2595.3875
292.14735	2619.4875
296.37445	2656.6875
300.59849	2761.8875
304.81948	2900.2875
309.03742	2993.1875
313.25231	3002.8875
317.46415	2846.7875
321.67296	2629.9875
325.87872	2438.4875
330.08145	2352.1875
334.28114	2338.6875
338.47781	2368.5875
342.67145	2438.5875
346.86207	2549.2875
351.04966	2719.2875
355.23424	2894.8875
359.4158	3031.8875
363.59435	3094.6875
367.76989	3104.0875
371.94243	3088.4875
376.11196	3077.8875
380.27849	3043.7875
384.44203	3026.5875
388.60257	2966.1875
392.76012	2952.1875
396.91468	2981.9875
401.06626	3049.1875
405.21485	3128.1875
409.36047	3089.9875
413.50311	2941.8875
417.64277	2816.8875
421.77947	2765.2875
425.9132	2792.9875
430.04396	2829.7875
434.17176	2845.4875
438.2966	2822.7875
442.41849	2834.8875
446.53742	2881.3875
450.6534	2934.0875
454.76644	2972.1875
458.87653	2961.8875
462.98368	2934.3875
467.08789	2877.3875
471.18916	2808.2875
475.2875	2738.3875
479.38291	2684.0875
483.4754	2658.9875
487.56496	2638.2875
491.6516	2614.7875
495.73531	2616.1875
499.81612	2603.8875
503.89401	2621.8875
507.96899	2644.4875
512.04106	2690.4875
516.11023	2734.8875
520.1765	2781.5875
524.23987	2779.7875
528.30034	2722.3875
532.35792	2662.5875
536.41261	2585.3875
540.46441	2515.4875
544.51333	2486.1875
548.55936	2490.0875
552.60252	2551.5875
556.64279	2613.8875
560.6802	2660.9875
564.71473	2686.1875
568.7464	2783.3875
572.7752	2872.2875
576.80114	2786.4875
580.82422	2680.0875
584.84444	2636.4875
588.86181	2636.8875
592.87633	2657.8875
596.888	2699.8875
600.89682	2792.0875
604.9028	3125.7875
608.90594	3988.9875
612.90624	5169.5875
616.90371	5021.1875
620.89834	3480.1875
624.89015	2706.1875
628.87913	2551.6875
632.86528	2565.8875
636.84862	2621.3875
640.82913	2588.5875
644.80683	2484.7875
648.78172	2395.9875
652.75379	2422.6875
656.72306	2531.3875
660.68952	2659.2875
664.65319	2642.4875
668.61405	2490.2875
672.57211	2423.3875
676.52738	2417.5875
680.47986	2429.2875
684.42955	2414.4875
688.37646	2418.0875
692.32058	2457.8875
696.26192	2490.4875
700.20048	2597.0875
704.13626	2664.3875
708.06928	2688.7875
711.99952	2627.9875
715.927	2582.7875
719.85171	2549.2875
723.77365	2519.8875
727.69284	2475.0875
731.60928	2451.3875
735.52295	2449.6875
739.43388	2434.3875
743.34206	2446.3875
747.24749	2449.3875
751.15017	2460.4875
755.05012	2503.7875
758.94733	2619.5875
762.8418	2900.3875
766.73354	3385.2875
770.62254	3917.9875
774.50882	4213.8875
778.39237	4035.3875
782.27321	3490.8875
786.15132	2952.6875
790.02671	2639.5875
793.89938	2504.5875
797.76935	2445.8875
801.6366	2417.2875
805.50115	2413.4875
809.36299	2394.9875
813.22213	2380.9875
817.07857	2378.1875
820.93231	2392.8875
824.78336	2395.0875
828.63172	2412.5875
832.47738	2424.0875
836.32036	2418.4875
840.16066	2384.2875
843.99827	2377.0875
847.8332	2366.5875
851.66546	2370.8875
855.49504	2352.8875
859.32195	2348.4875
863.1462	2336.6875
866.96777	2327.4875
870.78668	2324.6875
874.60293	2328.5875
878.41652	2330.1875
882.22745	2339.9875
886.03573	2346.2875
889.84136	2351.8875
893.64433	2333.2875
897.44466	2320.3875
901.24235	2332.7875
905.0374	2321.6875
908.8298	2331.4875
912.61957	2320.4875
916.40671	2324.2875
920.19121	2329.0875
923.97308	2346.4875
927.75233	2373.9875
931.52895	2402.6875
935.30295	2381.2875
939.07433	2316.6875
942.84309	2255.2875
946.60924	2217.7875
950.37278	2200.0875
954.13371	2188.5875
957.89203	2163.6875
961.64774	2166.3875
965.40086	2159.5875
969.15137	2149.9875
972.89929	2144.2875
976.64461	2144.9875
980.38733	2140.2875
984.12747	2151.6875
987.86502	2155.4875
991.59999	2157.5875
995.33237	2178.4875
999.06217	2213.5875
1002.78939	2251.1875
1006.51404	2310.3875
1010.23611	2356.1875
1013.95561	2394.9875
1017.67255	2382.6875
1021.38692	2351.3875
1025.09872	2324.2875
1028.80796	2308.0875
1032.51465	2301.0875
1036.21877	2333.1875
1039.92035	2350.6875
1043.61937	2376.1875
1047.31584	2360.6875
1051.00976	2364.6875
1054.70114	2350.1875
1058.38998	2348.8875
1062.07627	2371.0875
1065.76003	2397.9875
1069.44126	2434.3875
1073.11995	2490.7875
1076.79611	2537.5875
1080.46974	2597.0875
1084.14085	2629.6875
1087.80943	2682.8875
1091.47549	2693.0875
1095.13903	2612.0875
1098.80005	2518.5875
1102.45857	2423.4875
1106.11456	2402.6875
1109.76805	2423.9875
1113.41903	2473.3875
1117.06751	2539.7875
1120.71348	2638.1875
1124.35696	2767.2875
1127.99793	2855.0875
1131.63641	2854.3875
1135.2724	2726.5875
1138.90589	2574.1875
1142.5369	2510.3875
1146.16542	2447.6875
1149.79145	2419.3875
1153.415	2417.1875
1157.03607	2427.3875
1160.65467	2479.9875
1164.27079	2554.0875
1167.88443	2707.7875
1171.49561	2914.8875
1175.10432	3295.2875
1178.71056	3793.9875
1182.31434	4118.6875
1185.91565	4163.5875
1189.51451	4019.1875
1193.11091	3735.9875
1196.70485	3437.6875
1200.29634	3205.6875
1203.88538	3043.7875
1207.47197	2879.9875
1211.05612	2722.4875
1214.63782	2640.0875
1218.21708	2626.9875
1221.79391	2617.6875
1225.36829	2632.0875
1228.94024	2652.7875
1232.50976	2672.5875
1236.07685	2693.8875
1239.6415	2730.1875
1243.20374	2763.6875
1246.76355	2797.2875
1250.32093	2852.9875
1253.8759	2926.4875
1257.42845	3018.3875
1260.97859	3117.8875
1264.52631	3211.5875
1268.07163	3293.0875
1271.61453	3342.9875
1275.15503	3376.5875
1278.69312	3355.2875
1282.22882	3335.2875
1285.76211	3366.6875
1289.29301	3453.7875
1292.82151	3537.8875
1296.34761	3630.3875
1299.87133	3769.6875
1303.39266	4056.8875
1306.9116	4501.9875
1310.42815	5046.0875
1313.94233	5384.5875
1317.45412	5316.5875
1320.96354	4946.3875
1324.47058	4531.9875
1327.97525	4201.6875
1331.47754	3919.4875
1334.97747	3819.9875
1338.47502	3857.0875
1341.97022	3939.8875
1345.46305	4093.8875
1348.95352	4337.4875
1352.44163	4709.7875
1355.92738	5207.1875
1359.41078	6007.3875
1362.89183	6852.7875
1366.37053	6774.4875
1369.84688	5737.8875
1373.32088	4672.9875
1376.79254	3989.1875
1380.26186	3713.0875
1383.72883	3597.4875
1387.19347	3524.8875
1390.65578	3378.6875
1394.11575	3190.2875
1397.57339	3058.8875
1401.0287	3011.0875
1404.48168	3008.5875
1407.93234	3033.6875
1411.38068	3043.1875
1414.82669	3064.9875
1418.27039	3022.7875
1421.71177	2965.9875
1425.15083	2905.0875
1428.58758	2878.0875
1432.02203	2880.1875
1435.45416	2906.6875
1438.88399	2931.0875
1442.31151	2933.2875
1445.73673	2975.9875
1449.15965	3017.0875
1452.58027	2961.2875
1455.9986	2905.4875
1459.41463	2890.9875
1462.82837	2907.3875
1466.23982	2962.3875
1469.64898	3028.8875
1473.05586	3101.1875
1476.46045	3148.6875
1479.86276	3194.9875
1483.26279	3286.7875
1486.66054	3395.4875
1490.05602	3503.5875
1493.44922	3670.1875
1496.84016	3913.2875
1500.22882	4283.3875
1503.61521	4809.7875
1506.99934	5424.6875
1510.38121	6033.3875
1513.76081	6363.2875
1517.13816	6138.4875
1520.51324	5384.0875
1523.88607	4572.9875
1527.25665	3996.6875
1530.62498	3684.0875
1533.99105	3514.8875
1537.35488	3377.6875
1540.71647	3307.7875
1544.07581	3269.1875
1547.4329	3260.4875
1550.78776	3234.4875
1554.14038	3232.3875
1557.49077	3267.2875
1560.83892	3339.2875
1564.18484	3437.5875
1567.52853	3560.2875
1570.86999	3675.0875
1574.20922	3789.6875
1577.54624	3811.6875
1580.88103	3678.1875
1584.2136	3414.5875
1587.54395	3238.1875
1590.87208	3198.2875
1594.19801	3343.4875
1597.52172	3552.2875
1600.84321	3675.4875
1604.16251	3558.3875
1607.47959	3349.6875
1610.79447	3117.1875
1614.10715	2896.1875
1617.41763	2718.0875
1620.7259	2623.8875
1624.03199	2580.8875
1627.33587	2610.6875
1630.63757	2675.1875
1633.93707	2812.8875
1637.23439	3017.5875
1640.52951	3312.8875
1643.82246	3713.9875
1647.11321	4240.7875
1650.40179	4701.7875
1653.68819	4779.0875
1656.97241	4302.9875
1660.25446	3677.5875
1663.53433	3199.9875
1666.81203	2888.2875
1670.08756	2674.2875
1673.36092	2505.3875
1676.63211	2362.9875
1679.90115	2282.2875
1683.16801	2237.2875
1686.43272	2231.9875
1689.69527	2281.1875
1692.95567	2409.7875
1696.2139	2632.3875
1699.46999	2859.7875
1702.72392	2875.2875
1705.97571	2661.6875
1709.22535	2402.7875
1712.47284	2208.9875
1715.71819	2132.3875
1718.96139	2083.5875
1722.20246	2046.0875
1725.44139	2026.0875
1728.67818	1999.0875
1731.91284	1994.6875
1735.14537	1978.5875
1738.37576	1978.8875
1741.60403	1992.7875
1744.83017	2010.6875
1748.05418	2059.5875
1751.27607	2116.9875
1754.49584	2229.7875
1757.71349	2375.7875
1760.92903	2450.1875
1764.14244	2424.9875
1767.35375	2414.9875
1770.56294	2416.3875
1773.77002	2351.9875
1776.97499	2194.5875
1780.17785	2044.0875
1783.37861	1964.3875
1786.57727	1908.4875
1789.77382	1873.6875
1792.96828	1856.2875
1796.16064	1842.5875
1799.3509	1826.5875
1802.53907	1819.8875
1805.72514	1815.5875
1808.90913	1795.5875
1812.09102	1796.3875
1815.27083	1787.8875
1818.44856	1768.8875
1821.6242	1767.7875
1824.79776	1763.6875
1827.96924	1767.9875
1831.13864	1752.3875
1834.30597	1757.8875
1837.47122	1762.4875
1840.6344	1748.5875
1843.7955	1748.6875
1846.95454	1752.6875
1850.11151	1756.8875
1853.26642	1748.0875
1856.41926	1748.8875
1859.57004	1745.7875
1862.71876	1749.6875
1865.86542	1744.9875
1869.01003	1750.5875
1872.15258	1737.7875
1875.29308	1740.4875
1878.43152	1738.4875
1881.56792	1741.4875
1884.70227	1745.4875
1887.83457	1734.7875
1890.96482	1730.1875
1894.09304	1741.3875
1897.21921	1735.6875
1900.34335	1727.9875
1903.46544	1734.7875
1906.58551	1730.3875
1909.70353	1716.6875
1912.81953	1728.5875
1915.93349	1721.3875
1919.04543	1722.9875
1922.15534	1716.1875
1925.26322	1704.2875
1928.36908	1700.7875
1931.47292	1710.1875
1934.57473	1699.6875
1937.67453	1688.2875
1940.77232	1685.0875
1943.86808	1670.9875
1946.96184	1673.4875
1950.05358	1671.9875
1953.14331	1664.0875
1956.23103	1658.5875
1959.31675	1661.9875
1962.40046	1647.4875
1965.48217	1651.6875
1968.56188	1646.4875
1971.63959	1639.1875
1974.7153	1634.6875
1977.78901	1632.9875
1980.86073	1624.7875
1983.93046	1610.6875
1986.99819	1608.9875
1990.06394	1608.4875
1993.1277	1591.0875
1996.18947	1588.8875
1999.24925	1580.2875
2002.30706	1573.7875
2005.36288	1581.7875
2008.41672	1574.4875
2011.46859	1558.4875
2014.51848	1565.0875
2017.56639	1554.9875
2020.61233	1545.6875
2023.6563	1543.9875
2026.6983	1533.5875
2029.73833	1539.1875
2032.7764	1532.5875
2035.8125	1527.9875
2038.84664	1529.0875
2041.87881	1536.8875
2044.90903	1520.3875
2047.93729	1517.9875
2050.96359	1516.7875
2053.98794	1524.3875
2057.01034	1524.8875
2060.03078	1516.8875
2063.04927	1508.6875
2066.06582	1509.6875
2069.08042	1510.3875
2072.09307	1505.2875
2075.10378	1497.3875
2078.11255	1494.8875
2081.11938	1501.2875
2084.12426	1498.1875
2087.12722	1501.4875
2090.12824	1494.2875
2093.12732	1498.0875
2096.12447	1488.6875
2099.11969	1498.7875
2102.11299	1490.2875
2105.10435	1500.2875
2108.09379	1495.9875
2111.08131	1503.0875
2114.0669	1498.2875
2117.05057	1496.6875
2120.03233	1493.6875
2123.01216	1506.3875
2125.99008	1504.2875
2128.96609	1503.5875
2131.94018	1503.6875
2134.91236	1504.4875
2137.88263	1502.1875
2140.851	1498.6875
2143.81746	1502.2875
2146.78201	1498.2875
2149.74466	1496.1875
2152.7054	1499.7875
2155.66425	1499.9875
2158.6212	1499.7875
2161.57625	1501.6875
2164.52941	1489.2875
2167.48067	1491.5875
2170.43004	1489.1875
2173.37752	1482.4875
2176.32311	1494.3875
2179.26681	1492.3875
2182.20863	1480.9875
2185.14856	1488.6875
2188.08661	1483.6875
2191.02278	1487.1875
2193.95707	1479.6875
2196.88948	1487.3875
2199.82001	1484.3875
2202.74867	1472.6875
2205.67545	1476.5875
2208.60037	1471.2875
2211.52341	1481.5875
2214.44458	1463.5875
2217.36388	1462.7875
2220.28132	1468.5875
2223.1969	1464.9875
2226.11061	1455.9875
2229.02246	1458.2875
2231.93245	1457.0875
2234.84058	1452.2875
2237.74686	1441.0875
2240.65128	1449.8875
2243.55385	1447.5875
2246.45456	1431.0875
2249.35343	1443.4875
2252.25044	1435.5875
2255.14561	1434.9875
2258.03893	1470.3875
2260.93041	1524.8875
2263.82004	1476.7875
2266.70783	1455.8875
2269.59378	1435.5875
2272.4779	1428.9875
2275.36017	1427.0875
2278.24061	1412.8875
2281.11922	1406.4875
2283.996	1409.8875
2286.87094	1403.2875
2289.74405	1393.8875
2292.61534	1399.5875
2295.4848	1393.2875
2298.35243	1387.5875
2301.21824	1387.5875
2304.08223	1390.8875
2306.94439	1388.4875
2309.80474	1387.5875
2312.66327	1391.8875
2315.51999	1391.2875
2318.37489	1383.2875
2321.22797	1391.7875
2324.07925	1387.9875
2326.92871	1390.1875
2329.77637	1392.6875
2332.62222	1389.4875
2335.46626	1383.3875
2338.3085	1384.2875
2341.14893	1387.1875
2343.98756	1390.3875
2346.8244	1376.1875
2349.65943	1382.3875
2352.49267	1378.0875
2355.32411	1386.1875
2358.15376	1386.8875
2360.98161	1377.4875
2363.80768	1378.9875
2366.63195	1385.4875
2369.45444	1376.3875
2372.27514	1369.3875
2375.09405	1369.3875
2377.91118	1368.9875
2380.72652	1357.8875
2383.54009	1355.9875
2386.35187	1354.7875
2389.16188	1342.7875
2391.97011	1345.7875
2394.77657	1342.0875
2397.58125	1341.8875
2400.38416	1331.4875
2403.18529	1324.5875
2405.98466	1326.1875
2408.78226	1333.0875
2411.57809	1332.8875
2414.37216	1326.4875
2417.16446	1322.8875
2419.955	1318.8875
2422.74378	1311.1875
2425.5308	1304.8875
2428.31606	1310.7875
2431.09956	1316.1875
2433.88131	1315.6875
2436.6613	1305.0875
2439.43954	1298.7875
2442.21603	1306.0875
2444.99077	1303.2875
2447.76377	1300.3875
2450.53501	1299.9875
2453.30451	1295.8875
2456.07226	1299.3875
2458.83827	1298.8875
2461.60254	1301.3875
2464.36507	1290.1875
2467.12586	1299.1875
2469.88492	1301.0875
2472.64224	1296.6875
2475.39782	1337.3875
2478.15167	1368.1875
2480.90379	1324.1875
2483.65417	1315.9875
2486.40283	1314.6875
2489.14976	1307.3875
2491.89497	1317.4875
2494.63845	1373.3875
2497.3802	1378.6875
2500.12024	1331.0875
2502.85855	1312.5875
2505.59514	1307.7875
2508.33002	1293.0875
2511.06318	1284.4875
2513.79462	1274.6875
2516.52435	1284.1875
2519.25237	1279.3875
2521.97867	1259.6875
2524.70327	1263.0875
2527.42616	1256.1875
2530.14734	1267.6875
2532.86681	1257.0875
2535.58458	1253.7875
2538.30065	1255.7875
2541.01501	1253.1875
2543.72768	1259.0875
2546.43864	1260.8875
2549.14791	1253.7875
2551.85548	1258.0875
2554.56136	1246.9875
2557.26554	1244.1875
2559.96803	1244.0875
2562.66883	1236.9875
2565.36794	1239.3875
2568.06536	1246.8875
2570.7611	1239.3875
2573.45514	1238.7875
2576.14751	1226.1875
2578.83819	1229.3875
2581.52719	1232.8875
2584.21451	1224.9875
2586.90015	1220.2875
2589.58411	1214.9875
2592.2664	1225.4875
2594.94701	1218.5875
2597.62594	1226.9875
2600.30321	1215.1875
2602.9788	1219.2875
2605.65273	1216.2875
2608.32498	1207.5875
2610.99557	1201.9875
2613.66449	1205.4875
2616.33175	1205.3875
2618.99734	1204.7875
2621.66128	1201.7875
2624.32355	1212.7875
2626.98416	1198.8875
2629.64311	1205.8875
2632.30041	1191.8875
2634.95605	1197.7875
2637.61004	1196.3875
2640.26238	1193.6875
2642.91306	1193.2875
2645.56209	1194.0875
2648.20948	1207.7875
2650.85521	1195.7875
2653.4993	1188.7875
2656.14175	1190.7875
2658.78255	1187.2875
2661.42171	1187.6875
2664.05923	1183.8875
2666.6951	1183.3875
2669.32934	1183.6875
2671.96194	1194.9875
2674.59291	1193.6875
2677.22224	1190.2875
2679.84993	1199.9875
2682.476	1197.9875
2685.10043	1189.2875
2687.72324	1195.1875
2690.34441	1196.0875
2692.96396	1190.3875
2695.58188	1190.3875
2698.19818	1194.1875
2700.81285	1213.2875
2703.4259	1318.8875
2706.03733	1537.2875
2708.64714	1384.6875
2711.25533	1294.3875
2713.86191	1266.7875
2716.46687	1248.8875
2719.07021	1229.7875
2721.67194	1202.7875
2724.27206	1195.7875
2726.87057	1193.3875
2729.46747	1193.9875
2732.06276	1199.3875
2734.65644	1194.0875
2737.24852	1189.1875
2739.83899	1186.3875
2742.42786	1187.7875
2745.01513	1181.0875
2747.60079	1175.2875
2750.18486	1176.1875
2752.76733	1172.7875
2755.3482	1170.8875
2757.92747	1176.8875
2760.50515	1167.9875
2763.08123	1158.4875
2765.65573	1157.4875
2768.22863	1165.7875
2770.79994	1163.0875
2773.36967	1162.8875
2775.9378	1165.8875
2778.50435	1167.4875
2781.06932	1157.1875
2783.6327	1155.2875
2786.1945	1162.4875
2788.75471	1156.6875
2791.31335	1157.8875
2793.87041	1156.9875
2796.42589	1159.4875
2798.97979	1151.7875
2801.53212	1147.7875
2804.08288	1152.3875
2806.63206	1150.9875
2809.17967	1148.2875
2811.72571	1146.8875
2814.27018	1143.8875
2816.81308	1143.9875
2819.35442	1154.3875
2821.89419	1146.7875
2824.43239	1146.9875
2826.96904	1145.9875
2829.50412	1150.1875
2832.03763	1145.1875
2834.56959	1156.2875
2837.1	1156.4875
2839.62884	1153.9875
2842.15613	1161.7875
2844.68186	1165.7875
2847.20604	1176.7875
2849.72867	1180.4875
2852.24974	1192.1875
2854.76927	1241.9875
2857.28724	1292.5875
2859.80367	1227.9875
2862.31855	1214.5875
2864.83189	1210.3875
2867.34368	1198.7875
2869.85393	1189.6875
2872.36264	1175.0875
2874.8698	1178.0875
2877.37543	1165.0875
2879.87952	1177.5875
2882.38207	1173.0875
2884.88308	1168.7875
2887.38256	1171.1875
2889.88051	1170.8875
2892.37692	1168.2875
2894.8718	1165.0875
2897.36515	1168.8875
2899.85698	1168.5875
2902.34727	1167.7875
2904.83604	1172.3875
2907.32328	1158.6875
2909.809	1168.8875
2912.29319	1168.7875
2914.77587	1167.2875
2917.25702	1159.4875
2919.73665	1166.5875
2922.21476	1165.1875
2924.69136	1155.5875
2927.16644	1154.6875
2929.64	1155.5875
2932.11205	1148.9875
2934.58258	1153.2875
2937.05161	1152.7875
2939.51912	1152.5875
2941.98513	1141.0875
2944.44962	1133.7875
2946.91261	1125.2875
2949.37409	1119.4875
2951.83407	1118.6875
2954.29254	1116.3875
2956.74951	1105.8875
2959.20498	1107.9875
2961.65895	1109.9875
2964.11142	1108.6875
2966.56239	1102.0875
2969.01186	1095.4875
2971.45984	1097.7875
2973.90632	1089.9875
2976.35131	1091.2875
2978.7948	1091.0875
2981.23681	1077.0875
2983.67732	1083.8875
2986.11635	1079.9875
2988.55388	1075.8875
2990.98993	1069.2875
2993.4245	1067.3875
2995.85758	1070.1875
2998.28917	1063.8875
3000.71928	1065.4875
3003.14791	1060.2875
3005.57506	1051.6875
3008.00073	1061.0875
3010.42493	1057.2875
3012.84764	1056.4875
3015.26888	1049.9875
3017.68865	1054.1875
3020.10694	1049.3875
3022.52376	1059.3875
3024.9391	1042.1875
3027.35298	1046.1875
3029.76539	1046.9875
3032.17632	1041.2875
3034.5858	1046.2875
3036.9938	1043.8875
3039.40034	1042.5875
3041.80542	1042.5875
3044.20903	1034.8875
3046.61118	1040.2875
3049.01187	1034.9875
3051.4111	1033.5875
3053.80888	1026.7875
3056.20519	1028.2875
3058.60005	1031.4875
3060.99345	1026.2875
3063.3854	1030.5875
3065.7759	1024.5875
3068.16494	1018.9875
3070.55254	1022.9875
3072.93868	1025.7875
3075.32338	1017.4875
3077.70662	1020.7875
3080.08842	1014.1875
3082.46878	1011.3875
3084.84769	1010.7875
3087.22515	1006.1875
3089.60118	1007.9875
3091.97576	1007.6875
3094.3489	1003.1875
3096.72061	1000.2875
3099.09087	1013.5875
3101.4597	1004.9875
3103.82709	1001.9875
3106.19305	1008.6875
3108.55757	998.7875
3110.92066	1008.0875
3113.28232	998.0875
3115.64255	1001.5875
3118.00134	994.7875
3120.35871	1003.8875
3122.71466	992.8875
3125.06917	995.5875
3127.42226	998.9875
