Data from AgNP_FTO_APTES_CRN_0uM_R6G_10uM_NaF_0.1M_Addition_RamanShift__29__12-03-32-931.txt Node

Date: Wed Dec 15 12:03:32 GMT 2021
User: TCL
Spectrometer: QEP01345
Trigger mode: 4
Integration Time (sec): 7.000000E0
Scans to average: 10
Electric dark correction enabled: true
Nonlinearity correction enabled: false
Boxcar width: 0
XAxis mode: Raman Shifts
Number of Pixels in Spectrum: 1044
>>>>>Begin Spectral Data<<<<<
46.04893	4.2125
50.45542	-1.4875
54.85868	-0.9875
59.25871	0.5125
63.6555	61.3125
68.04907	65.5125
72.43941	70.9125
76.82654	77.0125
81.21044	83.2125
85.59113	88.8125
89.96862	92.7125
94.34289	94.0125
98.71396	101.8125
103.08183	101.7125
107.4465	107.4125
111.80798	107.6125
116.16626	101.5125
120.52136	105.5125
124.87327	104.4125
129.222	105.0125
133.56755	105.1125
137.90993	103.6125
142.24913	109.0125
146.58517	107.8125
150.91804	118.7125
155.24774	123.5125
159.57429	141.1125
163.89768	165.2125
168.21792	195.6125
172.53501	244.1125
176.84895	311.3125
181.15975	413.8125
185.46741	554.6125
189.77193	747.6125
194.07331	977.0125
198.37157	1244.4125
202.6667	1514.2125
206.9587	1777.9125
211.24758	2052.3125
215.53334	2311.7125
219.81599	2600.3125
224.09553	2905.1125
228.37195	3260.1125
232.64527	3644.6125
236.91549	4039.7125
241.18261	4414.7125
245.44663	4735.2125
249.70755	4989.8125
253.96539	5210.7125
258.22014	5384.4125
262.4718	5515.4125
266.72039	5594.0125
270.96589	5644.0125
275.20832	5598.7125
279.44768	5505.9125
283.68397	5401.4125
287.91719	5303.6125
292.14735	5257.3125
296.37445	5288.2125
300.59849	5386.9125
304.81948	5536.9125
309.03742	5631.0125
313.25231	5639.1125
317.46415	5448.0125
321.67296	5175.6125
325.87872	4969.6125
330.08145	4847.9125
334.28114	4858.7125
338.47781	4887.0125
342.67145	4995.3125
346.86207	5114.0125
351.04966	5325.9125
355.23424	5568.2125
359.4158	5769.5125
363.59435	5922.7125
367.76989	5985.7125
371.94243	6011.6125
376.11196	5998.2125
380.27849	6008.0125
384.44203	5971.3125
388.60257	5888.1125
392.76012	5874.7125
396.91468	5875.0125
401.06626	5985.7125
405.21485	6070.5125
409.36047	6018.4125
413.50311	5834.8125
417.64277	5713.2125
421.77947	5641.2125
425.9132	5450.1125
430.04396	5412.1125
434.17176	5475.2125
438.2966	5592.3125
442.41849	5782.7125
446.53742	6031.6125
450.6534	6230.6125
454.76644	6335.8125
458.87653	6274.9125
462.98368	6136.7125
467.08789	5973.3125
471.18916	5811.7125
475.2875	5672.8125
479.38291	5543.3125
483.4754	5460.7125
487.56496	5365.3125
491.6516	5350.6125
495.73531	5328.2125
499.81612	5347.5125
503.89401	5398.4125
507.96899	5476.5125
512.04106	5595.8125
516.11023	5710.0125
520.1765	5816.7125
524.23987	5869.7125
528.30034	5822.4125
532.35792	5742.2125
536.41261	5623.0125
540.46441	5471.5125
544.51333	5396.1125
548.55936	5385.8125
552.60252	5472.9125
556.64279	5606.0125
560.6802	5690.8125
564.71473	5695.7125
568.7464	5763.8125
572.7752	5824.0125
576.80114	5685.4125
580.82422	5540.9125
584.84444	5515.7125
588.86181	5701.3125
592.87633	6000.9125
596.888	6214.7125
600.89682	6243.4125
604.9028	6503.1125
608.90594	7624.7125
612.90624	9291.7125
616.90371	8988.4125
620.89834	6702.1125
624.89015	5512.2125
628.87913	5257.8125
632.86528	5223.1125
636.84862	5252.0125
640.82913	5218.5125
644.80683	5054.1125
648.78172	4951.1125
652.75379	4970.7125
656.72306	5156.8125
660.68952	5369.9125
664.65319	5320.1125
668.61405	5067.6125
672.57211	4991.1125
676.52738	4943.8125
680.47986	4970.3125
684.42955	4927.4125
688.37646	4909.6125
692.32058	4953.9125
696.26192	5004.6125
700.20048	5108.9125
704.13626	5174.2125
708.06928	5187.9125
711.99952	5148.1125
715.927	5112.4125
719.85171	5111.2125
723.77365	5091.7125
727.69284	5046.3125
731.60928	5005.4125
735.52295	5013.3125
739.43388	5050.6125
743.34206	5084.7125
747.24749	5091.0125
751.15017	5119.3125
755.05012	5177.9125
758.94733	5335.1125
762.8418	5743.3125
766.73354	6481.8125
770.62254	7371.6125
774.50882	7911.1125
778.39237	7684.9125
782.27321	6789.1125
786.15132	5898.1125
790.02671	5367.5125
793.89938	5133.2125
797.76935	5020.0125
801.6366	4955.8125
805.50115	4909.6125
809.36299	4866.8125
813.22213	4832.5125
817.07857	4823.1125
820.93231	4813.7125
824.78336	4831.3125
828.63172	4848.7125
832.47738	4883.4125
836.32036	4886.4125
840.16066	4894.9125
843.99827	4881.5125
847.8332	4869.4125
851.66546	4865.0125
855.49504	4852.5125
859.32195	4834.3125
863.1462	4801.5125
866.96777	4767.7125
870.78668	4753.0125
874.60293	4745.0125
878.41652	4740.3125
882.22745	4784.5125
886.03573	4813.3125
889.84136	4799.5125
893.64433	4806.4125
897.44466	4834.0125
901.24235	4878.9125
905.0374	4903.9125
908.8298	4921.8125
912.61957	4952.1125
916.40671	5028.3125
920.19121	5115.6125
923.97308	5188.5125
927.75233	5270.3125
931.52895	5289.4125
935.30295	5235.0125
939.07433	5115.0125
942.84309	4989.4125
946.60924	4899.5125
950.37278	4810.4125
954.13371	4787.4125
957.89203	4715.3125
961.64774	4689.7125
965.40086	4653.4125
969.15137	4649.1125
972.89929	4617.1125
976.64461	4612.6125
980.38733	4613.5125
984.12747	4613.5125
987.86502	4632.5125
991.59999	4652.9125
995.33237	4722.8125
999.06217	4806.4125
1002.78939	4900.8125
1006.51404	4979.2125
1010.23611	5061.7125
1013.95561	5099.8125
1017.67255	5053.0125
1021.38692	4954.4125
1025.09872	4831.0125
1028.80796	4773.4125
1032.51465	4766.9125
1036.21877	4846.5125
1039.92035	4925.7125
1043.61937	4992.6125
1047.31584	5010.0125
1051.00976	5014.3125
1054.70114	4988.9125
1058.38998	4993.2125
1062.07627	4978.9125
1065.76003	5031.2125
1069.44126	5085.4125
1073.11995	5199.1125
1076.79611	5331.3125
1080.46974	5420.9125
1084.14085	5437.2125
1087.80943	5402.7125
1091.47549	5308.7125
1095.13903	5155.5125
1098.80005	4921.7125
1102.45857	4749.9125
1106.11456	4681.8125
1109.76805	4699.6125
1113.41903	4794.7125
1117.06751	4907.0125
1120.71348	5055.5125
1124.35696	5233.5125
1127.99793	5364.6125
1131.63641	5357.1125
1135.2724	5184.7125
1138.90589	4943.5125
1142.5369	4793.7125
1146.16542	4720.0125
1149.79145	4635.7125
1153.415	4635.3125
1157.03607	4656.1125
1160.65467	4764.5125
1164.27079	4916.1125
1167.88443	5226.1125
1171.49561	5732.7125
1175.10432	6488.3125
1178.71056	7496.7125
1182.31434	8281.1125
1185.91565	8503.9125
1189.51451	8273.2125
1193.11091	7743.5125
1196.70485	7157.2125
1200.29634	6596.8125
1203.88538	6099.8125
1207.47197	5639.5125
1211.05612	5288.9125
1214.63782	5162.5125
1218.21708	5197.5125
1221.79391	5294.0125
1225.36829	5349.2125
1228.94024	5317.0125
1232.50976	5237.4125
1236.07685	5146.3125
1239.6415	5074.7125
1243.20374	5053.9125
1246.76355	5012.4125
1250.32093	5067.0125
1253.8759	5141.2125
1257.42845	5275.0125
1260.97859	5445.3125
1264.52631	5623.0125
1268.07163	5791.9125
1271.61453	5962.3125
1275.15503	6064.0125
1278.69312	6175.2125
1282.22882	6230.4125
1285.76211	6414.0125
1289.29301	6717.1125
1292.82151	7032.1125
1296.34761	7334.2125
1299.87133	7695.1125
1303.39266	8259.9125
1306.9116	9054.8125
1310.42815	10035.2125
1313.94233	10690.4125
1317.45412	10538.8125
1320.96354	9779.7125
1324.47058	8824.7125
1327.97525	8030.8125
1331.47754	7553.5125
1334.97747	7397.9125
1338.47502	7421.8125
1341.97022	7556.7125
1345.46305	7770.3125
1348.95352	8231.8125
1352.44163	9070.9125
1355.92738	10205.8125
1359.41078	11649.2125
1362.89183	12926.3125
1366.37053	12896.7125
1369.84688	11283.6125
1373.32088	9426.1125
1376.79254	8082.4125
1380.26186	7348.5125
1383.72883	6962.5125
1387.19347	6654.3125
1390.65578	6391.0125
1394.11575	6191.9125
1397.57339	6123.6125
1401.0287	6100.2125
1404.48168	6125.0125
1407.93234	6116.3125
1411.38068	6091.9125
1414.82669	6031.3125
1418.27039	5913.5125
1421.71177	5791.6125
1425.15083	5687.6125
1428.58758	5676.7125
1432.02203	5731.7125
1435.45416	5840.5125
1438.88399	5926.8125
1442.31151	5922.8125
1445.73673	5908.2125
1449.15965	5875.3125
1452.58027	5822.7125
1455.9986	5685.1125
1459.41463	5588.6125
1462.82837	5646.5125
1466.23982	5762.4125
1469.64898	5907.2125
1473.05586	6036.0125
1476.46045	6069.0125
1479.86276	6130.1125
1483.26279	6169.3125
1486.66054	6211.5125
1490.05602	6297.3125
1493.44922	6422.0125
1496.84016	6657.7125
1500.22882	7108.1125
1503.61521	7838.9125
1506.99934	8727.4125
1510.38121	9616.8125
1513.76081	10049.2125
1517.13816	9660.3125
1520.51324	8617.0125
1523.88607	7519.5125
1527.25665	6819.1125
1530.62498	6473.2125
1533.99105	6336.1125
1537.35488	6220.9125
1540.71647	6093.3125
1544.07581	6021.1125
1547.4329	5944.8125
1550.78776	5826.7125
1554.14038	5761.6125
1557.49077	5714.5125
1560.83892	5746.0125
1564.18484	5861.8125
1567.52853	6071.8125
1570.86999	6365.2125
1574.20922	6680.8125
1577.54624	6902.0125
1580.88103	6770.6125
1584.2136	6355.8125
1587.54395	5992.4125
1590.87208	5910.6125
1594.19801	6165.5125
1597.52172	6653.9125
1600.84321	6998.1125
1604.16251	6876.0125
1607.47959	6342.6125
1610.79447	5696.8125
1614.10715	5120.1125
1617.41763	4711.0125
1620.7259	4469.5125
1624.03199	4366.0125
1627.33587	4363.5125
1630.63757	4439.7125
1633.93707	4660.9125
1637.23439	5028.7125
1640.52951	5660.5125
1643.82246	6505.7125
1647.11321	7363.7125
1650.40179	7822.6125
1653.68819	7515.5125
1656.97241	6480.5125
1660.25446	5349.9125
1663.53433	4538.5125
1666.81203	4100.0125
1670.08756	3817.3125
1673.36092	3664.3125
1676.63211	3550.7125
1679.90115	3486.0125
1683.16801	3426.4125
1686.43272	3376.7125
1689.69527	3356.7125
1692.95567	3328.0125
1696.2139	3308.2125
1699.46999	3282.0125
1702.72392	3266.5125
1705.97571	3261.9125
1709.22535	3251.2125
1712.47284	3249.3125
1715.71819	3241.8125
1718.96139	3239.0125
1722.20246	3216.6125
1725.44139	3215.9125
1728.67818	3172.7125
1731.91284	3129.2125
1735.14537	3107.5125
1738.37576	3090.3125
1741.60403	3062.0125
1744.83017	3050.6125
1748.05418	3041.5125
1751.27607	3031.2125
1754.49584	3013.4125
1757.71349	2990.4125
1760.92903	2973.6125
1764.14244	2960.8125
1767.35375	2980.7125
1770.56294	2961.4125
1773.77002	2954.8125
1776.97499	2937.8125
1780.17785	2947.7125
1783.37861	2937.9125
1786.57727	2932.6125
1789.77382	2924.7125
1792.96828	2910.9125
1796.16064	2912.2125
1799.3509	2899.0125
1802.53907	2889.9125
1805.72514	2873.1125
1808.90913	2863.8125
1812.09102	2863.6125
1815.27083	2852.7125
1818.44856	2838.9125
1821.6242	2840.5125
1824.79776	2832.5125
1827.96924	2833.3125
1831.13864	2819.4125
1834.30597	2806.6125
1837.47122	2797.5125
1840.6344	2806.4125
1843.7955	2804.8125
1846.95454	2800.4125
1850.11151	2792.7125
1853.26642	2783.6125
1856.41926	2784.7125
1859.57004	2768.9125
1862.71876	2779.1125
1865.86542	2782.9125
1869.01003	2776.1125
1872.15258	2771.6125
1875.29308	2766.1125
1878.43152	2762.3125
1881.56792	2759.8125
1884.70227	2767.7125
1887.83457	2770.8125
1890.96482	2758.8125
1894.09304	2762.7125
1897.21921	2764.8125
1900.34335	2773.5125
1903.46544	2770.3125
1906.58551	2761.8125
1909.70353	2752.2125
1912.81953	2777.9125
1915.93349	2758.0125
1919.04543	2754.2125
1922.15534	2741.8125
1925.26322	2742.9125
1928.36908	2729.2125
1931.47292	2711.6125
1934.57473	2712.3125
1937.67453	2686.0125
1940.77232	2672.2125
1943.86808	2652.8125
1946.96184	2643.1125
1950.05358	2637.7125
1953.14331	2622.2125
1956.23103	2603.7125
1959.31675	2600.0125
1962.40046	2599.9125
1965.48217	2602.5125
1968.56188	2578.7125
1971.63959	2580.4125
1974.7153	2565.5125
1977.78901	2553.2125
1980.86073	2540.4125
1983.93046	2533.0125
1986.99819	2527.3125
1990.06394	2522.7125
1993.1277	2518.7125
1996.18947	2498.5125
1999.24925	2501.8125
2002.30706	2482.7125
2005.36288	2469.0125
2008.41672	2472.3125
2011.46859	2456.1125
2014.51848	2447.3125
2017.56639	2445.1125
2020.61233	2432.1125
2023.6563	2419.4125
2026.6983	2419.8125
2029.73833	2428.2125
2032.7764	2404.1125
2035.8125	2402.4125
2038.84664	2393.8125
2041.87881	2382.9125
2044.90903	2380.2125
2047.93729	2382.1125
2050.96359	2371.4125
2053.98794	2369.6125
2057.01034	2367.4125
2060.03078	2366.8125
2063.04927	2360.3125
2066.06582	2361.4125
2069.08042	2347.9125
2072.09307	2347.3125
2075.10378	2351.1125
2078.11255	2337.7125
2081.11938	2350.2125
2084.12426	2349.7125
2087.12722	2336.1125
2090.12824	2338.6125
2093.12732	2346.6125
2096.12447	2338.2125
2099.11969	2329.4125
2102.11299	2343.7125
2105.10435	2333.0125
2108.09379	2350.0125
2111.08131	2337.1125
2114.0669	2331.8125
2117.05057	2326.7125
2120.03233	2336.6125
2123.01216	2339.5125
2125.99008	2335.7125
2128.96609	2348.0125
2131.94018	2345.4125
2134.91236	2332.9125
2137.88263	2345.3125
2140.851	2327.8125
2143.81746	2344.5125
2146.78201	2330.1125
2149.74466	2328.0125
2152.7054	2330.3125
2155.66425	2329.7125
2158.6212	2341.8125
2161.57625	2331.9125
2164.52941	2311.3125
2167.48067	2325.3125
2170.43004	2316.3125
2173.37752	2326.9125
2176.32311	2307.7125
2179.26681	2312.9125
2182.20863	2316.2125
2185.14856	2326.3125
2188.08661	2315.1125
2191.02278	2323.1125
2193.95707	2316.7125
2196.88948	2322.0125
2199.82001	2304.3125
2202.74867	2303.4125
2205.67545	2303.2125
2208.60037	2290.8125
2211.52341	2286.8125
2214.44458	2281.9125
2217.36388	2269.4125
2220.28132	2281.5125
2223.1969	2255.1125
2226.11061	2256.8125
2229.02246	2247.8125
2231.93245	2239.7125
2234.84058	2236.8125
2237.74686	2234.0125
2240.65128	2228.2125
2243.55385	2225.8125
2246.45456	2225.4125
2249.35343	2224.0125
2252.25044	2220.6125
2255.14561	2206.5125
2258.03893	2215.1125
2260.93041	2214.0125
2263.82004	2215.4125
2266.70783	2203.6125
2269.59378	2189.7125
2272.4779	2184.5125
2275.36017	2186.9125
2278.24061	2176.9125
2281.11922	2176.9125
2283.996	2161.9125
2286.87094	2158.2125
2289.74405	2146.9125
2292.61534	2148.5125
2295.4848	2139.2125
2298.35243	2146.3125
2301.21824	2130.9125
2304.08223	2128.6125
2306.94439	2137.3125
2309.80474	2127.9125
2312.66327	2128.5125
2315.51999	2123.6125
2318.37489	2123.4125
2321.22797	2125.1125
2324.07925	2110.8125
2326.92871	2119.4125
2329.77637	2112.4125
2332.62222	2109.4125
2335.46626	2106.9125
2338.3085	2103.2125
2341.14893	2099.3125
2343.98756	2097.5125
2346.8244	2088.0125
2349.65943	2094.7125
2352.49267	2094.2125
2355.32411	2095.2125
2358.15376	2093.1125
2360.98161	2083.8125
2363.80768	2094.6125
2366.63195	2101.0125
2369.45444	2105.8125
2372.27514	2095.9125
2375.09405	2098.2125
2377.91118	2098.0125
2380.72652	2083.6125
2383.54009	2072.4125
2386.35187	2063.1125
2389.16188	2060.2125
2391.97011	2050.5125
2394.77657	2043.1125
2397.58125	2033.4125
2400.38416	2041.7125
2403.18529	2030.0125
2405.98466	2019.4125
2408.78226	2021.0125
2411.57809	2014.3125
2414.37216	2012.2125
2417.16446	2006.9125
2419.955	2002.4125
2422.74378	2009.4125
2425.5308	2006.6125
2428.31606	2003.4125
2431.09956	1992.8125
2433.88131	2003.6125
2436.6613	1996.3125
2439.43954	1996.0125
2442.21603	1987.0125
2444.99077	1991.9125
2447.76377	1992.2125
2450.53501	1994.7125
2453.30451	1991.1125
2456.07226	1986.4125
2458.83827	1986.9125
2461.60254	1989.5125
2464.36507	1989.5125
2467.12586	1979.5125
2469.88492	1975.4125
2472.64224	1981.9125
2475.39782	1976.9125
2478.15167	1983.2125
2480.90379	1990.8125
2483.65417	1987.3125
2486.40283	1990.0125
2489.14976	1978.8125
2491.89497	1988.1125
2494.63845	1994.7125
2497.3802	1989.0125
2500.12024	1985.3125
2502.85855	1985.3125
2505.59514	1977.5125
2508.33002	1970.0125
2511.06318	1959.1125
2513.79462	1965.2125
2516.52435	1954.1125
2519.25237	1943.4125
2521.97867	1939.2125
2524.70327	1937.6125
2527.42616	1934.0125
2530.14734	1922.3125
2532.86681	1927.2125
2535.58458	1924.8125
2538.30065	1929.2125
2541.01501	1932.7125
2543.72768	1925.0125
2546.43864	1927.1125
2549.14791	1931.0125
2551.85548	1933.1125
2554.56136	1925.1125
2557.26554	1925.3125
2559.96803	1924.1125
2562.66883	1918.5125
2565.36794	1917.4125
2568.06536	1912.8125
2570.7611	1910.9125
2573.45514	1909.9125
2576.14751	1894.2125
2578.83819	1895.9125
2581.52719	1900.8125
2584.21451	1892.2125
2586.90015	1893.1125
2589.58411	1899.7125
2592.2664	1884.8125
2594.94701	1875.5125
2597.62594	1897.2125
2600.30321	1888.5125
2602.9788	1886.9125
2605.65273	1883.2125
2608.32498	1883.6125
2610.99557	1872.1125
2613.66449	1865.3125
2616.33175	1877.3125
2618.99734	1875.0125
2621.66128	1872.0125
2624.32355	1876.4125
2626.98416	1865.3125
2629.64311	1869.7125
2632.30041	1862.8125
2634.95605	1852.8125
2637.61004	1877.0125
2640.26238	1877.3125
2642.91306	1862.5125
2645.56209	1863.3125
2648.20948	1865.1125
2650.85521	1872.8125
2653.4993	1880.8125
2656.14175	1876.6125
2658.78255	1881.9125
2661.42171	1888.1125
2664.05923	1899.0125
2666.6951	1892.7125
2669.32934	1895.2125
2671.96194	1893.7125
2674.59291	1891.6125
2677.22224	1897.8125
2679.84993	1895.6125
2682.476	1899.6125
2685.10043	1894.4125
2687.72324	1902.4125
2690.34441	1901.0125
2692.96396	1913.8125
2695.58188	1912.0125
2698.19818	1916.1125
2700.81285	1922.0125
2703.4259	1925.2125
2706.03733	1933.5125
2708.64714	1939.8125
2711.25533	1941.0125
2713.86191	1956.4125
2716.46687	1974.4125
2719.07021	1970.1125
2721.67194	1984.8125
2724.27206	1991.8125
2726.87057	2002.4125
2729.46747	2016.7125
2732.06276	2019.5125
2734.65644	2032.6125
2737.24852	2036.7125
2739.83899	2048.7125
2742.42786	2070.1125
2745.01513	2076.1125
2747.60079	2090.5125
2750.18486	2099.9125
2752.76733	2109.1125
2755.3482	2115.5125
2757.92747	2135.9125
2760.50515	2142.9125
2763.08123	2163.0125
2765.65573	2171.6125
2768.22863	2181.3125
2770.79994	2195.9125
2773.36967	2193.0125
2775.9378	2224.2125
2778.50435	2222.1125
2781.06932	2233.3125
2783.6327	2252.1125
2786.1945	2276.1125
2788.75471	2280.2125
2791.31335	2304.2125
2793.87041	2310.7125
2796.42589	2318.8125
2798.97979	2332.2125
2801.53212	2341.0125
2804.08288	2364.8125
2806.63206	2380.2125
2809.17967	2392.7125
2811.72571	2414.4125
2814.27018	2432.1125
2816.81308	2441.4125
2819.35442	2457.4125
2821.89419	2469.1125
2824.43239	2474.0125
2826.96904	2477.0125
2829.50412	2478.9125
2832.03763	2491.5125
2834.56959	2484.2125
2837.1	2497.2125
2839.62884	2515.0125
2842.15613	2547.4125
2844.68186	2592.0125
2847.20604	2656.3125
2849.72867	2702.5125
2852.24974	2733.7125
2854.76927	2740.2125
2857.28724	2751.0125
2859.80367	2730.9125
2862.31855	2751.2125
2864.83189	2756.2125
2867.34368	2740.1125
2869.85393	2729.7125
2872.36264	2730.3125
2874.8698	2735.9125
2877.37543	2722.7125
2879.87952	2704.8125
2882.38207	2699.0125
2884.88308	2705.3125
2887.38256	2716.7125
2889.88051	2694.4125
2892.37692	2700.7125
2894.8718	2690.2125
2897.36515	2675.0125
2899.85698	2683.8125
2902.34727	2666.8125
2904.83604	2663.4125
2907.32328	2648.3125
2909.809	2648.9125
2912.29319	2642.2125
2914.77587	2632.5125
2917.25702	2621.4125
2919.73665	2619.9125
2922.21476	2631.7125
2924.69136	2622.1125
2927.16644	2612.7125
2929.64	2582.5125
2932.11205	2565.9125
2934.58258	2547.6125
2937.05161	2521.5125
2939.51912	2470.0125
2941.98513	2431.7125
2944.44962	2370.3125
2946.91261	2309.3125
2949.37409	2271.5125
2951.83407	2214.1125
2954.29254	2173.2125
2956.74951	2146.9125
2959.20498	2111.4125
2961.65895	2081.0125
2964.11142	2049.7125
2966.56239	2021.1125
2969.01186	2003.2125
2971.45984	1966.8125
2973.90632	1947.3125
2976.35131	1929.4125
2978.7948	1908.6125
2981.23681	1874.9125
2983.67732	1866.1125
2986.11635	1842.7125
2988.55388	1830.2125
2990.98993	1817.1125
2993.4245	1805.4125
2995.85758	1784.0125
2998.28917	1768.9125
3000.71928	1769.2125
3003.14791	1760.9125
3005.57506	1752.6125
3008.00073	1745.2125
3010.42493	1740.9125
3012.84764	1740.8125
3015.26888	1740.3125
3017.68865	1729.7125
3020.10694	1729.9125
3022.52376	1725.2125
3024.9391	1715.8125
3027.35298	1718.1125
3029.76539	1711.9125
3032.17632	1704.2125
3034.5858	1712.6125
3036.9938	1712.0125
3039.40034	1707.9125
3041.80542	1711.2125
3044.20903	1701.9125
3046.61118	1698.1125
3049.01187	1698.7125
3051.4111	1686.9125
3053.80888	1695.0125
3056.20519	1700.1125
3058.60005	1703.7125
3060.99345	1704.1125
3063.3854	1709.7125
3065.7759	1694.9125
3068.16494	1703.3125
3070.55254	1710.7125
3072.93868	1713.9125
3075.32338	1704.6125
3077.70662	1696.4125
3080.08842	1691.5125
3082.46878	1696.9125
3084.84769	1697.8125
3087.22515	1700.6125
3089.60118	1696.2125
3091.97576	1698.2125
3094.3489	1702.8125
3096.72061	1699.7125
3099.09087	1705.6125
3101.4597	1704.1125
3103.82709	1708.5125
3106.19305	1709.0125
3108.55757	1712.5125
3110.92066	1727.0125
3113.28232	1717.7125
3115.64255	1719.9125
3118.00134	1725.6125
3120.35871	1726.4125
3122.71466	1737.6125
