Data from AgNP_FTO_APTES_CRN_0uM_R6G_10uM_NaF_0.1M_Addition_RamanShift__18__11-50-42-916.txt Node

Date: Wed Dec 15 11:50:42 GMT 2021
User: TCL
Spectrometer: QEP01345
Trigger mode: 4
Integration Time (sec): 7.000000E0
Scans to average: 10
Electric dark correction enabled: true
Nonlinearity correction enabled: false
Boxcar width: 0
XAxis mode: Raman Shifts
Number of Pixels in Spectrum: 1044
>>>>>Begin Spectral Data<<<<<
46.04893	1.8125
50.45542	-1.5875
54.85868	-0.3875
59.25871	0.3125
63.6555	59.5125
68.04907	67.5125
72.43941	71.7125
76.82654	79.9125
81.21044	81.7125
85.59113	85.2125
89.96862	93.5125
94.34289	94.5125
98.71396	95.8125
103.08183	104.0125
107.4465	102.6125
111.80798	96.6125
116.16626	103.0125
120.52136	104.9125
124.87327	102.0125
129.222	105.4125
133.56755	103.5125
137.90993	107.3125
142.24913	112.4125
146.58517	116.0125
150.91804	124.0125
155.24774	135.6125
159.57429	160.4125
163.89768	190.5125
168.21792	232.9125
172.53501	299.2125
176.84895	389.9125
181.15975	528.6125
185.46741	721.5125
189.77193	991.5125
194.07331	1324.9125
198.37157	1684.4125
202.6667	2097.7125
206.9587	2499.3125
211.24758	2904.3125
215.53334	3319.0125
219.81599	3767.2125
224.09553	4274.6125
228.37195	4808.8125
232.64527	5404.3125
236.91549	5977.3125
241.18261	6487.0125
245.44663	6880.7125
249.70755	7187.7125
253.96539	7405.5125
258.22014	7580.4125
262.4718	7755.4125
266.72039	7872.3125
270.96589	7892.5125
275.20832	7792.4125
279.44768	7647.5125
283.68397	7436.1125
287.91719	7288.4125
292.14735	7203.9125
296.37445	7266.2125
300.59849	7477.8125
304.81948	7786.0125
309.03742	8040.2125
313.25231	8136.0125
317.46415	7956.7125
321.67296	7599.2125
325.87872	7261.3125
330.08145	7077.4125
334.28114	7032.8125
338.47781	7080.9125
342.67145	7202.6125
346.86207	7356.8125
351.04966	7619.9125
355.23424	7933.0125
359.4158	8156.8125
363.59435	8255.5125
367.76989	8280.6125
371.94243	8210.1125
376.11196	8136.4125
380.27849	8113.9125
384.44203	8043.5125
388.60257	7976.3125
392.76012	7897.9125
396.91468	7885.5125
401.06626	8005.7125
405.21485	8126.3125
409.36047	7973.3125
413.50311	7578.3125
417.64277	7193.5125
421.77947	7024.1125
425.9132	6977.6125
430.04396	6994.5125
434.17176	7079.2125
438.2966	7241.5125
442.41849	7548.8125
446.53742	7953.2125
450.6534	8320.6125
454.76644	8439.9125
458.87653	8237.3125
462.98368	7920.4125
467.08789	7608.9125
471.18916	7345.5125
475.2875	7088.4125
479.38291	6878.7125
483.4754	6769.2125
487.56496	6708.1125
491.6516	6677.0125
495.73531	6729.2125
499.81612	6784.4125
503.89401	6923.8125
507.96899	7025.5125
512.04106	7169.3125
516.11023	7319.0125
520.1765	7469.2125
524.23987	7529.1125
528.30034	7530.2125
532.35792	7447.6125
536.41261	7283.6125
540.46441	7027.5125
544.51333	6871.6125
548.55936	6875.9125
552.60252	7041.9125
556.64279	7310.6125
560.6802	7481.8125
564.71473	7477.9125
568.7464	7490.2125
572.7752	7529.9125
576.80114	7317.3125
580.82422	7133.9125
584.84444	7280.8125
588.86181	7806.9125
592.87633	8710.2125
596.888	9312.1125
600.89682	8970.4125
604.9028	8904.9125
608.90594	10493.4125
612.90624	13016.4125
616.90371	12685.9125
620.89834	9037.6125
624.89015	7084.8125
628.87913	6634.3125
632.86528	6627.5125
636.84862	6700.9125
640.82913	6606.4125
644.80683	6325.3125
648.78172	6175.7125
652.75379	6197.5125
656.72306	6435.5125
660.68952	6746.0125
664.65319	6631.8125
668.61405	6261.8125
672.57211	6101.5125
676.52738	6110.9125
680.47986	6092.1125
684.42955	6046.0125
688.37646	5951.9125
692.32058	5946.9125
696.26192	6001.4125
700.20048	6124.3125
704.13626	6190.0125
708.06928	6193.0125
711.99952	6182.1125
715.927	6206.7125
719.85171	6260.5125
723.77365	6285.0125
727.69284	6240.2125
731.60928	6178.4125
735.52295	6219.5125
739.43388	6270.5125
743.34206	6275.1125
747.24749	6292.2125
751.15017	6303.3125
755.05012	6384.1125
758.94733	6627.2125
762.8418	7319.8125
766.73354	8574.5125
770.62254	9997.2125
774.50882	10691.8125
778.39237	10171.3125
782.27321	8830.2125
786.15132	7525.8125
790.02671	6733.2125
793.89938	6342.0125
797.76935	6176.2125
801.6366	6123.8125
805.50115	6034.8125
809.36299	5978.4125
813.22213	5921.2125
817.07857	5879.5125
820.93231	5857.4125
824.78336	5848.8125
828.63172	5856.4125
832.47738	5881.9125
836.32036	5867.1125
840.16066	5879.3125
843.99827	5870.7125
847.8332	5849.7125
851.66546	5857.5125
855.49504	5868.7125
859.32195	5859.8125
863.1462	5820.2125
866.96777	5821.9125
870.78668	5805.8125
874.60293	5808.7125
878.41652	5820.7125
882.22745	5869.4125
886.03573	5920.4125
889.84136	5948.9125
893.64433	5953.4125
897.44466	5962.6125
901.24235	6010.5125
905.0374	6035.7125
908.8298	6076.3125
912.61957	6124.0125
916.40671	6235.6125
920.19121	6330.3125
923.97308	6502.1125
927.75233	6610.9125
931.52895	6674.2125
935.30295	6538.0125
939.07433	6293.7125
942.84309	6067.7125
946.60924	5907.2125
950.37278	5821.2125
954.13371	5733.8125
957.89203	5669.7125
961.64774	5588.6125
965.40086	5541.5125
969.15137	5503.6125
972.89929	5472.7125
976.64461	5460.0125
980.38733	5454.8125
984.12747	5453.8125
987.86502	5497.7125
991.59999	5535.6125
995.33237	5611.1125
999.06217	5750.6125
1002.78939	5893.9125
1006.51404	6037.5125
1010.23611	6156.0125
1013.95561	6247.8125
1017.67255	6249.6125
1021.38692	6136.2125
1025.09872	5908.5125
1028.80796	5760.3125
1032.51465	5675.7125
1036.21877	5702.7125
1039.92035	5769.7125
1043.61937	5820.8125
1047.31584	5877.8125
1051.00976	5942.4125
1054.70114	5994.9125
1058.38998	6050.9125
1062.07627	6085.8125
1065.76003	6121.5125
1069.44126	6172.3125
1073.11995	6288.5125
1076.79611	6414.7125
1080.46974	6456.7125
1084.14085	6532.5125
1087.80943	6613.8125
1091.47549	6584.6125
1095.13903	6409.0125
1098.80005	6112.6125
1102.45857	5860.7125
1106.11456	5764.0125
1109.76805	5791.8125
1113.41903	5901.5125
1117.06751	6071.0125
1120.71348	6315.7125
1124.35696	6555.9125
1127.99793	6799.3125
1131.63641	6832.5125
1135.2724	6531.7125
1138.90589	6177.7125
1142.5369	5983.9125
1146.16542	5858.9125
1149.79145	5785.1125
1153.415	5742.3125
1157.03607	5765.4125
1160.65467	5860.1125
1164.27079	6089.2125
1167.88443	6557.9125
1171.49561	7310.6125
1175.10432	8488.8125
1178.71056	10029.8125
1182.31434	11337.1125
1185.91565	11569.8125
1189.51451	10871.0125
1193.11091	9822.5125
1196.70485	8889.2125
1200.29634	8139.5125
1203.88538	7522.1125
1207.47197	6910.6125
1211.05612	6407.6125
1214.63782	6171.6125
1218.21708	6185.3125
1221.79391	6371.0125
1225.36829	6570.6125
1228.94024	6622.4125
1232.50976	6477.9125
1236.07685	6200.0125
1239.6415	6033.8125
1243.20374	5932.2125
1246.76355	5907.8125
1250.32093	5936.8125
1253.8759	6058.5125
1257.42845	6268.6125
1260.97859	6490.2125
1264.52631	6756.2125
1268.07163	7028.3125
1271.61453	7267.8125
1275.15503	7454.0125
1278.69312	7579.2125
1282.22882	7734.1125
1285.76211	8073.2125
1289.29301	8607.9125
1292.82151	9133.5125
1296.34761	9673.9125
1299.87133	10306.7125
1303.39266	11246.5125
1306.9116	12595.1125
1310.42815	14260.3125
1313.94233	15497.6125
1317.45412	15383.4125
1320.96354	13959.8125
1324.47058	12203.5125
1327.97525	10647.5125
1331.47754	9573.3125
1334.97747	9063.6125
1338.47502	8879.7125
1341.97022	8905.6125
1345.46305	9168.3125
1348.95352	9979.7125
1352.44163	11372.9125
1355.92738	13356.3125
1359.41078	15923.9125
1362.89183	18463.8125
1366.37053	18788.4125
1369.84688	15986.6125
1373.32088	12360.3125
1376.79254	9981.6125
1380.26186	8937.4125
1383.72883	8565.3125
1387.19347	8242.1125
1390.65578	7815.2125
1394.11575	7595.9125
1397.57339	7541.9125
1401.0287	7605.0125
1404.48168	7676.7125
1407.93234	7624.4125
1411.38068	7481.6125
1414.82669	7375.2125
1418.27039	7223.6125
1421.71177	7130.4125
1425.15083	6945.5125
1428.58758	6843.2125
1432.02203	6946.6125
1435.45416	7128.5125
1438.88399	7293.5125
1442.31151	7329.6125
1445.73673	7315.1125
1449.15965	7307.2125
1452.58027	7195.4125
1455.9986	6911.2125
1459.41463	6756.5125
1462.82837	6767.5125
1466.23982	6987.1125
1469.64898	7241.9125
1473.05586	7416.1125
1476.46045	7563.1125
1479.86276	7696.5125
1483.26279	7790.6125
1486.66054	7931.5125
1490.05602	8143.5125
1493.44922	8425.8125
1496.84016	8885.5125
1500.22882	9689.5125
1503.61521	10948.0125
1506.99934	12504.6125
1510.38121	14064.6125
1513.76081	14803.7125
1517.13816	14051.7125
1520.51324	12167.6125
1523.88607	10284.5125
1527.25665	9052.8125
1530.62498	8468.1125
1533.99105	8110.4125
1537.35488	7794.2125
1540.71647	7522.7125
1544.07581	7308.5125
1547.4329	7127.8125
1550.78776	7011.6125
1554.14038	6918.4125
1557.49077	6916.8125
1560.83892	7029.3125
1564.18484	7238.8125
1567.52853	7591.7125
1570.86999	8025.2125
1574.20922	8409.2125
1577.54624	8628.1125
1580.88103	8321.6125
1584.2136	7645.6125
1587.54395	7151.6125
1590.87208	7058.7125
1594.19801	7470.6125
1597.52172	8270.0125
1600.84321	8872.6125
1604.16251	8720.4125
1607.47959	7938.2125
1610.79447	6973.1125
1614.10715	6135.5125
1617.41763	5568.6125
1620.7259	5255.4125
1624.03199	5097.4125
1627.33587	5116.4125
1630.63757	5250.8125
1633.93707	5589.8125
1637.23439	6214.5125
1640.52951	7333.5125
1643.82246	9036.4125
1647.11321	10816.1125
1650.40179	11822.0125
1653.68819	11129.8125
1656.97241	9195.8125
1660.25446	7160.0125
1663.53433	5793.9125
1666.81203	5016.5125
1670.08756	4577.7125
1673.36092	4327.0125
1676.63211	4166.8125
1679.90115	4044.5125
1683.16801	3968.2125
1686.43272	3903.7125
1689.69527	3876.2125
1692.95567	3831.3125
1696.2139	3810.4125
1699.46999	3774.3125
1702.72392	3754.0125
1705.97571	3751.2125
1709.22535	3754.2125
1712.47284	3748.8125
1715.71819	3745.7125
1718.96139	3731.2125
1722.20246	3703.2125
1725.44139	3670.5125
1728.67818	3640.0125
1731.91284	3604.3125
1735.14537	3567.0125
1738.37576	3548.2125
1741.60403	3525.5125
1744.83017	3510.9125
1748.05418	3475.4125
1751.27607	3468.7125
1754.49584	3451.4125
1757.71349	3434.9125
1760.92903	3406.6125
1764.14244	3404.3125
1767.35375	3392.0125
1770.56294	3374.9125
1773.77002	3356.5125
1776.97499	3370.5125
1780.17785	3340.8125
1783.37861	3349.6125
1786.57727	3321.8125
1789.77382	3322.5125
1792.96828	3298.4125
1796.16064	3290.0125
1799.3509	3279.0125
1802.53907	3277.3125
1805.72514	3267.9125
1808.90913	3259.0125
1812.09102	3243.2125
1815.27083	3226.3125
1818.44856	3211.7125
1821.6242	3210.0125
1824.79776	3190.9125
1827.96924	3194.5125
1831.13864	3205.0125
1834.30597	3177.0125
1837.47122	3166.9125
1840.6344	3162.0125
1843.7955	3165.0125
1846.95454	3169.8125
1850.11151	3153.9125
1853.26642	3139.7125
1856.41926	3137.8125
1859.57004	3133.9125
1862.71876	3132.8125
1865.86542	3129.1125
1869.01003	3129.2125
1872.15258	3122.4125
1875.29308	3105.1125
1878.43152	3098.5125
1881.56792	3097.9125
1884.70227	3108.7125
1887.83457	3102.2125
1890.96482	3098.0125
1894.09304	3095.5125
1897.21921	3091.2125
1900.34335	3080.7125
1903.46544	3086.8125
1906.58551	3076.1125
1909.70353	3075.6125
1912.81953	3087.2125
1915.93349	3049.2125
1919.04543	3054.6125
1922.15534	3027.7125
1925.26322	3030.1125
1928.36908	3003.6125
1931.47292	2991.1125
1934.57473	2976.1125
1937.67453	2970.7125
1940.77232	2946.0125
1943.86808	2947.4125
1946.96184	2929.9125
1950.05358	2918.7125
1953.14331	2912.3125
1956.23103	2908.4125
1959.31675	2898.6125
1962.40046	2890.6125
1965.48217	2880.9125
1968.56188	2863.6125
1971.63959	2846.2125
1974.7153	2864.9125
1977.78901	2853.7125
1980.86073	2837.9125
1983.93046	2812.4125
1986.99819	2803.2125
1990.06394	2777.3125
1993.1277	2799.0125
1996.18947	2780.0125
1999.24925	2758.2125
2002.30706	2738.2125
2005.36288	2747.8125
2008.41672	2731.5125
2011.46859	2738.7125
2014.51848	2706.9125
2017.56639	2702.3125
2020.61233	2682.1125
2023.6563	2683.9125
2026.6983	2671.4125
2029.73833	2680.6125
2032.7764	2665.6125
2035.8125	2638.9125
2038.84664	2646.6125
2041.87881	2638.2125
2044.90903	2637.5125
2047.93729	2633.0125
2050.96359	2623.3125
2053.98794	2615.2125
2057.01034	2606.8125
2060.03078	2601.1125
2063.04927	2597.8125
2066.06582	2591.0125
2069.08042	2593.7125
2072.09307	2593.4125
2075.10378	2576.6125
2078.11255	2574.0125
2081.11938	2586.5125
2084.12426	2582.5125
2087.12722	2582.4125
2090.12824	2570.1125
2093.12732	2576.2125
2096.12447	2579.2125
2099.11969	2569.4125
2102.11299	2564.0125
2105.10435	2562.4125
2108.09379	2582.4125
2111.08131	2568.5125
2114.0669	2568.1125
2117.05057	2558.4125
2120.03233	2554.2125
2123.01216	2570.3125
2125.99008	2571.6125
2128.96609	2567.8125
2131.94018	2562.7125
2134.91236	2560.3125
2137.88263	2570.3125
2140.851	2558.6125
2143.81746	2554.2125
2146.78201	2556.4125
2149.74466	2549.4125
2152.7054	2548.3125
2155.66425	2531.6125
2158.6212	2538.9125
2161.57625	2526.4125
2164.52941	2530.0125
2167.48067	2534.7125
2170.43004	2515.2125
2173.37752	2529.1125
2176.32311	2524.1125
2179.26681	2518.5125
2182.20863	2524.0125
2185.14856	2522.0125
2188.08661	2518.5125
2191.02278	2515.4125
2193.95707	2529.6125
2196.88948	2526.1125
2199.82001	2521.9125
2202.74867	2498.1125
2205.67545	2495.5125
2208.60037	2491.4125
2211.52341	2485.8125
2214.44458	2488.6125
2217.36388	2480.0125
2220.28132	2480.6125
2223.1969	2456.0125
2226.11061	2459.0125
2229.02246	2451.6125
2231.93245	2436.7125
2234.84058	2430.9125
2237.74686	2435.5125
2240.65128	2434.1125
2243.55385	2428.8125
2246.45456	2428.2125
2249.35343	2433.8125
2252.25044	2415.9125
2255.14561	2408.1125
2258.03893	2419.0125
2260.93041	2409.0125
2263.82004	2393.3125
2266.70783	2387.6125
2269.59378	2384.7125
2272.4779	2374.4125
2275.36017	2366.9125
2278.24061	2369.1125
2281.11922	2346.4125
2283.996	2345.3125
2286.87094	2347.0125
2289.74405	2323.8125
2292.61534	2321.7125
2295.4848	2302.4125
2298.35243	2305.8125
2301.21824	2304.1125
2304.08223	2300.1125
2306.94439	2298.5125
2309.80474	2303.6125
2312.66327	2289.2125
2315.51999	2294.7125
2318.37489	2290.1125
2321.22797	2289.6125
2324.07925	2288.4125
2326.92871	2274.1125
2329.77637	2281.9125
2332.62222	2262.7125
2335.46626	2270.7125
2338.3085	2265.0125
2341.14893	2258.7125
2343.98756	2261.1125
2346.8244	2259.5125
2349.65943	2255.4125
2352.49267	2263.0125
2355.32411	2252.7125
2358.15376	2268.5125
2360.98161	2269.9125
2363.80768	2276.7125
2366.63195	2286.4125
2369.45444	2285.0125
2372.27514	2283.7125
2375.09405	2276.7125
2377.91118	2269.1125
2380.72652	2249.5125
2383.54009	2249.1125
2386.35187	2241.0125
2389.16188	2226.9125
2391.97011	2206.4125
2394.77657	2207.2125
2397.58125	2194.1125
2400.38416	2183.2125
2403.18529	2183.1125
2405.98466	2166.9125
2408.78226	2175.8125
2411.57809	2163.8125
2414.37216	2162.1125
2417.16446	2161.3125
2419.955	2160.3125
2422.74378	2155.5125
2425.5308	2141.0125
2428.31606	2142.1125
2431.09956	2135.5125
2433.88131	2137.8125
2436.6613	2135.0125
2439.43954	2125.4125
2442.21603	2138.4125
2444.99077	2136.7125
2447.76377	2139.2125
2450.53501	2127.6125
2453.30451	2147.5125
2456.07226	2127.1125
2458.83827	2138.6125
2461.60254	2127.8125
2464.36507	2129.8125
2467.12586	2133.4125
2469.88492	2123.4125
2472.64224	2117.9125
2475.39782	2130.0125
2478.15167	2128.4125
2480.90379	2127.7125
2483.65417	2129.4125
2486.40283	2133.1125
2489.14976	2138.3125
2491.89497	2132.2125
2494.63845	2155.1125
2497.3802	2119.8125
2500.12024	2135.4125
2502.85855	2135.0125
2505.59514	2110.9125
2508.33002	2112.1125
2511.06318	2089.8125
2513.79462	2078.5125
2516.52435	2074.6125
2519.25237	2052.2125
2521.97867	2053.5125
2524.70327	2050.3125
2527.42616	2047.1125
2530.14734	2045.5125
2532.86681	2045.4125
2535.58458	2028.6125
2538.30065	2038.6125
2541.01501	2035.9125
2543.72768	2034.9125
2546.43864	2027.6125
2549.14791	2029.8125
2551.85548	2031.1125
2554.56136	2023.9125
2557.26554	2019.7125
2559.96803	2017.5125
2562.66883	2029.6125
2565.36794	2016.8125
2568.06536	2021.3125
2570.7611	2022.7125
2573.45514	2007.8125
2576.14751	2009.4125
2578.83819	2003.2125
2581.52719	1994.0125
2584.21451	1990.8125
2586.90015	1991.6125
2589.58411	1991.2125
2592.2664	1994.9125
2594.94701	1967.2125
2597.62594	1964.9125
2600.30321	1966.7125
2602.9788	1971.7125
2605.65273	1955.9125
2608.32498	1962.6125
2610.99557	1960.1125
2613.66449	1957.5125
2616.33175	1955.8125
2618.99734	1957.9125
2621.66128	1951.7125
2624.32355	1952.6125
2626.98416	1938.3125
2629.64311	1942.7125
2632.30041	1940.6125
2634.95605	1951.9125
2637.61004	1936.3125
2640.26238	1929.9125
2642.91306	1945.0125
2645.56209	1929.9125
2648.20948	1930.2125
2650.85521	1924.3125
2653.4993	1926.2125
2656.14175	1944.3125
2658.78255	1951.6125
2661.42171	1941.6125
2664.05923	1940.4125
2666.6951	1941.7125
2669.32934	1951.8125
2671.96194	1946.3125
2674.59291	1956.1125
2677.22224	1957.0125
2679.84993	1955.2125
2682.476	1956.0125
2685.10043	1954.6125
2687.72324	1954.2125
2690.34441	1944.4125
2692.96396	1934.2125
2695.58188	1938.1125
2698.19818	1954.0125
2700.81285	1957.2125
2703.4259	1954.0125
2706.03733	1940.0125
2708.64714	1946.9125
2711.25533	1968.3125
2713.86191	1973.5125
2716.46687	1981.7125
2719.07021	1996.0125
2721.67194	1992.5125
2724.27206	1993.0125
2726.87057	2007.2125
2729.46747	2002.7125
2732.06276	2007.8125
2734.65644	2009.5125
2737.24852	2011.8125
2739.83899	2029.4125
2742.42786	2020.8125
2745.01513	2029.1125
2747.60079	2029.4125
2750.18486	2026.9125
2752.76733	2038.2125
2755.3482	2039.2125
2757.92747	2050.9125
2760.50515	2054.9125
2763.08123	2046.6125
2765.65573	2057.9125
2768.22863	2059.2125
2770.79994	2050.6125
2773.36967	2047.5125
2775.9378	2054.1125
2778.50435	2061.5125
2781.06932	2060.0125
2783.6327	2067.2125
2786.1945	2063.2125
2788.75471	2074.0125
2791.31335	2068.1125
2793.87041	2064.3125
2796.42589	2070.8125
2798.97979	2074.4125
2801.53212	2079.5125
2804.08288	2083.8125
2806.63206	2076.9125
2809.17967	2081.9125
2811.72571	2070.5125
2814.27018	2088.3125
2816.81308	2086.3125
2819.35442	2080.6125
2821.89419	2091.2125
2824.43239	2083.5125
2826.96904	2082.2125
2829.50412	2097.2125
2832.03763	2100.7125
2834.56959	2105.5125
2837.1	2128.4125
2839.62884	2126.0125
2842.15613	2147.6125
2844.68186	2182.8125
2847.20604	2218.9125
2849.72867	2245.4125
2852.24974	2279.8125
2854.76927	2297.2125
2857.28724	2319.9125
2859.80367	2341.2125
2862.31855	2376.6125
2864.83189	2392.4125
2867.34368	2409.3125
2869.85393	2415.3125
2872.36264	2441.6125
2874.8698	2453.1125
2877.37543	2476.9125
2879.87952	2493.3125
2882.38207	2519.2125
2884.88308	2529.5125
2887.38256	2544.9125
2889.88051	2542.9125
2892.37692	2554.5125
2894.8718	2546.1125
2897.36515	2553.0125
2899.85698	2552.3125
2902.34727	2557.1125
2904.83604	2546.5125
2907.32328	2555.2125
2909.809	2548.3125
2912.29319	2563.9125
2914.77587	2549.6125
2917.25702	2541.7125
2919.73665	2534.2125
2922.21476	2548.7125
2924.69136	2535.8125
2927.16644	2524.5125
2929.64	2512.1125
2932.11205	2493.5125
2934.58258	2477.6125
2937.05161	2470.0125
2939.51912	2435.5125
2941.98513	2409.9125
2944.44962	2366.2125
2946.91261	2320.4125
2949.37409	2295.2125
2951.83407	2245.7125
2954.29254	2223.1125
2956.74951	2188.3125
2959.20498	2169.3125
2961.65895	2124.3125
2964.11142	2093.1125
2966.56239	2072.2125
2969.01186	2043.0125
2971.45984	2024.6125
2973.90632	1997.2125
2976.35131	1958.6125
2978.7948	1942.3125
2981.23681	1938.8125
2983.67732	1911.8125
2986.11635	1902.9125
2988.55388	1873.0125
2990.98993	1859.3125
2993.4245	1849.4125
2995.85758	1836.2125
2998.28917	1828.2125
3000.71928	1822.4125
3003.14791	1816.8125
3005.57506	1821.5125
3008.00073	1802.8125
3010.42493	1802.5125
3012.84764	1795.8125
3015.26888	1781.4125
3017.68865	1781.1125
3020.10694	1785.3125
3022.52376	1781.7125
3024.9391	1759.4125
3027.35298	1769.1125
3029.76539	1751.4125
3032.17632	1766.8125
3034.5858	1761.5125
3036.9938	1753.8125
3039.40034	1748.0125
3041.80542	1753.6125
3044.20903	1742.3125
3046.61118	1745.1125
3049.01187	1745.1125
3051.4111	1734.5125
3053.80888	1731.6125
3056.20519	1746.4125
3058.60005	1742.3125
3060.99345	1739.5125
3063.3854	1736.7125
3065.7759	1737.9125
3068.16494	1742.4125
3070.55254	1744.8125
3072.93868	1742.2125
3075.32338	1736.8125
3077.70662	1741.1125
3080.08842	1726.7125
3082.46878	1734.7125
3084.84769	1742.2125
3087.22515	1735.1125
3089.60118	1734.6125
3091.97576	1732.9125
3094.3489	1742.6125
3096.72061	1737.8125
3099.09087	1741.9125
3101.4597	1742.0125
3103.82709	1753.2125
3106.19305	1747.3125
3108.55757	1762.0125
3110.92066	1759.0125
3113.28232	1765.0125
3115.64255	1764.2125
3118.00134	1764.8125
3120.35871	1756.0125
