Data from AgNP_FTO_APTES_CRN_100uM_R6G_10uM_NaF_0.1M_Addition_RamanShift__31__19-07-38-146.txt Node

Date: Wed Dec 15 19:07:38 GMT 2021
User: TCL
Spectrometer: QEP01345
Trigger mode: 4
Integration Time (sec): 7.000000E0
Scans to average: 10
Electric dark correction enabled: true
Nonlinearity correction enabled: false
Boxcar width: 0
XAxis mode: Raman Shifts
Number of Pixels in Spectrum: 1044
>>>>>Begin Spectral Data<<<<<
46.04893	0.4125
50.45542	-0.3875
54.85868	-0.5875
59.25871	-1.7875
63.6555	58.8125
68.04907	69.3125
72.43941	70.1125
76.82654	74.9125
81.21044	76.4125
85.59113	80.7125
89.96862	84.9125
94.34289	82.7125
98.71396	89.3125
103.08183	92.5125
107.4465	94.7125
111.80798	95.4125
116.16626	99.5125
120.52136	105.9125
124.87327	103.0125
129.222	113.1125
133.56755	109.8125
137.90993	123.8125
142.24913	134.9125
146.58517	148.4125
150.91804	168.2125
155.24774	193.8125
159.57429	248.1125
163.89768	308.8125
168.21792	413.2125
172.53501	560.5125
176.84895	769.0125
181.15975	1085.7125
185.46741	1523.3125
189.77193	2091.5125
194.07331	2802.0125
198.37157	3615.5125
202.6667	4465.7125
206.9587	5325.3125
211.24758	6174.1125
215.53334	7009.2125
219.81599	7950.7125
224.09553	8976.7125
228.37195	10126.3125
232.64527	11330.0125
236.91549	12610.2125
241.18261	13835.1125
245.44663	14914.8125
249.70755	15846.1125
253.96539	16655.1125
258.22014	17369.1125
262.4718	18000.0125
266.72039	18439.2125
270.96589	18705.5125
275.20832	18697.9125
279.44768	18575.8125
283.68397	18350.1125
287.91719	18180.3125
292.14735	18121.6125
296.37445	18320.4125
300.59849	18633.8125
304.81948	19093.3125
309.03742	19333.1125
313.25231	19228.1125
317.46415	18591.9125
321.67296	17654.5125
325.87872	16830.3125
330.08145	16454.5125
334.28114	16457.0125
338.47781	16636.9125
342.67145	16984.2125
346.86207	17479.5125
351.04966	18172.6125
355.23424	18978.3125
359.4158	19604.5125
363.59435	19966.8125
367.76989	20096.8125
371.94243	20114.4125
376.11196	20104.8125
380.27849	20066.3125
384.44203	20008.0125
388.60257	19883.5125
392.76012	19824.6125
396.91468	20010.6125
401.06626	20383.1125
405.21485	20690.7125
409.36047	20484.9125
413.50311	19800.0125
417.64277	19171.7125
421.77947	18812.4125
425.9132	18697.3125
430.04396	18728.0125
434.17176	18867.9125
438.2966	19139.5125
442.41849	19545.4125
446.53742	20103.9125
450.6534	20675.7125
454.76644	21061.1125
458.87653	21098.1125
462.98368	20965.9125
467.08789	20691.6125
471.18916	20344.5125
475.2875	20024.0125
479.38291	19724.8125
483.4754	19419.1125
487.56496	19153.0125
491.6516	18937.4125
495.73531	18816.3125
499.81612	18747.1125
503.89401	18885.8125
507.96899	19051.3125
512.04106	19259.2125
516.11023	19514.2125
520.1765	19693.6125
524.23987	19757.8125
528.30034	19602.6125
532.35792	19351.1125
536.41261	19055.4125
540.46441	18726.4125
544.51333	18597.3125
548.55936	18702.3125
552.60252	18972.2125
556.64279	19374.9125
560.6802	19603.9125
564.71473	19770.9125
568.7464	20242.4125
572.7752	20572.6125
576.80114	20206.4125
580.82422	19770.5125
584.84444	19563.6125
588.86181	19703.8125
592.87633	20031.2125
596.888	20406.2125
600.89682	20743.6125
604.9028	22049.9125
608.90594	25898.1125
612.90624	30835.3125
616.90371	29682.9125
620.89834	22815.5125
624.89015	19634.7125
628.87913	19069.7125
632.86528	19056.8125
636.84862	19147.4125
640.82913	18957.6125
644.80683	18434.2125
648.78172	18067.7125
652.75379	18091.5125
656.72306	18539.1125
660.68952	19151.3125
664.65319	19015.3125
668.61405	18431.4125
672.57211	18165.7125
676.52738	18159.5125
680.47986	18135.8125
684.42955	18074.3125
688.37646	18053.3125
692.32058	18126.9125
696.26192	18252.1125
700.20048	18447.4125
704.13626	18520.7125
708.06928	18447.8125
711.99952	18362.1125
715.927	18301.4125
719.85171	18332.7125
723.77365	18311.8125
727.69284	18174.4125
731.60928	18034.3125
735.52295	18006.5125
739.43388	18069.7125
743.34206	18093.9125
747.24749	18153.3125
751.15017	18255.0125
755.05012	18484.6125
758.94733	19029.3125
762.8418	20374.6125
766.73354	22646.9125
770.62254	25034.3125
774.50882	26157.1125
778.39237	25117.7125
782.27321	22590.5125
786.15132	20215.0125
790.02671	18861.8125
793.89938	18243.5125
797.76935	18022.5125
801.6366	17879.2125
805.50115	17788.9125
809.36299	17738.2125
813.22213	17702.0125
817.07857	17678.4125
820.93231	17684.7125
824.78336	17727.2125
828.63172	17787.4125
832.47738	17843.5125
836.32036	17847.2125
840.16066	17812.7125
843.99827	17737.2125
847.8332	17679.3125
851.66546	17616.6125
855.49504	17625.5125
859.32195	17593.3125
863.1462	17541.3125
866.96777	17491.1125
870.78668	17441.2125
874.60293	17480.4125
878.41652	17483.0125
882.22745	17567.5125
886.03573	17579.3125
889.84136	17589.9125
893.64433	17464.7125
897.44466	17430.0125
901.24235	17436.0125
905.0374	17381.6125
908.8298	17321.0125
912.61957	17327.1125
916.40671	17426.4125
920.19121	17540.7125
923.97308	17603.4125
927.75233	17692.6125
931.52895	17849.4125
935.30295	17695.9125
939.07433	17403.0125
942.84309	17068.7125
946.60924	16860.0125
950.37278	16774.8125
954.13371	16695.5125
957.89203	16632.7125
961.64774	16607.0125
965.40086	16558.1125
969.15137	16489.2125
972.89929	16436.6125
976.64461	16423.8125
980.38733	16440.8125
984.12747	16465.6125
987.86502	16562.5125
991.59999	16653.6125
995.33237	16881.4125
999.06217	17193.6125
1002.78939	17581.2125
1006.51404	17844.7125
1010.23611	18069.3125
1013.95561	18203.4125
1017.67255	18169.7125
1021.38692	17971.9125
1025.09872	17785.5125
1028.80796	17727.7125
1032.51465	17953.1125
1036.21877	18224.3125
1039.92035	18253.3125
1043.61937	18224.1125
1047.31584	18067.1125
1051.00976	17863.2125
1054.70114	17770.1125
1058.38998	17777.8125
1062.07627	17870.3125
1065.76003	18072.9125
1069.44126	18313.3125
1073.11995	18666.5125
1076.79611	18958.6125
1080.46974	19183.2125
1084.14085	19308.2125
1087.80943	19399.7125
1091.47549	19233.9125
1095.13903	18896.7125
1098.80005	18341.4125
1102.45857	17963.5125
1106.11456	17792.0125
1109.76805	17820.8125
1113.41903	18111.1125
1117.06751	18438.8125
1120.71348	18897.9125
1124.35696	19375.6125
1127.99793	19788.4125
1131.63641	19822.8125
1135.2724	19259.4125
1138.90589	18695.3125
1142.5369	18352.2125
1146.16542	18104.5125
1149.79145	18003.9125
1153.415	17985.7125
1157.03607	18116.9125
1160.65467	18368.5125
1164.27079	18860.0125
1167.88443	19639.8125
1171.49561	20872.7125
1175.10432	22814.7125
1178.71056	25339.9125
1182.31434	27250.4125
1185.91565	27806.7125
1189.51451	27196.2125
1193.11091	25797.4125
1196.70485	24267.9125
1200.29634	23030.7125
1203.88538	22107.5125
1207.47197	21203.4125
1211.05612	20442.1125
1214.63782	19997.2125
1218.21708	19913.3125
1221.79391	19926.0125
1225.36829	19922.5125
1228.94024	19823.4125
1232.50976	19679.9125
1236.07685	19639.6125
1239.6415	19691.0125
1243.20374	19799.6125
1246.76355	19967.8125
1250.32093	20173.0125
1253.8759	20565.4125
1257.42845	21100.5125
1260.97859	21572.4125
1264.52631	22001.8125
1268.07163	22450.6125
1271.61453	22867.2125
1275.15503	23251.0125
1278.69312	23472.5125
1282.22882	23639.1125
1285.76211	23994.3125
1289.29301	24553.9125
1292.82151	25327.1125
1296.34761	26091.3125
1299.87133	27160.8125
1303.39266	28787.7125
1306.9116	31202.5125
1310.42815	33992.7125
1313.94233	35862.6125
1317.45412	35587.6125
1320.96354	33940.2125
1324.47058	31919.7125
1327.97525	30102.8125
1331.47754	28926.3125
1334.97747	28520.5125
1338.47502	28727.2125
1341.97022	29146.9125
1345.46305	29628.6125
1348.95352	30334.4125
1352.44163	31649.4125
1355.92738	33856.8125
1359.41078	37483.2125
1362.89183	41126.8125
1366.37053	40605.9125
1369.84688	35711.8125
1373.32088	30441.5125
1376.79254	27085.5125
1380.26186	25454.6125
1383.72883	24743.8125
1387.19347	24203.4125
1390.65578	23549.9125
1394.11575	23089.2125
1397.57339	22998.9125
1401.0287	23140.4125
1404.48168	23460.8125
1407.93234	23695.7125
1411.38068	23877.7125
1414.82669	23676.4125
1418.27039	23192.6125
1421.71177	22646.4125
1425.15083	22077.4125
1428.58758	21770.9125
1432.02203	21790.1125
1435.45416	22025.1125
1438.88399	22248.4125
1442.31151	22340.0125
1445.73673	22476.0125
1449.15965	22630.7125
1452.58027	22641.2125
1455.9986	22528.8125
1459.41463	22460.6125
1462.82837	22641.5125
1466.23982	23075.3125
1469.64898	23535.0125
1473.05586	23854.7125
1476.46045	24063.8125
1479.86276	24324.1125
1483.26279	24643.9125
1486.66054	25003.1125
1490.05602	25460.4125
1493.44922	26050.8125
1496.84016	26793.9125
1500.22882	28065.9125
1503.61521	29928.7125
1506.99934	32373.5125
1510.38121	34904.1125
1513.76081	36359.9125
1517.13816	35377.7125
1520.51324	32328.9125
1523.88607	29046.9125
1527.25665	26679.5125
1530.62498	25389.2125
1533.99105	24688.2125
1537.35488	24267.2125
1540.71647	24027.2125
1544.07581	23848.5125
1547.4329	23753.4125
1550.78776	23563.0125
1554.14038	23476.7125
1557.49077	23508.2125
1560.83892	23709.1125
1564.18484	24076.2125
1567.52853	24551.6125
1570.86999	25029.6125
1574.20922	25515.2125
1577.54624	25831.2125
1580.88103	25485.6125
1584.2136	24623.2125
1587.54395	23961.5125
1590.87208	24058.9125
1594.19801	24942.4125
1597.52172	26360.8125
1600.84321	27066.8125
1604.16251	26405.8125
1607.47959	24848.8125
1610.79447	23057.8125
1614.10715	21375.2125
1617.41763	20078.2125
1620.7259	19269.1125
1624.03199	18851.5125
1627.33587	18833.9125
1630.63757	19195.3125
1633.93707	19917.9125
1637.23439	21112.1125
1640.52951	22819.8125
1643.82246	24988.9125
1647.11321	27477.4125
1650.40179	29077.0125
1653.68819	28424.6125
1656.97241	25364.1125
1660.25446	21982.1125
1663.53433	19477.9125
1666.81203	17966.2125
1670.08756	17054.4125
1673.36092	16493.6125
1676.63211	16138.9125
1679.90115	15863.2125
1683.16801	15678.8125
1686.43272	15555.7125
1689.69527	15453.7125
1692.95567	15408.7125
1696.2139	15355.0125
1699.46999	15344.0125
1702.72392	15309.5125
1705.97571	15268.2125
1709.22535	15274.0125
1712.47284	15237.1125
1715.71819	15240.7125
1718.96139	15204.8125
1722.20246	15219.7125
1725.44139	15154.9125
1728.67818	15083.9125
1731.91284	14999.9125
1735.14537	14931.8125
1738.37576	14865.1125
1741.60403	14837.0125
1744.83017	14814.5125
1748.05418	14804.9125
1751.27607	14753.9125
1754.49584	14723.8125
1757.71349	14693.5125
1760.92903	14714.5125
1764.14244	14722.0125
1767.35375	14689.4125
1770.56294	14634.9125
1773.77002	14598.1125
1776.97499	14611.6125
1780.17785	14579.4125
1783.37861	14545.9125
1786.57727	14508.7125
1789.77382	14487.4125
1792.96828	14484.9125
1796.16064	14482.4125
1799.3509	14445.0125
1802.53907	14426.4125
1805.72514	14382.0125
1808.90913	14363.0125
1812.09102	14335.7125
1815.27083	14278.2125
1818.44856	14273.4125
1821.6242	14240.6125
1824.79776	14200.2125
1827.96924	14211.4125
1831.13864	14193.3125
1834.30597	14209.1125
1837.47122	14197.8125
1840.6344	14156.1125
1843.7955	14168.6125
1846.95454	14148.7125
1850.11151	14123.5125
1853.26642	14116.0125
1856.41926	14123.5125
1859.57004	14128.5125
1862.71876	14092.6125
1865.86542	14114.3125
1869.01003	14118.8125
1872.15258	14105.6125
1875.29308	14132.5125
1878.43152	14087.9125
1881.56792	14082.9125
1884.70227	14072.2125
1887.83457	14071.6125
1890.96482	14051.5125
1894.09304	14032.6125
1897.21921	14049.7125
1900.34335	14060.4125
1903.46544	14052.4125
1906.58551	14015.6125
1909.70353	13999.2125
1912.81953	13981.8125
1915.93349	13993.8125
1919.04543	13970.5125
1922.15534	13952.0125
1925.26322	13906.6125
1928.36908	13896.5125
1931.47292	13877.1125
1934.57473	13852.4125
1937.67453	13797.1125
1940.77232	13760.4125
1943.86808	13721.1125
1946.96184	13676.4125
1950.05358	13659.0125
1953.14331	13606.3125
1956.23103	13560.1125
1959.31675	13533.9125
1962.40046	13500.5125
1965.48217	13455.5125
1968.56188	13448.0125
1971.63959	13370.6125
1974.7153	13352.4125
1977.78901	13288.7125
1980.86073	13264.2125
1983.93046	13248.7125
1986.99819	13199.9125
1990.06394	13167.0125
1993.1277	13139.5125
1996.18947	13048.7125
1999.24925	13023.8125
2002.30706	12992.2125
2005.36288	12947.1125
2008.41672	12932.3125
2011.46859	12905.7125
2014.51848	12853.9125
2017.56639	12836.8125
2020.61233	12787.4125
2023.6563	12781.3125
2026.6983	12746.6125
2029.73833	12721.0125
2032.7764	12700.4125
2035.8125	12671.3125
2038.84664	12650.7125
2041.87881	12623.3125
2044.90903	12596.3125
2047.93729	12581.0125
2050.96359	12574.2125
2053.98794	12559.4125
2057.01034	12558.5125
2060.03078	12524.7125
2063.04927	12520.8125
2066.06582	12510.2125
2069.08042	12516.7125
2072.09307	12498.8125
2075.10378	12443.2125
2078.11255	12461.4125
2081.11938	12471.1125
2084.12426	12464.3125
2087.12722	12463.0125
2090.12824	12463.1125
2093.12732	12479.5125
2096.12447	12433.9125
2099.11969	12418.2125
2102.11299	12442.6125
2105.10435	12448.2125
2108.09379	12469.3125
2111.08131	12467.7125
2114.0669	12500.6125
2117.05057	12502.4125
2120.03233	12493.8125
2123.01216	12510.1125
2125.99008	12488.2125
2128.96609	12503.9125
2131.94018	12545.9125
2134.91236	12525.3125
2137.88263	12539.6125
2140.851	12560.5125
2143.81746	12563.1125
2146.78201	12569.0125
2149.74466	12561.3125
2152.7054	12549.3125
2155.66425	12562.9125
2158.6212	12595.5125
2161.57625	12543.0125
2164.52941	12553.0125
2167.48067	12564.2125
2170.43004	12556.7125
2173.37752	12542.6125
2176.32311	12551.9125
2179.26681	12528.6125
2182.20863	12528.2125
2185.14856	12526.6125
2188.08661	12518.6125
2191.02278	12543.9125
2193.95707	12496.2125
2196.88948	12509.5125
2199.82001	12499.1125
2202.74867	12474.8125
2205.67545	12498.8125
2208.60037	12482.0125
2211.52341	12471.5125
2214.44458	12458.1125
2217.36388	12446.6125
2220.28132	12422.4125
2223.1969	12377.7125
2226.11061	12357.0125
2229.02246	12365.2125
2231.93245	12332.1125
2234.84058	12320.2125
2237.74686	12248.0125
2240.65128	12281.2125
2243.55385	12239.7125
2246.45456	12235.6125
2249.35343	12225.7125
2252.25044	12206.8125
2255.14561	12194.9125
2258.03893	12187.5125
2260.93041	12206.6125
2263.82004	12172.1125
2266.70783	12132.9125
2269.59378	12089.6125
2272.4779	12057.7125
2275.36017	12033.4125
2278.24061	12039.8125
2281.11922	11975.6125
2283.996	11969.1125
2286.87094	11979.7125
2289.74405	11923.2125
2292.61534	11937.5125
2295.4848	11943.6125
2298.35243	11898.5125
2301.21824	11891.7125
2304.08223	11901.1125
2306.94439	11891.8125
2309.80474	11887.6125
2312.66327	11858.4125
2315.51999	11863.5125
2318.37489	11884.0125
2321.22797	11869.5125
2324.07925	11822.3125
2326.92871	11814.6125
2329.77637	11830.6125
2332.62222	11825.4125
2335.46626	11801.5125
2338.3085	11779.8125
2341.14893	11780.5125
2343.98756	11785.6125
2346.8244	11781.3125
2349.65943	11761.6125
2352.49267	11793.6125
2355.32411	11794.9125
2358.15376	11751.7125
2360.98161	11790.4125
2363.80768	11783.0125
2366.63195	11792.3125
2369.45444	11746.2125
2372.27514	11737.9125
2375.09405	11724.2125
2377.91118	11698.5125
2380.72652	11666.6125
2383.54009	11638.4125
2386.35187	11627.7125
2389.16188	11561.0125
2391.97011	11543.8125
2394.77657	11531.8125
2397.58125	11511.2125
2400.38416	11488.8125
2403.18529	11469.1125
2405.98466	11459.9125
2408.78226	11442.9125
2411.57809	11410.9125
2414.37216	11384.5125
2417.16446	11376.0125
2419.955	11368.6125
2422.74378	11356.1125
2425.5308	11355.8125
2428.31606	11324.9125
2431.09956	11321.2125
2433.88131	11317.5125
2436.6613	11301.8125
2439.43954	11311.2125
2442.21603	11283.4125
2444.99077	11274.1125
2447.76377	11290.2125
2450.53501	11293.3125
2453.30451	11247.6125
2456.07226	11250.4125
2458.83827	11247.2125
2461.60254	11259.7125
2464.36507	11213.5125
2467.12586	11243.0125
2469.88492	11231.2125
2472.64224	11236.6125
2475.39782	11237.0125
2478.15167	11241.4125
2480.90379	11229.7125
2483.65417	11257.1125
2486.40283	11241.7125
2489.14976	11268.2125
2491.89497	11280.7125
2494.63845	11273.0125
2497.3802	11262.3125
2500.12024	11257.4125
2502.85855	11238.9125
2505.59514	11219.2125
2508.33002	11224.4125
2511.06318	11178.5125
2513.79462	11127.5125
2516.52435	11122.8125
2519.25237	11126.4125
2521.97867	11091.5125
2524.70327	11091.9125
2527.42616	11058.7125
2530.14734	11041.6125
2532.86681	11062.4125
2535.58458	11026.4125
2538.30065	11009.2125
2541.01501	11031.3125
2543.72768	10966.7125
2546.43864	11012.1125
2549.14791	10951.1125
2551.85548	10972.3125
2554.56136	10928.7125
2557.26554	10942.6125
2559.96803	10917.8125
2562.66883	10920.9125
2565.36794	10916.7125
2568.06536	10907.5125
2570.7611	10875.8125
2573.45514	10881.9125
2576.14751	10867.2125
2578.83819	10841.1125
2581.52719	10827.9125
2584.21451	10813.5125
2586.90015	10818.3125
2589.58411	10798.8125
2592.2664	10778.0125
2594.94701	10750.4125
2597.62594	10749.9125
2600.30321	10738.9125
2602.9788	10729.3125
2605.65273	10731.3125
2608.32498	10693.6125
2610.99557	10689.6125
2613.66449	10685.9125
2616.33175	10701.6125
2618.99734	10700.4125
2621.66128	10673.3125
2624.32355	10665.0125
2626.98416	10669.1125
2629.64311	10650.3125
2632.30041	10637.1125
2634.95605	10638.9125
2637.61004	10625.4125
2640.26238	10598.2125
2642.91306	10608.4125
2645.56209	10566.8125
2648.20948	10573.7125
2650.85521	10560.9125
2653.4993	10562.3125
2656.14175	10562.1125
2658.78255	10559.8125
2661.42171	10564.3125
2664.05923	10572.1125
2666.6951	10572.8125
2669.32934	10576.3125
2671.96194	10569.5125
2674.59291	10583.2125
2677.22224	10568.1125
2679.84993	10560.8125
2682.476	10570.1125
2685.10043	10559.4125
2687.72324	10566.2125
2690.34441	10569.3125
2692.96396	10582.2125
2695.58188	10573.8125
2698.19818	10550.0125
2700.81285	10550.4125
2703.4259	10564.3125
2706.03733	10623.3125
2708.64714	10593.2125
2711.25533	10574.1125
2713.86191	10579.0125
2716.46687	10589.7125
2719.07021	10599.3125
2721.67194	10590.9125
2724.27206	10572.4125
2726.87057	10577.7125
2729.46747	10582.4125
2732.06276	10591.4125
2734.65644	10559.9125
2737.24852	10575.6125
2739.83899	10569.1125
2742.42786	10546.8125
2745.01513	10531.2125
2747.60079	10535.6125
2750.18486	10502.3125
2752.76733	10525.0125
2755.3482	10531.8125
2757.92747	10518.2125
2760.50515	10479.4125
2763.08123	10478.1125
2765.65573	10459.9125
2768.22863	10450.5125
2770.79994	10429.5125
2773.36967	10446.0125
2775.9378	10429.7125
2778.50435	10392.6125
2781.06932	10361.8125
2783.6327	10414.2125
2786.1945	10366.2125
2788.75471	10367.2125
2791.31335	10343.4125
2793.87041	10312.1125
2796.42589	10309.3125
2798.97979	10304.6125
2801.53212	10299.2125
2804.08288	10272.0125
2806.63206	10244.4125
2809.17967	10256.2125
2811.72571	10230.9125
2814.27018	10226.7125
2816.81308	10227.8125
2819.35442	10220.6125
2821.89419	10192.3125
2824.43239	10193.8125
2826.96904	10204.1125
2829.50412	10220.0125
2832.03763	10159.1125
2834.56959	10173.9125
2837.1	10144.4125
2839.62884	10174.1125
2842.15613	10162.1125
2844.68186	10204.3125
2847.20604	10227.8125
2849.72867	10238.2125
2852.24974	10239.8125
2854.76927	10228.0125
2857.28724	10238.1125
2859.80367	10225.6125
2862.31855	10190.0125
2864.83189	10180.6125
2867.34368	10163.0125
2869.85393	10155.9125
2872.36264	10153.7125
2874.8698	10151.0125
2877.37543	10184.5125
2879.87952	10151.7125
2882.38207	10151.9125
2884.88308	10136.8125
2887.38256	10153.3125
2889.88051	10164.1125
2892.37692	10153.5125
2894.8718	10147.3125
2897.36515	10147.9125
2899.85698	10145.0125
2902.34727	10171.3125
2904.83604	10179.7125
2907.32328	10261.4125
2909.809	10216.8125
2912.29319	10222.9125
2914.77587	10206.0125
2917.25702	10199.8125
2919.73665	10142.5125
2922.21476	10173.6125
2924.69136	10152.8125
2927.16644	10128.5125
2929.64	10111.0125
2932.11205	10108.3125
2934.58258	10059.7125
2937.05161	10093.1125
2939.51912	10096.2125
2941.98513	10054.6125
2944.44962	10031.5125
2946.91261	9981.9125
2949.37409	10009.3125
2951.83407	9973.3125
2954.29254	9964.2125
2956.74951	9942.9125
2959.20498	9929.1125
2961.65895	9918.2125
2964.11142	9939.7125
2966.56239	9924.8125
2969.01186	9884.7125
2971.45984	9846.3125
2973.90632	9826.5125
2976.35131	9806.7125
2978.7948	9801.1125
2981.23681	9771.1125
2983.67732	9773.9125
2986.11635	9709.5125
2988.55388	9710.8125
2990.98993	9692.5125
2993.4245	9667.9125
2995.85758	9652.0125
2998.28917	9658.2125
3000.71928	9650.2125
3003.14791	9618.2125
3005.57506	9600.8125
3008.00073	9607.5125
3010.42493	9594.3125
3012.84764	9547.7125
3015.26888	9565.0125
3017.68865	9527.3125
3020.10694	9535.7125
3022.52376	9507.8125
3024.9391	9492.0125
3027.35298	9486.7125
3029.76539	9491.1125
