Data from AgNP_FTO_APTES_CRN_0uM_R6G_10uM_NaF_0.1M_Addition_RamanShift__38__12-14-02-943.txt Node

Date: Wed Dec 15 12:14:02 GMT 2021
User: TCL
Spectrometer: QEP01345
Trigger mode: 4
Integration Time (sec): 7.000000E0
Scans to average: 10
Electric dark correction enabled: true
Nonlinearity correction enabled: false
Boxcar width: 0
XAxis mode: Raman Shifts
Number of Pixels in Spectrum: 1044
>>>>>Begin Spectral Data<<<<<
46.04893	1.975
50.45542	-1.425
54.85868	-0.325
59.25871	-0.525
63.6555	71.275
68.04907	79.875
72.43941	82.775
76.82654	90.875
81.21044	95.175
85.59113	99.875
89.96862	103.775
94.34289	106.375
98.71396	114.875
103.08183	119.475
107.4465	121.575
111.80798	121.675
116.16626	120.875
120.52136	122.775
124.87327	120.775
129.222	119.075
133.56755	118.275
137.90993	122.075
142.24913	129.475
146.58517	133.375
150.91804	136.275
155.24774	149.275
159.57429	168.675
163.89768	192.075
168.21792	230.875
172.53501	293.675
176.84895	386.075
181.15975	509.475
185.46741	694.075
189.77193	930.575
194.07331	1221.175
198.37157	1559.275
202.6667	1909.775
206.9587	2247.675
211.24758	2592.975
215.53334	2925.875
219.81599	3288.975
224.09553	3674.075
228.37195	4113.375
232.64527	4570.075
236.91549	5072.975
241.18261	5536.075
245.44663	5966.675
249.70755	6357.875
253.96539	6681.575
258.22014	6956.775
262.4718	7211.275
266.72039	7369.275
270.96589	7438.075
275.20832	7420.375
279.44768	7333.575
283.68397	7183.975
287.91719	7077.775
292.14735	6992.475
296.37445	6981.975
300.59849	7087.175
304.81948	7211.075
309.03742	7289.375
313.25231	7256.575
317.46415	7096.875
321.67296	6853.775
325.87872	6644.375
330.08145	6559.275
334.28114	6572.875
338.47781	6630.775
342.67145	6720.075
346.86207	6858.275
351.04966	7073.175
355.23424	7299.375
359.4158	7503.975
363.59435	7662.475
367.76989	7708.675
371.94243	7719.975
376.11196	7752.875
380.27849	7770.275
384.44203	7757.975
388.60257	7701.575
392.76012	7650.775
396.91468	7700.075
401.06626	7808.175
405.21485	7909.275
409.36047	7861.375
413.50311	7653.675
417.64277	7460.775
421.77947	7352.775
425.9132	7324.875
430.04396	7375.875
434.17176	7460.075
438.2966	7600.775
442.41849	7821.575
446.53742	8150.075
450.6534	8418.975
454.76644	8547.775
458.87653	8543.875
462.98368	8352.775
467.08789	8178.475
471.18916	7995.275
475.2875	7820.375
479.38291	7673.175
483.4754	7561.475
487.56496	7504.475
491.6516	7453.775
495.73531	7463.675
499.81612	7491.375
503.89401	7564.775
507.96899	7608.775
512.04106	7701.475
516.11023	7798.075
520.1765	7930.775
524.23987	7976.275
528.30034	7946.175
532.35792	7889.775
536.41261	7755.375
540.46441	7626.375
544.51333	7530.275
548.55936	7515.575
552.60252	7632.675
556.64279	7741.275
560.6802	7812.975
564.71473	7762.775
568.7464	7771.875
572.7752	7804.375
576.80114	7675.175
580.82422	7567.375
584.84444	7573.875
588.86181	7823.275
592.87633	8165.975
596.888	8426.575
600.89682	8454.775
604.9028	8743.875
608.90594	9858.975
612.90624	11368.175
616.90371	11014.475
620.89834	8814.875
624.89015	7735.475
628.87913	7487.175
632.86528	7436.975
636.84862	7437.575
640.82913	7369.375
644.80683	7223.775
648.78172	7160.275
652.75379	7231.975
656.72306	7488.475
660.68952	7681.475
664.65319	7595.975
668.61405	7330.275
672.57211	7255.275
676.52738	7248.975
680.47986	7213.875
684.42955	7200.375
688.37646	7180.175
692.32058	7246.275
696.26192	7321.075
700.20048	7434.675
704.13626	7500.375
708.06928	7443.675
711.99952	7412.375
715.927	7380.675
719.85171	7418.675
723.77365	7404.475
727.69284	7357.475
731.60928	7311.975
735.52295	7343.075
739.43388	7336.975
743.34206	7363.675
747.24749	7397.175
751.15017	7404.175
755.05012	7468.475
758.94733	7615.275
762.8418	8021.075
766.73354	8680.275
770.62254	9468.475
774.50882	9994.875
778.39237	9809.875
782.27321	9018.575
786.15132	8214.575
790.02671	7728.975
793.89938	7516.975
797.76935	7402.575
801.6366	7395.575
805.50115	7351.075
809.36299	7311.375
813.22213	7285.475
817.07857	7295.975
820.93231	7287.475
824.78336	7259.975
828.63172	7302.675
832.47738	7317.175
836.32036	7346.175
840.16066	7338.375
843.99827	7321.875
847.8332	7325.075
851.66546	7322.175
855.49504	7317.675
859.32195	7304.175
863.1462	7239.775
866.96777	7200.975
870.78668	7177.775
874.60293	7186.275
878.41652	7189.175
882.22745	7214.075
886.03573	7237.175
889.84136	7252.575
893.64433	7238.475
897.44466	7238.575
901.24235	7254.875
905.0374	7251.375
908.8298	7253.575
912.61957	7277.575
916.40671	7313.175
920.19121	7392.875
923.97308	7448.775
927.75233	7488.575
931.52895	7534.975
935.30295	7490.675
939.07433	7386.475
942.84309	7276.475
946.60924	7214.975
950.37278	7152.175
954.13371	7116.775
957.89203	7084.575
961.64774	7016.875
965.40086	6989.875
969.15137	6963.375
972.89929	6935.775
976.64461	6950.275
980.38733	6970.175
984.12747	6967.975
987.86502	7015.175
991.59999	7071.275
995.33237	7141.175
999.06217	7249.775
1002.78939	7366.475
1006.51404	7410.375
1010.23611	7476.275
1013.95561	7541.675
1017.67255	7527.775
1021.38692	7443.075
1025.09872	7339.675
1028.80796	7347.575
1032.51465	7396.975
1036.21877	7542.175
1039.92035	7645.475
1043.61937	7680.775
1047.31584	7649.875
1051.00976	7597.875
1054.70114	7534.775
1058.38998	7472.075
1062.07627	7478.975
1065.76003	7496.575
1069.44126	7565.875
1073.11995	7702.475
1076.79611	7830.275
1080.46974	7914.375
1084.14085	7915.075
1087.80943	7875.775
1091.47549	7819.275
1095.13903	7651.575
1098.80005	7456.975
1102.45857	7274.775
1106.11456	7240.375
1109.76805	7251.875
1113.41903	7360.375
1117.06751	7487.775
1120.71348	7606.575
1124.35696	7785.375
1127.99793	7873.075
1131.63641	7876.175
1135.2724	7651.975
1138.90589	7447.275
1142.5369	7296.175
1146.16542	7189.675
1149.79145	7133.175
1153.415	7136.875
1157.03607	7146.175
1160.65467	7269.575
1164.27079	7449.575
1167.88443	7761.175
1171.49561	8257.475
1175.10432	9022.975
1178.71056	9939.075
1182.31434	10722.275
1185.91565	11026.375
1189.51451	10829.075
1193.11091	10341.575
1196.70485	9668.675
1200.29634	9084.875
1203.88538	8599.075
1207.47197	8133.775
1211.05612	7815.875
1214.63782	7691.975
1218.21708	7716.475
1221.79391	7809.175
1225.36829	7863.475
1228.94024	7855.775
1232.50976	7767.975
1236.07685	7672.475
1239.6415	7634.175
1243.20374	7660.275
1246.76355	7682.475
1250.32093	7771.675
1253.8759	7880.575
1257.42845	8073.475
1260.97859	8283.775
1264.52631	8525.375
1268.07163	8754.175
1271.61453	8930.675
1275.15503	9011.975
1278.69312	9073.375
1282.22882	9116.675
1285.76211	9259.375
1289.29301	9477.275
1292.82151	9722.275
1296.34761	10011.575
1299.87133	10391.175
1303.39266	10922.975
1306.9116	11711.775
1310.42815	12648.175
1313.94233	13301.575
1317.45412	13217.375
1320.96354	12527.075
1324.47058	11627.575
1327.97525	10775.275
1331.47754	10256.775
1334.97747	10080.875
1338.47502	10060.575
1341.97022	10166.775
1345.46305	10376.075
1348.95352	10854.175
1352.44163	11693.475
1355.92738	12818.075
1359.41078	14234.775
1362.89183	15455.075
1366.37053	15388.975
1369.84688	13765.475
1373.32088	11846.175
1376.79254	10465.775
1380.26186	9787.375
1383.72883	9500.275
1387.19347	9186.575
1390.65578	8840.275
1394.11575	8532.075
1397.57339	8377.775
1401.0287	8318.675
1404.48168	8355.075
1407.93234	8367.975
1411.38068	8409.875
1414.82669	8433.575
1418.27039	8357.575
1421.71177	8241.675
1425.15083	8154.375
1428.58758	8128.875
1432.02203	8233.775
1435.45416	8367.575
1438.88399	8476.875
1442.31151	8482.675
1445.73673	8456.375
1449.15965	8436.275
1452.58027	8302.275
1455.9986	8138.275
1459.41463	8043.575
1462.82837	8055.175
1466.23982	8194.975
1469.64898	8393.375
1473.05586	8532.375
1476.46045	8643.675
1479.86276	8797.175
1483.26279	8868.675
1486.66054	8943.675
1490.05602	9080.975
1493.44922	9199.075
1496.84016	9389.975
1500.22882	9793.775
1503.61521	10465.875
1506.99934	11312.875
1510.38121	12107.575
1513.76081	12452.975
1517.13816	12048.775
1520.51324	11067.175
1523.88607	10049.575
1527.25665	9400.575
1530.62498	9096.075
1533.99105	8962.275
1537.35488	8853.075
1540.71647	8772.375
1544.07581	8690.975
1547.4329	8609.275
1550.78776	8521.075
1554.14038	8389.675
1557.49077	8331.975
1560.83892	8322.075
1564.18484	8421.875
1567.52853	8609.675
1570.86999	8901.575
1574.20922	9225.275
1577.54624	9410.775
1580.88103	9270.575
1584.2136	8890.675
1587.54395	8607.675
1590.87208	8590.375
1594.19801	8929.375
1597.52172	9532.475
1600.84321	9946.175
1604.16251	9802.875
1607.47959	9241.175
1610.79447	8503.375
1614.10715	7816.875
1617.41763	7355.675
1620.7259	7096.375
1624.03199	6991.475
1627.33587	7002.575
1630.63757	7089.375
1633.93707	7305.075
1637.23439	7703.775
1640.52951	8298.975
1643.82246	9106.775
1647.11321	9958.275
1650.40179	10338.475
1653.68819	9927.775
1656.97241	8810.775
1660.25446	7719.475
1663.53433	6991.275
1666.81203	6568.875
1670.08756	6344.275
1673.36092	6191.175
1676.63211	6094.775
1679.90115	6039.075
1683.16801	5973.675
1686.43272	5927.375
1689.69527	5925.875
1692.95567	5885.775
1696.2139	5868.775
1699.46999	5855.075
1702.72392	5820.075
1705.97571	5820.775
1709.22535	5806.575
1712.47284	5794.975
1715.71819	5796.975
1718.96139	5810.975
1722.20246	5791.675
1725.44139	5747.275
1728.67818	5737.675
1731.91284	5681.375
1735.14537	5642.975
1738.37576	5606.675
1741.60403	5589.375
1744.83017	5570.975
1748.05418	5566.875
1751.27607	5553.375
1754.49584	5543.475
1757.71349	5519.375
1760.92903	5519.475
1764.14244	5498.675
1767.35375	5501.175
1770.56294	5490.375
1773.77002	5489.675
1776.97499	5487.175
1780.17785	5484.475
1783.37861	5463.875
1786.57727	5468.775
1789.77382	5456.675
1792.96828	5437.475
1796.16064	5420.175
1799.3509	5405.175
1802.53907	5423.275
1805.72514	5398.075
1808.90913	5377.075
1812.09102	5372.575
1815.27083	5357.775
1818.44856	5349.875
1821.6242	5342.475
1824.79776	5325.975
1827.96924	5340.175
1831.13864	5314.675
1834.30597	5327.475
1837.47122	5304.675
1840.6344	5308.875
1843.7955	5316.475
1846.95454	5307.275
1850.11151	5287.075
1853.26642	5275.075
1856.41926	5271.775
1859.57004	5278.175
1862.71876	5268.375
1865.86542	5259.475
1869.01003	5249.975
1872.15258	5273.275
1875.29308	5248.575
1878.43152	5240.975
1881.56792	5243.375
1884.70227	5249.175
1887.83457	5226.375
1890.96482	5237.175
1894.09304	5221.875
1897.21921	5205.975
1900.34335	5227.275
1903.46544	5210.975
1906.58551	5241.875
1909.70353	5223.275
1912.81953	5233.175
1915.93349	5214.375
1919.04543	5190.075
1922.15534	5185.875
1925.26322	5182.975
1928.36908	5159.275
1931.47292	5150.375
1934.57473	5141.675
1937.67453	5117.575
1940.77232	5101.875
1943.86808	5090.775
1946.96184	5089.475
1950.05358	5071.075
1953.14331	5062.475
1956.23103	5047.875
1959.31675	5060.475
1962.40046	5026.175
1965.48217	5020.575
1968.56188	5003.075
1971.63959	5001.975
1974.7153	4993.575
1977.78901	4959.975
1980.86073	4952.075
1983.93046	4937.075
1986.99819	4922.075
1990.06394	4896.075
1993.1277	4888.975
1996.18947	4878.775
1999.24925	4857.575
2002.30706	4841.075
2005.36288	4830.575
2008.41672	4826.475
2011.46859	4806.275
2014.51848	4798.075
2017.56639	4796.775
2020.61233	4769.175
2023.6563	4753.275
2026.6983	4743.275
2029.73833	4727.475
2032.7764	4731.475
2035.8125	4707.475
2038.84664	4703.675
2041.87881	4713.275
2044.90903	4698.575
2047.93729	4680.275
2050.96359	4688.175
2053.98794	4662.775
2057.01034	4665.175
2060.03078	4667.475
2063.04927	4674.375
2066.06582	4658.875
2069.08042	4669.975
2072.09307	4663.075
2075.10378	4657.975
2078.11255	4645.375
2081.11938	4643.875
2084.12426	4650.875
2087.12722	4645.375
2090.12824	4644.375
2093.12732	4650.075
2096.12447	4659.975
2099.11969	4648.375
2102.11299	4639.675
2105.10435	4638.975
2108.09379	4657.275
2111.08131	4655.175
2114.0669	4654.975
2117.05057	4652.275
2120.03233	4660.875
2123.01216	4660.175
2125.99008	4657.875
2128.96609	4666.375
2131.94018	4653.375
2134.91236	4668.675
2137.88263	4664.875
2140.851	4674.975
2143.81746	4672.775
2146.78201	4688.675
2149.74466	4689.575
2152.7054	4673.975
2155.66425	4679.075
2158.6212	4678.775
2161.57625	4682.275
2164.52941	4668.575
2167.48067	4683.675
2170.43004	4670.175
2173.37752	4667.575
2176.32311	4670.475
2179.26681	4672.175
2182.20863	4667.675
2185.14856	4675.775
2188.08661	4653.475
2191.02278	4671.075
2193.95707	4654.475
2196.88948	4676.575
2199.82001	4685.975
2202.74867	4670.075
2205.67545	4652.275
2208.60037	4648.775
2211.52341	4631.275
2214.44458	4647.675
2217.36388	4617.475
2220.28132	4631.575
2223.1969	4620.775
2226.11061	4601.275
2229.02246	4591.875
2231.93245	4578.775
2234.84058	4572.075
2237.74686	4563.675
2240.65128	4566.875
2243.55385	4560.975
2246.45456	4535.575
2249.35343	4556.175
2252.25044	4522.175
2255.14561	4541.775
2258.03893	4533.175
2260.93041	4535.475
2263.82004	4509.075
2266.70783	4495.175
2269.59378	4488.975
2272.4779	4470.275
2275.36017	4474.975
2278.24061	4465.375
2281.11922	4449.375
2283.996	4436.875
2286.87094	4433.275
2289.74405	4424.675
2292.61534	4425.575
2295.4848	4424.675
2298.35243	4418.875
2301.21824	4418.875
2304.08223	4415.975
2306.94439	4410.175
2309.80474	4401.375
2312.66327	4393.875
2315.51999	4394.875
2318.37489	4378.275
2321.22797	4394.675
2324.07925	4380.075
2326.92871	4364.775
2329.77637	4375.975
2332.62222	4356.775
2335.46626	4353.575
2338.3085	4352.875
2341.14893	4354.875
2343.98756	4349.275
2346.8244	4331.975
2349.65943	4339.375
2352.49267	4331.175
2355.32411	4333.775
2358.15376	4324.375
2360.98161	4323.775
2363.80768	4322.175
2366.63195	4319.175
2369.45444	4325.975
2372.27514	4314.075
2375.09405	4313.775
2377.91118	4310.075
2380.72652	4291.275
2383.54009	4273.475
2386.35187	4283.975
2389.16188	4270.575
2391.97011	4256.975
2394.77657	4258.975
2397.58125	4241.375
2400.38416	4222.275
2403.18529	4219.575
2405.98466	4209.875
2408.78226	4201.075
2411.57809	4212.575
2414.37216	4203.475
2417.16446	4195.775
2419.955	4183.475
2422.74378	4168.075
2425.5308	4184.475
2428.31606	4167.275
2431.09956	4162.975
2433.88131	4158.875
2436.6613	4153.175
2439.43954	4177.775
2442.21603	4154.175
2444.99077	4135.675
2447.76377	4151.775
2450.53501	4144.375
2453.30451	4159.475
2456.07226	4143.975
2458.83827	4140.775
2461.60254	4140.675
2464.36507	4138.675
2467.12586	4138.975
2469.88492	4127.675
2472.64224	4137.975
2475.39782	4130.775
2478.15167	4120.275
2480.90379	4116.975
2483.65417	4132.375
2486.40283	4139.575
2489.14976	4134.575
2491.89497	4133.175
2494.63845	4110.175
2497.3802	4126.175
2500.12024	4120.975
2502.85855	4127.275
2505.59514	4098.675
2508.33002	4093.075
2511.06318	4074.075
2513.79462	4095.575
2516.52435	4066.875
2519.25237	4067.375
2521.97867	4049.575
2524.70327	4049.475
2527.42616	4061.275
2530.14734	4055.275
2532.86681	4034.275
2535.58458	4038.475
2538.30065	4044.175
2541.01501	4022.275
2543.72768	4028.575
2546.43864	4026.375
2549.14791	4017.875
2551.85548	4020.975
2554.56136	4032.075
2557.26554	3999.675
2559.96803	4000.975
2562.66883	3995.075
2565.36794	4006.075
2568.06536	3989.475
2570.7611	3986.075
2573.45514	3988.075
2576.14751	3986.775
2578.83819	3992.675
2581.52719	3979.675
2584.21451	3968.175
2586.90015	3971.675
2589.58411	3952.875
2592.2664	3960.675
2594.94701	3942.275
2597.62594	3929.275
2600.30321	3931.775
2602.9788	3927.475
2605.65273	3923.175
2608.32498	3910.075
2610.99557	3912.575
2613.66449	3927.275
2616.33175	3923.375
2618.99734	3906.975
2621.66128	3894.275
2624.32355	3897.775
2626.98416	3907.175
2629.64311	3895.275
2632.30041	3903.075
2634.95605	3882.875
2637.61004	3895.275
2640.26238	3894.775
2642.91306	3884.475
2645.56209	3880.875
2648.20948	3877.775
2650.85521	3871.375
2653.4993	3879.175
2656.14175	3871.275
2658.78255	3892.475
2661.42171	3890.975
2664.05923	3898.275
2666.6951	3907.575
2669.32934	3914.275
2671.96194	3909.575
2674.59291	3898.775
2677.22224	3918.275
2679.84993	3929.175
2682.476	3907.175
2685.10043	3915.975
2687.72324	3919.975
2690.34441	3924.375
2692.96396	3927.375
2695.58188	3948.175
2698.19818	3934.775
2700.81285	3962.375
2703.4259	3965.075
2706.03733	3955.375
2708.64714	3960.075
2711.25533	3990.775
2713.86191	3993.875
2716.46687	4009.675
2719.07021	4026.575
2721.67194	4024.075
2724.27206	4029.075
2726.87057	4034.375
2729.46747	4029.275
2732.06276	4054.775
2734.65644	4068.175
2737.24852	4068.775
2739.83899	4063.475
2742.42786	4085.475
2745.01513	4079.175
2747.60079	4080.875
2750.18486	4086.875
2752.76733	4098.875
2755.3482	4105.875
2757.92747	4109.075
2760.50515	4130.675
2763.08123	4144.075
2765.65573	4151.175
2768.22863	4161.275
2770.79994	4180.775
2773.36967	4182.875
2775.9378	4194.375
2778.50435	4210.475
2781.06932	4212.575
2783.6327	4234.675
2786.1945	4259.875
2788.75471	4259.275
2791.31335	4285.175
2793.87041	4307.575
2796.42589	4313.775
2798.97979	4345.375
2801.53212	4361.375
2804.08288	4372.675
2806.63206	4407.075
2809.17967	4423.175
2811.72571	4444.375
2814.27018	4472.875
2816.81308	4482.975
2819.35442	4485.375
2821.89419	4497.075
2824.43239	4506.775
2826.96904	4488.975
2829.50412	4500.275
2832.03763	4499.575
2834.56959	4502.375
2837.1	4514.375
2839.62884	4543.175
2842.15613	4576.375
2844.68186	4632.975
2847.20604	4685.275
2849.72867	4749.775
2852.24974	4767.975
2854.76927	4786.075
2857.28724	4785.775
2859.80367	4763.975
2862.31855	4754.375
2864.83189	4741.975
2867.34368	4715.875
2869.85393	4715.775
2872.36264	4685.275
2874.8698	4673.975
2877.37543	4658.775
2879.87952	4651.475
2882.38207	4654.875
2884.88308	4648.675
2887.38256	4642.275
2889.88051	4648.175
2892.37692	4623.075
2894.8718	4633.275
2897.36515	4621.875
2899.85698	4600.175
2902.34727	4629.475
2904.83604	4610.875
2907.32328	4610.575
2909.809	4609.275
2912.29319	4582.175
2914.77587	4567.175
2917.25702	4585.675
2919.73665	4568.575
2922.21476	4575.975
2924.69136	4555.375
2927.16644	4543.775
2929.64	4513.675
2932.11205	4495.475
2934.58258	4455.775
2937.05161	4427.975
2939.51912	4387.875
2941.98513	4333.375
2944.44962	4264.975
2946.91261	4187.075
2949.37409	4152.875
2951.83407	4113.375
2954.29254	4055.675
2956.74951	4026.675
2959.20498	3991.275
2961.65895	3963.175
2964.11142	3923.575
2966.56239	3889.675
2969.01186	3870.475
2971.45984	3837.475
2973.90632	3827.775
2976.35131	3800.375
2978.7948	3783.875
2981.23681	3756.275
2983.67732	3728.075
2986.11635	3712.075
2988.55388	3681.675
2990.98993	3676.475
2993.4245	3661.775
2995.85758	3654.075
2998.28917	3624.575
3000.71928	3614.275
3003.14791	3601.575
3005.57506	3580.175
3008.00073	3567.775
3010.42493	3573.475
3012.84764	3575.475
3015.26888	3574.575
3017.68865	3572.675
3020.10694	3575.875
3022.52376	3558.075
3024.9391	3550.275
3027.35298	3544.275
3029.76539	3538.375
3032.17632	3548.275
3034.5858	3534.975
3036.9938	3543.275
3039.40034	3534.375
3041.80542	3521.175
3044.20903	3525.275
3046.61118	3523.275
3049.01187	3516.475
3051.4111	3515.375
3053.80888	3527.575
3056.20519	3526.275
3058.60005	3525.275
3060.99345	3515.075
3063.3854	3517.975
3065.7759	3505.575
3068.16494	3522.575
3070.55254	3518.675
3072.93868	3521.775
3075.32338	3508.675
3077.70662	3500.175
3080.08842	3489.575
3082.46878	3482.875
3084.84769	3468.175
3087.22515	3465.075
3089.60118	3480.475
3091.97576	3478.675
3094.3489	3478.475
3096.72061	3473.275
3099.09087	3468.175
3101.4597	3461.275
3103.82709	3473.575
3106.19305	3471.375
3108.55757	3459.075
3110.92066	3464.975
3113.28232	3473.175
3115.64255	3455.675
3118.00134	3447.275
3120.35871	3465.475
3122.71466	3456.875
3125.06917	3465.175
3127.42226	3476.475
3129.77393	3483.775
3132.12417	3477.175
3134.47299	3483.975
3136.82039	3487.175
3139.16636	3521.375
3141.51092	3513.575
3143.85406	3508.475
3146.19579	3517.675
3148.53609	3521.675
3150.87499	3540.575
3153.21246	3549.175
3155.54853	3555.475
3157.88318	3561.275
3160.21642	3571.275
3162.54826	3562.675
3164.87868	3579.975
3167.2077	3579.075
3169.5353	3573.975
3171.86151	3597.975
3174.18631	3572.375
3176.5097	3591.375
3178.83169	3598.275
3181.15228	3598.375
3183.47147	3598.375
3185.78926	3607.175
3188.10565	3609.975
3190.42065	3610.575
3192.73424	3635.875
3195.04645	3620.575
3197.35725	3639.075
3199.66667	3639.575
3201.97469	3639.875
3204.28132	3645.675
3206.58656	3664.275
3208.8904	3643.675
3211.19287	3660.275
3213.49394	3664.975
3215.79363	3665.875
3218.09193	3667.875
3220.38884	3662.875
3222.68438	3667.075
3224.97853	3680.975
3227.2713	3687.475
3229.56269	3691.575
3231.8527	3682.575
