Data from AgNP_FTO_APTES_CRN_200uM_R6G_10uM_NaF_0.1M_Addition_RamanShift__20__19-40-18-183.txt Node

Date: Wed Dec 15 19:40:18 GMT 2021
User: TCL
Spectrometer: QEP01345
Trigger mode: 4
Integration Time (sec): 7.000000E0
Scans to average: 10
Electric dark correction enabled: true
Nonlinearity correction enabled: false
Boxcar width: 0
XAxis mode: Raman Shifts
Number of Pixels in Spectrum: 1044
>>>>>Begin Spectral Data<<<<<
46.04893	0.675
50.45542	-2.125
54.85868	-0.825
59.25871	-0.925
63.6555	57.175
68.04907	59.075
72.43941	63.475
76.82654	62.275
81.21044	67.975
85.59113	72.875
89.96862	73.975
94.34289	73.575
98.71396	78.275
103.08183	83.875
107.4465	83.675
111.80798	82.575
116.16626	91.175
120.52136	90.575
124.87327	93.575
129.222	94.575
133.56755	98.275
137.90993	106.175
142.24913	117.475
146.58517	125.175
150.91804	142.575
155.24774	172.575
159.57429	208.075
163.89768	261.475
168.21792	335.675
172.53501	457.375
176.84895	636.075
181.15975	889.075
185.46741	1239.275
189.77193	1698.375
194.07331	2266.375
198.37157	2934.175
202.6667	3618.975
206.9587	4294.875
211.24758	4974.375
215.53334	5649.575
219.81599	6335.875
224.09553	7112.875
228.37195	7970.275
232.64527	8906.875
236.91549	9867.475
241.18261	10865.375
245.44663	11798.875
249.70755	12657.975
253.96539	13415.375
258.22014	14076.675
262.4718	14603.075
266.72039	14953.875
270.96589	15132.075
275.20832	15185.775
279.44768	15094.275
283.68397	14947.775
287.91719	14823.875
292.14735	14708.375
296.37445	14668.975
300.59849	14680.075
304.81948	14671.975
309.03742	14590.775
313.25231	14453.375
317.46415	14211.675
321.67296	13956.675
325.87872	13727.675
330.08145	13635.175
334.28114	13655.775
338.47781	13745.775
342.67145	13866.175
346.86207	14068.675
351.04966	14306.475
355.23424	14489.775
359.4158	14681.875
363.59435	14794.975
367.76989	14955.775
371.94243	15002.075
376.11196	15087.775
380.27849	15215.075
384.44203	15321.775
388.60257	15486.175
392.76012	15593.175
396.91468	15766.575
401.06626	15964.175
405.21485	16081.475
409.36047	16075.175
413.50311	15918.375
417.64277	15755.275
421.77947	15747.575
425.9132	15808.975
430.04396	15907.975
434.17176	16083.675
438.2966	16268.075
442.41849	16586.475
446.53742	17031.875
450.6534	17487.075
454.76644	17849.775
458.87653	17939.175
462.98368	17857.075
467.08789	17647.175
471.18916	17553.175
475.2875	17483.475
479.38291	17428.775
483.4754	17378.275
487.56496	17120.275
491.6516	16847.075
495.73531	16564.775
499.81612	16438.275
503.89401	16442.275
507.96899	16508.175
512.04106	16502.875
516.11023	16469.675
520.1765	16409.275
524.23987	16415.675
528.30034	16370.275
532.35792	16303.975
536.41261	16177.475
540.46441	16038.875
544.51333	16024.975
548.55936	16183.275
552.60252	16474.575
556.64279	16813.675
560.6802	17070.475
564.71473	17213.175
568.7464	17375.375
572.7752	17617.675
576.80114	17785.475
580.82422	17916.775
584.84444	18146.775
588.86181	18554.075
592.87633	19113.875
596.888	19406.175
600.89682	19209.875
604.9028	19217.575
608.90594	19862.675
612.90624	20683.775
616.90371	19657.675
620.89834	17369.175
624.89015	16349.775
628.87913	16214.475
632.86528	16308.175
636.84862	16360.275
640.82913	16254.275
644.80683	15989.875
648.78172	15770.375
652.75379	15714.775
656.72306	15786.675
660.68952	15908.475
664.65319	15841.075
668.61405	15696.475
672.57211	15639.375
676.52738	15714.075
680.47986	15743.175
684.42955	15721.175
688.37646	15662.175
692.32058	15648.875
696.26192	15767.175
700.20048	15899.175
704.13626	15973.775
708.06928	16005.275
711.99952	15925.375
715.927	15906.275
719.85171	15894.775
723.77365	15859.375
727.69284	15763.975
731.60928	15642.675
735.52295	15654.375
739.43388	15629.075
743.34206	15632.375
747.24749	15669.075
751.15017	15744.475
755.05012	15929.375
758.94733	16252.375
762.8418	16807.075
766.73354	17679.175
770.62254	18541.175
774.50882	18702.975
778.39237	18086.375
782.27321	17008.175
786.15132	16174.975
790.02671	15697.075
793.89938	15464.975
797.76935	15365.175
801.6366	15368.575
805.50115	15360.975
809.36299	15339.575
813.22213	15240.475
817.07857	15248.275
820.93231	15236.375
824.78336	15150.175
828.63172	15148.075
832.47738	15126.575
836.32036	15153.075
840.16066	15173.375
843.99827	15179.575
847.8332	15128.875
851.66546	15078.575
855.49504	15078.175
859.32195	15062.375
863.1462	15053.175
866.96777	15069.875
870.78668	15031.475
874.60293	15030.175
878.41652	15052.975
882.22745	15060.675
886.03573	15095.175
889.84136	15058.675
893.64433	15049.275
897.44466	14972.075
901.24235	14948.175
905.0374	14886.675
908.8298	14906.375
912.61957	14894.575
916.40671	15004.275
920.19121	15142.175
923.97308	15259.375
927.75233	15253.575
931.52895	15200.075
935.30295	15043.375
939.07433	14870.675
942.84309	14694.475
946.60924	14579.875
950.37278	14551.775
954.13371	14495.075
957.89203	14520.375
961.64774	14500.975
965.40086	14481.575
969.15137	14451.175
972.89929	14327.175
976.64461	14311.475
980.38733	14270.775
984.12747	14310.575
987.86502	14376.375
991.59999	14469.075
995.33237	14602.575
999.06217	14849.275
1002.78939	15131.875
1006.51404	15314.075
1010.23611	15438.875
1013.95561	15544.575
1017.67255	15530.575
1021.38692	15413.575
1025.09872	15292.775
1028.80796	15175.675
1032.51465	15290.175
1036.21877	15391.275
1039.92035	15481.375
1043.61937	15414.375
1047.31584	15369.375
1051.00976	15322.575
1054.70114	15368.075
1058.38998	15448.875
1062.07627	15664.875
1065.76003	15967.775
1069.44126	16239.275
1073.11995	16571.675
1076.79611	16826.275
1080.46974	16778.375
1084.14085	16558.475
1087.80943	16372.075
1091.47549	16241.075
1095.13903	16173.875
1098.80005	15959.175
1102.45857	15723.475
1106.11456	15493.975
1109.76805	15425.875
1113.41903	15470.375
1117.06751	15544.275
1120.71348	15682.375
1124.35696	15838.475
1127.99793	16027.975
1131.63641	16147.175
1135.2724	16055.475
1138.90589	15943.275
1142.5369	15924.875
1146.16542	15972.675
1149.79145	16052.875
1153.415	16207.275
1157.03607	16368.275
1160.65467	16721.575
1164.27079	17294.375
1167.88443	18009.875
1171.49561	18942.175
1175.10432	20179.475
1178.71056	21620.275
1182.31434	22838.175
1185.91565	23242.275
1189.51451	22876.475
1193.11091	22210.075
1196.70485	21447.275
1200.29634	20724.275
1203.88538	20204.275
1207.47197	19884.775
1211.05612	19617.775
1214.63782	19371.475
1218.21708	19091.675
1221.79391	18886.275
1225.36829	18763.175
1228.94024	18555.575
1232.50976	18249.975
1236.07685	18008.075
1239.6415	17923.475
1243.20374	17926.275
1246.76355	18064.275
1250.32093	18234.175
1253.8759	18494.975
1257.42845	18840.875
1260.97859	19207.075
1264.52631	19556.275
1268.07163	19927.475
1271.61453	20332.675
1275.15503	20780.675
1278.69312	21297.775
1282.22882	21756.975
1285.76211	22299.575
1289.29301	23077.075
1292.82151	24063.275
1296.34761	25134.775
1299.87133	26403.975
1303.39266	27671.675
1306.9116	28960.275
1310.42815	30226.575
1313.94233	31178.075
1317.45412	31489.875
1320.96354	31176.375
1324.47058	30685.075
1327.97525	30100.075
1331.47754	29631.475
1334.97747	29320.575
1338.47502	29067.975
1341.97022	28744.875
1345.46305	28241.175
1348.95352	27738.775
1352.44163	27590.675
1355.92738	28094.675
1359.41078	29037.075
1362.89183	30015.475
1366.37053	29749.675
1369.84688	27894.975
1373.32088	25438.775
1376.79254	23703.675
1380.26186	23053.975
1383.72883	23050.175
1387.19347	23171.575
1390.65578	23115.075
1394.11575	23159.675
1397.57339	23485.075
1401.0287	24054.275
1404.48168	24390.675
1407.93234	24370.975
1411.38068	23924.075
1414.82669	23141.875
1418.27039	22185.875
1421.71177	21217.175
1425.15083	20388.175
1428.58758	19942.975
1432.02203	19979.175
1435.45416	20408.375
1438.88399	20959.275
1442.31151	21412.875
1445.73673	21790.275
1449.15965	22182.875
1452.58027	22420.575
1455.9986	22543.775
1459.41463	22689.475
1462.82837	22973.175
1466.23982	23301.675
1469.64898	23627.275
1473.05586	23724.775
1476.46045	23700.375
1479.86276	23573.675
1483.26279	23330.975
1486.66054	23072.875
1490.05602	22985.975
1493.44922	22964.775
1496.84016	22936.175
1500.22882	23082.675
1503.61521	23428.575
1506.99934	24011.675
1510.38121	24526.875
1513.76081	24655.075
1517.13816	24255.475
1520.51324	23567.875
1523.88607	22979.475
1527.25665	22649.775
1530.62498	22612.475
1533.99105	22619.875
1537.35488	22570.975
1540.71647	22319.775
1544.07581	21956.775
1547.4329	21542.275
1550.78776	21185.175
1554.14038	20919.475
1557.49077	20766.275
1560.83892	20749.975
1564.18484	20812.075
1567.52853	21026.475
1570.86999	21428.875
1574.20922	22037.375
1577.54624	22732.275
1580.88103	23122.675
1584.2136	23264.975
1587.54395	23397.475
1590.87208	23779.275
1594.19801	24539.075
1597.52172	25491.075
1600.84321	25863.375
1604.16251	25036.275
1607.47959	23348.175
1610.79447	21505.075
1614.10715	19787.575
1617.41763	18507.075
1620.7259	17694.275
1624.03199	17254.975
1627.33587	17248.875
1630.63757	17653.375
1633.93707	18557.475
1637.23439	20077.975
1640.52951	22241.475
1643.82246	24756.075
1647.11321	26704.675
1650.40179	27078.975
1653.68819	25381.775
1656.97241	22537.375
1660.25446	19717.975
1663.53433	17596.075
1666.81203	16218.775
1670.08756	15337.175
1673.36092	14774.375
1676.63211	14389.275
1679.90115	14122.075
1683.16801	13906.575
1686.43272	13792.575
1689.69527	13694.175
1692.95567	13624.175
1696.2139	13551.275
1699.46999	13546.675
1702.72392	13509.375
1705.97571	13472.675
1709.22535	13417.975
1712.47284	13397.875
1715.71819	13382.975
1718.96139	13326.675
1722.20246	13300.675
1725.44139	13211.475
1728.67818	13153.675
1731.91284	13088.075
1735.14537	13016.875
1738.37576	13007.675
1741.60403	12954.875
1744.83017	12920.475
1748.05418	12916.175
1751.27607	12871.975
1754.49584	12900.475
1757.71349	12892.475
1760.92903	12881.075
1764.14244	12867.075
1767.35375	12845.675
1770.56294	12799.875
1773.77002	12795.675
1776.97499	12770.975
1780.17785	12718.075
1783.37861	12740.675
1786.57727	12678.275
1789.77382	12635.875
1792.96828	12611.675
1796.16064	12621.575
1799.3509	12577.775
1802.53907	12584.275
1805.72514	12504.275
1808.90913	12486.875
1812.09102	12447.675
1815.27083	12441.375
1818.44856	12409.975
1821.6242	12421.175
1824.79776	12376.575
1827.96924	12376.275
1831.13864	12366.075
1834.30597	12388.675
1837.47122	12352.775
1840.6344	12346.475
1843.7955	12364.675
1846.95454	12329.575
1850.11151	12324.975
1853.26642	12323.075
1856.41926	12314.475
1859.57004	12335.675
1862.71876	12291.475
1865.86542	12288.575
1869.01003	12303.675
1872.15258	12297.375
1875.29308	12291.275
1878.43152	12252.875
1881.56792	12237.975
1884.70227	12232.375
1887.83457	12254.675
1890.96482	12225.675
1894.09304	12207.175
1897.21921	12202.575
1900.34335	12181.975
1903.46544	12178.975
1906.58551	12175.275
1909.70353	12133.075
1912.81953	12151.975
1915.93349	12109.475
1919.04543	12087.775
1922.15534	12073.975
1925.26322	12058.275
1928.36908	12037.075
1931.47292	12037.375
1934.57473	12010.175
1937.67453	11949.275
1940.77232	11933.775
1943.86808	11885.675
1946.96184	11890.475
1950.05358	11814.975
1953.14331	11806.275
1956.23103	11766.075
1959.31675	11754.275
1962.40046	11711.675
1965.48217	11667.075
1968.56188	11644.875
1971.63959	11617.175
1974.7153	11591.475
1977.78901	11537.875
1980.86073	11496.175
1983.93046	11466.875
1986.99819	11436.475
1990.06394	11405.075
1993.1277	11386.875
1996.18947	11320.775
1999.24925	11317.075
2002.30706	11290.675
2005.36288	11232.775
2008.41672	11237.075
2011.46859	11187.775
2014.51848	11169.175
2017.56639	11152.575
2020.61233	11116.175
2023.6563	11076.875
2026.6983	11069.375
2029.73833	11055.175
2032.7764	11014.375
2035.8125	11029.975
2038.84664	10972.375
2041.87881	10988.575
2044.90903	10976.075
2047.93729	10920.175
2050.96359	10920.975
2053.98794	10893.375
2057.01034	10907.875
2060.03078	10868.975
2063.04927	10875.375
2066.06582	10863.075
2069.08042	10856.575
2072.09307	10877.275
2075.10378	10875.275
2078.11255	10824.075
2081.11938	10838.175
2084.12426	10821.175
2087.12722	10851.175
2090.12824	10832.275
2093.12732	10848.875
2096.12447	10829.775
2099.11969	10822.475
2102.11299	10833.575
2105.10435	10816.575
2108.09379	10843.875
2111.08131	10861.075
2114.0669	10857.075
2117.05057	10851.975
2120.03233	10853.875
2123.01216	10884.375
2125.99008	10859.975
2128.96609	10912.475
2131.94018	10889.975
2134.91236	10889.675
2137.88263	10932.875
2140.851	10924.775
2143.81746	10930.175
2146.78201	10904.475
2149.74466	10922.275
2152.7054	10917.675
2155.66425	10950.175
2158.6212	10958.275
2161.57625	10945.175
2164.52941	10926.575
2167.48067	10900.775
2170.43004	10894.775
2173.37752	10909.775
2176.32311	10923.375
2179.26681	10927.975
2182.20863	10892.675
2185.14856	10900.775
2188.08661	10860.375
2191.02278	10889.575
2193.95707	10879.075
2196.88948	10873.775
2199.82001	10878.975
2202.74867	10866.075
2205.67545	10882.875
2208.60037	10896.075
2211.52341	10852.875
2214.44458	10835.675
2217.36388	10784.175
2220.28132	10764.875
2223.1969	10735.175
2226.11061	10741.275
2229.02246	10724.175
2231.93245	10712.175
2234.84058	10699.375
2237.74686	10682.075
2240.65128	10682.575
2243.55385	10663.975
2246.45456	10614.975
2249.35343	10614.175
2252.25044	10627.575
2255.14561	10572.675
2258.03893	10587.875
2260.93041	10546.775
2263.82004	10519.975
2266.70783	10511.675
2269.59378	10494.875
2272.4779	10468.875
2275.36017	10408.775
2278.24061	10411.975
2281.11922	10377.075
2283.996	10361.175
2286.87094	10361.075
2289.74405	10360.375
2292.61534	10326.975
2295.4848	10304.975
2298.35243	10321.575
2301.21824	10305.275
2304.08223	10308.875
2306.94439	10301.575
2309.80474	10306.875
2312.66327	10301.675
2315.51999	10295.775
2318.37489	10285.675
2321.22797	10253.675
2324.07925	10273.475
2326.92871	10254.575
2329.77637	10251.975
2332.62222	10243.475
2335.46626	10232.175
2338.3085	10188.775
2341.14893	10182.975
2343.98756	10206.075
2346.8244	10186.075
2349.65943	10157.175
2352.49267	10179.175
2355.32411	10169.775
2358.15376	10176.875
2360.98161	10157.575
2363.80768	10149.775
2366.63195	10155.075
2369.45444	10155.575
2372.27514	10126.275
2375.09405	10108.075
2377.91118	10094.175
2380.72652	10072.075
2383.54009	10038.875
2386.35187	10055.375
2389.16188	10008.875
2391.97011	9993.575
2394.77657	9973.175
2397.58125	9985.575
2400.38416	9949.775
2403.18529	9930.975
2405.98466	9953.075
2408.78226	9904.175
2411.57809	9917.075
2414.37216	9882.875
2417.16446	9901.775
2419.955	9864.475
2422.74378	9867.875
2425.5308	9832.475
2428.31606	9863.175
2431.09956	9825.875
2433.88131	9812.575
2436.6613	9798.075
2439.43954	9825.775
2442.21603	9796.775
2444.99077	9781.375
2447.76377	9793.875
2450.53501	9800.175
2453.30451	9771.675
2456.07226	9771.475
2458.83827	9749.775
2461.60254	9749.675
2464.36507	9746.675
2467.12586	9738.975
2469.88492	9754.275
2472.64224	9748.675
2475.39782	9728.275
2478.15167	9724.575
2480.90379	9750.475
2483.65417	9747.475
2486.40283	9742.075
2489.14976	9746.375
2491.89497	9713.975
2494.63845	9764.275
2497.3802	9735.675
2500.12024	9706.175
2502.85855	9750.275
2505.59514	9712.675
2508.33002	9711.275
2511.06318	9700.975
2513.79462	9668.675
2516.52435	9684.075
2519.25237	9673.175
2521.97867	9653.075
2524.70327	9656.975
2527.42616	9637.275
2530.14734	9615.675
2532.86681	9621.575
2535.58458	9609.175
2538.30065	9589.275
2541.01501	9594.575
2543.72768	9611.275
2546.43864	9585.275
2549.14791	9547.775
2551.85548	9530.675
2554.56136	9511.775
2557.26554	9509.575
2559.96803	9509.875
2562.66883	9480.775
2565.36794	9496.575
2568.06536	9487.775
2570.7611	9500.475
2573.45514	9463.075
2576.14751	9453.475
2578.83819	9438.875
2581.52719	9441.575
2584.21451	9425.775
2586.90015	9429.075
2589.58411	9420.675
2592.2664	9383.575
2594.94701	9389.775
2597.62594	9375.775
2600.30321	9374.175
2602.9788	9355.075
2605.65273	9327.575
2608.32498	9317.575
2610.99557	9329.675
2613.66449	9335.075
2616.33175	9324.975
2618.99734	9299.675
2621.66128	9312.975
2624.32355	9305.575
2626.98416	9321.175
2629.64311	9304.775
2632.30041	9301.875
2634.95605	9277.075
2637.61004	9274.075
2640.26238	9279.675
2642.91306	9258.375
2645.56209	9225.075
2648.20948	9253.875
2650.85521	9238.975
2653.4993	9263.375
2656.14175	9251.775
2658.78255	9242.175
2661.42171	9240.275
2664.05923	9263.775
2666.6951	9252.675
2669.32934	9265.775
2671.96194	9254.475
2674.59291	9256.575
2677.22224	9258.475
2679.84993	9260.075
2682.476	9230.475
2685.10043	9239.075
2687.72324	9232.075
2690.34441	9240.775
2692.96396	9237.075
2695.58188	9228.475
2698.19818	9226.175
2700.81285	9243.775
2703.4259	9247.375
2706.03733	9307.775
2708.64714	9283.775
2711.25533	9280.475
2713.86191	9273.175
2716.46687	9276.675
2719.07021	9271.375
2721.67194	9279.575
2724.27206	9261.675
2726.87057	9263.675
2729.46747	9283.575
2732.06276	9276.875
2734.65644	9254.175
2737.24852	9250.675
2739.83899	9221.975
2742.42786	9256.975
2745.01513	9252.875
2747.60079	9234.175
2750.18486	9211.575
2752.76733	9237.775
2755.3482	9239.575
2757.92747	9235.375
2760.50515	9228.275
2763.08123	9195.975
2765.65573	9187.075
2768.22863	9210.575
2770.79994	9191.475
2773.36967	9195.875
2775.9378	9194.675
2778.50435	9159.375
2781.06932	9154.775
2783.6327	9174.775
2786.1945	9159.575
2788.75471	9152.475
2791.31335	9132.575
2793.87041	9121.275
2796.42589	9087.575
2798.97979	9084.475
2801.53212	9079.475
2804.08288	9079.675
2806.63206	9054.675
2809.17967	9040.175
2811.72571	9011.175
2814.27018	8998.575
2816.81308	8989.175
2819.35442	8992.175
2821.89419	8951.775
2824.43239	8947.975
2826.96904	8955.575
2829.50412	8943.275
2832.03763	8939.675
2834.56959	8919.275
2837.1	8902.975
2839.62884	8925.475
2842.15613	8917.575
2844.68186	8920.975
2847.20604	8919.075
2849.72867	8952.775
2852.24974	8924.275
2854.76927	8929.075
2857.28724	8931.875
2859.80367	8915.975
2862.31855	8879.275
2864.83189	8849.975
2867.34368	8879.375
2869.85393	8856.275
2872.36264	8839.475
2874.8698	8849.675
2877.37543	8837.775
2879.87952	8863.975
2882.38207	8895.975
2884.88308	8854.775
2887.38256	8872.675
2889.88051	8862.875
2892.37692	8856.775
2894.8718	8874.275
2897.36515	8876.875
2899.85698	8881.475
2902.34727	8917.075
2904.83604	8882.975
2907.32328	8925.075
2909.809	8900.875
2912.29319	8920.175
2914.77587	8921.875
2917.25702	8905.675
2919.73665	8905.775
2922.21476	8944.575
2924.69136	8927.375
2927.16644	8933.675
2929.64	8911.075
2932.11205	8904.275
2934.58258	8860.375
2937.05161	8924.375
2939.51912	8899.775
2941.98513	8895.875
2944.44962	8865.275
2946.91261	8830.475
2949.37409	8820.975
2951.83407	8843.575
2954.29254	8818.075
2956.74951	8798.075
2959.20498	8796.575
2961.65895	8772.175
2964.11142	8779.475
2966.56239	8759.675
2969.01186	8750.075
2971.45984	8737.675
2973.90632	8725.775
2976.35131	8690.475
2978.7948	8677.475
2981.23681	8678.475
2983.67732	8628.075
2986.11635	8634.575
2988.55388	8604.475
2990.98993	8607.575
2993.4245	8575.775
2995.85758	8563.175
2998.28917	8529.175
3000.71928	8519.175
3003.14791	8499.475
3005.57506	8506.075
3008.00073	8503.875
3010.42493	8475.975
3012.84764	8454.775
3015.26888	8456.275
3017.68865	8450.075
3020.10694	8442.075
3022.52376	8408.875
3024.9391	8404.475
3027.35298	8409.675
3029.76539	8389.375
3032.17632	8365.275
3034.5858	8368.475
3036.9938	8362.375
3039.40034	8346.775
3041.80542	8357.075
3044.20903	8342.675
3046.61118	8333.475
3049.01187	8318.575
3051.4111	8307.575
3053.80888	8293.575
3056.20519	8270.575
3058.60005	8263.475
3060.99345	8224.175
3063.3854	8237.575
3065.7759	8211.175
3068.16494	8209.975
3070.55254	8180.575
3072.93868	8173.375
3075.32338	8154.375
3077.70662	8131.975
3080.08842	8138.175
3082.46878	8116.975
3084.84769	8098.675
3087.22515	8120.275
3089.60118	8118.675
3091.97576	8121.375
3094.3489	8119.775
3096.72061	8133.675
3099.09087	8126.875
3101.4597	8088.975
3103.82709	8120.775
3106.19305	8104.375
3108.55757	8092.675
3110.92066	8071.075
3113.28232	8050.775
3115.64255	8059.775
3118.00134	8034.775
3120.35871	8025.675
3122.71466	8036.875
3125.06917	7994.375
3127.42226	8002.875
3129.77393	7992.675
3132.12417	7999.275
3134.47299	8012.275
3136.82039	8029.575
3139.16636	8031.375
3141.51092	7999.675
3143.85406	7992.875
3146.19579	8015.675
3148.53609	8015.875
3150.87499	8009.775
3153.21246	8034.775
3155.54853	8064.675
3157.88318	8010.875
3160.21642	8045.475
3162.54826	8039.675
3164.87868	8026.575
