Data from AgNP_FTO_APTES_CRN_500uM_R6G_10uM_NaF_0.1M_Addition_RamanShift__0__20-03-38-210.txt Node

Date: Wed Dec 15 20:03:38 GMT 2021
User: TCL
Spectrometer: QEP01345
Trigger mode: 4
Integration Time (sec): 7.000000E0
Scans to average: 10
Electric dark correction enabled: true
Nonlinearity correction enabled: false
Boxcar width: 0
XAxis mode: Raman Shifts
Number of Pixels in Spectrum: 1044
>>>>>Begin Spectral Data<<<<<
46.04893	2.625
50.45542	-1.075
54.85868	-0.975
59.25871	0.525
63.6555	16.025
68.04907	21.725
72.43941	22.525
76.82654	24.125
81.21044	22.125
85.59113	23.025
89.96862	25.025
94.34289	22.725
98.71396	26.025
103.08183	27.625
107.4465	30.325
111.80798	30.625
116.16626	29.325
120.52136	33.325
124.87327	32.725
129.222	33.725
133.56755	33.625
137.90993	34.425
142.24913	40.725
146.58517	43.125
150.91804	53.025
155.24774	61.825
159.57429	77.725
163.89768	98.825
168.21792	129.525
172.53501	174.225
176.84895	247.225
181.15975	352.625
185.46741	491.525
189.77193	681.025
194.07331	921.525
198.37157	1182.425
202.6667	1463.425
206.9587	1740.925
211.24758	2015.925
215.53334	2284.625
219.81599	2589.125
224.09553	2892.025
228.37195	3230.825
232.64527	3604.825
236.91549	3997.625
241.18261	4397.625
245.44663	4802.725
249.70755	5147.025
253.96539	5486.125
258.22014	5743.725
262.4718	5976.325
266.72039	6116.225
270.96589	6195.825
275.20832	6182.025
279.44768	6150.825
283.68397	6083.725
287.91719	6008.325
292.14735	5931.625
296.37445	5940.125
300.59849	5923.325
304.81948	5934.825
309.03742	5951.225
313.25231	5925.825
317.46415	5870.025
321.67296	5780.725
325.87872	5681.625
330.08145	5684.225
334.28114	5688.125
338.47781	5750.125
342.67145	5789.325
346.86207	5894.625
351.04966	6009.925
355.23424	6130.725
359.4158	6217.025
363.59435	6280.325
367.76989	6346.925
371.94243	6377.525
376.11196	6388.525
380.27849	6447.925
384.44203	6476.425
388.60257	6547.525
392.76012	6607.025
396.91468	6708.425
401.06626	6836.325
405.21485	6909.925
409.36047	6973.025
413.50311	7006.925
417.64277	7102.725
421.77947	7306.725
425.9132	7555.325
430.04396	7775.925
434.17176	7836.125
438.2966	7708.025
442.41849	7559.025
446.53742	7520.925
450.6534	7564.625
454.76644	7629.025
458.87653	7581.625
462.98368	7465.125
467.08789	7371.825
471.18916	7294.825
475.2875	7263.625
479.38291	7279.325
483.4754	7296.325
487.56496	7315.925
491.6516	7318.625
495.73531	7280.625
499.81612	7182.625
503.89401	7149.325
507.96899	7100.725
512.04106	7073.025
516.11023	7049.425
520.1765	7054.025
524.23987	7036.525
528.30034	7027.725
532.35792	6979.825
536.41261	6932.725
540.46441	6876.325
544.51333	6843.025
548.55936	6886.225
552.60252	6948.825
556.64279	7054.825
560.6802	7124.325
564.71473	7152.525
568.7464	7220.925
572.7752	7285.625
576.80114	7322.225
580.82422	7397.825
584.84444	7518.325
588.86181	7728.525
592.87633	7956.925
596.888	8068.325
600.89682	7986.725
604.9028	8001.225
608.90594	8376.625
612.90624	8838.725
616.90371	8470.525
620.89834	7497.325
624.89015	7027.125
628.87913	6968.725
632.86528	6972.025
636.84862	6979.925
640.82913	6930.025
644.80683	6813.625
648.78172	6752.825
652.75379	6778.325
656.72306	6805.025
660.68952	6898.725
664.65319	6880.425
668.61405	6793.625
672.57211	6787.425
676.52738	6843.325
680.47986	6842.725
684.42955	6877.425
688.37646	6928.125
692.32058	7040.625
696.26192	7256.125
700.20048	7519.925
704.13626	7790.025
708.06928	7874.325
711.99952	7792.825
715.927	7587.825
719.85171	7414.625
723.77365	7282.425
727.69284	7132.825
731.60928	7058.025
735.52295	7033.325
739.43388	7010.125
743.34206	6991.425
747.24749	6982.425
751.15017	6981.625
755.05012	7032.625
758.94733	7110.025
762.8418	7306.425
766.73354	7632.825
770.62254	7993.825
774.50882	8107.325
778.39237	7915.225
782.27321	7553.125
786.15132	7219.325
790.02671	7022.025
793.89938	6908.925
797.76935	6878.825
801.6366	6870.625
805.50115	6879.725
809.36299	6887.625
813.22213	6854.325
817.07857	6853.425
820.93231	6850.125
824.78336	6831.425
828.63172	6841.125
832.47738	6834.325
836.32036	6838.725
840.16066	6846.525
843.99827	6849.125
847.8332	6833.825
851.66546	6813.925
855.49504	6833.025
859.32195	6824.525
863.1462	6819.625
866.96777	6800.925
870.78668	6786.325
874.60293	6810.225
878.41652	6808.725
882.22745	6821.725
886.03573	6837.025
889.84136	6844.625
893.64433	6845.325
897.44466	6814.725
901.24235	6773.625
905.0374	6791.525
908.8298	6779.225
912.61957	6784.425
916.40671	6795.625
920.19121	6815.625
923.97308	6837.925
927.75233	6864.725
931.52895	6859.725
935.30295	6812.325
939.07433	6743.225
942.84309	6697.925
946.60924	6661.525
950.37278	6658.825
954.13371	6611.025
957.89203	6618.025
961.64774	6592.425
965.40086	6612.125
969.15137	6583.625
972.89929	6576.825
976.64461	6551.125
980.38733	6550.825
984.12747	6588.825
987.86502	6621.025
991.59999	6633.725
995.33237	6690.225
999.06217	6751.725
1002.78939	6803.925
1006.51404	6902.425
1010.23611	6947.525
1013.95561	6992.525
1017.67255	6985.525
1021.38692	6943.225
1025.09872	6879.725
1028.80796	6851.125
1032.51465	6870.025
1036.21877	6939.125
1039.92035	6952.525
1043.61937	6967.025
1047.31584	6959.225
1051.00976	6949.225
1054.70114	6958.325
1058.38998	6965.425
1062.07627	7033.025
1065.76003	7139.625
1069.44126	7250.725
1073.11995	7364.425
1076.79611	7421.325
1080.46974	7412.725
1084.14085	7381.325
1087.80943	7355.125
1091.47549	7372.925
1095.13903	7345.025
1098.80005	7295.125
1102.45857	7230.025
1106.11456	7161.425
1109.76805	7139.525
1113.41903	7132.925
1117.06751	7162.425
1120.71348	7209.525
1124.35696	7285.225
1127.99793	7325.325
1131.63641	7363.325
1135.2724	7287.125
1138.90589	7214.625
1142.5369	7179.025
1146.16542	7160.225
1149.79145	7157.925
1153.415	7175.725
1157.03607	7227.825
1160.65467	7298.025
1164.27079	7435.925
1167.88443	7655.125
1171.49561	7938.625
1175.10432	8275.225
1178.71056	8768.825
1182.31434	9163.125
1185.91565	9295.325
1189.51451	9161.725
1193.11091	8954.325
1196.70485	8700.525
1200.29634	8493.425
1203.88538	8338.825
1207.47197	8241.225
1211.05612	8156.425
1214.63782	8069.225
1218.21708	7988.425
1221.79391	7953.525
1225.36829	7940.425
1228.94024	7951.225
1232.50976	7932.725
1236.07685	7890.325
1239.6415	7944.325
1243.20374	8023.325
1246.76355	8157.825
1250.32093	8358.325
1253.8759	8565.525
1257.42845	8766.925
1260.97859	8912.625
1264.52631	9038.225
1268.07163	9128.125
1271.61453	9172.525
1275.15503	9173.525
1278.69312	9131.025
1282.22882	9147.925
1285.76211	9210.225
1289.29301	9373.625
1292.82151	9596.125
1296.34761	9847.525
1299.87133	10152.625
1303.39266	10521.325
1306.9116	10913.425
1310.42815	11288.025
1313.94233	11467.725
1317.45412	11415.625
1320.96354	11162.825
1324.47058	11037.125
1327.97525	10940.125
1331.47754	10415.325
1334.97747	10230.825
1338.47502	10120.725
1341.97022	10072.025
1345.46305	9999.125
1348.95352	10089.225
1352.44163	10291.625
1355.92738	10655.425
1359.41078	11197.425
1362.89183	11670.125
1366.37053	11552.725
1369.84688	10782.925
1373.32088	9933.825
1376.79254	9399.325
1380.26186	9312.725
1383.72883	9620.325
1387.19347	9830.725
1390.65578	9723.425
1394.11575	9354.125
1397.57339	9027.525
1401.0287	8858.725
1404.48168	8762.125
1407.93234	8669.925
1411.38068	8549.025
1414.82669	8358.125
1418.27039	8178.825
1421.71177	8017.125
1425.15083	7826.725
1428.58758	7754.325
1432.02203	7784.525
1435.45416	7908.925
1438.88399	7994.325
1442.31151	8081.125
1445.73673	8314.725
1449.15965	8387.725
1452.58027	8183.725
1455.9986	8117.025
1459.41463	8097.725
1462.82837	8168.625
1466.23982	8272.725
1469.64898	8393.025
1473.05586	8480.625
1476.46045	8551.025
1479.86276	8550.925
1483.26279	8567.325
1486.66054	8601.025
1490.05602	8658.425
1493.44922	8792.925
1496.84016	8898.925
1500.22882	9095.225
1503.61521	9365.225
1506.99934	9680.525
1510.38121	9917.925
1513.76081	9949.825
1517.13816	9734.825
1520.51324	9381.625
1523.88607	9022.025
1527.25665	8846.125
1530.62498	8767.925
1533.99105	8706.325
1537.35488	8643.625
1540.71647	8532.725
1544.07581	8450.825
1547.4329	8322.725
1550.78776	8225.025
1554.14038	8161.725
1557.49077	8126.425
1560.83892	8147.325
1564.18484	8182.625
1567.52853	8302.925
1570.86999	8447.625
1574.20922	8633.025
1577.54624	8789.525
1580.88103	8827.025
1584.2136	8819.925
1587.54395	8807.925
1590.87208	8951.325
1594.19801	9268.125
1597.52172	9627.525
1600.84321	9751.225
1604.16251	9484.425
1607.47959	9000.525
1610.79447	8507.225
1614.10715	8085.525
1617.41763	7791.025
1620.7259	7634.225
1624.03199	7624.925
1627.33587	7714.625
1630.63757	7947.725
1633.93707	8342.425
1637.23439	8904.525
1640.52951	9666.525
1643.82246	10655.425
1647.11321	11559.725
1650.40179	12088.225
1653.68819	12087.725
1656.97241	11370.925
1660.25446	10533.325
1663.53433	9866.125
1666.81203	9264.725
1670.08756	8699.625
1673.36092	8146.625
1676.63211	7695.125
1679.90115	7405.125
1683.16801	7291.225
1686.43272	7298.425
1689.69527	7553.425
1692.95567	8229.825
1696.2139	9416.825
1699.46999	10465.725
1702.72392	10526.425
1705.97571	9470.625
1709.22535	8276.525
1712.47284	7442.525
1715.71819	6984.025
1718.96139	6728.225
1722.20246	6573.225
1725.44139	6497.025
1728.67818	6450.025
1731.91284	6398.325
1735.14537	6418.225
1738.37576	6463.825
1741.60403	6517.825
1744.83017	6663.425
1748.05418	6834.325
1751.27607	7178.625
1754.49584	7755.925
1757.71349	8457.725
1760.92903	8823.025
1764.14244	8766.025
1767.35375	8699.125
1770.56294	8693.525
1773.77002	8332.525
1776.97499	7625.825
1780.17785	6990.825
1783.37861	6589.825
1786.57727	6361.825
1789.77382	6197.525
1792.96828	6113.225
1796.16064	6033.925
1799.3509	6013.025
1802.53907	5956.725
1805.72514	5920.925
1808.90913	5886.825
1812.09102	5876.725
1815.27083	5838.425
1818.44856	5826.425
1821.6242	5793.725
1824.79776	5785.425
1827.96924	5770.025
1831.13864	5775.825
1834.30597	5758.725
1837.47122	5768.325
1840.6344	5741.325
1843.7955	5730.025
1846.95454	5756.325
1850.11151	5732.925
1853.26642	5738.825
1856.41926	5728.525
1859.57004	5710.725
1862.71876	5722.725
1865.86542	5720.225
1869.01003	5716.325
1872.15258	5698.525
1875.29308	5700.525
1878.43152	5664.825
1881.56792	5686.425
1884.70227	5673.325
1887.83457	5677.325
1890.96482	5671.725
1894.09304	5672.525
1897.21921	5659.925
1900.34335	5669.825
1903.46544	5661.025
1906.58551	5618.625
1909.70353	5640.025
1912.81953	5636.225
1915.93349	5632.325
1919.04543	5606.725
1922.15534	5605.525
1925.26322	5591.825
1928.36908	5584.925
1931.47292	5582.525
1934.57473	5578.825
1937.67453	5536.725
1940.77232	5540.525
1943.86808	5536.725
1946.96184	5519.025
1950.05358	5508.425
1953.14331	5489.425
1956.23103	5480.925
1959.31675	5479.625
1962.40046	5464.825
1965.48217	5445.925
1968.56188	5436.925
1971.63959	5411.825
1974.7153	5395.825
1977.78901	5380.925
1980.86073	5367.025
1983.93046	5329.225
1986.99819	5348.525
1990.06394	5311.725
1993.1277	5309.425
1996.18947	5284.325
1999.24925	5269.225
2002.30706	5261.725
2005.36288	5253.925
2008.41672	5231.025
2011.46859	5220.925
2014.51848	5215.125
2017.56639	5209.825
2020.61233	5190.725
2023.6563	5188.925
2026.6983	5179.225
2029.73833	5166.125
2032.7764	5136.125
2035.8125	5130.025
2038.84664	5120.825
2041.87881	5115.925
2044.90903	5101.725
2047.93729	5098.725
2050.96359	5120.725
2053.98794	5167.725
2057.01034	5126.225
2060.03078	5110.125
2063.04927	5069.325
2066.06582	5097.025
2069.08042	5076.625
2072.09307	5082.425
2075.10378	5069.925
2078.11255	5057.925
2081.11938	5068.225
2084.12426	5059.725
2087.12722	5075.225
2090.12824	5050.025
2093.12732	5059.925
2096.12447	5061.825
2099.11969	5060.325
2102.11299	5074.725
2105.10435	5072.125
2108.09379	5079.925
2111.08131	5080.425
2114.0669	5095.025
2117.05057	5075.725
2120.03233	5097.925
2123.01216	5096.725
2125.99008	5099.225
2128.96609	5116.125
2131.94018	5092.725
2134.91236	5106.825
2137.88263	5106.225
2140.851	5093.125
2143.81746	5128.125
2146.78201	5117.525
2149.74466	5115.625
2152.7054	5112.625
2155.66425	5132.125
2158.6212	5141.225
2161.57625	5136.925
2164.52941	5118.725
2167.48067	5117.225
2170.43004	5103.425
2173.37752	5109.925
2176.32311	5108.125
2179.26681	5100.725
2182.20863	5104.025
2185.14856	5097.225
2188.08661	5096.825
2191.02278	5099.425
2193.95707	5097.225
2196.88948	5087.125
2199.82001	5076.925
2202.74867	5094.125
2205.67545	5084.125
2208.60037	5086.725
2211.52341	5084.125
2214.44458	5074.425
2217.36388	5050.125
2220.28132	5048.125
2223.1969	5033.425
2226.11061	5029.825
2229.02246	5032.425
2231.93245	5034.625
2234.84058	5006.725
2237.74686	5018.525
2240.65128	5005.725
2243.55385	4990.225
2246.45456	4987.225
2249.35343	4979.125
2252.25044	4980.225
2255.14561	4989.025
2258.03893	5130.325
2260.93041	5408.425
2263.82004	5167.825
2266.70783	5043.725
2269.59378	4987.725
2272.4779	4928.925
2275.36017	4918.325
2278.24061	4886.125
2281.11922	4887.525
2283.996	4868.225
2286.87094	4872.225
2289.74405	4862.325
2292.61534	4867.725
2295.4848	4853.625
2298.35243	4851.325
2301.21824	4851.125
2304.08223	4853.525
2306.94439	4838.325
2309.80474	4862.525
2312.66327	4856.625
2315.51999	4848.625
2318.37489	4864.325
2321.22797	4861.825
2324.07925	4871.625
2326.92871	4879.725
2329.77637	4893.825
2332.62222	4887.325
2335.46626	4876.025
2338.3085	4888.125
2341.14893	4879.425
2343.98756	4871.825
2346.8244	4851.725
2349.65943	4847.825
2352.49267	4829.225
2355.32411	4806.125
2358.15376	4794.825
2360.98161	4781.925
2363.80768	4760.325
2366.63195	4750.025
2369.45444	4770.125
2372.27514	4741.025
2375.09405	4751.325
2377.91118	4747.525
2380.72652	4726.325
2383.54009	4700.125
2386.35187	4715.025
2389.16188	4692.725
2391.97011	4687.225
2394.77657	4689.025
2397.58125	4686.525
2400.38416	4697.325
2403.18529	4684.025
2405.98466	4689.225
2408.78226	4685.425
2411.57809	4700.525
2414.37216	4685.525
2417.16446	4679.925
2419.955	4666.825
2422.74378	4647.725
2425.5308	4623.225
2428.31606	4611.825
2431.09956	4598.625
2433.88131	4608.625
2436.6613	4605.225
2439.43954	4598.925
2442.21603	4608.525
2444.99077	4600.325
2447.76377	4603.225
2450.53501	4575.825
2453.30451	4581.425
2456.07226	4561.325
2458.83827	4573.625
2461.60254	4571.225
2464.36507	4572.025
2467.12586	4572.025
2469.88492	4562.025
2472.64224	4589.525
2475.39782	4792.525
2478.15167	4869.825
2480.90379	4683.325
2483.65417	4646.425
2486.40283	4611.225
2489.14976	4577.025
2491.89497	4597.325
2494.63845	4849.825
2497.3802	4908.325
2500.12024	4678.825
2502.85855	4614.725
2505.59514	4585.025
2508.33002	4550.225
2511.06318	4536.325
2513.79462	4497.325
2516.52435	4513.125
2519.25237	4513.025
2521.97867	4496.325
2524.70327	4504.125
2527.42616	4488.125
2530.14734	4481.125
2532.86681	4479.725
2535.58458	4455.725
2538.30065	4469.925
2541.01501	4464.925
2543.72768	4462.425
2546.43864	4455.225
2549.14791	4429.925
2551.85548	4437.525
2554.56136	4430.825
2557.26554	4418.725
2559.96803	4414.625
2562.66883	4414.125
2565.36794	4401.925
2568.06536	4408.125
2570.7611	4403.125
2573.45514	4400.125
2576.14751	4393.125
2578.83819	4379.225
2581.52719	4369.925
2584.21451	4359.425
2586.90015	4350.925
2589.58411	4354.425
2592.2664	4343.225
2594.94701	4329.425
2597.62594	4326.825
2600.30321	4326.425
2602.9788	4329.425
2605.65273	4310.025
2608.32498	4304.225
2610.99557	4303.125
2613.66449	4298.325
2616.33175	4291.625
2618.99734	4276.625
2621.66128	4295.125
2624.32355	4306.725
2626.98416	4264.525
2629.64311	4265.725
2632.30041	4273.425
2634.95605	4260.025
2637.61004	4247.825
2640.26238	4252.925
2642.91306	4247.725
2645.56209	4281.725
2648.20948	4324.625
2650.85521	4284.125
2653.4993	4263.925
2656.14175	4260.225
2658.78255	4240.725
2661.42171	4242.425
2664.05923	4238.825
2666.6951	4236.425
2669.32934	4246.525
2671.96194	4223.625
2674.59291	4256.125
2677.22224	4246.125
2679.84993	4239.025
2682.476	4235.325
2685.10043	4228.625
2687.72324	4235.525
2690.34441	4235.625
2692.96396	4244.725
2695.58188	4248.025
2698.19818	4248.125
2700.81285	4309.525
2703.4259	4880.425
2706.03733	5995.225
2708.64714	5198.625
2711.25533	4732.125
2713.86191	4577.425
2716.46687	4498.025
2719.07021	4391.725
2721.67194	4285.825
2724.27206	4243.825
2726.87057	4246.425
2729.46747	4241.425
2732.06276	4241.625
2734.65644	4229.425
2737.24852	4225.125
2739.83899	4212.625
2742.42786	4216.825
2745.01513	4211.825
2747.60079	4205.625
2750.18486	4199.925
2752.76733	4192.225
2755.3482	4199.425
2757.92747	4197.825
2760.50515	4180.125
2763.08123	4204.825
2765.65573	4186.725
2768.22863	4192.125
2770.79994	4173.025
2773.36967	4173.525
2775.9378	4176.325
2778.50435	4174.225
2781.06932	4156.925
2783.6327	4162.625
2786.1945	4153.525
2788.75471	4133.425
2791.31335	4137.925
2793.87041	4142.325
2796.42589	4115.725
2798.97979	4113.025
2801.53212	4100.925
2804.08288	4102.125
2806.63206	4104.125
2809.17967	4079.425
2811.72571	4078.825
2814.27018	4073.525
2816.81308	4047.825
2819.35442	4065.525
2821.89419	4053.725
2824.43239	4040.325
2826.96904	4042.025
2829.50412	4044.725
2832.03763	4022.025
2834.56959	4047.825
2837.1	4028.325
2839.62884	4032.825
2842.15613	4018.525
2844.68186	4032.225
2847.20604	4027.825
2849.72867	4043.625
2852.24974	4053.925
2854.76927	4307.225
2857.28724	4549.325
2859.80367	4282.525
2862.31855	4161.625
2864.83189	4142.425
2867.34368	4113.025
2869.85393	4063.425
2872.36264	4019.325
2874.8698	4022.025
2877.37543	4010.325
2879.87952	3996.225
2882.38207	3999.025
2884.88308	3980.825
2887.38256	3995.425
2889.88051	3988.325
2892.37692	3993.625
2894.8718	3985.425
2897.36515	3990.325
2899.85698	3986.025
2902.34727	3989.925
2904.83604	3986.525
2907.32328	3993.925
2909.809	3985.225
2912.29319	3984.125
2914.77587	3985.525
2917.25702	3978.325
2919.73665	3974.725
2922.21476	3983.825
2924.69136	3990.125
2927.16644	3976.525
2929.64	3965.425
2932.11205	3957.025
2934.58258	3960.325
2937.05161	3967.325
2939.51912	3963.925
2941.98513	3962.225
2944.44962	3952.925
2946.91261	3946.225
2949.37409	3938.625
2951.83407	3938.225
2954.29254	3934.625
2956.74951	3934.425
2959.20498	3942.925
2961.65895	3932.025
2964.11142	3922.325
2966.56239	3929.725
2969.01186	3911.025
2971.45984	3903.825
2973.90632	3912.425
2976.35131	3888.225
2978.7948	3876.725
2981.23681	3871.725
2983.67732	3869.225
2986.11635	3858.025
2988.55388	3868.625
2990.98993	3857.925
2993.4245	3846.725
2995.85758	3835.825
2998.28917	3836.925
3000.71928	3822.825
3003.14791	3814.725
3005.57506	3814.125
3008.00073	3811.925
3010.42493	3810.525
3012.84764	3807.725
3015.26888	3798.325
3017.68865	3802.225
3020.10694	3798.225
3022.52376	3774.325
3024.9391	3776.925
3027.35298	3759.425
3029.76539	3755.825
3032.17632	3758.225
3034.5858	3749.625
3036.9938	3754.825
3039.40034	3743.425
3041.80542	3729.325
3044.20903	3728.025
3046.61118	3727.025
3049.01187	3725.825
3051.4111	3724.125
3053.80888	3710.425
3056.20519	3701.925
3058.60005	3703.825
3060.99345	3691.125
3063.3854	3684.725
3065.7759	3679.525
3068.16494	3683.725
3070.55254	3662.325
3072.93868	3675.725
3075.32338	3647.725
3077.70662	3656.825
3080.08842	3625.925
3082.46878	3644.525
3084.84769	3649.325
3087.22515	3638.525
3089.60118	3643.725
3091.97576	3654.725
3094.3489	3636.025
3096.72061	3637.325
3099.09087	3632.725
3101.4597	3621.825
3103.82709	3624.425
3106.19305	3613.125
3108.55757	3624.725
3110.92066	3623.825
3113.28232	3604.025
3115.64255	3598.625
3118.00134	3590.125
3120.35871	3594.625
3122.71466	3586.625
3125.06917	3565.725
3127.42226	3567.225
3129.77393	3569.225
3132.12417	3552.125
3134.47299	3574.225
3136.82039	3580.225
3139.16636	3587.625
3141.51092	3569.025
3143.85406	3575.225
3146.19579	3566.925
3148.53609	3579.325
3150.87499	3576.525
3153.21246	3578.725
3155.54853	3576.725
3157.88318	3572.525
3160.21642	3567.325
3162.54826	3562.725
3164.87868	3559.025
3167.2077	3555.125
3169.5353	3569.825
3171.86151	3570.225
3174.18631	3570.625
3176.5097	3566.025
3178.83169	3549.925
3181.15228	3542.825
3183.47147	3540.825
3185.78926	3553.125
3188.10565	3547.925
3190.42065	3541.225
3192.73424	3533.425
3195.04645	3535.825
3197.35725	3538.625
3199.66667	3527.225
3201.97469	3535.325
3204.28132	3540.825
3206.58656	3527.725
3208.8904	3538.825
3211.19287	3540.025
3213.49394	3537.225
3215.79363	3544.325
3218.09193	3568.325
3220.38884	3815.925
3222.68438	4037.525
3224.97853	3783.325
3227.2713	3684.625
3229.56269	3622.725
3231.8527	3620.025
3234.14133	3585.525
