Data from AgNP_FTO_APTES_CRN_1000uM_R6G_10uM_NaF_0.1M_Addition_RamanShift__7__20-58-28-272.txt Node

Date: Wed Dec 15 20:58:28 GMT 2021
User: TCL
Spectrometer: QEP01345
Trigger mode: 4
Integration Time (sec): 7.000000E0
Scans to average: 10
Electric dark correction enabled: true
Nonlinearity correction enabled: false
Boxcar width: 0
XAxis mode: Raman Shifts
Number of Pixels in Spectrum: 1044
>>>>>Begin Spectral Data<<<<<
46.04893	1.925
50.45542	-2.175
54.85868	0.125
59.25871	-0.475
63.6555	65.625
68.04907	68.925
72.43941	68.325
76.82654	75.125
81.21044	76.125
85.59113	77.425
89.96862	87.625
94.34289	82.825
98.71396	86.425
103.08183	92.425
107.4465	96.425
111.80798	96.425
116.16626	99.725
120.52136	104.325
124.87327	107.125
129.222	111.025
133.56755	114.325
137.90993	123.125
142.24913	136.325
146.58517	152.525
150.91804	173.625
155.24774	203.425
159.57429	256.025
163.89768	326.625
168.21792	424.325
172.53501	580.425
176.84895	809.225
181.15975	1129.325
185.46741	1593.025
189.77193	2203.525
194.07331	2943.125
198.37157	3783.025
202.6667	4679.625
206.9587	5562.425
211.24758	6418.125
215.53334	7274.425
219.81599	8172.725
224.09553	9155.425
228.37195	10224.925
232.64527	11414.025
236.91549	12644.625
241.18261	13941.325
245.44663	15175.125
249.70755	16321.025
253.96539	17310.925
258.22014	18189.525
262.4718	18870.825
266.72039	19343.625
270.96589	19583.625
275.20832	19639.025
279.44768	19564.925
283.68397	19391.025
287.91719	19249.525
292.14735	19166.425
296.37445	19119.625
300.59849	19065.725
304.81948	19013.025
309.03742	18960.625
313.25231	18766.125
317.46415	18489.325
321.67296	18162.025
325.87872	17881.925
330.08145	17762.925
334.28114	17797.825
338.47781	17892.425
342.67145	18049.825
346.86207	18266.225
351.04966	18524.525
355.23424	18811.925
359.4158	18986.625
363.59435	19165.125
367.76989	19316.225
371.94243	19377.625
376.11196	19468.825
380.27849	19525.825
384.44203	19668.125
388.60257	19809.525
392.76012	20016.625
396.91468	20245.725
401.06626	20499.325
405.21485	20679.125
409.36047	20704.925
413.50311	20595.725
417.64277	20548.625
421.77947	20620.225
425.9132	20750.025
430.04396	20907.025
434.17176	21034.425
438.2966	21141.025
442.41849	21403.125
446.53742	21740.725
450.6534	22160.125
454.76644	22479.625
458.87653	22638.325
462.98368	22679.925
467.08789	22564.525
471.18916	22498.225
475.2875	22403.225
479.38291	22465.125
483.4754	22348.125
487.56496	22080.525
491.6516	21786.625
495.73531	21454.225
499.81612	21351.425
503.89401	21463.525
507.96899	21534.625
512.04106	21566.525
516.11023	21497.825
520.1765	21358.625
524.23987	21239.425
528.30034	21089.925
532.35792	20952.125
536.41261	20764.825
540.46441	20697.925
544.51333	20754.625
548.55936	20919.525
552.60252	21257.225
556.64279	21652.325
560.6802	21934.625
564.71473	22146.325
568.7464	22431.525
572.7752	22935.525
576.80114	23466.325
580.82422	23958.325
584.84444	24498.825
588.86181	25093.025
592.87633	25457.525
596.888	25174.825
600.89682	24464.525
604.9028	24269.125
608.90594	24776.925
612.90624	25343.925
616.90371	24156.025
620.89834	21934.225
624.89015	20956.025
628.87913	20855.625
632.86528	20998.025
636.84862	21035.925
640.82913	20912.825
644.80683	20642.325
648.78172	20467.425
652.75379	20401.325
656.72306	20521.125
660.68952	20635.625
664.65319	20574.125
668.61405	20397.825
672.57211	20456.625
676.52738	20568.125
680.47986	20583.325
684.42955	20543.025
688.37646	20474.125
692.32058	20525.725
696.26192	20639.325
700.20048	20815.525
704.13626	20944.625
708.06928	21008.825
711.99952	21032.525
715.927	20973.925
719.85171	20969.025
723.77365	20815.125
727.69284	20674.225
731.60928	20450.325
735.52295	20410.725
739.43388	20370.325
743.34206	20451.325
747.24749	20504.925
751.15017	20613.725
755.05012	20858.125
758.94733	21276.125
762.8418	21915.625
766.73354	22847.025
770.62254	23580.025
774.50882	23614.325
778.39237	22849.625
782.27321	21897.125
786.15132	21039.925
790.02671	20562.025
793.89938	20294.225
797.76935	20246.025
801.6366	20223.525
805.50115	20215.025
809.36299	20120.525
813.22213	20052.325
817.07857	20000.125
820.93231	19932.325
824.78336	19887.325
828.63172	19789.525
832.47738	19744.625
836.32036	19777.525
840.16066	19801.325
843.99827	19747.825
847.8332	19746.625
851.66546	19725.225
855.49504	19724.625
859.32195	19734.125
863.1462	19716.025
866.96777	19680.525
870.78668	19679.325
874.60293	19734.725
878.41652	19684.825
882.22745	19715.525
886.03573	19744.125
889.84136	19776.325
893.64433	19761.325
897.44466	19746.525
901.24235	19664.625
905.0374	19623.625
908.8298	19588.825
912.61957	19637.125
916.40671	19789.725
920.19121	19949.025
923.97308	20028.525
927.75233	19958.625
931.52895	19778.825
935.30295	19587.925
939.07433	19333.525
942.84309	19154.125
946.60924	19068.625
950.37278	19011.925
954.13371	19018.325
957.89203	18976.025
961.64774	19020.925
965.40086	18995.825
969.15137	18926.425
972.89929	18793.425
976.64461	18745.225
980.38733	18694.625
984.12747	18690.025
987.86502	18725.325
991.59999	18777.825
995.33237	18866.125
999.06217	19005.125
1002.78939	19241.425
1006.51404	19484.625
1010.23611	19715.425
1013.95561	19900.725
1017.67255	19930.225
1021.38692	19829.725
1025.09872	19603.325
1028.80796	19455.225
1032.51465	19357.525
1036.21877	19420.325
1039.92035	19498.925
1043.61937	19574.325
1047.31584	19676.725
1051.00976	19729.425
1054.70114	19870.025
1058.38998	20033.125
1062.07627	20290.225
1065.76003	20705.125
1069.44126	21115.725
1073.11995	21521.625
1076.79611	21712.325
1080.46974	21552.125
1084.14085	21278.425
1087.80943	21117.025
1091.47549	21072.425
1095.13903	21019.725
1098.80005	20870.625
1102.45857	20550.825
1106.11456	20256.025
1109.76805	20024.425
1113.41903	19999.825
1117.06751	20039.725
1120.71348	20196.125
1124.35696	20366.825
1127.99793	20587.625
1131.63641	20733.825
1135.2724	20708.325
1138.90589	20659.725
1142.5369	20719.525
1146.16542	20826.025
1149.79145	20969.425
1153.415	21208.025
1157.03607	21415.625
1160.65467	21892.325
1164.27079	22651.725
1167.88443	23525.825
1171.49561	24503.325
1175.10432	25626.325
1178.71056	27003.525
1182.31434	28259.525
1185.91565	28839.725
1189.51451	28793.025
1193.11091	28369.325
1196.70485	27757.325
1200.29634	27008.825
1203.88538	26523.425
1207.47197	26298.925
1211.05612	26106.225
1214.63782	25758.625
1218.21708	25119.825
1221.79391	24449.125
1225.36829	23962.225
1228.94024	23624.825
1232.50976	23406.225
1236.07685	23200.925
1239.6415	23099.925
1243.20374	23133.125
1246.76355	23233.225
1250.32093	23427.725
1253.8759	23840.025
1257.42845	24314.525
1260.97859	24765.825
1264.52631	25273.925
1268.07163	25752.925
1271.61453	26254.525
1275.15503	26824.925
1278.69312	27425.125
1282.22882	28079.525
1285.76211	28867.625
1289.29301	29807.125
1292.82151	31014.025
1296.34761	32489.625
1299.87133	34026.725
1303.39266	35472.325
1306.9116	36632.125
1310.42815	37409.325
1313.94233	37806.425
1317.45412	37713.425
1320.96354	37404.625
1324.47058	37201.025
1327.97525	37111.225
1331.47754	37038.325
1334.97747	37018.525
1338.47502	36874.725
1341.97022	36643.725
1345.46305	36260.725
1348.95352	35813.925
1352.44163	35505.725
1355.92738	35570.825
1359.41078	36005.025
1362.89183	36426.825
1366.37053	35773.525
1369.84688	33835.325
1373.32088	31387.425
1376.79254	29654.225
1380.26186	28966.925
1383.72883	29011.225
1387.19347	29176.225
1390.65578	29100.625
1394.11575	29216.525
1397.57339	29408.625
1401.0287	29804.425
1404.48168	29982.725
1407.93234	29747.425
1411.38068	29045.725
1414.82669	28032.125
1418.27039	26865.425
1421.71177	25788.425
1425.15083	25023.525
1428.58758	24679.325
1432.02203	24787.425
1435.45416	25310.525
1438.88399	25993.625
1442.31151	26408.225
1445.73673	26766.925
1449.15965	27078.225
1452.58027	27259.525
1455.9986	27408.625
1459.41463	27619.625
1462.82837	27920.425
1466.23982	28261.925
1469.64898	28554.825
1473.05586	28697.425
1476.46045	28648.125
1479.86276	28398.425
1483.26279	28088.625
1486.66054	27909.625
1490.05602	27928.625
1493.44922	28057.625
1496.84016	28305.125
1500.22882	28652.025
1503.61521	29179.325
1506.99934	29816.925
1510.38121	30225.325
1513.76081	30279.525
1517.13816	29952.325
1520.51324	29585.725
1523.88607	29435.425
1527.25665	29444.525
1530.62498	29595.625
1533.99105	29553.325
1537.35488	29280.525
1540.71647	28756.625
1544.07581	28118.725
1547.4329	27409.825
1550.78776	26876.325
1554.14038	26352.425
1557.49077	26116.025
1560.83892	25967.425
1564.18484	25916.625
1567.52853	26147.725
1570.86999	26595.925
1574.20922	27305.725
1577.54624	28129.825
1580.88103	28662.525
1584.2136	28952.625
1587.54395	29231.625
1590.87208	29813.325
1594.19801	30604.325
1597.52172	31470.025
1600.84321	31548.725
1604.16251	30414.125
1607.47959	28538.625
1610.79447	26605.625
1614.10715	24810.425
1617.41763	23311.725
1620.7259	22269.425
1624.03199	21704.225
1627.33587	21610.425
1630.63757	22107.225
1633.93707	23169.825
1637.23439	25020.025
1640.52951	27630.425
1643.82246	30645.725
1647.11321	32813.825
1650.40179	33079.425
1653.68819	30964.025
1656.97241	27642.525
1660.25446	24437.525
1663.53433	21983.025
1666.81203	20321.025
1670.08756	19244.425
1673.36092	18553.225
1676.63211	18106.925
1679.90115	17773.825
1683.16801	17541.325
1686.43272	17315.725
1689.69527	17193.125
1692.95567	17085.425
1696.2139	17033.125
1699.46999	16987.525
1702.72392	16928.225
1705.97571	16847.525
1709.22535	16802.025
1712.47284	16771.725
1715.71819	16749.825
1718.96139	16720.825
1722.20246	16634.125
1725.44139	16580.825
1728.67818	16499.925
1731.91284	16412.325
1735.14537	16322.725
1738.37576	16291.525
1741.60403	16213.225
1744.83017	16201.825
1748.05418	16165.125
1751.27607	16142.725
1754.49584	16108.025
1757.71349	16118.625
1760.92903	16104.425
1764.14244	16094.525
1767.35375	16099.425
1770.56294	16058.425
1773.77002	16030.725
1776.97499	15960.825
1780.17785	15928.225
1783.37861	15912.125
1786.57727	15899.325
1789.77382	15799.025
1792.96828	15798.725
1796.16064	15756.525
1799.3509	15699.225
1802.53907	15667.825
1805.72514	15624.825
1808.90913	15577.025
1812.09102	15544.325
1815.27083	15509.325
1818.44856	15490.225
1821.6242	15447.025
1824.79776	15435.925
1827.96924	15438.325
1831.13864	15431.425
1834.30597	15399.225
1837.47122	15405.125
1840.6344	15395.425
1843.7955	15384.625
1846.95454	15371.225
1850.11151	15328.425
1853.26642	15318.825
1856.41926	15332.425
1859.57004	15309.825
1862.71876	15261.025
1865.86542	15250.425
1869.01003	15234.625
1872.15258	15213.325
1875.29308	15220.625
1878.43152	15176.825
1881.56792	15154.425
1884.70227	15134.625
1887.83457	15132.725
1890.96482	15112.825
1894.09304	15116.325
1897.21921	15084.825
1900.34335	15047.625
1903.46544	15037.925
1906.58551	15010.525
1909.70353	14965.625
1912.81953	14952.425
1915.93349	14949.325
1919.04543	14883.025
1922.15534	14856.825
1925.26322	14844.725
1928.36908	14802.125
1931.47292	14777.625
1934.57473	14738.625
1937.67453	14703.725
1940.77232	14660.425
1943.86808	14649.425
1946.96184	14605.325
1950.05358	14521.925
1953.14331	14498.425
1956.23103	14498.025
1959.31675	14446.425
1962.40046	14416.725
1965.48217	14365.425
1968.56188	14313.325
1971.63959	14259.525
1974.7153	14245.825
1977.78901	14161.525
1980.86073	14123.625
1983.93046	14088.925
1986.99819	14018.125
1990.06394	14000.125
1993.1277	13976.625
1996.18947	13935.825
1999.24925	13866.225
2002.30706	13821.425
2005.36288	13774.225
2008.41672	13729.625
2011.46859	13694.925
2014.51848	13666.925
2017.56639	13645.125
2020.61233	13593.425
2023.6563	13554.025
2026.6983	13544.725
2029.73833	13502.425
2032.7764	13476.025
2035.8125	13438.525
2038.84664	13393.125
2041.87881	13404.225
2044.90903	13351.025
2047.93729	13322.925
2050.96359	13312.425
2053.98794	13281.025
2057.01034	13256.325
2060.03078	13252.225
2063.04927	13234.425
2066.06582	13233.625
2069.08042	13246.725
2072.09307	13257.125
2075.10378	13225.625
2078.11255	13186.825
2081.11938	13193.525
2084.12426	13184.025
2087.12722	13162.725
2090.12824	13155.625
2093.12732	13166.225
2096.12447	13169.125
2099.11969	13166.725
2102.11299	13174.225
2105.10435	13180.025
2108.09379	13140.825
2111.08131	13172.225
2114.0669	13160.525
2117.05057	13163.725
2120.03233	13168.925
2123.01216	13176.625
2125.99008	13153.525
2128.96609	13209.425
2131.94018	13217.725
2134.91236	13226.025
2137.88263	13176.425
2140.851	13215.425
2143.81746	13224.625
2146.78201	13193.925
2149.74466	13199.625
2152.7054	13214.825
2155.66425	13206.325
2158.6212	13223.525
2161.57625	13206.325
2164.52941	13188.325
2167.48067	13176.425
2170.43004	13192.425
2173.37752	13186.625
2176.32311	13160.725
2179.26681	13155.925
2182.20863	13173.525
2185.14856	13155.525
2188.08661	13138.825
2191.02278	13130.625
2193.95707	13113.725
2196.88948	13087.725
2199.82001	13073.225
2202.74867	13055.525
2205.67545	13070.725
2208.60037	13017.925
2211.52341	13037.425
2214.44458	12992.025
2217.36388	12971.925
2220.28132	12943.025
2223.1969	12903.625
2226.11061	12889.825
2229.02246	12866.425
2231.93245	12835.925
2234.84058	12837.325
2237.74686	12776.025
2240.65128	12770.825
2243.55385	12717.925
2246.45456	12695.325
2249.35343	12723.025
2252.25044	12679.725
2255.14561	12634.825
2258.03893	12646.025
2260.93041	12609.525
2263.82004	12569.725
2266.70783	12578.425
2269.59378	12516.125
2272.4779	12497.925
2275.36017	12440.725
2278.24061	12437.425
2281.11922	12373.625
2283.996	12352.725
2286.87094	12361.425
2289.74405	12288.425
2292.61534	12282.125
2295.4848	12267.025
2298.35243	12273.425
2301.21824	12257.925
2304.08223	12216.325
2306.94439	12228.525
2309.80474	12201.325
2312.66327	12203.325
2315.51999	12194.625
2318.37489	12199.825
2321.22797	12159.125
2324.07925	12143.325
2326.92871	12171.025
2329.77637	12146.925
2332.62222	12112.525
2335.46626	12091.525
2338.3085	12076.525
2341.14893	12059.225
2343.98756	12028.125
2346.8244	12035.625
2349.65943	12041.225
2352.49267	12003.425
2355.32411	12011.425
2358.15376	11975.425
2360.98161	11995.825
2363.80768	11951.625
2366.63195	11972.525
2369.45444	11939.825
2372.27514	11923.625
2375.09405	11917.825
2377.91118	11912.325
2380.72652	11863.125
2383.54009	11826.425
2386.35187	11851.325
2389.16188	11783.925
2391.97011	11763.825
2394.77657	11755.925
2397.58125	11731.325
2400.38416	11688.725
2403.18529	11673.325
2405.98466	11678.825
2408.78226	11642.925
2411.57809	11633.525
2414.37216	11615.825
2417.16446	11621.325
2419.955	11564.525
2422.74378	11566.925
2425.5308	11544.825
2428.31606	11523.025
2431.09956	11516.725
2433.88131	11520.825
2436.6613	11512.425
2439.43954	11487.225
2442.21603	11471.225
2444.99077	11448.125
2447.76377	11479.725
2450.53501	11476.825
2453.30451	11419.225
2456.07226	11416.125
2458.83827	11443.325
2461.60254	11437.025
2464.36507	11386.925
2467.12586	11367.425
2469.88492	11356.525
2472.64224	11360.325
2475.39782	11342.425
2478.15167	11344.925
2480.90379	11331.725
2483.65417	11326.625
2486.40283	11323.325
2489.14976	11317.725
2491.89497	11326.825
2494.63845	11329.525
2497.3802	11285.325
2500.12024	11296.125
2502.85855	11281.725
2505.59514	11279.025
2508.33002	11227.325
2511.06318	11263.525
2513.79462	11239.725
2516.52435	11215.925
2519.25237	11198.125
2521.97867	11188.725
2524.70327	11191.225
2527.42616	11169.325
2530.14734	11148.525
2532.86681	11117.525
2535.58458	11140.325
2538.30065	11112.025
2541.01501	11117.625
2543.72768	11092.525
2546.43864	11072.725
2549.14791	11035.725
2551.85548	11033.025
2554.56136	11004.325
2557.26554	10997.725
2559.96803	10998.825
2562.66883	10978.825
2565.36794	10956.025
2568.06536	10927.325
2570.7611	10925.425
2573.45514	10908.025
2576.14751	10910.625
2578.83819	10866.125
2581.52719	10839.125
2584.21451	10841.825
2586.90015	10818.225
2589.58411	10812.725
2592.2664	10771.925
2594.94701	10725.925
2597.62594	10736.225
2600.30321	10741.625
2602.9788	10716.725
2605.65273	10718.925
2608.32498	10703.725
2610.99557	10671.225
2613.66449	10663.125
2616.33175	10653.725
2618.99734	10651.725
2621.66128	10631.125
2624.32355	10638.425
2626.98416	10601.525
2629.64311	10608.425
2632.30041	10594.325
2634.95605	10581.325
2637.61004	10524.225
2640.26238	10550.525
2642.91306	10545.125
2645.56209	10532.825
2648.20948	10534.825
2650.85521	10520.025
2653.4993	10534.225
2656.14175	10558.125
2658.78255	10532.025
2661.42171	10542.225
2664.05923	10535.725
2666.6951	10507.225
2669.32934	10539.125
2671.96194	10490.325
2674.59291	10520.025
2677.22224	10504.125
2679.84993	10499.425
2682.476	10489.025
2685.10043	10499.325
2687.72324	10457.525
2690.34441	10469.425
2692.96396	10475.325
2695.58188	10477.625
2698.19818	10500.125
2700.81285	10472.125
2703.4259	10482.625
2706.03733	10544.325
2708.64714	10498.525
2711.25533	10519.925
2713.86191	10486.725
2716.46687	10508.825
2719.07021	10493.825
2721.67194	10485.725
2724.27206	10475.825
2726.87057	10465.025
2729.46747	10481.225
2732.06276	10456.625
2734.65644	10455.525
2737.24852	10464.225
2739.83899	10440.425
2742.42786	10432.325
2745.01513	10416.725
2747.60079	10423.725
2750.18486	10401.225
2752.76733	10409.725
2755.3482	10415.225
2757.92747	10375.925
2760.50515	10347.325
2763.08123	10351.025
2765.65573	10349.925
2768.22863	10340.825
2770.79994	10341.425
2773.36967	10337.825
2775.9378	10296.125
2778.50435	10317.625
2781.06932	10271.725
2783.6327	10262.725
2786.1945	10265.325
2788.75471	10234.625
2791.31335	10210.025
2793.87041	10212.125
2796.42589	10197.125
2798.97979	10180.825
2801.53212	10150.425
2804.08288	10130.525
2806.63206	10102.825
2809.17967	10073.525
2811.72571	10064.125
2814.27018	10062.925
2816.81308	10014.025
2819.35442	10019.025
2821.89419	10003.325
2824.43239	9973.625
2826.96904	9962.125
2829.50412	9952.725
2832.03763	9942.425
2834.56959	9947.025
2837.1	9937.025
2839.62884	9937.325
2842.15613	9942.825
2844.68186	9958.425
2847.20604	9966.825
2849.72867	9969.425
2852.24974	9944.525
2854.76927	9949.325
2857.28724	9928.725
2859.80367	9910.125
2862.31855	9890.925
2864.83189	9906.925
2867.34368	9886.125
2869.85393	9850.325
2872.36264	9844.125
2874.8698	9845.325
2877.37543	9858.525
2879.87952	9830.725
2882.38207	9839.725
2884.88308	9848.425
2887.38256	9834.325
2889.88051	9835.425
2892.37692	9796.925
2894.8718	9807.625
2897.36515	9816.325
2899.85698	9823.925
2902.34727	9813.725
2904.83604	9851.825
2907.32328	9855.325
2909.809	9863.425
2912.29319	9838.625
2914.77587	9822.025
2917.25702	9806.825
2919.73665	9832.525
2922.21476	9839.225
2924.69136	9831.425
2927.16644	9810.225
2929.64	9807.025
2932.11205	9810.225
2934.58258	9781.525
2937.05161	9810.425
2939.51912	9799.925
2941.98513	9788.225
2944.44962	9758.525
2946.91261	9706.825
2949.37409	9707.825
2951.83407	9680.425
2954.29254	9693.125
2956.74951	9638.625
2959.20498	9646.825
2961.65895	9619.325
2964.11142	9619.425
2966.56239	9578.625
2969.01186	9581.925
2971.45984	9554.825
2973.90632	9528.725
2976.35131	9524.325
2978.7948	9497.725
2981.23681	9459.925
2983.67732	9462.425
2986.11635	9441.925
2988.55388	9387.825
2990.98993	9374.625
2993.4245	9349.125
2995.85758	9337.225
2998.28917	9290.325
3000.71928	9283.425
3003.14791	9271.225
3005.57506	9281.225
3008.00073	9273.825
3010.42493	9256.425
3012.84764	9213.625
3015.26888	9193.125
3017.68865	9189.925
3020.10694	9211.325
3022.52376	9146.925
3024.9391	9128.325
3027.35298	9113.825
3029.76539	9133.025
3032.17632	9116.925
3034.5858	9095.025
3036.9938	9096.425
3039.40034	9073.825
3041.80542	9066.825
3044.20903	9042.525
3046.61118	9056.725
3049.01187	9041.725
3051.4111	9029.525
3053.80888	8986.025
3056.20519	8969.925
3058.60005	8966.825
3060.99345	8941.525
3063.3854	8924.725
3065.7759	8918.525
3068.16494	8919.925
3070.55254	8886.325
3072.93868	8864.025
3075.32338	8833.025
3077.70662	8830.225
3080.08842	8789.225
3082.46878	8769.925
3084.84769	8762.825
3087.22515	8751.625
3089.60118	8775.325
3091.97576	8765.025
3094.3489	8776.625
3096.72061	8769.025
3099.09087	8759.725
3101.4597	8753.325
3103.82709	8735.725
3106.19305	8728.225
3108.55757	8739.225
3110.92066	8698.925
3113.28232	8673.125
3115.64255	8689.425
3118.00134	8642.825
3120.35871	8653.625
3122.71466	8637.425
3125.06917	8629.825
3127.42226	8595.225
3129.77393	8619.325
3132.12417	8604.125
3134.47299	8633.125
3136.82039	8611.825
3139.16636	8609.225
3141.51092	8605.725
3143.85406	8626.225
