Data from AgNP_FTO_APTES_CRN_5uM_R6G_10uM_NaF_0.1M_Addition_RamanShift__21__15-50-27-923.txt Node

Date: Wed Dec 15 15:50:27 GMT 2021
User: TCL
Spectrometer: QEP01345
Trigger mode: 4
Integration Time (sec): 7.000000E0
Scans to average: 10
Electric dark correction enabled: true
Nonlinearity correction enabled: false
Boxcar width: 0
XAxis mode: Raman Shifts
Number of Pixels in Spectrum: 1044
>>>>>Begin Spectral Data<<<<<
46.04893	-0.0625
50.45542	-1.2625
54.85868	-0.9625
59.25871	-0.7625
63.6555	102.8375
68.04907	108.8375
72.43941	114.7375
76.82654	119.7375
81.21044	123.3375
85.59113	129.9375
89.96862	137.9375
94.34289	138.3375
98.71396	144.3375
103.08183	150.7375
107.4465	157.4375
111.80798	157.9375
116.16626	158.7375
120.52136	166.3375
124.87327	172.9375
129.222	179.2375
133.56755	186.9375
137.90993	203.3375
142.24913	224.0375
146.58517	245.4375
150.91804	285.7375
155.24774	335.4375
159.57429	410.5375
163.89768	523.4375
168.21792	694.3375
172.53501	937.8375
176.84895	1308.3375
181.15975	1838.2375
185.46741	2567.0375
189.77193	3509.0375
194.07331	4694.1375
198.37157	6016.0375
202.6667	7434.3375
206.9587	8820.5375
211.24758	10198.8375
215.53334	11554.6375
219.81599	13032.7375
224.09553	14651.7375
228.37195	16473.8375
232.64527	18433.1375
236.91549	20560.5375
241.18261	22603.9375
245.44663	24538.4375
249.70755	26233.4375
253.96539	27682.3375
258.22014	28902.5375
262.4718	29975.0375
266.72039	30687.7375
270.96589	31177.8375
275.20832	31209.5375
279.44768	31014.4375
283.68397	30791.4375
287.91719	30488.7375
292.14735	30397.9375
296.37445	30417.2375
300.59849	30619.9375
304.81948	30743.4375
309.03742	30762.1375
313.25231	30523.1375
317.46415	29854.9375
321.67296	29022.5375
325.87872	28326.7375
330.08145	28024.8375
334.28114	28012.6375
338.47781	28239.1375
342.67145	28680.8375
346.86207	29156.6375
351.04966	29844.5375
355.23424	30573.0375
359.4158	31195.6375
363.59435	31635.0375
367.76989	31878.0375
371.94243	32002.8375
376.11196	32152.2375
380.27849	32201.3375
384.44203	32273.9375
388.60257	32413.9375
392.76012	32692.3375
396.91468	33044.2375
401.06626	33659.9375
405.21485	34070.4375
409.36047	33879.5375
413.50311	33290.4375
417.64277	32823.4375
421.77947	32627.5375
425.9132	32691.2375
430.04396	32894.2375
434.17176	33203.0375
438.2966	33480.4375
442.41849	34025.3375
446.53742	34908.7375
450.6534	35991.3375
454.76644	36796.7375
458.87653	37116.4375
462.98368	36895.3375
467.08789	36425.2375
471.18916	35757.9375
475.2875	35121.8375
479.38291	34732.3375
483.4754	34342.7375
487.56496	33948.1375
491.6516	33492.4375
495.73531	33187.2375
499.81612	33166.4375
503.89401	33395.4375
507.96899	33625.9375
512.04106	33692.7375
516.11023	33635.6375
520.1765	33542.5375
524.23987	33325.3375
528.30034	33106.3375
532.35792	32744.1375
536.41261	32216.0375
540.46441	31761.8375
544.51333	31700.2375
548.55936	32013.1375
552.60252	32704.8375
556.64279	33398.1375
560.6802	33777.1375
564.71473	33940.1375
568.7464	34396.5375
572.7752	35137.5375
576.80114	35665.9375
580.82422	36348.0375
584.84444	36959.9375
588.86181	37621.6375
592.87633	38376.3375
596.888	38985.6375
600.89682	39490.9375
604.9028	41034.8375
608.90594	44674.1375
612.90624	47751.1375
616.90371	44420.4375
620.89834	37186.3375
624.89015	34290.0375
628.87913	34169.8375
632.86528	34125.6375
636.84862	33803.6375
640.82913	33119.6375
644.80683	32160.5375
648.78172	31465.9375
652.75379	31358.9375
656.72306	31804.7375
660.68952	32282.7375
664.65319	32171.7375
668.61405	31611.6375
672.57211	31391.9375
676.52738	31360.9375
680.47986	31304.6375
684.42955	31118.2375
688.37646	31101.5375
692.32058	31266.8375
696.26192	31586.8375
700.20048	31999.7375
704.13626	32231.4375
708.06928	32090.6375
711.99952	31914.9375
715.927	31897.5375
719.85171	31949.3375
723.77365	31829.8375
727.69284	31434.7375
731.60928	31052.5375
735.52295	30882.4375
739.43388	30927.9375
743.34206	31058.6375
747.24749	31257.5375
751.15017	31529.2375
755.05012	32143.6375
758.94733	33131.0375
762.8418	34935.6375
766.73354	37810.9375
770.62254	40468.4375
774.50882	40905.3375
778.39237	38871.3375
782.27321	35847.7375
786.15132	33430.5375
790.02671	32074.0375
793.89938	31414.6375
797.76935	31292.6375
801.6366	31161.0375
805.50115	31043.9375
809.36299	30855.5375
813.22213	30600.5375
817.07857	30448.0375
820.93231	30330.0375
824.78336	30272.1375
828.63172	30239.7375
832.47738	30344.6375
836.32036	30424.6375
840.16066	30689.8375
843.99827	30803.3375
847.8332	30674.0375
851.66546	30481.8375
855.49504	30387.9375
859.32195	30401.5375
863.1462	30237.9375
866.96777	30066.6375
870.78668	29951.8375
874.60293	29915.3375
878.41652	29942.6375
882.22745	30055.5375
886.03573	30134.6375
889.84136	30112.4375
893.64433	29961.6375
897.44466	29826.3375
901.24235	29750.5375
905.0374	29711.4375
908.8298	29661.6375
912.61957	29780.1375
916.40671	30094.6375
920.19121	30599.4375
923.97308	31105.4375
927.75233	31327.9375
931.52895	31166.3375
935.30295	30759.5375
939.07433	30121.9375
942.84309	29668.6375
946.60924	29540.2375
950.37278	29469.0375
954.13371	29324.1375
957.89203	29149.7375
961.64774	29023.8375
965.40086	28962.4375
969.15137	28872.7375
972.89929	28754.7375
976.64461	28726.8375
980.38733	28805.1375
984.12747	28983.3375
987.86502	29286.6375
991.59999	29795.8375
995.33237	30551.8375
999.06217	31765.4375
1002.78939	33105.6375
1006.51404	33818.5375
1010.23611	34183.0375
1013.95561	34428.9375
1017.67255	34307.2375
1021.38692	33839.5375
1025.09872	33599.3375
1028.80796	34160.8375
1032.51465	35564.5375
1036.21877	36885.8375
1039.92035	37050.5375
1043.61937	36267.4375
1047.31584	35089.9375
1051.00976	33844.0375
1054.70114	33200.6375
1058.38998	33207.3375
1062.07627	33439.6375
1065.76003	33856.3375
1069.44126	34446.9375
1073.11995	35297.9375
1076.79611	36008.5375
1080.46974	36338.0375
1084.14085	36371.6375
1087.80943	36246.6375
1091.47549	36123.4375
1095.13903	35671.2375
1098.80005	34942.2375
1102.45857	34100.2375
1106.11456	33658.1375
1109.76805	33464.9375
1113.41903	33647.2375
1117.06751	33835.3375
1120.71348	34161.3375
1124.35696	34537.8375
1127.99793	34832.0375
1131.63641	35037.8375
1135.2724	34935.1375
1138.90589	34775.8375
1142.5369	34621.2375
1146.16542	34486.1375
1149.79145	34571.7375
1153.415	34899.4375
1157.03607	35434.4375
1160.65467	36346.8375
1164.27079	37855.7375
1167.88443	39978.7375
1171.49561	42654.9375
1175.10432	46220.6375
1178.71056	50588.2375
1182.31434	54682.6375
1185.91565	56845.4375
1189.51451	56438.3375
1193.11091	54185.5375
1196.70485	51264.8375
1200.29634	48682.8375
1203.88538	46799.0375
1207.47197	45550.6375
1211.05612	44652.0375
1214.63782	43958.0375
1218.21708	43466.7375
1221.79391	43394.3375
1225.36829	43254.2375
1228.94024	42904.0375
1232.50976	42069.3375
1236.07685	41311.4375
1239.6415	40916.8375
1243.20374	40845.2375
1246.76355	41055.9375
1250.32093	41763.5375
1253.8759	42833.4375
1257.42845	44195.7375
1260.97859	45486.6375
1264.52631	46784.4375
1268.07163	48157.8375
1271.61453	49771.9375
1275.15503	51492.5375
1278.69312	53386.3375
1282.22882	54770.6375
1285.76211	55928.5375
1289.29301	57034.6375
1292.82151	58514.1375
1296.34761	60769.3375
1299.87133	64049.9375
1303.39266	68215.4375
1306.9116	73125.1375
1310.42815	77823.0375
1313.94233	80710.6375
1317.45412	80812.1375
1320.96354	78948.1375
1324.47058	76776.8375
1327.97525	74766.1375
1331.47754	73313.3375
1334.97747	72522.6375
1338.47502	72305.0375
1341.97022	72072.9375
1345.46305	71337.4375
1348.95352	70336.1375
1352.44163	69979.3375
1355.92738	71169.6375
1359.41078	74696.9375
1362.89183	77840.1375
1366.37053	76496.1375
1369.84688	70056.7375
1373.32088	62655.6375
1376.79254	57534.0375
1380.26186	55247.4375
1383.72883	54747.3375
1387.19347	54400.0375
1390.65578	53646.7375
1394.11575	53160.7375
1397.57339	53527.2375
1401.0287	54545.7375
1404.48168	55670.5375
1407.93234	56047.0375
1411.38068	55666.2375
1414.82669	54368.8375
1418.27039	52383.1375
1421.71177	50243.5375
1425.15083	48436.3375
1428.58758	47437.1375
1432.02203	47598.3375
1435.45416	48534.1375
1438.88399	49950.8375
1442.31151	51198.7375
1445.73673	52095.2375
1449.15965	52825.5375
1452.58027	53221.8375
1455.9986	53275.7375
1459.41463	53701.6375
1462.82837	54651.5375
1466.23982	55954.5375
1469.64898	57206.9375
1473.05586	57897.0375
1476.46045	58100.7375
1479.86276	57856.8375
1483.26279	57207.6375
1486.66054	56594.3375
1490.05602	56479.7375
1493.44922	56584.8375
1496.84016	56896.3375
1500.22882	57673.7375
1503.61521	59274.0375
1506.99934	61423.7375
1510.38121	63329.8375
1513.76081	63946.8375
1517.13816	62633.7375
1520.51324	60156.9375
1523.88607	57749.0375
1527.25665	56323.7375
1530.62498	55567.7375
1533.99105	55205.5375
1537.35488	54899.2375
1540.71647	54380.1375
1544.07581	53704.4375
1547.4329	52844.8375
1550.78776	52012.8375
1554.14038	51321.0375
1557.49077	50951.3375
1560.83892	50708.9375
1564.18484	50663.0375
1567.52853	50800.6375
1570.86999	51482.1375
1574.20922	52555.4375
1577.54624	53853.0375
1580.88103	54543.2375
1584.2136	55044.9375
1587.54395	56065.2375
1590.87208	58026.1375
1594.19801	61162.9375
1597.52172	64664.7375
1600.84321	65774.3375
1604.16251	62929.9375
1607.47959	57950.9375
1610.79447	52834.2375
1614.10715	48118.2375
1617.41763	44384.5375
1620.7259	41794.4375
1624.03199	40475.0375
1627.33587	40466.8375
1630.63757	41738.5375
1633.93707	44446.8375
1637.23439	48654.3375
1640.52951	54313.3375
1643.82246	60377.3375
1647.11321	64799.9375
1650.40179	65134.9375
1653.68819	60624.8375
1656.97241	52883.9375
1660.25446	45442.4375
1663.53433	39820.0375
1666.81203	36186.8375
1670.08756	33911.3375
1673.36092	32513.1375
1676.63211	31555.3375
1679.90115	30790.8375
1683.16801	30264.0375
1686.43272	29885.9375
1689.69527	29609.9375
1692.95567	29430.0375
1696.2139	29287.3375
1699.46999	29221.7375
1702.72392	29092.4375
1705.97571	29018.8375
1709.22535	28981.4375
1712.47284	28863.0375
1715.71819	28883.5375
1718.96139	28766.4375
1722.20246	28686.6375
1725.44139	28558.5375
1728.67818	28403.7375
1731.91284	28217.1375
1735.14537	28044.3375
1738.37576	27921.9375
1741.60403	27821.5375
1744.83017	27723.5375
1748.05418	27674.1375
1751.27607	27615.2375
1754.49584	27591.6375
1757.71349	27565.7375
1760.92903	27507.1375
1764.14244	27493.7375
1767.35375	27488.5375
1770.56294	27463.5375
1773.77002	27445.7375
1776.97499	27384.9375
1780.17785	27391.5375
1783.37861	27322.8375
1786.57727	27273.9375
1789.77382	27203.1375
1792.96828	27164.7375
1796.16064	27171.8375
1799.3509	27085.9375
1802.53907	27068.8375
1805.72514	26964.2375
1808.90913	26913.4375
1812.09102	26826.9375
1815.27083	26782.5375
1818.44856	26759.8375
1821.6242	26710.4375
1824.79776	26714.5375
1827.96924	26667.4375
1831.13864	26660.7375
1834.30597	26700.2375
1837.47122	26750.8375
1840.6344	26720.4375
1843.7955	26685.0375
1846.95454	26686.5375
1850.11151	26703.7375
1853.26642	26690.3375
1856.41926	26729.7375
1859.57004	26658.6375
1862.71876	26626.9375
1865.86542	26658.2375
1869.01003	26653.9375
1872.15258	26651.7375
1875.29308	26690.3375
1878.43152	26651.0375
1881.56792	26636.7375
1884.70227	26660.1375
1887.83457	26659.0375
1890.96482	26624.9375
1894.09304	26651.6375
1897.21921	26622.8375
1900.34335	26618.1375
1903.46544	26592.2375
1906.58551	26605.9375
1909.70353	26560.5375
1912.81953	26525.0375
1915.93349	26485.9375
1919.04543	26441.9375
1922.15534	26452.1375
1925.26322	26381.6375
1928.36908	26286.3375
1931.47292	26226.7375
1934.57473	26167.3375
1937.67453	26076.6375
1940.77232	26012.8375
1943.86808	25917.1375
1946.96184	25847.3375
1950.05358	25739.2375
1953.14331	25701.6375
1956.23103	25632.2375
1959.31675	25591.4375
1962.40046	25480.3375
1965.48217	25423.3375
1968.56188	25312.4375
1971.63959	25285.7375
1974.7153	25219.3375
1977.78901	25151.3375
1980.86073	25065.9375
1983.93046	24997.7375
1986.99819	24941.5375
1990.06394	24927.2375
1993.1277	24833.0375
1996.18947	24699.4375
1999.24925	24658.4375
2002.30706	24561.2375
2005.36288	24514.6375
2008.41672	24445.8375
2011.46859	24389.2375
2014.51848	24389.6375
2017.56639	24333.8375
2020.61233	24240.9375
2023.6563	24230.2375
2026.6983	24209.0375
2029.73833	24172.5375
2032.7764	24125.9375
2035.8125	24077.4375
2038.84664	24068.3375
2041.87881	24063.7375
2044.90903	23999.4375
2047.93729	23976.4375
2050.96359	23964.1375
2053.98794	23944.7375
2057.01034	23934.9375
2060.03078	23896.1375
2063.04927	23921.0375
2066.06582	23887.1375
2069.08042	23881.2375
2072.09307	23860.8375
2075.10378	23804.2375
2078.11255	23778.3375
2081.11938	23825.4375
2084.12426	23781.6375
2087.12722	23785.7375
2090.12824	23764.4375
2093.12732	23764.6375
2096.12447	23787.2375
2099.11969	23751.6375
2102.11299	23743.7375
2105.10435	23757.5375
2108.09379	23836.5375
2111.08131	23851.7375
2114.0669	23876.6375
2117.05057	23850.5375
2120.03233	23857.8375
2123.01216	23876.0375
2125.99008	23899.6375
2128.96609	23910.6375
2131.94018	23905.2375
2134.91236	23969.9375
2137.88263	23991.5375
2140.851	24011.1375
2143.81746	24014.0375
2146.78201	24070.4375
2149.74466	24029.0375
2152.7054	24060.3375
2155.66425	24066.8375
2158.6212	24077.2375
2161.57625	24037.9375
2164.52941	24063.2375
2167.48067	24083.5375
2170.43004	24061.9375
2173.37752	24080.0375
2176.32311	24053.0375
2179.26681	24057.6375
2182.20863	24073.4375
2185.14856	24065.8375
2188.08661	24054.4375
2191.02278	24102.4375
2193.95707	24082.3375
2196.88948	24085.0375
2199.82001	24103.6375
2202.74867	24076.0375
2205.67545	24108.9375
2208.60037	24074.4375
2211.52341	24086.7375
2214.44458	24094.7375
2217.36388	24089.1375
2220.28132	24057.5375
2223.1969	24009.5375
2226.11061	24026.6375
2229.02246	23939.2375
2231.93245	23888.0375
2234.84058	23826.4375
2237.74686	23765.8375
2240.65128	23749.1375
2243.55385	23734.2375
2246.45456	23681.5375
2249.35343	23669.7375
2252.25044	23618.7375
2255.14561	23577.9375
2258.03893	23559.8375
2260.93041	23566.4375
2263.82004	23484.0375
2266.70783	23445.3375
2269.59378	23384.3375
2272.4779	23340.9375
2275.36017	23263.3375
2278.24061	23227.0375
2281.11922	23189.0375
2283.996	23153.2375
2286.87094	23184.8375
2289.74405	23119.7375
2292.61534	23144.4375
2295.4848	23101.2375
2298.35243	23125.0375
2301.21824	23131.3375
2304.08223	23180.5375
2306.94439	23208.3375
2309.80474	23213.8375
2312.66327	23255.7375
2315.51999	23238.5375
2318.37489	23272.2375
2321.22797	23227.4375
2324.07925	23261.9375
2326.92871	23182.8375
2329.77637	23174.5375
2332.62222	23241.0375
2335.46626	23216.5375
2338.3085	23207.2375
2341.14893	23243.3375
2343.98756	23286.8375
2346.8244	23301.7375
2349.65943	23293.6375
2352.49267	23266.2375
2355.32411	23302.5375
2358.15376	23240.9375
2360.98161	23204.0375
2363.80768	23213.1375
2366.63195	23210.7375
2369.45444	23139.1375
2372.27514	23080.4375
2375.09405	23043.7375
2377.91118	22966.6375
2380.72652	22956.5375
2383.54009	22910.6375
2386.35187	22876.4375
2389.16188	22844.9375
2391.97011	22837.4375
2394.77657	22817.3375
2397.58125	22781.5375
2400.38416	22768.4375
2403.18529	22699.6375
2405.98466	22669.0375
2408.78226	22600.8375
2411.57809	22540.5375
2414.37216	22509.4375
2417.16446	22498.7375
2419.955	22458.7375
2422.74378	22489.9375
2425.5308	22464.1375
2428.31606	22404.2375
2431.09956	22426.4375
2433.88131	22412.8375
2436.6613	22424.8375
2439.43954	22400.3375
2442.21603	22347.5375
2444.99077	22390.8375
2447.76377	22404.8375
2450.53501	22401.4375
2453.30451	22420.2375
2456.07226	22346.4375
2458.83827	22399.3375
2461.60254	22381.9375
2464.36507	22393.8375
2467.12586	22398.2375
2469.88492	22430.4375
2472.64224	22401.6375
2475.39782	22452.7375
2478.15167	22476.3375
2480.90379	22451.6375
2483.65417	22514.7375
2486.40283	22528.3375
2489.14976	22496.6375
2491.89497	22530.4375
2494.63845	22562.9375
2497.3802	22593.8375
2500.12024	22602.7375
2502.85855	22608.8375
2505.59514	22618.9375
2508.33002	22561.1375
2511.06318	22506.9375
2513.79462	22495.2375
2516.52435	22478.2375
2519.25237	22477.4375
2521.97867	22453.8375
2524.70327	22455.7375
2527.42616	22437.5375
2530.14734	22448.4375
2532.86681	22388.8375
2535.58458	22429.3375
2538.30065	22401.6375
2541.01501	22449.8375
2543.72768	22418.1375
2546.43864	22398.3375
2549.14791	22368.2375
2551.85548	22370.6375
2554.56136	22354.6375
2557.26554	22328.8375
2559.96803	22327.8375
2562.66883	22354.6375
2565.36794	22338.9375
2568.06536	22342.8375
2570.7611	22331.5375
2573.45514	22269.3375
2576.14751	22301.2375
2578.83819	22303.8375
2581.52719	22299.2375
2584.21451	22263.5375
2586.90015	22294.2375
2589.58411	22256.9375
2592.2664	22268.4375
2594.94701	22287.4375
2597.62594	22274.6375
2600.30321	22240.1375
2602.9788	22256.0375
2605.65273	22237.2375
2608.32498	22211.6375
2610.99557	22195.3375
2613.66449	22234.7375
2616.33175	22240.5375
2618.99734	22220.8375
2621.66128	22271.8375
2624.32355	22312.3375
2626.98416	22299.1375
2629.64311	22295.1375
2632.30041	22282.7375
2634.95605	22290.8375
2637.61004	22250.8375
2640.26238	22236.0375
2642.91306	22225.9375
2645.56209	22212.4375
2648.20948	22183.1375
2650.85521	22161.5375
2653.4993	22161.3375
2656.14175	22151.2375
2658.78255	22161.8375
2661.42171	22164.7375
2664.05923	22220.9375
2666.6951	22213.8375
2669.32934	22255.4375
2671.96194	22258.1375
2674.59291	22282.9375
2677.22224	22242.5375
2679.84993	22242.7375
2682.476	22185.5375
2685.10043	22177.0375
2687.72324	22138.9375
2690.34441	22151.6375
2692.96396	22134.7375
2695.58188	22145.8375
2698.19818	22096.8375
2700.81285	22103.4375
2703.4259	22073.1375
2706.03733	22187.0375
2708.64714	22144.1375
2711.25533	22197.0375
2713.86191	22204.9375
2716.46687	22211.3375
2719.07021	22213.6375
2721.67194	22199.0375
2724.27206	22208.7375
2726.87057	22230.8375
2729.46747	22260.7375
2732.06276	22301.3375
2734.65644	22248.6375
2737.24852	22295.5375
2739.83899	22273.3375
2742.42786	22267.7375
2745.01513	22223.0375
2747.60079	22244.5375
2750.18486	22192.2375
2752.76733	22217.0375
2755.3482	22240.7375
2757.92747	22245.1375
2760.50515	22192.3375
2763.08123	22209.7375
2765.65573	22194.9375
2768.22863	22153.9375
2770.79994	22138.2375
2773.36967	22152.9375
2775.9378	22175.2375
2778.50435	22165.9375
2781.06932	22142.7375
2783.6327	22179.7375
2786.1945	22191.0375
2788.75471	22117.8375
2791.31335	22058.3375
2793.87041	22048.7375
2796.42589	22011.8375
2798.97979	22014.4375
2801.53212	21963.5375
2804.08288	21955.2375
2806.63206	21934.2375
2809.17967	21889.3375
2811.72571	21819.6375
2814.27018	21822.6375
2816.81308	21800.4375
2819.35442	21791.8375
2821.89419	21761.9375
2824.43239	21778.7375
2826.96904	21745.7375
2829.50412	21701.3375
2832.03763	21674.9375
2834.56959	21672.9375
2837.1	21610.1375
2839.62884	21641.5375
2842.15613	21613.2375
2844.68186	21599.1375
2847.20604	21551.7375
2849.72867	21575.4375
2852.24974	21561.2375
2854.76927	21514.6375
2857.28724	21504.3375
2859.80367	21500.7375
2862.31855	21518.9375
2864.83189	21487.7375
2867.34368	21430.8375
2869.85393	21479.5375
2872.36264	21444.9375
2874.8698	21487.6375
2877.37543	21466.2375
2879.87952	21505.2375
2882.38207	21496.4375
2884.88308	21460.8375
2887.38256	21498.7375
2889.88051	21467.1375
2892.37692	21495.9375
2894.8718	21503.9375
2897.36515	21494.2375
2899.85698	21554.0375
2902.34727	21627.7375
2904.83604	21647.2375
2907.32328	21681.7375
2909.809	21680.9375
2912.29319	21734.8375
2914.77587	21727.3375
2917.25702	21735.7375
2919.73665	21711.0375
2922.21476	21727.6375
2924.69136	21679.3375
2927.16644	21714.4375
2929.64	21639.5375
2932.11205	21607.2375
2934.58258	21528.1375
2937.05161	21573.9375
2939.51912	21608.1375
2941.98513	21593.4375
2944.44962	21494.7375
2946.91261	21410.2375
2949.37409	21472.9375
2951.83407	21445.7375
2954.29254	21493.2375
2956.74951	21426.6375
2959.20498	21443.4375
2961.65895	21436.1375
2964.11142	21398.8375
2966.56239	21343.5375
2969.01186	21343.1375
2971.45984	21266.9375
2973.90632	21260.2375
2976.35131	21182.2375
2978.7948	21156.2375
2981.23681	21157.7375
2983.67732	21097.0375
2986.11635	21063.7375
2988.55388	21016.2375
2990.98993	20918.1375
2993.4245	20927.6375
2995.85758	20873.5375
2998.28917	20810.8375
3000.71928	20773.2375
3003.14791	20747.3375
3005.57506	20741.0375
3008.00073	20679.9375
3010.42493	20695.1375
3012.84764	20657.8375
3015.26888	20669.1375
3017.68865	20628.0375
3020.10694	20600.3375
3022.52376	20533.8375
