Data from AgNP_FTO_APTES_CRN_100uM_R6G_10uM_NaF_0.1M_Addition_RamanShift__5__18-37-18-112.txt Node

Date: Wed Dec 15 18:37:18 GMT 2021
User: TCL
Spectrometer: QEP01345
Trigger mode: 4
Integration Time (sec): 7.000000E0
Scans to average: 10
Electric dark correction enabled: true
Nonlinearity correction enabled: false
Boxcar width: 0
XAxis mode: Raman Shifts
Number of Pixels in Spectrum: 1044
>>>>>Begin Spectral Data<<<<<
46.04893	-0.375
50.45542	-1.375
54.85868	-0.775
59.25871	-0.975
63.6555	56.225
68.04907	66.025
72.43941	67.625
76.82654	69.125
81.21044	71.825
85.59113	72.825
89.96862	77.225
94.34289	76.425
98.71396	81.025
103.08183	86.725
107.4465	89.025
111.80798	88.725
116.16626	92.925
120.52136	96.325
124.87327	95.925
129.222	100.525
133.56755	101.525
137.90993	113.125
142.24913	121.825
146.58517	132.725
150.91804	150.025
155.24774	178.825
159.57429	220.225
163.89768	282.225
168.21792	365.425
172.53501	497.025
176.84895	675.925
181.15975	955.225
185.46741	1332.425
189.77193	1834.125
194.07331	2452.525
198.37157	3143.025
202.6667	3891.625
206.9587	4606.525
211.24758	5348.725
215.53334	6026.525
219.81599	6795.125
224.09553	7648.125
228.37195	8546.825
232.64527	9554.625
236.91549	10602.625
241.18261	11721.725
245.44663	12743.725
249.70755	13690.625
253.96539	14512.425
258.22014	15230.325
262.4718	15778.625
266.72039	16159.625
270.96589	16319.525
275.20832	16344.925
279.44768	16250.025
283.68397	16082.825
287.91719	15924.825
292.14735	15815.925
296.37445	15758.725
300.59849	15785.425
304.81948	15786.225
309.03742	15750.025
313.25231	15599.325
317.46415	15407.725
321.67296	15092.425
325.87872	14846.225
330.08145	14682.625
334.28114	14697.025
338.47781	14774.125
342.67145	14921.625
346.86207	15149.125
351.04966	15388.425
355.23424	15661.725
359.4158	15849.525
363.59435	15948.825
367.76989	16021.725
371.94243	16086.725
376.11196	16129.525
380.27849	16203.025
384.44203	16287.625
388.60257	16448.525
392.76012	16627.525
396.91468	16826.225
401.06626	17058.025
405.21485	17276.025
409.36047	17223.525
413.50311	17110.725
417.64277	17003.625
421.77947	17019.625
425.9132	17080.925
430.04396	17188.925
434.17176	17245.325
438.2966	17291.325
442.41849	17520.125
446.53742	17853.725
450.6534	18249.925
454.76644	18532.025
458.87653	18638.525
462.98368	18545.925
467.08789	18401.025
471.18916	18295.125
475.2875	18175.925
479.38291	18087.525
483.4754	17995.525
487.56496	17825.225
491.6516	17569.525
495.73531	17389.925
499.81612	17319.725
503.89401	17390.425
507.96899	17485.925
512.04106	17485.025
516.11023	17423.625
520.1765	17369.725
524.23987	17249.725
528.30034	17177.725
532.35792	17030.525
536.41261	16829.325
540.46441	16671.425
544.51333	16682.025
548.55936	16861.725
552.60252	17171.525
556.64279	17495.125
560.6802	17762.925
564.71473	17855.725
568.7464	17980.925
572.7752	18319.325
576.80114	18721.925
580.82422	19181.425
584.84444	19785.725
588.86181	20399.325
592.87633	20816.025
596.888	20684.825
600.89682	20073.625
604.9028	19921.825
608.90594	20739.925
612.90624	21693.725
616.90371	20544.525
620.89834	18083.825
624.89015	17042.725
628.87913	16939.925
632.86528	17006.925
636.84862	17001.725
640.82913	16792.825
644.80683	16552.225
648.78172	16361.925
652.75379	16337.325
656.72306	16439.125
660.68952	16544.325
664.65319	16511.825
668.61405	16358.225
672.57211	16322.225
676.52738	16371.425
680.47986	16385.225
684.42955	16314.725
688.37646	16282.525
692.32058	16361.925
696.26192	16491.625
700.20048	16706.925
704.13626	16830.625
708.06928	16865.725
711.99952	16898.125
715.927	16890.025
719.85171	16922.025
723.77365	16789.125
727.69284	16619.825
731.60928	16440.325
735.52295	16360.425
739.43388	16372.125
743.34206	16417.725
747.24749	16468.825
751.15017	16581.025
755.05012	16837.925
758.94733	17215.625
762.8418	17865.025
766.73354	18887.125
770.62254	19753.125
774.50882	19917.825
778.39237	19149.525
782.27321	18099.925
786.15132	17224.225
790.02671	16708.625
793.89938	16433.525
797.76935	16355.125
801.6366	16360.025
805.50115	16325.425
809.36299	16257.325
813.22213	16181.625
817.07857	16136.225
820.93231	16105.225
824.78336	15989.025
828.63172	16011.125
832.47738	16020.025
836.32036	16085.725
840.16066	16135.725
843.99827	16139.025
847.8332	16063.425
851.66546	15992.525
855.49504	15966.825
859.32195	15954.225
863.1462	15960.025
866.96777	15913.425
870.78668	15867.125
874.60293	15892.125
878.41652	15882.925
882.22745	15924.525
886.03573	15991.825
889.84136	16014.425
893.64433	15973.925
897.44466	15879.425
901.24235	15846.725
905.0374	15815.725
908.8298	15801.625
912.61957	15844.725
916.40671	15983.825
920.19121	16126.225
923.97308	16280.025
927.75233	16284.025
931.52895	16190.225
935.30295	16018.425
939.07433	15796.525
942.84309	15597.125
946.60924	15499.025
950.37278	15450.025
954.13371	15410.125
957.89203	15384.425
961.64774	15383.825
965.40086	15360.325
969.15137	15346.525
972.89929	15239.725
976.64461	15242.325
980.38733	15193.425
984.12747	15239.925
987.86502	15316.525
991.59999	15442.425
995.33237	15569.425
999.06217	15865.225
1002.78939	16120.725
1006.51404	16333.825
1010.23611	16550.325
1013.95561	16682.025
1017.67255	16686.725
1021.38692	16551.225
1025.09872	16346.825
1028.80796	16325.725
1032.51465	16472.225
1036.21877	16727.425
1039.92035	16837.525
1043.61937	16810.625
1047.31584	16693.825
1051.00976	16636.225
1054.70114	16652.425
1058.38998	16794.725
1062.07627	17055.325
1065.76003	17455.525
1069.44126	17935.225
1073.11995	18375.325
1076.79611	18618.025
1080.46974	18473.725
1084.14085	18138.125
1087.80943	17894.325
1091.47549	17728.325
1095.13903	17624.925
1098.80005	17399.125
1102.45857	17037.225
1106.11456	16728.325
1109.76805	16586.725
1113.41903	16568.725
1117.06751	16632.125
1120.71348	16744.025
1124.35696	16911.325
1127.99793	17139.125
1131.63641	17288.625
1135.2724	17218.825
1138.90589	17105.625
1142.5369	17097.425
1146.16542	17155.325
1149.79145	17242.625
1153.415	17366.325
1157.03607	17528.025
1160.65467	17920.925
1164.27079	18581.825
1167.88443	19428.625
1171.49561	20424.825
1175.10432	21681.825
1178.71056	23167.225
1182.31434	24521.025
1185.91565	25042.625
1189.51451	24732.325
1193.11091	23994.725
1196.70485	23122.725
1200.29634	22288.225
1203.88538	21739.925
1207.47197	21455.425
1211.05612	21214.225
1214.63782	20857.525
1218.21708	20445.925
1221.79391	20011.025
1225.36829	19702.225
1228.94024	19510.325
1232.50976	19230.225
1236.07685	19030.625
1239.6415	18852.925
1243.20374	18895.725
1246.76355	19015.725
1250.32093	19265.225
1253.8759	19616.825
1257.42845	20057.025
1260.97859	20515.325
1264.52631	20962.725
1268.07163	21408.525
1271.61453	21916.525
1275.15503	22429.625
1278.69312	23029.025
1282.22882	23564.325
1285.76211	24287.725
1289.29301	25093.325
1292.82151	26076.725
1296.34761	27289.125
1299.87133	28737.725
1303.39266	30201.225
1306.9116	31585.825
1310.42815	32649.625
1313.94233	33198.025
1317.45412	33042.125
1320.96354	32459.725
1324.47058	31893.325
1327.97525	31432.725
1331.47754	31173.525
1334.97747	30928.325
1338.47502	30672.125
1341.97022	30373.025
1345.46305	29968.725
1348.95352	29733.625
1352.44163	29841.125
1355.92738	30625.525
1359.41078	31833.725
1362.89183	32763.125
1366.37053	32322.825
1369.84688	30275.525
1373.32088	27495.525
1376.79254	25465.425
1380.26186	24625.925
1383.72883	24439.925
1387.19347	24280.625
1390.65578	24042.925
1394.11575	23974.925
1397.57339	24146.125
1401.0287	24508.325
1404.48168	24770.325
1407.93234	24626.225
1411.38068	24162.425
1414.82669	23498.725
1418.27039	22623.025
1421.71177	21774.625
1425.15083	21062.125
1428.58758	20661.625
1432.02203	20768.425
1435.45416	21162.625
1438.88399	21695.425
1442.31151	22043.225
1445.73673	22308.125
1449.15965	22482.225
1452.58027	22652.425
1455.9986	22633.525
1459.41463	22787.125
1462.82837	23078.025
1466.23982	23529.825
1469.64898	23955.225
1473.05586	24242.425
1476.46045	24363.925
1479.86276	24317.125
1483.26279	24249.325
1486.66054	24185.725
1490.05602	24366.625
1493.44922	24630.325
1496.84016	24943.225
1500.22882	25337.025
1503.61521	25981.225
1506.99934	26707.225
1510.38121	27237.825
1513.76081	27246.225
1517.13816	26691.625
1520.51324	25840.325
1523.88607	25243.825
1527.25665	24856.625
1530.62498	24746.525
1533.99105	24667.225
1537.35488	24398.625
1540.71647	24043.725
1544.07581	23506.725
1547.4329	22974.325
1550.78776	22483.625
1554.14038	22154.825
1557.49077	22002.925
1560.83892	21930.625
1564.18484	22024.125
1567.52853	22279.625
1570.86999	22759.725
1574.20922	23486.425
1577.54624	24229.325
1580.88103	24644.025
1584.2136	24730.625
1587.54395	24753.925
1590.87208	25105.225
1594.19801	25855.025
1597.52172	26894.225
1600.84321	27215.325
1604.16251	26228.625
1607.47959	24532.625
1610.79447	22645.525
1614.10715	20929.425
1617.41763	19603.225
1620.7259	18688.325
1624.03199	18182.925
1627.33587	18164.925
1630.63757	18574.725
1633.93707	19469.825
1637.23439	21014.725
1640.52951	23317.125
1643.82246	26079.425
1647.11321	28401.625
1650.40179	28972.525
1653.68819	27292.825
1656.97241	24312.025
1660.25446	21299.925
1663.53433	19041.825
1666.81203	17460.625
1670.08756	16485.925
1673.36092	15843.925
1676.63211	15430.825
1679.90115	15150.325
1683.16801	14928.025
1686.43272	14802.725
1689.69527	14677.125
1692.95567	14570.125
1696.2139	14537.325
1699.46999	14513.625
1702.72392	14455.325
1705.97571	14408.525
1709.22535	14378.225
1712.47284	14337.025
1715.71819	14317.525
1718.96139	14306.125
1722.20246	14257.325
1725.44139	14224.525
1728.67818	14163.125
1731.91284	14121.025
1735.14537	14025.925
1738.37576	14010.325
1741.60403	13974.125
1744.83017	13921.325
1748.05418	13904.525
1751.27607	13894.825
1754.49584	13854.025
1757.71349	13841.025
1760.92903	13873.625
1764.14244	13874.025
1767.35375	13844.825
1770.56294	13801.025
1773.77002	13776.525
1776.97499	13776.325
1780.17785	13750.525
1783.37861	13734.825
1786.57727	13694.425
1789.77382	13667.425
1792.96828	13620.925
1796.16064	13610.425
1799.3509	13593.125
1802.53907	13565.325
1805.72514	13521.025
1808.90913	13512.825
1812.09102	13476.425
1815.27083	13465.225
1818.44856	13432.025
1821.6242	13396.725
1824.79776	13391.825
1827.96924	13422.925
1831.13864	13425.825
1834.30597	13422.625
1837.47122	13417.225
1840.6344	13403.725
1843.7955	13386.925
1846.95454	13394.225
1850.11151	13349.025
1853.26642	13349.225
1856.41926	13348.725
1859.57004	13366.425
1862.71876	13328.025
1865.86542	13328.525
1869.01003	13307.525
1872.15258	13301.225
1875.29308	13293.125
1878.43152	13256.325
1881.56792	13242.325
1884.70227	13230.125
1887.83457	13193.525
1890.96482	13212.525
1894.09304	13183.525
1897.21921	13193.825
1900.34335	13174.425
1903.46544	13155.225
1906.58551	13131.525
1909.70353	13110.925
1912.81953	13113.525
1915.93349	13077.725
1919.04543	13064.325
1922.15534	13042.425
1925.26322	13007.925
1928.36908	13005.825
1931.47292	12972.325
1934.57473	12929.025
1937.67453	12923.525
1940.77232	12896.125
1943.86808	12858.825
1946.96184	12836.625
1950.05358	12804.525
1953.14331	12781.325
1956.23103	12738.225
1959.31675	12705.525
1962.40046	12676.225
1965.48217	12606.625
1968.56188	12627.825
1971.63959	12559.125
1974.7153	12507.825
1977.78901	12500.625
1980.86073	12454.025
1983.93046	12429.425
1986.99819	12390.025
1990.06394	12370.325
1993.1277	12354.525
1996.18947	12287.325
1999.24925	12234.425
2002.30706	12217.525
2005.36288	12197.125
2008.41672	12146.625
2011.46859	12115.025
2014.51848	12100.925
2017.56639	12090.625
2020.61233	12035.825
2023.6563	12030.525
2026.6983	12006.825
2029.73833	11989.825
2032.7764	11975.425
2035.8125	11920.825
2038.84664	11876.525
2041.87881	11895.125
2044.90903	11858.825
2047.93729	11842.125
2050.96359	11855.425
2053.98794	11805.425
2057.01034	11825.125
2060.03078	11812.125
2063.04927	11804.625
2066.06582	11813.325
2069.08042	11799.325
2072.09307	11793.825
2075.10378	11780.725
2078.11255	11766.025
2081.11938	11800.325
2084.12426	11785.925
2087.12722	11771.925
2090.12824	11757.725
2093.12732	11775.025
2096.12447	11758.625
2099.11969	11767.425
2102.11299	11759.225
2105.10435	11789.525
2108.09379	11792.725
2111.08131	11772.525
2114.0669	11824.925
2117.05057	11820.825
2120.03233	11807.125
2123.01216	11823.225
2125.99008	11827.625
2128.96609	11843.725
2131.94018	11845.925
2134.91236	11858.925
2137.88263	11862.525
2140.851	11875.425
2143.81746	11891.925
2146.78201	11895.125
2149.74466	11893.825
2152.7054	11916.325
2155.66425	11914.925
2158.6212	11902.925
2161.57625	11901.225
2164.52941	11917.525
2167.48067	11918.925
2170.43004	11890.125
2173.37752	11881.525
2176.32311	11874.025
2179.26681	11897.625
2182.20863	11876.025
2185.14856	11900.725
2188.08661	11868.925
2191.02278	11903.325
2193.95707	11886.025
2196.88948	11872.625
2199.82001	11856.625
2202.74867	11836.425
2205.67545	11837.325
2208.60037	11837.425
2211.52341	11814.825
2214.44458	11821.725
2217.36388	11787.625
2220.28132	11799.425
2223.1969	11734.525
2226.11061	11763.225
2229.02246	11726.225
2231.93245	11723.625
2234.84058	11696.925
2237.74686	11703.925
2240.65128	11685.025
2243.55385	11645.525
2246.45456	11610.525
2249.35343	11613.825
2252.25044	11591.925
2255.14561	11578.325
2258.03893	11593.425
2260.93041	11554.825
2263.82004	11519.225
2266.70783	11513.725
2269.59378	11507.625
2272.4779	11444.825
2275.36017	11417.925
2278.24061	11406.825
2281.11922	11378.525
2283.996	11361.025
2286.87094	11358.225
2289.74405	11323.625
2292.61534	11323.625
2295.4848	11338.225
2298.35243	11341.125
2301.21824	11312.825
2304.08223	11316.125
2306.94439	11301.425
2309.80474	11306.925
2312.66327	11305.325
2315.51999	11301.425
2318.37489	11264.025
2321.22797	11251.625
2324.07925	11250.225
2326.92871	11252.625
2329.77637	11260.125
2332.62222	11268.925
2335.46626	11205.325
2338.3085	11213.925
2341.14893	11211.325
2343.98756	11207.525
2346.8244	11190.125
2349.65943	11175.625
2352.49267	11172.825
2355.32411	11175.225
2358.15376	11166.625
2360.98161	11159.725
2363.80768	11146.125
2366.63195	11138.425
2369.45444	11113.625
2372.27514	11146.925
2375.09405	11098.925
2377.91118	11110.225
2380.72652	11095.825
2383.54009	11043.825
2386.35187	11055.925
2389.16188	10993.425
2391.97011	11001.525
2394.77657	10966.825
2397.58125	10964.525
2400.38416	10960.725
2403.18529	10947.425
2405.98466	10883.825
2408.78226	10932.825
2411.57809	10902.725
2414.37216	10874.425
2417.16446	10875.925
2419.955	10864.625
2422.74378	10850.025
2425.5308	10841.625
2428.31606	10837.425
2431.09956	10819.025
2433.88131	10802.725
2436.6613	10832.025
2439.43954	10797.625
2442.21603	10780.825
2444.99077	10779.725
2447.76377	10777.725
2450.53501	10764.825
2453.30451	10757.025
2456.07226	10776.225
2458.83827	10769.925
2461.60254	10749.625
2464.36507	10752.125
2467.12586	10756.025
2469.88492	10745.225
2472.64224	10740.725
2475.39782	10732.625
2478.15167	10750.125
2480.90379	10760.025
2483.65417	10731.725
2486.40283	10747.125
2489.14976	10737.725
2491.89497	10744.125
2494.63845	10744.525
2497.3802	10738.625
2500.12024	10740.025
2502.85855	10713.725
2505.59514	10705.425
2508.33002	10716.425
2511.06318	10678.925
2513.79462	10651.525
2516.52435	10649.925
2519.25237	10659.825
2521.97867	10651.125
2524.70327	10663.125
2527.42616	10629.325
2530.14734	10644.725
2532.86681	10607.125
2535.58458	10603.125
2538.30065	10584.625
2541.01501	10563.125
2543.72768	10587.925
2546.43864	10583.125
2549.14791	10544.025
2551.85548	10540.625
2554.56136	10534.125
2557.26554	10503.025
2559.96803	10524.325
2562.66883	10506.625
2565.36794	10503.625
2568.06536	10499.725
2570.7611	10492.925
2573.45514	10486.925
2576.14751	10458.825
2578.83819	10457.025
2581.52719	10472.525
2584.21451	10439.625
2586.90015	10444.025
2589.58411	10419.025
2592.2664	10392.625
2594.94701	10369.125
2597.62594	10371.025
2600.30321	10362.825
2602.9788	10367.625
2605.65273	10356.525
2608.32498	10321.425
2610.99557	10299.225
2613.66449	10299.225
2616.33175	10301.025
2618.99734	10315.025
2621.66128	10286.025
2624.32355	10264.225
2626.98416	10283.425
2629.64311	10302.725
2632.30041	10306.225
2634.95605	10278.125
2637.61004	10240.925
2640.26238	10235.625
2642.91306	10235.025
2645.56209	10247.625
2648.20948	10232.025
2650.85521	10226.125
2653.4993	10201.125
2656.14175	10223.725
2658.78255	10226.925
2661.42171	10220.625
2664.05923	10249.225
2666.6951	10240.825
2669.32934	10246.925
2671.96194	10237.525
2674.59291	10210.625
2677.22224	10204.725
2679.84993	10245.525
2682.476	10229.325
2685.10043	10220.325
2687.72324	10229.925
2690.34441	10240.725
2692.96396	10244.725
2695.58188	10227.925
2698.19818	10224.225
2700.81285	10240.425
2703.4259	10223.525
2706.03733	10287.025
2708.64714	10249.725
2711.25533	10264.425
2713.86191	10266.925
2716.46687	10278.625
2719.07021	10268.225
2721.67194	10277.725
2724.27206	10246.625
2726.87057	10269.025
2729.46747	10255.325
2732.06276	10287.025
2734.65644	10254.325
2737.24852	10265.825
2739.83899	10234.425
2742.42786	10250.825
2745.01513	10232.325
2747.60079	10240.225
2750.18486	10229.425
2752.76733	10239.525
2755.3482	10260.925
2757.92747	10246.925
2760.50515	10205.025
2763.08123	10199.325
2765.65573	10189.825
2768.22863	10191.425
2770.79994	10191.325
2773.36967	10200.325
2775.9378	10169.025
2778.50435	10165.025
2781.06932	10151.025
2783.6327	10147.025
2786.1945	10141.725
2788.75471	10112.325
2791.31335	10124.225
2793.87041	10083.625
2796.42589	10062.225
2798.97979	10074.225
2801.53212	10046.525
2804.08288	10053.325
2806.63206	10009.325
2809.17967	9991.425
2811.72571	9971.425
2814.27018	9992.325
2816.81308	9961.325
2819.35442	9956.825
2821.89419	9939.325
2824.43239	9937.825
2826.96904	9920.825
2829.50412	9942.525
2832.03763	9909.825
2834.56959	9922.125
2837.1	9913.025
2839.62884	9917.325
2842.15613	9918.525
2844.68186	9934.725
2847.20604	9935.625
2849.72867	9936.425
2852.24974	9914.425
2854.76927	9929.125
2857.28724	9929.125
2859.80367	9915.325
2862.31855	9883.425
2864.83189	9877.525
2867.34368	9861.925
2869.85393	9881.825
2872.36264	9861.525
2874.8698	9880.825
2877.37543	9854.525
2879.87952	9880.825
2882.38207	9875.925
2884.88308	9882.025
2887.38256	9896.025
2889.88051	9878.025
2892.37692	9883.125
2894.8718	9884.825
2897.36515	9860.425
2899.85698	9876.725
2902.34727	9888.325
2904.83604	9915.425
2907.32328	9900.425
2909.809	9925.225
2912.29319	9915.525
2914.77587	9920.425
2917.25702	9906.425
2919.73665	9888.625
2922.21476	9918.225
2924.69136	9918.525
2927.16644	9927.625
2929.64	9900.025
2932.11205	9888.325
2934.58258	9861.225
2937.05161	9904.525
2939.51912	9893.425
2941.98513	9882.425
2944.44962	9848.325
2946.91261	9826.825
2949.37409	9826.925
2951.83407	9818.225
2954.29254	9798.925
2956.74951	9784.625
2959.20498	9801.525
2961.65895	9802.625
2964.11142	9785.425
2966.56239	9788.625
2969.01186	9783.325
2971.45984	9741.325
2973.90632	9707.225
2976.35131	9686.225
2978.7948	9670.925
2981.23681	9660.625
2983.67732	9653.725
2986.11635	9638.425
2988.55388	9625.025
2990.98993	9595.925
2993.4245	9570.825
2995.85758	9580.525
2998.28917	9540.325
3000.71928	9549.625
3003.14791	9533.425
3005.57506	9531.125
3008.00073	9507.925
3010.42493	9507.525
3012.84764	9481.025
3015.26888	9450.325
3017.68865	9446.225
3020.10694	9422.825
3022.52376	9435.825
3024.9391	9414.025
3027.35298	9406.225
3029.76539	9388.225
3032.17632	9410.725
3034.5858	9400.225
3036.9938	9370.325
3039.40034	9378.425
3041.80542	9342.025
3044.20903	9325.025
3046.61118	9358.125
3049.01187	9333.725
3051.4111	9321.525
3053.80888	9316.125
3056.20519	9297.525
3058.60005	9283.425
3060.99345	9263.025
3063.3854	9268.725
3065.7759	9231.725
3068.16494	9236.825
3070.55254	9196.225
3072.93868	9210.925
3075.32338	9180.425
3077.70662	9157.625
3080.08842	9138.325
3082.46878	9136.425
3084.84769	9114.325
3087.22515	9133.025
3089.60118	9122.525
3091.97576	9098.525
3094.3489	9134.125
3096.72061	9108.225
3099.09087	9135.625
3101.4597	9094.925
3103.82709	9095.225
3106.19305	9102.025
3108.55757	9079.625
3110.92066	9061.525
3113.28232	9060.825
3115.64255	9020.525
3118.00134	9026.925
3120.35871	9004.025
3122.71466	9011.125
3125.06917	8997.525
3127.42226	8988.125
3129.77393	9001.725
3132.12417	9014.625
3134.47299	9030.025
3136.82039	8992.825
3139.16636	9029.725
3141.51092	9024.725
3143.85406	9025.425
3146.19579	9010.325
