Data from AgNP_FTO_APTES_CRN_100uM_R6G_10uM_NaF_0.1M_Addition_RamanShift__0__18-31-28-105.txt Node

Date: Wed Dec 15 18:31:28 GMT 2021
User: TCL
Spectrometer: QEP01345
Trigger mode: 4
Integration Time (sec): 7.000000E0
Scans to average: 10
Electric dark correction enabled: true
Nonlinearity correction enabled: false
Boxcar width: 0
XAxis mode: Raman Shifts
Number of Pixels in Spectrum: 1044
>>>>>Begin Spectral Data<<<<<
46.04893	0.625
50.45542	-0.875
54.85868	-1.075
59.25871	-0.175
63.6555	51.125
68.04907	59.225
72.43941	59.425
76.82654	63.825
81.21044	63.825
85.59113	69.425
89.96862	72.825
94.34289	70.825
98.71396	73.325
103.08183	80.125
107.4465	83.825
111.80798	80.725
116.16626	84.025
120.52136	88.525
124.87327	89.925
129.222	90.525
133.56755	96.625
137.90993	102.425
142.24913	113.825
146.58517	124.925
150.91804	142.125
155.24774	168.325
159.57429	207.225
163.89768	267.225
168.21792	345.925
172.53501	467.025
176.84895	647.125
181.15975	914.125
185.46741	1280.025
189.77193	1766.325
194.07331	2372.525
198.37157	3053.625
202.6667	3777.625
206.9587	4499.825
211.24758	5225.725
215.53334	5933.325
219.81599	6695.925
224.09553	7526.225
228.37195	8462.125
232.64527	9452.825
236.91549	10525.325
241.18261	11593.325
245.44663	12588.825
249.70755	13454.025
253.96539	14209.725
258.22014	14841.525
262.4718	15363.425
266.72039	15685.125
270.96589	15846.025
275.20832	15806.825
279.44768	15663.725
283.68397	15448.625
287.91719	15268.325
292.14735	15128.925
296.37445	15082.925
300.59849	15137.225
304.81948	15289.825
309.03742	15350.625
313.25231	15297.325
317.46415	15046.425
321.67296	14657.225
325.87872	14336.925
330.08145	14153.325
334.28114	14154.925
338.47781	14309.525
342.67145	14490.925
346.86207	14801.525
351.04966	15148.025
355.23424	15471.925
359.4158	15749.325
363.59435	15878.925
367.76989	15981.825
371.94243	16002.525
376.11196	16050.225
380.27849	16066.325
384.44203	16118.625
388.60257	16257.225
392.76012	16401.925
396.91468	16657.025
401.06626	16969.425
405.21485	17227.925
409.36047	17189.425
413.50311	16910.825
417.64277	16607.425
421.77947	16435.525
425.9132	16405.525
430.04396	16445.525
434.17176	16442.725
438.2966	16502.825
442.41849	16657.425
446.53742	16981.625
450.6534	17312.225
454.76644	17523.425
458.87653	17595.225
462.98368	17567.625
467.08789	17447.525
471.18916	17324.625
475.2875	17211.925
479.38291	17136.225
483.4754	17077.825
487.56496	17011.425
491.6516	16854.725
495.73531	16713.925
499.81612	16662.025
503.89401	16693.225
507.96899	16725.925
512.04106	16761.625
516.11023	16764.125
520.1765	16843.225
524.23987	16833.825
528.30034	16777.725
532.35792	16690.325
536.41261	16524.425
540.46441	16291.925
544.51333	16251.025
548.55936	16333.625
552.60252	16583.125
556.64279	16879.825
560.6802	17038.225
564.71473	17121.525
568.7464	17320.825
572.7752	17586.425
576.80114	17718.825
580.82422	17904.725
584.84444	18278.325
588.86181	18766.225
592.87633	19068.025
596.888	19052.925
600.89682	18762.825
604.9028	19045.425
608.90594	20765.325
612.90624	22925.325
616.90371	21914.225
620.89834	18552.925
624.89015	16971.425
628.87913	16736.325
632.86528	16848.525
636.84862	16966.525
640.82913	16773.925
644.80683	16409.225
648.78172	16190.725
652.75379	16194.625
656.72306	16353.225
660.68952	16633.325
664.65319	16628.625
668.61405	16357.425
672.57211	16288.925
676.52738	16328.725
680.47986	16359.125
684.42955	16234.125
688.37646	16191.825
692.32058	16285.125
696.26192	16474.725
700.20048	16673.425
704.13626	16841.625
708.06928	16896.925
711.99952	16860.625
715.927	16839.025
719.85171	16817.725
723.77365	16757.725
727.69284	16565.325
731.60928	16416.525
735.52295	16380.825
739.43388	16394.425
743.34206	16414.525
747.24749	16463.625
751.15017	16593.125
755.05012	16762.825
758.94733	17095.425
762.8418	17860.625
766.73354	19087.025
770.62254	20350.625
774.50882	20836.325
778.39237	20215.825
782.27321	18956.725
786.15132	17759.825
790.02671	16957.325
793.89938	16640.125
797.76935	16521.225
801.6366	16450.725
805.50115	16367.625
809.36299	16367.825
813.22213	16314.225
817.07857	16284.325
820.93231	16280.725
824.78336	16284.125
828.63172	16332.325
832.47738	16364.725
836.32036	16392.325
840.16066	16417.525
843.99827	16431.225
847.8332	16365.425
851.66546	16282.725
855.49504	16294.025
859.32195	16297.925
863.1462	16269.325
866.96777	16263.225
870.78668	16209.225
874.60293	16225.725
878.41652	16253.525
882.22745	16310.625
886.03573	16380.525
889.84136	16386.925
893.64433	16331.525
897.44466	16281.225
901.24235	16255.725
905.0374	16235.925
908.8298	16204.425
912.61957	16213.225
916.40671	16284.325
920.19121	16375.725
923.97308	16543.825
927.75233	16640.725
931.52895	16696.025
935.30295	16581.425
939.07433	16330.725
942.84309	16081.625
946.60924	15971.025
950.37278	15901.525
954.13371	15900.125
957.89203	15846.525
961.64774	15833.425
965.40086	15793.025
969.15137	15794.025
972.89929	15756.225
976.64461	15795.225
980.38733	15785.625
984.12747	15888.325
987.86502	15941.125
991.59999	16017.025
995.33237	16130.425
999.06217	16325.425
1002.78939	16583.525
1006.51404	16703.025
1010.23611	16887.125
1013.95561	16985.825
1017.67255	16992.225
1021.38692	16879.325
1025.09872	16770.725
1028.80796	16726.025
1032.51465	16880.825
1036.21877	17092.125
1039.92035	17231.525
1043.61937	17230.225
1047.31584	17240.225
1051.00976	17147.125
1054.70114	17160.125
1058.38998	17252.025
1062.07627	17472.525
1065.76003	17820.125
1069.44126	18235.725
1073.11995	18635.625
1076.79611	18832.125
1080.46974	18728.525
1084.14085	18497.925
1087.80943	18334.825
1091.47549	18309.825
1095.13903	18206.525
1098.80005	17945.425
1102.45857	17627.525
1106.11456	17310.525
1109.76805	17202.725
1113.41903	17203.425
1117.06751	17328.725
1120.71348	17520.325
1124.35696	17746.725
1127.99793	18022.525
1131.63641	18132.125
1135.2724	17897.225
1138.90589	17668.425
1142.5369	17531.025
1146.16542	17491.325
1149.79145	17461.925
1153.415	17530.125
1157.03607	17573.825
1160.65467	17766.225
1164.27079	18179.125
1167.88443	18803.225
1171.49561	19644.525
1175.10432	20852.425
1178.71056	22358.625
1182.31434	23666.225
1185.91565	24112.425
1189.51451	23762.325
1193.11091	22991.725
1196.70485	22085.625
1200.29634	21294.025
1203.88538	20711.825
1207.47197	20282.825
1211.05612	19879.625
1214.63782	19556.025
1218.21708	19244.925
1221.79391	19065.425
1225.36829	18924.725
1228.94024	18855.325
1232.50976	18739.625
1236.07685	18706.325
1239.6415	18642.725
1243.20374	18634.725
1246.76355	18741.925
1250.32093	18927.125
1253.8759	19221.325
1257.42845	19579.925
1260.97859	19964.325
1264.52631	20382.925
1268.07163	20811.525
1271.61453	21223.025
1275.15503	21586.325
1278.69312	21947.725
1282.22882	22306.225
1285.76211	22823.125
1289.29301	23430.225
1292.82151	24102.025
1296.34761	24884.925
1299.87133	25755.425
1303.39266	26912.025
1306.9116	28125.925
1310.42815	29462.725
1313.94233	30163.325
1317.45412	29945.325
1320.96354	29133.125
1324.47058	28210.425
1327.97525	27359.525
1331.47754	26656.525
1334.97747	26177.625
1338.47502	25890.125
1341.97022	25719.325
1345.46305	25718.525
1348.95352	26105.725
1352.44163	26925.125
1355.92738	28254.025
1359.41078	30108.125
1362.89183	31786.225
1366.37053	31535.925
1369.84688	29036.525
1373.32088	26065.425
1376.79254	23998.725
1380.26186	22990.025
1383.72883	22512.325
1387.19347	22124.525
1390.65578	21683.425
1394.11575	21363.725
1397.57339	21213.025
1401.0287	21155.325
1404.48168	21148.425
1407.93234	21015.925
1411.38068	20806.225
1414.82669	20500.225
1418.27039	20133.125
1421.71177	19777.625
1425.15083	19424.425
1428.58758	19252.325
1432.02203	19294.925
1435.45416	19476.825
1438.88399	19674.025
1442.31151	19780.625
1445.73673	19838.125
1449.15965	20017.225
1452.58027	20008.825
1455.9986	20034.925
1459.41463	20062.025
1462.82837	20285.725
1466.23982	20653.225
1469.64898	21014.325
1473.05586	21315.725
1476.46045	21503.225
1479.86276	21705.325
1483.26279	21882.825
1486.66054	22204.425
1490.05602	22565.225
1493.44922	23182.625
1496.84016	23903.925
1500.22882	25023.725
1503.61521	26406.125
1506.99934	27915.425
1510.38121	29023.325
1513.76081	29114.525
1517.13816	28058.725
1520.51324	26312.225
1523.88607	24679.325
1527.25665	23585.225
1530.62498	22920.525
1533.99105	22554.325
1537.35488	22175.125
1540.71647	21808.925
1544.07581	21446.025
1547.4329	21175.525
1550.78776	20885.925
1554.14038	20750.125
1557.49077	20769.625
1560.83892	20894.825
1564.18484	21190.325
1567.52853	21636.725
1570.86999	22112.825
1574.20922	22742.125
1577.54624	23194.625
1580.88103	23118.525
1584.2136	22706.525
1587.54395	22348.825
1590.87208	22342.925
1594.19801	22689.225
1597.52172	23338.025
1600.84321	23597.725
1604.16251	22992.125
1607.47959	21962.925
1610.79447	20749.625
1614.10715	19612.125
1617.41763	18700.925
1620.7259	18110.525
1624.03199	17860.825
1627.33587	17880.825
1630.63757	18106.325
1633.93707	18701.825
1637.23439	19714.525
1640.52951	21221.325
1643.82246	23341.425
1647.11321	25483.125
1650.40179	26660.425
1653.68819	26042.425
1656.97241	23761.625
1660.25446	21259.825
1663.53433	19290.625
1666.81203	17944.025
1670.08756	17112.325
1673.36092	16536.225
1676.63211	16183.425
1679.90115	15926.425
1683.16801	15740.225
1686.43272	15678.025
1689.69527	15611.925
1692.95567	15631.025
1696.2139	15745.225
1699.46999	15891.525
1702.72392	15828.525
1705.97571	15685.925
1709.22535	15505.325
1712.47284	15391.125
1715.71819	15322.225
1718.96139	15275.325
1722.20246	15242.925
1725.44139	15222.525
1728.67818	15172.725
1731.91284	15102.925
1735.14537	15054.525
1738.37576	15015.025
1741.60403	14969.225
1744.83017	14994.425
1748.05418	14979.425
1751.27607	15010.325
1754.49584	15048.825
1757.71349	15134.225
1760.92903	15166.425
1764.14244	15179.525
1767.35375	15138.725
1770.56294	15175.025
1773.77002	15113.125
1776.97499	14995.525
1780.17785	14873.325
1783.37861	14812.525
1786.57727	14769.625
1789.77382	14708.825
1792.96828	14694.325
1796.16064	14660.025
1799.3509	14611.025
1802.53907	14615.425
1805.72514	14559.425
1808.90913	14512.825
1812.09102	14499.225
1815.27083	14481.925
1818.44856	14472.125
1821.6242	14460.125
1824.79776	14430.025
1827.96924	14431.625
1831.13864	14419.725
1834.30597	14433.225
1837.47122	14415.525
1840.6344	14378.725
1843.7955	14393.525
1846.95454	14364.525
1850.11151	14359.625
1853.26642	14379.725
1856.41926	14381.025
1859.57004	14348.525
1862.71876	14365.325
1865.86542	14335.225
1869.01003	14335.725
1872.15258	14327.725
1875.29308	14311.925
1878.43152	14279.925
1881.56792	14293.825
1884.70227	14234.025
1887.83457	14267.525
1890.96482	14219.025
1894.09304	14204.525
1897.21921	14229.425
1900.34335	14204.225
1903.46544	14176.525
1906.58551	14161.325
1909.70353	14139.625
1912.81953	14150.225
1915.93349	14144.925
1919.04543	14088.825
1922.15534	14049.425
1925.26322	14069.325
1928.36908	14044.825
1931.47292	14016.025
1934.57473	13970.425
1937.67453	13980.025
1940.77232	13945.025
1943.86808	13930.825
1946.96184	13885.825
1950.05358	13899.925
1953.14331	13837.725
1956.23103	13805.025
1959.31675	13799.125
1962.40046	13739.125
1965.48217	13691.525
1968.56188	13677.025
1971.63959	13647.125
1974.7153	13582.425
1977.78901	13581.125
1980.86073	13499.625
1983.93046	13466.325
1986.99819	13442.325
1990.06394	13435.325
1993.1277	13395.525
1996.18947	13320.525
1999.24925	13300.725
2002.30706	13243.525
2005.36288	13221.025
2008.41672	13197.725
2011.46859	13178.925
2014.51848	13116.825
2017.56639	13112.425
2020.61233	13082.325
2023.6563	13060.025
2026.6983	13028.825
2029.73833	13048.025
2032.7764	13000.325
2035.8125	12963.325
2038.84664	12938.025
2041.87881	12930.425
2044.90903	12898.625
2047.93729	12900.125
2050.96359	12879.225
2053.98794	12879.725
2057.01034	12880.725
2060.03078	12836.125
2063.04927	12830.225
2066.06582	12837.825
2069.08042	12814.225
2072.09307	12836.625
2075.10378	12799.525
2078.11255	12792.925
2081.11938	12830.525
2084.12426	12826.425
2087.12722	12808.725
2090.12824	12784.125
2093.12732	12788.325
2096.12447	12795.925
2099.11969	12803.525
2102.11299	12819.125
2105.10435	12820.825
2108.09379	12845.025
2111.08131	12893.725
2114.0669	12891.825
2117.05057	12893.825
2120.03233	12874.725
2123.01216	12876.225
2125.99008	12932.725
2128.96609	12931.925
2131.94018	12974.325
2134.91236	12942.925
2137.88263	12965.325
2140.851	12985.125
2143.81746	13000.425
2146.78201	12986.825
2149.74466	13028.125
2152.7054	12996.225
2155.66425	13005.125
2158.6212	13032.325
2161.57625	13029.625
2164.52941	13001.525
2167.48067	13024.825
2170.43004	13009.925
2173.37752	13005.425
2176.32311	13010.025
2179.26681	12993.225
2182.20863	13018.225
2185.14856	13017.125
2188.08661	12992.525
2191.02278	12994.025
2193.95707	12989.925
2196.88948	12983.425
2199.82001	12972.125
2202.74867	12983.825
2205.67545	12968.125
2208.60037	12972.325
2211.52341	12948.225
2214.44458	12944.625
2217.36388	12919.325
2220.28132	12885.525
2223.1969	12865.225
2226.11061	12854.425
2229.02246	12836.925
2231.93245	12832.925
2234.84058	12805.025
2237.74686	12793.725
2240.65128	12802.825
2243.55385	12790.425
2246.45456	12726.825
2249.35343	12742.725
2252.25044	12719.125
2255.14561	12699.025
2258.03893	12746.025
2260.93041	12735.225
2263.82004	12689.525
2266.70783	12652.725
2269.59378	12622.225
2272.4779	12591.225
2275.36017	12552.725
2278.24061	12536.525
2281.11922	12495.625
2283.996	12487.525
2286.87094	12476.025
2289.74405	12451.925
2292.61534	12477.525
2295.4848	12460.225
2298.35243	12439.325
2301.21824	12438.025
2304.08223	12423.125
2306.94439	12456.525
2309.80474	12408.925
2312.66327	12414.025
2315.51999	12418.925
2318.37489	12386.825
2321.22797	12394.725
2324.07925	12387.125
2326.92871	12401.025
2329.77637	12374.425
2332.62222	12379.625
2335.46626	12343.825
2338.3085	12350.125
2341.14893	12323.725
2343.98756	12293.425
2346.8244	12282.425
2349.65943	12269.825
2352.49267	12303.925
2355.32411	12296.125
2358.15376	12293.725
2360.98161	12244.225
2363.80768	12261.725
2366.63195	12246.025
2369.45444	12252.225
2372.27514	12253.325
2375.09405	12250.325
2377.91118	12227.625
2380.72652	12215.625
2383.54009	12177.625
2386.35187	12148.925
2389.16188	12101.925
2391.97011	12098.725
2394.77657	12082.025
2397.58125	12081.325
2400.38416	12039.125
2403.18529	12025.725
2405.98466	12026.125
2408.78226	12011.325
2411.57809	12030.525
2414.37216	11967.725
2417.16446	11968.725
2419.955	11952.925
2422.74378	11946.225
2425.5308	11929.925
2428.31606	11920.025
2431.09956	11905.325
2433.88131	11903.125
2436.6613	11919.925
2439.43954	11878.925
2442.21603	11874.325
2444.99077	11851.025
2447.76377	11853.925
2450.53501	11862.125
2453.30451	11837.125
2456.07226	11840.525
2458.83827	11834.025
2461.60254	11802.125
2464.36507	11823.125
2467.12586	11809.825
2469.88492	11840.025
2472.64224	11814.625
2475.39782	11846.825
2478.15167	11858.725
2480.90379	11811.425
2483.65417	11797.125
2486.40283	11797.625
2489.14976	11833.025
2491.89497	11832.225
2494.63845	11856.425
2497.3802	11827.225
2500.12024	11800.325
2502.85855	11825.925
2505.59514	11775.525
2508.33002	11773.825
2511.06318	11728.225
2513.79462	11720.725
2516.52435	11701.025
2519.25237	11686.125
2521.97867	11681.225
2524.70327	11690.125
2527.42616	11643.325
2530.14734	11646.825
2532.86681	11627.725
2535.58458	11592.225
2538.30065	11566.025
2541.01501	11591.425
2543.72768	11602.125
2546.43864	11558.325
2549.14791	11551.625
2551.85548	11554.125
2554.56136	11505.425
2557.26554	11484.925
2559.96803	11497.125
2562.66883	11507.325
2565.36794	11483.925
2568.06536	11489.425
2570.7611	11461.325
2573.45514	11478.425
2576.14751	11414.925
2578.83819	11406.125
2581.52719	11426.625
2584.21451	11372.925
2586.90015	11376.325
2589.58411	11336.025
2592.2664	11326.425
2594.94701	11289.625
2597.62594	11277.325
2600.30321	11255.825
2602.9788	11278.325
2605.65273	11256.325
2608.32498	11223.825
2610.99557	11213.925
2613.66449	11226.325
2616.33175	11214.125
2618.99734	11199.325
2621.66128	11173.725
2624.32355	11162.625
2626.98416	11175.425
2629.64311	11176.125
2632.30041	11132.425
2634.95605	11140.825
2637.61004	11135.625
2640.26238	11106.825
2642.91306	11105.925
2645.56209	11103.125
2648.20948	11117.125
2650.85521	11084.825
2653.4993	11080.425
2656.14175	11088.425
2658.78255	11084.725
2661.42171	11093.125
2664.05923	11068.325
2666.6951	11057.925
2669.32934	11069.525
2671.96194	11055.725
2674.59291	11045.425
2677.22224	11069.225
2679.84993	11079.225
2682.476	11067.325
2685.10043	11071.525
2687.72324	11089.025
2690.34441	11103.525
2692.96396	11070.125
2695.58188	11100.525
2698.19818	11064.025
2700.81285	11097.925
2703.4259	11135.725
2706.03733	11346.725
2708.64714	11207.625
2711.25533	11183.625
2713.86191	11158.125
2716.46687	11174.225
2719.07021	11112.325
2721.67194	11109.325
2724.27206	11105.325
2726.87057	11072.325
2729.46747	11102.325
2732.06276	11086.725
2734.65644	11078.225
2737.24852	11085.225
2739.83899	11086.225
2742.42786	11084.025
2745.01513	11062.225
2747.60079	11029.525
2750.18486	11047.325
2752.76733	11056.825
2755.3482	11030.125
2757.92747	11028.625
2760.50515	10999.125
2763.08123	10994.725
2765.65573	10985.925
2768.22863	10989.825
2770.79994	10963.225
2773.36967	10955.425
2775.9378	10942.425
2778.50435	10926.025
2781.06932	10898.925
2783.6327	10920.025
2786.1945	10876.725
2788.75471	10895.525
2791.31335	10858.525
2793.87041	10859.525
2796.42589	10836.425
2798.97979	10815.025
2801.53212	10797.425
2804.08288	10777.025
2806.63206	10765.425
2809.17967	10727.525
2811.72571	10701.225
2814.27018	10698.025
2816.81308	10702.925
2819.35442	10700.925
2821.89419	10694.525
2824.43239	10653.025
2826.96904	10658.325
2829.50412	10673.125
2832.03763	10628.825
2834.56959	10628.125
2837.1	10615.525
2839.62884	10630.025
2842.15613	10622.125
2844.68186	10658.025
2847.20604	10658.225
2849.72867	10657.925
2852.24974	10653.025
2854.76927	10659.725
2857.28724	10697.225
2859.80367	10671.725
2862.31855	10628.125
2864.83189	10592.825
2867.34368	10577.925
2869.85393	10601.325
2872.36264	10584.525
2874.8698	10580.025
2877.37543	10578.625
2879.87952	10588.825
2882.38207	10555.925
2884.88308	10576.425
2887.38256	10606.125
2889.88051	10608.425
2892.37692	10551.125
2894.8718	10566.425
2897.36515	10566.125
2899.85698	10563.525
2902.34727	10585.525
2904.83604	10593.125
2907.32328	10588.425
2909.809	10580.125
2912.29319	10612.925
2914.77587	10598.925
2917.25702	10605.025
2919.73665	10564.925
2922.21476	10598.525
2924.69136	10597.225
2927.16644	10601.225
2929.64	10579.125
2932.11205	10565.325
2934.58258	10548.525
2937.05161	10537.425
2939.51912	10525.925
2941.98513	10541.425
2944.44962	10506.125
2946.91261	10463.625
2949.37409	10510.025
2951.83407	10469.925
2954.29254	10483.725
2956.74951	10445.225
2959.20498	10456.425
2961.65895	10456.225
2964.11142	10487.425
2966.56239	10460.025
2969.01186	10429.825
2971.45984	10412.125
2973.90632	10390.625
2976.35131	10352.825
2978.7948	10354.925
2981.23681	10328.625
2983.67732	10325.925
2986.11635	10308.925
2988.55388	10275.325
2990.98993	10257.325
2993.4245	10241.525
2995.85758	10236.925
2998.28917	10214.125
3000.71928	10200.225
3003.14791	10196.725
3005.57506	10181.825
3008.00073	10193.625
3010.42493	10187.725
3012.84764	10156.225
3015.26888	10169.725
3017.68865	10122.025
3020.10694	10125.925
3022.52376	10091.525
3024.9391	10097.025
3027.35298	10080.725
3029.76539	10079.725
3032.17632	10082.525
3034.5858	10054.825
3036.9938	10033.025
3039.40034	10024.125
3041.80542	10006.025
3044.20903	9997.825
3046.61118	9981.025
3049.01187	9977.925
3051.4111	9987.925
3053.80888	9961.125
3056.20519	9952.725
3058.60005	9927.525
3060.99345	9918.225
3063.3854	9892.325
3065.7759	9893.925
3068.16494	9875.325
3070.55254	9860.425
3072.93868	9845.125
3075.32338	9830.525
3077.70662	9785.725
3080.08842	9761.425
3082.46878	9759.225
3084.84769	9775.325
3087.22515	9753.925
3089.60118	9774.725
3091.97576	9759.125
3094.3489	9782.025
3096.72061	9770.125
3099.09087	9761.225
3101.4597	9738.125
3103.82709	9759.225
3106.19305	9725.625
3108.55757	9721.625
3110.92066	9704.225
3113.28232	9697.425
3115.64255	9666.025
3118.00134	9652.725
3120.35871	9628.125
3122.71466	9639.025
3125.06917	9631.625
3127.42226	9575.125
3129.77393	9630.525
3132.12417	9637.525
3134.47299	9627.925
