Data from AgNP_FTO_APTES_CRN_200uM_R6G_10uM_NaF_0.1M_Addition_RamanShift__27__19-48-28-192.txt Node

Date: Wed Dec 15 19:48:28 GMT 2021
User: TCL
Spectrometer: QEP01345
Trigger mode: 4
Integration Time (sec): 7.000000E0
Scans to average: 10
Electric dark correction enabled: true
Nonlinearity correction enabled: false
Boxcar width: 0
XAxis mode: Raman Shifts
Number of Pixels in Spectrum: 1044
>>>>>Begin Spectral Data<<<<<
46.04893	0.4125
50.45542	-2.1875
54.85868	-0.8875
59.25871	-0.4875
63.6555	63.7125
68.04907	65.2125
72.43941	71.2125
76.82654	75.0125
81.21044	77.5125
85.59113	80.3125
89.96862	84.6125
94.34289	80.0125
98.71396	89.4125
103.08183	94.1125
107.4465	95.9125
111.80798	98.3125
116.16626	98.6125
120.52136	100.9125
124.87327	101.3125
129.222	107.8125
133.56755	109.2125
137.90993	118.9125
142.24913	130.6125
146.58517	143.9125
150.91804	165.6125
155.24774	193.4125
159.57429	245.1125
163.89768	311.5125
168.21792	405.6125
172.53501	548.1125
176.84895	759.0125
181.15975	1064.4125
185.46741	1482.2125
189.77193	2047.0125
194.07331	2730.3125
198.37157	3508.6125
202.6667	4340.2125
206.9587	5171.7125
211.24758	5983.9125
215.53334	6808.1125
219.81599	7696.8125
224.09553	8645.3125
228.37195	9696.6125
232.64527	10904.0125
236.91549	12114.3125
241.18261	13303.4125
245.44663	14399.3125
249.70755	15381.6125
253.96539	16250.3125
258.22014	16978.1125
262.4718	17603.9125
266.72039	18031.6125
270.96589	18293.9125
275.20832	18354.4125
279.44768	18264.1125
283.68397	18059.9125
287.91719	17890.0125
292.14735	17877.8125
296.37445	17997.0125
300.59849	18212.4125
304.81948	18407.1125
309.03742	18482.4125
313.25231	18294.6125
317.46415	17801.3125
321.67296	17023.7125
325.87872	16454.1125
330.08145	16187.8125
334.28114	16195.3125
338.47781	16375.6125
342.67145	16648.2125
346.86207	17057.8125
351.04966	17592.6125
355.23424	18194.3125
359.4158	18669.3125
363.59435	18969.3125
367.76989	19154.3125
371.94243	19230.4125
376.11196	19277.6125
380.27849	19310.9125
384.44203	19310.7125
388.60257	19278.7125
392.76012	19320.5125
396.91468	19508.5125
401.06626	19795.0125
405.21485	20076.2125
409.36047	19917.5125
413.50311	19395.7125
417.64277	18961.0125
421.77947	18697.6125
425.9132	18652.3125
430.04396	18744.2125
434.17176	18861.3125
438.2966	19126.4125
442.41849	19513.4125
446.53742	19987.6125
450.6534	20482.6125
454.76644	20848.9125
458.87653	20936.3125
462.98368	20875.6125
467.08789	20703.7125
471.18916	20425.2125
475.2875	20239.5125
479.38291	20037.3125
483.4754	19815.8125
487.56496	19581.8125
491.6516	19312.2125
495.73531	19133.1125
499.81612	19121.5125
503.89401	19199.5125
507.96899	19336.5125
512.04106	19439.7125
516.11023	19597.9125
520.1765	19779.4125
524.23987	19807.8125
528.30034	19665.4125
532.35792	19461.8125
536.41261	19219.2125
540.46441	18986.3125
544.51333	18934.1125
548.55936	19029.1125
552.60252	19317.4125
556.64279	19671.4125
560.6802	19938.2125
564.71473	20075.1125
568.7464	20378.7125
572.7752	20681.9125
576.80114	20514.4125
580.82422	20274.1125
584.84444	20108.1125
588.86181	20271.7125
592.87633	20570.0125
596.888	20872.4125
600.89682	21188.1125
604.9028	22210.2125
608.90594	25041.4125
612.90624	28606.3125
616.90371	27497.2125
620.89834	22258.7125
624.89015	19826.8125
628.87913	19396.4125
632.86528	19435.9125
636.84862	19519.3125
640.82913	19329.1125
644.80683	18880.9125
648.78172	18555.1125
652.75379	18581.0125
656.72306	18921.7125
660.68952	19343.8125
664.65319	19269.4125
668.61405	18863.8125
672.57211	18659.0125
676.52738	18673.2125
680.47986	18743.0125
684.42955	18644.7125
688.37646	18602.1125
692.32058	18670.6125
696.26192	18771.5125
700.20048	18968.2125
704.13626	19036.7125
708.06928	18995.3125
711.99952	18889.7125
715.927	18809.5125
719.85171	18802.2125
723.77365	18800.3125
727.69284	18649.1125
731.60928	18529.8125
735.52295	18509.0125
739.43388	18509.4125
743.34206	18555.6125
747.24749	18634.2125
751.15017	18661.2125
755.05012	18912.0125
758.94733	19408.5125
762.8418	20504.7125
766.73354	22262.3125
770.62254	24213.5125
774.50882	25023.2125
778.39237	24074.4125
782.27321	22011.0125
786.15132	20144.2125
790.02671	19087.3125
793.89938	18588.8125
797.76935	18384.3125
801.6366	18328.0125
805.50115	18275.8125
809.36299	18192.5125
813.22213	18185.5125
817.07857	18186.1125
820.93231	18182.9125
824.78336	18170.7125
828.63172	18218.9125
832.47738	18234.8125
836.32036	18248.3125
840.16066	18268.8125
843.99827	18209.7125
847.8332	18134.8125
851.66546	18101.2125
855.49504	18117.7125
859.32195	18114.2125
863.1462	18072.4125
866.96777	18003.8125
870.78668	17996.6125
874.60293	17997.9125
878.41652	17974.1125
882.22745	18028.7125
886.03573	18095.0125
889.84136	18032.3125
893.64433	18000.3125
897.44466	17929.0125
901.24235	17918.0125
905.0374	17883.6125
908.8298	17864.4125
912.61957	17884.3125
916.40671	17957.6125
920.19121	18071.6125
923.97308	18147.6125
927.75233	18231.8125
931.52895	18313.4125
935.30295	18214.5125
939.07433	17922.7125
942.84309	17645.6125
946.60924	17472.7125
950.37278	17370.3125
954.13371	17323.8125
957.89203	17242.9125
961.64774	17231.1125
965.40086	17195.7125
969.15137	17134.1125
972.89929	17083.0125
976.64461	17067.7125
980.38733	17016.3125
984.12747	17079.3125
987.86502	17150.7125
991.59999	17303.7125
995.33237	17418.5125
999.06217	17784.9125
1002.78939	18113.9125
1006.51404	18338.0125
1010.23611	18597.1125
1013.95561	18690.5125
1017.67255	18679.3125
1021.38692	18518.7125
1025.09872	18380.2125
1028.80796	18356.3125
1032.51465	18511.3125
1036.21877	18735.5125
1039.92035	18781.6125
1043.61937	18749.0125
1047.31584	18620.9125
1051.00976	18440.3125
1054.70114	18373.0125
1058.38998	18458.9125
1062.07627	18622.8125
1065.76003	18871.5125
1069.44126	19161.1125
1073.11995	19509.5125
1076.79611	19877.8125
1080.46974	20045.4125
1084.14085	19989.3125
1087.80943	19876.9125
1091.47549	19709.6125
1095.13903	19421.8125
1098.80005	19010.6125
1102.45857	18645.4125
1106.11456	18478.1125
1109.76805	18480.8125
1113.41903	18683.3125
1117.06751	18923.5125
1120.71348	19293.6125
1124.35696	19625.2125
1127.99793	19964.7125
1131.63641	19994.8125
1135.2724	19635.7125
1138.90589	19208.6125
1142.5369	18959.5125
1146.16542	18777.5125
1149.79145	18701.2125
1153.415	18752.3125
1157.03607	18883.0125
1160.65467	19187.2125
1164.27079	19666.6125
1167.88443	20397.1125
1171.49561	21528.9125
1175.10432	23186.1125
1178.71056	25305.7125
1182.31434	27010.1125
1185.91565	27551.0125
1189.51451	27172.8125
1193.11091	26113.9125
1196.70485	24882.3125
1200.29634	23833.6125
1203.88538	23061.3125
1207.47197	22241.1125
1211.05612	21642.1125
1214.63782	21218.9125
1218.21708	21092.4125
1221.79391	21037.4125
1225.36829	20964.7125
1228.94024	20856.4125
1232.50976	20706.8125
1236.07685	20631.5125
1239.6415	20598.3125
1243.20374	20667.1125
1246.76355	20845.5125
1250.32093	21049.6125
1253.8759	21401.2125
1257.42845	21848.3125
1260.97859	22266.5125
1264.52631	22650.1125
1268.07163	23050.1125
1271.61453	23484.3125
1275.15503	23915.6125
1278.69312	24232.5125
1282.22882	24478.4125
1285.76211	24874.3125
1289.29301	25437.8125
1292.82151	26154.3125
1296.34761	27039.6125
1299.87133	28123.6125
1303.39266	29671.8125
1306.9116	31775.1125
1310.42815	34073.4125
1313.94233	35508.0125
1317.45412	35412.1125
1320.96354	34268.0125
1324.47058	32852.8125
1327.97525	31563.7125
1331.47754	30698.3125
1334.97747	30319.7125
1338.47502	30507.3125
1341.97022	30782.7125
1345.46305	31056.8125
1348.95352	31352.3125
1352.44163	32074.4125
1355.92738	33561.3125
1359.41078	36147.4125
1362.89183	38760.7125
1366.37053	38119.2125
1369.84688	34298.1125
1373.32088	30175.7125
1376.79254	27444.9125
1380.26186	26156.5125
1383.72883	25599.3125
1387.19347	25269.1125
1390.65578	24896.5125
1394.11575	24691.1125
1397.57339	24760.8125
1401.0287	25102.1125
1404.48168	25435.4125
1407.93234	25709.6125
1411.38068	25716.1125
1414.82669	25403.4125
1418.27039	24713.8125
1421.71177	23938.3125
1425.15083	23249.6125
1428.58758	22855.8125
1432.02203	22770.4125
1435.45416	22987.7125
1438.88399	23222.4125
1442.31151	23415.4125
1445.73673	23586.8125
1449.15965	23869.5125
1452.58027	23994.7125
1455.9986	24039.2125
1459.41463	24150.3125
1462.82837	24405.4125
1466.23982	24801.9125
1469.64898	25241.2125
1473.05586	25462.7125
1476.46045	25576.4125
1479.86276	25667.0125
1483.26279	25767.6125
1486.66054	25907.6125
1490.05602	26225.2125
1493.44922	26650.5125
1496.84016	27218.3125
1500.22882	28119.6125
1503.61521	29552.6125
1506.99934	31388.2125
1510.38121	33208.3125
1513.76081	34084.6125
1517.13816	33130.8125
1520.51324	30867.6125
1523.88607	28546.9125
1527.25665	26947.8125
1530.62498	26068.0125
1533.99105	25629.2125
1537.35488	25377.6125
1540.71647	25204.9125
1544.07581	25071.3125
1547.4329	24830.8125
1550.78776	24670.5125
1554.14038	24549.0125
1557.49077	24558.9125
1560.83892	24686.8125
1564.18484	24965.7125
1567.52853	25312.1125
1570.86999	25747.7125
1574.20922	26292.8125
1577.54624	26700.5125
1580.88103	26570.6125
1584.2136	26059.6125
1587.54395	25616.7125
1590.87208	25782.4125
1594.19801	26572.3125
1597.52172	27810.0125
1600.84321	28326.3125
1604.16251	27605.0125
1607.47959	26041.7125
1610.79447	24269.5125
1614.10715	22608.9125
1617.41763	21279.5125
1620.7259	20401.1125
1624.03199	19997.9125
1627.33587	19971.8125
1630.63757	20283.8125
1633.93707	21068.2125
1637.23439	22287.1125
1640.52951	23983.3125
1643.82246	26046.7125
1647.11321	28121.7125
1650.40179	29310.3125
1653.68819	28393.9125
1656.97241	25652.1125
1660.25446	22662.5125
1663.53433	20379.9125
1666.81203	18935.1125
1670.08756	18031.0125
1673.36092	17475.6125
1676.63211	17118.5125
1679.90115	16878.1125
1683.16801	16612.3125
1686.43272	16491.7125
1689.69527	16397.6125
1692.95567	16308.9125
1696.2139	16299.2125
1699.46999	16272.0125
1702.72392	16233.1125
1705.97571	16193.6125
1709.22535	16193.9125
1712.47284	16133.5125
1715.71819	16124.7125
1718.96139	16080.4125
1722.20246	16085.8125
1725.44139	16030.8125
1728.67818	15953.8125
1731.91284	15889.0125
1735.14537	15828.7125
1738.37576	15773.3125
1741.60403	15719.2125
1744.83017	15697.0125
1748.05418	15664.6125
1751.27607	15629.4125
1754.49584	15624.9125
1757.71349	15621.1125
1760.92903	15615.4125
1764.14244	15595.0125
1767.35375	15570.4125
1770.56294	15567.6125
1773.77002	15564.2125
1776.97499	15513.1125
1780.17785	15493.4125
1783.37861	15455.3125
1786.57727	15444.8125
1789.77382	15392.6125
1792.96828	15393.9125
1796.16064	15402.1125
1799.3509	15357.9125
1802.53907	15352.1125
1805.72514	15294.1125
1808.90913	15266.0125
1812.09102	15241.3125
1815.27083	15203.7125
1818.44856	15159.2125
1821.6242	15141.4125
1824.79776	15143.0125
1827.96924	15131.1125
1831.13864	15102.9125
1834.30597	15088.8125
1837.47122	15109.2125
1840.6344	15085.0125
1843.7955	15071.9125
1846.95454	15078.3125
1850.11151	15059.0125
1853.26642	15075.2125
1856.41926	15056.7125
1859.57004	15063.0125
1862.71876	15081.2125
1865.86542	15076.6125
1869.01003	15094.5125
1872.15258	15046.8125
1875.29308	15051.1125
1878.43152	15037.7125
1881.56792	15021.8125
1884.70227	15028.0125
1887.83457	15016.6125
1890.96482	14999.7125
1894.09304	15015.3125
1897.21921	14981.5125
1900.34335	14989.0125
1903.46544	14962.4125
1906.58551	14983.3125
1909.70353	14957.9125
1912.81953	14943.6125
1915.93349	14918.8125
1919.04543	14918.5125
1922.15534	14878.9125
1925.26322	14864.5125
1928.36908	14840.8125
1931.47292	14802.9125
1934.57473	14781.4125
1937.67453	14729.8125
1940.77232	14657.9125
1943.86808	14644.7125
1946.96184	14638.2125
1950.05358	14573.8125
1953.14331	14527.4125
1956.23103	14496.1125
1959.31675	14483.9125
1962.40046	14419.3125
1965.48217	14383.0125
1968.56188	14365.7125
1971.63959	14330.9125
1974.7153	14259.4125
1977.78901	14196.6125
1980.86073	14188.5125
1983.93046	14120.7125
1986.99819	14073.5125
1990.06394	14052.2125
1993.1277	14025.2125
1996.18947	13950.6125
1999.24925	13929.1125
2002.30706	13911.2125
2005.36288	13851.1125
2008.41672	13815.0125
2011.46859	13800.2125
2014.51848	13765.4125
2017.56639	13721.1125
2020.61233	13690.0125
2023.6563	13670.8125
2026.6983	13660.4125
2029.73833	13612.3125
2032.7764	13594.5125
2035.8125	13578.8125
2038.84664	13527.3125
2041.87881	13528.9125
2044.90903	13520.6125
2047.93729	13487.6125
2050.96359	13478.5125
2053.98794	13458.5125
2057.01034	13416.6125
2060.03078	13402.8125
2063.04927	13391.3125
2066.06582	13402.3125
2069.08042	13364.9125
2072.09307	13368.6125
2075.10378	13338.7125
2078.11255	13328.8125
2081.11938	13346.5125
2084.12426	13324.4125
2087.12722	13338.6125
2090.12824	13324.4125
2093.12732	13366.7125
2096.12447	13340.7125
2099.11969	13348.4125
2102.11299	13363.6125
2105.10435	13361.4125
2108.09379	13349.6125
2111.08131	13382.9125
2114.0669	13351.6125
2117.05057	13366.6125
2120.03233	13401.3125
2123.01216	13421.7125
2125.99008	13428.8125
2128.96609	13426.4125
2131.94018	13460.9125
2134.91236	13414.6125
2137.88263	13437.8125
2140.851	13472.9125
2143.81746	13472.8125
2146.78201	13471.4125
2149.74466	13468.4125
2152.7054	13482.4125
2155.66425	13496.6125
2158.6212	13505.3125
2161.57625	13486.1125
2164.52941	13491.2125
2167.48067	13443.8125
2170.43004	13487.6125
2173.37752	13473.1125
2176.32311	13463.6125
2179.26681	13467.5125
2182.20863	13482.1125
2185.14856	13512.8125
2188.08661	13466.2125
2191.02278	13466.5125
2193.95707	13432.3125
2196.88948	13432.9125
2199.82001	13423.0125
2202.74867	13409.3125
2205.67545	13432.6125
2208.60037	13443.6125
2211.52341	13407.1125
2214.44458	13399.9125
2217.36388	13346.3125
2220.28132	13328.0125
2223.1969	13289.1125
2226.11061	13291.4125
2229.02246	13242.4125
2231.93245	13240.6125
2234.84058	13180.7125
2237.74686	13222.6125
2240.65128	13192.9125
2243.55385	13159.1125
2246.45456	13129.6125
2249.35343	13150.5125
2252.25044	13126.6125
2255.14561	13096.1125
2258.03893	13078.9125
2260.93041	13063.2125
2263.82004	13046.8125
2266.70783	13015.7125
2269.59378	12981.3125
2272.4779	12957.9125
2275.36017	12943.1125
2278.24061	12922.1125
2281.11922	12870.7125
2283.996	12843.8125
2286.87094	12822.2125
2289.74405	12807.1125
2292.61534	12796.5125
2295.4848	12803.8125
2298.35243	12802.4125
2301.21824	12768.1125
2304.08223	12784.0125
2306.94439	12772.9125
2309.80474	12761.8125
2312.66327	12758.7125
2315.51999	12753.1125
2318.37489	12752.7125
2321.22797	12747.7125
2324.07925	12754.2125
2326.92871	12722.3125
2329.77637	12706.3125
2332.62222	12684.5125
2335.46626	12699.6125
2338.3085	12673.3125
2341.14893	12665.5125
2343.98756	12641.6125
2346.8244	12649.8125
2349.65943	12642.9125
2352.49267	12620.1125
2355.32411	12637.9125
2358.15376	12631.6125
2360.98161	12642.7125
2363.80768	12629.9125
2366.63195	12636.3125
2369.45444	12604.9125
2372.27514	12606.0125
2375.09405	12573.7125
2377.91118	12572.3125
2380.72652	12523.5125
2383.54009	12476.1125
2386.35187	12467.2125
2389.16188	12445.5125
2391.97011	12405.2125
2394.77657	12365.4125
2397.58125	12337.9125
2400.38416	12362.1125
2403.18529	12343.1125
2405.98466	12316.6125
2408.78226	12299.8125
2411.57809	12268.5125
2414.37216	12267.6125
2417.16446	12242.9125
2419.955	12220.0125
2422.74378	12204.9125
2425.5308	12197.0125
2428.31606	12176.3125
2431.09956	12161.6125
2433.88131	12168.8125
2436.6613	12164.8125
2439.43954	12161.7125
2442.21603	12166.7125
2444.99077	12146.9125
2447.76377	12159.4125
2450.53501	12126.9125
2453.30451	12135.7125
2456.07226	12082.7125
2458.83827	12097.3125
2461.60254	12107.2125
2464.36507	12109.4125
2467.12586	12076.5125
2469.88492	12084.0125
2472.64224	12068.6125
2475.39782	12049.6125
2478.15167	12084.3125
2480.90379	12087.3125
2483.65417	12085.6125
2486.40283	12074.7125
2489.14976	12100.4125
2491.89497	12108.9125
2494.63845	12093.3125
2497.3802	12081.9125
2500.12024	12068.0125
2502.85855	12054.7125
2505.59514	12040.5125
2508.33002	12027.5125
2511.06318	12012.6125
2513.79462	12003.2125
2516.52435	11999.9125
2519.25237	11941.3125
2521.97867	11936.4125
2524.70327	11952.9125
2527.42616	11918.6125
2530.14734	11909.9125
2532.86681	11900.0125
2535.58458	11898.6125
2538.30065	11868.5125
2541.01501	11875.3125
2543.72768	11863.3125
2546.43864	11848.8125
2549.14791	11843.7125
2551.85548	11818.7125
2554.56136	11782.7125
2557.26554	11743.3125
2559.96803	11758.2125
2562.66883	11766.7125
2565.36794	11745.2125
2568.06536	11695.6125
2570.7611	11720.8125
2573.45514	11702.2125
2576.14751	11731.3125
2578.83819	11672.5125
2581.52719	11645.0125
2584.21451	11648.6125
2586.90015	11643.2125
2589.58411	11626.5125
2592.2664	11601.8125
2594.94701	11605.4125
2597.62594	11575.6125
2600.30321	11579.6125
2602.9788	11568.6125
2605.65273	11544.9125
2608.32498	11533.5125
2610.99557	11491.7125
2613.66449	11527.3125
2616.33175	11501.7125
2618.99734	11503.8125
2621.66128	11469.2125
2624.32355	11478.0125
2626.98416	11469.2125
2629.64311	11473.5125
2632.30041	11462.6125
2634.95605	11487.4125
2637.61004	11447.7125
2640.26238	11413.6125
2642.91306	11407.5125
2645.56209	11409.6125
2648.20948	11390.0125
2650.85521	11386.5125
2653.4993	11386.0125
2656.14175	11396.4125
2658.78255	11402.9125
2661.42171	11404.5125
2664.05923	11398.1125
2666.6951	11396.8125
2669.32934	11404.8125
2671.96194	11430.8125
2674.59291	11400.5125
2677.22224	11387.6125
2679.84993	11427.2125
2682.476	11414.5125
2685.10043	11394.9125
2687.72324	11394.7125
2690.34441	11408.0125
2692.96396	11399.8125
2695.58188	11404.5125
2698.19818	11380.6125
2700.81285	11384.8125
2703.4259	11399.0125
2706.03733	11470.8125
2708.64714	11491.4125
2711.25533	11438.7125
2713.86191	11437.3125
2716.46687	11445.7125
2719.07021	11404.3125
2721.67194	11425.1125
2724.27206	11409.7125
2726.87057	11415.0125
2729.46747	11410.9125
2732.06276	11402.1125
2734.65644	11412.6125
2737.24852	11406.5125
2739.83899	11380.8125
2742.42786	11383.3125
2745.01513	11372.2125
2747.60079	11365.8125
2750.18486	11371.3125
2752.76733	11345.1125
2755.3482	11330.9125
2757.92747	11341.9125
2760.50515	11313.4125
2763.08123	11333.7125
2765.65573	11312.7125
2768.22863	11302.4125
2770.79994	11312.6125
2773.36967	11296.6125
2775.9378	11280.9125
2778.50435	11270.9125
2781.06932	11254.4125
2783.6327	11237.5125
2786.1945	11252.5125
2788.75471	11246.3125
2791.31335	11229.1125
2793.87041	11184.7125
2796.42589	11176.3125
2798.97979	11173.5125
2801.53212	11124.1125
2804.08288	11131.4125
2806.63206	11125.4125
2809.17967	11089.6125
2811.72571	11081.1125
2814.27018	11086.9125
2816.81308	11035.0125
2819.35442	11043.1125
2821.89419	11039.8125
2824.43239	11016.7125
2826.96904	11011.5125
2829.50412	11007.3125
2832.03763	10978.8125
2834.56959	11006.4125
2837.1	10972.5125
2839.62884	10979.1125
2842.15613	10998.7125
2844.68186	11020.6125
2847.20604	11025.5125
2849.72867	11050.1125
2852.24974	11021.4125
2854.76927	11029.4125
2857.28724	11013.4125
2859.80367	10974.1125
2862.31855	10980.0125
2864.83189	10966.8125
2867.34368	10944.3125
2869.85393	10946.2125
2872.36264	10933.9125
2874.8698	10944.5125
2877.37543	10947.7125
2879.87952	10981.0125
2882.38207	10965.0125
2884.88308	10969.1125
2887.38256	10974.5125
2889.88051	10957.0125
2892.37692	10949.2125
2894.8718	10955.4125
2897.36515	10967.2125
2899.85698	10948.4125
2902.34727	10959.2125
2904.83604	10979.0125
2907.32328	10998.3125
2909.809	10995.3125
2912.29319	11008.7125
2914.77587	10969.1125
2917.25702	10965.3125
2919.73665	10983.4125
2922.21476	10975.7125
2924.69136	10952.3125
2927.16644	10954.7125
2929.64	10920.5125
2932.11205	10931.5125
2934.58258	10928.6125
2937.05161	10926.1125
2939.51912	10919.6125
2941.98513	10869.8125
2944.44962	10898.1125
2946.91261	10805.8125
2949.37409	10824.7125
2951.83407	10832.3125
2954.29254	10805.4125
2956.74951	10762.6125
2959.20498	10773.3125
2961.65895	10753.2125
2964.11142	10740.0125
2966.56239	10723.9125
2969.01186	10704.5125
2971.45984	10676.1125
2973.90632	10656.3125
2976.35131	10638.0125
2978.7948	10617.7125
2981.23681	10588.8125
2983.67732	10580.8125
2986.11635	10549.2125
2988.55388	10539.6125
2990.98993	10524.1125
2993.4245	10484.7125
2995.85758	10481.4125
2998.28917	10433.4125
3000.71928	10434.9125
3003.14791	10438.8125
3005.57506	10423.5125
3008.00073	10416.8125
3010.42493	10415.0125
3012.84764	10353.6125
3015.26888	10375.6125
3017.68865	10337.8125
3020.10694	10332.4125
3022.52376	10313.3125
3024.9391	10279.3125
