Data from AgNP_FTO_APTES_CRN_1000uM_R6G_10uM_NaF_0.1M_Addition_RamanShift__11__21-03-08-277.txt Node

Date: Wed Dec 15 21:03:08 GMT 2021
User: TCL
Spectrometer: QEP01345
Trigger mode: 4
Integration Time (sec): 7.000000E0
Scans to average: 10
Electric dark correction enabled: true
Nonlinearity correction enabled: false
Boxcar width: 0
XAxis mode: Raman Shifts
Number of Pixels in Spectrum: 1044
>>>>>Begin Spectral Data<<<<<
46.04893	1.3875
50.45542	-1.7125
54.85868	-1.5125
59.25871	-1.2125
63.6555	57.2875
68.04907	60.6875
72.43941	63.8875
76.82654	67.3875
81.21044	67.3875
85.59113	70.7875
89.96862	78.1875
94.34289	75.8875
98.71396	77.5875
103.08183	83.6875
107.4465	85.1875
111.80798	87.1875
116.16626	90.6875
120.52136	93.6875
124.87327	95.5875
129.222	101.2875
133.56755	101.9875
137.90993	113.1875
142.24913	120.5875
146.58517	135.5875
150.91804	157.4875
155.24774	180.0875
159.57429	224.0875
163.89768	285.0875
168.21792	371.9875
172.53501	506.7875
176.84895	693.7875
181.15975	982.4875
185.46741	1370.3875
189.77193	1897.7875
194.07331	2545.0875
198.37157	3289.9875
202.6667	4066.3875
206.9587	4825.0875
211.24758	5590.9875
215.53334	6357.8875
219.81599	7119.4875
224.09553	7965.8875
228.37195	8892.0875
232.64527	9901.5875
236.91549	10978.1875
241.18261	12094.7875
245.44663	13174.7875
249.70755	14163.8875
253.96539	15059.4875
258.22014	15770.2875
262.4718	16354.9875
266.72039	16770.2875
270.96589	16974.1875
275.20832	17011.8875
279.44768	16949.6875
283.68397	16880.8875
287.91719	16734.2875
292.14735	16643.0875
296.37445	16637.5875
300.59849	16571.1875
304.81948	16548.9875
309.03742	16423.3875
313.25231	16282.4875
317.46415	16058.4875
321.67296	15718.7875
325.87872	15468.7875
330.08145	15371.2875
334.28114	15387.5875
338.47781	15530.4875
342.67145	15613.9875
346.86207	15792.4875
351.04966	15993.4875
355.23424	16202.8875
359.4158	16351.0875
363.59435	16491.7875
367.76989	16585.6875
371.94243	16648.6875
376.11196	16730.9875
380.27849	16783.6875
384.44203	16870.7875
388.60257	17024.9875
392.76012	17146.8875
396.91468	17350.9875
401.06626	17564.8875
405.21485	17754.9875
409.36047	17759.8875
413.50311	17684.1875
417.64277	17605.0875
421.77947	17599.3875
425.9132	17699.5875
430.04396	17872.3875
434.17176	17988.1875
438.2966	18090.8875
442.41849	18252.5875
446.53742	18493.2875
450.6534	18785.9875
454.76644	19010.5875
458.87653	19197.7875
462.98368	19261.5875
467.08789	19204.1875
471.18916	19166.0875
475.2875	19134.3875
479.38291	19099.2875
483.4754	19050.6875
487.56496	18899.3875
491.6516	18681.7875
495.73531	18473.5875
499.81612	18368.2875
503.89401	18415.8875
507.96899	18465.6875
512.04106	18509.0875
516.11023	18532.9875
520.1765	18434.1875
524.23987	18334.0875
528.30034	18224.0875
532.35792	18107.2875
536.41261	17969.0875
540.46441	17915.9875
544.51333	17982.6875
548.55936	18156.2875
552.60252	18407.5875
556.64279	18702.5875
560.6802	18898.9875
564.71473	19062.5875
568.7464	19305.0875
572.7752	19731.2875
576.80114	20193.4875
580.82422	20609.1875
584.84444	20842.4875
588.86181	21108.1875
592.87633	21185.1875
596.888	21031.7875
600.89682	20731.6875
604.9028	20686.0875
608.90594	21217.6875
612.90624	21779.1875
616.90371	20845.9875
620.89834	19006.7875
624.89015	18222.0875
628.87913	18135.2875
632.86528	18296.5875
636.84862	18377.2875
640.82913	18266.7875
644.80683	18001.6875
648.78172	17835.4875
652.75379	17788.2875
656.72306	17843.2875
660.68952	17978.7875
664.65319	17942.3875
668.61405	17906.7875
672.57211	17919.2875
676.52738	17991.2875
680.47986	18037.7875
684.42955	17977.9875
688.37646	17904.0875
692.32058	17935.3875
696.26192	18014.6875
700.20048	18148.9875
704.13626	18276.0875
708.06928	18343.9875
711.99952	18330.3875
715.927	18282.5875
719.85171	18248.1875
723.77365	18152.2875
727.69284	17930.7875
731.60928	17810.3875
735.52295	17718.4875
739.43388	17711.1875
743.34206	17720.3875
747.24749	17824.2875
751.15017	17886.2875
755.05012	18101.6875
758.94733	18436.6875
762.8418	19056.7875
766.73354	19856.3875
770.62254	20574.0875
774.50882	20589.4875
778.39237	19964.7875
782.27321	19116.6875
786.15132	18384.1875
790.02671	17952.6875
793.89938	17704.9875
797.76935	17582.8875
801.6366	17567.5875
805.50115	17511.2875
809.36299	17484.9875
813.22213	17398.6875
817.07857	17398.4875
820.93231	17381.0875
824.78336	17352.2875
828.63172	17279.9875
832.47738	17277.4875
836.32036	17297.1875
840.16066	17256.8875
843.99827	17228.0875
847.8332	17201.9875
851.66546	17205.1875
855.49504	17230.9875
859.32195	17240.9875
863.1462	17210.6875
866.96777	17162.0875
870.78668	17223.8875
874.60293	17199.1875
878.41652	17205.7875
882.22745	17232.4875
886.03573	17294.4875
889.84136	17278.7875
893.64433	17296.0875
897.44466	17246.1875
901.24235	17240.2875
905.0374	17190.1875
908.8298	17186.5875
912.61957	17240.6875
916.40671	17340.4875
920.19121	17509.6875
923.97308	17511.9875
927.75233	17478.0875
931.52895	17374.2875
935.30295	17182.3875
939.07433	16957.5875
942.84309	16802.1875
946.60924	16710.4875
950.37278	16649.2875
954.13371	16613.1875
957.89203	16603.7875
961.64774	16612.1875
965.40086	16607.1875
969.15137	16537.7875
972.89929	16490.2875
976.64461	16398.7875
980.38733	16391.7875
984.12747	16361.9875
987.86502	16389.9875
991.59999	16435.3875
995.33237	16508.1875
999.06217	16605.8875
1002.78939	16762.4875
1006.51404	16918.8875
1010.23611	17110.8875
1013.95561	17264.1875
1017.67255	17276.4875
1021.38692	17226.6875
1025.09872	17063.4875
1028.80796	16949.2875
1032.51465	16913.1875
1036.21877	16920.4875
1039.92035	16972.2875
1043.61937	17054.1875
1047.31584	17119.2875
1051.00976	17230.1875
1054.70114	17332.2875
1058.38998	17495.1875
1062.07627	17775.8875
1065.76003	18138.0875
1069.44126	18494.3875
1073.11995	18761.5875
1076.79611	18959.4875
1080.46974	18824.6875
1084.14085	18605.1875
1087.80943	18441.6875
1091.47549	18394.8875
1095.13903	18408.9875
1098.80005	18279.8875
1102.45857	18001.0875
1106.11456	17697.9875
1109.76805	17530.7875
1113.41903	17427.2875
1117.06751	17457.3875
1120.71348	17573.9875
1124.35696	17738.6875
1127.99793	17920.1875
1131.63641	18077.2875
1135.2724	18005.2875
1138.90589	17928.6875
1142.5369	17926.3875
1146.16542	17977.2875
1149.79145	18066.8875
1153.415	18233.7875
1157.03607	18411.9875
1160.65467	18724.1875
1164.27079	19207.5875
1167.88443	19806.5875
1171.49561	20553.7875
1175.10432	21417.6875
1178.71056	22518.0875
1182.31434	23526.9875
1185.91565	24153.2875
1189.51451	24327.2875
1193.11091	24220.7875
1196.70485	23793.4875
1200.29634	23153.7875
1203.88538	22607.1875
1207.47197	22286.9875
1211.05612	22005.0875
1214.63782	21711.9875
1218.21708	21265.7875
1221.79391	20723.3875
1225.36829	20300.5875
1228.94024	20063.7875
1232.50976	19936.8875
1236.07685	19828.8875
1239.6415	19806.3875
1243.20374	19799.5875
1246.76355	19885.9875
1250.32093	20075.1875
1253.8759	20336.8875
1257.42845	20662.7875
1260.97859	21050.2875
1264.52631	21461.9875
1268.07163	21811.9875
1271.61453	22210.9875
1275.15503	22596.8875
1278.69312	22967.5875
1282.22882	23399.1875
1285.76211	23872.8875
1289.29301	24501.9875
1292.82151	25277.7875
1296.34761	26209.6875
1299.87133	27254.4875
1303.39266	28201.7875
1306.9116	29033.5875
1310.42815	29686.2875
1313.94233	29993.7875
1317.45412	29949.6875
1320.96354	29758.4875
1324.47058	29673.4875
1327.97525	29671.7875
1331.47754	29763.7875
1334.97747	29927.2875
1338.47502	30047.2875
1341.97022	30197.7875
1345.46305	30262.2875
1348.95352	30148.7875
1352.44163	29928.6875
1355.92738	29739.9875
1359.41078	29800.5875
1362.89183	29809.5875
1366.37053	29264.7875
1369.84688	27798.2875
1373.32088	26058.3875
1376.79254	24669.5875
1380.26186	24107.8875
1383.72883	24015.1875
1387.19347	24020.9875
1390.65578	23965.6875
1394.11575	23938.1875
1397.57339	23953.3875
1401.0287	24042.6875
1404.48168	24022.5875
1407.93234	23863.3875
1411.38068	23349.8875
1414.82669	22733.1875
1418.27039	21922.1875
1421.71177	21206.2875
1425.15083	20620.6875
1428.58758	20322.3875
1432.02203	20371.4875
1435.45416	20635.0875
1438.88399	20999.9875
1442.31151	21264.8875
1445.73673	21491.6875
1449.15965	21775.2875
1452.58027	22005.6875
1455.9986	22191.5875
1459.41463	22441.9875
1462.82837	22674.9875
1466.23982	22958.6875
1469.64898	23197.8875
1473.05586	23288.1875
1476.46045	23339.4875
1479.86276	23193.8875
1483.26279	23119.2875
1486.66054	23046.6875
1490.05602	23133.8875
1493.44922	23363.4875
1496.84016	23731.9875
1500.22882	24212.4875
1503.61521	24922.7875
1506.99934	25590.6875
1510.38121	26029.0875
1513.76081	26109.2875
1517.13816	25768.6875
1520.51324	25388.9875
1523.88607	25089.9875
1527.25665	24974.3875
1530.62498	24953.5875
1533.99105	24850.5875
1537.35488	24627.1875
1540.71647	24179.2875
1544.07581	23643.5875
1547.4329	23159.9875
1550.78776	22698.6875
1554.14038	22370.7875
1557.49077	22165.7875
1560.83892	22097.0875
1564.18484	22125.4875
1567.52853	22255.1875
1570.86999	22558.2875
1574.20922	23006.1875
1577.54624	23538.5875
1580.88103	23844.7875
1584.2136	23938.5875
1587.54395	23986.4875
1590.87208	24109.9875
1594.19801	24548.9875
1597.52172	25107.3875
1600.84321	25193.0875
1604.16251	24469.6875
1607.47959	23390.7875
1610.79447	22193.8875
1614.10715	20972.6875
1617.41763	19850.2875
1620.7259	18982.6875
1624.03199	18475.6875
1627.33587	18333.7875
1630.63757	18481.8875
1633.93707	19146.9875
1637.23439	20249.3875
1640.52951	21902.9875
1643.82246	23859.4875
1647.11321	25550.8875
1650.40179	26177.5875
1653.68819	25320.7875
1656.97241	23316.8875
1660.25446	21018.4875
1663.53433	19082.7875
1666.81203	17666.0875
1670.08756	16712.3875
1673.36092	16104.7875
1676.63211	15689.3875
1679.90115	15396.6875
1683.16801	15181.3875
1686.43272	15012.0875
1689.69527	14895.4875
1692.95567	14795.9875
1696.2139	14733.6875
1699.46999	14728.0875
1702.72392	14650.7875
1705.97571	14600.0875
1709.22535	14530.2875
1712.47284	14534.9875
1715.71819	14489.6875
1718.96139	14472.3875
1722.20246	14375.0875
1725.44139	14342.1875
1728.67818	14276.2875
1731.91284	14212.8875
1735.14537	14152.4875
1738.37576	14086.8875
1741.60403	14066.3875
1744.83017	14042.3875
1748.05418	13974.6875
1751.27607	13977.6875
1754.49584	13941.4875
1757.71349	13980.8875
1760.92903	13956.0875
1764.14244	13955.9875
1767.35375	13949.4875
1770.56294	13872.7875
1773.77002	13847.2875
1776.97499	13800.8875
1780.17785	13781.8875
1783.37861	13764.9875
1786.57727	13708.0875
1789.77382	13668.8875
1792.96828	13616.2875
1796.16064	13598.9875
1799.3509	13587.1875
1802.53907	13528.0875
1805.72514	13481.4875
1808.90913	13446.4875
1812.09102	13408.5875
1815.27083	13399.4875
1818.44856	13375.0875
1821.6242	13346.1875
1824.79776	13317.3875
1827.96924	13323.8875
1831.13864	13305.4875
1834.30597	13324.3875
1837.47122	13278.9875
1840.6344	13294.4875
1843.7955	13266.3875
1846.95454	13247.1875
1850.11151	13229.3875
1853.26642	13189.2875
1856.41926	13190.4875
1859.57004	13166.9875
1862.71876	13185.0875
1865.86542	13142.5875
1869.01003	13152.4875
1872.15258	13108.9875
1875.29308	13122.3875
1878.43152	13096.1875
1881.56792	13085.4875
1884.70227	13067.4875
1887.83457	13025.2875
1890.96482	13012.2875
1894.09304	13009.3875
1897.21921	12977.7875
1900.34335	12952.0875
1903.46544	12920.5875
1906.58551	12883.0875
1909.70353	12869.5875
1912.81953	12863.8875
1915.93349	12842.0875
1919.04543	12796.4875
1922.15534	12755.3875
1925.26322	12749.9875
1928.36908	12740.1875
1931.47292	12740.3875
1934.57473	12690.1875
1937.67453	12656.4875
1940.77232	12622.9875
1943.86808	12561.4875
1946.96184	12553.6875
1950.05358	12501.6875
1953.14331	12462.9875
1956.23103	12437.8875
1959.31675	12395.4875
1962.40046	12396.5875
1965.48217	12356.0875
1968.56188	12303.2875
1971.63959	12253.5875
1974.7153	12208.6875
1977.78901	12184.5875
1980.86073	12125.4875
1983.93046	12077.8875
1986.99819	12045.8875
1990.06394	12022.3875
1993.1277	11996.4875
1996.18947	11945.7875
1999.24925	11888.2875
2002.30706	11857.9875
2005.36288	11816.2875
2008.41672	11782.9875
2011.46859	11753.0875
2014.51848	11722.8875
2017.56639	11689.4875
2020.61233	11671.9875
2023.6563	11629.7875
2026.6983	11621.5875
2029.73833	11600.2875
2032.7764	11558.0875
2035.8125	11530.9875
2038.84664	11478.2875
2041.87881	11474.1875
2044.90903	11442.3875
2047.93729	11419.6875
2050.96359	11397.8875
2053.98794	11347.4875
2057.01034	11346.7875
2060.03078	11343.4875
2063.04927	11338.8875
2066.06582	11340.0875
2069.08042	11337.7875
2072.09307	11329.7875
2075.10378	11287.5875
2078.11255	11296.4875
2081.11938	11293.8875
2084.12426	11267.5875
2087.12722	11240.5875
2090.12824	11257.8875
2093.12732	11255.7875
2096.12447	11246.3875
2099.11969	11234.9875
2102.11299	11237.9875
2105.10435	11269.9875
2108.09379	11259.7875
2111.08131	11239.1875
2114.0669	11275.0875
2117.05057	11265.8875
2120.03233	11237.7875
2123.01216	11274.6875
2125.99008	11251.2875
2128.96609	11278.9875
2131.94018	11297.9875
2134.91236	11270.8875
2137.88263	11285.0875
2140.851	11292.1875
2143.81746	11271.4875
2146.78201	11305.0875
2149.74466	11288.8875
2152.7054	11283.6875
2155.66425	11297.5875
2158.6212	11315.9875
2161.57625	11298.7875
2164.52941	11262.1875
2167.48067	11251.6875
2170.43004	11255.3875
2173.37752	11235.7875
2176.32311	11232.1875
2179.26681	11255.7875
2182.20863	11219.9875
2185.14856	11244.9875
2188.08661	11181.9875
2191.02278	11200.2875
2193.95707	11170.4875
2196.88948	11149.3875
2199.82001	11148.2875
2202.74867	11115.4875
2205.67545	11123.1875
2208.60037	11124.7875
2211.52341	11096.5875
2214.44458	11088.1875
2217.36388	11047.1875
2220.28132	11023.1875
2223.1969	10973.9875
2226.11061	10989.3875
2229.02246	10969.0875
2231.93245	10949.5875
2234.84058	10930.0875
2237.74686	10923.2875
2240.65128	10879.7875
2243.55385	10865.1875
2246.45456	10812.4875
2249.35343	10809.5875
2252.25044	10819.9875
2255.14561	10759.4875
2258.03893	10757.6875
2260.93041	10735.3875
2263.82004	10724.2875
2266.70783	10686.6875
2269.59378	10653.1875
2272.4779	10623.7875
2275.36017	10624.7875
2278.24061	10580.3875
2281.11922	10527.0875
2283.996	10517.5875
2286.87094	10483.2875
2289.74405	10480.1875
2292.61534	10459.3875
2295.4848	10445.7875
2298.35243	10452.2875
2301.21824	10424.1875
2304.08223	10399.4875
2306.94439	10398.1875
2309.80474	10403.3875
2312.66327	10361.6875
2315.51999	10380.7875
2318.37489	10350.1875
2321.22797	10361.4875
2324.07925	10338.3875
2326.92871	10326.4875
2329.77637	10307.1875
2332.62222	10292.6875
2335.46626	10259.8875
2338.3085	10254.5875
2341.14893	10217.3875
2343.98756	10217.2875
2346.8244	10206.4875
2349.65943	10191.7875
2352.49267	10172.7875
2355.32411	10170.2875
2358.15376	10155.1875
2360.98161	10147.7875
2363.80768	10171.0875
2366.63195	10135.8875
2369.45444	10116.5875
2372.27514	10109.1875
2375.09405	10113.8875
2377.91118	10083.2875
2380.72652	10057.4875
2383.54009	10043.4875
2386.35187	10034.4875
2389.16188	9994.7875
2391.97011	9979.2875
2394.77657	9957.4875
2397.58125	9951.2875
2400.38416	9937.7875
2403.18529	9892.6875
2405.98466	9874.7875
2408.78226	9872.5875
2411.57809	9868.4875
2414.37216	9837.9875
2417.16446	9839.6875
2419.955	9808.7875
2422.74378	9793.0875
2425.5308	9785.1875
2428.31606	9757.0875
2431.09956	9757.3875
2433.88131	9749.0875
2436.6613	9733.5875
2439.43954	9724.8875
2442.21603	9706.0875
2444.99077	9705.9875
2447.76377	9742.2875
2450.53501	9687.4875
2453.30451	9659.0875
2456.07226	9639.5875
2458.83827	9628.7875
2461.60254	9633.8875
2464.36507	9623.3875
2467.12586	9607.2875
2469.88492	9599.7875
2472.64224	9568.7875
2475.39782	9587.1875
2478.15167	9580.1875
2480.90379	9577.2875
2483.65417	9562.5875
2486.40283	9570.7875
2489.14976	9554.7875
2491.89497	9538.7875
2494.63845	9554.5875
2497.3802	9521.3875
2500.12024	9521.3875
2502.85855	9519.1875
2505.59514	9514.1875
2508.33002	9486.5875
2511.06318	9494.4875
2513.79462	9474.9875
2516.52435	9454.6875
2519.25237	9459.5875
2521.97867	9406.1875
2524.70327	9427.2875
2527.42616	9397.2875
2530.14734	9403.5875
2532.86681	9371.5875
2535.58458	9368.9875
2538.30065	9341.8875
2541.01501	9347.6875
2543.72768	9349.5875
2546.43864	9313.3875
2549.14791	9282.8875
2551.85548	9287.8875
2554.56136	9245.5875
2557.26554	9253.9875
2559.96803	9237.3875
2562.66883	9191.9875
2565.36794	9181.1875
2568.06536	9183.0875
2570.7611	9180.2875
2573.45514	9151.6875
2576.14751	9139.9875
2578.83819	9105.6875
2581.52719	9110.9875
2584.21451	9088.5875
2586.90015	9071.0875
2589.58411	9069.3875
2592.2664	9023.5875
2594.94701	9018.2875
2597.62594	8990.5875
2600.30321	8990.0875
2602.9788	8972.2875
2605.65273	8949.5875
2608.32498	8952.8875
2610.99557	8931.5875
2613.66449	8917.9875
2616.33175	8895.4875
2618.99734	8896.6875
2621.66128	8875.4875
2624.32355	8882.5875
2626.98416	8862.5875
2629.64311	8852.8875
2632.30041	8842.8875
2634.95605	8851.7875
2637.61004	8813.2875
2640.26238	8813.0875
2642.91306	8798.3875
2645.56209	8798.4875
2648.20948	8792.6875
2650.85521	8793.6875
2653.4993	8784.4875
2656.14175	8782.2875
2658.78255	8787.1875
2661.42171	8761.3875
2664.05923	8766.8875
2666.6951	8758.9875
2669.32934	8771.1875
2671.96194	8743.5875
2674.59291	8745.8875
2677.22224	8775.7875
2679.84993	8768.5875
2682.476	8741.2875
2685.10043	8727.0875
2687.72324	8739.3875
2690.34441	8730.1875
2692.96396	8715.6875
2695.58188	8720.5875
2698.19818	8728.6875
2700.81285	8722.0875
2703.4259	8757.8875
2706.03733	8792.1875
2708.64714	8755.1875
2711.25533	8764.9875
2713.86191	8743.2875
2716.46687	8736.5875
2719.07021	8736.9875
2721.67194	8729.9875
2724.27206	8709.8875
2726.87057	8725.6875
2729.46747	8728.4875
2732.06276	8717.3875
2734.65644	8699.6875
2737.24852	8703.1875
2739.83899	8669.9875
2742.42786	8676.4875
2745.01513	8636.0875
2747.60079	8650.7875
2750.18486	8647.8875
2752.76733	8647.2875
2755.3482	8636.2875
2757.92747	8626.8875
2760.50515	8584.5875
2763.08123	8576.8875
2765.65573	8588.7875
2768.22863	8587.8875
2770.79994	8578.6875
2773.36967	8585.8875
2775.9378	8557.1875
2778.50435	8540.7875
2781.06932	8510.7875
2783.6327	8512.9875
2786.1945	8513.4875
2788.75471	8484.6875
2791.31335	8464.6875
2793.87041	8458.5875
2796.42589	8430.6875
2798.97979	8431.5875
2801.53212	8392.7875
2804.08288	8386.9875
2806.63206	8365.5875
2809.17967	8323.9875
2811.72571	8324.5875
2814.27018	8286.7875
2816.81308	8281.1875
2819.35442	8272.7875
2821.89419	8253.2875
2824.43239	8265.9875
2826.96904	8238.8875
2829.50412	8230.8875
2832.03763	8197.5875
2834.56959	8229.4875
2837.1	8212.8875
2839.62884	8236.6875
2842.15613	8222.3875
2844.68186	8243.1875
2847.20604	8264.9875
2849.72867	8264.2875
2852.24974	8248.3875
2854.76927	8232.0875
2857.28724	8224.6875
2859.80367	8220.4875
2862.31855	8214.8875
2864.83189	8188.3875
2867.34368	8186.1875
2869.85393	8176.6875
2872.36264	8172.6875
2874.8698	8151.0875
2877.37543	8154.0875
2879.87952	8140.7875
2882.38207	8135.5875
2884.88308	8126.2875
2887.38256	8165.9875
2889.88051	8135.2875
2892.37692	8123.3875
2894.8718	8120.2875
2897.36515	8099.2875
2899.85698	8130.0875
2902.34727	8127.9875
2904.83604	8116.1875
2907.32328	8169.1875
2909.809	8142.4875
2912.29319	8137.2875
2914.77587	8125.9875
2917.25702	8140.2875
2919.73665	8120.7875
2922.21476	8143.4875
2924.69136	8118.0875
2927.16644	8127.9875
2929.64	8114.2875
2932.11205	8100.5875
2934.58258	8092.1875
2937.05161	8115.0875
2939.51912	8125.5875
2941.98513	8089.2875
2944.44962	8056.1875
2946.91261	8006.3875
2949.37409	8020.1875
2951.83407	7994.2875
2954.29254	7998.0875
2956.74951	7961.7875
2959.20498	7960.1875
2961.65895	7960.9875
2964.11142	7937.7875
2966.56239	7948.4875
2969.01186	7916.4875
2971.45984	7886.2875
2973.90632	7866.1875
2976.35131	7826.2875
2978.7948	7820.0875
2981.23681	7819.0875
2983.67732	7810.9875
2986.11635	7781.2875
2988.55388	7761.2875
2990.98993	7734.5875
2993.4245	7730.8875
2995.85758	7707.7875
2998.28917	7681.4875
3000.71928	7651.5875
3003.14791	7652.8875
3005.57506	7651.1875
3008.00073	7614.5875
3010.42493	7614.4875
3012.84764	7615.8875
3015.26888	7612.5875
3017.68865	7580.1875
3020.10694	7583.0875
3022.52376	7562.5875
3024.9391	7569.0875
3027.35298	7526.3875
3029.76539	7538.7875
3032.17632	7537.6875
3034.5858	7511.4875
3036.9938	7506.5875
3039.40034	7502.7875
3041.80542	7479.8875
3044.20903	7469.7875
3046.61118	7459.2875
3049.01187	7446.8875
3051.4111	7453.9875
3053.80888	7423.2875
