Data from AgNP_FTO_APTES_CRN_20uM_R6G_10uM_NaF_0.1M_Addition_RamanShift__15__17-17-58-022.txt Node

Date: Wed Dec 15 17:17:58 GMT 2021
User: TCL
Spectrometer: QEP01345
Trigger mode: 4
Integration Time (sec): 7.000000E0
Scans to average: 10
Electric dark correction enabled: true
Nonlinearity correction enabled: false
Boxcar width: 0
XAxis mode: Raman Shifts
Number of Pixels in Spectrum: 1044
>>>>>Begin Spectral Data<<<<<
46.04893	-0.025
50.45542	-1.725
54.85868	-0.225
59.25871	-0.225
63.6555	61.675
68.04907	67.475
72.43941	68.175
76.82654	77.875
81.21044	74.575
85.59113	80.675
89.96862	86.475
94.34289	85.975
98.71396	87.875
103.08183	92.875
107.4465	90.675
111.80798	94.075
116.16626	99.775
120.52136	100.575
124.87327	99.675
129.222	107.875
133.56755	107.175
137.90993	118.475
142.24913	126.575
146.58517	137.375
150.91804	158.875
155.24774	182.975
159.57429	221.675
163.89768	283.575
168.21792	362.875
172.53501	489.975
176.84895	675.175
181.15975	944.475
185.46741	1322.475
189.77193	1830.275
194.07331	2452.775
198.37157	3175.775
202.6667	3945.675
206.9587	4711.275
211.24758	5471.475
215.53334	6200.075
219.81599	6957.175
224.09553	7798.475
228.37195	8729.075
232.64527	9795.475
236.91549	10884.875
241.18261	12034.875
245.44663	13116.575
249.70755	14097.275
253.96539	14970.075
258.22014	15690.775
262.4718	16239.575
266.72039	16597.475
270.96589	16808.575
275.20832	16814.375
279.44768	16745.575
283.68397	16612.875
287.91719	16541.175
292.14735	16448.675
296.37445	16397.675
300.59849	16327.675
304.81948	16308.475
309.03742	16238.875
313.25231	16075.175
317.46415	15884.175
321.67296	15604.175
325.87872	15328.675
330.08145	15232.975
334.28114	15222.575
338.47781	15330.275
342.67145	15523.675
346.86207	15686.975
351.04966	15895.875
355.23424	16076.975
359.4158	16255.275
363.59435	16350.175
367.76989	16490.975
371.94243	16553.475
376.11196	16635.875
380.27849	16682.575
384.44203	16739.775
388.60257	16843.075
392.76012	16980.175
396.91468	17236.275
401.06626	17455.975
405.21485	17671.375
409.36047	17684.575
413.50311	17544.975
417.64277	17430.775
421.77947	17413.475
425.9132	17486.775
430.04396	17567.375
434.17176	17641.575
438.2966	17714.175
442.41849	17848.975
446.53742	18028.175
450.6534	18245.675
454.76644	18442.775
458.87653	18551.175
462.98368	18601.975
467.08789	18604.275
471.18916	18499.075
475.2875	18417.675
479.38291	18297.375
483.4754	18217.375
487.56496	18136.275
491.6516	18055.475
495.73531	17966.275
499.81612	17949.475
503.89401	18026.675
507.96899	18111.675
512.04106	18164.675
516.11023	18102.575
520.1765	18115.175
524.23987	18010.375
528.30034	17903.975
532.35792	17834.175
536.41261	17689.075
540.46441	17613.675
544.51333	17626.675
548.55936	17769.375
552.60252	18035.975
556.64279	18258.075
560.6802	18377.175
564.71473	18401.875
568.7464	18557.575
572.7752	18806.175
576.80114	19112.475
580.82422	19525.675
584.84444	19888.575
588.86181	19991.575
592.87633	19882.875
596.888	19743.975
600.89682	19710.475
604.9028	20000.775
608.90594	20819.375
612.90624	21698.675
616.90371	20893.475
620.89834	18905.075
624.89015	18048.075
628.87913	17956.875
632.86528	18055.075
636.84862	18185.075
640.82913	18100.775
644.80683	17870.675
648.78172	17670.375
652.75379	17609.075
656.72306	17665.475
660.68952	17825.175
664.65319	17889.375
668.61405	17784.275
672.57211	17702.575
676.52738	17761.075
680.47986	17736.175
684.42955	17696.975
688.37646	17659.975
692.32058	17700.675
696.26192	17833.075
700.20048	17989.275
704.13626	18116.375
708.06928	18198.175
711.99952	18138.875
715.927	18065.675
719.85171	18063.075
723.77365	17990.675
727.69284	17849.975
731.60928	17707.175
735.52295	17628.975
739.43388	17596.075
743.34206	17637.075
747.24749	17682.775
751.15017	17795.475
755.05012	17934.175
758.94733	18228.775
762.8418	18822.875
766.73354	19721.275
770.62254	20581.075
774.50882	20673.475
778.39237	20012.775
782.27321	19189.875
786.15132	18455.675
790.02671	17984.375
793.89938	17682.475
797.76935	17590.675
801.6366	17505.375
805.50115	17481.975
809.36299	17428.075
813.22213	17378.975
817.07857	17350.875
820.93231	17357.975
824.78336	17367.175
828.63172	17390.175
832.47738	17369.575
836.32036	17360.475
840.16066	17355.275
843.99827	17338.975
847.8332	17295.375
851.66546	17314.975
855.49504	17296.975
859.32195	17312.675
863.1462	17298.875
866.96777	17336.175
870.78668	17270.475
874.60293	17306.075
878.41652	17354.375
882.22745	17395.375
886.03573	17393.775
889.84136	17422.475
893.64433	17437.175
897.44466	17373.875
901.24235	17333.175
905.0374	17317.075
908.8298	17312.775
912.61957	17338.575
916.40671	17491.275
920.19121	17572.375
923.97308	17607.275
927.75233	17619.075
931.52895	17507.375
935.30295	17367.775
939.07433	17215.975
942.84309	17066.275
946.60924	16955.375
950.37278	16923.475
954.13371	16895.075
957.89203	16845.075
961.64774	16832.775
965.40086	16784.475
969.15137	16783.575
972.89929	16732.575
976.64461	16721.075
980.38733	16668.575
984.12747	16721.375
987.86502	16726.775
991.59999	16748.175
995.33237	16817.775
999.06217	16941.375
1002.78939	17085.075
1006.51404	17221.675
1010.23611	17411.175
1013.95561	17581.675
1017.67255	17587.275
1021.38692	17492.675
1025.09872	17399.175
1028.80796	17276.775
1032.51465	17196.675
1036.21877	17236.575
1039.92035	17308.875
1043.61937	17343.775
1047.31584	17433.075
1051.00976	17541.475
1054.70114	17663.275
1058.38998	17821.175
1062.07627	18043.575
1065.76003	18368.675
1069.44126	18679.775
1073.11995	18938.675
1076.79611	19129.275
1080.46974	19091.975
1084.14085	18951.975
1087.80943	18813.275
1091.47549	18793.675
1095.13903	18791.475
1098.80005	18668.075
1102.45857	18428.775
1106.11456	18133.275
1109.76805	17916.175
1113.41903	17811.375
1117.06751	17790.575
1120.71348	17896.075
1124.35696	18083.075
1127.99793	18221.475
1131.63641	18283.375
1135.2724	18234.175
1138.90589	18139.175
1142.5369	18115.375
1146.16542	18108.875
1149.79145	18147.075
1153.415	18215.175
1157.03607	18306.575
1160.65467	18525.075
1164.27079	18839.175
1167.88443	19321.375
1171.49561	19937.175
1175.10432	20722.375
1178.71056	21629.575
1182.31434	22540.575
1185.91565	23158.675
1189.51451	23424.475
1193.11091	23348.275
1196.70485	22908.775
1200.29634	22246.675
1203.88538	21644.375
1207.47197	21132.175
1211.05612	20694.775
1214.63782	20358.875
1218.21708	20038.575
1221.79391	19763.975
1225.36829	19531.175
1228.94024	19418.275
1232.50976	19399.775
1236.07685	19400.675
1239.6415	19435.475
1243.20374	19458.675
1246.76355	19514.375
1250.32093	19700.575
1253.8759	19858.475
1257.42845	20190.175
1260.97859	20538.975
1264.52631	20863.675
1268.07163	21173.875
1271.61453	21458.875
1275.15503	21727.375
1278.69312	21963.875
1282.22882	22205.175
1285.76211	22503.575
1289.29301	22787.775
1292.82151	23196.275
1296.34761	23611.975
1299.87133	24168.175
1303.39266	24759.875
1306.9116	25395.075
1310.42815	26031.075
1313.94233	26347.875
1317.45412	26400.975
1320.96354	26386.975
1324.47058	26381.875
1327.97525	26444.875
1331.47754	26562.575
1334.97747	26751.675
1338.47502	27113.775
1341.97022	27571.375
1345.46305	27961.075
1348.95352	28261.975
1352.44163	28241.375
1355.92738	28080.075
1359.41078	28032.975
1362.89183	28082.275
1366.37053	27528.775
1369.84688	26247.575
1373.32088	24658.375
1376.79254	23413.075
1380.26186	22744.375
1383.72883	22401.075
1387.19347	22155.575
1390.65578	21890.375
1394.11575	21630.275
1397.57339	21415.475
1401.0287	21314.375
1404.48168	21279.575
1407.93234	21251.675
1411.38068	21102.375
1414.82669	20802.075
1418.27039	20352.175
1421.71177	19887.275
1425.15083	19559.975
1428.58758	19372.675
1432.02203	19383.975
1435.45416	19505.275
1438.88399	19686.175
1442.31151	19888.675
1445.73673	20055.275
1449.15965	20198.775
1452.58027	20385.175
1455.9986	20491.375
1459.41463	20699.175
1462.82837	20995.875
1466.23982	21366.975
1469.64898	21691.475
1473.05586	21987.475
1476.46045	22122.975
1479.86276	22251.075
1483.26279	22229.775
1486.66054	22339.375
1490.05602	22502.375
1493.44922	22882.075
1496.84016	23339.175
1500.22882	24069.375
1503.61521	24954.475
1506.99934	25763.975
1510.38121	26280.875
1513.76081	26167.075
1517.13816	25626.175
1520.51324	24867.275
1523.88607	24253.075
1527.25665	23808.275
1530.62498	23547.775
1533.99105	23325.175
1537.35488	23067.275
1540.71647	22710.875
1544.07581	22307.175
1547.4329	21946.675
1550.78776	21602.675
1554.14038	21394.475
1557.49077	21378.175
1560.83892	21440.875
1564.18484	21556.775
1567.52853	21737.175
1570.86999	21939.375
1574.20922	22194.375
1577.54624	22424.175
1580.88103	22458.075
1584.2136	22320.775
1587.54395	22146.975
1590.87208	22052.175
1594.19801	22218.175
1597.52172	22661.675
1600.84321	22813.875
1604.16251	22406.475
1607.47959	21728.375
1610.79447	20995.875
1614.10715	20173.875
1617.41763	19355.775
1620.7259	18680.575
1624.03199	18258.775
1627.33587	18125.375
1630.63757	18211.075
1633.93707	18548.175
1637.23439	19323.275
1640.52951	20468.375
1643.82246	21898.975
1647.11321	23279.075
1650.40179	24028.375
1653.68819	23655.375
1656.97241	22270.875
1660.25446	20502.275
1663.53433	18979.275
1666.81203	17759.475
1670.08756	17035.675
1673.36092	16499.575
1676.63211	16143.575
1679.90115	15911.675
1683.16801	15724.475
1686.43272	15599.575
1689.69527	15491.475
1692.95567	15460.975
1696.2139	15403.275
1699.46999	15355.375
1702.72392	15331.075
1705.97571	15297.775
1709.22535	15261.775
1712.47284	15226.775
1715.71819	15187.575
1718.96139	15197.475
1722.20246	15144.175
1725.44139	15085.575
1728.67818	15022.875
1731.91284	14966.175
1735.14537	14912.375
1738.37576	14831.975
1741.60403	14813.475
1744.83017	14799.275
1748.05418	14774.775
1751.27607	14748.875
1754.49584	14728.675
1757.71349	14697.875
1760.92903	14691.975
1764.14244	14705.175
1767.35375	14675.275
1770.56294	14649.475
1773.77002	14666.375
1776.97499	14622.475
1780.17785	14589.775
1783.37861	14565.175
1786.57727	14531.475
1789.77382	14496.075
1792.96828	14477.975
1796.16064	14459.175
1799.3509	14389.275
1802.53907	14369.975
1805.72514	14344.075
1808.90913	14292.775
1812.09102	14294.975
1815.27083	14260.775
1818.44856	14274.675
1821.6242	14199.075
1824.79776	14204.675
1827.96924	14218.675
1831.13864	14206.975
1834.30597	14225.675
1837.47122	14210.275
1840.6344	14185.875
1843.7955	14171.975
1846.95454	14147.675
1850.11151	14139.575
1853.26642	14148.375
1856.41926	14123.575
1859.57004	14100.975
1862.71876	14093.875
1865.86542	14100.675
1869.01003	14041.075
1872.15258	14038.475
1875.29308	14019.475
1878.43152	13974.975
1881.56792	13983.075
1884.70227	13953.375
1887.83457	13937.375
1890.96482	13871.575
1894.09304	13878.975
1897.21921	13863.975
1900.34335	13842.975
1903.46544	13802.075
1906.58551	13804.175
1909.70353	13764.175
1912.81953	13767.775
1915.93349	13724.475
1919.04543	13718.175
1922.15534	13692.575
1925.26322	13657.475
1928.36908	13616.275
1931.47292	13608.675
1934.57473	13589.875
1937.67453	13534.275
1940.77232	13514.775
1943.86808	13498.675
1946.96184	13438.775
1950.05358	13418.475
1953.14331	13371.475
1956.23103	13346.675
1959.31675	13328.375
1962.40046	13267.375
1965.48217	13217.675
1968.56188	13188.575
1971.63959	13163.975
1974.7153	13120.575
1977.78901	13091.875
1980.86073	13020.275
1983.93046	12964.875
1986.99819	12947.575
1990.06394	12900.175
1993.1277	12866.475
1996.18947	12804.475
1999.24925	12804.375
2002.30706	12765.875
2005.36288	12704.075
2008.41672	12691.375
2011.46859	12638.075
2014.51848	12607.975
2017.56639	12591.275
2020.61233	12543.075
2023.6563	12498.475
2026.6983	12475.575
2029.73833	12435.875
2032.7764	12414.375
2035.8125	12391.575
2038.84664	12358.375
2041.87881	12331.375
2044.90903	12283.175
2047.93729	12262.575
2050.96359	12251.375
2053.98794	12250.975
2057.01034	12236.675
2060.03078	12229.575
2063.04927	12178.475
2066.06582	12198.875
2069.08042	12193.175
2072.09307	12169.775
2075.10378	12150.075
2078.11255	12135.875
2081.11938	12141.475
2084.12426	12153.075
2087.12722	12154.275
2090.12824	12159.375
2093.12732	12148.275
2096.12447	12165.775
2099.11969	12122.975
2102.11299	12125.575
2105.10435	12114.975
2108.09379	12120.875
2111.08131	12169.175
2114.0669	12177.775
2117.05057	12174.575
2120.03233	12155.275
2123.01216	12161.575
2125.99008	12170.075
2128.96609	12190.475
2131.94018	12242.475
2134.91236	12214.475
2137.88263	12217.275
2140.851	12205.875
2143.81746	12240.475
2146.78201	12223.675
2149.74466	12224.975
2152.7054	12233.175
2155.66425	12236.275
2158.6212	12261.075
2161.57625	12234.175
2164.52941	12237.175
2167.48067	12213.075
2170.43004	12181.675
2173.37752	12219.375
2176.32311	12181.475
2179.26681	12197.275
2182.20863	12190.575
2185.14856	12189.975
2188.08661	12151.475
2191.02278	12166.175
2193.95707	12117.075
2196.88948	12144.475
2199.82001	12114.075
2202.74867	12102.775
2205.67545	12114.575
2208.60037	12097.875
2211.52341	12064.675
2214.44458	12056.775
2217.36388	12017.075
2220.28132	12002.875
2223.1969	11950.175
2226.11061	11954.475
2229.02246	11944.275
2231.93245	11926.875
2234.84058	11866.075
2237.74686	11874.775
2240.65128	11864.175
2243.55385	11834.675
2246.45456	11822.275
2249.35343	11785.775
2252.25044	11784.175
2255.14561	11755.875
2258.03893	11763.875
2260.93041	11748.575
2263.82004	11716.075
2266.70783	11684.375
2269.59378	11638.875
2272.4779	11632.675
2275.36017	11615.575
2278.24061	11586.575
2281.11922	11526.675
2283.996	11520.175
2286.87094	11505.475
2289.74405	11473.875
2292.61534	11451.675
2295.4848	11438.375
2298.35243	11421.975
2301.21824	11426.375
2304.08223	11422.875
2306.94439	11406.175
2309.80474	11385.075
2312.66327	11378.675
2315.51999	11366.675
2318.37489	11354.375
2321.22797	11322.875
2324.07925	11316.475
2326.92871	11303.875
2329.77637	11299.075
2332.62222	11262.075
2335.46626	11253.075
2338.3085	11226.175
2341.14893	11218.475
2343.98756	11194.375
2346.8244	11189.075
2349.65943	11186.775
2352.49267	11192.575
2355.32411	11166.875
2358.15376	11156.775
2360.98161	11158.175
2363.80768	11153.475
2366.63195	11159.475
2369.45444	11125.775
2372.27514	11104.175
2375.09405	11112.375
2377.91118	11079.975
2380.72652	11046.775
2383.54009	11035.975
2386.35187	11033.375
2389.16188	10991.075
2391.97011	10966.775
2394.77657	10981.575
2397.58125	10938.275
2400.38416	10929.475
2403.18529	10906.375
2405.98466	10885.375
2408.78226	10857.575
2411.57809	10860.675
2414.37216	10854.575
2417.16446	10833.975
2419.955	10812.875
2422.74378	10794.175
2425.5308	10776.575
2428.31606	10757.075
2431.09956	10765.075
2433.88131	10768.775
2436.6613	10751.275
2439.43954	10730.975
2442.21603	10704.175
2444.99077	10689.775
2447.76377	10693.775
2450.53501	10674.275
2453.30451	10647.575
2456.07226	10645.075
2458.83827	10622.275
2461.60254	10600.175
2464.36507	10591.375
2467.12586	10592.075
2469.88492	10583.775
2472.64224	10582.575
2475.39782	10584.275
2478.15167	10582.275
2480.90379	10582.975
2483.65417	10585.675
2486.40283	10556.975
2489.14976	10537.975
2491.89497	10546.775
2494.63845	10548.575
2497.3802	10490.775
2500.12024	10527.075
2502.85855	10524.175
2505.59514	10502.375
2508.33002	10492.875
2511.06318	10461.375
2513.79462	10454.175
2516.52435	10453.175
2519.25237	10428.975
2521.97867	10399.075
2524.70327	10409.475
2527.42616	10357.275
2530.14734	10389.875
2532.86681	10338.775
2535.58458	10340.975
2538.30065	10285.675
2541.01501	10287.975
2543.72768	10275.975
2546.43864	10309.075
2549.14791	10267.275
2551.85548	10225.575
2554.56136	10225.775
2557.26554	10212.875
2559.96803	10201.075
2562.66883	10170.075
2565.36794	10172.475
2568.06536	10164.975
2570.7611	10143.175
2573.45514	10112.275
2576.14751	10118.275
2578.83819	10046.575
2581.52719	10061.375
2584.21451	10030.775
2586.90015	10044.775
2589.58411	10027.575
2592.2664	9976.875
2594.94701	9946.675
2597.62594	9959.375
2600.30321	9943.775
2602.9788	9933.075
2605.65273	9904.675
2608.32498	9863.675
2610.99557	9860.975
2613.66449	9854.375
2616.33175	9845.275
2618.99734	9845.775
2621.66128	9839.875
2624.32355	9811.175
2626.98416	9770.375
2629.64311	9777.675
2632.30041	9786.175
2634.95605	9758.175
2637.61004	9753.175
2640.26238	9721.075
2642.91306	9717.575
2645.56209	9706.375
2648.20948	9730.275
2650.85521	9693.175
2653.4993	9694.175
2656.14175	9686.675
2658.78255	9695.575
2661.42171	9686.875
2664.05923	9688.575
2666.6951	9658.775
2669.32934	9675.075
2671.96194	9654.675
2674.59291	9645.975
2677.22224	9672.675
2679.84993	9689.975
2682.476	9669.375
2685.10043	9660.475
2687.72324	9644.875
2690.34441	9662.375
2692.96396	9651.975
2695.58188	9658.475
2698.19818	9655.475
2700.81285	9659.775
2703.4259	9686.875
2706.03733	9715.275
2708.64714	9663.075
2711.25533	9679.475
2713.86191	9668.375
2716.46687	9648.175
2719.07021	9640.875
2721.67194	9659.975
2724.27206	9636.275
2726.87057	9637.875
2729.46747	9617.375
2732.06276	9607.075
2734.65644	9615.675
2737.24852	9639.975
2739.83899	9599.075
2742.42786	9585.975
2745.01513	9559.475
2747.60079	9566.275
2750.18486	9539.875
2752.76733	9560.375
2755.3482	9557.575
2757.92747	9540.975
2760.50515	9504.275
2763.08123	9515.375
2765.65573	9505.075
2768.22863	9458.775
2770.79994	9467.075
2773.36967	9432.775
2775.9378	9455.675
2778.50435	9409.775
2781.06932	9409.675
2783.6327	9387.775
2786.1945	9397.875
2788.75471	9373.375
2791.31335	9331.775
2793.87041	9311.075
2796.42589	9296.075
2798.97979	9286.075
2801.53212	9292.975
2804.08288	9261.175
2806.63206	9250.575
2809.17967	9203.975
2811.72571	9189.575
2814.27018	9178.375
2816.81308	9149.075
2819.35442	9148.675
2821.89419	9136.775
2824.43239	9133.875
2826.96904	9103.875
2829.50412	9111.075
2832.03763	9073.875
2834.56959	9082.475
2837.1	9065.575
2839.62884	9069.375
2842.15613	9071.175
2844.68186	9068.775
2847.20604	9031.675
2849.72867	9043.975
2852.24974	9014.975
2854.76927	9049.675
2857.28724	9034.675
2859.80367	9003.475
2862.31855	8961.875
2864.83189	8957.475
2867.34368	8963.675
2869.85393	8947.175
2872.36264	8944.475
2874.8698	8956.175
2877.37543	8952.075
2879.87952	8939.775
2882.38207	8899.475
2884.88308	8910.875
2887.38256	8924.175
2889.88051	8915.175
2892.37692	8908.075
2894.8718	8900.075
2897.36515	8896.175
2899.85698	8895.175
2902.34727	8887.175
2904.83604	8889.475
2907.32328	8909.875
2909.809	8891.375
2912.29319	8901.575
2914.77587	8886.375
2917.25702	8893.275
2919.73665	8870.275
2922.21476	8871.575
2924.69136	8904.275
2927.16644	8862.375
2929.64	8852.675
2932.11205	8864.075
2934.58258	8839.975
2937.05161	8873.775
2939.51912	8853.875
2941.98513	8844.775
2944.44962	8826.175
2946.91261	8798.075
2949.37409	8820.075
2951.83407	8783.275
2954.29254	8781.975
2956.74951	8760.975
2959.20498	8780.975
2961.65895	8760.475
2964.11142	8767.775
2966.56239	8742.375
2969.01186	8736.975
2971.45984	8709.975
2973.90632	8679.075
2976.35131	8661.975
2978.7948	8651.075
2981.23681	8640.575
2983.67732	8648.675
2986.11635	8648.875
2988.55388	8599.575
2990.98993	8585.775
2993.4245	8566.175
2995.85758	8556.475
2998.28917	8515.475
3000.71928	8526.375
3003.14791	8506.575
3005.57506	8498.875
3008.00073	8480.475
3010.42493	8476.575
3012.84764	8423.975
3015.26888	8436.475
3017.68865	8425.675
3020.10694	8383.275
3022.52376	8383.475
3024.9391	8388.175
3027.35298	8382.075
3029.76539	8354.375
3032.17632	8368.475
3034.5858	8339.875
3036.9938	8345.875
3039.40034	8312.875
3041.80542	8301.875
3044.20903	8300.675
3046.61118	8294.375
3049.01187	8296.775
3051.4111	8259.275
3053.80888	8266.675
3056.20519	8222.675
3058.60005	8239.475
3060.99345	8192.075
3063.3854	8164.675
3065.7759	8167.775
3068.16494	8165.875
3070.55254	8122.775
3072.93868	8127.875
3075.32338	8117.175
3077.70662	8102.375
3080.08842	8061.175
3082.46878	8072.175
3084.84769	8044.075
3087.22515	8040.675
3089.60118	8048.575
3091.97576	8035.775
3094.3489	8028.775
3096.72061	8022.575
3099.09087	8044.275
3101.4597	8033.975
3103.82709	8023.175
3106.19305	8011.675
3108.55757	8008.175
3110.92066	7971.175
3113.28232	7975.475
3115.64255	7954.075
3118.00134	7935.375
3120.35871	7931.675
3122.71466	7924.075
3125.06917	7879.875
3127.42226	7879.775
3129.77393	7898.375
3132.12417	7910.475
3134.47299	7908.275
3136.82039	7915.275
3139.16636	7894.675
3141.51092	7895.175
3143.85406	7902.375
3146.19579	7908.975
3148.53609	7900.675
3150.87499	7925.775
3153.21246	7901.275
3155.54853	7911.475
