Data from AgNP_FTO_APTES_CRN_100uM_R6G_10uM_NaF_0.1M_Addition_RamanShift__26__19-01-48-140.txt Node

Date: Wed Dec 15 19:01:48 GMT 2021
User: TCL
Spectrometer: QEP01345
Trigger mode: 4
Integration Time (sec): 7.000000E0
Scans to average: 10
Electric dark correction enabled: true
Nonlinearity correction enabled: false
Boxcar width: 0
XAxis mode: Raman Shifts
Number of Pixels in Spectrum: 1044
>>>>>Begin Spectral Data<<<<<
46.04893	1.225
50.45542	-0.075
54.85868	-1.075
59.25871	-1.375
63.6555	59.625
68.04907	68.725
72.43941	70.925
76.82654	73.625
81.21044	76.025
85.59113	78.725
89.96862	82.725
94.34289	84.625
98.71396	86.125
103.08183	90.725
107.4465	93.825
111.80798	94.425
116.16626	96.225
120.52136	100.825
124.87327	102.425
129.222	104.725
133.56755	111.525
137.90993	118.125
142.24913	126.125
146.58517	139.625
150.91804	163.925
155.24774	191.825
159.57429	237.925
163.89768	297.925
168.21792	388.125
172.53501	529.425
176.84895	731.125
181.15975	1022.225
185.46741	1428.025
189.77193	1982.125
194.07331	2642.925
198.37157	3412.125
202.6667	4213.925
206.9587	5003.525
211.24758	5781.825
215.53334	6569.025
219.81599	7392.025
224.09553	8297.525
228.37195	9287.725
232.64527	10389.425
236.91549	11520.425
241.18261	12715.825
245.44663	13850.025
249.70755	14852.325
253.96539	15757.425
258.22014	16525.325
262.4718	17157.525
266.72039	17613.925
270.96589	17879.925
275.20832	17940.225
279.44768	17838.825
283.68397	17643.725
287.91719	17489.325
292.14735	17397.325
296.37445	17371.425
300.59849	17402.825
304.81948	17424.825
309.03742	17340.725
313.25231	17174.025
317.46415	16819.125
321.67296	16427.725
325.87872	16102.325
330.08145	15988.025
334.28114	16035.225
338.47781	16185.525
342.67145	16348.825
346.86207	16622.925
351.04966	16944.525
355.23424	17325.325
359.4158	17572.825
363.59435	17801.225
367.76989	17931.125
371.94243	18070.625
376.11196	18203.425
380.27849	18256.625
384.44203	18392.825
388.60257	18534.825
392.76012	18632.625
396.91468	18832.825
401.06626	19069.725
405.21485	19245.625
409.36047	19238.925
413.50311	18985.225
417.64277	18766.325
421.77947	18702.225
425.9132	18760.325
430.04396	18876.225
434.17176	19029.825
438.2966	19272.525
442.41849	19604.425
446.53742	20076.325
450.6534	20574.225
454.76644	20947.125
458.87653	21107.325
462.98368	21040.825
467.08789	20853.125
471.18916	20624.825
475.2875	20470.925
479.38291	20395.725
483.4754	20298.925
487.56496	20086.325
491.6516	19810.725
495.73531	19550.125
499.81612	19424.725
503.89401	19478.025
507.96899	19525.525
512.04106	19592.125
516.11023	19575.225
520.1765	19612.925
524.23987	19654.125
528.30034	19571.025
532.35792	19459.825
536.41261	19305.825
540.46441	19111.925
544.51333	19063.325
548.55936	19210.125
552.60252	19499.925
556.64279	19830.025
560.6802	20065.225
564.71473	20189.525
568.7464	20352.625
572.7752	20575.225
576.80114	20647.225
580.82422	20692.225
584.84444	20822.125
588.86181	21174.825
592.87633	21734.125
596.888	22114.525
600.89682	22214.725
604.9028	22546.825
608.90594	23811.325
612.90624	25401.425
616.90371	24274.325
620.89834	21140.225
624.89015	19772.625
628.87913	19627.625
632.86528	19664.625
636.84862	19719.425
640.82913	19541.825
644.80683	19176.825
648.78172	18906.925
652.75379	18817.725
656.72306	18967.525
660.68952	19187.625
664.65319	19160.425
668.61405	18939.625
672.57211	18835.925
676.52738	18839.825
680.47986	18877.325
684.42955	18866.125
688.37646	18835.325
692.32058	18874.525
696.26192	19000.825
700.20048	19158.025
704.13626	19228.125
708.06928	19232.425
711.99952	19139.625
715.927	19074.225
719.85171	19080.425
723.77365	19040.625
727.69284	18956.725
731.60928	18842.325
735.52295	18838.025
739.43388	18832.925
743.34206	18864.025
747.24749	18917.925
751.15017	18996.925
755.05012	19194.425
758.94733	19586.225
762.8418	20312.925
766.73354	21494.925
770.62254	22661.325
774.50882	23043.825
778.39237	22226.025
782.27321	20840.425
786.15132	19702.025
790.02671	19051.325
793.89938	18752.625
797.76935	18642.025
801.6366	18606.125
805.50115	18604.425
809.36299	18556.125
813.22213	18501.325
817.07857	18549.725
820.93231	18507.925
824.78336	18472.325
828.63172	18481.325
832.47738	18497.525
836.32036	18521.025
840.16066	18540.225
843.99827	18524.725
847.8332	18495.525
851.66546	18418.725
855.49504	18413.425
859.32195	18426.525
863.1462	18398.725
866.96777	18396.425
870.78668	18338.425
874.60293	18325.925
878.41652	18343.525
882.22745	18335.025
886.03573	18392.325
889.84136	18370.925
893.64433	18343.725
897.44466	18247.625
901.24235	18190.925
905.0374	18179.625
908.8298	18187.825
912.61957	18163.925
916.40671	18296.825
920.19121	18416.125
923.97308	18520.725
927.75233	18536.725
931.52895	18547.425
935.30295	18424.125
939.07433	18177.525
942.84309	17970.225
946.60924	17859.125
950.37278	17828.525
954.13371	17735.725
957.89203	17703.825
961.64774	17677.325
965.40086	17659.525
969.15137	17557.725
972.89929	17510.025
976.64461	17453.025
980.38733	17444.025
984.12747	17508.025
987.86502	17622.125
991.59999	17760.725
995.33237	17936.725
999.06217	18292.025
1002.78939	18656.425
1006.51404	18869.125
1010.23611	19010.825
1013.95561	19135.425
1017.67255	19101.325
1021.38692	18957.725
1025.09872	18785.725
1028.80796	18819.225
1032.51465	19043.325
1036.21877	19271.925
1039.92035	19322.725
1043.61937	19246.325
1047.31584	19078.625
1051.00976	18856.225
1054.70114	18807.425
1058.38998	18910.425
1062.07627	19087.425
1065.76003	19358.125
1069.44126	19727.925
1073.11995	20122.925
1076.79611	20435.725
1080.46974	20464.325
1084.14085	20261.725
1087.80943	20048.125
1091.47549	19862.025
1095.13903	19603.825
1098.80005	19371.025
1102.45857	19043.025
1106.11456	18813.725
1109.76805	18795.725
1113.41903	18898.925
1117.06751	19026.025
1120.71348	19255.325
1124.35696	19433.025
1127.99793	19615.425
1131.63641	19741.525
1135.2724	19546.125
1138.90589	19317.925
1142.5369	19253.125
1146.16542	19198.925
1149.79145	19223.225
1153.415	19298.825
1157.03607	19431.225
1160.65467	19741.625
1164.27079	20293.925
1167.88443	21039.325
1171.49561	22085.825
1175.10432	23548.125
1178.71056	25236.225
1182.31434	26661.325
1185.91565	27227.625
1189.51451	26870.425
1193.11091	26022.525
1196.70485	25043.325
1200.29634	24158.325
1203.88538	23510.825
1207.47197	23053.425
1211.05612	22632.825
1214.63782	22373.425
1218.21708	22202.525
1221.79391	22093.825
1225.36829	21979.425
1228.94024	21804.225
1232.50976	21561.725
1236.07685	21347.625
1239.6415	21274.125
1243.20374	21255.025
1246.76355	21457.225
1250.32093	21640.825
1253.8759	21969.425
1257.42845	22379.325
1260.97859	22807.325
1264.52631	23110.225
1268.07163	23575.625
1271.61453	23951.925
1275.15503	24437.925
1278.69312	24941.225
1282.22882	25356.025
1285.76211	25888.525
1289.29301	26570.125
1292.82151	27448.125
1296.34761	28479.025
1299.87133	29797.825
1303.39266	31123.225
1306.9116	32816.425
1310.42815	34403.225
1313.94233	35587.325
1317.45412	35687.825
1320.96354	35152.125
1324.47058	34350.725
1327.97525	33517.725
1331.47754	32930.325
1334.97747	32687.125
1338.47502	32709.325
1341.97022	32687.425
1345.46305	32401.425
1348.95352	32056.125
1352.44163	32085.125
1355.92738	32749.525
1359.41078	34169.225
1362.89183	35695.625
1366.37053	35401.725
1369.84688	32924.425
1373.32088	29811.425
1376.79254	27670.625
1380.26186	26711.925
1383.72883	26462.525
1387.19347	26351.025
1390.65578	26154.925
1394.11575	26183.925
1397.57339	26467.425
1401.0287	27041.025
1404.48168	27534.425
1407.93234	27741.925
1411.38068	27605.225
1414.82669	26950.725
1418.27039	26006.525
1421.71177	25024.025
1425.15083	24131.925
1428.58758	23640.525
1432.02203	23579.825
1435.45416	23851.125
1438.88399	24327.425
1442.31151	24667.025
1445.73673	24986.225
1449.15965	25353.225
1452.58027	25569.725
1455.9986	25744.825
1459.41463	25841.725
1462.82837	26153.225
1466.23982	26630.825
1469.64898	27066.925
1473.05586	27297.125
1476.46045	27317.825
1479.86276	27274.025
1483.26279	27184.825
1486.66054	27048.825
1490.05602	27042.025
1493.44922	27168.125
1496.84016	27214.225
1500.22882	27444.225
1503.61521	27996.025
1506.99934	28861.625
1510.38121	29722.025
1513.76081	30094.225
1517.13816	29495.025
1520.51324	28401.225
1523.88607	27236.025
1527.25665	26515.425
1530.62498	26173.525
1533.99105	26122.725
1537.35488	26104.525
1540.71647	25945.225
1544.07581	25681.425
1547.4329	25346.925
1550.78776	25078.425
1554.14038	24829.125
1557.49077	24738.625
1560.83892	24693.725
1564.18484	24800.925
1567.52853	24994.325
1570.86999	25416.725
1574.20922	26050.625
1577.54624	26688.925
1580.88103	26988.925
1584.2136	26976.925
1587.54395	26950.525
1590.87208	27295.325
1594.19801	28197.225
1597.52172	29358.025
1600.84321	29872.025
1604.16251	29017.625
1607.47959	27245.725
1610.79447	25281.125
1614.10715	23445.425
1617.41763	22025.625
1620.7259	21064.625
1624.03199	20624.525
1627.33587	20633.225
1630.63757	20982.925
1633.93707	21852.925
1637.23439	23251.125
1640.52951	25236.625
1643.82246	27581.225
1647.11321	29544.025
1650.40179	30135.225
1653.68819	28800.325
1656.97241	25922.525
1660.25446	23050.125
1663.53433	20823.625
1666.81203	19378.025
1670.08756	18461.525
1673.36092	17881.825
1676.63211	17470.925
1679.90115	17190.925
1683.16801	16954.025
1686.43272	16833.725
1689.69527	16717.425
1692.95567	16612.125
1696.2139	16576.325
1699.46999	16562.325
1702.72392	16523.925
1705.97571	16499.825
1709.22535	16439.425
1712.47284	16427.125
1715.71819	16399.725
1718.96139	16376.925
1722.20246	16307.925
1725.44139	16282.825
1728.67818	16242.825
1731.91284	16155.825
1735.14537	16080.225
1738.37576	16011.025
1741.60403	15989.925
1744.83017	15968.525
1748.05418	15945.325
1751.27607	15928.925
1754.49584	15900.825
1757.71349	15893.225
1760.92903	15861.725
1764.14244	15892.525
1767.35375	15874.125
1770.56294	15841.725
1773.77002	15836.525
1776.97499	15795.225
1780.17785	15758.625
1783.37861	15766.325
1786.57727	15725.425
1789.77382	15696.425
1792.96828	15682.625
1796.16064	15688.425
1799.3509	15641.025
1802.53907	15631.125
1805.72514	15600.225
1808.90913	15568.125
1812.09102	15518.825
1815.27083	15505.925
1818.44856	15477.425
1821.6242	15424.725
1824.79776	15432.925
1827.96924	15417.825
1831.13864	15401.925
1834.30597	15440.725
1837.47122	15389.925
1840.6344	15373.525
1843.7955	15380.525
1846.95454	15360.025
1850.11151	15346.625
1853.26642	15383.325
1856.41926	15380.725
1859.57004	15363.725
1862.71876	15376.225
1865.86542	15363.925
1869.01003	15334.925
1872.15258	15331.625
1875.29308	15311.225
1878.43152	15265.525
1881.56792	15288.925
1884.70227	15260.525
1887.83457	15232.025
1890.96482	15247.025
1894.09304	15255.925
1897.21921	15251.625
1900.34335	15264.425
1903.46544	15240.225
1906.58551	15235.125
1909.70353	15230.025
1912.81953	15215.925
1915.93349	15184.825
1919.04543	15157.725
1922.15534	15116.925
1925.26322	15072.125
1928.36908	15058.825
1931.47292	15056.025
1934.57473	15005.925
1937.67453	14957.125
1940.77232	14920.225
1943.86808	14937.925
1946.96184	14858.425
1950.05358	14856.925
1953.14331	14801.425
1956.23103	14761.525
1959.31675	14742.525
1962.40046	14657.925
1965.48217	14648.125
1968.56188	14612.225
1971.63959	14551.625
1974.7153	14492.125
1977.78901	14462.325
1980.86073	14406.525
1983.93046	14359.325
1986.99819	14331.325
1990.06394	14281.125
1993.1277	14259.125
1996.18947	14208.825
1999.24925	14151.325
2002.30706	14152.825
2005.36288	14094.425
2008.41672	14083.625
2011.46859	14019.025
2014.51848	13991.925
2017.56639	13966.925
2020.61233	13930.025
2023.6563	13946.825
2026.6983	13897.325
2029.73833	13882.925
2032.7764	13851.125
2035.8125	13807.325
2038.84664	13763.125
2041.87881	13775.725
2044.90903	13741.625
2047.93729	13714.625
2050.96359	13693.125
2053.98794	13698.925
2057.01034	13686.825
2060.03078	13676.925
2063.04927	13646.725
2066.06582	13639.925
2069.08042	13627.825
2072.09307	13648.525
2075.10378	13634.725
2078.11255	13593.725
2081.11938	13621.825
2084.12426	13602.325
2087.12722	13582.325
2090.12824	13601.725
2093.12732	13606.825
2096.12447	13586.425
2099.11969	13570.825
2102.11299	13561.325
2105.10435	13622.525
2108.09379	13635.625
2111.08131	13633.625
2114.0669	13634.225
2117.05057	13622.125
2120.03233	13637.125
2123.01216	13647.725
2125.99008	13653.225
2128.96609	13673.125
2131.94018	13682.725
2134.91236	13677.825
2137.88263	13694.625
2140.851	13716.825
2143.81746	13719.225
2146.78201	13707.625
2149.74466	13749.425
2152.7054	13754.625
2155.66425	13722.025
2158.6212	13744.125
2161.57625	13751.525
2164.52941	13734.325
2167.48067	13754.525
2170.43004	13751.025
2173.37752	13718.125
2176.32311	13748.625
2179.26681	13725.825
2182.20863	13733.825
2185.14856	13750.425
2188.08661	13715.625
2191.02278	13729.025
2193.95707	13723.225
2196.88948	13722.725
2199.82001	13713.525
2202.74867	13678.625
2205.67545	13665.525
2208.60037	13672.625
2211.52341	13660.825
2214.44458	13637.825
2217.36388	13605.725
2220.28132	13572.125
2223.1969	13563.625
2226.11061	13548.525
2229.02246	13543.125
2231.93245	13541.925
2234.84058	13491.525
2237.74686	13479.825
2240.65128	13482.625
2243.55385	13445.425
2246.45456	13406.225
2249.35343	13392.625
2252.25044	13387.725
2255.14561	13369.625
2258.03893	13346.925
2260.93041	13361.225
2263.82004	13305.625
2266.70783	13265.925
2269.59378	13234.825
2272.4779	13228.025
2275.36017	13189.525
2278.24061	13152.025
2281.11922	13109.025
2283.996	13099.925
2286.87094	13097.525
2289.74405	13056.125
2292.61534	13061.025
2295.4848	13034.425
2298.35243	13068.225
2301.21824	13054.525
2304.08223	13032.825
2306.94439	13002.125
2309.80474	13033.725
2312.66327	13030.925
2315.51999	12999.725
2318.37489	13007.825
2321.22797	12991.225
2324.07925	12969.325
2326.92871	12968.725
2329.77637	13004.025
2332.62222	12952.025
2335.46626	12947.125
2338.3085	12924.025
2341.14893	12929.425
2343.98756	12915.925
2346.8244	12897.325
2349.65943	12896.625
2352.49267	12928.325
2355.32411	12913.725
2358.15376	12917.525
2360.98161	12879.625
2363.80768	12857.025
2366.63195	12849.125
2369.45444	12843.025
2372.27514	12833.225
2375.09405	12805.925
2377.91118	12809.625
2380.72652	12757.525
2383.54009	12746.425
2386.35187	12709.025
2389.16188	12700.225
2391.97011	12681.025
2394.77657	12670.525
2397.58125	12615.225
2400.38416	12620.325
2403.18529	12586.325
2405.98466	12567.325
2408.78226	12566.825
2411.57809	12539.525
2414.37216	12504.525
2417.16446	12505.725
2419.955	12481.025
2422.74378	12485.725
2425.5308	12448.825
2428.31606	12429.925
2431.09956	12452.725
2433.88131	12407.825
2436.6613	12419.025
2439.43954	12423.625
2442.21603	12389.825
2444.99077	12387.225
2447.76377	12383.225
2450.53501	12385.225
2453.30451	12364.125
2456.07226	12356.425
2458.83827	12340.225
2461.60254	12343.025
2464.36507	12332.025
2467.12586	12320.225
2469.88492	12335.425
2472.64224	12345.025
2475.39782	12339.325
2478.15167	12319.525
2480.90379	12336.025
2483.65417	12326.225
2486.40283	12336.325
2489.14976	12351.625
2491.89497	12336.825
2494.63845	12368.825
2497.3802	12340.325
2500.12024	12341.825
2502.85855	12323.825
2505.59514	12320.025
2508.33002	12302.125
2511.06318	12273.925
2513.79462	12260.725
2516.52435	12257.825
2519.25237	12243.425
2521.97867	12249.125
2524.70327	12239.225
2527.42616	12185.925
2530.14734	12189.725
2532.86681	12169.125
2535.58458	12165.025
2538.30065	12149.625
2541.01501	12116.825
2543.72768	12144.925
2546.43864	12135.725
2549.14791	12111.425
2551.85548	12069.425
2554.56136	12084.725
2557.26554	12070.325
2559.96803	12032.225
2562.66883	12048.925
2565.36794	12026.125
2568.06536	12034.325
2570.7611	12020.925
2573.45514	12020.125
2576.14751	11993.025
2578.83819	11980.725
2581.52719	11975.525
2584.21451	11964.225
2586.90015	11942.425
2589.58411	11925.725
2592.2664	11916.225
2594.94701	11880.125
2597.62594	11885.325
2600.30321	11852.425
2602.9788	11851.125
2605.65273	11866.125
2608.32498	11839.125
2610.99557	11832.525
2613.66449	11818.525
2616.33175	11816.025
2618.99734	11829.525
2621.66128	11810.225
2624.32355	11805.025
2626.98416	11809.925
2629.64311	11792.125
2632.30041	11791.025
2634.95605	11758.125
2637.61004	11787.325
2640.26238	11745.925
2642.91306	11752.425
2645.56209	11759.025
2648.20948	11735.325
2650.85521	11736.425
2653.4993	11717.325
2656.14175	11716.725
2658.78255	11720.725
2661.42171	11720.125
2664.05923	11748.725
2666.6951	11732.325
2669.32934	11737.625
2671.96194	11728.325
2674.59291	11718.325
2677.22224	11726.825
2679.84993	11724.325
2682.476	11725.725
2685.10043	11714.125
2687.72324	11719.225
2690.34441	11725.225
2692.96396	11717.425
2695.58188	11730.425
2698.19818	11724.525
2700.81285	11723.825
2703.4259	11725.825
2706.03733	11759.625
2708.64714	11737.025
2711.25533	11761.525
2713.86191	11736.225
2716.46687	11766.225
2719.07021	11747.925
2721.67194	11730.025
2724.27206	11723.325
2726.87057	11752.625
2729.46747	11753.625
2732.06276	11749.125
2734.65644	11735.125
2737.24852	11733.325
2739.83899	11727.925
2742.42786	11735.325
2745.01513	11720.725
2747.60079	11744.625
2750.18486	11687.225
2752.76733	11716.825
2755.3482	11716.425
2757.92747	11689.325
2760.50515	11697.625
2763.08123	11699.925
2765.65573	11671.125
2768.22863	11634.625
2770.79994	11647.125
2773.36967	11641.525
2775.9378	11625.425
2778.50435	11606.725
2781.06932	11599.425
2783.6327	11651.625
2786.1945	11558.925
2788.75471	11581.825
2791.31335	11560.925
2793.87041	11557.125
2796.42589	11542.025
2798.97979	11525.125
2801.53212	11493.725
2804.08288	11487.725
2806.63206	11439.025
2809.17967	11417.025
2811.72571	11393.925
2814.27018	11417.725
2816.81308	11396.525
2819.35442	11387.125
2821.89419	11373.225
2824.43239	11356.125
2826.96904	11342.625
2829.50412	11350.925
2832.03763	11320.125
2834.56959	11290.025
2837.1	11269.325
2839.62884	11299.025
2842.15613	11294.725
2844.68186	11327.725
2847.20604	11312.525
2849.72867	11295.725
2852.24974	11287.125
2854.76927	11277.425
2857.28724	11280.525
2859.80367	11239.725
2862.31855	11255.125
2864.83189	11237.925
2867.34368	11213.225
2869.85393	11202.325
2872.36264	11190.525
2874.8698	11212.225
2877.37543	11219.125
2879.87952	11211.625
2882.38207	11220.325
2884.88308	11220.725
2887.38256	11241.025
2889.88051	11240.025
2892.37692	11219.125
2894.8718	11197.025
2897.36515	11223.425
2899.85698	11206.225
2902.34727	11231.925
2904.83604	11235.125
2907.32328	11238.025
2909.809	11232.625
2912.29319	11273.125
2914.77587	11287.725
2917.25702	11243.125
2919.73665	11220.825
2922.21476	11248.025
2924.69136	11248.025
2927.16644	11244.525
2929.64	11213.025
2932.11205	11238.225
2934.58258	11183.025
2937.05161	11230.425
2939.51912	11205.825
2941.98513	11183.325
2944.44962	11142.425
2946.91261	11121.825
2949.37409	11127.825
2951.83407	11136.925
2954.29254	11108.025
2956.74951	11088.625
2959.20498	11126.025
2961.65895	11097.725
2964.11142	11103.625
2966.56239	11063.125
2969.01186	11042.025
2971.45984	11020.725
2973.90632	10994.925
2976.35131	10954.025
2978.7948	10915.625
2981.23681	10916.425
2983.67732	10909.025
2986.11635	10883.725
2988.55388	10865.225
2990.98993	10831.725
2993.4245	10825.725
2995.85758	10801.125
2998.28917	10774.025
3000.71928	10759.525
3003.14791	10738.925
3005.57506	10742.725
3008.00073	10730.825
3010.42493	10730.425
3012.84764	10682.425
3015.26888	10669.325
3017.68865	10616.025
3020.10694	10641.025
3022.52376	10615.425
3024.9391	10610.125
3027.35298	10599.825
3029.76539	10609.125
3032.17632	10584.425
3034.5858	10567.825
3036.9938	10548.925
3039.40034	10560.825
3041.80542	10547.625
3044.20903	10494.825
3046.61118	10544.025
3049.01187	10523.325
3051.4111	10478.025
3053.80888	10445.925
3056.20519	10453.325
3058.60005	10424.425
3060.99345	10396.825
3063.3854	10386.525
3065.7759	10367.425
3068.16494	10328.025
3070.55254	10302.525
3072.93868	10280.525
3075.32338	10276.925
3077.70662	10244.025
3080.08842	10218.425
3082.46878	10215.725
3084.84769	10198.925
3087.22515	10202.225
3089.60118	10198.725
3091.97576	10208.025
3094.3489	10187.325
3096.72061	10192.425
3099.09087	10189.725
3101.4597	10193.025
3103.82709	10174.425
3106.19305	10130.525
3108.55757	10166.525
3110.92066	10133.525
3113.28232	10105.025
3115.64255	10070.725
3118.00134	10080.025
3120.35871	10072.525
3122.71466	10076.425
3125.06917	10030.025
3127.42226	10020.325
3129.77393	10034.825
