Data from AgNP_FTO_APTES_UA_10uM_CRN_1uM_R6G_10uM_NaF_0.1M_Addition_RamanShift__29__13-26-30-534.txt Node

Date: Thu Feb 10 13:26:30 GMT 2022
User: TCL
Spectrometer: QEP01345
Trigger mode: 4
Integration Time (sec): 7.000000E0
Scans to average: 10
Electric dark correction enabled: true
Nonlinearity correction enabled: false
Boxcar width: 0
XAxis mode: Raman Shifts
Number of Pixels in Spectrum: 1044
>>>>>Begin Spectral Data<<<<<
46.04893	0.425
50.45542	-1.075
54.85868	-1.775
59.25871	-0.175
63.6555	52.525
68.04907	56.125
72.43941	60.125
76.82654	58.225
81.21044	63.525
85.59113	63.825
89.96862	66.925
94.34289	73.125
98.71396	72.625
103.08183	75.125
107.4465	77.625
111.80798	78.225
116.16626	82.925
120.52136	84.925
124.87327	86.125
129.222	89.525
133.56755	96.025
137.90993	100.225
142.24913	106.125
146.58517	115.025
150.91804	133.625
155.24774	159.325
159.57429	190.325
163.89768	242.425
168.21792	316.525
172.53501	424.525
176.84895	591.125
181.15975	812.925
185.46741	1141.725
189.77193	1569.425
194.07331	2093.725
198.37157	2694.325
202.6667	3337.625
206.9587	3966.625
211.24758	4607.625
215.53334	5260.925
219.81599	6001.825
224.09553	6830.225
228.37195	7742.525
232.64527	8735.125
236.91549	9736.625
241.18261	10633.025
245.44663	11424.425
249.70755	12042.925
253.96539	12610.425
258.22014	13100.725
262.4718	13514.525
266.72039	13885.825
270.96589	14092.925
275.20832	14149.725
279.44768	14057.625
283.68397	13962.025
287.91719	13871.325
292.14735	13888.125
296.37445	14093.625
300.59849	14467.625
304.81948	14982.325
309.03742	15299.525
313.25231	15270.025
317.46415	14626.625
321.67296	13601.225
325.87872	12738.825
330.08145	12362.525
334.28114	12350.125
338.47781	12523.025
342.67145	12854.125
346.86207	13401.925
351.04966	14145.725
355.23424	14954.625
359.4158	15623.625
363.59435	15919.625
367.76989	15996.325
371.94243	15910.725
376.11196	15831.125
380.27849	15727.425
384.44203	15567.925
388.60257	15408.625
392.76012	15386.525
396.91468	15574.425
401.06626	16017.325
405.21485	16367.125
409.36047	16153.425
413.50311	15463.425
417.64277	14816.325
421.77947	14490.425
425.9132	14373.925
430.04396	14424.025
434.17176	14488.125
438.2966	14691.825
442.41849	15026.625
446.53742	15528.125
450.6534	16009.025
454.76644	16347.225
458.87653	16368.425
462.98368	16252.825
467.08789	15940.325
471.18916	15551.425
475.2875	15142.425
479.38291	14825.825
483.4754	14638.625
487.56496	14448.825
491.6516	14258.325
495.73531	14185.725
499.81612	14192.025
503.89401	14312.025
507.96899	14479.925
512.04106	14611.625
516.11023	14756.625
520.1765	14810.625
524.23987	14764.825
528.30034	14532.625
532.35792	14256.425
536.41261	13929.725
540.46441	13636.925
544.51333	13519.525
548.55936	13638.725
552.60252	13987.125
556.64279	14351.225
560.6802	14558.725
564.71473	14789.425
568.7464	15383.325
572.7752	15878.325
576.80114	15682.025
580.82422	15365.825
584.84444	15239.825
588.86181	15226.525
592.87633	15281.225
596.888	15493.325
600.89682	15920.225
604.9028	17473.425
608.90594	21524.525
612.90624	26887.925
616.90371	25741.425
620.89834	18545.825
624.89015	15194.725
628.87913	14603.025
632.86528	14644.725
636.84862	14730.625
640.82913	14478.925
644.80683	13856.225
648.78172	13447.625
652.75379	13501.525
656.72306	14067.725
660.68952	14730.625
664.65319	14646.525
668.61405	13999.625
672.57211	13638.525
676.52738	13588.525
680.47986	13605.325
684.42955	13532.225
688.37646	13494.825
692.32058	13595.525
696.26192	13721.925
700.20048	13930.925
704.13626	14077.725
708.06928	14119.625
711.99952	13961.725
715.927	13875.825
719.85171	13864.525
723.77365	13807.925
727.69284	13634.625
731.60928	13510.025
735.52295	13521.725
739.43388	13557.225
743.34206	13683.525
747.24749	13793.125
751.15017	13937.325
755.05012	14258.725
758.94733	14903.925
762.8418	16346.225
766.73354	18740.625
770.62254	21237.425
774.50882	22306.025
778.39237	21243.925
782.27321	18701.225
786.15132	16196.925
790.02671	14741.425
793.89938	14103.325
797.76935	13834.125
801.6366	13725.225
805.50115	13638.525
809.36299	13540.825
813.22213	13471.925
817.07857	13447.325
820.93231	13464.025
824.78336	13499.125
828.63172	13586.625
832.47738	13599.025
836.32036	13590.225
840.16066	13577.125
843.99827	13531.525
847.8332	13474.225
851.66546	13445.025
855.49504	13421.025
859.32195	13424.625
863.1462	13337.125
866.96777	13252.725
870.78668	13242.125
874.60293	13285.025
878.41652	13307.825
882.22745	13393.525
886.03573	13442.625
889.84136	13426.825
893.64433	13335.325
897.44466	13331.325
901.24235	13315.625
905.0374	13305.125
908.8298	13282.825
912.61957	13278.525
916.40671	13369.125
920.19121	13512.525
923.97308	13690.425
927.75233	13833.925
931.52895	13933.725
935.30295	13732.925
939.07433	13350.425
942.84309	13041.425
946.60924	12876.525
950.37278	12796.325
954.13371	12738.725
957.89203	12656.525
961.64774	12618.325
965.40086	12569.025
969.15137	12548.325
972.89929	12504.425
976.64461	12497.925
980.38733	12510.525
984.12747	12541.625
987.86502	12658.625
991.59999	12816.525
995.33237	13019.725
999.06217	13443.525
1002.78939	13951.925
1006.51404	14364.525
1010.23611	14694.825
1013.95561	14912.125
1017.67255	14896.325
1021.38692	14631.425
1025.09872	14385.325
1028.80796	14411.525
1032.51465	14646.725
1036.21877	14948.525
1039.92035	15069.325
1043.61937	14920.325
1047.31584	14685.725
1051.00976	14353.825
1054.70114	14211.525
1058.38998	14176.725
1062.07627	14246.125
1065.76003	14326.525
1069.44126	14448.125
1073.11995	14672.325
1076.79611	14806.825
1080.46974	15006.225
1084.14085	15295.825
1087.80943	15642.625
1091.47549	15788.025
1095.13903	15533.525
1098.80005	15009.725
1102.45857	14561.125
1106.11456	14333.625
1109.76805	14328.125
1113.41903	14577.425
1117.06751	14904.825
1120.71348	15433.525
1124.35696	15971.525
1127.99793	16462.925
1131.63641	16504.725
1135.2724	15930.525
1138.90589	15344.425
1142.5369	14992.325
1146.16542	14761.025
1149.79145	14653.025
1153.415	14692.125
1157.03607	14854.625
1160.65467	15173.625
1164.27079	15687.825
1167.88443	16496.825
1171.49561	17833.425
1175.10432	19877.025
1178.71056	22559.425
1182.31434	24621.525
1185.91565	25387.725
1189.51451	25036.825
1193.11091	23688.025
1196.70485	21982.025
1200.29634	20533.425
1203.88538	19415.925
1207.47197	18330.725
1211.05612	17456.025
1214.63782	16988.525
1218.21708	16886.125
1221.79391	16986.325
1225.36829	17199.825
1228.94024	17347.725
1232.50976	17405.325
1236.07685	17410.725
1239.6415	17368.525
1243.20374	17329.525
1246.76355	17347.125
1250.32093	17509.525
1253.8759	17955.925
1257.42845	18551.825
1260.97859	19144.125
1264.52631	19719.225
1268.07163	20243.525
1271.61453	20771.425
1275.15503	21257.025
1278.69312	21673.225
1282.22882	22019.025
1285.76211	22557.125
1289.29301	23236.925
1292.82151	23855.425
1296.34761	24532.825
1299.87133	25558.325
1303.39266	27323.225
1306.9116	30007.425
1310.42815	33135.425
1313.94233	35226.625
1317.45412	35091.325
1320.96354	33475.525
1324.47058	31450.225
1327.97525	29698.425
1331.47754	28572.325
1334.97747	28151.325
1338.47502	28312.925
1341.97022	28712.125
1345.46305	29171.825
1348.95352	29812.425
1352.44163	30806.925
1355.92738	32790.925
1359.41078	36294.525
1362.89183	39664.525
1366.37053	38701.225
1369.84688	33688.725
1373.32088	28617.025
1376.79254	25342.625
1380.26186	23771.925
1383.72883	22932.025
1387.19347	22307.825
1390.65578	21657.825
1394.11575	21193.325
1397.57339	21123.225
1401.0287	21408.925
1404.48168	21906.725
1407.93234	22411.925
1411.38068	22787.625
1414.82669	22677.025
1418.27039	22113.825
1421.71177	21373.325
1425.15083	20752.925
1428.58758	20421.025
1432.02203	20435.225
1435.45416	20581.925
1438.88399	20664.925
1442.31151	20684.225
1445.73673	20804.725
1449.15965	20936.425
1452.58027	20936.525
1455.9986	20798.525
1459.41463	20818.525
1462.82837	21003.025
1466.23982	21385.125
1469.64898	21786.825
1473.05586	22054.925
1476.46045	22240.525
1479.86276	22518.125
1483.26279	22902.625
1486.66054	23439.525
1490.05602	24047.325
1493.44922	24958.725
1496.84016	26098.625
1500.22882	27822.825
1503.61521	30036.225
1506.99934	32636.225
1510.38121	35207.825
1513.76081	36473.425
1517.13816	35226.225
1520.51324	31942.025
1523.88607	28482.925
1527.25665	26062.225
1530.62498	24565.625
1533.99105	23640.125
1537.35488	23093.625
1540.71647	22730.025
1544.07581	22535.125
1547.4329	22359.325
1550.78776	22116.725
1554.14038	21986.525
1557.49077	22009.125
1560.83892	22271.125
1564.18484	22635.525
1567.52853	23004.325
1570.86999	23235.025
1574.20922	23384.325
1577.54624	23281.825
1580.88103	22497.525
1584.2136	21607.825
1587.54395	21421.025
1590.87208	22252.125
1594.19801	23814.125
1597.52172	25623.725
1600.84321	26399.325
1604.16251	25519.425
1607.47959	23629.725
1610.79447	21545.425
1614.10715	19618.925
1617.41763	18222.025
1620.7259	17324.825
1624.03199	16932.525
1627.33587	17003.525
1630.63757	17498.725
1633.93707	18531.425
1637.23439	20047.525
1640.52951	21937.025
1643.82246	24158.525
1647.11321	26307.725
1650.40179	27568.525
1653.68819	26568.025
1656.97241	23293.225
1660.25446	19699.525
1663.53433	17117.925
1666.81203	15535.525
1670.08756	14574.125
1673.36092	14062.125
1676.63211	13658.125
1679.90115	13416.125
1683.16801	13234.025
1686.43272	13095.625
1689.69527	12985.025
1692.95567	12941.825
1696.2139	12891.225
1699.46999	12879.325
1702.72392	12849.325
1705.97571	12823.525
1709.22535	12791.825
1712.47284	12795.725
1715.71819	12781.925
1718.96139	12783.625
1722.20246	12753.325
1725.44139	12724.925
1728.67818	12624.725
1731.91284	12538.725
1735.14537	12462.025
1738.37576	12371.625
1741.60403	12376.325
1744.83017	12323.525
1748.05418	12277.925
1751.27607	12278.725
1754.49584	12275.525
1757.71349	12245.425
1760.92903	12247.625
1764.14244	12219.425
1767.35375	12228.625
1770.56294	12175.425
1773.77002	12165.225
1776.97499	12130.525
1780.17785	12114.625
1783.37861	12081.125
1786.57727	12058.025
1789.77382	12065.925
1792.96828	12030.325
1796.16064	12022.425
1799.3509	12018.625
1802.53907	12023.125
1805.72514	11979.925
1808.90913	11927.325
1812.09102	11899.825
1815.27083	11886.925
1818.44856	11883.325
1821.6242	11878.125
1824.79776	11834.425
1827.96924	11829.625
1831.13864	11840.725
1834.30597	11818.725
1837.47122	11799.325
1840.6344	11805.725
1843.7955	11800.425
1846.95454	11829.625
1850.11151	11820.925
1853.26642	11821.625
1856.41926	11827.925
1859.57004	11838.725
1862.71876	11867.325
1865.86542	11879.925
1869.01003	11874.125
1872.15258	11877.025
1875.29308	11911.025
1878.43152	11923.325
1881.56792	11955.225
1884.70227	11957.225
1887.83457	11960.725
1890.96482	11985.525
1894.09304	11979.025
1897.21921	11968.825
1900.34335	11988.925
1903.46544	11992.125
1906.58551	11993.625
1909.70353	12006.225
1912.81953	12012.925
1915.93349	12001.925
1919.04543	11986.225
1922.15534	11993.625
1925.26322	11947.925
1928.36908	11912.325
1931.47292	11879.925
1934.57473	11816.925
1937.67453	11751.925
1940.77232	11680.825
1943.86808	11615.325
1946.96184	11552.225
1950.05358	11501.325
1953.14331	11457.025
1956.23103	11401.725
1959.31675	11337.525
1962.40046	11281.725
1965.48217	11308.625
1968.56188	11226.825
1971.63959	11208.825
1974.7153	11148.825
1977.78901	11142.225
1980.86073	11101.825
1983.93046	11067.525
1986.99819	11007.925
1990.06394	10983.425
1993.1277	10966.925
1996.18947	10921.925
1999.24925	10896.725
2002.30706	10838.825
2005.36288	10838.425
2008.41672	10816.125
2011.46859	10770.125
2014.51848	10738.225
2017.56639	10714.225
2020.61233	10695.325
2023.6563	10644.925
2026.6983	10649.425
2029.73833	10605.325
2032.7764	10571.725
2035.8125	10564.625
2038.84664	10529.825
2041.87881	10526.425
2044.90903	10511.425
2047.93729	10495.625
2050.96359	10484.125
2053.98794	10454.325
2057.01034	10459.625
2060.03078	10423.025
2063.04927	10423.625
2066.06582	10414.025
2069.08042	10415.125
2072.09307	10373.525
2075.10378	10394.825
2078.11255	10378.925
2081.11938	10372.325
2084.12426	10359.225
2087.12722	10349.225
2090.12824	10351.925
2093.12732	10353.625
2096.12447	10344.525
2099.11969	10325.025
2102.11299	10313.925
2105.10435	10333.925
2108.09379	10362.025
2111.08131	10339.125
2114.0669	10362.025
2117.05057	10349.125
2120.03233	10377.125
2123.01216	10375.425
2125.99008	10373.225
2128.96609	10380.525
2131.94018	10397.425
2134.91236	10405.525
2137.88263	10412.925
2140.851	10393.725
2143.81746	10418.625
2146.78201	10390.125
2149.74466	10402.025
2152.7054	10377.725
2155.66425	10380.125
2158.6212	10367.925
2161.57625	10389.825
2164.52941	10369.825
2167.48067	10347.925
2170.43004	10337.725
2173.37752	10357.125
2176.32311	10365.725
2179.26681	10351.925
2182.20863	10344.725
2185.14856	10348.225
2188.08661	10356.425
2191.02278	10351.525
2193.95707	10355.625
2196.88948	10331.925
2199.82001	10352.725
2202.74867	10334.225
2205.67545	10346.325
2208.60037	10322.825
2211.52341	10299.925
2214.44458	10291.225
2217.36388	10292.725
2220.28132	10251.225
2223.1969	10236.225
2226.11061	10221.325
2229.02246	10202.825
2231.93245	10178.925
2234.84058	10166.625
2237.74686	10127.425
2240.65128	10135.625
2243.55385	10139.825
2246.45456	10131.925
2249.35343	10101.825
2252.25044	10099.725
2255.14561	10086.625
2258.03893	10056.825
2260.93041	10044.525
2263.82004	10047.025
2266.70783	10015.825
2269.59378	9980.425
2272.4779	9968.025
2275.36017	9931.825
2278.24061	9925.125
2281.11922	9886.025
2283.996	9894.325
2286.87094	9877.425
2289.74405	9852.525
2292.61534	9825.025
2295.4848	9809.325
2298.35243	9835.925
2301.21824	9799.725
2304.08223	9804.425
2306.94439	9819.625
2309.80474	9807.325
2312.66327	9841.725
2315.51999	9843.125
2318.37489	9818.325
2321.22797	9817.525
2324.07925	9828.225
2326.92871	9794.025
2329.77637	9795.325
2332.62222	9775.525
2335.46626	9774.325
2338.3085	9775.825
2341.14893	9732.525
2343.98756	9774.925
2346.8244	9783.725
2349.65943	9782.525
2352.49267	9802.125
2355.32411	9811.725
2358.15376	9784.725
2360.98161	9808.925
2363.80768	9817.725
2366.63195	9791.725
2369.45444	9762.925
2372.27514	9785.925
2375.09405	9749.525
2377.91118	9730.525
2380.72652	9694.625
2383.54009	9676.425
2386.35187	9646.125
2389.16188	9576.825
2391.97011	9569.825
2394.77657	9552.825
2397.58125	9512.925
2400.38416	9513.925
2403.18529	9479.725
2405.98466	9477.525
2408.78226	9453.625
2411.57809	9435.625
2414.37216	9434.025
2417.16446	9415.125
2419.955	9370.525
2422.74378	9373.825
2425.5308	9361.025
2428.31606	9362.325
2431.09956	9360.225
2433.88131	9358.625
2436.6613	9359.625
2439.43954	9392.825
2442.21603	9356.725
2444.99077	9334.525
2447.76377	9351.725
2450.53501	9337.425
2453.30451	9357.725
2456.07226	9324.925
2458.83827	9351.825
2461.60254	9333.425
2464.36507	9338.325
2467.12586	9305.125
2469.88492	9286.725
2472.64224	9326.525
2475.39782	9329.925
2478.15167	9348.825
2480.90379	9335.825
2483.65417	9362.925
2486.40283	9386.725
2489.14976	9389.725
2491.89497	9389.125
2494.63845	9407.625
2497.3802	9369.725
2500.12024	9400.925
2502.85855	9359.625
2505.59514	9362.825
2508.33002	9342.625
2511.06318	9311.525
2513.79462	9297.825
2516.52435	9284.425
2519.25237	9240.125
2521.97867	9223.225
2524.70327	9250.725
2527.42616	9217.325
2530.14734	9204.425
2532.86681	9206.925
2535.58458	9217.225
2538.30065	9211.025
2541.01501	9203.225
2543.72768	9205.025
2546.43864	9201.525
2549.14791	9183.425
2551.85548	9181.925
2554.56136	9173.725
2557.26554	9164.825
2559.96803	9143.425
2562.66883	9126.025
2565.36794	9088.125
2568.06536	9098.225
2570.7611	9091.525
2573.45514	9063.925
2576.14751	9085.325
2578.83819	9081.225
2581.52719	9057.525
2584.21451	9051.125
2586.90015	9037.125
2589.58411	9050.625
2592.2664	9052.725
2594.94701	9047.725
2597.62594	9027.925
2600.30321	9010.725
2602.9788	9026.425
2605.65273	9018.625
2608.32498	9022.125
2610.99557	9022.325
2613.66449	9025.625
2616.33175	9000.725
2618.99734	9026.225
2621.66128	9000.925
2624.32355	9007.125
2626.98416	9002.925
2629.64311	8997.325
2632.30041	8978.425
2634.95605	8966.625
2637.61004	8952.825
2640.26238	8932.825
2642.91306	8939.025
2645.56209	8944.325
2648.20948	8920.825
2650.85521	8889.225
2653.4993	8908.325
2656.14175	8892.425
2658.78255	8913.225
2661.42171	8905.725
2664.05923	8932.825
2666.6951	8920.925
2669.32934	8970.725
2671.96194	8939.725
2674.59291	8965.325
2677.22224	8969.625
2679.84993	8972.025
2682.476	8964.725
2685.10043	8965.625
2687.72324	8943.925
2690.34441	8969.925
2692.96396	8952.925
2695.58188	8917.525
2698.19818	8934.625
2700.81285	8929.625
2703.4259	8926.925
2706.03733	8933.525
2708.64714	8905.725
2711.25533	8942.325
2713.86191	8939.525
2716.46687	8959.425
2719.07021	8961.825
2721.67194	8969.825
2724.27206	8958.525
2726.87057	8968.625
2729.46747	8956.025
2732.06276	8965.125
2734.65644	8961.125
2737.24852	8973.725
2739.83899	8939.425
2742.42786	8967.825
2745.01513	8937.525
2747.60079	8923.025
2750.18486	8930.225
2752.76733	8901.525
2755.3482	8907.025
2757.92747	8893.725
2760.50515	8896.925
2763.08123	8885.025
2765.65573	8837.625
2768.22863	8870.725
2770.79994	8881.725
2773.36967	8835.625
2775.9378	8835.425
2778.50435	8851.825
2781.06932	8847.025
2783.6327	8837.125
2786.1945	8852.525
2788.75471	8825.625
2791.31335	8833.425
2793.87041	8818.825
2796.42589	8791.025
2798.97979	8804.225
2801.53212	8763.325
2804.08288	8780.925
2806.63206	8749.825
2809.17967	8733.525
2811.72571	8715.925
2814.27018	8720.325
2816.81308	8718.425
2819.35442	8721.225
2821.89419	8732.325
2824.43239	8727.525
2826.96904	8741.125
2829.50412	8737.125
2832.03763	8705.125
2834.56959	8719.125
2837.1	8703.225
2839.62884	8738.825
2842.15613	8742.325
2844.68186	8803.425
2847.20604	8830.625
2849.72867	8858.525
2852.24974	8871.025
2854.76927	8869.825
2857.28724	8839.225
2859.80367	8826.325
2862.31855	8783.225
2864.83189	8797.025
2867.34368	8768.025
2869.85393	8757.625
2872.36264	8751.725
2874.8698	8754.225
2877.37543	8752.925
2879.87952	8753.425
2882.38207	8753.825
2884.88308	8723.025
2887.38256	8720.825
2889.88051	8721.425
2892.37692	8712.425
2894.8718	8737.325
2897.36515	8741.525
2899.85698	8742.225
2902.34727	8737.425
2904.83604	8767.225
2907.32328	8773.025
2909.809	8748.225
2912.29319	8797.125
2914.77587	8750.025
2917.25702	8732.325
2919.73665	8716.225
2922.21476	8734.925
2924.69136	8710.225
2927.16644	8709.625
2929.64	8686.025
2932.11205	8684.425
2934.58258	8645.525
2937.05161	8650.625
2939.51912	8620.725
2941.98513	8587.125
2944.44962	8572.025
2946.91261	8522.325
2949.37409	8505.025
2951.83407	8515.025
2954.29254	8504.525
2956.74951	8466.125
2959.20498	8471.725
2961.65895	8429.525
2964.11142	8454.925
2966.56239	8416.625
2969.01186	8421.725
2971.45984	8393.225
2973.90632	8368.125
2976.35131	8335.425
2978.7948	8331.525
2981.23681	8314.025
2983.67732	8275.225
2986.11635	8283.225
2988.55388	8237.625
2990.98993	8202.225
2993.4245	8213.825
2995.85758	8192.825
2998.28917	8152.725
3000.71928	8137.825
3003.14791	8135.125
3005.57506	8128.725
3008.00073	8081.825
3010.42493	7998.025
3012.84764	8061.325
3015.26888	8051.325
3017.68865	8010.325
3020.10694	8000.825
3022.52376	7999.025
3024.9391	7971.725
3027.35298	7976.125
3029.76539	7982.125
3032.17632	7970.125
3034.5858	7933.325
3036.9938	7921.525
3039.40034	7921.825
3041.80542	7919.425
3044.20903	7914.825
3046.61118	7896.825
3049.01187	7888.425
3051.4111	7852.225
3053.80888	7854.625
3056.20519	7831.525
3058.60005	7817.025
3060.99345	7805.925
3063.3854	7791.025
3065.7759	7738.625
3068.16494	7736.725
3070.55254	7687.825
3072.93868	7677.025
3075.32338	7647.925
3077.70662	7638.325
3080.08842	7620.125
3082.46878	7604.525
3084.84769	7590.725
3087.22515	7583.025
3089.60118	7585.225
3091.97576	7585.425
3094.3489	7550.025
3096.72061	7561.825
3099.09087	7575.125
3101.4597	7549.225
3103.82709	7532.625
3106.19305	7541.825
3108.55757	7528.425
3110.92066	7509.025
3113.28232	7517.725
3115.64255	7474.325
3118.00134	7455.525
3120.35871	7443.425
3122.71466	7418.425
3125.06917	7417.625
3127.42226	7413.725
3129.77393	7406.725
3132.12417	7403.325
3134.47299	7389.025
3136.82039	7383.425
3139.16636	7410.825
3141.51092	7397.425
3143.85406	7389.125
3146.19579	7392.225
3148.53609	7394.325
3150.87499	7392.625
3153.21246	7412.625
3155.54853	7402.325
3157.88318	7378.425
3160.21642	7402.925
3162.54826	7392.525
3164.87868	7403.125
3167.2077	7417.225
