Data from AgNP_FTO_APTES_UA_10uM_CRN_20uM_R6G_10uM_NaF_0.1M_Addition_RamanShift__10__16-14-30-744.txt Node

Date: Thu Feb 10 16:14:30 GMT 2022
User: TCL
Spectrometer: QEP01345
Trigger mode: 4
Integration Time (sec): 7.000000E0
Scans to average: 10
Electric dark correction enabled: true
Nonlinearity correction enabled: false
Boxcar width: 0
XAxis mode: Raman Shifts
Number of Pixels in Spectrum: 1044
>>>>>Begin Spectral Data<<<<<
46.04893	-0.2875
50.45542	-0.8875
54.85868	-1.9875
59.25871	-0.6875
63.6555	71.2125
68.04907	69.4125
72.43941	75.5125
76.82654	73.1125
81.21044	79.5125
85.59113	80.3125
89.96862	82.3125
94.34289	90.0125
98.71396	88.2125
103.08183	95.7125
107.4465	97.8125
111.80798	101.0125
116.16626	102.2125
120.52136	103.9125
124.87327	112.0125
129.222	112.2125
133.56755	125.5125
137.90993	133.9125
142.24913	144.4125
146.58517	160.8125
150.91804	188.2125
155.24774	224.7125
159.57429	281.0125
163.89768	355.5125
168.21792	476.8125
172.53501	650.9125
176.84895	906.7125
181.15975	1268.2125
185.46741	1782.0125
189.77193	2453.5125
194.07331	3285.2125
198.37157	4256.3125
202.6667	5243.2125
206.9587	6217.4125
211.24758	7192.4125
215.53334	8176.2125
219.81599	9166.0125
224.09553	10272.3125
228.37195	11494.8125
232.64527	12824.8125
236.91549	14269.2125
241.18261	15693.1125
245.44663	17016.9125
249.70755	18261.4125
253.96539	19338.8125
258.22014	20259.4125
262.4718	20965.4125
266.72039	21497.7125
270.96589	21757.1125
275.20832	21853.1125
279.44768	21810.6125
283.68397	21670.4125
287.91719	21540.2125
292.14735	21447.6125
296.37445	21461.0125
300.59849	21563.5125
304.81948	21645.3125
309.03742	21596.4125
313.25231	21464.5125
317.46415	21089.4125
321.67296	20633.7125
325.87872	20240.1125
330.08145	20049.9125
334.28114	20029.2125
338.47781	20147.7125
342.67145	20375.4125
346.86207	20643.0125
351.04966	20904.6125
355.23424	21196.8125
359.4158	21427.9125
363.59435	21659.3125
367.76989	21794.2125
371.94243	21924.0125
376.11196	21959.3125
380.27849	21995.2125
384.44203	22089.8125
388.60257	22252.7125
392.76012	22472.3125
396.91468	22831.0125
401.06626	23207.7125
405.21485	23420.6125
409.36047	23366.5125
413.50311	23114.6125
417.64277	22993.2125
421.77947	23067.2125
425.9132	23186.9125
430.04396	23383.2125
434.17176	23456.8125
438.2966	23552.6125
442.41849	23791.2125
446.53742	24216.4125
450.6534	24722.8125
454.76644	25184.3125
458.87653	25364.8125
462.98368	25377.4125
467.08789	25225.4125
471.18916	25026.1125
475.2875	24820.2125
479.38291	24707.7125
483.4754	24577.5125
487.56496	24361.9125
491.6516	23987.2125
495.73531	23595.0125
499.81612	23419.1125
503.89401	23475.9125
507.96899	23554.7125
512.04106	23606.1125
516.11023	23517.0125
520.1765	23302.0125
524.23987	23015.5125
528.30034	22809.5125
532.35792	22586.5125
536.41261	22403.5125
540.46441	22262.9125
544.51333	22342.4125
548.55936	22601.7125
552.60252	23020.5125
556.64279	23531.6125
560.6802	23847.1125
564.71473	24132.2125
568.7464	24608.6125
572.7752	25411.5125
576.80114	26446.0125
580.82422	27248.1125
584.84444	27885.7125
588.86181	28574.8125
592.87633	29096.5125
596.888	28767.5125
600.89682	27750.7125
604.9028	27429.3125
608.90594	28441.5125
612.90624	29397.5125
616.90371	27559.6125
620.89834	24346.5125
624.89015	23030.6125
628.87913	23022.9125
632.86528	23239.2125
636.84862	23237.3125
640.82913	22910.7125
644.80683	22422.6125
648.78172	22060.5125
652.75379	22021.7125
656.72306	22205.0125
660.68952	22493.8125
664.65319	22343.5125
668.61405	22122.5125
672.57211	22138.2125
676.52738	22253.2125
680.47986	22181.2125
684.42955	22010.2125
688.37646	22026.9125
692.32058	22107.5125
696.26192	22377.5125
700.20048	22631.4125
704.13626	22803.5125
708.06928	22887.2125
711.99952	22867.7125
715.927	22770.5125
719.85171	22737.6125
723.77365	22556.8125
727.69284	22309.4125
731.60928	21985.5125
735.52295	21841.7125
739.43388	21764.2125
743.34206	21837.2125
747.24749	22003.1125
751.15017	22264.4125
755.05012	22631.8125
758.94733	23272.3125
762.8418	24234.1125
766.73354	25582.9125
770.62254	26714.3125
774.50882	26708.0125
778.39237	25585.0125
782.27321	24201.6125
786.15132	23151.2125
790.02671	22435.4125
793.89938	22077.2125
797.76935	21860.5125
801.6366	21749.9125
805.50115	21712.3125
809.36299	21618.0125
813.22213	21472.3125
817.07857	21466.9125
820.93231	21448.1125
824.78336	21335.3125
828.63172	21185.4125
832.47738	21136.8125
836.32036	21102.2125
840.16066	21113.1125
843.99827	21125.8125
847.8332	21131.2125
851.66546	21151.0125
855.49504	21207.2125
859.32195	21242.2125
863.1462	21175.4125
866.96777	21122.3125
870.78668	21075.0125
874.60293	21069.1125
878.41652	21128.4125
882.22745	21140.0125
886.03573	21181.8125
889.84136	21168.0125
893.64433	21106.0125
897.44466	21055.6125
901.24235	21024.3125
905.0374	21000.0125
908.8298	20978.7125
912.61957	21098.3125
916.40671	21302.1125
920.19121	21625.4125
923.97308	21786.9125
927.75233	21656.0125
931.52895	21415.4125
935.30295	21061.0125
939.07433	20735.2125
942.84309	20494.3125
946.60924	20387.0125
950.37278	20331.3125
954.13371	20341.5125
957.89203	20290.8125
961.64774	20325.7125
965.40086	20340.3125
969.15137	20281.3125
972.89929	20218.8125
976.64461	20137.1125
980.38733	20082.6125
984.12747	20098.5125
987.86502	20157.4125
991.59999	20263.3125
995.33237	20409.7125
999.06217	20634.4125
1002.78939	20972.0125
1006.51404	21275.5125
1010.23611	21581.1125
1013.95561	21805.3125
1017.67255	21861.1125
1021.38692	21700.6125
1025.09872	21422.3125
1028.80796	21235.5125
1032.51465	21153.0125
1036.21877	21242.6125
1039.92035	21315.2125
1043.61937	21385.7125
1047.31584	21435.1125
1051.00976	21445.8125
1054.70114	21583.1125
1058.38998	21741.2125
1062.07627	22018.6125
1065.76003	22301.9125
1069.44126	22538.4125
1073.11995	22878.2125
1076.79611	23110.0125
1080.46974	23225.1125
1084.14085	23350.0125
1087.80943	23549.6125
1091.47549	23787.9125
1095.13903	23826.1125
1098.80005	23597.8125
1102.45857	23071.4125
1106.11456	22579.9125
1109.76805	22323.0125
1113.41903	22253.5125
1117.06751	22324.4125
1120.71348	22511.2125
1124.35696	22714.0125
1127.99793	22911.7125
1131.63641	23103.8125
1135.2724	23067.5125
1138.90589	23048.0125
1142.5369	23156.1125
1146.16542	23345.7125
1149.79145	23606.7125
1153.415	23858.7125
1157.03607	24217.5125
1160.65467	24845.6125
1164.27079	25847.3125
1167.88443	27030.6125
1171.49561	28214.1125
1175.10432	29630.6125
1178.71056	31393.2125
1182.31434	33036.5125
1185.91565	34015.6125
1189.51451	34277.9125
1193.11091	33995.6125
1196.70485	33173.4125
1200.29634	32078.2125
1203.88538	31351.3125
1207.47197	30971.8125
1211.05612	30782.3125
1214.63782	30277.7125
1218.21708	29442.6125
1221.79391	28409.1125
1225.36829	27623.3125
1228.94024	27158.8125
1232.50976	26915.9125
1236.07685	26720.0125
1239.6415	26649.6125
1243.20374	26669.0125
1246.76355	26851.4125
1250.32093	27199.8125
1253.8759	27691.7125
1257.42845	28377.0125
1260.97859	29171.3125
1264.52631	29911.6125
1268.07163	30706.1125
1271.61453	31453.8125
1275.15503	32198.9125
1278.69312	32956.1125
1282.22882	33815.9125
1285.76211	34878.3125
1289.29301	36132.6125
1292.82151	37630.5125
1296.34761	39378.3125
1299.87133	41361.4125
1303.39266	43260.8125
1306.9116	44746.6125
1310.42815	45637.9125
1313.94233	45992.7125
1317.45412	45825.6125
1320.96354	45472.6125
1324.47058	45511.1125
1327.97525	45708.5125
1331.47754	45867.7125
1334.97747	46054.8125
1338.47502	46237.4125
1341.97022	46197.9125
1345.46305	45889.0125
1348.95352	45361.9125
1352.44163	44675.4125
1355.92738	44308.7125
1359.41078	44514.0125
1362.89183	44707.3125
1366.37053	43627.1125
1369.84688	40994.2125
1373.32088	37790.2125
1376.79254	35480.2125
1380.26186	34703.3125
1383.72883	34912.6125
1387.19347	35058.6125
1390.65578	34985.2125
1394.11575	34824.7125
1397.57339	34968.3125
1401.0287	35250.7125
1404.48168	35431.7125
1407.93234	35215.7125
1411.38068	34416.9125
1414.82669	33191.0125
1418.27039	31861.5125
1421.71177	30621.2125
1425.15083	29702.3125
1428.58758	29286.2125
1432.02203	29550.5125
1435.45416	30281.6125
1438.88399	31156.0125
1442.31151	31941.9125
1445.73673	32352.3125
1449.15965	32663.8125
1452.58027	32916.1125
1455.9986	33073.6125
1459.41463	33345.4125
1462.82837	33755.5125
1466.23982	34215.8125
1469.64898	34594.8125
1473.05586	34805.7125
1476.46045	34694.0125
1479.86276	34415.5125
1483.26279	34093.7125
1486.66054	33956.7125
1490.05602	34029.0125
1493.44922	34361.2125
1496.84016	34860.0125
1500.22882	35574.4125
1503.61521	36525.0125
1506.99934	37475.7125
1510.38121	38199.5125
1513.76081	38345.6125
1517.13816	37926.1125
1520.51324	37434.6125
1523.88607	37181.9125
1527.25665	37209.6125
1530.62498	37311.0125
1533.99105	37121.2125
1537.35488	36566.8125
1540.71647	35689.3125
1544.07581	34558.5125
1547.4329	33509.8125
1550.78776	32655.7125
1554.14038	32146.2125
1557.49077	31767.7125
1560.83892	31595.0125
1564.18484	31413.7125
1567.52853	31516.7125
1570.86999	31723.2125
1574.20922	32337.3125
1577.54624	32976.1125
1580.88103	33314.8125
1584.2136	33692.2125
1587.54395	34456.3125
1590.87208	35706.2125
1594.19801	37210.7125
1597.52172	38487.6125
1600.84321	38481.2125
1604.16251	36872.5125
1607.47959	34400.2125
1610.79447	31932.8125
1614.10715	29688.8125
1617.41763	27703.8125
1620.7259	26316.1125
1624.03199	25559.9125
1627.33587	25499.0125
1630.63757	26148.0125
1633.93707	27677.3125
1637.23439	30264.2125
1640.52951	33980.5125
1643.82246	38112.8125
1647.11321	41216.3125
1650.40179	41614.5125
1653.68819	38865.3125
1656.97241	34170.7125
1660.25446	29584.3125
1663.53433	26083.0125
1666.81203	23715.9125
1670.08756	22150.0125
1673.36092	21254.1125
1676.63211	20610.0125
1679.90115	20134.7125
1683.16801	19854.0125
1686.43272	19615.7125
1689.69527	19424.8125
1692.95567	19267.9125
1696.2139	19181.4125
1699.46999	19141.4125
1702.72392	19005.9125
1705.97571	18937.6125
1709.22535	18874.8125
1712.47284	18810.7125
1715.71819	18780.8125
1718.96139	18707.7125
1722.20246	18671.8125
1725.44139	18574.8125
1728.67818	18473.4125
1731.91284	18316.5125
1735.14537	18254.6125
1738.37576	18166.0125
1741.60403	18088.8125
1744.83017	18018.5125
1748.05418	18014.1125
1751.27607	17964.7125
1754.49584	17909.9125
1757.71349	17907.5125
1760.92903	17859.1125
1764.14244	17858.6125
1767.35375	17864.5125
1770.56294	17815.2125
1773.77002	17787.9125
1776.97499	17721.3125
1780.17785	17655.7125
1783.37861	17669.1125
1786.57727	17633.0125
1789.77382	17555.3125
1792.96828	17531.1125
1796.16064	17510.8125
1799.3509	17490.6125
1802.53907	17430.3125
1805.72514	17369.0125
1808.90913	17348.9125
1812.09102	17304.2125
1815.27083	17250.5125
1818.44856	17244.9125
1821.6242	17221.1125
1824.79776	17195.0125
1827.96924	17183.7125
1831.13864	17163.2125
1834.30597	17171.8125
1837.47122	17144.9125
1840.6344	17179.7125
1843.7955	17168.0125
1846.95454	17148.0125
1850.11151	17110.1125
1853.26642	17110.2125
1856.41926	17103.2125
1859.57004	17094.1125
1862.71876	17039.5125
1865.86542	17033.1125
1869.01003	16989.4125
1872.15258	16954.6125
1875.29308	16962.4125
1878.43152	16923.8125
1881.56792	16856.3125
1884.70227	16825.2125
1887.83457	16852.6125
1890.96482	16810.8125
1894.09304	16801.5125
1897.21921	16777.6125
1900.34335	16763.5125
1903.46544	16707.5125
1906.58551	16674.0125
1909.70353	16679.3125
1912.81953	16612.6125
1915.93349	16632.5125
1919.04543	16572.4125
1922.15534	16546.9125
1925.26322	16500.3125
1928.36908	16492.5125
1931.47292	16464.3125
1934.57473	16368.6125
1937.67453	16347.8125
1940.77232	16298.7125
1943.86808	16299.7125
1946.96184	16191.2125
1950.05358	16159.8125
1953.14331	16110.4125
1956.23103	16109.1125
1959.31675	16031.3125
1962.40046	16009.4125
1965.48217	15931.4125
1968.56188	15905.7125
1971.63959	15824.7125
1974.7153	15809.4125
1977.78901	15734.2125
1980.86073	15672.3125
1983.93046	15646.0125
1986.99819	15577.4125
1990.06394	15542.5125
1993.1277	15500.6125
1996.18947	15447.9125
1999.24925	15411.2125
2002.30706	15356.4125
2005.36288	15317.6125
2008.41672	15264.0125
2011.46859	15204.7125
2014.51848	15191.2125
2017.56639	15191.4125
2020.61233	15116.2125
2023.6563	15083.7125
2026.6983	15037.5125
2029.73833	14995.4125
2032.7764	14969.7125
2035.8125	14940.6125
2038.84664	14892.3125
2041.87881	14846.7125
2044.90903	14831.7125
2047.93729	14756.4125
2050.96359	14773.1125
2053.98794	14747.2125
2057.01034	14746.8125
2060.03078	14717.3125
2063.04927	14712.3125
2066.06582	14677.9125
2069.08042	14715.8125
2072.09307	14691.9125
2075.10378	14676.5125
2078.11255	14628.8125
2081.11938	14652.6125
2084.12426	14638.3125
2087.12722	14652.5125
2090.12824	14643.1125
2093.12732	14644.6125
2096.12447	14602.9125
2099.11969	14629.8125
2102.11299	14601.9125
2105.10435	14572.9125
2108.09379	14613.7125
2111.08131	14607.7125
2114.0669	14601.7125
2117.05057	14625.3125
2120.03233	14645.7125
2123.01216	14658.6125
2125.99008	14681.8125
2128.96609	14671.1125
2131.94018	14691.1125
2134.91236	14701.1125
2137.88263	14697.7125
2140.851	14690.4125
2143.81746	14689.4125
2146.78201	14660.9125
2149.74466	14676.1125
2152.7054	14653.9125
2155.66425	14692.4125
2158.6212	14642.8125
2161.57625	14675.8125
2164.52941	14684.0125
2167.48067	14651.3125
2170.43004	14634.5125
2173.37752	14600.7125
2176.32311	14609.9125
2179.26681	14640.9125
2182.20863	14633.4125
2185.14856	14622.3125
2188.08661	14608.8125
2191.02278	14618.7125
2193.95707	14629.6125
2196.88948	14615.6125
2199.82001	14566.0125
2202.74867	14527.5125
2205.67545	14547.7125
2208.60037	14510.4125
2211.52341	14508.8125
2214.44458	14463.1125
2217.36388	14406.8125
2220.28132	14416.4125
2223.1969	14372.2125
2226.11061	14368.3125
2229.02246	14330.8125
2231.93245	14281.9125
2234.84058	14268.8125
2237.74686	14254.8125
2240.65128	14264.1125
2243.55385	14231.7125
2246.45456	14186.4125
2249.35343	14184.6125
2252.25044	14161.0125
2255.14561	14133.4125
2258.03893	14115.2125
2260.93041	14102.2125
2263.82004	14002.7125
2266.70783	13985.8125
2269.59378	13946.5125
2272.4779	13884.7125
2275.36017	13857.5125
2278.24061	13849.9125
2281.11922	13813.9125
2283.996	13822.1125
2286.87094	13786.5125
2289.74405	13785.3125
2292.61534	13773.8125
2295.4848	13737.6125
2298.35243	13732.8125
2301.21824	13734.3125
2304.08223	13713.7125
2306.94439	13710.5125
2309.80474	13702.5125
2312.66327	13705.2125
2315.51999	13667.1125
2318.37489	13657.7125
2321.22797	13645.8125
2324.07925	13620.2125
2326.92871	13609.0125
2329.77637	13580.3125
2332.62222	13549.9125
2335.46626	13513.9125
2338.3085	13499.8125
2341.14893	13521.2125
2343.98756	13527.8125
2346.8244	13528.7125
2349.65943	13509.0125
2352.49267	13493.1125
2355.32411	13493.4125
2358.15376	13489.4125
2360.98161	13501.3125
2363.80768	13505.1125
2366.63195	13475.5125
2369.45444	13455.5125
2372.27514	13461.7125
2375.09405	13441.2125
2377.91118	13405.8125
2380.72652	13350.7125
2383.54009	13353.3125
2386.35187	13321.0125
2389.16188	13270.9125
2391.97011	13237.7125
2394.77657	13221.5125
2397.58125	13209.0125
2400.38416	13187.7125
2403.18529	13155.8125
2405.98466	13149.9125
2408.78226	13111.8125
2411.57809	13099.9125
2414.37216	13109.8125
2417.16446	13096.0125
2419.955	13075.6125
2422.74378	13076.0125
2425.5308	13051.7125
2428.31606	13067.8125
2431.09956	13049.9125
2433.88131	13020.0125
2436.6613	13044.1125
2439.43954	13040.0125
2442.21603	13029.0125
2444.99077	12996.9125
2447.76377	13008.0125
2450.53501	12992.8125
2453.30451	12968.8125
2456.07226	12970.7125
2458.83827	12963.9125
2461.60254	12966.0125
2464.36507	12905.3125
2467.12586	12889.2125
2469.88492	12901.0125
2472.64224	12892.8125
2475.39782	12915.9125
2478.15167	12912.5125
2480.90379	12893.3125
2483.65417	12924.9125
2486.40283	12923.2125
2489.14976	12916.2125
2491.89497	12925.8125
2494.63845	12920.9125
2497.3802	12918.2125
2500.12024	12900.5125
2502.85855	12892.6125
2505.59514	12875.0125
2508.33002	12858.3125
2511.06318	12853.6125
2513.79462	12830.3125
2516.52435	12849.8125
2519.25237	12842.6125
2521.97867	12832.9125
2524.70327	12808.0125
2527.42616	12745.3125
2530.14734	12781.7125
2532.86681	12762.0125
2535.58458	12774.1125
2538.30065	12740.7125
2541.01501	12777.7125
2543.72768	12715.2125
2546.43864	12736.3125
2549.14791	12680.4125
2551.85548	12718.1125
2554.56136	12685.9125
2557.26554	12645.8125
2559.96803	12624.8125
2562.66883	12617.3125
2565.36794	12581.9125
2568.06536	12553.3125
2570.7611	12572.2125
2573.45514	12540.0125
2576.14751	12528.7125
2578.83819	12527.5125
2581.52719	12505.3125
2584.21451	12494.9125
2586.90015	12473.2125
2589.58411	12433.8125
2592.2664	12462.0125
2594.94701	12421.1125
2597.62594	12444.1125
2600.30321	12414.1125
2602.9788	12419.6125
2605.65273	12404.2125
2608.32498	12410.4125
2610.99557	12416.1125
2613.66449	12414.4125
2616.33175	12392.7125
2618.99734	12388.0125
2621.66128	12348.3125
2624.32355	12339.5125
2626.98416	12345.7125
2629.64311	12336.4125
2632.30041	12297.2125
2634.95605	12306.4125
2637.61004	12275.4125
2640.26238	12273.2125
2642.91306	12278.1125
2645.56209	12280.0125
2648.20948	12248.5125
2650.85521	12267.7125
2653.4993	12290.1125
2656.14175	12266.2125
2658.78255	12291.9125
2661.42171	12290.2125
2664.05923	12252.3125
2666.6951	12312.2125
2669.32934	12335.3125
2671.96194	12322.0125
2674.59291	12329.6125
2677.22224	12306.3125
2679.84993	12322.6125
2682.476	12296.6125
2685.10043	12302.2125
2687.72324	12282.6125
2690.34441	12279.4125
2692.96396	12290.4125
2695.58188	12304.9125
2698.19818	12291.6125
2700.81285	12308.0125
2703.4259	12309.5125
2706.03733	12325.4125
2708.64714	12280.2125
2711.25533	12309.4125
2713.86191	12328.1125
2716.46687	12326.0125
2719.07021	12328.0125
2721.67194	12322.6125
2724.27206	12339.3125
2726.87057	12349.6125
2729.46747	12336.2125
2732.06276	12348.7125
2734.65644	12342.1125
2737.24852	12370.0125
2739.83899	12315.7125
2742.42786	12368.4125
2745.01513	12336.9125
2747.60079	12289.9125
2750.18486	12277.5125
2752.76733	12267.6125
2755.3482	12262.5125
2757.92747	12282.1125
2760.50515	12227.8125
2763.08123	12246.4125
2765.65573	12233.6125
2768.22863	12224.3125
2770.79994	12214.3125
2773.36967	12204.7125
2775.9378	12211.4125
2778.50435	12209.6125
2781.06932	12209.3125
2783.6327	12190.9125
2786.1945	12195.3125
2788.75471	12198.8125
2791.31335	12136.6125
2793.87041	12146.5125
2796.42589	12115.3125
2798.97979	12113.6125
2801.53212	12067.6125
2804.08288	12075.4125
2806.63206	12070.6125
2809.17967	12015.6125
2811.72571	12018.8125
2814.27018	11968.0125
2816.81308	11956.4125
2819.35442	11914.9125
2821.89419	11889.0125
2824.43239	11885.7125
2826.96904	11838.2125
2829.50412	11862.4125
2832.03763	11837.6125
2834.56959	11835.7125
2837.1	11803.4125
2839.62884	11810.0125
2842.15613	11795.7125
2844.68186	11825.7125
2847.20604	11806.0125
2849.72867	11824.4125
2852.24974	11798.8125
2854.76927	11779.7125
2857.28724	11757.3125
2859.80367	11757.9125
2862.31855	11740.1125
2864.83189	11679.3125
2867.34368	11660.6125
2869.85393	11682.3125
2872.36264	11674.2125
2874.8698	11673.8125
2877.37543	11654.3125
2879.87952	11663.4125
2882.38207	11673.6125
2884.88308	11661.8125
2887.38256	11647.3125
2889.88051	11649.9125
2892.37692	11649.2125
2894.8718	11648.3125
2897.36515	11658.2125
2899.85698	11677.1125
2902.34727	11685.5125
2904.83604	11670.0125
2907.32328	11695.6125
2909.809	11690.8125
2912.29319	11665.8125
2914.77587	11696.1125
2917.25702	11679.2125
2919.73665	11674.7125
2922.21476	11687.3125
2924.69136	11673.2125
2927.16644	11685.3125
2929.64	11648.8125
2932.11205	11658.8125
2934.58258	11588.8125
2937.05161	11593.9125
2939.51912	11602.0125
2941.98513	11595.1125
2944.44962	11549.8125
2946.91261	11528.6125
2949.37409	11575.0125
2951.83407	11538.3125
2954.29254	11504.8125
2956.74951	11506.8125
2959.20498	11523.0125
2961.65895	11476.3125
2964.11142	11516.7125
2966.56239	11497.0125
2969.01186	11495.3125
2971.45984	11438.2125
2973.90632	11457.2125
2976.35131	11407.7125
2978.7948	11415.4125
2981.23681	11393.8125
2983.67732	11378.2125
2986.11635	11333.0125
2988.55388	11297.8125
2990.98993	11283.9125
2993.4245	11269.5125
2995.85758	11215.3125
2998.28917	11185.7125
3000.71928	11170.5125
3003.14791	11146.0125
3005.57506	11125.7125
3008.00073	11051.0125
3010.42493	10958.1125
3012.84764	10998.3125
3015.26888	11017.1125
3017.68865	10967.2125
3020.10694	10956.7125
3022.52376	10946.2125
3024.9391	10931.2125
