Data from AgNP_FTO_APTES_UA_10uM_CRN_5uM_R6G_10uM_NaF_0.1M_Addition_RamanShift__7__14-50-30-640.txt Node

Date: Thu Feb 10 14:50:30 GMT 2022
User: TCL
Spectrometer: QEP01345
Trigger mode: 4
Integration Time (sec): 7.000000E0
Scans to average: 10
Electric dark correction enabled: true
Nonlinearity correction enabled: false
Boxcar width: 0
XAxis mode: Raman Shifts
Number of Pixels in Spectrum: 1044
>>>>>Begin Spectral Data<<<<<
46.04893	0.275
50.45542	-0.925
54.85868	-2.125
59.25871	-1.325
63.6555	76.175
68.04907	78.775
72.43941	83.875
76.82654	86.075
81.21044	91.475
85.59113	89.375
89.96862	94.175
94.34289	98.875
98.71396	102.675
103.08183	111.075
107.4465	110.675
111.80798	105.875
116.16626	118.175
120.52136	120.575
124.87327	121.875
129.222	128.675
133.56755	141.975
137.90993	150.975
142.24913	165.275
146.58517	184.675
150.91804	221.675
155.24774	264.975
159.57429	322.175
163.89768	418.075
168.21792	556.175
172.53501	766.375
176.84895	1052.675
181.15975	1490.975
185.46741	2083.475
189.77193	2881.775
194.07331	3845.475
198.37157	4950.775
202.6667	6113.675
206.9587	7250.175
211.24758	8369.475
215.53334	9469.775
219.81599	10696.075
224.09553	11990.875
228.37195	13438.675
232.64527	15044.775
236.91549	16699.275
241.18261	18340.875
245.44663	19902.475
249.70755	21276.875
253.96539	22528.675
258.22014	23521.075
262.4718	24332.375
266.72039	24889.075
270.96589	25184.975
275.20832	25235.475
279.44768	25062.075
283.68397	24863.775
287.91719	24652.275
292.14735	24517.875
296.37445	24468.375
300.59849	24573.375
304.81948	24676.675
309.03742	24750.975
313.25231	24642.375
317.46415	24292.075
321.67296	23856.575
325.87872	23450.975
330.08145	23282.375
334.28114	23233.775
338.47781	23346.775
342.67145	23654.275
346.86207	24043.475
351.04966	24448.075
355.23424	24866.075
359.4158	25243.075
363.59435	25443.975
367.76989	25612.375
371.94243	25734.975
376.11196	25826.675
380.27849	25867.475
384.44203	25980.975
388.60257	26269.875
392.76012	26559.975
396.91468	26906.075
401.06626	27313.775
405.21485	27548.675
409.36047	27467.675
413.50311	27257.475
417.64277	27239.575
421.77947	27486.875
425.9132	27737.475
430.04396	27922.475
434.17176	28053.675
438.2966	28084.975
442.41849	28423.275
446.53742	29139.075
450.6534	30019.275
454.76644	30586.875
458.87653	30664.975
462.98368	30458.175
467.08789	30037.875
471.18916	29476.575
475.2875	28905.475
479.38291	28572.975
483.4754	28316.275
487.56496	27997.275
491.6516	27612.475
495.73531	27217.775
499.81612	27106.775
503.89401	27244.175
507.96899	27461.675
512.04106	27519.275
516.11023	27374.375
520.1765	26966.675
524.23987	26666.175
528.30034	26380.875
532.35792	26110.775
536.41261	25845.375
540.46441	25509.775
544.51333	25500.975
548.55936	25758.575
552.60252	26343.675
556.64279	26999.775
560.6802	27569.475
564.71473	27874.575
568.7464	28378.475
572.7752	29437.775
576.80114	30710.475
580.82422	32103.675
584.84444	33768.975
588.86181	35955.675
592.87633	37702.675
596.888	37114.575
600.89682	34565.775
604.9028	33064.975
608.90594	33896.375
612.90624	34993.075
616.90371	32619.175
620.89834	28351.675
624.89015	26640.375
628.87913	26600.975
632.86528	26781.075
636.84862	26645.375
640.82913	26088.375
644.80683	25422.975
648.78172	25044.775
652.75379	25093.475
656.72306	25385.375
660.68952	25672.275
664.65319	25482.675
668.61405	25077.275
672.57211	25064.175
676.52738	25199.975
680.47986	25197.375
684.42955	24968.875
688.37646	24895.775
692.32058	25111.475
696.26192	25505.275
700.20048	25936.275
704.13626	26161.675
708.06928	26196.775
711.99952	26138.875
715.927	26082.075
719.85171	26083.075
723.77365	25963.275
727.69284	25512.575
731.60928	25061.775
735.52295	24897.275
739.43388	24878.775
743.34206	24970.675
747.24749	25196.475
751.15017	25523.175
755.05012	26040.875
758.94733	26807.775
762.8418	28037.375
766.73354	29669.075
770.62254	31114.175
774.50882	31017.175
778.39237	29609.375
782.27321	27861.775
786.15132	26536.675
790.02671	25680.375
793.89938	25230.175
797.76935	25057.675
801.6366	25002.375
805.50115	24964.675
809.36299	24825.475
813.22213	24610.175
817.07857	24490.575
820.93231	24352.075
824.78336	24205.975
828.63172	24072.875
832.47738	23995.275
836.32036	23984.675
840.16066	23972.275
843.99827	23998.975
847.8332	23999.975
851.66546	24049.375
855.49504	24108.675
859.32195	24124.475
863.1462	24063.375
866.96777	23993.875
870.78668	23912.775
874.60293	23974.275
878.41652	23961.575
882.22745	24034.075
886.03573	24091.875
889.84136	23998.675
893.64433	23992.175
897.44466	23873.875
901.24235	23793.575
905.0374	23749.775
908.8298	23714.275
912.61957	23798.575
916.40671	24016.075
920.19121	24415.975
923.97308	24733.175
927.75233	24728.775
931.52895	24406.775
935.30295	23977.675
939.07433	23514.875
942.84309	23237.175
946.60924	23071.275
950.37278	23055.675
954.13371	23094.375
957.89203	23084.775
961.64774	23113.275
965.40086	23096.475
969.15137	23080.175
972.89929	22967.275
976.64461	22930.075
980.38733	22930.275
984.12747	22940.575
987.86502	23044.275
991.59999	23218.775
995.33237	23395.775
999.06217	23838.575
1002.78939	24374.475
1006.51404	25000.075
1010.23611	25499.075
1013.95561	25878.175
1017.67255	25920.675
1021.38692	25586.075
1025.09872	25088.875
1028.80796	24689.775
1032.51465	24679.075
1036.21877	24861.675
1039.92035	25031.875
1043.61937	24985.375
1047.31584	24944.175
1051.00976	24759.975
1054.70114	24805.875
1058.38998	24977.375
1062.07627	25224.475
1065.76003	25588.775
1069.44126	25929.775
1073.11995	26364.975
1076.79611	26767.475
1080.46974	26935.375
1084.14085	27135.275
1087.80943	27438.275
1091.47549	27728.975
1095.13903	27719.775
1098.80005	27373.775
1102.45857	26708.275
1106.11456	26173.975
1109.76805	25939.075
1113.41903	25899.475
1117.06751	25976.575
1120.71348	26148.475
1124.35696	26406.975
1127.99793	26675.475
1131.63641	26899.675
1135.2724	26917.675
1138.90589	26966.975
1142.5369	27098.875
1146.16542	27363.875
1149.79145	27648.075
1153.415	27986.075
1157.03607	28393.375
1160.65467	29319.875
1164.27079	30866.875
1167.88443	32566.875
1171.49561	34283.875
1175.10432	36246.375
1178.71056	38867.875
1182.31434	41267.975
1185.91565	42427.775
1189.51451	42114.075
1193.11091	41130.275
1196.70485	39814.575
1200.29634	38560.275
1203.88538	37729.375
1207.47197	37569.875
1211.05612	37521.975
1214.63782	36910.075
1218.21708	35792.775
1221.79391	34493.575
1225.36829	33650.575
1228.94024	33131.175
1232.50976	32692.475
1236.07685	32101.275
1239.6415	31699.275
1243.20374	31574.175
1246.76355	31766.575
1250.32093	32340.475
1253.8759	33036.275
1257.42845	33955.175
1260.97859	34944.175
1264.52631	36132.575
1268.07163	37300.075
1271.61453	38486.875
1275.15503	39551.475
1278.69312	40721.875
1282.22882	41942.675
1285.76211	43501.275
1289.29301	45396.675
1292.82151	47667.675
1296.34761	50387.375
1299.87133	53768.775
1303.39266	57196.575
1306.9116	60015.375
1310.42815	62007.575
1313.94233	62738.075
1317.45412	62045.175
1320.96354	60692.075
1324.47058	59880.075
1327.97525	59519.475
1331.47754	59336.275
1334.97747	59134.575
1338.47502	58644.275
1341.97022	57830.475
1345.46305	56820.775
1348.95352	55702.575
1352.44163	55094.275
1355.92738	55651.075
1359.41078	57334.475
1362.89183	58552.375
1366.37053	57399.875
1369.84688	53292.575
1373.32088	47789.475
1376.79254	44047.975
1380.26186	42935.675
1383.72883	43357.775
1387.19347	43737.075
1390.65578	43548.275
1394.11575	43576.675
1397.57339	44225.775
1401.0287	45219.275
1404.48168	45969.575
1407.93234	45951.575
1411.38068	45002.375
1414.82669	43308.475
1418.27039	41328.775
1421.71177	39368.175
1425.15083	37932.675
1428.58758	37418.375
1432.02203	38011.875
1435.45416	39396.975
1438.88399	40975.875
1442.31151	42006.675
1445.73673	42348.575
1449.15965	42425.775
1452.58027	42316.875
1455.9986	42165.875
1459.41463	42470.375
1462.82837	43109.675
1466.23982	43930.775
1469.64898	44568.975
1473.05586	44845.775
1476.46045	44780.275
1479.86276	44278.475
1483.26279	43563.675
1486.66054	43190.775
1490.05602	43314.975
1493.44922	43459.375
1496.84016	43825.175
1500.22882	44348.075
1503.61521	45046.975
1506.99934	45836.175
1510.38121	46354.975
1513.76081	46248.375
1517.13816	45629.775
1520.51324	44862.875
1523.88607	44732.275
1527.25665	45098.575
1530.62498	45618.975
1533.99105	45630.075
1537.35488	45049.075
1540.71647	43995.275
1544.07581	42562.975
1547.4329	41059.675
1550.78776	39876.575
1554.14038	38993.575
1557.49077	38458.775
1560.83892	38072.175
1564.18484	37846.475
1567.52853	37826.175
1570.86999	38146.475
1574.20922	38952.475
1577.54624	39801.775
1580.88103	40307.675
1584.2136	41139.175
1587.54395	42973.175
1590.87208	45645.575
1594.19801	48876.575
1597.52172	51730.675
1600.84321	52178.575
1604.16251	49451.175
1607.47959	45020.875
1610.79447	40473.175
1614.10715	36512.275
1617.41763	33498.375
1620.7259	31509.975
1624.03199	30598.375
1627.33587	30680.375
1630.63757	31829.475
1633.93707	34351.775
1637.23439	38586.075
1640.52951	44686.975
1643.82246	51664.975
1647.11321	56665.875
1650.40179	56545.575
1653.68819	50974.775
1656.97241	43001.575
1660.25446	35946.475
1663.53433	31020.275
1666.81203	27913.975
1670.08756	25980.275
1673.36092	24806.275
1676.63211	24032.775
1679.90115	23488.075
1683.16801	23052.975
1686.43272	22731.875
1689.69527	22555.675
1692.95567	22366.775
1696.2139	22227.175
1699.46999	22182.175
1702.72392	22093.675
1705.97571	21941.075
1709.22535	21926.875
1712.47284	21830.575
1715.71819	21807.375
1718.96139	21732.575
1722.20246	21661.675
1725.44139	21564.075
1728.67818	21368.775
1731.91284	21241.175
1735.14537	21110.575
1738.37576	20992.075
1741.60403	20935.775
1744.83017	20842.075
1748.05418	20765.775
1751.27607	20749.975
1754.49584	20690.875
1757.71349	20722.775
1760.92903	20706.675
1764.14244	20701.275
1767.35375	20690.675
1770.56294	20623.075
1773.77002	20585.875
1776.97499	20497.175
1780.17785	20455.175
1783.37861	20412.775
1786.57727	20388.875
1789.77382	20328.275
1792.96828	20280.575
1796.16064	20210.175
1799.3509	20202.575
1802.53907	20171.875
1805.72514	20083.175
1808.90913	20041.775
1812.09102	20003.075
1815.27083	19976.875
1818.44856	19944.275
1821.6242	19923.775
1824.79776	19869.075
1827.96924	19873.675
1831.13864	19837.375
1834.30597	19868.375
1837.47122	19874.775
1840.6344	19855.975
1843.7955	19891.975
1846.95454	19888.375
1850.11151	19850.175
1853.26642	19798.675
1856.41926	19842.475
1859.57004	19817.375
1862.71876	19749.475
1865.86542	19718.475
1869.01003	19677.375
1872.15258	19651.375
1875.29308	19638.875
1878.43152	19622.875
1881.56792	19611.775
1884.70227	19574.375
1887.83457	19538.875
1890.96482	19552.775
1894.09304	19514.275
1897.21921	19475.675
1900.34335	19452.575
1903.46544	19431.675
1906.58551	19417.075
1909.70353	19348.475
1912.81953	19320.675
1915.93349	19308.575
1919.04543	19273.675
1922.15534	19210.675
1925.26322	19147.075
1928.36908	19155.875
1931.47292	19115.775
1934.57473	19066.675
1937.67453	19030.375
1940.77232	18970.575
1943.86808	18894.575
1946.96184	18827.575
1950.05358	18817.975
1953.14331	18746.975
1956.23103	18711.975
1959.31675	18633.675
1962.40046	18539.675
1965.48217	18506.675
1968.56188	18485.175
1971.63959	18404.375
1974.7153	18339.775
1977.78901	18292.275
1980.86073	18242.375
1983.93046	18140.375
1986.99819	18151.875
1990.06394	18117.075
1993.1277	18059.875
1996.18947	18004.275
1999.24925	17901.475
2002.30706	17881.175
2005.36288	17821.175
2008.41672	17738.875
2011.46859	17707.475
2014.51848	17715.275
2017.56639	17648.475
2020.61233	17602.875
2023.6563	17570.375
2026.6983	17532.775
2029.73833	17520.875
2032.7764	17463.475
2035.8125	17434.075
2038.84664	17381.375
2041.87881	17341.875
2044.90903	17340.975
2047.93729	17282.875
2050.96359	17294.875
2053.98794	17257.875
2057.01034	17221.775
2060.03078	17233.075
2063.04927	17184.775
2066.06582	17213.675
2069.08042	17174.375
2072.09307	17182.675
2075.10378	17140.575
2078.11255	17137.475
2081.11938	17101.775
2084.12426	17080.375
2087.12722	17137.975
2090.12824	17095.875
2093.12732	17053.875
2096.12447	17078.075
2099.11969	17084.775
2102.11299	17087.975
2105.10435	17090.575
2108.09379	17097.175
2111.08131	17102.575
2114.0669	17095.975
2117.05057	17133.775
2120.03233	17125.375
2123.01216	17147.875
2125.99008	17123.975
2128.96609	17122.675
2131.94018	17207.375
2134.91236	17202.775
2137.88263	17161.375
2140.851	17168.875
2143.81746	17190.775
2146.78201	17148.675
2149.74466	17199.375
2152.7054	17140.275
2155.66425	17156.775
2158.6212	17168.475
2161.57625	17150.275
2164.52941	17116.975
2167.48067	17136.475
2170.43004	17124.775
2173.37752	17127.975
2176.32311	17111.075
2179.26681	17101.675
2182.20863	17118.075
2185.14856	17100.075
2188.08661	17096.375
2191.02278	17121.275
2193.95707	17129.775
2196.88948	17084.475
2199.82001	17087.875
2202.74867	17065.975
2205.67545	16996.075
2208.60037	16989.275
2211.52341	16983.175
2214.44458	16961.575
2217.36388	16967.975
2220.28132	16882.375
2223.1969	16845.075
2226.11061	16833.475
2229.02246	16825.275
2231.93245	16805.275
2234.84058	16769.975
2237.74686	16765.775
2240.65128	16772.275
2243.55385	16713.275
2246.45456	16687.275
2249.35343	16639.175
2252.25044	16651.675
2255.14561	16600.675
2258.03893	16581.775
2260.93041	16513.475
2263.82004	16455.675
2266.70783	16399.675
2269.59378	16336.275
2272.4779	16275.775
2275.36017	16257.775
2278.24061	16285.075
2281.11922	16249.375
2283.996	16216.975
2286.87094	16188.075
2289.74405	16185.475
2292.61534	16168.075
2295.4848	16165.175
2298.35243	16170.175
2301.21824	16148.475
2304.08223	16138.175
2306.94439	16130.675
2309.80474	16143.675
2312.66327	16151.075
2315.51999	16111.775
2318.37489	16090.575
2321.22797	16084.475
2324.07925	16044.175
2326.92871	16020.975
2329.77637	16016.675
2332.62222	16004.475
2335.46626	16006.275
2338.3085	15979.475
2341.14893	16009.875
2343.98756	15991.775
2346.8244	15982.175
2349.65943	15978.975
2352.49267	15934.475
2355.32411	15967.975
2358.15376	15965.375
2360.98161	15930.375
2363.80768	15956.675
2366.63195	15949.875
2369.45444	15912.375
2372.27514	15882.175
2375.09405	15841.575
2377.91118	15853.875
2380.72652	15793.375
2383.54009	15755.075
2386.35187	15756.875
2389.16188	15719.975
2391.97011	15653.175
2394.77657	15641.975
2397.58125	15625.375
2400.38416	15591.175
2403.18529	15584.475
2405.98466	15580.575
2408.78226	15555.175
2411.57809	15531.175
2414.37216	15533.275
2417.16446	15544.175
2419.955	15489.075
2422.74378	15474.675
2425.5308	15470.575
2428.31606	15455.075
2431.09956	15475.675
2433.88131	15450.275
2436.6613	15466.675
2439.43954	15444.275
2442.21603	15457.675
2444.99077	15432.975
2447.76377	15404.875
2450.53501	15398.375
2453.30451	15392.975
2456.07226	15383.375
2458.83827	15427.875
2461.60254	15395.575
2464.36507	15360.475
2467.12586	15385.475
2469.88492	15371.675
2472.64224	15371.775
2475.39782	15417.175
2478.15167	15427.675
2480.90379	15430.675
2483.65417	15439.775
2486.40283	15443.775
2489.14976	15411.275
2491.89497	15425.075
2494.63845	15458.375
2497.3802	15413.575
2500.12024	15406.375
2502.85855	15384.375
2505.59514	15372.675
2508.33002	15353.875
2511.06318	15384.975
2513.79462	15328.775
2516.52435	15338.975
2519.25237	15367.475
2521.97867	15310.675
2524.70327	15344.175
2527.42616	15317.575
2530.14734	15321.875
2532.86681	15299.875
2535.58458	15296.775
2538.30065	15272.675
2541.01501	15264.675
2543.72768	15265.275
2546.43864	15279.175
2549.14791	15271.775
2551.85548	15256.575
2554.56136	15239.375
2557.26554	15223.775
2559.96803	15200.175
2562.66883	15209.575
2565.36794	15146.875
2568.06536	15151.075
2570.7611	15130.275
2573.45514	15094.475
2576.14751	15126.275
2578.83819	15111.175
2581.52719	15120.075
2584.21451	15076.775
2586.90015	15068.175
2589.58411	15055.375
2592.2664	15063.475
2594.94701	15077.975
2597.62594	15035.375
2600.30321	15022.175
2602.9788	15035.775
2605.65273	15038.975
2608.32498	15037.475
2610.99557	15026.675
2613.66449	15071.275
2616.33175	15065.375
2618.99734	15031.275
2621.66128	15042.575
2624.32355	15020.575
2626.98416	14986.675
2629.64311	14972.975
2632.30041	14932.375
2634.95605	14930.475
2637.61004	14938.375
2640.26238	14911.275
2642.91306	14944.175
2645.56209	14943.975
2648.20948	14968.075
2650.85521	14943.475
2653.4993	14978.675
2656.14175	14966.375
2658.78255	14974.175
2661.42171	14987.875
2664.05923	14990.275
2666.6951	15062.675
2669.32934	15042.275
2671.96194	15025.975
2674.59291	15044.675
2677.22224	14998.375
2679.84993	15035.375
2682.476	15010.875
2685.10043	14998.075
2687.72324	14992.875
2690.34441	15004.075
2692.96396	14997.775
2695.58188	14991.275
2698.19818	15018.575
2700.81285	15009.875
2703.4259	15039.875
2706.03733	15060.875
2708.64714	15034.875
2711.25533	15069.975
2713.86191	15057.275
2716.46687	15097.275
2719.07021	15059.475
2721.67194	15106.975
2724.27206	15113.775
2726.87057	15108.375
2729.46747	15111.475
2732.06276	15133.675
2734.65644	15118.475
2737.24852	15115.675
2739.83899	15131.775
2742.42786	15127.075
2745.01513	15108.075
2747.60079	15087.575
2750.18486	15086.175
2752.76733	15098.175
2755.3482	15074.575
2757.92747	15070.075
2760.50515	15029.475
2763.08123	15067.575
2765.65573	15016.575
2768.22863	15044.775
2770.79994	15059.075
2773.36967	14991.275
2775.9378	15041.675
2778.50435	15039.575
2781.06932	15035.475
2783.6327	15060.375
2786.1945	15017.875
2788.75471	15017.475
2791.31335	14972.075
2793.87041	14971.575
2796.42589	14960.675
2798.97979	14928.275
2801.53212	14931.775
2804.08288	14915.575
2806.63206	14876.875
2809.17967	14857.075
2811.72571	14828.875
2814.27018	14795.175
2816.81308	14732.475
2819.35442	14705.875
2821.89419	14672.375
2824.43239	14675.775
2826.96904	14620.175
2829.50412	14614.275
2832.03763	14631.575
2834.56959	14616.575
2837.1	14588.975
2839.62884	14604.975
2842.15613	14598.975
2844.68186	14612.875
2847.20604	14562.775
2849.72867	14607.275
2852.24974	14594.275
2854.76927	14574.775
2857.28724	14525.675
2859.80367	14519.475
2862.31855	14500.075
2864.83189	14475.575
2867.34368	14447.475
2869.85393	14436.275
2872.36264	14433.075
2874.8698	14426.375
2877.37543	14440.975
2879.87952	14398.775
2882.38207	14422.575
2884.88308	14419.975
2887.38256	14434.175
2889.88051	14418.575
2892.37692	14420.975
2894.8718	14431.275
2897.36515	14436.975
2899.85698	14492.975
2902.34727	14501.375
2904.83604	14513.375
2907.32328	14539.675
2909.809	14542.675
2912.29319	14500.775
2914.77587	14479.775
2917.25702	14473.775
2919.73665	14459.575
2922.21476	14475.475
2924.69136	14487.375
2927.16644	14473.675
2929.64	14464.575
2932.11205	14441.375
2934.58258	14407.075
2937.05161	14433.275
2939.51912	14438.175
2941.98513	14404.775
2944.44962	14383.975
2946.91261	14334.875
2949.37409	14368.375
2951.83407	14342.975
2954.29254	14301.375
2956.74951	14311.975
2959.20498	14306.675
2961.65895	14288.975
2964.11142	14296.575
2966.56239	14258.175
2969.01186	14282.775
2971.45984	14237.375
2973.90632	14242.575
2976.35131	14223.475
2978.7948	14170.275
2981.23681	14102.975
2983.67732	14068.775
2986.11635	14028.275
2988.55388	13997.775
2990.98993	13976.775
2993.4245	13953.575
2995.85758	13899.275
2998.28917	13872.575
3000.71928	13863.175
3003.14791	13825.175
3005.57506	13823.475
3008.00073	13771.075
3010.42493	13606.875
3012.84764	13693.875
3015.26888	13654.775
3017.68865	13620.275
3020.10694	13612.475
3022.52376	13570.375
3024.9391	13555.175
3027.35298	13560.775
3029.76539	13546.875
3032.17632	13533.875
3034.5858	13525.875
3036.9938	13524.375
3039.40034	13517.575
3041.80542	13521.875
3044.20903	13472.075
3046.61118	13483.275
3049.01187	13463.375
3051.4111	13429.875
3053.80888	13410.375
3056.20519	13388.275
3058.60005	13357.975
3060.99345	13310.875
3063.3854	13263.675
3065.7759	13224.575
3068.16494	13202.075
3070.55254	13156.575
3072.93868	13128.475
3075.32338	13037.275
3077.70662	13027.875
3080.08842	13003.375
3082.46878	12993.875
3084.84769	12991.875
3087.22515	12967.575
3089.60118	12981.875
3091.97576	12960.175
3094.3489	12926.175
3096.72061	12939.575
3099.09087	12942.475
3101.4597	12902.675
3103.82709	12910.975
3106.19305	12867.875
3108.55757	12882.575
3110.92066	12824.775
3113.28232	12767.075
3115.64255	12736.075
3118.00134	12728.775
3120.35871	12708.775
3122.71466	12678.875
3125.06917	12637.575
3127.42226	12648.375
