Data from AgNP_FTO_APTES_UA_10uM_CRN_500uM_R6G_10uM_NaF_0.1M_Addition_RamanShift__26__19-10-40-961.txt Node

Date: Thu Feb 10 19:10:40 GMT 2022
User: TCL
Spectrometer: QEP01345
Trigger mode: 4
Integration Time (sec): 7.000000E0
Scans to average: 10
Electric dark correction enabled: true
Nonlinearity correction enabled: false
Boxcar width: 0
XAxis mode: Raman Shifts
Number of Pixels in Spectrum: 1044
>>>>>Begin Spectral Data<<<<<
46.04893	-0.725
50.45542	0.075
54.85868	-1.425
59.25871	-0.125
63.6555	69.575
68.04907	70.175
72.43941	74.475
76.82654	74.975
81.21044	79.575
85.59113	80.075
89.96862	83.575
94.34289	85.775
98.71396	87.675
103.08183	94.275
107.4465	97.575
111.80798	96.175
116.16626	101.675
120.52136	101.375
124.87327	107.875
129.222	111.575
133.56755	122.375
137.90993	128.675
142.24913	141.175
146.58517	161.175
150.91804	189.775
155.24774	225.475
159.57429	278.875
163.89768	355.175
168.21792	474.475
172.53501	654.375
176.84895	919.175
181.15975	1288.375
185.46741	1804.375
189.77193	2503.575
194.07331	3354.875
198.37157	4344.475
202.6667	5375.775
206.9587	6411.675
211.24758	7395.375
215.53334	8438.075
219.81599	9557.475
224.09553	10747.075
228.37195	12109.375
232.64527	13614.175
236.91549	15116.375
241.18261	16674.375
245.44663	18050.675
249.70755	19265.075
253.96539	20301.175
258.22014	21247.675
262.4718	22016.675
266.72039	22620.575
270.96589	22934.275
275.20832	23022.675
279.44768	22910.375
283.68397	22670.875
287.91719	22409.675
292.14735	22343.575
296.37445	22455.275
300.59849	22762.575
304.81948	23168.475
309.03742	23363.375
313.25231	23108.175
317.46415	22379.275
321.67296	21338.175
325.87872	20546.275
330.08145	20170.975
334.28114	20157.175
338.47781	20369.775
342.67145	20750.175
346.86207	21313.775
351.04966	22048.475
355.23424	22925.975
359.4158	23594.475
363.59435	23980.375
367.76989	24267.675
371.94243	24365.975
376.11196	24437.875
380.27849	24499.975
384.44203	24472.075
388.60257	24399.375
392.76012	24363.575
396.91468	24564.475
401.06626	24939.675
405.21485	25307.675
409.36047	25136.375
413.50311	24463.675
417.64277	23811.175
421.77947	23486.775
425.9132	23404.375
430.04396	23548.275
434.17176	23713.475
438.2966	23996.475
442.41849	24506.575
446.53742	25184.175
450.6534	25827.675
454.76644	26334.475
458.87653	26459.275
462.98368	26328.175
467.08789	26056.875
471.18916	25700.775
475.2875	25302.475
479.38291	25131.675
483.4754	24845.575
487.56496	24532.675
491.6516	24153.875
495.73531	23823.875
499.81612	23715.775
503.89401	23785.275
507.96899	23941.275
512.04106	24055.775
516.11023	24246.175
520.1765	24338.175
524.23987	24275.875
528.30034	23983.175
532.35792	23747.875
536.41261	23471.075
540.46441	23246.575
544.51333	23168.175
548.55936	23289.275
552.60252	23698.875
556.64279	24170.875
560.6802	24539.275
564.71473	24798.375
568.7464	25385.775
572.7752	25951.775
576.80114	25680.675
580.82422	25155.175
584.84444	24852.575
588.86181	24922.775
592.87633	25231.575
596.888	25510.975
600.89682	25714.875
604.9028	26972.375
608.90594	30992.275
612.90624	36438.575
616.90371	35419.275
620.89834	27934.475
624.89015	24381.375
628.87913	23742.275
632.86528	23764.575
636.84862	23868.775
640.82913	23630.475
644.80683	23001.375
648.78172	22554.075
652.75379	22545.075
656.72306	22993.875
660.68952	23611.875
664.65319	23534.375
668.61405	22956.975
672.57211	22680.175
676.52738	22691.875
680.47986	22744.575
684.42955	22682.475
688.37646	22614.075
692.32058	22636.775
696.26192	22809.575
700.20048	23032.375
704.13626	23140.075
708.06928	23074.475
711.99952	22951.475
715.927	22862.575
719.85171	22884.575
723.77365	22887.175
727.69284	22786.475
731.60928	22615.575
735.52295	22568.475
739.43388	22654.475
743.34206	22695.275
747.24749	22738.675
751.15017	22843.275
755.05012	23136.775
758.94733	23829.975
762.8418	25149.375
766.73354	27525.875
770.62254	30112.675
774.50882	31402.375
778.39237	30272.475
782.27321	27495.275
786.15132	24971.675
790.02671	23474.575
793.89938	22808.675
797.76935	22545.275
801.6366	22415.575
805.50115	22371.575
809.36299	22310.575
813.22213	22227.175
817.07857	22203.075
820.93231	22223.975
824.78336	22243.475
828.63172	22290.075
832.47738	22294.675
836.32036	22295.375
840.16066	22237.375
843.99827	22196.975
847.8332	22172.775
851.66546	22140.475
855.49504	22103.175
859.32195	22132.975
863.1462	22071.775
866.96777	22010.575
870.78668	21985.475
874.60293	21995.475
878.41652	21996.375
882.22745	22054.775
886.03573	22127.775
889.84136	22089.175
893.64433	21999.075
897.44466	21965.075
901.24235	21899.475
905.0374	21872.075
908.8298	21752.675
912.61957	21776.475
916.40671	21843.275
920.19121	21975.275
923.97308	22118.175
927.75233	22214.975
931.52895	22270.575
935.30295	22167.875
939.07433	21815.275
942.84309	21451.175
946.60924	21240.175
950.37278	21126.475
954.13371	21044.075
957.89203	20984.275
961.64774	20946.875
965.40086	20883.875
969.15137	20821.775
972.89929	20721.875
976.64461	20716.775
980.38733	20682.775
984.12747	20726.075
987.86502	20851.275
991.59999	20981.475
995.33237	21279.175
999.06217	21706.775
1002.78939	22212.275
1006.51404	22572.975
1010.23611	22812.675
1013.95561	23032.475
1017.67255	23010.575
1021.38692	22754.875
1025.09872	22568.075
1028.80796	22559.775
1032.51465	22790.475
1036.21877	23105.775
1039.92035	23103.175
1043.61937	22975.475
1047.31584	22672.075
1051.00976	22349.675
1054.70114	22195.775
1058.38998	22197.475
1062.07627	22265.475
1065.76003	22318.175
1069.44126	22359.975
1073.11995	22431.675
1076.79611	22578.175
1080.46974	22764.775
1084.14085	23059.275
1087.80943	23400.775
1091.47549	23589.475
1095.13903	23498.375
1098.80005	23053.275
1102.45857	22694.675
1106.11456	22511.075
1109.76805	22600.975
1113.41903	22890.175
1117.06751	23282.775
1120.71348	23764.375
1124.35696	24261.375
1127.99793	24654.375
1131.63641	24691.575
1135.2724	24152.275
1138.90589	23494.375
1142.5369	23167.875
1146.16542	23005.575
1149.79145	22913.875
1153.415	22967.575
1157.03607	23132.175
1160.65467	23498.275
1164.27079	24165.475
1167.88443	25104.475
1171.49561	26499.875
1175.10432	28565.775
1178.71056	31311.375
1182.31434	33742.375
1185.91565	34721.775
1189.51451	34428.575
1193.11091	33157.975
1196.70485	31523.275
1200.29634	30196.175
1203.88538	29143.975
1207.47197	28059.175
1211.05612	27103.475
1214.63782	26564.675
1218.21708	26389.475
1221.79391	26340.775
1225.36829	26234.475
1228.94024	25982.475
1232.50976	25631.975
1236.07685	25465.275
1239.6415	25503.675
1243.20374	25671.975
1246.76355	25797.775
1250.32093	26136.875
1253.8759	26591.275
1257.42845	27262.975
1260.97859	27820.275
1264.52631	28365.475
1268.07163	28961.875
1271.61453	29515.375
1275.15503	30031.675
1278.69312	30430.575
1282.22882	30700.275
1285.76211	31153.075
1289.29301	31782.975
1292.82151	32640.875
1296.34761	33751.875
1299.87133	35251.175
1303.39266	37432.075
1306.9116	40352.675
1310.42815	43522.875
1313.94233	45717.475
1317.45412	45554.575
1320.96354	43883.175
1324.47058	41900.775
1327.97525	40110.875
1331.47754	38948.175
1334.97747	38612.075
1338.47502	38961.575
1341.97022	39613.075
1345.46305	40051.575
1348.95352	40289.975
1352.44163	40991.275
1355.92738	42513.175
1359.41078	45618.575
1362.89183	49008.975
1366.37053	48076.175
1369.84688	42636.175
1373.32088	37040.975
1376.79254	33515.675
1380.26186	31970.075
1383.72883	31391.775
1387.19347	31123.975
1390.65578	30782.275
1394.11575	30621.075
1397.57339	30873.375
1401.0287	31423.275
1404.48168	32089.875
1407.93234	32576.875
1411.38068	32732.375
1414.82669	32396.475
1418.27039	31510.875
1421.71177	30416.075
1425.15083	29353.675
1428.58758	28757.175
1432.02203	28710.275
1435.45416	28969.475
1438.88399	29263.875
1442.31151	29558.175
1445.73673	29815.075
1449.15965	30212.175
1452.58027	30477.175
1455.9986	30604.475
1459.41463	30733.675
1462.82837	31025.175
1466.23982	31481.175
1469.64898	32061.375
1473.05586	32312.675
1476.46045	32325.475
1479.86276	32330.875
1483.26279	32436.475
1486.66054	32620.675
1490.05602	32973.075
1493.44922	33375.375
1496.84016	34006.775
1500.22882	35046.275
1503.61521	36844.875
1506.99934	39344.175
1510.38121	41960.575
1513.76081	43386.575
1517.13816	42231.375
1520.51324	39065.975
1523.88607	35782.875
1527.25665	33513.375
1530.62498	32294.475
1533.99105	31731.075
1537.35488	31399.775
1540.71647	31254.375
1544.07581	31132.775
1547.4329	30994.875
1550.78776	30720.875
1554.14038	30617.475
1557.49077	30618.375
1560.83892	30796.575
1564.18484	31051.275
1567.52853	31268.675
1570.86999	31527.875
1574.20922	31748.675
1577.54624	31751.775
1580.88103	31218.175
1584.2136	30551.875
1587.54395	30542.575
1590.87208	31444.775
1594.19801	33107.475
1597.52172	35057.175
1600.84321	36068.075
1604.16251	35206.875
1607.47959	33103.375
1610.79447	30647.375
1614.10715	28307.075
1617.41763	26390.175
1620.7259	25116.775
1624.03199	24411.475
1627.33587	24352.375
1630.63757	24819.675
1633.93707	25855.375
1637.23439	27475.575
1640.52951	29721.775
1643.82246	32443.975
1647.11321	35173.875
1650.40179	36699.875
1653.68819	35487.775
1656.97241	31726.075
1660.25446	27643.675
1663.53433	24596.275
1666.81203	22687.075
1670.08756	21517.175
1673.36092	20823.675
1676.63211	20348.475
1679.90115	20028.575
1683.16801	19786.475
1686.43272	19614.275
1689.69527	19495.175
1692.95567	19389.875
1696.2139	19322.475
1699.46999	19273.075
1702.72392	19241.175
1705.97571	19192.275
1709.22535	19132.575
1712.47284	19128.375
1715.71819	19131.675
1718.96139	19112.175
1722.20246	19060.175
1725.44139	18978.375
1728.67818	18887.875
1731.91284	18797.275
1735.14537	18696.775
1738.37576	18616.575
1741.60403	18577.575
1744.83017	18543.375
1748.05418	18492.375
1751.27607	18453.975
1754.49584	18449.875
1757.71349	18429.375
1760.92903	18402.175
1764.14244	18414.775
1767.35375	18414.375
1770.56294	18380.775
1773.77002	18292.775
1776.97499	18283.475
1780.17785	18213.775
1783.37861	18194.075
1786.57727	18193.575
1789.77382	18132.575
1792.96828	18125.175
1796.16064	18106.975
1799.3509	18083.575
1802.53907	18035.575
1805.72514	17993.175
1808.90913	17960.075
1812.09102	17948.375
1815.27083	17899.675
1818.44856	17844.075
1821.6242	17817.675
1824.79776	17776.375
1827.96924	17774.775
1831.13864	17742.275
1834.30597	17725.875
1837.47122	17737.375
1840.6344	17703.275
1843.7955	17710.875
1846.95454	17660.075
1850.11151	17664.275
1853.26642	17697.575
1856.41926	17666.475
1859.57004	17680.275
1862.71876	17628.175
1865.86542	17651.575
1869.01003	17635.875
1872.15258	17624.575
1875.29308	17662.375
1878.43152	17660.775
1881.56792	17625.075
1884.70227	17584.375
1887.83457	17589.675
1890.96482	17572.375
1894.09304	17546.875
1897.21921	17556.275
1900.34335	17543.775
1903.46544	17550.975
1906.58551	17523.875
1909.70353	17518.975
1912.81953	17464.975
1915.93349	17486.175
1919.04543	17431.475
1922.15534	17394.575
1925.26322	17372.275
1928.36908	17370.075
1931.47292	17335.375
1934.57473	17273.875
1937.67453	17240.675
1940.77232	17171.875
1943.86808	17116.775
1946.96184	17098.575
1950.05358	17031.975
1953.14331	16973.775
1956.23103	16919.975
1959.31675	16903.175
1962.40046	16849.475
1965.48217	16807.175
1968.56188	16761.075
1971.63959	16683.275
1974.7153	16662.575
1977.78901	16593.075
1980.86073	16536.475
1983.93046	16480.375
1986.99819	16422.075
1990.06394	16409.575
1993.1277	16368.875
1996.18947	16322.575
1999.24925	16228.275
2002.30706	16190.475
2005.36288	16158.075
2008.41672	16088.275
2011.46859	16043.475
2014.51848	16036.575
2017.56639	16022.475
2020.61233	15993.975
2023.6563	15897.775
2026.6983	15877.375
2029.73833	15824.675
2032.7764	15831.275
2035.8125	15757.275
2038.84664	15738.675
2041.87881	15689.575
2044.90903	15671.775
2047.93729	15623.575
2050.96359	15623.975
2053.98794	15614.475
2057.01034	15622.675
2060.03078	15585.075
2063.04927	15551.775
2066.06582	15548.675
2069.08042	15541.775
2072.09307	15520.675
2075.10378	15524.075
2078.11255	15479.975
2081.11938	15497.675
2084.12426	15465.075
2087.12722	15481.375
2090.12824	15434.375
2093.12732	15451.575
2096.12447	15456.275
2099.11969	15399.175
2102.11299	15427.775
2105.10435	15434.875
2108.09379	15430.575
2111.08131	15413.275
2114.0669	15451.975
2117.05057	15446.475
2120.03233	15504.575
2123.01216	15469.475
2125.99008	15473.675
2128.96609	15522.075
2131.94018	15504.975
2134.91236	15493.175
2137.88263	15512.675
2140.851	15513.275
2143.81746	15512.675
2146.78201	15524.275
2149.74466	15525.375
2152.7054	15536.975
2155.66425	15527.775
2158.6212	15503.975
2161.57625	15482.675
2164.52941	15496.275
2167.48067	15488.375
2170.43004	15486.875
2173.37752	15482.775
2176.32311	15486.575
2179.26681	15453.275
2182.20863	15475.475
2185.14856	15479.675
2188.08661	15476.275
2191.02278	15486.075
2193.95707	15469.475
2196.88948	15478.875
2199.82001	15452.475
2202.74867	15448.475
2205.67545	15414.375
2208.60037	15395.675
2211.52341	15378.275
2214.44458	15361.475
2217.36388	15352.675
2220.28132	15347.575
2223.1969	15279.975
2226.11061	15267.975
2229.02246	15217.575
2231.93245	15205.975
2234.84058	15132.675
2237.74686	15123.375
2240.65128	15125.175
2243.55385	15077.175
2246.45456	15070.175
2249.35343	15016.775
2252.25044	15025.975
2255.14561	15008.775
2258.03893	15008.475
2260.93041	14971.775
2263.82004	14931.875
2266.70783	14904.575
2269.59378	14859.775
2272.4779	14855.975
2275.36017	14756.075
2278.24061	14749.675
2281.11922	14717.475
2283.996	14712.075
2286.87094	14686.775
2289.74405	14682.675
2292.61534	14654.075
2295.4848	14668.975
2298.35243	14648.875
2301.21824	14615.675
2304.08223	14637.975
2306.94439	14626.475
2309.80474	14614.275
2312.66327	14611.775
2315.51999	14600.675
2318.37489	14617.375
2321.22797	14568.775
2324.07925	14577.575
2326.92871	14543.175
2329.77637	14519.175
2332.62222	14485.175
2335.46626	14466.675
2338.3085	14466.875
2341.14893	14479.175
2343.98756	14477.075
2346.8244	14494.575
2349.65943	14492.475
2352.49267	14464.975
2355.32411	14479.375
2358.15376	14491.075
2360.98161	14468.075
2363.80768	14475.175
2366.63195	14469.575
2369.45444	14401.775
2372.27514	14391.375
2375.09405	14402.075
2377.91118	14345.375
2380.72652	14308.475
2383.54009	14260.075
2386.35187	14205.275
2389.16188	14144.275
2391.97011	14131.975
2394.77657	14126.375
2397.58125	14111.775
2400.38416	14054.775
2403.18529	14036.975
2405.98466	14048.675
2408.78226	14006.875
2411.57809	13998.775
2414.37216	13965.075
2417.16446	13964.175
2419.955	13910.675
2422.74378	13919.475
2425.5308	13873.775
2428.31606	13891.975
2431.09956	13892.075
2433.88131	13859.875
2436.6613	13853.375
2439.43954	13849.575
2442.21603	13845.575
2444.99077	13825.275
2447.76377	13829.975
2450.53501	13818.975
2453.30451	13803.975
2456.07226	13785.075
2458.83827	13796.175
2461.60254	13781.175
2464.36507	13797.075
2467.12586	13758.375
2469.88492	13733.475
2472.64224	13735.275
2475.39782	13774.075
2478.15167	13802.575
2480.90379	13759.375
2483.65417	13803.975
2486.40283	13780.875
2489.14976	13788.275
2491.89497	13776.375
2494.63845	13804.275
2497.3802	13781.175
2500.12024	13763.275
2502.85855	13747.375
2505.59514	13714.875
2508.33002	13724.175
2511.06318	13684.675
2513.79462	13673.875
2516.52435	13630.375
2519.25237	13587.575
2521.97867	13552.975
2524.70327	13609.775
2527.42616	13549.875
2530.14734	13556.975
2532.86681	13508.875
2535.58458	13539.075
2538.30065	13505.075
2541.01501	13517.475
2543.72768	13479.875
2546.43864	13479.675
2549.14791	13471.875
2551.85548	13450.275
2554.56136	13428.475
2557.26554	13415.375
2559.96803	13387.875
2562.66883	13347.775
2565.36794	13334.375
2568.06536	13312.875
2570.7611	13303.575
2573.45514	13267.375
2576.14751	13246.875
2578.83819	13239.975
2581.52719	13237.275
2584.21451	13252.975
2586.90015	13234.175
2589.58411	13189.775
2592.2664	13161.575
2594.94701	13161.175
2597.62594	13162.175
2600.30321	13120.075
2602.9788	13120.475
2605.65273	13119.475
2608.32498	13103.875
2610.99557	13096.675
2613.66449	13128.975
2616.33175	13111.375
2618.99734	13129.675
2621.66128	13086.175
2624.32355	13104.775
2626.98416	13051.575
2629.64311	13044.175
2632.30041	13046.875
2634.95605	13020.375
2637.61004	13021.575
2640.26238	13007.675
2642.91306	12967.675
2645.56209	12979.875
2648.20948	12962.775
2650.85521	12927.475
2653.4993	12914.475
2656.14175	12937.975
2658.78255	12920.875
2661.42171	12938.275
2664.05923	12986.175
2666.6951	12966.575
2669.32934	12990.675
2671.96194	12983.075
2674.59291	12967.175
2677.22224	12984.475
2679.84993	13009.675
2682.476	12971.375
2685.10043	12975.475
2687.72324	12950.475
2690.34441	12950.775
2692.96396	12947.975
2695.58188	12923.675
2698.19818	12943.675
2700.81285	12944.975
2703.4259	12922.575
2706.03733	12980.975
2708.64714	12936.775
2711.25533	12932.775
2713.86191	12948.075
2716.46687	12950.175
2719.07021	12957.375
2721.67194	13007.575
2724.27206	12925.675
2726.87057	12950.175
2729.46747	12961.075
2732.06276	12983.175
2734.65644	12973.175
2737.24852	12969.075
2739.83899	12943.575
2742.42786	12951.575
2745.01513	12916.075
2747.60079	12913.775
2750.18486	12890.975
2752.76733	12886.575
2755.3482	12852.975
2757.92747	12858.975
2760.50515	12787.975
2763.08123	12802.075
2765.65573	12788.575
2768.22863	12820.075
2770.79994	12804.475
2773.36967	12788.775
2775.9378	12770.875
2778.50435	12771.775
2781.06932	12780.275
2783.6327	12749.475
2786.1945	12773.475
2788.75471	12747.475
2791.31335	12705.575
2793.87041	12716.975
2796.42589	12706.775
2798.97979	12694.575
2801.53212	12657.175
2804.08288	12636.275
2806.63206	12625.775
2809.17967	12599.075
2811.72571	12578.075
2814.27018	12556.775
2816.81308	12530.275
2819.35442	12507.175
2821.89419	12488.775
2824.43239	12469.275
2826.96904	12455.775
2829.50412	12440.375
2832.03763	12433.775
2834.56959	12464.775
2837.1	12441.575
2839.62884	12455.875
2842.15613	12447.975
2844.68186	12483.475
2847.20604	12491.775
2849.72867	12515.275
2852.24974	12507.175
2854.76927	12479.475
2857.28724	12429.275
2859.80367	12435.575
2862.31855	12392.775
2864.83189	12413.975
2867.34368	12396.075
2869.85393	12367.875
2872.36264	12372.075
2874.8698	12377.475
2877.37543	12363.375
2879.87952	12347.275
2882.38207	12351.475
2884.88308	12339.575
2887.38256	12346.075
2889.88051	12326.675
2892.37692	12331.575
2894.8718	12349.975
2897.36515	12336.375
2899.85698	12388.775
2902.34727	12385.575
2904.83604	12389.975
2907.32328	12415.075
2909.809	12408.975
2912.29319	12434.475
2914.77587	12408.675
2917.25702	12359.175
2919.73665	12387.975
2922.21476	12372.775
2924.69136	12362.075
2927.16644	12372.575
2929.64	12354.975
2932.11205	12326.575
2934.58258	12301.575
2937.05161	12299.575
2939.51912	12274.775
2941.98513	12233.675
2944.44962	12241.575
2946.91261	12167.775
2949.37409	12164.975
2951.83407	12206.175
2954.29254	12164.375
2956.74951	12140.675
2959.20498	12130.375
2961.65895	12114.275
2964.11142	12123.475
2966.56239	12104.575
2969.01186	12101.275
2971.45984	12071.475
2973.90632	12020.275
2976.35131	12006.475
2978.7948	11961.975
2981.23681	11945.475
2983.67732	11935.875
2986.11635	11912.775
2988.55388	11873.575
2990.98993	11882.675
2993.4245	11802.175
2995.85758	11803.475
2998.28917	11762.775
3000.71928	11729.975
3003.14791	11714.975
3005.57506	11731.675
3008.00073	11702.675
3010.42493	11671.975
3012.84764	11653.975
3015.26888	11622.475
3017.68865	11586.675
3020.10694	11599.575
3022.52376	11573.975
3024.9391	11582.675
3027.35298	11538.375
3029.76539	11528.275
3032.17632	11531.675
3034.5858	11506.875
3036.9938	11511.775
3039.40034	11486.575
3041.80542	11482.175
3044.20903	11456.375
3046.61118	11438.175
3049.01187	11431.575
3051.4111	11428.475
3053.80888	11382.875
3056.20519	11352.275
3058.60005	11340.475
3060.99345	11302.275
3063.3854	11295.275
3065.7759	11237.775
3068.16494	11231.275
3070.55254	11191.375
3072.93868	11166.175
3075.32338	11120.975
3077.70662	11082.375
3080.08842	11076.375
3082.46878	11078.875
3084.84769	11040.775
3087.22515	11037.475
3089.60118	11023.975
3091.97576	11040.275
3094.3489	11024.375
3096.72061	11036.875
3099.09087	11035.875
3101.4597	11007.575
3103.82709	10998.675
3106.19305	10974.375
3108.55757	10965.975
3110.92066	10948.375
3113.28232	10952.975
3115.64255	10908.175
3118.00134	10914.775
3120.35871	10911.275
3122.71466	10874.475
3125.06917	10834.275
3127.42226	10803.075
