Data from AgNP_FTO_APTES_UA_10uM_CRN_0uM_R6G_10uM_NaF_0.1M_Addition_RamanShift__6__11-15-50-359.txt Node

Date: Thu Feb 10 11:15:50 GMT 2022
User: TCL
Spectrometer: QEP01345
Trigger mode: 4
Integration Time (sec): 7.000000E0
Scans to average: 10
Electric dark correction enabled: true
Nonlinearity correction enabled: false
Boxcar width: 0
XAxis mode: Raman Shifts
Number of Pixels in Spectrum: 1044
>>>>>Begin Spectral Data<<<<<
46.04893	-1.225
50.45542	-0.225
54.85868	-1.225
59.25871	-1.125
63.6555	83.475
68.04907	89.475
72.43941	89.575
76.82654	92.475
81.21044	98.275
85.59113	98.575
89.96862	104.575
94.34289	107.075
98.71396	109.575
103.08183	114.875
107.4465	118.575
111.80798	119.475
116.16626	126.875
120.52136	132.775
124.87327	138.975
129.222	147.475
133.56755	159.375
137.90993	175.675
142.24913	190.175
146.58517	220.275
150.91804	262.875
155.24774	321.775
159.57429	409.875
163.89768	533.575
168.21792	707.075
172.53501	976.275
176.84895	1368.175
181.15975	1937.675
185.46741	2735.075
189.77193	3798.475
194.07331	5088.575
198.37157	6605.475
202.6667	8194.675
206.9587	9782.275
211.24758	11330.375
215.53334	12886.275
219.81599	14554.775
224.09553	16375.675
228.37195	18378.875
232.64527	20604.175
236.91549	23042.575
241.18261	25523.175
245.44663	27917.075
249.70755	30066.675
253.96539	32031.775
258.22014	33529.075
262.4718	34681.475
266.72039	35348.275
270.96589	35543.775
275.20832	35305.975
279.44768	34614.275
283.68397	33851.375
287.91719	33056.775
292.14735	32469.975
296.37445	32006.175
300.59849	31641.975
304.81948	31421.475
309.03742	31163.875
313.25231	30694.575
317.46415	30106.475
321.67296	29492.075
325.87872	29000.475
330.08145	28799.675
334.28114	28871.775
338.47781	29063.975
342.67145	29283.075
346.86207	29619.175
351.04966	30047.275
355.23424	30596.975
359.4158	31035.875
363.59435	31442.475
367.76989	31698.675
371.94243	31853.275
376.11196	31994.175
380.27849	32011.175
384.44203	32052.975
388.60257	32055.175
392.76012	32235.475
396.91468	32509.675
401.06626	32792.675
405.21485	32940.875
409.36047	32727.275
413.50311	32224.975
417.64277	31839.875
421.77947	31811.675
425.9132	31840.175
430.04396	31986.975
434.17176	32087.475
438.2966	32285.875
442.41849	32590.375
446.53742	33002.175
450.6534	33377.175
454.76644	33656.575
458.87653	33836.975
462.98368	33950.775
467.08789	33904.875
471.18916	33784.075
475.2875	33526.275
479.38291	33430.775
483.4754	33374.975
487.56496	33334.775
491.6516	33246.675
495.73531	32958.975
499.81612	32787.375
503.89401	32912.475
507.96899	33086.175
512.04106	33296.475
516.11023	33395.375
520.1765	33444.775
524.23987	33366.675
528.30034	33171.175
532.35792	33100.875
536.41261	32989.075
540.46441	32831.675
544.51333	32907.575
548.55936	33130.675
552.60252	33579.475
556.64279	34082.675
560.6802	34396.875
564.71473	34758.075
568.7464	35221.775
572.7752	35718.775
576.80114	36102.475
580.82422	36275.975
584.84444	36385.775
588.86181	36667.375
592.87633	36921.475
596.888	36824.575
600.89682	36682.875
604.9028	37548.875
608.90594	40386.775
612.90624	43667.775
616.90371	42598.375
620.89834	37875.175
624.89015	35269.775
628.87913	34512.675
632.86528	34425.475
636.84862	34299.375
640.82913	33871.975
644.80683	33333.275
648.78172	32822.275
652.75379	32739.775
656.72306	33026.075
660.68952	33449.775
664.65319	33444.975
668.61405	33091.275
672.57211	33030.375
676.52738	33249.475
680.47986	33408.675
684.42955	33434.675
688.37646	33418.575
692.32058	33471.375
696.26192	33602.775
700.20048	33788.975
704.13626	33920.775
708.06928	33975.075
711.99952	33915.475
715.927	33806.775
719.85171	33656.375
723.77365	33627.975
727.69284	33396.375
731.60928	33140.575
735.52295	33087.275
739.43388	33054.875
743.34206	33137.275
747.24749	33191.575
751.15017	33284.275
755.05012	33603.575
758.94733	34137.375
762.8418	35155.175
766.73354	36884.475
770.62254	38709.575
774.50882	39598.075
778.39237	38878.975
782.27321	37182.775
786.15132	35540.975
790.02671	34397.075
793.89938	33897.175
797.76935	33527.275
801.6366	33296.675
805.50115	33267.575
809.36299	33279.275
813.22213	33180.375
817.07857	33126.075
820.93231	33139.375
824.78336	33095.975
828.63172	33024.275
832.47738	32909.875
836.32036	32885.675
840.16066	32843.175
843.99827	32920.875
847.8332	32932.575
851.66546	33001.575
855.49504	33104.775
859.32195	33201.075
863.1462	33197.175
866.96777	33290.975
870.78668	33375.675
874.60293	33578.975
878.41652	33680.475
882.22745	33778.975
886.03573	33957.175
889.84136	34088.275
893.64433	34259.675
897.44466	34477.075
901.24235	34713.875
905.0374	34831.475
908.8298	35051.675
912.61957	35405.475
916.40671	35726.275
920.19121	36048.675
923.97308	36271.175
927.75233	36447.075
931.52895	36338.975
935.30295	35921.675
939.07433	35396.075
942.84309	34867.575
946.60924	34408.975
950.37278	34065.475
954.13371	33830.475
957.89203	33584.275
961.64774	33427.575
965.40086	33230.075
969.15137	33056.475
972.89929	32846.675
976.64461	32710.775
980.38733	32607.375
984.12747	32496.875
987.86502	32542.975
991.59999	32571.675
995.33237	32754.375
999.06217	32948.775
1002.78939	33195.775
1006.51404	33471.775
1010.23611	33830.175
1013.95561	34162.875
1017.67255	34284.075
1021.38692	34135.275
1025.09872	33935.075
1028.80796	33788.975
1032.51465	33639.675
1036.21877	33678.375
1039.92035	33760.975
1043.61937	33962.375
1047.31584	34062.275
1051.00976	34164.575
1054.70114	34317.875
1058.38998	34417.575
1062.07627	34545.375
1065.76003	34710.175
1069.44126	34767.975
1073.11995	34930.075
1076.79611	35201.375
1080.46974	35382.475
1084.14085	35487.575
1087.80943	35713.275
1091.47549	35881.675
1095.13903	35837.175
1098.80005	35589.175
1102.45857	35205.075
1106.11456	34940.075
1109.76805	34656.675
1113.41903	34555.575
1117.06751	34599.075
1120.71348	34745.075
1124.35696	35032.475
1127.99793	35356.175
1131.63641	35544.575
1135.2724	35344.175
1138.90589	35032.275
1142.5369	34839.575
1146.16542	34821.575
1149.79145	34880.675
1153.415	35020.875
1157.03607	35280.775
1160.65467	35732.975
1164.27079	36620.275
1167.88443	37604.075
1171.49561	39029.875
1175.10432	40754.475
1178.71056	42974.275
1182.31434	45195.975
1185.91565	46557.375
1189.51451	46994.775
1193.11091	46590.075
1196.70485	45508.275
1200.29634	44070.475
1203.88538	43019.075
1207.47197	42297.975
1211.05612	41730.775
1214.63782	41033.575
1218.21708	40169.975
1221.79391	39262.575
1225.36829	38705.075
1228.94024	38425.475
1232.50976	38208.975
1236.07685	38157.075
1239.6415	38158.275
1243.20374	38209.175
1246.76355	38246.875
1250.32093	38446.075
1253.8759	38820.875
1257.42845	39515.975
1260.97859	40257.575
1264.52631	41121.875
1268.07163	42044.475
1271.61453	42784.075
1275.15503	43567.275
1278.69312	44293.275
1282.22882	44823.475
1285.76211	45555.775
1289.29301	46555.975
1292.82151	47856.375
1296.34761	49449.575
1299.87133	51316.075
1303.39266	53186.175
1306.9116	55144.275
1310.42815	56704.975
1313.94233	57553.875
1317.45412	57099.875
1320.96354	56296.375
1324.47058	55443.475
1327.97525	54922.975
1331.47754	54499.275
1334.97747	54316.275
1338.47502	54355.175
1341.97022	54613.175
1345.46305	55202.275
1348.95352	55781.675
1352.44163	56203.875
1355.92738	56587.375
1359.41078	57572.075
1362.89183	58887.375
1366.37053	58466.675
1369.84688	54924.475
1373.32088	50545.375
1376.79254	47514.675
1380.26186	46032.775
1383.72883	45654.975
1387.19347	45528.975
1390.65578	45280.975
1394.11575	45213.375
1397.57339	45257.075
1401.0287	45353.875
1404.48168	45309.475
1407.93234	44703.475
1411.38068	43773.875
1414.82669	42783.475
1418.27039	41635.775
1421.71177	40776.775
1425.15083	40028.375
1428.58758	39535.275
1432.02203	39607.775
1435.45416	40030.975
1438.88399	40626.075
1442.31151	41020.075
1445.73673	41366.175
1449.15965	41666.175
1452.58027	41887.075
1455.9986	41985.975
1459.41463	42081.875
1462.82837	42183.475
1466.23982	42325.875
1469.64898	42462.875
1473.05586	42414.275
1476.46045	42256.275
1479.86276	42165.175
1483.26279	42076.075
1486.66054	42165.975
1490.05602	42498.575
1493.44922	43228.675
1496.84016	44317.975
1500.22882	46034.175
1503.61521	48082.175
1506.99934	50226.775
1510.38121	52019.475
1513.76081	52554.475
1517.13816	51602.275
1520.51324	49634.775
1523.88607	47747.975
1527.25665	46457.275
1530.62498	45758.475
1533.99105	45233.875
1537.35488	44727.275
1540.71647	43993.475
1544.07581	43168.975
1547.4329	42583.475
1550.78776	42123.475
1554.14038	41829.375
1557.49077	41813.675
1560.83892	41923.775
1564.18484	42086.275
1567.52853	42434.575
1570.86999	42889.475
1574.20922	43538.275
1577.54624	44084.675
1580.88103	44162.575
1584.2136	44124.675
1587.54395	44273.775
1590.87208	44921.075
1594.19801	45573.375
1597.52172	46174.675
1600.84321	45881.775
1604.16251	44381.675
1607.47959	42456.175
1610.79447	40568.975
1614.10715	38742.075
1617.41763	36880.975
1620.7259	35599.075
1624.03199	34931.575
1627.33587	35052.575
1630.63757	35693.875
1633.93707	37233.575
1637.23439	39454.275
1640.52951	42502.175
1643.82246	45979.875
1647.11321	48627.875
1650.40179	49164.875
1653.68819	46815.575
1656.97241	42381.475
1660.25446	37895.275
1663.53433	34477.275
1666.81203	32312.175
1670.08756	31021.375
1673.36092	30179.575
1676.63211	29625.575
1679.90115	29192.675
1683.16801	28838.775
1686.43272	28663.875
1689.69527	28463.175
1692.95567	28248.375
1696.2139	28151.175
1699.46999	28068.075
1702.72392	28022.875
1705.97571	27972.775
1709.22535	27902.875
1712.47284	27861.675
1715.71819	27853.275
1718.96139	27826.475
1722.20246	27795.575
1725.44139	27714.675
1728.67818	27629.075
1731.91284	27552.675
1735.14537	27503.775
1738.37576	27461.175
1741.60403	27442.875
1744.83017	27397.275
1748.05418	27361.175
1751.27607	27407.275
1754.49584	27441.075
1757.71349	27429.375
1760.92903	27467.675
1764.14244	27537.175
1767.35375	27610.175
1770.56294	27592.675
1773.77002	27537.975
1776.97499	27458.875
1780.17785	27443.175
1783.37861	27412.475
1786.57727	27322.675
1789.77382	27222.975
1792.96828	27078.175
1796.16064	26911.675
1799.3509	26862.575
1802.53907	26738.375
1805.72514	26543.275
1808.90913	26408.675
1812.09102	26311.175
1815.27083	26191.175
1818.44856	26116.275
1821.6242	26118.175
1824.79776	26025.375
1827.96924	25896.975
1831.13864	25871.775
1834.30597	25905.775
1837.47122	25922.075
1840.6344	25873.475
1843.7955	25901.575
1846.95454	25855.375
1850.11151	25742.975
1853.26642	25703.875
1856.41926	25673.975
1859.57004	25604.375
1862.71876	25575.875
1865.86542	25477.475
1869.01003	25429.375
1872.15258	25450.175
1875.29308	25437.475
1878.43152	25335.875
1881.56792	25277.875
1884.70227	25214.675
1887.83457	25106.375
1890.96482	25113.875
1894.09304	25050.075
1897.21921	24961.975
1900.34335	24966.175
1903.46544	24904.375
1906.58551	24873.675
1909.70353	24830.675
1912.81953	24749.575
1915.93349	24778.475
1919.04543	24730.075
1922.15534	24667.075
1925.26322	24599.475
1928.36908	24601.075
1931.47292	24574.175
1934.57473	24498.275
1937.67453	24455.975
1940.77232	24403.875
1943.86808	24352.375
1946.96184	24309.975
1950.05358	24252.875
1953.14331	24165.275
1956.23103	24032.775
1959.31675	23938.475
1962.40046	23933.275
1965.48217	23890.375
1968.56188	23816.975
1971.63959	23772.275
1974.7153	23675.575
1977.78901	23605.275
1980.86073	23480.075
1983.93046	23420.875
1986.99819	23339.475
1990.06394	23254.675
1993.1277	23108.875
1996.18947	23022.875
1999.24925	22953.875
2002.30706	22854.275
2005.36288	22773.975
2008.41672	22750.075
2011.46859	22634.775
2014.51848	22571.075
2017.56639	22490.675
2020.61233	22433.675
2023.6563	22391.875
2026.6983	22344.475
2029.73833	22273.775
2032.7764	22210.975
2035.8125	22122.075
2038.84664	22064.975
2041.87881	22079.575
2044.90903	22081.975
2047.93729	22008.875
2050.96359	22006.575
2053.98794	22046.675
2057.01034	22070.575
2060.03078	22105.075
2063.04927	22038.175
2066.06582	22070.175
2069.08042	22151.975
2072.09307	22141.175
2075.10378	22183.175
2078.11255	22172.575
2081.11938	22235.975
2084.12426	22242.575
2087.12722	22279.275
2090.12824	22230.575
2093.12732	22225.675
2096.12447	22236.875
2099.11969	22228.275
2102.11299	22220.875
2105.10435	22194.875
2108.09379	22149.175
2111.08131	22160.575
2114.0669	22077.175
2117.05057	22060.975
2120.03233	22054.275
2123.01216	22013.975
2125.99008	21984.075
2128.96609	22002.875
2131.94018	22010.175
2134.91236	21962.975
2137.88263	21910.475
2140.851	21896.875
2143.81746	21868.275
2146.78201	21843.375
2149.74466	21760.575
2152.7054	21767.475
2155.66425	21711.175
2158.6212	21708.175
2161.57625	21657.375
2164.52941	21613.375
2167.48067	21575.875
2170.43004	21592.175
2173.37752	21491.875
2176.32311	21464.175
2179.26681	21442.975
2182.20863	21409.375
2185.14856	21426.775
2188.08661	21412.275
2191.02278	21412.175
2193.95707	21403.875
2196.88948	21376.275
2199.82001	21373.975
2202.74867	21394.975
2205.67545	21353.775
2208.60037	21284.475
2211.52341	21249.975
2214.44458	21179.075
2217.36388	21154.875
2220.28132	21093.275
2223.1969	21022.375
2226.11061	21022.975
2229.02246	20927.275
2231.93245	20854.275
2234.84058	20771.575
2237.74686	20789.875
2240.65128	20750.675
2243.55385	20684.675
2246.45456	20662.975
2249.35343	20596.475
2252.25044	20586.175
2255.14561	20529.475
2258.03893	20547.175
2260.93041	20487.375
2263.82004	20435.875
2266.70783	20369.475
2269.59378	20352.275
2272.4779	20309.375
2275.36017	20231.375
2278.24061	20180.175
2281.11922	20128.175
2283.996	20077.975
2286.87094	20045.075
2289.74405	20014.675
2292.61534	20040.275
2295.4848	19969.375
2298.35243	19972.475
2301.21824	19974.675
2304.08223	19931.775
2306.94439	19880.375
2309.80474	19892.975
2312.66327	19843.975
2315.51999	19803.675
2318.37489	19761.075
2321.22797	19700.875
2324.07925	19676.475
2326.92871	19613.775
2329.77637	19554.875
2332.62222	19532.175
2335.46626	19489.375
2338.3085	19488.575
2341.14893	19502.775
2343.98756	19462.875
2346.8244	19406.875
2349.65943	19398.575
2352.49267	19414.375
2355.32411	19403.675
2358.15376	19365.075
2360.98161	19386.575
2363.80768	19340.075
2366.63195	19336.275
2369.45444	19319.275
2372.27514	19292.175
2375.09405	19276.775
2377.91118	19290.975
2380.72652	19203.275
2383.54009	19135.975
2386.35187	19133.575
2389.16188	19072.675
2391.97011	19047.275
2394.77657	19001.275
2397.58125	18972.475
2400.38416	18925.175
2403.18529	18882.475
2405.98466	18790.375
2408.78226	18781.275
2411.57809	18758.875
2414.37216	18744.375
2417.16446	18758.675
2419.955	18642.575
2422.74378	18619.875
2425.5308	18592.375
2428.31606	18604.975
2431.09956	18605.075
2433.88131	18642.975
2436.6613	18623.675
2439.43954	18597.175
2442.21603	18550.175
2444.99077	18500.075
2447.76377	18524.975
2450.53501	18500.975
2453.30451	18461.975
2456.07226	18412.775
2458.83827	18411.975
2461.60254	18318.875
2464.36507	18325.075
2467.12586	18317.475
2469.88492	18313.675
2472.64224	18286.775
2475.39782	18253.475
2478.15167	18294.475
2480.90379	18301.375
2483.65417	18314.775
2486.40283	18235.875
2489.14976	18223.975
2491.89497	18194.575
2494.63845	18216.475
2497.3802	18258.375
2500.12024	18275.275
2502.85855	18220.275
2505.59514	18164.875
2508.33002	18108.975
2511.06318	18058.675
2513.79462	18038.875
2516.52435	17986.175
2519.25237	17974.075
2521.97867	17962.075
2524.70327	17982.875
2527.42616	17870.275
2530.14734	17819.275
2532.86681	17797.675
2535.58458	17804.975
2538.30065	17790.575
2541.01501	17769.675
2543.72768	17742.375
2546.43864	17780.975
2549.14791	17731.875
2551.85548	17754.375
2554.56136	17673.875
2557.26554	17687.075
2559.96803	17579.375
2562.66883	17532.775
2565.36794	17488.475
2568.06536	17441.675
2570.7611	17394.175
2573.45514	17387.475
2576.14751	17374.875
2578.83819	17356.475
2581.52719	17328.475
2584.21451	17277.975
2586.90015	17222.475
2589.58411	17216.275
2592.2664	17184.375
2594.94701	17166.275
2597.62594	17184.675
2600.30321	17126.475
2602.9788	17112.775
2605.65273	17099.375
2608.32498	17045.275
2610.99557	17062.275
2613.66449	17068.575
2616.33175	16991.375
2618.99734	16972.675
2621.66128	16950.775
2624.32355	16903.475
2626.98416	16869.875
2629.64311	16840.375
2632.30041	16845.375
2634.95605	16798.875
2637.61004	16705.575
2640.26238	16755.975
2642.91306	16730.075
2645.56209	16701.575
2648.20948	16687.375
2650.85521	16692.075
2653.4993	16702.075
2656.14175	16699.375
2658.78255	16679.275
2661.42171	16614.275
2664.05923	16656.375
2666.6951	16688.275
2669.32934	16682.475
2671.96194	16635.575
2674.59291	16672.875
2677.22224	16653.175
2679.84993	16661.275
2682.476	16654.075
2685.10043	16684.075
2687.72324	16631.375
2690.34441	16646.275
2692.96396	16639.175
2695.58188	16618.275
2698.19818	16565.175
2700.81285	16615.875
2703.4259	16571.375
2706.03733	16535.775
2708.64714	16512.275
2711.25533	16555.575
2713.86191	16565.875
2716.46687	16593.875
2719.07021	16635.075
2721.67194	16658.075
2724.27206	16598.175
2726.87057	16618.975
2729.46747	16646.375
2732.06276	16626.075
2734.65644	16577.175
2737.24852	16595.175
2739.83899	16558.075
2742.42786	16589.175
2745.01513	16591.675
2747.60079	16537.875
2750.18486	16502.675
2752.76733	16479.975
2755.3482	16457.475
2757.92747	16436.375
2760.50515	16418.375
2763.08123	16377.375
2765.65573	16352.575
2768.22863	16329.375
2770.79994	16313.075
2773.36967	16301.675
2775.9378	16291.575
2778.50435	16273.875
2781.06932	16243.475
2783.6327	16210.475
2786.1945	16192.875
2788.75471	16203.775
2791.31335	16167.475
2793.87041	16127.775
2796.42589	16067.975
2798.97979	16075.075
2801.53212	16003.075
2804.08288	15994.575
2806.63206	15935.675
2809.17967	15888.275
2811.72571	15871.975
2814.27018	15854.775
2816.81308	15810.275
2819.35442	15773.575
2821.89419	15739.775
2824.43239	15715.075
2826.96904	15666.475
2829.50412	15649.575
2832.03763	15632.775
2834.56959	15683.575
2837.1	15690.575
2839.62884	15692.375
2842.15613	15736.475
2844.68186	15812.375
2847.20604	15895.375
2849.72867	15984.475
2852.24974	15998.675
2854.76927	16008.375
2857.28724	15952.575
2859.80367	16006.475
2862.31855	15999.575
2864.83189	16002.075
2867.34368	15951.375
2869.85393	15939.675
2872.36264	15952.675
2874.8698	15909.175
2877.37543	15912.975
2879.87952	15922.875
2882.38207	15906.275
2884.88308	15925.175
2887.38256	15943.175
2889.88051	15952.075
2892.37692	15986.075
2894.8718	16009.275
2897.36515	16095.975
2899.85698	16055.475
2902.34727	16105.675
2904.83604	16102.775
2907.32328	16192.675
2909.809	16197.175
2912.29319	16262.075
2914.77587	16240.675
2917.25702	16277.075
2919.73665	16213.675
2922.21476	16266.675
2924.69136	16248.175
2927.16644	16231.675
2929.64	16144.275
2932.11205	16126.575
2934.58258	16030.875
2937.05161	16008.175
2939.51912	15947.675
2941.98513	15886.475
2944.44962	15798.175
2946.91261	15672.775
2949.37409	15636.975
2951.83407	15584.275
2954.29254	15561.275
2956.74951	15507.275
2959.20498	15459.575
2961.65895	15412.075
2964.11142	15413.675
2966.56239	15387.575
2969.01186	15325.775
2971.45984	15241.875
2973.90632	15251.575
2976.35131	15187.675
2978.7948	15184.375
2981.23681	15124.375
2983.67732	15094.775
2986.11635	15003.075
2988.55388	14983.075
2990.98993	14984.275
2993.4245	14926.675
2995.85758	14834.975
2998.28917	14819.975
3000.71928	14787.375
3003.14791	14743.275
3005.57506	14705.675
3008.00073	14690.575
3010.42493	14662.375
3012.84764	14638.575
3015.26888	14613.875
3017.68865	14566.775
3020.10694	14579.975
3022.52376	14501.175
3024.9391	14494.475
3027.35298	14487.175
3029.76539	14454.075
3032.17632	14452.475
3034.5858	14426.375
3036.9938	14401.175
3039.40034	14421.975
3041.80542	14418.975
3044.20903	14387.975
3046.61118	14368.875
3049.01187	14327.075
3051.4111	14297.975
3053.80888	14274.875
3056.20519	14242.875
3058.60005	14237.075
3060.99345	14201.675
3063.3854	14179.975
3065.7759	14151.775
3068.16494	14190.975
3070.55254	14127.575
3072.93868	14100.075
3075.32338	14066.075
3077.70662	14032.275
3080.08842	14032.775
3082.46878	14005.475
3084.84769	13998.075
3087.22515	14008.475
3089.60118	13995.475
3091.97576	13979.475
3094.3489	14006.675
3096.72061	13997.875
3099.09087	14004.175
3101.4597	13995.675
3103.82709	14019.075
3106.19305	14029.075
3108.55757	14043.175
3110.92066	14045.775
3113.28232	14048.975
3115.64255	14032.075
3118.00134	13991.675
3120.35871	13994.075
3122.71466	13978.875
3125.06917	13922.875
3127.42226	13869.975
