Data from AgNP_FTO_APTES_UA_10uM_CRN_100uM_R6G_10uM_NaF_0.1M_Addition_RamanShift__24__17-52-30-865.txt Node

Date: Thu Feb 10 17:52:30 GMT 2022
User: TCL
Spectrometer: QEP01345
Trigger mode: 4
Integration Time (sec): 7.000000E0
Scans to average: 10
Electric dark correction enabled: true
Nonlinearity correction enabled: false
Boxcar width: 0
XAxis mode: Raman Shifts
Number of Pixels in Spectrum: 1044
>>>>>Begin Spectral Data<<<<<
46.04893	-0.475
50.45542	-0.075
54.85868	-1.175
59.25871	-0.775
63.6555	67.125
68.04907	71.925
72.43941	76.125
76.82654	72.125
81.21044	82.425
85.59113	81.125
89.96862	86.025
94.34289	88.625
98.71396	89.725
103.08183	93.825
107.4465	97.125
111.80798	96.025
116.16626	101.525
120.52136	106.925
124.87327	112.825
129.222	113.825
133.56755	119.925
137.90993	129.725
142.24913	138.225
146.58517	157.825
150.91804	181.625
155.24774	215.125
159.57429	268.425
163.89768	343.625
168.21792	450.925
172.53501	615.025
176.84895	862.225
181.15975	1206.625
185.46741	1693.025
189.77193	2349.225
194.07331	3147.325
198.37157	4054.125
202.6667	5033.025
206.9587	5992.125
211.24758	6923.025
215.53334	7875.625
219.81599	8877.225
224.09553	9986.925
228.37195	11252.825
232.64527	12646.425
236.91549	14074.425
241.18261	15486.325
245.44663	16820.225
249.70755	17997.425
253.96539	18988.625
258.22014	19895.725
262.4718	20687.625
266.72039	21275.925
270.96589	21624.825
275.20832	21695.225
279.44768	21586.925
283.68397	21358.825
287.91719	21190.525
292.14735	21057.025
296.37445	21205.725
300.59849	21467.625
304.81948	21748.225
309.03742	21870.625
313.25231	21616.025
317.46415	20980.225
321.67296	20089.725
325.87872	19402.625
330.08145	19099.625
334.28114	19121.525
338.47781	19347.625
342.67145	19699.225
346.86207	20196.425
351.04966	20846.925
355.23424	21599.425
359.4158	22221.425
363.59435	22560.025
367.76989	22758.525
371.94243	22901.425
376.11196	23002.825
380.27849	23060.625
384.44203	23093.525
388.60257	23031.325
392.76012	23067.725
396.91468	23303.825
401.06626	23697.925
405.21485	24019.425
409.36047	23811.225
413.50311	23291.725
417.64277	22742.225
421.77947	22495.925
425.9132	22411.025
430.04396	22494.825
434.17176	22697.525
438.2966	22940.225
442.41849	23346.925
446.53742	23920.025
450.6534	24483.725
454.76644	24922.525
458.87653	25100.125
462.98368	25005.925
467.08789	24753.825
471.18916	24417.825
475.2875	24114.825
479.38291	23884.225
483.4754	23624.725
487.56496	23365.525
491.6516	23063.225
495.73531	22851.425
499.81612	22756.925
503.89401	22877.725
507.96899	22966.425
512.04106	23073.625
516.11023	23247.125
520.1765	23380.125
524.23987	23294.625
528.30034	23088.425
532.35792	22818.725
536.41261	22629.325
540.46441	22399.125
544.51333	22398.725
548.55936	22577.025
552.60252	22908.925
556.64279	23255.325
560.6802	23459.825
564.71473	23577.925
568.7464	24015.225
572.7752	24415.225
576.80114	24250.725
580.82422	23931.125
584.84444	23794.225
588.86181	23848.125
592.87633	24071.425
596.888	24324.025
600.89682	24701.825
604.9028	26081.925
608.90594	29714.125
612.90624	34366.125
616.90371	33118.725
620.89834	26687.725
624.89015	23855.325
628.87913	23408.225
632.86528	23339.825
636.84862	23390.425
640.82913	23086.725
644.80683	22527.525
648.78172	22183.925
652.75379	22196.125
656.72306	22543.625
660.68952	23165.025
664.65319	23088.025
668.61405	22539.125
672.57211	22316.525
676.52738	22342.825
680.47986	22357.425
684.42955	22304.325
688.37646	22270.225
692.32058	22355.125
696.26192	22475.225
700.20048	22677.825
704.13626	22801.625
708.06928	22746.225
711.99952	22565.425
715.927	22562.525
719.85171	22581.825
723.77365	22537.825
727.69284	22436.325
731.60928	22316.025
735.52295	22262.325
739.43388	22337.525
743.34206	22414.125
747.24749	22516.325
751.15017	22660.125
755.05012	22934.925
758.94733	23519.925
762.8418	24744.925
766.73354	26815.825
770.62254	29022.325
774.50882	30148.425
778.39237	29068.525
782.27321	26571.425
786.15132	24405.525
790.02671	23166.025
793.89938	22614.425
797.76935	22374.225
801.6366	22292.925
805.50115	22205.525
809.36299	22143.525
813.22213	22056.925
817.07857	22075.625
820.93231	22084.425
824.78336	22121.825
828.63172	22198.625
832.47738	22230.825
836.32036	22208.725
840.16066	22226.025
843.99827	22207.225
847.8332	22196.125
851.66546	22139.925
855.49504	22087.625
859.32195	22078.825
863.1462	22053.125
866.96777	21996.425
870.78668	21935.725
874.60293	21940.425
878.41652	22025.025
882.22745	22075.325
886.03573	22121.125
889.84136	22074.225
893.64433	21992.025
897.44466	21939.525
901.24235	21930.925
905.0374	21904.925
908.8298	21863.725
912.61957	21880.325
916.40671	22002.625
920.19121	22126.925
923.97308	22273.525
927.75233	22368.025
931.52895	22443.325
935.30295	22326.525
939.07433	21951.225
942.84309	21627.025
946.60924	21474.225
950.37278	21416.325
954.13371	21273.325
957.89203	21211.725
961.64774	21153.125
965.40086	21063.625
969.15137	21000.425
972.89929	20944.125
976.64461	20942.125
980.38733	20947.825
984.12747	21048.725
987.86502	21167.425
991.59999	21319.825
995.33237	21621.225
999.06217	22131.225
1002.78939	22697.025
1006.51404	22965.725
1010.23611	23109.025
1013.95561	23323.125
1017.67255	23352.125
1021.38692	23233.225
1025.09872	23096.725
1028.80796	23223.125
1032.51465	23709.025
1036.21877	24125.225
1039.92035	24161.525
1043.61937	23872.725
1047.31584	23439.125
1051.00976	23014.725
1054.70114	22743.925
1058.38998	22706.625
1062.07627	22783.125
1065.76003	22862.825
1069.44126	22832.125
1073.11995	22891.625
1076.79611	23027.525
1080.46974	23193.925
1084.14085	23426.825
1087.80943	23739.425
1091.47549	23844.825
1095.13903	23730.725
1098.80005	23342.225
1102.45857	22980.125
1106.11456	22860.825
1109.76805	22961.425
1113.41903	23225.125
1117.06751	23529.125
1120.71348	23945.725
1124.35696	24299.025
1127.99793	24648.825
1131.63641	24681.125
1135.2724	24204.525
1138.90589	23692.425
1142.5369	23381.225
1146.16542	23207.125
1149.79145	23096.625
1153.415	23154.525
1157.03607	23310.425
1160.65467	23658.325
1164.27079	24226.625
1167.88443	25049.925
1171.49561	26274.425
1175.10432	28162.225
1178.71056	30584.625
1182.31434	32714.325
1185.91565	33656.125
1189.51451	33442.225
1193.11091	32176.225
1196.70485	30606.625
1200.29634	29307.225
1203.88538	28325.925
1207.47197	27416.225
1211.05612	26613.225
1214.63782	26100.425
1218.21708	25901.725
1221.79391	25900.625
1225.36829	25947.725
1228.94024	25838.525
1232.50976	25642.125
1236.07685	25533.525
1239.6415	25596.025
1243.20374	25721.225
1246.76355	25901.425
1250.32093	26254.425
1253.8759	26784.425
1257.42845	27396.525
1260.97859	27936.125
1264.52631	28351.525
1268.07163	28794.825
1271.61453	29352.025
1275.15503	29861.125
1278.69312	30332.625
1282.22882	30618.925
1285.76211	30975.325
1289.29301	31495.425
1292.82151	32194.825
1296.34761	33053.325
1299.87133	34267.825
1303.39266	36123.425
1306.9116	38713.025
1310.42815	41570.025
1313.94233	43434.225
1317.45412	43144.725
1320.96354	41556.325
1324.47058	39821.925
1327.97525	38287.125
1331.47754	37292.925
1334.97747	37120.325
1338.47502	37571.325
1341.97022	38219.525
1345.46305	38715.625
1348.95352	38963.325
1352.44163	39440.825
1355.92738	40845.425
1359.41078	43689.925
1362.89183	46692.425
1366.37053	45668.025
1369.84688	40803.225
1373.32088	35897.325
1376.79254	32694.725
1380.26186	31243.125
1383.72883	30674.925
1387.19347	30354.725
1390.65578	29995.025
1394.11575	29762.225
1397.57339	29873.325
1401.0287	30229.325
1404.48168	30704.625
1407.93234	31177.425
1411.38068	31444.325
1414.82669	31275.225
1418.27039	30590.125
1421.71177	29782.125
1425.15083	28997.525
1428.58758	28499.325
1432.02203	28455.725
1435.45416	28654.825
1438.88399	28845.325
1442.31151	29042.425
1445.73673	29282.825
1449.15965	29508.925
1452.58027	29645.425
1455.9986	29634.125
1459.41463	29753.125
1462.82837	30034.625
1466.23982	30411.225
1469.64898	30910.525
1473.05586	31207.625
1476.46045	31286.025
1479.86276	31516.125
1483.26279	31749.325
1486.66054	32050.725
1490.05602	32462.225
1493.44922	33051.325
1496.84016	33727.025
1500.22882	34788.925
1503.61521	36392.425
1506.99934	38641.025
1510.38121	40960.525
1513.76081	42177.925
1517.13816	41219.125
1520.51324	38494.025
1523.88607	35546.125
1527.25665	33486.225
1530.62498	32251.525
1533.99105	31613.025
1537.35488	31175.925
1540.71647	30983.525
1544.07581	30895.225
1547.4329	30700.025
1550.78776	30490.025
1554.14038	30391.625
1557.49077	30448.825
1560.83892	30640.925
1564.18484	30824.725
1567.52853	31055.525
1570.86999	31138.525
1574.20922	31220.225
1577.54624	31260.725
1580.88103	30775.225
1584.2136	30210.425
1587.54395	30283.925
1590.87208	31166.125
1594.19801	32680.125
1597.52172	34520.725
1600.84321	35300.425
1604.16251	34369.725
1607.47959	32436.225
1610.79447	30362.125
1614.10715	28335.125
1617.41763	26724.925
1620.7259	25641.625
1624.03199	25094.125
1627.33587	25084.625
1630.63757	25542.025
1633.93707	26527.625
1637.23439	27913.125
1640.52951	29706.425
1643.82246	31823.125
1647.11321	33939.425
1650.40179	35049.325
1653.68819	34081.925
1656.97241	30941.425
1660.25446	27425.525
1663.53433	24892.025
1666.81203	23267.125
1670.08756	22296.425
1673.36092	21662.425
1676.63211	21238.425
1679.90115	20965.425
1683.16801	20753.725
1686.43272	20628.925
1689.69527	20463.925
1692.95567	20408.625
1696.2139	20343.125
1699.46999	20331.625
1702.72392	20302.225
1705.97571	20259.425
1709.22535	20193.725
1712.47284	20242.325
1715.71819	20232.525
1718.96139	20186.225
1722.20246	20225.325
1725.44139	20136.925
1728.67818	20024.625
1731.91284	19907.825
1735.14537	19829.625
1738.37576	19748.225
1741.60403	19726.125
1744.83017	19695.625
1748.05418	19672.825
1751.27607	19620.225
1754.49584	19639.425
1757.71349	19624.425
1760.92903	19562.325
1764.14244	19575.125
1767.35375	19578.425
1770.56294	19565.125
1773.77002	19532.525
1776.97499	19486.725
1780.17785	19449.225
1783.37861	19449.325
1786.57727	19431.125
1789.77382	19416.525
1792.96828	19395.025
1796.16064	19363.425
1799.3509	19348.925
1802.53907	19303.725
1805.72514	19271.925
1808.90913	19249.025
1812.09102	19199.825
1815.27083	19159.325
1818.44856	19135.025
1821.6242	19107.925
1824.79776	19072.925
1827.96924	19069.225
1831.13864	19009.625
1834.30597	19062.325
1837.47122	19051.825
1840.6344	19037.225
1843.7955	19028.025
1846.95454	19006.625
1850.11151	18983.525
1853.26642	19041.825
1856.41926	19007.525
1859.57004	19024.525
1862.71876	19008.225
1865.86542	18975.825
1869.01003	19007.625
1872.15258	19003.925
1875.29308	18981.725
1878.43152	19000.225
1881.56792	18986.925
1884.70227	18970.725
1887.83457	18957.625
1890.96482	18881.025
1894.09304	18910.925
1897.21921	18867.725
1900.34335	18863.825
1903.46544	18868.825
1906.58551	18883.325
1909.70353	18880.225
1912.81953	18854.125
1915.93349	18858.925
1919.04543	18763.425
1922.15534	18795.325
1925.26322	18698.925
1928.36908	18689.225
1931.47292	18709.525
1934.57473	18670.625
1937.67453	18644.725
1940.77232	18584.625
1943.86808	18542.125
1946.96184	18437.625
1950.05358	18391.225
1953.14331	18392.625
1956.23103	18303.425
1959.31675	18220.425
1962.40046	18217.925
1965.48217	18150.325
1968.56188	18081.625
1971.63959	18009.525
1974.7153	17999.325
1977.78901	17957.925
1980.86073	17895.025
1983.93046	17850.325
1986.99819	17821.425
1990.06394	17769.125
1993.1277	17707.425
1996.18947	17655.125
1999.24925	17616.225
2002.30706	17554.525
2005.36288	17503.225
2008.41672	17484.325
2011.46859	17430.725
2014.51848	17396.625
2017.56639	17352.025
2020.61233	17295.925
2023.6563	17292.525
2026.6983	17233.225
2029.73833	17226.025
2032.7764	17141.725
2035.8125	17176.925
2038.84664	17086.725
2041.87881	17047.825
2044.90903	17022.125
2047.93729	16975.425
2050.96359	16968.525
2053.98794	16956.325
2057.01034	16971.525
2060.03078	16961.725
2063.04927	16911.325
2066.06582	16896.425
2069.08042	16905.925
2072.09307	16863.325
2075.10378	16819.025
2078.11255	16846.325
2081.11938	16864.625
2084.12426	16834.625
2087.12722	16799.625
2090.12824	16796.925
2093.12732	16794.125
2096.12447	16803.125
2099.11969	16804.425
2102.11299	16783.025
2105.10435	16789.325
2108.09379	16831.725
2111.08131	16820.025
2114.0669	16847.725
2117.05057	16848.125
2120.03233	16860.725
2123.01216	16883.125
2125.99008	16884.025
2128.96609	16883.825
2131.94018	16952.725
2134.91236	16938.125
2137.88263	16952.025
2140.851	16975.925
2143.81746	16961.825
2146.78201	16983.825
2149.74466	16956.725
2152.7054	17009.625
2155.66425	16971.925
2158.6212	16983.325
2161.57625	16968.825
2164.52941	16960.725
2167.48067	16939.425
2170.43004	16937.025
2173.37752	16937.825
2176.32311	16953.125
2179.26681	16987.825
2182.20863	16934.025
2185.14856	16966.825
2188.08661	16950.425
2191.02278	16911.225
2193.95707	16950.025
2196.88948	16985.925
2199.82001	16960.525
2202.74867	16934.325
2205.67545	16904.225
2208.60037	16906.725
2211.52341	16924.225
2214.44458	16905.025
2217.36388	16894.125
2220.28132	16845.725
2223.1969	16813.825
2226.11061	16801.525
2229.02246	16745.525
2231.93245	16675.225
2234.84058	16684.725
2237.74686	16676.525
2240.65128	16636.125
2243.55385	16591.125
2246.45456	16610.725
2249.35343	16588.725
2252.25044	16554.025
2255.14561	16535.225
2258.03893	16544.425
2260.93041	16496.625
2263.82004	16437.625
2266.70783	16442.925
2269.59378	16380.525
2272.4779	16363.125
2275.36017	16294.425
2278.24061	16255.325
2281.11922	16255.325
2283.996	16234.925
2286.87094	16222.125
2289.74405	16191.425
2292.61534	16191.525
2295.4848	16174.625
2298.35243	16145.525
2301.21824	16145.525
2304.08223	16150.925
2306.94439	16194.725
2309.80474	16161.225
2312.66327	16180.425
2315.51999	16170.225
2318.37489	16177.625
2321.22797	16154.825
2324.07925	16107.825
2326.92871	16125.925
2329.77637	16093.325
2332.62222	16075.225
2335.46626	16058.525
2338.3085	16063.225
2341.14893	16064.725
2343.98756	16063.425
2346.8244	16098.825
2349.65943	16059.325
2352.49267	16053.725
2355.32411	16054.825
2358.15376	16070.525
2360.98161	16074.325
2363.80768	16077.725
2366.63195	16015.625
2369.45444	15999.025
2372.27514	15949.725
2375.09405	15930.125
2377.91118	15890.925
2380.72652	15840.025
2383.54009	15802.825
2386.35187	15784.125
2389.16188	15717.425
2391.97011	15693.925
2394.77657	15685.225
2397.58125	15641.125
2400.38416	15644.325
2403.18529	15626.625
2405.98466	15579.425
2408.78226	15508.525
2411.57809	15517.925
2414.37216	15508.525
2417.16446	15452.225
2419.955	15439.825
2422.74378	15452.125
2425.5308	15466.625
2428.31606	15431.825
2431.09956	15465.425
2433.88131	15433.125
2436.6613	15399.225
2439.43954	15380.825
2442.21603	15396.325
2444.99077	15408.825
2447.76377	15374.125
2450.53501	15332.525
2453.30451	15329.725
2456.07226	15346.525
2458.83827	15330.725
2461.60254	15334.725
2464.36507	15277.825
2467.12586	15286.525
2469.88492	15303.625
2472.64224	15278.825
2475.39782	15311.125
2478.15167	15312.025
2480.90379	15308.325
2483.65417	15304.525
2486.40283	15324.225
2489.14976	15360.525
2491.89497	15327.825
2494.63845	15368.525
2497.3802	15325.825
2500.12024	15328.625
2502.85855	15299.925
2505.59514	15307.825
2508.33002	15267.525
2511.06318	15242.225
2513.79462	15195.925
2516.52435	15212.825
2519.25237	15184.225
2521.97867	15148.725
2524.70327	15188.125
2527.42616	15155.025
2530.14734	15149.125
2532.86681	15134.225
2535.58458	15123.325
2538.30065	15139.925
2541.01501	15115.925
2543.72768	15114.425
2546.43864	15087.525
2549.14791	15106.625
2551.85548	15095.425
2554.56136	15066.625
2557.26554	15014.325
2559.96803	14953.625
2562.66883	14932.525
2565.36794	14918.225
2568.06536	14900.625
2570.7611	14886.625
2573.45514	14872.625
2576.14751	14872.425
2578.83819	14844.025
2581.52719	14845.125
2584.21451	14813.925
2586.90015	14821.425
2589.58411	14808.725
2592.2664	14777.025
2594.94701	14766.725
2597.62594	14794.125
2600.30321	14757.525
2602.9788	14726.325
2605.65273	14722.725
2608.32498	14729.525
2610.99557	14687.525
2613.66449	14704.525
2616.33175	14711.725
2618.99734	14721.625
2621.66128	14701.625
2624.32355	14669.225
2626.98416	14706.525
2629.64311	14693.125
2632.30041	14655.525
2634.95605	14632.825
2637.61004	14608.425
2640.26238	14607.725
2642.91306	14577.725
2645.56209	14549.025
2648.20948	14549.525
2650.85521	14499.125
2653.4993	14547.325
2656.14175	14530.725
2658.78255	14513.325
2661.42171	14533.225
2664.05923	14587.525
2666.6951	14537.525
2669.32934	14597.125
2671.96194	14580.425
2674.59291	14623.625
2677.22224	14578.225
2679.84993	14596.825
2682.476	14594.725
2685.10043	14557.325
2687.72324	14516.025
2690.34441	14573.125
2692.96396	14521.125
2695.58188	14547.525
2698.19818	14496.125
2700.81285	14511.425
2703.4259	14517.925
2706.03733	14550.525
2708.64714	14531.725
2711.25533	14550.225
2713.86191	14523.925
2716.46687	14552.825
2719.07021	14533.925
2721.67194	14556.525
2724.27206	14534.125
2726.87057	14555.625
2729.46747	14577.925
2732.06276	14567.525
2734.65644	14521.625
2737.24852	14544.925
2739.83899	14532.625
2742.42786	14528.625
2745.01513	14463.025
2747.60079	14467.325
2750.18486	14429.925
2752.76733	14471.925
2755.3482	14457.025
2757.92747	14463.425
2760.50515	14430.725
2763.08123	14413.525
2765.65573	14387.525
2768.22863	14397.425
2770.79994	14392.925
2773.36967	14389.525
2775.9378	14393.525
2778.50435	14399.025
2781.06932	14371.425
2783.6327	14404.525
2786.1945	14363.425
2788.75471	14361.025
2791.31335	14334.425
2793.87041	14308.625
2796.42589	14260.225
2798.97979	14221.525
2801.53212	14236.825
2804.08288	14220.325
2806.63206	14179.925
2809.17967	14153.225
2811.72571	14105.025
2814.27018	14091.625
2816.81308	14098.625
2819.35442	14072.225
2821.89419	14047.425
2824.43239	14046.925
2826.96904	14037.225
2829.50412	14056.925
2832.03763	14032.325
2834.56959	14025.625
2837.1	13993.525
2839.62884	13999.125
2842.15613	14016.425
2844.68186	14040.225
2847.20604	14026.625
2849.72867	14062.225
2852.24974	14047.825
2854.76927	14000.425
2857.28724	13983.925
2859.80367	13930.025
2862.31855	13943.125
2864.83189	13927.325
2867.34368	13911.025
2869.85393	13918.125
2872.36264	13851.225
2874.8698	13895.425
2877.37543	13874.925
2879.87952	13887.225
2882.38207	13863.925
2884.88308	13875.125
2887.38256	13870.825
2889.88051	13850.325
2892.37692	13858.625
2894.8718	13880.325
2897.36515	13894.125
2899.85698	13888.725
2902.34727	13923.225
2904.83604	13917.125
2907.32328	13946.625
2909.809	13955.325
2912.29319	13933.725
2914.77587	13939.925
2917.25702	13947.925
2919.73665	13897.525
2922.21476	13914.625
2924.69136	13889.925
2927.16644	13888.425
2929.64	13866.225
2932.11205	13866.925
2934.58258	13840.925
2937.05161	13797.525
2939.51912	13834.125
2941.98513	13820.125
2944.44962	13788.825
2946.91261	13712.125
2949.37409	13752.425
2951.83407	13715.025
2954.29254	13710.625
2956.74951	13698.125
2959.20498	13706.625
2961.65895	13694.025
2964.11142	13705.425
2966.56239	13689.525
2969.01186	13672.325
2971.45984	13623.825
2973.90632	13603.125
2976.35131	13628.825
2978.7948	13561.625
2981.23681	13543.425
2983.67732	13533.925
2986.11635	13508.725
2988.55388	13481.325
2990.98993	13466.625
2993.4245	13425.125
2995.85758	13409.025
2998.28917	13337.525
3000.71928	13348.225
3003.14791	13347.425
3005.57506	13330.425
3008.00073	13270.525
3010.42493	13265.525
3012.84764	13235.425
3015.26888	13208.625
3017.68865	13164.525
3020.10694	13168.825
3022.52376	13163.125
3024.9391	13150.625
3027.35298	13152.925
3029.76539	13128.625
3032.17632	13141.525
3034.5858	13113.825
3036.9938	13118.925
3039.40034	13088.225
3041.80542	13070.425
3044.20903	13028.625
3046.61118	13031.425
3049.01187	13014.325
3051.4111	13019.225
3053.80888	12961.425
3056.20519	12915.825
3058.60005	12899.725
3060.99345	12873.725
3063.3854	12841.525
3065.7759	12803.425
3068.16494	12771.925
3070.55254	12762.625
3072.93868	12738.025
3075.32338	12710.325
3077.70662	12690.425
3080.08842	12675.625
3082.46878	12651.625
3084.84769	12620.225
3087.22515	12617.225
3089.60118	12617.625
3091.97576	12604.625
3094.3489	12610.525
3096.72061	12607.425
3099.09087	12592.025
3101.4597	12585.325
3103.82709	12589.925
3106.19305	12547.225
3108.55757	12551.525
3110.92066	12545.625
3113.28232	12530.825
3115.64255	12498.925
3118.00134	12485.925
3120.35871	12431.625
3122.71466	12433.925
3125.06917	12397.325
3127.42226	12366.225
