Data from AgNP_FTO_APTES_UA_10uM_CRN_200uM_R6G_10uM_NaF_0.1M_Addition_RamanShift__25__18-29-50-912.txt Node

Date: Thu Feb 10 18:29:50 GMT 2022
User: TCL
Spectrometer: QEP01345
Trigger mode: 4
Integration Time (sec): 7.000000E0
Scans to average: 10
Electric dark correction enabled: true
Nonlinearity correction enabled: false
Boxcar width: 0
XAxis mode: Raman Shifts
Number of Pixels in Spectrum: 1044
>>>>>Begin Spectral Data<<<<<
46.04893	-0.225
50.45542	0.075
54.85868	-1.725
59.25871	-1.525
63.6555	70.175
68.04907	74.075
72.43941	78.275
76.82654	77.975
81.21044	81.675
85.59113	82.175
89.96862	87.375
94.34289	91.875
98.71396	93.675
103.08183	99.575
107.4465	102.375
111.80798	98.075
116.16626	103.775
120.52136	112.875
124.87327	113.475
129.222	114.275
133.56755	127.375
137.90993	133.175
142.24913	143.975
146.58517	162.075
150.91804	184.975
155.24774	221.475
159.57429	278.075
163.89768	353.175
168.21792	468.775
172.53501	638.075
176.84895	885.875
181.15975	1251.175
185.46741	1748.675
189.77193	2430.275
194.07331	3253.175
198.37157	4204.475
202.6667	5208.575
206.9587	6189.175
211.24758	7179.375
215.53334	8159.375
219.81599	9197.975
224.09553	10364.175
228.37195	11636.675
232.64527	13078.975
236.91549	14542.175
241.18261	16027.675
245.44663	17419.175
249.70755	18634.275
253.96539	19679.475
258.22014	20562.475
262.4718	21366.775
266.72039	21976.575
270.96589	22306.275
275.20832	22400.275
279.44768	22309.275
283.68397	22080.375
287.91719	21841.675
292.14735	21736.775
296.37445	21891.175
300.59849	22119.875
304.81948	22404.975
309.03742	22505.275
313.25231	22273.075
317.46415	21643.075
321.67296	20743.275
325.87872	20054.075
330.08145	19740.475
334.28114	19768.075
338.47781	20002.275
342.67145	20340.375
346.86207	20819.875
351.04966	21495.875
355.23424	22183.675
359.4158	22799.275
363.59435	23198.275
367.76989	23472.675
371.94243	23595.875
376.11196	23722.475
380.27849	23819.975
384.44203	23847.475
388.60257	23835.975
392.76012	23864.075
396.91468	24077.175
401.06626	24406.675
405.21485	24718.175
409.36047	24606.075
413.50311	24041.175
417.64277	23477.675
421.77947	23206.475
425.9132	23193.875
430.04396	23314.275
434.17176	23463.075
438.2966	23759.475
442.41849	24168.775
446.53742	24731.575
450.6534	25303.675
454.76644	25776.875
458.87653	25944.275
462.98368	25851.475
467.08789	25558.175
471.18916	25267.975
475.2875	24970.575
479.38291	24765.475
483.4754	24542.975
487.56496	24242.075
491.6516	23960.875
495.73531	23692.875
499.81612	23583.775
503.89401	23691.775
507.96899	23819.475
512.04106	23930.675
516.11023	24110.075
520.1765	24121.975
524.23987	24079.875
528.30034	23857.775
532.35792	23621.175
536.41261	23424.275
540.46441	23189.175
544.51333	23166.275
548.55936	23306.375
552.60252	23648.675
556.64279	24073.175
560.6802	24343.775
564.71473	24459.375
568.7464	24946.875
572.7752	25369.975
576.80114	25169.475
580.82422	24868.375
584.84444	24698.375
588.86181	24747.175
592.87633	24982.175
596.888	25286.275
600.89682	25591.275
604.9028	26834.675
608.90594	30315.875
612.90624	34987.975
616.90371	33851.075
620.89834	27437.775
624.89015	24565.475
628.87913	24108.375
632.86528	24127.175
636.84862	24107.875
640.82913	23856.075
644.80683	23339.075
648.78172	22953.275
652.75379	22941.675
656.72306	23306.775
660.68952	23899.375
664.65319	23872.875
668.61405	23343.175
672.57211	23087.975
676.52738	23108.275
680.47986	23187.175
684.42955	23131.975
688.37646	23044.375
692.32058	23103.775
696.26192	23263.275
700.20048	23424.175
704.13626	23583.975
708.06928	23492.675
711.99952	23393.275
715.927	23304.375
719.85171	23305.575
723.77365	23330.375
727.69284	23212.475
731.60928	23113.275
735.52295	23085.575
739.43388	23119.875
743.34206	23152.475
747.24749	23243.975
751.15017	23350.375
755.05012	23661.475
758.94733	24266.475
762.8418	25442.175
766.73354	27505.175
770.62254	29737.475
774.50882	30815.675
778.39237	29852.975
782.27321	27376.775
786.15132	25184.775
790.02671	23891.075
793.89938	23326.175
797.76935	23113.275
801.6366	23035.375
805.50115	22961.675
809.36299	22880.875
813.22213	22844.175
817.07857	22844.575
820.93231	22818.175
824.78336	22823.575
828.63172	22858.875
832.47738	22898.775
836.32036	22903.975
840.16066	22933.875
843.99827	22934.475
847.8332	22898.175
851.66546	22875.575
855.49504	22809.175
859.32195	22853.675
863.1462	22754.275
866.96777	22703.775
870.78668	22671.675
874.60293	22680.375
878.41652	22700.675
882.22745	22755.875
886.03573	22818.475
889.84136	22813.875
893.64433	22735.975
897.44466	22684.275
901.24235	22646.475
905.0374	22578.075
908.8298	22509.675
912.61957	22530.175
916.40671	22602.675
920.19121	22778.275
923.97308	22921.975
927.75233	23011.775
931.52895	23117.575
935.30295	22966.975
939.07433	22632.675
942.84309	22280.375
946.60924	22121.975
950.37278	22007.475
954.13371	21996.775
957.89203	21834.975
961.64774	21795.175
965.40086	21733.975
969.15137	21640.875
972.89929	21604.675
976.64461	21560.075
980.38733	21584.775
984.12747	21638.975
987.86502	21793.775
991.59999	21944.575
995.33237	22251.475
999.06217	22705.575
1002.78939	23230.975
1006.51404	23541.875
1010.23611	23721.875
1013.95561	23886.775
1017.67255	23930.475
1021.38692	23779.875
1025.09872	23629.375
1028.80796	23722.575
1032.51465	24100.075
1036.21877	24507.775
1039.92035	24529.675
1043.61937	24290.875
1047.31584	23925.675
1051.00976	23502.875
1054.70114	23301.375
1058.38998	23283.975
1062.07627	23338.475
1065.76003	23444.175
1069.44126	23456.775
1073.11995	23518.575
1076.79611	23668.975
1080.46974	23807.775
1084.14085	24049.075
1087.80943	24353.475
1091.47549	24491.875
1095.13903	24329.275
1098.80005	24038.475
1102.45857	23667.275
1106.11456	23506.875
1109.76805	23563.975
1113.41903	23826.375
1117.06751	24149.075
1120.71348	24589.175
1124.35696	24994.575
1127.99793	25324.675
1131.63641	25410.375
1135.2724	24946.875
1138.90589	24417.275
1142.5369	24047.575
1146.16542	23852.375
1149.79145	23772.775
1153.415	23854.275
1157.03607	23988.875
1160.65467	24347.575
1164.27079	24926.675
1167.88443	25795.675
1171.49561	27035.975
1175.10432	28891.775
1178.71056	31361.775
1182.31434	33503.375
1185.91565	34460.275
1189.51451	34252.475
1193.11091	33094.375
1196.70485	31588.175
1200.29634	30312.175
1203.88538	29336.475
1207.47197	28388.275
1211.05612	27571.075
1214.63782	27044.475
1218.21708	26846.975
1221.79391	26836.175
1225.36829	26832.675
1228.94024	26671.875
1232.50976	26467.275
1236.07685	26283.875
1239.6415	26236.975
1243.20374	26365.975
1246.76355	26600.675
1250.32093	26913.575
1253.8759	27360.275
1257.42845	27953.975
1260.97859	28518.975
1264.52631	29015.775
1268.07163	29518.175
1271.61453	30040.775
1275.15503	30586.475
1278.69312	31078.075
1282.22882	31405.575
1285.76211	31821.575
1289.29301	32325.975
1292.82151	33086.875
1296.34761	34007.675
1299.87133	35399.775
1303.39266	37330.975
1306.9116	39940.675
1310.42815	42783.975
1313.94233	44527.875
1317.45412	44392.575
1320.96354	42945.375
1324.47058	41127.375
1327.97525	39541.475
1331.47754	38537.475
1334.97747	38287.775
1338.47502	38609.575
1341.97022	39271.675
1345.46305	39651.975
1348.95352	39848.675
1352.44163	40344.275
1355.92738	41657.575
1359.41078	44483.175
1362.89183	47324.375
1366.37053	46382.575
1369.84688	41618.475
1373.32088	36631.275
1376.79254	33517.875
1380.26186	32053.275
1383.72883	31438.575
1387.19347	31169.675
1390.65578	30863.075
1394.11575	30733.075
1397.57339	30874.175
1401.0287	31307.375
1404.48168	31832.375
1407.93234	32308.375
1411.38068	32494.475
1414.82669	32198.575
1418.27039	31510.175
1421.71177	30572.575
1425.15083	29765.975
1428.58758	29175.675
1432.02203	29107.575
1435.45416	29313.475
1438.88399	29521.975
1442.31151	29739.075
1445.73673	30015.775
1449.15965	30283.575
1452.58027	30484.475
1455.9986	30547.775
1459.41463	30689.675
1462.82837	31003.975
1466.23982	31379.075
1469.64898	31886.175
1473.05586	32137.775
1476.46045	32257.575
1479.86276	32335.975
1483.26279	32488.275
1486.66054	32720.275
1490.05602	33069.375
1493.44922	33536.575
1496.84016	34164.475
1500.22882	35177.475
1503.61521	36759.275
1506.99934	38961.175
1510.38121	41183.175
1513.76081	42341.875
1517.13816	41378.075
1520.51324	38700.575
1523.88607	35903.175
1527.25665	33860.475
1530.62498	32748.875
1533.99105	32124.775
1537.35488	31798.875
1540.71647	31676.475
1544.07581	31538.175
1547.4329	31379.575
1550.78776	31202.075
1554.14038	31038.875
1557.49077	31092.975
1560.83892	31310.075
1564.18484	31511.575
1567.52853	31714.675
1570.86999	31791.275
1574.20922	31950.575
1577.54624	31933.475
1580.88103	31537.575
1584.2136	31032.775
1587.54395	31062.075
1590.87208	31902.775
1594.19801	33408.075
1597.52172	35231.275
1600.84321	36085.875
1604.16251	35160.475
1607.47959	33256.075
1610.79447	31096.175
1614.10715	29009.375
1617.41763	27304.375
1620.7259	26140.775
1624.03199	25592.775
1627.33587	25506.175
1630.63757	25969.175
1633.93707	26879.675
1637.23439	28393.875
1640.52951	30312.875
1643.82246	32531.475
1647.11321	34783.575
1650.40179	35973.875
1653.68819	34885.375
1656.97241	31653.075
1660.25446	28101.575
1663.53433	25449.475
1666.81203	23784.375
1670.08756	22766.975
1673.36092	22110.175
1676.63211	21720.675
1679.90115	21377.875
1683.16801	21141.675
1686.43272	20974.775
1689.69527	20853.175
1692.95567	20752.675
1696.2139	20743.375
1699.46999	20712.575
1702.72392	20700.675
1705.97571	20648.075
1709.22535	20580.875
1712.47284	20590.775
1715.71819	20599.975
1718.96139	20570.675
1722.20246	20593.375
1725.44139	20475.075
1728.67818	20389.675
1731.91284	20293.675
1735.14537	20180.375
1738.37576	20155.375
1741.60403	20124.175
1744.83017	20091.375
1748.05418	20023.275
1751.27607	19997.475
1754.49584	19988.475
1757.71349	20005.475
1760.92903	19971.175
1764.14244	19936.075
1767.35375	19920.775
1770.56294	19935.275
1773.77002	19910.375
1776.97499	19878.775
1780.17785	19813.675
1783.37861	19800.875
1786.57727	19761.375
1789.77382	19718.175
1792.96828	19734.375
1796.16064	19672.075
1799.3509	19667.775
1802.53907	19645.875
1805.72514	19621.275
1808.90913	19566.875
1812.09102	19550.875
1815.27083	19426.975
1818.44856	19458.375
1821.6242	19443.875
1824.79776	19407.775
1827.96924	19382.075
1831.13864	19366.475
1834.30597	19346.875
1837.47122	19333.575
1840.6344	19336.575
1843.7955	19361.175
1846.95454	19307.975
1850.11151	19310.075
1853.26642	19324.875
1856.41926	19323.475
1859.57004	19366.675
1862.71876	19341.475
1865.86542	19280.675
1869.01003	19288.075
1872.15258	19305.875
1875.29308	19313.975
1878.43152	19279.975
1881.56792	19283.275
1884.70227	19260.875
1887.83457	19233.375
1890.96482	19246.575
1894.09304	19227.975
1897.21921	19208.875
1900.34335	19196.575
1903.46544	19164.275
1906.58551	19200.575
1909.70353	19181.475
1912.81953	19172.175
1915.93349	19169.875
1919.04543	19099.275
1922.15534	19068.975
1925.26322	19041.875
1928.36908	19019.475
1931.47292	18993.875
1934.57473	18966.475
1937.67453	18909.775
1940.77232	18884.375
1943.86808	18834.975
1946.96184	18714.075
1950.05358	18687.975
1953.14331	18629.675
1956.23103	18556.375
1959.31675	18494.175
1962.40046	18466.075
1965.48217	18404.775
1968.56188	18355.275
1971.63959	18285.275
1974.7153	18244.375
1977.78901	18202.075
1980.86073	18142.575
1983.93046	18107.775
1986.99819	18092.275
1990.06394	18027.975
1993.1277	18026.875
1996.18947	17900.075
1999.24925	17888.175
2002.30706	17815.275
2005.36288	17749.975
2008.41672	17712.875
2011.46859	17672.275
2014.51848	17656.975
2017.56639	17633.075
2020.61233	17555.675
2023.6563	17481.775
2026.6983	17473.175
2029.73833	17423.775
2032.7764	17374.775
2035.8125	17385.175
2038.84664	17324.875
2041.87881	17290.275
2044.90903	17275.175
2047.93729	17245.575
2050.96359	17232.075
2053.98794	17204.675
2057.01034	17209.475
2060.03078	17169.475
2063.04927	17142.275
2066.06582	17171.775
2069.08042	17145.375
2072.09307	17127.075
2075.10378	17143.875
2078.11255	17114.275
2081.11938	17121.275
2084.12426	17098.775
2087.12722	17101.075
2090.12824	17072.275
2093.12732	17046.675
2096.12447	17075.875
2099.11969	17092.875
2102.11299	17068.775
2105.10435	17072.975
2108.09379	17061.575
2111.08131	17095.875
2114.0669	17096.675
2117.05057	17105.575
2120.03233	17128.275
2123.01216	17152.775
2125.99008	17102.675
2128.96609	17136.775
2131.94018	17194.975
2134.91236	17186.675
2137.88263	17195.475
2140.851	17203.175
2143.81746	17237.675
2146.78201	17193.275
2149.74466	17192.375
2152.7054	17233.775
2155.66425	17227.875
2158.6212	17216.775
2161.57625	17197.675
2164.52941	17207.075
2167.48067	17176.675
2170.43004	17207.975
2173.37752	17134.675
2176.32311	17180.975
2179.26681	17213.075
2182.20863	17193.875
2185.14856	17214.575
2188.08661	17199.475
2191.02278	17194.175
2193.95707	17203.175
2196.88948	17220.975
2199.82001	17194.275
2202.74867	17160.675
2205.67545	17165.575
2208.60037	17169.275
2211.52341	17133.575
2214.44458	17105.975
2217.36388	17089.475
2220.28132	17017.975
2223.1969	17020.075
2226.11061	17002.675
2229.02246	16972.375
2231.93245	16913.175
2234.84058	16867.675
2237.74686	16870.575
2240.65128	16864.575
2243.55385	16840.275
2246.45456	16806.475
2249.35343	16766.775
2252.25044	16762.475
2255.14561	16743.875
2258.03893	16728.475
2260.93041	16727.175
2263.82004	16679.475
2266.70783	16616.975
2269.59378	16567.275
2272.4779	16552.375
2275.36017	16506.475
2278.24061	16463.575
2281.11922	16475.875
2283.996	16448.375
2286.87094	16425.375
2289.74405	16392.575
2292.61534	16410.275
2295.4848	16371.175
2298.35243	16411.975
2301.21824	16363.575
2304.08223	16392.575
2306.94439	16395.575
2309.80474	16414.675
2312.66327	16382.975
2315.51999	16371.075
2318.37489	16361.075
2321.22797	16335.675
2324.07925	16309.575
2326.92871	16303.375
2329.77637	16243.675
2332.62222	16262.575
2335.46626	16235.875
2338.3085	16252.375
2341.14893	16289.175
2343.98756	16245.075
2346.8244	16244.575
2349.65943	16251.075
2352.49267	16212.775
2355.32411	16264.775
2358.15376	16222.075
2360.98161	16244.875
2363.80768	16205.775
2366.63195	16191.375
2369.45444	16170.075
2372.27514	16140.975
2375.09405	16119.975
2377.91118	16140.175
2380.72652	16058.975
2383.54009	16036.775
2386.35187	15956.675
2389.16188	15922.975
2391.97011	15917.275
2394.77657	15892.175
2397.58125	15846.175
2400.38416	15822.475
2403.18529	15769.375
2405.98466	15767.675
2408.78226	15723.175
2411.57809	15675.275
2414.37216	15645.575
2417.16446	15658.475
2419.955	15631.575
2422.74378	15657.075
2425.5308	15645.375
2428.31606	15635.675
2431.09956	15614.175
2433.88131	15597.675
2436.6613	15591.075
2439.43954	15559.275
2442.21603	15571.075
2444.99077	15556.375
2447.76377	15570.675
2450.53501	15509.875
2453.30451	15544.775
2456.07226	15503.575
2458.83827	15512.675
2461.60254	15526.875
2464.36507	15487.875
2467.12586	15459.975
2469.88492	15452.475
2472.64224	15474.875
2475.39782	15456.375
2478.15167	15464.075
2480.90379	15478.875
2483.65417	15500.875
2486.40283	15526.275
2489.14976	15510.475
2491.89497	15537.475
2494.63845	15534.875
2497.3802	15499.375
2500.12024	15502.675
2502.85855	15498.675
2505.59514	15497.075
2508.33002	15456.475
2511.06318	15422.075
2513.79462	15375.775
2516.52435	15365.475
2519.25237	15340.175
2521.97867	15334.675
2524.70327	15306.875
2527.42616	15290.175
2530.14734	15286.175
2532.86681	15295.875
2535.58458	15320.275
2538.30065	15274.275
2541.01501	15284.175
2543.72768	15264.575
2546.43864	15232.475
2549.14791	15212.675
2551.85548	15255.675
2554.56136	15205.675
2557.26554	15149.475
2559.96803	15146.475
2562.66883	15090.075
2565.36794	15075.375
2568.06536	15044.975
2570.7611	15050.775
2573.45514	15023.475
2576.14751	15016.375
2578.83819	15003.875
2581.52719	14991.975
2584.21451	14949.875
2586.90015	14966.175
2589.58411	14912.475
2592.2664	14943.375
2594.94701	14907.875
2597.62594	14865.175
2600.30321	14862.875
2602.9788	14835.675
2605.65273	14853.075
2608.32498	14806.775
2610.99557	14800.375
2613.66449	14814.975
2616.33175	14802.175
2618.99734	14802.475
2621.66128	14814.975
2624.32355	14797.375
2626.98416	14769.375
2629.64311	14772.175
2632.30041	14781.075
2634.95605	14732.675
2637.61004	14690.875
2640.26238	14699.375
2642.91306	14698.175
2645.56209	14680.375
2648.20948	14638.275
2650.85521	14626.575
2653.4993	14637.075
2656.14175	14634.075
2658.78255	14621.175
2661.42171	14640.375
2664.05923	14674.175
2666.6951	14681.175
2669.32934	14714.475
2671.96194	14696.975
2674.59291	14674.575
2677.22224	14668.075
2679.84993	14688.875
2682.476	14671.075
2685.10043	14663.975
2687.72324	14662.375
2690.34441	14662.875
2692.96396	14658.875
2695.58188	14628.975
2698.19818	14633.975
2700.81285	14643.675
2703.4259	14637.975
2706.03733	14633.575
2708.64714	14657.175
2711.25533	14643.475
2713.86191	14644.775
2716.46687	14659.175
2719.07021	14659.675
2721.67194	14673.375
2724.27206	14662.975
2726.87057	14654.575
2729.46747	14680.175
2732.06276	14711.175
2734.65644	14677.175
2737.24852	14666.475
2739.83899	14656.975
2742.42786	14644.275
2745.01513	14598.775
2747.60079	14593.375
2750.18486	14570.775
2752.76733	14586.175
2755.3482	14567.075
2757.92747	14548.975
2760.50515	14531.675
2763.08123	14522.275
2765.65573	14490.275
2768.22863	14497.575
2770.79994	14502.275
2773.36967	14489.975
2775.9378	14459.975
2778.50435	14455.875
2781.06932	14484.875
2783.6327	14465.875
2786.1945	14472.475
2788.75471	14436.275
2791.31335	14431.675
2793.87041	14418.475
2796.42589	14362.975
2798.97979	14370.575
2801.53212	14368.075
2804.08288	14326.375
2806.63206	14271.375
2809.17967	14232.675
2811.72571	14204.275
2814.27018	14215.675
2816.81308	14173.775
2819.35442	14157.375
2821.89419	14114.375
2824.43239	14147.775
2826.96904	14108.975
2829.50412	14127.175
2832.03763	14118.375
2834.56959	14119.475
2837.1	14091.975
2839.62884	14091.075
2842.15613	14072.475
2844.68186	14107.175
2847.20604	14121.575
2849.72867	14151.975
2852.24974	14141.075
2854.76927	14134.975
2857.28724	14068.075
2859.80367	14089.475
2862.31855	14058.775
2864.83189	14041.875
2867.34368	14012.575
2869.85393	14001.475
2872.36264	14021.475
2874.8698	14010.075
2877.37543	14001.275
2879.87952	13979.975
2882.38207	13982.775
2884.88308	13995.675
2887.38256	14013.175
2889.88051	13993.775
2892.37692	13992.275
2894.8718	13972.075
2897.36515	13989.975
2899.85698	13962.075
2902.34727	14024.375
2904.83604	14013.775
2907.32328	14040.875
2909.809	14058.275
2912.29319	14037.175
2914.77587	14055.975
2917.25702	14025.875
2919.73665	14022.575
2922.21476	14040.875
2924.69136	13997.975
2927.16644	14008.075
2929.64	13985.175
2932.11205	13976.475
2934.58258	13964.775
2937.05161	13961.275
2939.51912	13947.675
2941.98513	13919.775
2944.44962	13893.775
2946.91261	13861.675
2949.37409	13868.575
2951.83407	13847.075
2954.29254	13836.075
2956.74951	13841.275
2959.20498	13794.075
2961.65895	13786.875
2964.11142	13802.775
2966.56239	13725.575
2969.01186	13741.575
2971.45984	13737.075
2973.90632	13695.375
2976.35131	13685.775
2978.7948	13684.275
2981.23681	13644.775
2983.67732	13628.575
2986.11635	13582.875
2988.55388	13574.375
2990.98993	13530.475
2993.4245	13510.575
2995.85758	13478.375
2998.28917	13434.075
3000.71928	13393.375
3003.14791	13399.675
3005.57506	13399.775
3008.00073	13384.875
3010.42493	13359.075
3012.84764	13350.175
3015.26888	13316.375
3017.68865	13286.975
3020.10694	13297.275
3022.52376	13239.575
3024.9391	13232.475
3027.35298	13208.375
3029.76539	13184.875
3032.17632	13196.575
3034.5858	13201.775
3036.9938	13181.675
3039.40034	13150.975
3041.80542	13178.275
3044.20903	13133.775
3046.61118	13122.175
3049.01187	13113.375
3051.4111	13072.575
3053.80888	13074.775
3056.20519	13031.675
3058.60005	13014.575
3060.99345	12958.475
3063.3854	12923.775
3065.7759	12906.775
3068.16494	12904.475
3070.55254	12868.775
3072.93868	12824.375
3075.32338	12794.475
3077.70662	12792.775
3080.08842	12733.575
3082.46878	12739.675
3084.84769	12710.775
3087.22515	12685.275
3089.60118	12700.075
3091.97576	12692.975
3094.3489	12697.675
3096.72061	12687.875
3099.09087	12690.375
3101.4597	12685.275
3103.82709	12668.175
3106.19305	12664.975
3108.55757	12657.475
3110.92066	12607.475
3113.28232	12605.175
3115.64255	12594.275
3118.00134	12569.375
3120.35871	12539.375
3122.71466	12519.275
3125.06917	12468.375
3127.42226	12422.975
