Data from AgNP_FTO_APTES_UA_10uM_CRN_10uM_R6G_10uM_NaF_0.1M_Addition_RamanShift__16__15-43-00-705.txt Node

Date: Thu Feb 10 15:43:00 GMT 2022
User: TCL
Spectrometer: QEP01345
Trigger mode: 4
Integration Time (sec): 7.000000E0
Scans to average: 10
Electric dark correction enabled: true
Nonlinearity correction enabled: false
Boxcar width: 0
XAxis mode: Raman Shifts
Number of Pixels in Spectrum: 1044
>>>>>Begin Spectral Data<<<<<
46.04893	-0.225
50.45542	-0.825
54.85868	-0.525
59.25871	-1.425
63.6555	68.475
68.04907	76.075
72.43941	78.675
76.82654	77.075
81.21044	87.675
85.59113	84.675
89.96862	93.175
94.34289	93.175
98.71396	96.475
103.08183	101.175
107.4465	105.875
111.80798	103.375
116.16626	108.375
120.52136	111.675
124.87327	117.375
129.222	123.275
133.56755	132.975
137.90993	141.575
142.24913	153.375
146.58517	171.275
150.91804	204.575
155.24774	241.775
159.57429	296.875
163.89768	381.675
168.21792	505.575
172.53501	697.375
176.84895	963.075
181.15975	1368.775
185.46741	1914.175
189.77193	2633.275
194.07331	3540.175
198.37157	4532.175
202.6667	5607.575
206.9587	6649.575
211.24758	7675.975
215.53334	8698.175
219.81599	9787.175
224.09553	10981.375
228.37195	12314.975
232.64527	13774.075
236.91549	15308.475
241.18261	16853.975
245.44663	18284.575
249.70755	19542.775
253.96539	20757.375
258.22014	21727.675
262.4718	22558.575
266.72039	23192.975
270.96589	23521.675
275.20832	23664.275
279.44768	23615.475
283.68397	23475.875
287.91719	23323.575
292.14735	23241.775
296.37445	23276.875
300.59849	23366.475
304.81948	23354.475
309.03742	23220.075
313.25231	22872.675
317.46415	22342.975
321.67296	21691.275
325.87872	21194.275
330.08145	20980.675
334.28114	20944.675
338.47781	21051.175
342.67145	21318.675
346.86207	21655.275
351.04966	22066.075
355.23424	22492.575
359.4158	22826.075
363.59435	23117.075
367.76989	23288.275
371.94243	23449.875
376.11196	23550.375
380.27849	23645.175
384.44203	23765.675
388.60257	23938.675
392.76012	24195.875
396.91468	24468.775
401.06626	24805.175
405.21485	25032.175
409.36047	24883.975
413.50311	24518.675
417.64277	24294.975
421.77947	24249.175
425.9132	24359.975
430.04396	24522.175
434.17176	24659.975
438.2966	24845.975
442.41849	25190.975
446.53742	25794.575
450.6534	26490.975
454.76644	27056.175
458.87653	27291.475
462.98368	27286.775
467.08789	27065.575
471.18916	26726.075
475.2875	26490.375
479.38291	26353.475
483.4754	26212.575
487.56496	25876.675
491.6516	25391.075
495.73531	24971.975
499.81612	24768.575
503.89401	24882.975
507.96899	24962.575
512.04106	24943.575
516.11023	24755.375
520.1765	24467.575
524.23987	24243.975
528.30034	23971.875
532.35792	23758.575
536.41261	23506.175
540.46441	23277.575
544.51333	23392.875
548.55936	23723.775
552.60252	24249.275
556.64279	24819.075
560.6802	25233.375
564.71473	25491.375
568.7464	25853.275
572.7752	26521.575
576.80114	27034.775
580.82422	27430.075
584.84444	27818.175
588.86181	28089.775
592.87633	28226.975
596.888	28182.275
600.89682	28033.475
604.9028	28746.675
608.90594	30875.175
612.90624	32799.075
616.90371	30610.775
620.89834	26117.875
624.89015	24264.975
628.87913	24061.675
632.86528	24177.675
636.84862	24108.575
640.82913	23763.675
644.80683	23237.775
648.78172	22724.775
652.75379	22630.975
656.72306	22855.375
660.68952	23175.075
664.65319	23060.575
668.61405	22716.175
672.57211	22616.875
676.52738	22703.175
680.47986	22677.875
684.42955	22534.575
688.37646	22505.075
692.32058	22608.475
696.26192	22833.875
700.20048	23117.675
704.13626	23285.075
708.06928	23256.175
711.99952	23102.075
715.927	23041.475
719.85171	23074.975
723.77365	23025.375
727.69284	22773.075
731.60928	22515.075
735.52295	22440.375
739.43388	22423.275
743.34206	22457.375
747.24749	22576.275
751.15017	22814.275
755.05012	23218.875
758.94733	23933.575
762.8418	25138.775
766.73354	26837.475
770.62254	28465.375
774.50882	28636.175
778.39237	27284.075
782.27321	25303.375
786.15132	23895.075
790.02671	22970.175
793.89938	22571.675
797.76935	22384.175
801.6366	22350.475
805.50115	22289.975
809.36299	22128.575
813.22213	21955.775
817.07857	21890.875
820.93231	21841.675
824.78336	21682.875
828.63172	21609.875
832.47738	21562.475
836.32036	21590.075
840.16066	21627.575
843.99827	21695.075
847.8332	21640.675
851.66546	21572.575
855.49504	21566.775
859.32195	21567.275
863.1462	21510.875
866.96777	21448.775
870.78668	21360.675
874.60293	21349.575
878.41652	21353.375
882.22745	21411.575
886.03573	21453.275
889.84136	21441.475
893.64433	21374.875
897.44466	21285.075
901.24235	21176.575
905.0374	21153.375
908.8298	21136.975
912.61957	21193.075
916.40671	21374.575
920.19121	21664.075
923.97308	21873.275
927.75233	21856.475
931.52895	21621.775
935.30295	21390.775
939.07433	21011.775
942.84309	20731.975
946.60924	20602.675
950.37278	20566.875
954.13371	20562.075
957.89203	20494.075
961.64774	20480.075
965.40086	20419.675
969.15137	20328.675
972.89929	20266.675
976.64461	20226.175
980.38733	20199.275
984.12747	20291.175
987.86502	20440.675
991.59999	20653.375
995.33237	21020.475
999.06217	21556.975
1002.78939	22173.175
1006.51404	22535.375
1010.23611	22788.575
1013.95561	22944.475
1017.67255	22942.375
1021.38692	22726.375
1025.09872	22491.275
1028.80796	22461.775
1032.51465	22798.775
1036.21877	23224.675
1039.92035	23310.975
1043.61937	23112.175
1047.31584	22753.175
1051.00976	22379.675
1054.70114	22265.775
1058.38998	22347.675
1062.07627	22570.675
1065.76003	22707.775
1069.44126	22895.775
1073.11995	23125.275
1076.79611	23373.275
1080.46974	23582.875
1084.14085	23839.275
1087.80943	24103.875
1091.47549	24340.575
1095.13903	24328.275
1098.80005	24091.175
1102.45857	23619.375
1106.11456	23222.375
1109.76805	23040.375
1113.41903	23093.175
1117.06751	23238.175
1120.71348	23447.975
1124.35696	23680.075
1127.99793	23941.775
1131.63641	24039.575
1135.2724	23958.975
1138.90589	23854.975
1142.5369	23840.675
1146.16542	23929.175
1149.79145	24056.075
1153.415	24384.375
1157.03607	24747.675
1160.65467	25518.475
1164.27079	26645.875
1167.88443	28072.875
1171.49561	29749.975
1175.10432	31937.075
1178.71056	34565.075
1182.31434	37009.375
1185.91565	38421.875
1189.51451	38545.575
1193.11091	37634.375
1196.70485	36176.875
1200.29634	34623.375
1203.88538	33453.475
1207.47197	32659.975
1211.05612	32073.075
1214.63782	31424.575
1218.21708	30798.175
1221.79391	30241.275
1225.36829	29930.175
1228.94024	29518.475
1232.50976	29042.475
1236.07685	28611.675
1239.6415	28402.675
1243.20374	28373.975
1246.76355	28545.575
1250.32093	28924.975
1253.8759	29576.075
1257.42845	30399.175
1260.97859	31312.875
1264.52631	32139.375
1268.07163	33004.775
1271.61453	33986.775
1275.15503	34957.875
1278.69312	36017.975
1282.22882	36878.775
1285.76211	37805.375
1289.29301	38833.675
1292.82151	40187.475
1296.34761	42008.575
1299.87133	44284.075
1303.39266	46923.875
1306.9116	49595.975
1310.42815	52041.575
1313.94233	53592.175
1317.45412	53755.575
1320.96354	53330.975
1324.47058	52779.275
1327.97525	52327.175
1331.47754	52027.675
1334.97747	52104.075
1338.47502	52223.375
1341.97022	52173.775
1345.46305	51490.175
1348.95352	50430.975
1352.44163	49239.975
1355.92738	48858.275
1359.41078	49670.275
1362.89183	50504.375
1366.37053	49195.275
1369.84688	45551.475
1373.32088	41448.075
1376.79254	38665.875
1380.26186	37669.475
1383.72883	37702.475
1387.19347	37864.275
1390.65578	37796.875
1394.11575	37905.275
1397.57339	38382.175
1401.0287	39179.775
1404.48168	39847.875
1407.93234	39986.675
1411.38068	39361.775
1414.82669	38072.275
1418.27039	36355.375
1421.71177	34675.075
1425.15083	33318.075
1428.58758	32609.975
1432.02203	32774.075
1435.45416	33467.075
1438.88399	34583.475
1442.31151	35517.075
1445.73673	36237.875
1449.15965	36820.675
1452.58027	37267.675
1455.9986	37571.775
1459.41463	37923.875
1462.82837	38474.175
1466.23982	39170.175
1469.64898	39739.475
1473.05586	39998.475
1476.46045	39795.275
1479.86276	39300.475
1483.26279	38615.075
1486.66054	38253.775
1490.05602	38099.675
1493.44922	38158.475
1496.84016	38265.975
1500.22882	38806.375
1503.61521	39770.375
1506.99934	40962.675
1510.38121	42027.375
1513.76081	42313.475
1517.13816	41545.175
1520.51324	40227.475
1523.88607	39101.475
1527.25665	38515.175
1530.62498	38436.675
1533.99105	38447.875
1537.35488	38357.475
1540.71647	37894.275
1544.07581	37186.575
1547.4329	36398.175
1550.78776	35668.475
1554.14038	35187.175
1557.49077	34889.975
1560.83892	34680.675
1564.18484	34590.375
1567.52853	34567.475
1570.86999	34767.075
1574.20922	35229.575
1577.54624	35777.075
1580.88103	35953.975
1584.2136	36381.375
1587.54395	37380.275
1590.87208	39161.875
1594.19801	41354.875
1597.52172	43496.275
1600.84321	44076.075
1604.16251	42227.375
1607.47959	39117.075
1610.79447	35852.675
1614.10715	32748.075
1617.41763	30143.375
1620.7259	28229.175
1624.03199	27251.075
1627.33587	27125.975
1630.63757	27979.575
1633.93707	29826.975
1637.23439	32835.475
1640.52951	36956.675
1643.82246	41317.875
1647.11321	44264.675
1650.40179	44292.675
1653.68819	41049.875
1656.97241	35683.475
1660.25446	30570.275
1663.53433	26740.675
1666.81203	24184.875
1670.08756	22557.875
1673.36092	21542.575
1676.63211	20871.775
1679.90115	20376.275
1683.16801	20016.775
1686.43272	19757.975
1689.69527	19546.275
1692.95567	19369.875
1696.2139	19269.975
1699.46999	19249.675
1702.72392	19118.475
1705.97571	19018.275
1709.22535	18949.575
1712.47284	18895.575
1715.71819	18806.775
1718.96139	18775.075
1722.20246	18703.075
1725.44139	18606.575
1728.67818	18503.875
1731.91284	18353.875
1735.14537	18260.675
1738.37576	18182.375
1741.60403	18099.675
1744.83017	18041.975
1748.05418	17958.275
1751.27607	17951.775
1754.49584	17886.675
1757.71349	17905.175
1760.92903	17891.475
1764.14244	17860.575
1767.35375	17827.575
1770.56294	17786.775
1773.77002	17750.275
1776.97499	17679.075
1780.17785	17624.875
1783.37861	17635.975
1786.57727	17587.975
1789.77382	17530.975
1792.96828	17503.675
1796.16064	17487.375
1799.3509	17448.675
1802.53907	17418.375
1805.72514	17362.275
1808.90913	17300.075
1812.09102	17292.675
1815.27083	17225.675
1818.44856	17196.775
1821.6242	17169.375
1824.79776	17169.975
1827.96924	17153.075
1831.13864	17162.975
1834.30597	17136.375
1837.47122	17158.175
1840.6344	17176.375
1843.7955	17188.975
1846.95454	17142.675
1850.11151	17195.475
1853.26642	17158.175
1856.41926	17175.775
1859.57004	17153.175
1862.71876	17107.875
1865.86542	17068.875
1869.01003	17065.775
1872.15258	17053.675
1875.29308	17047.375
1878.43152	17055.675
1881.56792	17026.975
1884.70227	17023.575
1887.83457	16987.175
1890.96482	16978.975
1894.09304	16977.475
1897.21921	16935.375
1900.34335	16918.675
1903.46544	16893.275
1906.58551	16873.575
1909.70353	16840.375
1912.81953	16813.975
1915.93349	16765.075
1919.04543	16753.175
1922.15534	16709.575
1925.26322	16653.475
1928.36908	16627.075
1931.47292	16576.075
1934.57473	16510.375
1937.67453	16480.875
1940.77232	16446.275
1943.86808	16408.575
1946.96184	16321.275
1950.05358	16255.875
1953.14331	16200.875
1956.23103	16153.975
1959.31675	16124.875
1962.40046	16020.275
1965.48217	16002.875
1968.56188	15981.575
1971.63959	15914.275
1974.7153	15844.075
1977.78901	15801.775
1980.86073	15774.575
1983.93046	15766.975
1986.99819	15669.575
1990.06394	15625.175
1993.1277	15604.575
1996.18947	15505.375
1999.24925	15487.175
2002.30706	15454.875
2005.36288	15384.275
2008.41672	15358.275
2011.46859	15294.175
2014.51848	15272.375
2017.56639	15257.075
2020.61233	15220.575
2023.6563	15156.975
2026.6983	15104.775
2029.73833	15099.575
2032.7764	15093.675
2035.8125	15051.775
2038.84664	15010.675
2041.87881	14977.375
2044.90903	14943.075
2047.93729	14917.275
2050.96359	14911.275
2053.98794	14872.475
2057.01034	14890.975
2060.03078	14883.575
2063.04927	14842.875
2066.06582	14850.275
2069.08042	14863.775
2072.09307	14825.775
2075.10378	14819.175
2078.11255	14776.275
2081.11938	14794.975
2084.12426	14751.375
2087.12722	14775.875
2090.12824	14760.075
2093.12732	14744.775
2096.12447	14760.875
2099.11969	14729.475
2102.11299	14721.275
2105.10435	14728.875
2108.09379	14766.275
2111.08131	14730.575
2114.0669	14747.075
2117.05057	14739.275
2120.03233	14749.375
2123.01216	14799.075
2125.99008	14791.775
2128.96609	14790.575
2131.94018	14816.175
2134.91236	14835.575
2137.88263	14804.875
2140.851	14813.375
2143.81746	14836.375
2146.78201	14840.575
2149.74466	14844.575
2152.7054	14866.775
2155.66425	14851.775
2158.6212	14821.875
2161.57625	14829.775
2164.52941	14836.775
2167.48067	14798.975
2170.43004	14817.775
2173.37752	14767.475
2176.32311	14784.575
2179.26681	14800.875
2182.20863	14798.475
2185.14856	14805.075
2188.08661	14771.875
2191.02278	14797.575
2193.95707	14799.175
2196.88948	14789.075
2199.82001	14753.275
2202.74867	14773.275
2205.67545	14749.675
2208.60037	14743.375
2211.52341	14717.375
2214.44458	14689.075
2217.36388	14675.675
2220.28132	14670.075
2223.1969	14608.275
2226.11061	14594.775
2229.02246	14553.275
2231.93245	14533.975
2234.84058	14503.975
2237.74686	14458.975
2240.65128	14453.075
2243.55385	14430.575
2246.45456	14421.875
2249.35343	14401.775
2252.25044	14381.075
2255.14561	14353.975
2258.03893	14362.475
2260.93041	14292.875
2263.82004	14256.175
2266.70783	14199.475
2269.59378	14160.875
2272.4779	14123.175
2275.36017	14082.075
2278.24061	14083.475
2281.11922	14061.775
2283.996	14062.475
2286.87094	14040.675
2289.74405	14019.675
2292.61534	14011.775
2295.4848	13984.175
2298.35243	13991.075
2301.21824	13980.675
2304.08223	13986.575
2306.94439	14009.975
2309.80474	13995.575
2312.66327	14018.975
2315.51999	13986.875
2318.37489	13995.875
2321.22797	13983.175
2324.07925	13970.175
2326.92871	13921.975
2329.77637	13909.875
2332.62222	13884.975
2335.46626	13866.775
2338.3085	13883.475
2341.14893	13910.975
2343.98756	13904.175
2346.8244	13913.275
2349.65943	13898.875
2352.49267	13915.075
2355.32411	13884.975
2358.15376	13895.575
2360.98161	13908.575
2363.80768	13903.575
2366.63195	13882.775
2369.45444	13843.275
2372.27514	13812.075
2375.09405	13804.175
2377.91118	13786.975
2380.72652	13718.975
2383.54009	13710.875
2386.35187	13671.975
2389.16188	13625.875
2391.97011	13619.075
2394.77657	13595.575
2397.58125	13569.775
2400.38416	13551.975
2403.18529	13564.675
2405.98466	13512.375
2408.78226	13470.075
2411.57809	13464.575
2414.37216	13456.475
2417.16446	13456.875
2419.955	13425.075
2422.74378	13417.875
2425.5308	13410.775
2428.31606	13413.475
2431.09956	13405.875
2433.88131	13389.875
2436.6613	13402.375
2439.43954	13391.075
2442.21603	13382.175
2444.99077	13377.075
2447.76377	13370.975
2450.53501	13375.675
2453.30451	13358.175
2456.07226	13363.675
2458.83827	13366.275
2461.60254	13360.375
2464.36507	13325.475
2467.12586	13308.675
2469.88492	13296.075
2472.64224	13326.375
2475.39782	13342.375
2478.15167	13360.875
2480.90379	13341.775
2483.65417	13365.275
2486.40283	13382.975
2489.14976	13405.775
2491.89497	13385.075
2494.63845	13413.675
2497.3802	13386.375
2500.12024	13399.175
2502.85855	13382.775
2505.59514	13353.775
2508.33002	13347.475
2511.06318	13342.675
2513.79462	13330.875
2516.52435	13339.675
2519.25237	13318.875
2521.97867	13295.175
2524.70327	13281.975
2527.42616	13276.375
2530.14734	13275.675
2532.86681	13277.775
2535.58458	13262.175
2538.30065	13268.275
2541.01501	13261.575
2543.72768	13277.375
2546.43864	13254.275
2549.14791	13216.275
2551.85548	13249.475
2554.56136	13228.575
2557.26554	13215.275
2559.96803	13178.775
2562.66883	13135.375
2565.36794	13142.375
2568.06536	13152.675
2570.7611	13137.275
2573.45514	13107.675
2576.14751	13122.775
2578.83819	13091.375
2581.52719	13076.075
2584.21451	13089.475
2586.90015	13084.075
2589.58411	13088.275
2592.2664	13068.075
2594.94701	13058.775
2597.62594	13049.775
2600.30321	13034.475
2602.9788	13048.975
2605.65273	13028.875
2608.32498	13065.475
2610.99557	13034.175
2613.66449	13033.575
2616.33175	13048.875
2618.99734	13066.775
2621.66128	13045.175
2624.32355	13040.575
2626.98416	13047.575
2629.64311	13015.175
2632.30041	13022.075
2634.95605	13011.175
2637.61004	12987.275
2640.26238	12997.975
2642.91306	12969.575
2645.56209	12990.375
2648.20948	12992.575
2650.85521	12971.175
2653.4993	12972.275
2656.14175	12989.575
2658.78255	12975.875
2661.42171	12990.675
2664.05923	13003.175
2666.6951	13019.875
2669.32934	13045.475
2671.96194	13035.675
2674.59291	13040.975
2677.22224	13032.475
2679.84993	13040.475
2682.476	13013.075
2685.10043	13017.375
2687.72324	12989.875
2690.34441	12980.375
2692.96396	12974.875
2695.58188	12976.475
2698.19818	12966.875
2700.81285	12992.175
2703.4259	12980.675
2706.03733	13004.175
2708.64714	12976.175
2711.25533	12980.975
2713.86191	13021.375
2716.46687	13023.375
2719.07021	13019.375
2721.67194	13041.775
2724.27206	13055.975
2726.87057	13053.075
2729.46747	13079.975
2732.06276	13091.975
2734.65644	13069.975
2737.24852	13061.975
2739.83899	13058.675
2742.42786	13099.675
2745.01513	13065.475
2747.60079	13048.475
2750.18486	12994.775
2752.76733	13035.375
2755.3482	13001.875
2757.92747	13010.175
2760.50515	13006.775
2763.08123	12974.675
2765.65573	12973.975
2768.22863	12991.575
2770.79994	12978.875
2773.36967	12997.375
2775.9378	13007.575
2778.50435	13000.975
2781.06932	13004.375
2783.6327	13007.275
2786.1945	12989.375
2788.75471	12972.275
2791.31335	12949.075
2793.87041	12962.975
2796.42589	12918.975
2798.97979	12931.075
2801.53212	12893.175
2804.08288	12899.975
2806.63206	12827.575
2809.17967	12834.875
2811.72571	12812.375
2814.27018	12778.275
2816.81308	12753.275
2819.35442	12726.275
2821.89419	12695.075
2824.43239	12684.275
2826.96904	12662.875
2829.50412	12677.175
2832.03763	12625.675
2834.56959	12650.675
2837.1	12639.975
2839.62884	12621.375
2842.15613	12636.975
2844.68186	12625.675
2847.20604	12620.875
2849.72867	12621.775
2852.24974	12595.775
2854.76927	12606.775
2857.28724	12576.475
2859.80367	12556.975
2862.31855	12559.075
2864.83189	12522.375
2867.34368	12506.775
2869.85393	12502.275
2872.36264	12507.275
2874.8698	12506.675
2877.37543	12516.675
2879.87952	12519.775
2882.38207	12509.575
2884.88308	12495.875
2887.38256	12521.375
2889.88051	12513.475
2892.37692	12524.575
2894.8718	12504.775
2897.36515	12542.475
2899.85698	12572.075
2902.34727	12562.275
2904.83604	12567.175
2907.32328	12602.575
2909.809	12601.275
2912.29319	12591.175
2914.77587	12607.175
2917.25702	12579.675
2919.73665	12562.375
2922.21476	12601.575
2924.69136	12590.375
2927.16644	12574.675
2929.64	12553.775
2932.11205	12525.975
2934.58258	12502.975
2937.05161	12499.775
2939.51912	12505.975
2941.98513	12480.775
2944.44962	12451.275
2946.91261	12425.275
2949.37409	12437.575
2951.83407	12427.975
2954.29254	12437.175
2956.74951	12407.575
2959.20498	12407.475
2961.65895	12372.175
2964.11142	12383.275
2966.56239	12376.975
2969.01186	12350.975
2971.45984	12303.575
2973.90632	12313.575
2976.35131	12280.875
2978.7948	12277.075
2981.23681	12237.275
2983.67732	12204.775
2986.11635	12179.275
2988.55388	12152.575
2990.98993	12102.675
2993.4245	12068.875
2995.85758	12042.575
2998.28917	12042.175
3000.71928	12029.875
3003.14791	11969.575
3005.57506	11962.275
3008.00073	11941.575
3010.42493	11776.675
3012.84764	11844.575
3015.26888	11840.675
3017.68865	11826.775
3020.10694	11835.775
3022.52376	11813.675
3024.9391	11806.075
3027.35298	11787.775
3029.76539	11775.875
3032.17632	11782.375
3034.5858	11784.275
3036.9938	11765.575
3039.40034	11750.675
3041.80542	11777.975
3044.20903	11757.475
3046.61118	11729.375
3049.01187	11664.675
3051.4111	11692.975
3053.80888	11621.375
3056.20519	11623.475
3058.60005	11589.975
3060.99345	11595.775
3063.3854	11552.875
3065.7759	11514.675
3068.16494	11477.775
3070.55254	11477.175
3072.93868	11424.275
3075.32338	11392.975
3077.70662	11386.775
3080.08842	11348.575
3082.46878	11354.575
3084.84769	11336.875
3087.22515	11342.475
3089.60118	11308.475
3091.97576	11295.975
3094.3489	11313.375
3096.72061	11291.975
3099.09087	11318.075
3101.4597	11283.775
3103.82709	11263.675
3106.19305	11262.675
3108.55757	11234.575
3110.92066	11206.675
3113.28232	11198.875
3115.64255	11158.075
3118.00134	11154.475
3120.35871	11106.475
3122.71466	11113.275
3125.06917	11086.475
3127.42226	11056.575
