Data from AgNP_FTO_APTES_UA_10uM_CRN_100uM_R6G_10uM_NaF_0.1M_Addition_RamanShift__29__17-58-20-873.txt Node

Date: Thu Feb 10 17:58:20 GMT 2022
User: TCL
Spectrometer: QEP01345
Trigger mode: 4
Integration Time (sec): 7.000000E0
Scans to average: 10
Electric dark correction enabled: true
Nonlinearity correction enabled: false
Boxcar width: 0
XAxis mode: Raman Shifts
Number of Pixels in Spectrum: 1044
>>>>>Begin Spectral Data<<<<<
46.04893	0.5375
50.45542	0.6375
54.85868	-1.7625
59.25871	-0.8625
63.6555	44.2375
68.04907	45.5375
72.43941	49.3375
76.82654	48.1375
81.21044	54.6375
85.59113	52.8375
89.96862	56.0375
94.34289	59.6375
98.71396	56.8375
103.08183	63.7375
107.4465	67.7375
111.80798	62.7375
116.16626	66.3375
120.52136	65.9375
124.87327	70.7375
129.222	69.7375
133.56755	77.5375
137.90993	78.0375
142.24913	80.8375
146.58517	89.1375
150.91804	98.5375
155.24774	119.1375
159.57429	140.1375
163.89768	176.4375
168.21792	228.5375
172.53501	308.6375
176.84895	421.8375
181.15975	582.8375
185.46741	808.0375
189.77193	1114.3375
194.07331	1487.8375
198.37157	1928.1375
202.6667	2368.5375
206.9587	2809.4375
211.24758	3268.9375
215.53334	3740.6375
219.81599	4250.1375
224.09553	4837.8375
228.37195	5509.5375
232.64527	6204.1375
236.91549	6951.2375
241.18261	7591.0375
245.44663	8139.8375
249.70755	8573.5375
253.96539	8948.3375
258.22014	9261.0375
262.4718	9593.6375
266.72039	9838.4375
270.96589	10043.3375
275.20832	10054.5375
279.44768	9970.2375
283.68397	9843.4375
287.91719	9750.4375
292.14735	9761.9375
296.37445	9980.2375
300.59849	10337.5375
304.81948	10785.4375
309.03742	11069.4375
313.25231	11004.2375
317.46415	10478.4375
321.67296	9669.1375
325.87872	9013.9375
330.08145	8691.7375
334.28114	8699.2375
338.47781	8867.6375
342.67145	9123.3375
346.86207	9523.5375
351.04966	10110.0375
355.23424	10754.8375
359.4158	11246.7375
363.59435	11472.8375
367.76989	11577.1375
371.94243	11538.3375
376.11196	11517.2375
380.27849	11467.8375
384.44203	11370.9375
388.60257	11190.8375
392.76012	11119.7375
396.91468	11196.0375
401.06626	11486.6375
405.21485	11729.6375
409.36047	11503.3375
413.50311	10913.1375
417.64277	10331.9375
421.77947	10014.7375
425.9132	9885.1375
430.04396	9876.8375
434.17176	9931.0375
438.2966	10026.5375
442.41849	10275.4375
446.53742	10550.2375
450.6534	10850.4375
454.76644	11031.0375
458.87653	11055.5375
462.98368	10980.8375
467.08789	10811.1375
471.18916	10609.2375
475.2875	10356.8375
479.38291	10163.4375
483.4754	10014.3375
487.56496	9839.6375
491.6516	9752.7375
495.73531	9718.6375
499.81612	9736.2375
503.89401	9872.4375
507.96899	10024.9375
512.04106	10188.6375
516.11023	10394.9375
520.1765	10561.8375
524.23987	10517.8375
528.30034	10288.6375
532.35792	10078.6375
536.41261	9856.3375
540.46441	9667.6375
544.51333	9604.2375
548.55936	9649.3375
552.60252	9856.7375
556.64279	10121.1375
560.6802	10221.3375
564.71473	10358.9375
568.7464	10748.8375
572.7752	11031.5375
576.80114	10724.3375
580.82422	10272.1375
584.84444	10048.6375
588.86181	10032.4375
592.87633	10060.9375
596.888	10180.7375
600.89682	10546.7375
604.9028	11708.1375
608.90594	14992.4375
612.90624	19566.2375
616.90371	18903.6375
620.89834	13130.6375
624.89015	10509.0375
628.87913	9984.4375
632.86528	10060.8375
636.84862	10218.9375
640.82913	10112.4375
644.80683	9729.1375
648.78172	9497.3375
652.75379	9513.0375
656.72306	9920.2375
660.68952	10397.3375
664.65319	10284.6375
668.61405	9809.3375
672.57211	9541.8375
676.52738	9557.2375
680.47986	9559.5375
684.42955	9515.6375
688.37646	9499.7375
692.32058	9529.8375
696.26192	9598.1375
700.20048	9696.4375
704.13626	9788.1375
708.06928	9780.6375
711.99952	9704.3375
715.927	9660.6375
719.85171	9715.3375
723.77365	9700.1375
727.69284	9617.3375
731.60928	9538.1375
735.52295	9527.0375
739.43388	9563.4375
743.34206	9608.7375
747.24749	9628.5375
751.15017	9690.0375
755.05012	9875.7375
758.94733	10322.5375
762.8418	11344.7375
766.73354	13103.4375
770.62254	15150.2375
774.50882	16273.9375
778.39237	15634.9375
782.27321	13525.8375
786.15132	11537.0375
790.02671	10384.7375
793.89938	9914.5375
797.76935	9691.8375
801.6366	9588.8375
805.50115	9534.1375
809.36299	9468.8375
813.22213	9460.5375
817.07857	9432.9375
820.93231	9440.6375
824.78336	9472.5375
828.63172	9545.6375
832.47738	9568.9375
836.32036	9520.2375
840.16066	9477.7375
843.99827	9403.5375
847.8332	9398.7375
851.66546	9378.0375
855.49504	9397.1375
859.32195	9387.4375
863.1462	9355.9375
866.96777	9335.4375
870.78668	9341.3375
874.60293	9355.9375
878.41652	9398.1375
882.22745	9428.6375
886.03573	9482.1375
889.84136	9448.0375
893.64433	9377.0375
897.44466	9376.3375
901.24235	9381.3375
905.0374	9385.4375
908.8298	9314.0375
912.61957	9327.0375
916.40671	9377.9375
920.19121	9398.5375
923.97308	9448.8375
927.75233	9523.2375
931.52895	9609.5375
935.30295	9568.8375
939.07433	9339.6375
942.84309	9106.7375
946.60924	8965.9375
950.37278	8926.6375
954.13371	8868.9375
957.89203	8838.6375
961.64774	8810.4375
965.40086	8814.2375
969.15137	8772.9375
972.89929	8744.9375
976.64461	8747.7375
980.38733	8756.0375
984.12747	8760.4375
987.86502	8779.7375
991.59999	8821.8375
995.33237	8896.7375
999.06217	9026.3375
1002.78939	9211.9375
1006.51404	9373.9375
1010.23611	9555.6375
1013.95561	9690.7375
1017.67255	9697.3375
1021.38692	9585.1375
1025.09872	9455.5375
1028.80796	9384.9375
1032.51465	9391.6375
1036.21877	9464.4375
1039.92035	9537.7375
1043.61937	9547.8375
1047.31584	9542.4375
1051.00976	9511.8375
1054.70114	9503.1375
1058.38998	9518.8375
1062.07627	9555.6375
1065.76003	9599.7375
1069.44126	9612.7375
1073.11995	9685.7375
1076.79611	9781.3375
1080.46974	9943.8375
1084.14085	10172.0375
1087.80943	10431.1375
1091.47549	10529.4375
1095.13903	10391.2375
1098.80005	10054.3375
1102.45857	9802.9375
1106.11456	9711.0375
1109.76805	9786.7375
1113.41903	9984.8375
1117.06751	10301.3375
1120.71348	10685.4375
1124.35696	11098.3375
1127.99793	11444.5375
1131.63641	11433.5375
1135.2724	10933.0375
1138.90589	10427.2375
1142.5369	10125.5375
1146.16542	9936.6375
1149.79145	9822.4375
1153.415	9805.6375
1157.03607	9869.5375
1160.65467	10051.7375
1164.27079	10363.5375
1167.88443	10871.4375
1171.49561	11650.4375
1175.10432	13026.0375
1178.71056	14847.5375
1182.31434	16097.2375
1185.91565	16270.6375
1189.51451	15781.8375
1193.11091	14759.4375
1196.70485	13648.8375
1200.29634	12852.7375
1203.88538	12300.9375
1207.47197	11627.6375
1211.05612	11020.2375
1214.63782	10693.6375
1218.21708	10599.1375
1221.79391	10575.5375
1225.36829	10597.0375
1228.94024	10643.8375
1232.50976	10667.3375
1236.07685	10701.3375
1239.6415	10762.3375
1243.20374	10848.9375
1246.76355	10951.2375
1250.32093	11082.2375
1253.8759	11304.0375
1257.42845	11596.2375
1260.97859	11904.3375
1264.52631	12197.1375
1268.07163	12506.0375
1271.61453	12763.3375
1275.15503	12943.2375
1278.69312	12981.4375
1282.22882	12941.3375
1285.76211	13115.1375
1289.29301	13473.6375
1292.82151	13859.3375
1296.34761	14269.3375
1299.87133	14862.5375
1303.39266	15971.4375
1306.9116	17727.7375
1310.42815	19768.1375
1313.94233	21047.3375
1317.45412	20677.2375
1320.96354	19298.8375
1324.47058	17647.2375
1327.97525	16281.7375
1331.47754	15474.7375
1334.97747	15190.9375
1338.47502	15379.7375
1341.97022	15819.5375
1345.46305	16418.5375
1348.95352	17372.3375
1352.44163	18646.6375
1355.92738	20482.2375
1359.41078	23525.7375
1362.89183	26402.8375
1366.37053	25715.0375
1369.84688	21691.5375
1373.32088	17783.8375
1376.79254	15317.6375
1380.26186	14103.1375
1383.72883	13535.0375
1387.19347	13152.5375
1390.65578	12718.1375
1394.11575	12297.5375
1397.57339	12070.8375
1401.0287	12034.9375
1404.48168	12149.5375
1407.93234	12333.5375
1411.38068	12530.7375
1414.82669	12569.5375
1418.27039	12445.7375
1421.71177	12219.5375
1425.15083	11975.7375
1428.58758	11832.8375
1432.02203	11855.5375
1435.45416	11994.9375
1438.88399	12028.6375
1442.31151	12038.2375
1445.73673	12094.7375
1449.15965	12142.2375
1452.58027	12113.8375
1455.9986	12019.1375
1459.41463	11989.2375
1462.82837	12065.7375
1466.23982	12287.3375
1469.64898	12550.0375
1473.05586	12717.0375
1476.46045	12875.0375
1479.86276	13133.8375
1483.26279	13450.4375
1486.66054	13846.8375
1490.05602	14275.3375
1493.44922	14864.3375
1496.84016	15800.1375
1500.22882	17197.1375
1503.61521	19187.2375
1506.99934	21509.1375
1510.38121	23783.7375
1513.76081	25023.0375
1517.13816	23992.3375
1520.51324	21135.4375
1523.88607	18134.9375
1527.25665	16027.8375
1530.62498	14843.6375
1533.99105	14113.0375
1537.35488	13695.5375
1540.71647	13467.0375
1544.07581	13368.6375
1547.4329	13364.3375
1550.78776	13317.4375
1554.14038	13316.2375
1557.49077	13444.5375
1560.83892	13710.1375
1564.18484	14080.1375
1567.52853	14466.9375
1570.86999	14782.1375
1574.20922	14963.4375
1577.54624	14868.3375
1580.88103	14161.1375
1584.2136	13254.0375
1587.54395	12725.2375
1590.87208	12816.6375
1594.19801	13387.3375
1597.52172	14260.8375
1600.84321	14712.2375
1604.16251	14321.8375
1607.47959	13525.5375
1610.79447	12676.4375
1614.10715	11831.6375
1617.41763	11097.5375
1620.7259	10663.7375
1624.03199	10436.4375
1627.33587	10437.5375
1630.63757	10598.9375
1633.93707	10978.6375
1637.23439	11604.0375
1640.52951	12535.5375
1643.82246	13902.6375
1647.11321	15587.5375
1650.40179	17020.5375
1653.68819	16871.1375
1656.97241	14881.0375
1660.25446	12564.2375
1663.53433	10959.8375
1666.81203	9972.6375
1670.08756	9424.4375
1673.36092	9094.4375
1676.63211	8855.9375
1679.90115	8720.0375
1683.16801	8618.6375
1686.43272	8536.2375
1689.69527	8482.3375
1692.95567	8443.2375
1696.2139	8414.7375
1699.46999	8406.0375
1702.72392	8410.1375
1705.97571	8367.4375
1709.22535	8333.5375
1712.47284	8343.7375
1715.71819	8332.7375
1718.96139	8359.4375
1722.20246	8323.2375
1725.44139	8302.3375
1728.67818	8268.2375
1731.91284	8187.9375
1735.14537	8148.2375
1738.37576	8093.4375
1741.60403	8062.4375
1744.83017	8038.1375
1748.05418	8025.8375
1751.27607	8017.6375
1754.49584	7995.6375
1757.71349	8007.0375
1760.92903	7999.1375
1764.14244	7969.0375
1767.35375	7974.1375
1770.56294	7934.4375
1773.77002	7928.0375
1776.97499	7891.6375
1780.17785	7879.8375
1783.37861	7860.2375
1786.57727	7839.2375
1789.77382	7805.0375
1792.96828	7801.6375
1796.16064	7808.2375
1799.3509	7806.9375
1802.53907	7788.3375
1805.72514	7763.1375
1808.90913	7744.6375
1812.09102	7716.5375
1815.27083	7700.5375
1818.44856	7678.9375
1821.6242	7673.9375
1824.79776	7645.9375
1827.96924	7623.4375
1831.13864	7640.8375
1834.30597	7634.2375
1837.47122	7644.1375
1840.6344	7611.5375
1843.7955	7611.4375
1846.95454	7576.4375
1850.11151	7589.1375
1853.26642	7588.3375
1856.41926	7601.3375
1859.57004	7595.9375
1862.71876	7604.1375
1865.86542	7568.8375
1869.01003	7582.2375
1872.15258	7571.7375
1875.29308	7579.0375
1878.43152	7582.4375
1881.56792	7577.9375
1884.70227	7546.8375
1887.83457	7536.7375
1890.96482	7543.8375
1894.09304	7524.3375
1897.21921	7530.7375
1900.34335	7523.3375
1903.46544	7516.5375
1906.58551	7514.7375
1909.70353	7492.2375
1912.81953	7514.4375
1915.93349	7515.4375
1919.04543	7494.6375
1922.15534	7474.5375
1925.26322	7459.0375
1928.36908	7451.6375
1931.47292	7446.8375
1934.57473	7436.1375
1937.67453	7392.2375
1940.77232	7387.0375
1943.86808	7330.2375
1946.96184	7320.7375
1950.05358	7267.3375
1953.14331	7266.5375
1956.23103	7232.1375
1959.31675	7235.1375
1962.40046	7206.6375
1965.48217	7179.8375
1968.56188	7166.3375
1971.63959	7149.8375
1974.7153	7118.5375
1977.78901	7116.8375
1980.86073	7081.1375
1983.93046	7065.1375
1986.99819	7030.8375
1990.06394	7015.9375
1993.1277	6985.5375
1996.18947	6981.3375
1999.24925	6946.9375
2002.30706	6925.4375
2005.36288	6912.5375
2008.41672	6889.3375
2011.46859	6864.3375
2014.51848	6867.2375
2017.56639	6841.2375
2020.61233	6821.2375
2023.6563	6793.1375
2026.6983	6755.1375
2029.73833	6741.2375
2032.7764	6742.7375
2035.8125	6722.3375
2038.84664	6708.4375
2041.87881	6681.8375
2044.90903	6660.7375
2047.93729	6662.5375
2050.96359	6656.9375
2053.98794	6646.8375
2057.01034	6637.8375
2060.03078	6618.3375
2063.04927	6624.8375
2066.06582	6617.9375
2069.08042	6607.7375
2072.09307	6588.3375
2075.10378	6603.7375
2078.11255	6576.1375
2081.11938	6591.9375
2084.12426	6575.9375
2087.12722	6566.0375
2090.12824	6556.8375
2093.12732	6542.9375
2096.12447	6554.7375
2099.11969	6558.4375
2102.11299	6555.1375
2105.10435	6567.3375
2108.09379	6551.8375
2111.08131	6566.2375
2114.0669	6559.1375
2117.05057	6582.6375
2120.03233	6578.5375
2123.01216	6590.9375
2125.99008	6586.6375
2128.96609	6582.9375
2131.94018	6596.3375
2134.91236	6612.5375
2137.88263	6601.1375
2140.851	6598.7375
2143.81746	6602.2375
2146.78201	6611.0375
2149.74466	6599.1375
2152.7054	6592.2375
2155.66425	6584.2375
2158.6212	6600.0375
2161.57625	6588.3375
2164.52941	6558.6375
2167.48067	6549.4375
2170.43004	6574.5375
2173.37752	6564.8375
2176.32311	6571.1375
2179.26681	6545.5375
2182.20863	6566.4375
2185.14856	6552.1375
2188.08661	6532.4375
2191.02278	6547.0375
2193.95707	6544.6375
2196.88948	6552.5375
2199.82001	6535.5375
2202.74867	6513.3375
2205.67545	6531.1375
2208.60037	6521.1375
2211.52341	6520.2375
2214.44458	6497.2375
2217.36388	6485.4375
2220.28132	6472.1375
2223.1969	6452.1375
2226.11061	6450.1375
2229.02246	6414.5375
2231.93245	6405.6375
2234.84058	6379.4375
2237.74686	6380.1375
2240.65128	6376.9375
2243.55385	6355.1375
2246.45456	6358.1375
2249.35343	6360.5375
2252.25044	6363.1375
2255.14561	6345.7375
2258.03893	6346.5375
2260.93041	6330.0375
2263.82004	6301.6375
2266.70783	6306.2375
2269.59378	6263.2375
2272.4779	6260.1375
2275.36017	6250.3375
2278.24061	6242.9375
2281.11922	6229.9375
2283.996	6230.0375
2286.87094	6232.9375
2289.74405	6176.6375
2292.61534	6181.1375
2295.4848	6166.1375
2298.35243	6145.9375
2301.21824	6150.8375
2304.08223	6159.8375
2306.94439	6153.6375
2309.80474	6153.2375
2312.66327	6149.9375
2315.51999	6137.3375
2318.37489	6143.1375
2321.22797	6117.6375
2324.07925	6116.5375
2326.92871	6091.6375
2329.77637	6110.3375
2332.62222	6088.4375
2335.46626	6085.4375
2338.3085	6059.2375
2341.14893	6071.6375
2343.98756	6084.7375
2346.8244	6066.0375
2349.65943	6051.4375
2352.49267	6073.6375
2355.32411	6063.5375
2358.15376	6082.5375
2360.98161	6082.3375
2363.80768	6094.6375
2366.63195	6111.3375
2369.45444	6087.7375
2372.27514	6082.4375
2375.09405	6062.6375
2377.91118	6050.9375
2380.72652	6012.8375
2383.54009	5996.5375
2386.35187	5973.6375
2389.16188	5956.4375
2391.97011	5945.8375
2394.77657	5910.4375
2397.58125	5891.2375
2400.38416	5889.2375
2403.18529	5855.1375
2405.98466	5863.0375
2408.78226	5851.0375
2411.57809	5833.4375
2414.37216	5819.0375
2417.16446	5821.5375
2419.955	5809.2375
2422.74378	5807.3375
2425.5308	5820.1375
2428.31606	5803.6375
2431.09956	5800.8375
2433.88131	5780.0375
2436.6613	5797.4375
2439.43954	5777.0375
2442.21603	5771.8375
2444.99077	5778.3375
2447.76377	5767.0375
2450.53501	5781.3375
2453.30451	5777.1375
2456.07226	5774.1375
2458.83827	5764.6375
2461.60254	5754.9375
2464.36507	5743.9375
2467.12586	5746.1375
2469.88492	5746.2375
2472.64224	5731.0375
2475.39782	5739.7375
2478.15167	5740.5375
2480.90379	5753.0375
2483.65417	5754.5375
2486.40283	5776.3375
2489.14976	5783.3375
2491.89497	5791.6375
2494.63845	5793.2375
2497.3802	5764.1375
2500.12024	5754.9375
2502.85855	5755.7375
2505.59514	5715.7375
2508.33002	5696.8375
2511.06318	5707.0375
2513.79462	5677.2375
2516.52435	5650.4375
2519.25237	5648.9375
2521.97867	5616.4375
2524.70327	5613.3375
2527.42616	5606.2375
2530.14734	5603.0375
2532.86681	5597.7375
2535.58458	5603.7375
2538.30065	5597.3375
2541.01501	5590.9375
2543.72768	5581.9375
2546.43864	5589.8375
2549.14791	5595.1375
2551.85548	5567.6375
2554.56136	5566.3375
2557.26554	5558.4375
2559.96803	5546.0375
2562.66883	5516.5375
2565.36794	5503.6375
2568.06536	5507.3375
2570.7611	5513.7375
2573.45514	5479.1375
2576.14751	5475.5375
2578.83819	5459.5375
2581.52719	5463.4375
2584.21451	5437.7375
2586.90015	5434.9375
2589.58411	5435.2375
2592.2664	5419.3375
2594.94701	5422.2375
2597.62594	5401.2375
2600.30321	5403.7375
2602.9788	5411.2375
2605.65273	5385.1375
2608.32498	5377.5375
2610.99557	5384.2375
2613.66449	5380.6375
2616.33175	5372.1375
2618.99734	5360.1375
2621.66128	5368.8375
2624.32355	5357.6375
2626.98416	5358.2375
2629.64311	5333.7375
2632.30041	5322.2375
2634.95605	5329.7375
2637.61004	5313.2375
2640.26238	5293.5375
2642.91306	5290.7375
2645.56209	5287.1375
2648.20948	5286.9375
2650.85521	5281.9375
2653.4993	5264.4375
2656.14175	5276.1375
2658.78255	5276.3375
2661.42171	5295.9375
2664.05923	5290.2375
2666.6951	5299.9375
2669.32934	5281.7375
2671.96194	5297.5375
2674.59291	5323.8375
2677.22224	5313.9375
2679.84993	5297.5375
2682.476	5300.8375
2685.10043	5301.9375
2687.72324	5286.8375
2690.34441	5282.3375
2692.96396	5289.6375
2695.58188	5284.6375
2698.19818	5281.4375
2700.81285	5284.7375
2703.4259	5287.6375
2706.03733	5295.4375
2708.64714	5282.7375
2711.25533	5257.6375
2713.86191	5274.9375
2716.46687	5293.8375
2719.07021	5299.0375
2721.67194	5300.5375
2724.27206	5283.3375
2726.87057	5284.9375
2729.46747	5293.9375
2732.06276	5283.3375
2734.65644	5278.6375
2737.24852	5268.9375
2739.83899	5260.9375
2742.42786	5268.7375
2745.01513	5234.8375
2747.60079	5230.8375
2750.18486	5234.2375
2752.76733	5221.2375
2755.3482	5218.8375
2757.92747	5207.7375
2760.50515	5206.5375
2763.08123	5192.1375
2765.65573	5185.0375
2768.22863	5185.7375
2770.79994	5169.4375
2773.36967	5176.1375
2775.9378	5166.6375
2778.50435	5155.4375
2781.06932	5159.3375
2783.6327	5164.9375
2786.1945	5171.1375
2788.75471	5149.7375
2791.31335	5131.3375
2793.87041	5136.2375
2796.42589	5119.0375
2798.97979	5122.5375
2801.53212	5113.8375
2804.08288	5104.6375
2806.63206	5108.3375
2809.17967	5075.4375
2811.72571	5073.4375
2814.27018	5083.3375
2816.81308	5087.7375
2819.35442	5073.0375
2821.89419	5068.0375
2824.43239	5063.8375
2826.96904	5057.7375
2829.50412	5074.4375
2832.03763	5069.7375
2834.56959	5070.4375
2837.1	5078.3375
2839.62884	5075.4375
2842.15613	5100.4375
2844.68186	5136.8375
2847.20604	5164.8375
2849.72867	5187.3375
2852.24974	5207.5375
2854.76927	5177.3375
2857.28724	5154.9375
2859.80367	5161.0375
2862.31855	5159.5375
2864.83189	5136.4375
2867.34368	5132.0375
2869.85393	5123.9375
2872.36264	5123.9375
2874.8698	5122.0375
2877.37543	5123.3375
2879.87952	5100.6375
2882.38207	5098.5375
2884.88308	5096.8375
2887.38256	5092.9375
2889.88051	5090.7375
2892.37692	5079.6375
2894.8718	5090.3375
2897.36515	5100.7375
2899.85698	5092.3375
2902.34727	5099.2375
2904.83604	5086.3375
2907.32328	5124.4375
2909.809	5098.4375
2912.29319	5105.7375
2914.77587	5084.7375
2917.25702	5086.0375
2919.73665	5097.1375
2922.21476	5109.3375
2924.69136	5079.4375
2927.16644	5071.5375
2929.64	5055.7375
2932.11205	5057.8375
2934.58258	5040.3375
2937.05161	5023.0375
2939.51912	5031.5375
2941.98513	5004.1375
2944.44962	4975.1375
2946.91261	4948.1375
2949.37409	4933.4375
2951.83407	4905.1375
2954.29254	4930.3375
2956.74951	4902.1375
2959.20498	4901.6375
2961.65895	4893.0375
2964.11142	4885.8375
2966.56239	4875.0375
2969.01186	4876.1375
2971.45984	4867.7375
2973.90632	4855.5375
2976.35131	4835.9375
2978.7948	4829.9375
2981.23681	4830.1375
2983.67732	4815.0375
2986.11635	4786.5375
2988.55388	4781.5375
2990.98993	4783.7375
2993.4245	4788.3375
2995.85758	4754.9375
2998.28917	4733.1375
3000.71928	4737.1375
3003.14791	4722.7375
3005.57506	4728.3375
3008.00073	4703.7375
3010.42493	4704.9375
3012.84764	4697.5375
3015.26888	4703.6375
3017.68865	4680.8375
3020.10694	4679.2375
3022.52376	4680.2375
3024.9391	4666.4375
3027.35298	4649.4375
3029.76539	4666.8375
3032.17632	4660.0375
3034.5858	4647.8375
3036.9938	4642.0375
3039.40034	4638.1375
3041.80542	4618.3375
3044.20903	4611.6375
3046.61118	4624.7375
3049.01187	4596.5375
3051.4111	4601.0375
3053.80888	4587.8375
3056.20519	4580.4375
3058.60005	4574.8375
3060.99345	4563.2375
3063.3854	4554.4375
3065.7759	4549.2375
3068.16494	4542.5375
3070.55254	4539.7375
3072.93868	4524.7375
3075.32338	4498.8375
3077.70662	4494.7375
3080.08842	4476.8375
3082.46878	4487.7375
3084.84769	4489.8375
3087.22515	4461.1375
3089.60118	4457.7375
3091.97576	4459.0375
3094.3489	4451.5375
3096.72061	4452.5375
3099.09087	4467.5375
