Data from AgNP_FTO_APTES_UA_10uM_CRN_0uM_R6G_10uM_NaF_0.1M_Addition_RamanShift__16__12-27-00-455.txt Node

Date: Thu Feb 10 12:27:00 GMT 2022
User: TCL
Spectrometer: QEP01345
Trigger mode: 4
Integration Time (sec): 7.000000E0
Scans to average: 10
Electric dark correction enabled: true
Nonlinearity correction enabled: false
Boxcar width: 0
XAxis mode: Raman Shifts
Number of Pixels in Spectrum: 1044
>>>>>Begin Spectral Data<<<<<
46.04893	-0.2875
50.45542	-1.0875
54.85868	-0.5875
59.25871	-1.8875
63.6555	57.3125
68.04907	58.7125
72.43941	63.4125
76.82654	63.8125
81.21044	67.5125
85.59113	68.0125
89.96862	71.8125
94.34289	75.0125
98.71396	75.0125
103.08183	79.4125
107.4465	85.0125
111.80798	80.8125
116.16626	84.6125
120.52136	89.6125
124.87327	93.1125
129.222	94.8125
133.56755	106.1125
137.90993	109.7125
142.24913	119.0125
146.58517	136.3125
150.91804	155.4125
155.24774	190.0125
159.57429	235.8125
163.89768	300.3125
168.21792	401.6125
172.53501	550.5125
176.84895	761.4125
181.15975	1080.7125
185.46741	1516.3125
189.77193	2096.6125
194.07331	2796.1125
198.37157	3589.4125
202.6667	4444.1125
206.9587	5290.4125
211.24758	6101.5125
215.53334	6998.0125
219.81599	7891.9125
224.09553	8902.7125
228.37195	10045.1125
232.64527	11309.1125
236.91549	12568.3125
241.18261	13838.9125
245.44663	14925.7125
249.70755	15839.5125
253.96539	16614.8125
258.22014	17310.0125
262.4718	17899.2125
266.72039	18306.3125
270.96589	18516.2125
275.20832	18497.6125
279.44768	18302.9125
283.68397	18073.2125
287.91719	17896.2125
292.14735	17808.1125
296.37445	17873.4125
300.59849	18034.9125
304.81948	18328.5125
309.03742	18464.1125
313.25231	18368.1125
317.46415	17870.4125
321.67296	17118.8125
325.87872	16421.0125
330.08145	16093.0125
334.28114	16023.1125
338.47781	16143.1125
342.67145	16342.1125
346.86207	16761.7125
351.04966	17230.4125
355.23424	17808.5125
359.4158	18298.7125
363.59435	18597.1125
367.76989	18768.0125
371.94243	18817.6125
376.11196	18828.1125
380.27849	18829.7125
384.44203	18862.6125
388.60257	18930.6125
392.76012	18996.8125
396.91468	19228.4125
401.06626	19633.2125
405.21485	19819.5125
409.36047	19628.2125
413.50311	19074.1125
417.64277	18628.1125
421.77947	18463.7125
425.9132	18423.8125
430.04396	18497.9125
434.17176	18497.4125
438.2966	18592.7125
442.41849	18896.7125
446.53742	19359.4125
450.6534	19920.5125
454.76644	20286.8125
458.87653	20358.1125
462.98368	20197.3125
467.08789	19922.1125
471.18916	19570.2125
475.2875	19301.9125
479.38291	19080.2125
483.4754	18986.6125
487.56496	18861.7125
491.6516	18633.2125
495.73531	18447.1125
499.81612	18371.2125
503.89401	18472.0125
507.96899	18565.1125
512.04106	18593.8125
516.11023	18590.8125
520.1765	18507.6125
524.23987	18366.2125
528.30034	18161.9125
532.35792	17919.6125
536.41261	17585.0125
540.46441	17264.4125
544.51333	17177.4125
548.55936	17372.5125
552.60252	17797.6125
556.64279	18238.5125
560.6802	18541.7125
564.71473	18714.4125
568.7464	19102.4125
572.7752	19625.1125
576.80114	19870.5125
580.82422	20070.3125
584.84444	20430.8125
588.86181	20733.4125
592.87633	20964.1125
596.888	21039.3125
600.89682	20928.3125
604.9028	21818.1125
608.90594	24934.4125
612.90624	28694.4125
616.90371	27118.3125
620.89834	21234.0125
624.89015	18423.1125
628.87913	17980.3125
632.86528	18114.0125
636.84862	18113.5125
640.82913	17821.1125
644.80683	17235.8125
648.78172	16747.6125
652.75379	16626.5125
656.72306	16916.6125
660.68952	17399.9125
664.65319	17317.2125
668.61405	16806.3125
672.57211	16559.5125
676.52738	16592.0125
680.47986	16567.5125
684.42955	16479.0125
688.37646	16348.9125
692.32058	16416.0125
696.26192	16579.2125
700.20048	16830.2125
704.13626	17014.7125
708.06928	16989.8125
711.99952	16867.5125
715.927	16771.4125
719.85171	16832.6125
723.77365	16730.8125
727.69284	16520.1125
731.60928	16283.9125
735.52295	16241.0125
739.43388	16232.3125
743.34206	16343.3125
747.24749	16406.5125
751.15017	16541.5125
755.05012	16820.4125
758.94733	17422.9125
762.8418	18599.7125
766.73354	20703.3125
770.62254	22882.0125
774.50882	23597.1125
778.39237	22447.8125
782.27321	20334.8125
786.15132	18471.0125
790.02671	17225.7125
793.89938	16672.5125
797.76935	16426.2125
801.6366	16338.4125
805.50115	16270.8125
809.36299	16118.6125
813.22213	15919.2125
817.07857	15803.9125
820.93231	15698.8125
824.78336	15644.5125
828.63172	15627.5125
832.47738	15623.9125
836.32036	15623.6125
840.16066	15669.0125
843.99827	15733.4125
847.8332	15658.3125
851.66546	15622.0125
855.49504	15598.2125
859.32195	15550.4125
863.1462	15546.1125
866.96777	15472.0125
870.78668	15458.5125
874.60293	15434.0125
878.41652	15437.1125
882.22745	15553.0125
886.03573	15634.7125
889.84136	15625.1125
893.64433	15606.5125
897.44466	15581.3125
901.24235	15542.2125
905.0374	15424.8125
908.8298	15331.6125
912.61957	15287.5125
916.40671	15416.4125
920.19121	15624.6125
923.97308	15901.1125
927.75233	16111.0125
931.52895	16145.2125
935.30295	15931.2125
939.07433	15466.6125
942.84309	15061.8125
946.60924	14837.4125
950.37278	14779.7125
954.13371	14740.6125
957.89203	14637.2125
961.64774	14576.5125
965.40086	14527.1125
969.15137	14474.3125
972.89929	14393.5125
976.64461	14379.3125
980.38733	14364.0125
984.12747	14414.6125
987.86502	14538.5125
991.59999	14749.9125
995.33237	15032.9125
999.06217	15523.3125
1002.78939	16131.9125
1006.51404	16560.3125
1010.23611	16793.1125
1013.95561	16977.6125
1017.67255	17000.2125
1021.38692	16768.7125
1025.09872	16500.2125
1028.80796	16518.7125
1032.51465	16909.5125
1036.21877	17341.1125
1039.92035	17412.4125
1043.61937	17104.5125
1047.31584	16700.1125
1051.00976	16291.0125
1054.70114	16085.0125
1058.38998	16055.7125
1062.07627	16118.4125
1065.76003	16193.7125
1069.44126	16332.1125
1073.11995	16596.1125
1076.79611	16921.6125
1080.46974	17166.4125
1084.14085	17397.0125
1087.80943	17738.0125
1091.47549	17976.1125
1095.13903	17892.2125
1098.80005	17514.4125
1102.45857	16994.1125
1106.11456	16646.8125
1109.76805	16476.0125
1113.41903	16544.0125
1117.06751	16703.3125
1120.71348	16969.1125
1124.35696	17336.7125
1127.99793	17741.6125
1131.63641	17927.8125
1135.2724	17694.4125
1138.90589	17365.8125
1142.5369	17177.7125
1146.16542	17025.9125
1149.79145	16909.0125
1153.415	16988.2125
1157.03607	17194.8125
1160.65467	17659.2125
1164.27079	18525.2125
1167.88443	19732.8125
1171.49561	21351.9125
1175.10432	23535.9125
1178.71056	26368.5125
1182.31434	28961.1125
1185.91565	30413.7125
1189.51451	30281.9125
1193.11091	28985.9125
1196.70485	27087.5125
1200.29634	25262.6125
1203.88538	23799.2125
1207.47197	22709.6125
1211.05612	21939.4125
1214.63782	21356.5125
1218.21708	21043.8125
1221.79391	21019.0125
1225.36829	21128.7125
1228.94024	21060.6125
1232.50976	20672.9125
1236.07685	20354.1125
1239.6415	20061.9125
1243.20374	19951.6125
1246.76355	19955.6125
1250.32093	20198.6125
1253.8759	20685.1125
1257.42845	21451.4125
1260.97859	22282.8125
1264.52631	23225.3125
1268.07163	24178.1125
1271.61453	25087.5125
1275.15503	25983.7125
1278.69312	26786.6125
1282.22882	27438.1125
1285.76211	27997.8125
1289.29301	28612.8125
1292.82151	29391.2125
1296.34761	30466.2125
1299.87133	32045.9125
1303.39266	34197.8125
1306.9116	37039.1125
1310.42815	40128.7125
1313.94233	42173.8125
1317.45412	42344.0125
1320.96354	41154.8125
1324.47058	39647.5125
1327.97525	38370.0125
1331.47754	37377.2125
1334.97747	36653.1125
1338.47502	36316.4125
1341.97022	35991.2125
1345.46305	35687.1125
1348.95352	35544.5125
1352.44163	35732.7125
1355.92738	36844.6125
1359.41078	39343.6125
1362.89183	41927.2125
1366.37053	41653.2125
1369.84688	37582.1125
1373.32088	32467.6125
1376.79254	28825.1125
1380.26186	27180.8125
1383.72883	26488.7125
1387.19347	26013.5125
1390.65578	25463.9125
1394.11575	25220.1125
1397.57339	25469.9125
1401.0287	25948.9125
1404.48168	26435.5125
1407.93234	26564.3125
1411.38068	26294.7125
1414.82669	25596.0125
1418.27039	24686.7125
1421.71177	23810.2125
1425.15083	23013.5125
1428.58758	22569.0125
1432.02203	22616.8125
1435.45416	23070.4125
1438.88399	23632.4125
1442.31151	24049.0125
1445.73673	24451.5125
1449.15965	24863.4125
1452.58027	25078.2125
1455.9986	25205.4125
1459.41463	25443.6125
1462.82837	26035.2125
1466.23982	26666.6125
1469.64898	27204.5125
1473.05586	27468.5125
1476.46045	27391.4125
1479.86276	27199.0125
1483.26279	27007.4125
1486.66054	27024.7125
1490.05602	27291.0125
1493.44922	27770.5125
1496.84016	28518.1125
1500.22882	29768.6125
1503.61521	31634.1125
1506.99934	33848.5125
1510.38121	35893.2125
1513.76081	36571.0125
1517.13816	35230.9125
1520.51324	32514.1125
1523.88607	29840.2125
1527.25665	28058.0125
1530.62498	27029.5125
1533.99105	26470.3125
1537.35488	25962.6125
1540.71647	25565.8125
1544.07581	25146.1125
1547.4329	24701.5125
1550.78776	24386.0125
1554.14038	24170.0125
1557.49077	24115.8125
1560.83892	24155.5125
1564.18484	24379.3125
1567.52853	24637.2125
1570.86999	24953.6125
1574.20922	25276.6125
1577.54624	25458.7125
1580.88103	25017.1125
1584.2136	24589.9125
1587.54395	24789.7125
1590.87208	25786.9125
1594.19801	27676.4125
1597.52172	29718.7125
1600.84321	30423.2125
1604.16251	29098.7125
1607.47959	26704.7125
1610.79447	24228.2125
1614.10715	21934.9125
1617.41763	20060.4125
1620.7259	18739.9125
1624.03199	18109.1125
1627.33587	18093.8125
1630.63757	18743.3125
1633.93707	20102.0125
1637.23439	22344.5125
1640.52951	25454.6125
1643.82246	28992.2125
1647.11321	31993.5125
1650.40179	33012.6125
1653.68819	31148.0125
1656.97241	26895.7125
1660.25446	22337.1125
1663.53433	18979.5125
1666.81203	16818.4125
1670.08756	15464.9125
1673.36092	14724.9125
1676.63211	14203.2125
1679.90115	13833.0125
1683.16801	13585.2125
1686.43272	13410.5125
1689.69527	13281.8125
1692.95567	13141.2125
1696.2139	13107.1125
1699.46999	13050.5125
1702.72392	12979.0125
1705.97571	12956.3125
1709.22535	12927.7125
1712.47284	12895.0125
1715.71819	12855.1125
1718.96139	12805.8125
1722.20246	12761.8125
1725.44139	12679.3125
1728.67818	12558.5125
1731.91284	12486.4125
1735.14537	12393.1125
1738.37576	12325.4125
1741.60403	12275.2125
1744.83017	12228.7125
1748.05418	12173.2125
1751.27607	12155.1125
1754.49584	12136.0125
1757.71349	12098.8125
1760.92903	12069.6125
1764.14244	12070.2125
1767.35375	12060.1125
1770.56294	12045.3125
1773.77002	11975.2125
1776.97499	11981.2125
1780.17785	11959.9125
1783.37861	11931.9125
1786.57727	11884.3125
1789.77382	11887.3125
1792.96828	11829.8125
1796.16064	11824.1125
1799.3509	11832.8125
1802.53907	11788.5125
1805.72514	11760.4125
1808.90913	11707.1125
1812.09102	11677.8125
1815.27083	11669.2125
1818.44856	11648.3125
1821.6242	11599.4125
1824.79776	11616.0125
1827.96924	11609.5125
1831.13864	11620.3125
1834.30597	11614.6125
1837.47122	11656.6125
1840.6344	11662.3125
1843.7955	11667.2125
1846.95454	11676.9125
1850.11151	11673.3125
1853.26642	11672.8125
1856.41926	11698.2125
1859.57004	11733.0125
1862.71876	11690.8125
1865.86542	11693.7125
1869.01003	11674.2125
1872.15258	11654.9125
1875.29308	11653.9125
1878.43152	11658.6125
1881.56792	11685.4125
1884.70227	11634.0125
1887.83457	11634.2125
1890.96482	11611.5125
1894.09304	11608.2125
1897.21921	11587.6125
1900.34335	11585.5125
1903.46544	11566.8125
1906.58551	11547.5125
1909.70353	11502.3125
1912.81953	11507.7125
1915.93349	11475.4125
1919.04543	11427.0125
1922.15534	11383.3125
1925.26322	11305.3125
1928.36908	11267.2125
1931.47292	11204.1125
1934.57473	11176.6125
1937.67453	11138.8125
1940.77232	11085.0125
1943.86808	11035.4125
1946.96184	11000.1125
1950.05358	10938.8125
1953.14331	10917.0125
1956.23103	10852.6125
1959.31675	10814.3125
1962.40046	10817.9125
1965.48217	10786.8125
1968.56188	10734.1125
1971.63959	10695.3125
1974.7153	10669.1125
1977.78901	10628.4125
1980.86073	10582.2125
1983.93046	10551.8125
1986.99819	10531.4125
1990.06394	10517.7125
1993.1277	10496.1125
1996.18947	10432.8125
1999.24925	10405.7125
2002.30706	10353.0125
2005.36288	10335.2125
2008.41672	10340.3125
2011.46859	10282.6125
2014.51848	10248.5125
2017.56639	10233.2125
2020.61233	10205.1125
2023.6563	10190.3125
2026.6983	10180.8125
2029.73833	10119.6125
2032.7764	10129.2125
2035.8125	10110.3125
2038.84664	10087.2125
2041.87881	10076.8125
2044.90903	10063.6125
2047.93729	10050.5125
2050.96359	10029.1125
2053.98794	10026.3125
2057.01034	10006.5125
2060.03078	9980.5125
2063.04927	9980.3125
2066.06582	10002.2125
2069.08042	9973.4125
2072.09307	9973.2125
2075.10378	9945.0125
2078.11255	9935.4125
2081.11938	9932.4125
2084.12426	9940.8125
2087.12722	9906.0125
2090.12824	9909.1125
2093.12732	9904.2125
2096.12447	9895.6125
2099.11969	9910.8125
2102.11299	9892.1125
2105.10435	9911.5125
2108.09379	9930.7125
2111.08131	9932.8125
2114.0669	9931.3125
2117.05057	9927.4125
2120.03233	9955.0125
2123.01216	9946.1125
2125.99008	9950.6125
2128.96609	9956.1125
2131.94018	9972.5125
2134.91236	9997.1125
2137.88263	9951.9125
2140.851	9953.9125
2143.81746	9980.2125
2146.78201	9954.2125
2149.74466	9957.4125
2152.7054	9952.5125
2155.66425	9951.1125
2158.6212	9948.8125
2161.57625	9931.5125
2164.52941	9916.7125
2167.48067	9940.1125
2170.43004	9925.3125
2173.37752	9945.9125
2176.32311	9902.3125
2179.26681	9918.3125
2182.20863	9919.2125
2185.14856	9926.0125
2188.08661	9924.0125
2191.02278	9918.5125
2193.95707	9936.0125
2196.88948	9917.8125
2199.82001	9894.3125
2202.74867	9890.5125
2205.67545	9886.5125
2208.60037	9884.8125
2211.52341	9877.3125
2214.44458	9887.2125
2217.36388	9873.1125
2220.28132	9870.0125
2223.1969	9824.5125
2226.11061	9814.2125
2229.02246	9811.0125
2231.93245	9757.6125
2234.84058	9740.8125
2237.74686	9714.3125
2240.65128	9724.4125
2243.55385	9675.5125
2246.45456	9677.3125
2249.35343	9635.4125
2252.25044	9649.2125
2255.14561	9640.4125
2258.03893	9633.0125
2260.93041	9644.7125
2263.82004	9594.5125
2266.70783	9573.5125
2269.59378	9541.5125
2272.4779	9543.6125
2275.36017	9490.9125
2278.24061	9482.8125
2281.11922	9461.6125
2283.996	9472.8125
2286.87094	9448.5125
2289.74405	9457.0125
2292.61534	9419.0125
2295.4848	9434.5125
2298.35243	9421.3125
2301.21824	9428.0125
2304.08223	9439.5125
2306.94439	9432.7125
2309.80474	9426.6125
2312.66327	9412.5125
2315.51999	9417.8125
2318.37489	9418.5125
2321.22797	9418.7125
2324.07925	9403.4125
2326.92871	9404.1125
2329.77637	9389.7125
2332.62222	9410.1125
2335.46626	9389.6125
2338.3085	9388.7125
2341.14893	9410.5125
2343.98756	9416.0125
2346.8244	9435.4125
2349.65943	9421.6125
2352.49267	9412.4125
2355.32411	9431.8125
2358.15376	9424.2125
2360.98161	9428.3125
2363.80768	9422.0125
2366.63195	9416.5125
2369.45444	9397.8125
2372.27514	9382.2125
2375.09405	9348.4125
2377.91118	9340.7125
2380.72652	9294.4125
2383.54009	9269.0125
2386.35187	9263.4125
2389.16188	9228.3125
2391.97011	9200.3125
2394.77657	9185.8125
2397.58125	9162.2125
2400.38416	9153.9125
2403.18529	9133.1125
2405.98466	9127.4125
2408.78226	9091.1125
2411.57809	9059.1125
2414.37216	9059.9125
2417.16446	9029.6125
2419.955	9027.3125
2422.74378	9038.5125
2425.5308	9010.1125
2428.31606	9016.2125
2431.09956	9043.7125
2433.88131	9018.0125
2436.6613	9041.7125
2439.43954	9038.9125
2442.21603	9023.5125
2444.99077	9017.3125
2447.76377	9031.0125
2450.53501	8995.2125
2453.30451	9028.4125
2456.07226	9022.4125
2458.83827	9019.1125
2461.60254	9034.0125
2464.36507	9017.5125
2467.12586	9000.9125
2469.88492	9007.5125
2472.64224	9042.5125
2475.39782	9039.1125
2478.15167	9062.0125
2480.90379	9046.9125
2483.65417	9046.3125
2486.40283	9064.7125
2489.14976	9071.6125
2491.89497	9063.1125
2494.63845	9100.0125
2497.3802	9077.4125
2500.12024	9074.4125
2502.85855	9077.4125
2505.59514	9058.8125
2508.33002	9033.5125
2511.06318	9022.2125
2513.79462	9010.4125
2516.52435	8985.1125
2519.25237	8989.3125
2521.97867	8963.1125
2524.70327	8961.8125
2527.42616	8954.2125
2530.14734	8950.1125
2532.86681	8959.4125
2535.58458	8959.8125
2538.30065	8932.2125
2541.01501	8946.3125
2543.72768	8964.6125
2546.43864	8954.6125
2549.14791	8933.8125
2551.85548	8926.1125
2554.56136	8924.0125
2557.26554	8890.6125
2559.96803	8892.9125
2562.66883	8869.4125
2565.36794	8894.6125
2568.06536	8871.5125
2570.7611	8856.8125
2573.45514	8862.4125
2576.14751	8843.1125
2578.83819	8828.2125
2581.52719	8813.6125
2584.21451	8818.9125
2586.90015	8822.8125
2589.58411	8819.3125
2592.2664	8809.4125
2594.94701	8806.6125
2597.62594	8806.5125
2600.30321	8793.6125
2602.9788	8800.4125
2605.65273	8797.2125
2608.32498	8792.8125
2610.99557	8795.1125
2613.66449	8795.0125
2616.33175	8784.8125
2618.99734	8783.2125
2621.66128	8780.5125
2624.32355	8790.5125
2626.98416	8789.9125
2629.64311	8786.4125
2632.30041	8785.8125
2634.95605	8769.6125
2637.61004	8747.9125
2640.26238	8743.0125
2642.91306	8763.7125
2645.56209	8730.0125
2648.20948	8747.0125
2650.85521	8706.3125
2653.4993	8739.2125
2656.14175	8736.0125
2658.78255	8719.0125
2661.42171	8738.8125
2664.05923	8749.3125
2666.6951	8746.8125
2669.32934	8750.1125
2671.96194	8774.4125
2674.59291	8768.4125
2677.22224	8762.1125
2679.84993	8762.2125
2682.476	8712.3125
2685.10043	8713.8125
2687.72324	8709.1125
2690.34441	8717.9125
2692.96396	8681.9125
2695.58188	8687.2125
2698.19818	8667.6125
2700.81285	8672.7125
2703.4259	8678.2125
2706.03733	8673.3125
2708.64714	8660.3125
2711.25533	8699.3125
2713.86191	8664.6125
2716.46687	8712.4125
2719.07021	8698.6125
2721.67194	8723.2125
2724.27206	8732.1125
2726.87057	8744.9125
2729.46747	8747.8125
2732.06276	8751.9125
2734.65644	8768.4125
2737.24852	8757.9125
2739.83899	8730.7125
2742.42786	8754.3125
2745.01513	8707.6125
2747.60079	8711.0125
2750.18486	8679.7125
2752.76733	8694.1125
2755.3482	8679.2125
2757.92747	8661.6125
2760.50515	8670.2125
2763.08123	8674.5125
2765.65573	8658.2125
2768.22863	8647.2125
2770.79994	8648.2125
2773.36967	8638.2125
2775.9378	8646.3125
2778.50435	8645.9125
2781.06932	8640.9125
2783.6327	8641.0125
2786.1945	8644.7125
2788.75471	8675.6125
2791.31335	8636.7125
2793.87041	8636.7125
2796.42589	8615.7125
2798.97979	8604.9125
2801.53212	8591.4125
2804.08288	8580.5125
2806.63206	8564.2125
2809.17967	8516.8125
2811.72571	8527.1125
2814.27018	8508.3125
2816.81308	8503.2125
2819.35442	8498.0125
2821.89419	8486.1125
2824.43239	8498.4125
2826.96904	8486.8125
2829.50412	8485.5125
2832.03763	8462.3125
2834.56959	8461.9125
2837.1	8459.7125
2839.62884	8481.0125
2842.15613	8484.5125
2844.68186	8508.1125
2847.20604	8495.1125
2849.72867	8524.3125
2852.24974	8499.8125
2854.76927	8486.6125
2857.28724	8474.8125
2859.80367	8488.2125
2862.31855	8475.2125
2864.83189	8476.2125
2867.34368	8467.6125
2869.85393	8481.2125
2872.36264	8488.3125
2874.8698	8468.3125
2877.37543	8477.3125
2879.87952	8466.2125
2882.38207	8480.5125
2884.88308	8478.6125
2887.38256	8443.2125
2889.88051	8485.0125
2892.37692	8485.3125
2894.8718	8505.5125
2897.36515	8498.8125
2899.85698	8513.2125
2902.34727	8527.9125
2904.83604	8533.1125
2907.32328	8566.9125
2909.809	8560.6125
2912.29319	8552.6125
2914.77587	8558.5125
2917.25702	8550.9125
2919.73665	8544.8125
2922.21476	8561.9125
2924.69136	8551.5125
2927.16644	8554.1125
2929.64	8485.1125
2932.11205	8477.3125
2934.58258	8422.0125
2937.05161	8462.2125
2939.51912	8451.8125
2941.98513	8445.1125
2944.44962	8416.1125
2946.91261	8377.0125
2949.37409	8394.9125
2951.83407	8368.7125
2954.29254	8367.2125
2956.74951	8354.3125
2959.20498	8342.3125
2961.65895	8344.0125
2964.11142	8320.8125
2966.56239	8333.0125
2969.01186	8304.9125
2971.45984	8287.0125
2973.90632	8267.4125
2976.35131	8247.0125
2978.7948	8217.9125
2981.23681	8197.1125
2983.67732	8178.0125
2986.11635	8165.0125
2988.55388	8145.6125
2990.98993	8128.3125
2993.4245	8101.5125
2995.85758	8079.6125
2998.28917	8077.8125
3000.71928	8049.7125
3003.14791	8043.1125
3005.57506	8035.5125
3008.00073	8016.5125
3010.42493	7996.0125
3012.84764	7995.2125
3015.26888	7966.1125
3017.68865	7947.7125
3020.10694	7959.1125
3022.52376	7917.7125
3024.9391	7937.7125
3027.35298	7942.0125
3029.76539	7927.4125
3032.17632	7909.6125
3034.5858	7926.2125
3036.9938	7912.9125
3039.40034	7912.8125
3041.80542	7921.8125
3044.20903	7889.0125
3046.61118	7866.0125
3049.01187	7862.8125
3051.4111	7847.5125
3053.80888	7830.1125
3056.20519	7833.4125
3058.60005	7798.1125
3060.99345	7805.9125
3063.3854	7795.3125
3065.7759	7757.5125
