Data from AgNP_FTO_APTES_UA_10uM_CRN_1000uM_R6G_10uM_NaF_0.1M_Addition_RamanShift__1__19-22-20-976.txt Node

Date: Thu Feb 10 19:22:20 GMT 2022
User: TCL
Spectrometer: QEP01345
Trigger mode: 4
Integration Time (sec): 7.000000E0
Scans to average: 10
Electric dark correction enabled: true
Nonlinearity correction enabled: false
Boxcar width: 0
XAxis mode: Raman Shifts
Number of Pixels in Spectrum: 1044
>>>>>Begin Spectral Data<<<<<
46.04893	0.1625
50.45542	-0.9375
54.85868	-1.8375
59.25871	-1.4375
63.6555	58.9625
68.04907	62.8625
72.43941	67.3625
76.82654	66.9625
81.21044	70.0625
85.59113	72.1625
89.96862	75.6625
94.34289	77.5625
98.71396	76.5625
103.08183	84.6625
107.4465	85.3625
111.80798	84.6625
116.16626	86.1625
120.52136	94.7625
124.87327	96.8625
129.222	99.5625
133.56755	103.2625
137.90993	112.1625
142.24913	121.8625
146.58517	136.7625
150.91804	159.6625
155.24774	185.7625
159.57429	232.2625
163.89768	296.0625
168.21792	392.7625
172.53501	532.4625
176.84895	744.7625
181.15975	1050.4625
185.46741	1469.6625
189.77193	2036.0625
194.07331	2724.0625
198.37157	3519.2625
202.6667	4358.0625
206.9587	5193.6625
211.24758	5992.6625
215.53334	6823.0625
219.81599	7674.9625
224.09553	8612.9625
228.37195	9645.5625
232.64527	10791.5625
236.91549	11990.2625
241.18261	13198.5625
245.44663	14354.4625
249.70755	15410.7625
253.96539	16259.9625
258.22014	17025.8625
262.4718	17669.9625
266.72039	18154.5625
270.96589	18403.3625
275.20832	18474.2625
279.44768	18323.4625
283.68397	18108.4625
287.91719	17936.5625
292.14735	17799.8625
296.37445	17774.4625
300.59849	17870.3625
304.81948	17929.1625
309.03742	17950.7625
313.25231	17835.8625
317.46415	17569.7625
321.67296	17160.2625
325.87872	16881.4625
330.08145	16711.7625
334.28114	16696.9625
338.47781	16826.9625
342.67145	17015.4625
346.86207	17290.0625
351.04966	17608.6625
355.23424	17965.8625
359.4158	18250.8625
363.59435	18470.2625
367.76989	18648.7625
371.94243	18760.3625
376.11196	18873.2625
380.27849	18976.1625
384.44203	19077.0625
388.60257	19200.3625
392.76012	19316.8625
396.91468	19477.2625
401.06626	19733.1625
405.21485	19922.2625
409.36047	19830.9625
413.50311	19592.4625
417.64277	19329.6625
421.77947	19307.3625
425.9132	19326.9625
430.04396	19412.5625
434.17176	19513.0625
438.2966	19691.6625
442.41849	19989.9625
446.53742	20492.9625
450.6534	20925.1625
454.76644	21276.4625
458.87653	21360.1625
462.98368	21233.9625
467.08789	21117.3625
471.18916	20933.8625
475.2875	20727.4625
479.38291	20646.3625
483.4754	20569.9625
487.56496	20437.7625
491.6516	20156.9625
495.73531	19898.5625
499.81612	19798.1625
503.89401	19796.7625
507.96899	19808.2625
512.04106	19844.5625
516.11023	19849.3625
520.1765	19788.8625
524.23987	19698.9625
528.30034	19628.7625
532.35792	19511.9625
536.41261	19367.0625
540.46441	19204.2625
544.51333	19217.1625
548.55936	19363.9625
552.60252	19626.1625
556.64279	20006.8625
560.6802	20302.4625
564.71473	20445.8625
568.7464	20697.3625
572.7752	21081.2625
576.80114	21333.8625
580.82422	21402.6625
584.84444	21600.5625
588.86181	22068.3625
592.87633	22572.9625
596.888	22662.6625
600.89682	22194.0625
604.9028	22344.6625
608.90594	23736.5625
612.90624	25798.7625
616.90371	24868.2625
620.89834	21447.2625
624.89015	19860.1625
628.87913	19655.6625
632.86528	19716.9625
636.84862	19787.1625
640.82913	19603.7625
644.80683	19268.0625
648.78172	19077.5625
652.75379	19058.2625
656.72306	19235.9625
660.68952	19521.7625
664.65319	19392.2625
668.61405	19114.1625
672.57211	19033.3625
676.52738	19139.3625
680.47986	19156.8625
684.42955	19085.1625
688.37646	18999.2625
692.32058	19062.6625
696.26192	19219.3625
700.20048	19424.2625
704.13626	19499.2625
708.06928	19512.7625
711.99952	19464.7625
715.927	19454.0625
719.85171	19452.4625
723.77365	19442.6625
727.69284	19266.5625
731.60928	19138.1625
735.52295	19077.7625
739.43388	19050.6625
743.34206	19115.4625
747.24749	19174.5625
751.15017	19302.6625
755.05012	19487.2625
758.94733	19832.7625
762.8418	20556.2625
766.73354	21694.3625
770.62254	22889.5625
774.50882	23408.3625
778.39237	22725.4625
782.27321	21395.4625
786.15132	20287.8625
790.02671	19528.6625
793.89938	19236.1625
797.76935	19080.2625
801.6366	19011.2625
805.50115	18952.2625
809.36299	18882.7625
813.22213	18804.7625
817.07857	18797.9625
820.93231	18782.3625
824.78336	18753.7625
828.63172	18733.8625
832.47738	18704.0625
836.32036	18679.8625
840.16066	18719.2625
843.99827	18737.4625
847.8332	18728.2625
851.66546	18704.2625
855.49504	18694.4625
859.32195	18712.1625
863.1462	18681.5625
866.96777	18643.8625
870.78668	18636.0625
874.60293	18641.7625
878.41652	18669.1625
882.22745	18677.0625
886.03573	18741.5625
889.84136	18754.2625
893.64433	18686.7625
897.44466	18671.1625
901.24235	18601.9625
905.0374	18541.9625
908.8298	18517.5625
912.61957	18457.0625
916.40671	18525.2625
920.19121	18735.9625
923.97308	18809.3625
927.75233	18863.4625
931.52895	18806.4625
935.30295	18638.9625
939.07433	18433.2625
942.84309	18216.3625
946.60924	18113.7625
950.37278	18016.4625
954.13371	17988.3625
957.89203	17972.4625
961.64774	17917.6625
965.40086	17922.5625
969.15137	17875.7625
972.89929	17826.2625
976.64461	17779.2625
980.38733	17745.2625
984.12747	17789.7625
987.86502	17879.8625
991.59999	17993.9625
995.33237	18122.4625
999.06217	18385.8625
1002.78939	18624.1625
1006.51404	18824.4625
1010.23611	18990.2625
1013.95561	19114.3625
1017.67255	19160.5625
1021.38692	19056.7625
1025.09872	18871.1625
1028.80796	18782.8625
1032.51465	18896.7625
1036.21877	19072.2625
1039.92035	19150.4625
1043.61937	19134.1625
1047.31584	18992.4625
1051.00976	18850.4625
1054.70114	18797.9625
1058.38998	18825.7625
1062.07627	18863.2625
1065.76003	18922.6625
1069.44126	19012.7625
1073.11995	19153.9625
1076.79611	19316.9625
1080.46974	19387.2625
1084.14085	19527.5625
1087.80943	19691.4625
1091.47549	19829.7625
1095.13903	19841.3625
1098.80005	19676.0625
1102.45857	19397.5625
1106.11456	19203.9625
1109.76805	19127.1625
1113.41903	19198.7625
1117.06751	19336.5625
1120.71348	19510.9625
1124.35696	19739.1625
1127.99793	19992.5625
1131.63641	20098.3625
1135.2724	19911.0625
1138.90589	19670.1625
1142.5369	19575.5625
1146.16542	19592.8625
1149.79145	19649.6625
1153.415	19741.3625
1157.03607	19855.8625
1160.65467	20222.5625
1164.27079	20869.9625
1167.88443	21583.8625
1171.49561	22540.2625
1175.10432	23751.2625
1178.71056	25337.1625
1182.31434	26756.7625
1185.91565	27490.5625
1189.51451	27288.0625
1193.11091	26622.0625
1196.70485	25731.2625
1200.29634	24940.0625
1203.88538	24316.1625
1207.47197	23868.7625
1211.05612	23362.2625
1214.63782	22900.9625
1218.21708	22570.6625
1221.79391	22327.2625
1225.36829	22174.6625
1228.94024	22016.8625
1232.50976	21775.0625
1236.07685	21493.0625
1239.6415	21365.8625
1243.20374	21420.0625
1246.76355	21517.0625
1250.32093	21665.9625
1253.8759	21953.8625
1257.42845	22353.7625
1260.97859	22766.5625
1264.52631	23259.4625
1268.07163	23700.2625
1271.61453	24154.2625
1275.15503	24561.2625
1278.69312	25030.6625
1282.22882	25427.3625
1285.76211	25985.6625
1289.29301	26741.5625
1292.82151	27685.6625
1296.34761	28835.8625
1299.87133	30255.0625
1303.39266	31713.5625
1306.9116	33307.2625
1310.42815	34732.9625
1313.94233	35580.8625
1317.45412	35414.4625
1320.96354	34592.9625
1324.47058	33639.8625
1327.97525	32782.5625
1331.47754	32098.8625
1334.97747	31624.8625
1338.47502	31399.0625
1341.97022	31193.0625
1345.46305	31004.4625
1348.95352	31136.2625
1352.44163	31610.7625
1355.92738	32548.1625
1359.41078	34054.8625
1362.89183	35423.5625
1366.37053	34926.8625
1369.84688	32136.5625
1373.32088	28887.9625
1376.79254	26761.6625
1380.26186	25996.7625
1383.72883	25867.2625
1387.19347	25860.7625
1390.65578	25655.7625
1394.11575	25614.1625
1397.57339	25674.4625
1401.0287	25883.1625
1404.48168	26025.0625
1407.93234	25825.2625
1411.38068	25336.5625
1414.82669	24768.3625
1418.27039	24061.7625
1421.71177	23378.7625
1425.15083	22734.3625
1428.58758	22407.4625
1432.02203	22505.2625
1435.45416	22872.2625
1438.88399	23349.0625
1442.31151	23644.6625
1445.73673	23903.0625
1449.15965	24057.6625
1452.58027	24103.3625
1455.9986	24108.9625
1459.41463	24143.9625
1462.82837	24318.2625
1466.23982	24574.0625
1469.64898	24851.3625
1473.05586	25016.2625
1476.46045	25026.6625
1479.86276	24992.6625
1483.26279	24883.6625
1486.66054	24842.2625
1490.05602	25012.2625
1493.44922	25317.9625
1496.84016	25711.6625
1500.22882	26486.6625
1503.61521	27511.3625
1506.99934	28763.2625
1510.38121	29864.5625
1513.76081	30199.6625
1517.13816	29476.7625
1520.51324	28188.6625
1523.88607	26975.8625
1527.25665	26279.5625
1530.62498	26069.2625
1533.99105	25918.1625
1537.35488	25690.6625
1540.71647	25328.7625
1544.07581	24836.9625
1547.4329	24356.8625
1550.78776	23954.5625
1554.14038	23654.0625
1557.49077	23536.5625
1560.83892	23500.0625
1564.18484	23592.0625
1567.52853	23718.3625
1570.86999	24038.7625
1574.20922	24419.7625
1577.54624	24695.2625
1580.88103	24722.8625
1584.2136	24615.0625
1587.54395	24854.5625
1590.87208	25507.8625
1594.19801	26496.4625
1597.52172	27575.2625
1600.84321	27870.7625
1604.16251	27080.1625
1607.47959	25591.1625
1610.79447	23905.7625
1614.10715	22338.5625
1617.41763	21140.4625
1620.7259	20325.9625
1624.03199	19863.0625
1627.33587	19850.2625
1630.63757	20247.2625
1633.93707	21081.3625
1637.23439	22478.8625
1640.52951	24537.6625
1643.82246	27072.8625
1647.11321	29223.3625
1650.40179	29966.5625
1653.68819	28485.4625
1656.97241	25467.0625
1660.25446	22396.1625
1663.53433	20187.7625
1666.81203	18804.3625
1670.08756	17938.7625
1673.36092	17396.7625
1676.63211	17018.1625
1679.90115	16783.3625
1683.16801	16583.1625
1686.43272	16437.9625
1689.69527	16317.9625
1692.95567	16298.1625
1696.2139	16249.4625
1699.46999	16210.6625
1702.72392	16135.7625
1705.97571	16092.4625
1709.22535	16027.6625
1712.47284	16029.9625
1715.71819	15994.5625
1718.96139	15981.4625
1722.20246	15936.9625
1725.44139	15855.1625
1728.67818	15799.5625
1731.91284	15724.1625
1735.14537	15674.4625
1738.37576	15622.5625
1741.60403	15538.4625
1744.83017	15516.2625
1748.05418	15487.3625
1751.27607	15491.7625
1754.49584	15441.7625
1757.71349	15449.8625
1760.92903	15427.5625
1764.14244	15419.1625
1767.35375	15407.3625
1770.56294	15386.0625
1773.77002	15360.8625
1776.97499	15298.6625
1780.17785	15274.3625
1783.37861	15237.2625
1786.57727	15217.0625
1789.77382	15202.7625
1792.96828	15172.4625
1796.16064	15147.9625
1799.3509	15110.6625
1802.53907	15101.6625
1805.72514	15067.2625
1808.90913	15010.1625
1812.09102	14957.8625
1815.27083	14960.1625
1818.44856	14903.7625
1821.6242	14881.5625
1824.79776	14852.8625
1827.96924	14843.1625
1831.13864	14821.9625
1834.30597	14808.8625
1837.47122	14785.9625
1840.6344	14786.8625
1843.7955	14769.6625
1846.95454	14730.2625
1850.11151	14722.6625
1853.26642	14764.8625
1856.41926	14734.3625
1859.57004	14729.8625
1862.71876	14692.7625
1865.86542	14675.7625
1869.01003	14675.5625
1872.15258	14647.0625
1875.29308	14657.1625
1878.43152	14630.0625
1881.56792	14658.7625
1884.70227	14603.3625
1887.83457	14613.7625
1890.96482	14554.1625
1894.09304	14505.8625
1897.21921	14490.9625
1900.34335	14507.6625
1903.46544	14501.0625
1906.58551	14470.2625
1909.70353	14449.8625
1912.81953	14445.7625
1915.93349	14434.5625
1919.04543	14397.9625
1922.15534	14360.5625
1925.26322	14322.9625
1928.36908	14284.7625
1931.47292	14285.0625
1934.57473	14277.7625
1937.67453	14219.2625
1940.77232	14196.2625
1943.86808	14143.3625
1946.96184	14119.4625
1950.05358	14077.3625
1953.14331	14015.8625
1956.23103	13978.2625
1959.31675	13934.0625
1962.40046	13947.2625
1965.48217	13862.7625
1968.56188	13827.6625
1971.63959	13774.6625
1974.7153	13728.2625
1977.78901	13680.9625
1980.86073	13686.1625
1983.93046	13638.5625
1986.99819	13598.1625
1990.06394	13546.0625
1993.1277	13498.4625
1996.18947	13472.1625
1999.24925	13421.2625
2002.30706	13354.3625
2005.36288	13358.4625
2008.41672	13317.0625
2011.46859	13268.1625
2014.51848	13223.8625
2017.56639	13206.2625
2020.61233	13183.8625
2023.6563	13141.3625
2026.6983	13124.3625
2029.73833	13073.9625
2032.7764	13055.6625
2035.8125	12995.7625
2038.84664	12976.6625
2041.87881	12964.4625
2044.90903	12887.5625
2047.93729	12875.4625
2050.96359	12887.2625
2053.98794	12871.0625
2057.01034	12836.5625
2060.03078	12835.6625
2063.04927	12820.8625
2066.06582	12814.1625
2069.08042	12824.2625
2072.09307	12823.6625
2075.10378	12792.9625
2078.11255	12786.1625
2081.11938	12789.1625
2084.12426	12785.1625
2087.12722	12781.1625
2090.12824	12761.7625
2093.12732	12747.0625
2096.12447	12747.0625
2099.11969	12735.8625
2102.11299	12746.3625
2105.10435	12750.8625
2108.09379	12751.5625
2111.08131	12752.0625
2114.0669	12730.4625
2117.05057	12765.4625
2120.03233	12781.5625
2123.01216	12750.6625
2125.99008	12811.4625
2128.96609	12841.1625
2131.94018	12853.5625
2134.91236	12839.2625
2137.88263	12826.5625
2140.851	12853.8625
2143.81746	12856.6625
2146.78201	12858.1625
2149.74466	12857.5625
2152.7054	12849.6625
2155.66425	12834.8625
2158.6212	12821.6625
2161.57625	12831.5625
2164.52941	12810.1625
2167.48067	12817.2625
2170.43004	12818.3625
2173.37752	12810.0625
2176.32311	12845.0625
2179.26681	12827.7625
2182.20863	12809.4625
2185.14856	12789.0625
2188.08661	12769.0625
2191.02278	12811.9625
2193.95707	12793.9625
2196.88948	12800.5625
2199.82001	12760.8625
2202.74867	12750.9625
2205.67545	12733.0625
2208.60037	12743.6625
2211.52341	12696.0625
2214.44458	12676.2625
2217.36388	12666.6625
2220.28132	12650.5625
2223.1969	12587.0625
2226.11061	12593.7625
2229.02246	12548.9625
2231.93245	12529.1625
2234.84058	12503.9625
2237.74686	12500.7625
2240.65128	12471.7625
2243.55385	12429.0625
2246.45456	12428.0625
2249.35343	12435.5625
2252.25044	12409.0625
2255.14561	12376.4625
2258.03893	12382.0625
2260.93041	12329.0625
2263.82004	12281.0625
2266.70783	12297.8625
2269.59378	12231.6625
2272.4779	12201.3625
2275.36017	12169.0625
2278.24061	12143.0625
2281.11922	12149.9625
2283.996	12141.7625
2286.87094	12129.9625
2289.74405	12106.9625
2292.61534	12093.8625
2295.4848	12087.4625
2298.35243	12088.4625
2301.21824	12044.8625
2304.08223	12066.3625
2306.94439	12061.9625
2309.80474	12064.7625
2312.66327	12038.5625
2315.51999	12036.7625
2318.37489	12019.0625
2321.22797	11993.4625
2324.07925	11984.9625
2326.92871	11951.4625
2329.77637	11935.8625
2332.62222	11929.0625
2335.46626	11905.1625
2338.3085	11849.7625
2341.14893	11882.9625
2343.98756	11897.0625
2346.8244	11852.0625
2349.65943	11849.1625
2352.49267	11830.7625
2355.32411	11864.3625
2358.15376	11814.8625
2360.98161	11838.5625
2363.80768	11831.1625
2366.63195	11811.6625
2369.45444	11806.6625
2372.27514	11781.5625
2375.09405	11785.8625
2377.91118	11769.9625
2380.72652	11729.3625
2383.54009	11682.9625
2386.35187	11671.5625
2389.16188	11606.0625
2391.97011	11604.5625
2394.77657	11601.2625
2397.58125	11567.3625
2400.38416	11571.4625
2403.18529	11574.7625
2405.98466	11537.6625
2408.78226	11518.8625
2411.57809	11476.1625
2414.37216	11465.1625
2417.16446	11484.7625
2419.955	11434.7625
2422.74378	11399.7625
2425.5308	11418.8625
2428.31606	11425.3625
2431.09956	11411.6625
2433.88131	11403.9625
2436.6613	11383.8625
2439.43954	11389.8625
2442.21603	11361.7625
2444.99077	11331.7625
2447.76377	11331.4625
2450.53501	11324.7625
2453.30451	11337.0625
2456.07226	11304.4625
2458.83827	11334.9625
2461.60254	11290.7625
2464.36507	11276.0625
2467.12586	11276.5625
2469.88492	11262.7625
2472.64224	11266.2625
2475.39782	11264.3625
2478.15167	11267.0625
2480.90379	11250.6625
2483.65417	11274.5625
2486.40283	11266.8625
2489.14976	11257.0625
2491.89497	11277.7625
2494.63845	11244.6625
2497.3802	11243.9625
2500.12024	11225.8625
2502.85855	11215.9625
2505.59514	11218.3625
2508.33002	11191.3625
2511.06318	11173.4625
2513.79462	11182.4625
2516.52435	11131.7625
2519.25237	11127.1625
2521.97867	11137.2625
2524.70327	11138.0625
2527.42616	11096.0625
2530.14734	11095.2625
2532.86681	11100.0625
2535.58458	11074.0625
2538.30065	11089.8625
2541.01501	11073.3625
2543.72768	11052.1625
2546.43864	11043.1625
2549.14791	11031.8625
2551.85548	11007.7625
2554.56136	10996.5625
2557.26554	10947.7625
2559.96803	10928.0625
2562.66883	10939.4625
2565.36794	10879.6625
2568.06536	10877.1625
2570.7611	10864.6625
2573.45514	10858.1625
2576.14751	10854.8625
2578.83819	10809.4625
2581.52719	10798.1625
2584.21451	10785.6625
2586.90015	10789.2625
2589.58411	10747.9625
2592.2664	10755.1625
2594.94701	10737.0625
2597.62594	10730.6625
2600.30321	10720.6625
2602.9788	10694.4625
2605.65273	10665.8625
2608.32498	10668.9625
2610.99557	10654.7625
2613.66449	10655.3625
2616.33175	10642.0625
2618.99734	10649.3625
2621.66128	10621.3625
2624.32355	10616.5625
2626.98416	10616.4625
2629.64311	10602.4625
2632.30041	10569.6625
2634.95605	10571.1625
2637.61004	10547.5625
2640.26238	10517.8625
2642.91306	10526.1625
2645.56209	10522.4625
2648.20948	10503.9625
2650.85521	10502.2625
2653.4993	10486.5625
2656.14175	10495.5625
2658.78255	10499.6625
2661.42171	10495.7625
2664.05923	10509.9625
2666.6951	10516.3625
2669.32934	10525.7625
2671.96194	10488.6625
2674.59291	10486.8625
2677.22224	10496.0625
2679.84993	10484.5625
2682.476	10484.9625
2685.10043	10485.8625
2687.72324	10464.0625
2690.34441	10456.8625
2692.96396	10499.0625
2695.58188	10470.1625
2698.19818	10443.3625
2700.81285	10462.9625
2703.4259	10472.4625
2706.03733	10490.0625
2708.64714	10492.9625
2711.25533	10482.4625
2713.86191	10458.8625
2716.46687	10464.5625
2719.07021	10481.8625
2721.67194	10506.3625
2724.27206	10470.7625
2726.87057	10478.3625
2729.46747	10487.2625
2732.06276	10482.6625
2734.65644	10462.3625
2737.24852	10494.4625
2739.83899	10468.2625
2742.42786	10464.5625
2745.01513	10451.5625
2747.60079	10437.2625
2750.18486	10400.3625
2752.76733	10412.0625
2755.3482	10391.6625
2757.92747	10409.8625
2760.50515	10357.6625
2763.08123	10352.6625
2765.65573	10355.1625
2768.22863	10355.5625
2770.79994	10340.6625
2773.36967	10300.5625
2775.9378	10288.5625
2778.50435	10298.4625
2781.06932	10295.5625
2783.6327	10301.6625
2786.1945	10282.0625
2788.75471	10276.7625
2791.31335	10227.0625
2793.87041	10256.1625
2796.42589	10231.4625
2798.97979	10206.9625
2801.53212	10181.0625
2804.08288	10167.0625
2806.63206	10151.1625
2809.17967	10095.9625
2811.72571	10080.4625
2814.27018	10089.6625
2816.81308	10067.6625
2819.35442	10046.3625
2821.89419	10020.2625
2824.43239	10022.2625
2826.96904	9983.8625
2829.50412	10025.9625
2832.03763	10003.7625
2834.56959	9994.2625
2837.1	9992.9625
2839.62884	10014.9625
2842.15613	10018.1625
2844.68186	10014.4625
2847.20604	10053.5625
2849.72867	10062.9625
2852.24974	10063.6625
2854.76927	10028.8625
2857.28724	10004.8625
2859.80367	9991.4625
2862.31855	9979.2625
2864.83189	9953.2625
2867.34368	9960.9625
2869.85393	9929.5625
2872.36264	9942.3625
2874.8698	9922.4625
2877.37543	9918.0625
2879.87952	9917.9625
2882.38207	9922.9625
2884.88308	9903.3625
2887.38256	9891.2625
2889.88051	9898.5625
2892.37692	9900.2625
2894.8718	9906.3625
2897.36515	9921.2625
2899.85698	9924.2625
2902.34727	9924.8625
2904.83604	9951.8625
2907.32328	9938.5625
2909.809	9951.4625
2912.29319	9951.0625
2914.77587	9922.5625
2917.25702	9931.5625
2919.73665	9916.2625
2922.21476	9921.6625
2924.69136	9894.4625
2927.16644	9921.6625
2929.64	9895.2625
2932.11205	9880.2625
2934.58258	9863.9625
2937.05161	9896.1625
2939.51912	9876.8625
2941.98513	9873.8625
2944.44962	9823.9625
2946.91261	9809.4625
2949.37409	9832.3625
2951.83407	9810.2625
2954.29254	9796.9625
2956.74951	9776.6625
2959.20498	9773.2625
2961.65895	9762.6625
2964.11142	9794.1625
2966.56239	9756.2625
2969.01186	9752.6625
2971.45984	9733.3625
2973.90632	9710.2625
2976.35131	9683.1625
2978.7948	9678.9625
2981.23681	9634.9625
2983.67732	9622.6625
2986.11635	9592.3625
2988.55388	9563.3625
2990.98993	9555.6625
2993.4245	9537.7625
2995.85758	9498.7625
2998.28917	9468.3625
3000.71928	9465.9625
3003.14791	9432.5625
3005.57506	9440.5625
3008.00073	9420.1625
3010.42493	9391.1625
3012.84764	9382.0625
3015.26888	9362.4625
3017.68865	9370.6625
3020.10694	9346.1625
3022.52376	9320.1625
3024.9391	9310.1625
3027.35298	9308.5625
3029.76539	9278.4625
3032.17632	9305.5625
