Data from AgNP_FTO_APTES_UA_10uM_CRN_2uM_R6G_10uM_NaF_0.1M_Addition_RamanShift__34__14-36-30-623.txt Node

Date: Thu Feb 10 14:36:30 GMT 2022
User: TCL
Spectrometer: QEP01345
Trigger mode: 4
Integration Time (sec): 7.000000E0
Scans to average: 10
Electric dark correction enabled: true
Nonlinearity correction enabled: false
Boxcar width: 0
XAxis mode: Raman Shifts
Number of Pixels in Spectrum: 1044
>>>>>Begin Spectral Data<<<<<
46.04893	-0.1125
50.45542	-0.2125
54.85868	-1.2125
59.25871	-0.0125
63.6555	43.3875
68.04907	44.0875
72.43941	52.5875
76.82654	48.0875
81.21044	56.5875
85.59113	54.2875
89.96862	60.4875
94.34289	62.2875
98.71396	62.6875
103.08183	65.2875
107.4465	67.5875
111.80798	64.9875
116.16626	69.7875
120.52136	71.1875
124.87327	72.1875
129.222	75.4875
133.56755	80.0875
137.90993	81.3875
142.24913	85.7875
146.58517	94.7875
150.91804	108.9875
155.24774	127.0875
159.57429	155.2875
163.89768	193.6875
168.21792	256.1875
172.53501	339.5875
176.84895	471.1875
181.15975	653.7875
185.46741	904.9875
189.77193	1257.7875
194.07331	1668.7875
198.37157	2141.1875
202.6667	2649.6875
206.9587	3148.0875
211.24758	3664.1875
215.53334	4194.3875
219.81599	4793.1875
224.09553	5455.2875
228.37195	6229.2875
232.64527	7012.5875
236.91549	7813.7875
241.18261	8533.5875
245.44663	9107.9875
249.70755	9524.3875
253.96539	9903.8875
258.22014	10235.8875
262.4718	10578.0875
266.72039	10875.1875
270.96589	11004.1875
275.20832	11038.2875
279.44768	10930.8875
283.68397	10781.1875
287.91719	10673.5875
292.14735	10725.1875
296.37445	10958.8875
300.59849	11385.0875
304.81948	11928.0875
309.03742	12272.9875
313.25231	12231.9875
317.46415	11612.4875
321.67296	10598.8875
325.87872	9789.5875
330.08145	9400.8875
334.28114	9357.1875
338.47781	9528.3875
342.67145	9802.7875
346.86207	10277.8875
351.04966	10969.1875
355.23424	11745.6875
359.4158	12315.5875
363.59435	12566.3875
367.76989	12636.5875
371.94243	12573.7875
376.11196	12477.7875
380.27849	12385.5875
384.44203	12216.8875
388.60257	12018.9875
392.76012	11916.4875
396.91468	12036.7875
401.06626	12402.4875
405.21485	12623.6875
409.36047	12332.8875
413.50311	11596.4875
417.64277	10914.8875
421.77947	10519.7875
425.9132	10355.7875
430.04396	10349.2875
434.17176	10397.6875
438.2966	10543.5875
442.41849	10845.4875
446.53742	11214.7875
450.6534	11584.3875
454.76644	11798.6875
458.87653	11831.6875
462.98368	11653.5875
467.08789	11453.3875
471.18916	11159.9875
475.2875	10868.7875
479.38291	10638.2875
483.4754	10448.1875
487.56496	10284.0875
491.6516	10120.4875
495.73531	10036.0875
499.81612	10056.6875
503.89401	10158.2875
507.96899	10318.3875
512.04106	10475.2875
516.11023	10664.1875
520.1765	10762.3875
524.23987	10709.4875
528.30034	10498.6875
532.35792	10240.1875
536.41261	9967.9875
540.46441	9690.4875
544.51333	9552.3875
548.55936	9642.5875
552.60252	9912.6875
556.64279	10278.1875
560.6802	10456.8875
564.71473	10653.2875
568.7464	11187.7875
572.7752	11566.5875
576.80114	11214.1875
580.82422	10796.4875
584.84444	10613.0875
588.86181	10601.6875
592.87633	10645.9875
596.888	10819.6875
600.89682	11239.5875
604.9028	12644.7875
608.90594	16584.5875
612.90624	21842.6875
616.90371	20676.7875
620.89834	13740.9875
624.89015	10563.9875
628.87913	9988.8875
632.86528	10080.0875
636.84862	10321.7875
640.82913	10113.7875
644.80683	9566.7875
648.78172	9225.6875
652.75379	9252.0875
656.72306	9756.9875
660.68952	10342.3875
664.65319	10195.7875
668.61405	9554.3875
672.57211	9267.5875
676.52738	9215.8875
680.47986	9213.0875
684.42955	9097.9875
688.37646	9068.1875
692.32058	9125.1875
696.26192	9232.2875
700.20048	9387.7875
704.13626	9529.7875
708.06928	9517.3875
711.99952	9391.4875
715.927	9372.4875
719.85171	9394.6875
723.77365	9367.0875
727.69284	9258.4875
731.60928	9161.2875
735.52295	9159.8875
739.43388	9190.6875
743.34206	9221.6875
747.24749	9267.8875
751.15017	9360.9875
755.05012	9596.6875
758.94733	10127.0875
762.8418	11437.4875
766.73354	13702.7875
770.62254	16058.3875
774.50882	17254.3875
778.39237	16364.8875
782.27321	13898.5875
786.15132	11551.2875
790.02671	10172.8875
793.89938	9581.7875
797.76935	9322.7875
801.6366	9215.2875
805.50115	9151.1875
809.36299	9081.2875
813.22213	9032.3875
817.07857	9005.5875
820.93231	8995.0875
824.78336	9025.6875
828.63172	9094.6875
832.47738	9105.2875
836.32036	9067.7875
840.16066	9017.9875
843.99827	8946.8875
847.8332	8880.3875
851.66546	8903.6875
855.49504	8911.9875
859.32195	8881.2875
863.1462	8816.6875
866.96777	8775.5875
870.78668	8745.8875
874.60293	8803.0875
878.41652	8809.8875
882.22745	8881.2875
886.03573	8938.4875
889.84136	8893.5875
893.64433	8822.8875
897.44466	8827.4875
901.24235	8804.0875
905.0374	8797.6875
908.8298	8740.9875
912.61957	8740.2875
916.40671	8760.5875
920.19121	8863.1875
923.97308	8973.0875
927.75233	9076.1875
931.52895	9173.0875
935.30295	9065.4875
939.07433	8755.7875
942.84309	8478.5875
946.60924	8306.0875
950.37278	8234.0875
954.13371	8185.2875
957.89203	8173.2875
961.64774	8149.8875
965.40086	8118.2875
969.15137	8105.3875
972.89929	8064.6875
976.64461	8062.7875
980.38733	8085.8875
984.12747	8097.2875
987.86502	8128.4875
991.59999	8212.3875
995.33237	8321.4875
999.06217	8518.1875
1002.78939	8736.3875
1006.51404	8970.6875
1010.23611	9224.1875
1013.95561	9374.2875
1017.67255	9330.5875
1021.38692	9155.2875
1025.09872	8964.3875
1028.80796	8872.5875
1032.51465	8880.2875
1036.21877	8981.2875
1039.92035	9066.8875
1043.61937	9100.5875
1047.31584	9080.0875
1051.00976	9023.9875
1054.70114	8968.6875
1058.38998	8973.4875
1062.07627	9011.8875
1065.76003	9092.7875
1069.44126	9167.5875
1073.11995	9306.7875
1076.79611	9454.3875
1080.46974	9645.6875
1084.14085	9935.6875
1087.80943	10260.9875
1091.47549	10443.0875
1095.13903	10230.6875
1098.80005	9823.9875
1102.45857	9459.2875
1106.11456	9325.2875
1109.76805	9368.6875
1113.41903	9601.9875
1117.06751	9967.6875
1120.71348	10443.3875
1124.35696	10965.8875
1127.99793	11396.9875
1131.63641	11358.2875
1135.2724	10778.4875
1138.90589	10190.1875
1142.5369	9856.3875
1146.16542	9632.2875
1149.79145	9519.9875
1153.415	9516.0875
1157.03607	9625.8875
1160.65467	9912.5875
1164.27079	10352.5875
1167.88443	11045.4875
1171.49561	12122.9875
1175.10432	13918.2875
1178.71056	16264.4875
1182.31434	18029.3875
1185.91565	18392.7875
1189.51451	17785.0875
1193.11091	16492.0875
1196.70485	14941.1875
1200.29634	13850.6875
1203.88538	13035.5875
1207.47197	12126.9875
1211.05612	11382.1875
1214.63782	11001.1875
1218.21708	10850.8875
1221.79391	10866.7875
1225.36829	10925.5875
1228.94024	10930.8875
1232.50976	10935.4875
1236.07685	10936.0875
1239.6415	10950.0875
1243.20374	10965.3875
1246.76355	11015.9875
1250.32093	11167.8875
1253.8759	11448.0875
1257.42845	11854.6875
1260.97859	12301.6875
1264.52631	12772.9875
1268.07163	13212.9875
1271.61453	13621.0875
1275.15503	13888.5875
1278.69312	14000.8875
1282.22882	14047.0875
1285.76211	14429.5875
1289.29301	14957.9875
1292.82151	15547.7875
1296.34761	16146.6875
1299.87133	17081.8875
1303.39266	18592.7875
1306.9116	20863.6875
1310.42815	23529.3875
1313.94233	25227.4875
1317.45412	24917.1875
1320.96354	23294.1875
1324.47058	21351.6875
1327.97525	19624.2875
1331.47754	18497.9875
1334.97747	18078.5875
1338.47502	18029.2875
1341.97022	18293.8875
1345.46305	18799.6875
1348.95352	19792.3875
1352.44163	21285.5875
1355.92738	23569.7875
1359.41078	27205.0875
1362.89183	30871.6875
1366.37053	30121.3875
1369.84688	25285.5875
1373.32088	20305.6875
1376.79254	17234.4875
1380.26186	15824.1875
1383.72883	15153.8875
1387.19347	14645.9875
1390.65578	14052.9875
1394.11575	13602.9875
1397.57339	13483.1875
1401.0287	13582.9875
1404.48168	13829.8875
1407.93234	14062.1875
1411.38068	14173.7875
1414.82669	14010.8875
1418.27039	13661.7875
1421.71177	13237.0875
1425.15083	12828.3875
1428.58758	12553.2875
1432.02203	12584.3875
1435.45416	12779.9875
1438.88399	12931.3875
1442.31151	13023.3875
1445.73673	13162.9875
1449.15965	13317.3875
1452.58027	13337.3875
1455.9986	13251.6875
1459.41463	13224.1875
1462.82837	13375.2875
1466.23982	13679.3875
1469.64898	14022.9875
1473.05586	14231.2875
1476.46045	14398.7875
1479.86276	14606.7875
1483.26279	14918.7875
1486.66054	15250.3875
1490.05602	15745.0875
1493.44922	16416.2875
1496.84016	17457.0875
1500.22882	19196.6875
1503.61521	21641.1875
1506.99934	24487.3875
1510.38121	27226.3875
1513.76081	28601.6875
1517.13816	27262.3875
1520.51324	23797.8875
1523.88607	20250.4875
1527.25665	17760.0875
1530.62498	16337.5875
1533.99105	15534.2875
1537.35488	15006.1875
1540.71647	14662.1875
1544.07581	14417.7875
1547.4329	14267.1875
1550.78776	14155.4875
1554.14038	14091.3875
1557.49077	14206.4875
1560.83892	14493.0875
1564.18484	14914.8875
1567.52853	15405.2875
1570.86999	15847.8875
1574.20922	16189.7875
1577.54624	16129.0875
1580.88103	15312.1875
1584.2136	14255.1875
1587.54395	13761.9875
1590.87208	14033.7875
1594.19801	14960.9875
1597.52172	16189.4875
1600.84321	16718.5875
1604.16251	16072.2875
1607.47959	14847.3875
1610.79447	13464.3875
1614.10715	12192.3875
1617.41763	11171.7875
1620.7259	10568.1875
1624.03199	10289.8875
1627.33587	10337.4875
1630.63757	10623.4875
1633.93707	11296.7875
1637.23439	12314.6875
1640.52951	13863.7875
1643.82246	15940.8875
1647.11321	18411.0875
1650.40179	20099.9875
1653.68819	19528.1875
1656.97241	16652.8875
1660.25446	13446.2875
1663.53433	11135.6875
1666.81203	9792.5875
1670.08756	9034.7875
1673.36092	8573.2875
1676.63211	8277.4875
1679.90115	8060.1875
1683.16801	7931.1875
1686.43272	7839.4875
1689.69527	7757.3875
1692.95567	7706.7875
1696.2139	7689.7875
1699.46999	7670.8875
1702.72392	7647.8875
1705.97571	7621.4875
1709.22535	7602.6875
1712.47284	7594.3875
1715.71819	7590.3875
1718.96139	7593.4875
1722.20246	7583.5875
1725.44139	7527.3875
1728.67818	7452.1875
1731.91284	7384.5875
1735.14537	7327.5875
1738.37576	7303.2875
1741.60403	7244.8875
1744.83017	7202.9875
1748.05418	7181.2875
1751.27607	7176.8875
1754.49584	7147.7875
1757.71349	7151.1875
1760.92903	7168.8875
1764.14244	7132.1875
1767.35375	7119.0875
1770.56294	7085.2875
1773.77002	7075.0875
1776.97499	7036.1875
1780.17785	7004.6875
1783.37861	6982.7875
1786.57727	6955.9875
1789.77382	6943.9875
1792.96828	6948.3875
1796.16064	6942.7875
1799.3509	6908.1875
1802.53907	6906.9875
1805.72514	6873.5875
1808.90913	6846.8875
1812.09102	6832.6875
1815.27083	6820.7875
1818.44856	6795.7875
1821.6242	6793.4875
1824.79776	6777.2875
1827.96924	6766.7875
1831.13864	6744.0875
1834.30597	6734.9875
1837.47122	6713.4875
1840.6344	6714.5875
1843.7955	6736.1875
1846.95454	6730.0875
1850.11151	6715.1875
1853.26642	6706.6875
1856.41926	6735.2875
1859.57004	6736.0875
1862.71876	6715.5875
1865.86542	6711.2875
1869.01003	6717.1875
1872.15258	6706.9875
1875.29308	6703.9875
1878.43152	6727.0875
1881.56792	6718.0875
1884.70227	6738.4875
1887.83457	6718.7875
1890.96482	6738.2875
1894.09304	6726.8875
1897.21921	6712.4875
1900.34335	6723.7875
1903.46544	6715.5875
1906.58551	6721.6875
1909.70353	6710.7875
1912.81953	6705.3875
1915.93349	6698.2875
1919.04543	6694.5875
1922.15534	6663.9875
1925.26322	6660.9875
1928.36908	6647.3875
1931.47292	6635.2875
1934.57473	6582.0875
1937.67453	6551.7875
1940.77232	6531.6875
1943.86808	6484.2875
1946.96184	6470.5875
1950.05358	6419.2875
1953.14331	6417.1875
1956.23103	6397.5875
1959.31675	6364.0875
1962.40046	6351.8875
1965.48217	6322.8875
1968.56188	6301.7875
1971.63959	6285.4875
1974.7153	6281.7875
1977.78901	6253.9875
1980.86073	6225.7875
1983.93046	6194.5875
1986.99819	6172.2875
1990.06394	6176.1875
1993.1277	6142.7875
1996.18947	6124.0875
1999.24925	6109.4875
2002.30706	6075.8875
2005.36288	6040.4875
2008.41672	6028.4875
2011.46859	6005.9875
2014.51848	6018.7875
2017.56639	5978.9875
2020.61233	5961.2875
2023.6563	5957.4875
2026.6983	5944.7875
2029.73833	5914.3875
2032.7764	5903.5875
2035.8125	5896.9875
2038.84664	5882.5875
2041.87881	5853.1875
2044.90903	5840.7875
2047.93729	5847.0875
2050.96359	5846.5875
2053.98794	5820.5875
2057.01034	5817.4875
2060.03078	5796.7875
2063.04927	5803.5875
2066.06582	5793.4875
2069.08042	5782.2875
2072.09307	5786.7875
2075.10378	5770.1875
2078.11255	5761.7875
2081.11938	5767.8875
2084.12426	5764.8875
2087.12722	5754.9875
2090.12824	5742.6875
2093.12732	5739.5875
2096.12447	5734.5875
2099.11969	5732.1875
2102.11299	5742.6875
2105.10435	5755.3875
2108.09379	5735.8875
2111.08131	5753.9875
2114.0669	5745.1875
2117.05057	5753.6875
2120.03233	5734.8875
2123.01216	5761.3875
2125.99008	5768.7875
2128.96609	5755.3875
2131.94018	5771.3875
2134.91236	5771.8875
2137.88263	5765.8875
2140.851	5763.3875
2143.81746	5764.5875
2146.78201	5769.5875
2149.74466	5765.2875
2152.7054	5758.3875
2155.66425	5727.1875
2158.6212	5729.0875
2161.57625	5728.5875
2164.52941	5734.4875
2167.48067	5733.7875
2170.43004	5713.5875
2173.37752	5711.5875
2176.32311	5708.0875
2179.26681	5702.2875
2182.20863	5715.6875
2185.14856	5704.7875
2188.08661	5706.5875
2191.02278	5717.0875
2193.95707	5709.0875
2196.88948	5700.2875
2199.82001	5695.8875
2202.74867	5670.0875
2205.67545	5685.7875
2208.60037	5651.4875
2211.52341	5669.1875
2214.44458	5641.9875
2217.36388	5639.5875
2220.28132	5623.9875
2223.1969	5596.0875
2226.11061	5585.8875
2229.02246	5580.5875
2231.93245	5571.6875
2234.84058	5556.4875
2237.74686	5532.4875
2240.65128	5551.9875
2243.55385	5542.5875
2246.45456	5518.4875
2249.35343	5538.8875
2252.25044	5526.6875
2255.14561	5522.5875
2258.03893	5523.5875
2260.93041	5517.8875
2263.82004	5498.6875
2266.70783	5490.4875
2269.59378	5455.5875
2272.4779	5440.0875
2275.36017	5432.2875
2278.24061	5430.3875
2281.11922	5426.4875
2283.996	5396.8875
2286.87094	5393.1875
2289.74405	5371.1875
2292.61534	5377.2875
2295.4848	5367.5875
2298.35243	5361.7875
2301.21824	5355.3875
2304.08223	5341.1875
2306.94439	5336.7875
2309.80474	5342.9875
2312.66327	5352.8875
2315.51999	5333.8875
2318.37489	5329.5875
2321.22797	5333.2875
2324.07925	5316.2875
2326.92871	5317.6875
2329.77637	5311.9875
2332.62222	5317.6875
2335.46626	5307.0875
2338.3085	5308.4875
2341.14893	5298.2875
2343.98756	5307.0875
2346.8244	5289.9875
2349.65943	5305.6875
2352.49267	5297.9875
2355.32411	5312.7875
2358.15376	5321.4875
2360.98161	5330.6875
2363.80768	5339.7875
2366.63195	5343.3875
2369.45444	5346.0875
2372.27514	5328.0875
2375.09405	5330.0875
2377.91118	5305.2875
2380.72652	5277.1875
2383.54009	5255.2875
2386.35187	5232.9875
2389.16188	5219.7875
2391.97011	5182.9875
2394.77657	5177.9875
2397.58125	5164.4875
2400.38416	5152.3875
2403.18529	5142.0875
2405.98466	5133.6875
2408.78226	5116.4875
2411.57809	5105.6875
2414.37216	5106.7875
2417.16446	5086.9875
2419.955	5085.8875
2422.74378	5073.7875
2425.5308	5076.3875
2428.31606	5076.6875
2431.09956	5080.7875
2433.88131	5074.8875
2436.6613	5074.4875
2439.43954	5082.2875
2442.21603	5075.9875
2444.99077	5068.1875
2447.76377	5080.5875
2450.53501	5061.0875
2453.30451	5055.7875
2456.07226	5080.4875
2458.83827	5076.4875
2461.60254	5067.6875
2464.36507	5063.6875
2467.12586	5061.9875
2469.88492	5058.9875
2472.64224	5067.9875
2475.39782	5067.4875
2478.15167	5081.4875
2480.90379	5083.3875
2483.65417	5111.0875
2486.40283	5123.0875
2489.14976	5133.4875
2491.89497	5119.6875
2494.63845	5135.2875
2497.3802	5116.9875
2500.12024	5126.0875
2502.85855	5086.9875
2505.59514	5086.3875
2508.33002	5065.9875
2511.06318	5041.4875
2513.79462	5030.0875
2516.52435	4993.4875
2519.25237	4985.1875
2521.97867	4976.4875
2524.70327	4982.3875
2527.42616	4943.9875
2530.14734	4943.5875
2532.86681	4935.3875
2535.58458	4939.7875
2538.30065	4941.4875
2541.01501	4940.8875
2543.72768	4946.1875
2546.43864	4931.7875
2549.14791	4942.9875
2551.85548	4937.2875
2554.56136	4940.8875
2557.26554	4928.2875
2559.96803	4933.4875
2562.66883	4904.7875
2565.36794	4901.7875
2568.06536	4902.7875
2570.7611	4876.7875
2573.45514	4876.9875
2576.14751	4860.3875
2578.83819	4866.0875
2581.52719	4846.2875
2584.21451	4854.5875
2586.90015	4856.2875
2589.58411	4832.2875
2592.2664	4821.5875
2594.94701	4828.7875
2597.62594	4832.6875
2600.30321	4816.5875
2602.9788	4816.8875
2605.65273	4834.0875
2608.32498	4838.3875
2610.99557	4821.3875
2613.66449	4814.9875
2616.33175	4810.6875
2618.99734	4827.7875
2621.66128	4819.9875
2624.32355	4824.7875
2626.98416	4800.9875
2629.64311	4790.8875
2632.30041	4797.2875
2634.95605	4772.8875
2637.61004	4757.7875
2640.26238	4767.0875
2642.91306	4750.1875
2645.56209	4766.0875
2648.20948	4743.2875
2650.85521	4748.4875
2653.4993	4737.9875
2656.14175	4739.2875
2658.78255	4745.6875
2661.42171	4763.8875
2664.05923	4762.2875
2666.6951	4776.9875
2669.32934	4773.6875
2671.96194	4778.6875
2674.59291	4789.8875
2677.22224	4785.7875
2679.84993	4785.1875
2682.476	4800.4875
2685.10043	4794.6875
2687.72324	4781.4875
2690.34441	4791.4875
2692.96396	4779.3875
2695.58188	4782.1875
2698.19818	4776.8875
2700.81285	4788.4875
2703.4259	4780.2875
2706.03733	4775.5875
2708.64714	4782.3875
2711.25533	4799.4875
2713.86191	4779.8875
2716.46687	4801.7875
2719.07021	4795.1875
2721.67194	4821.6875
2724.27206	4803.3875
2726.87057	4819.9875
2729.46747	4819.1875
2732.06276	4796.9875
2734.65644	4806.8875
2737.24852	4801.1875
2739.83899	4800.2875
2742.42786	4782.6875
2745.01513	4762.0875
2747.60079	4761.4875
2750.18486	4763.2875
2752.76733	4747.7875
2755.3482	4736.1875
2757.92747	4735.9875
2760.50515	4728.9875
2763.08123	4725.7875
2765.65573	4722.4875
2768.22863	4727.0875
2770.79994	4696.4875
2773.36967	4707.3875
2775.9378	4709.6875
2778.50435	4716.5875
2781.06932	4708.2875
2783.6327	4722.3875
2786.1945	4718.6875
2788.75471	4709.9875
2791.31335	4714.1875
2793.87041	4688.9875
2796.42589	4699.9875
2798.97979	4676.7875
2801.53212	4695.0875
2804.08288	4674.9875
2806.63206	4676.3875
2809.17967	4682.0875
2811.72571	4665.7875
2814.27018	4671.5875
2816.81308	4671.8875
2819.35442	4678.3875
2821.89419	4682.9875
2824.43239	4670.1875
2826.96904	4680.6875
2829.50412	4688.8875
2832.03763	4671.9875
2834.56959	4686.8875
2837.1	4689.0875
2839.62884	4708.5875
2842.15613	4724.5875
2844.68186	4755.5875
2847.20604	4780.3875
2849.72867	4807.0875
2852.24974	4804.0875
2854.76927	4810.2875
2857.28724	4793.0875
2859.80367	4772.1875
2862.31855	4786.3875
2864.83189	4769.1875
2867.34368	4758.3875
2869.85393	4774.5875
2872.36264	4752.5875
2874.8698	4771.6875
2877.37543	4763.4875
2879.87952	4752.6875
2882.38207	4749.0875
2884.88308	4736.2875
2887.38256	4730.4875
2889.88051	4733.4875
2892.37692	4727.1875
2894.8718	4710.5875
2897.36515	4741.5875
2899.85698	4739.8875
2902.34727	4749.4875
2904.83604	4757.4875
2907.32328	4758.5875
2909.809	4743.9875
2912.29319	4752.5875
2914.77587	4745.3875
2917.25702	4741.0875
2919.73665	4750.8875
2922.21476	4751.4875
2924.69136	4732.4875
2927.16644	4732.4875
2929.64	4709.9875
2932.11205	4718.4875
2934.58258	4694.5875
2937.05161	4683.1875
2939.51912	4680.6875
2941.98513	4639.4875
2944.44962	4621.3875
2946.91261	4585.6875
2949.37409	4582.7875
2951.83407	4576.4875
2954.29254	4556.8875
2956.74951	4554.4875
2959.20498	4537.5875
2961.65895	4541.1875
2964.11142	4540.3875
2966.56239	4533.3875
2969.01186	4530.9875
2971.45984	4531.9875
2973.90632	4502.2875
2976.35131	4483.9875
2978.7948	4468.3875
2981.23681	4457.7875
2983.67732	4442.5875
2986.11635	4425.5875
2988.55388	4412.7875
2990.98993	4409.3875
2993.4245	4402.3875
2995.85758	4385.0875
2998.28917	4383.8875
3000.71928	4364.3875
3003.14791	4341.7875
3005.57506	4368.6875
3008.00073	4350.4875
3010.42493	4234.7875
3012.84764	4331.0875
3015.26888	4321.0875
3017.68865	4305.7875
3020.10694	4310.5875
3022.52376	4300.2875
3024.9391	4288.2875
3027.35298	4288.1875
3029.76539	4269.5875
3032.17632	4291.4875
3034.5858	4283.7875
3036.9938	4266.1875
3039.40034	4265.0875
3041.80542	4246.8875
3044.20903	4249.0875
3046.61118	4241.5875
3049.01187	4245.4875
3051.4111	4231.5875
3053.80888	4233.7875
3056.20519	4227.6875
3058.60005	4212.9875
3060.99345	4193.5875
3063.3854	4196.9875
3065.7759	4178.4875
3068.16494	4183.1875
3070.55254	4167.4875
3072.93868	4152.7875
3075.32338	4151.6875
3077.70662	4121.6875
3080.08842	4113.4875
3082.46878	4100.5875
3084.84769	4088.4875
3087.22515	4086.4875
3089.60118	4082.7875
3091.97576	4084.2875
3094.3489	4099.9875
3096.72061	4090.8875
