Data from AgNP_FTO_APTES_UA_10uM_CRN_5uM_R6G_10uM_NaF_0.1M_Addition_RamanShift__30__15-17-20-673.txt Node

Date: Thu Feb 10 15:17:20 GMT 2022
User: TCL
Spectrometer: QEP01345
Trigger mode: 4
Integration Time (sec): 7.000000E0
Scans to average: 10
Electric dark correction enabled: true
Nonlinearity correction enabled: false
Boxcar width: 0
XAxis mode: Raman Shifts
Number of Pixels in Spectrum: 1044
>>>>>Begin Spectral Data<<<<<
46.04893	0.425
50.45542	-0.275
54.85868	-1.475
59.25871	-0.775
63.6555	46.925
68.04907	50.825
72.43941	52.525
76.82654	52.725
81.21044	57.025
85.59113	57.025
89.96862	62.725
94.34289	65.225
98.71396	67.325
103.08183	68.925
107.4465	83.225
111.80798	95.225
116.16626	78.025
120.52136	73.525
124.87327	78.725
129.222	78.525
133.56755	82.325
137.90993	85.825
142.24913	87.425
146.58517	100.825
150.91804	117.325
155.24774	135.725
159.57429	167.725
163.89768	208.325
168.21792	273.825
172.53501	364.925
176.84895	502.125
181.15975	703.125
185.46741	971.125
189.77193	1349.825
194.07331	1796.925
198.37157	2299.525
202.6667	2831.425
206.9587	3383.125
211.24758	3921.325
215.53334	4484.825
219.81599	5125.625
224.09553	5852.625
228.37195	6678.625
232.64527	7532.925
236.91549	8431.625
241.18261	9190.325
245.44663	9836.425
249.70755	10307.625
253.96539	10728.825
258.22014	11082.625
262.4718	11487.025
266.72039	11799.125
270.96589	11986.325
275.20832	12081.625
279.44768	12004.125
283.68397	11876.925
287.91719	11841.825
292.14735	11889.925
296.37445	12124.625
300.59849	12626.425
304.81948	13157.425
309.03742	13542.425
313.25231	13430.825
317.46415	12737.025
321.67296	11640.925
325.87872	10746.125
330.08145	10333.625
334.28114	10284.125
338.47781	10455.525
342.67145	10794.525
346.86207	11302.025
351.04966	12036.725
355.23424	12854.225
359.4158	13487.225
363.59435	13746.825
367.76989	13819.225
371.94243	13753.525
376.11196	13641.825
380.27849	13524.125
384.44203	13384.525
388.60257	13151.425
392.76012	13041.425
396.91468	13206.325
401.06626	13580.025
405.21485	13901.925
409.36047	13597.225
413.50311	12784.925
417.64277	12055.225
421.77947	11682.525
425.9132	11521.625
430.04396	11533.225
434.17176	11567.125
438.2966	11696.425
442.41849	11950.525
446.53742	12279.425
450.6534	12624.825
454.76644	12864.625
458.87653	12893.925
462.98368	12766.225
467.08789	12554.825
471.18916	12263.625
475.2875	11960.125
479.38291	11684.825
483.4754	11489.625
487.56496	11292.925
491.6516	11202.425
495.73531	11138.525
499.81612	11218.425
503.89401	11375.425
507.96899	11525.125
512.04106	11694.225
516.11023	11896.725
520.1765	12002.225
524.23987	11934.225
528.30034	11638.625
532.35792	11338.325
536.41261	11080.925
540.46441	10785.625
544.51333	10681.325
548.55936	10826.625
552.60252	11127.225
556.64279	11501.725
560.6802	11675.325
564.71473	11821.025
568.7464	12357.725
572.7752	12781.925
576.80114	12466.725
580.82422	11996.125
584.84444	11785.725
588.86181	11684.025
592.87633	11618.625
596.888	11729.925
600.89682	12206.625
604.9028	13859.625
608.90594	18243.625
612.90624	24052.225
616.90371	22747.225
620.89834	15253.625
624.89015	11908.825
628.87913	11318.125
632.86528	11390.525
636.84862	11613.425
640.82913	11377.425
644.80683	10793.025
648.78172	10446.725
652.75379	10499.125
656.72306	11065.025
660.68952	11699.025
664.65319	11576.225
668.61405	10880.825
672.57211	10558.225
676.52738	10509.525
680.47986	10509.025
684.42955	10403.725
688.37646	10352.725
692.32058	10414.625
696.26192	10535.625
700.20048	10721.725
704.13626	10871.425
708.06928	10893.625
711.99952	10774.425
715.927	10728.025
719.85171	10716.425
723.77365	10711.425
727.69284	10540.125
731.60928	10400.125
735.52295	10390.325
739.43388	10442.725
743.34206	10511.125
747.24749	10599.625
751.15017	10709.425
755.05012	10994.725
758.94733	11653.825
762.8418	13089.725
766.73354	15601.625
770.62254	18225.525
774.50882	19372.325
778.39237	18263.025
782.27321	15516.425
786.15132	12992.125
790.02671	11545.825
793.89938	10920.925
797.76935	10653.625
801.6366	10526.025
805.50115	10443.025
809.36299	10366.125
813.22213	10302.625
817.07857	10295.525
820.93231	10291.225
824.78336	10316.825
828.63172	10358.325
832.47738	10415.925
836.32036	10402.225
840.16066	10298.325
843.99827	10265.425
847.8332	10238.325
851.66546	10179.625
855.49504	10203.625
859.32195	10191.025
863.1462	10136.525
866.96777	10088.125
870.78668	10049.225
874.60293	10097.325
878.41652	10116.325
882.22745	10204.325
886.03573	10238.925
889.84136	10204.525
893.64433	10125.125
897.44466	10111.725
901.24235	10118.625
905.0374	10110.925
908.8298	10075.025
912.61957	10092.325
916.40671	10183.525
920.19121	10260.125
923.97308	10385.725
927.75233	10525.825
931.52895	10599.125
935.30295	10445.325
939.07433	10117.325
942.84309	9816.125
946.60924	9625.525
950.37278	9569.425
954.13371	9509.725
957.89203	9464.125
961.64774	9428.925
965.40086	9402.825
969.15137	9376.625
972.89929	9361.225
976.64461	9342.625
980.38733	9334.225
984.12747	9367.725
987.86502	9413.525
991.59999	9492.925
995.33237	9611.125
999.06217	9874.425
1002.78939	10200.125
1006.51404	10487.625
1010.23611	10756.025
1013.95561	10962.125
1017.67255	10908.525
1021.38692	10713.425
1025.09872	10526.025
1028.80796	10496.125
1032.51465	10616.125
1036.21877	10818.125
1039.92035	10893.225
1043.61937	10862.925
1047.31584	10777.925
1051.00976	10635.925
1054.70114	10592.725
1058.38998	10606.925
1062.07627	10665.525
1065.76003	10775.525
1069.44126	10835.025
1073.11995	10962.325
1076.79611	11096.325
1080.46974	11257.925
1084.14085	11569.325
1087.80943	11936.125
1091.47549	12102.325
1095.13903	11846.525
1098.80005	11396.325
1102.45857	10981.125
1106.11456	10778.425
1109.76805	10846.325
1113.41903	11097.925
1117.06751	11497.325
1120.71348	11968.125
1124.35696	12500.125
1127.99793	12973.525
1131.63641	12949.425
1135.2724	12334.525
1138.90589	11735.125
1142.5369	11345.725
1146.16542	11100.825
1149.79145	10988.425
1153.415	10995.125
1157.03607	11172.925
1160.65467	11437.225
1164.27079	11896.625
1167.88443	12594.125
1171.49561	13766.325
1175.10432	15673.925
1178.71056	18185.625
1182.31434	20042.125
1185.91565	20419.325
1189.51451	19751.925
1193.11091	18367.725
1196.70485	16713.825
1200.29634	15537.825
1203.88538	14670.225
1207.47197	13726.225
1211.05612	12904.925
1214.63782	12462.125
1218.21708	12312.925
1221.79391	12340.625
1225.36829	12449.725
1228.94024	12544.825
1232.50976	12635.425
1236.07685	12673.125
1239.6415	12672.625
1243.20374	12702.825
1246.76355	12770.825
1250.32093	13007.225
1253.8759	13290.825
1257.42845	13800.825
1260.97859	14274.525
1264.52631	14779.825
1268.07163	15203.925
1271.61453	15637.125
1275.15503	15982.825
1278.69312	16143.625
1282.22882	16279.125
1285.76211	16617.225
1289.29301	17137.025
1292.82151	17624.525
1296.34761	18157.225
1299.87133	19067.425
1303.39266	20648.325
1306.9116	23119.425
1310.42815	26028.225
1313.94233	27899.025
1317.45412	27547.225
1320.96354	25733.425
1324.47058	23632.525
1327.97525	21847.025
1331.47754	20676.925
1334.97747	20264.125
1338.47502	20391.425
1341.97022	20869.125
1345.46305	21527.125
1348.95352	22531.225
1352.44163	23984.225
1355.92738	26264.025
1359.41078	30184.225
1362.89183	34052.725
1366.37053	33108.925
1369.84688	27873.925
1373.32088	22691.225
1376.79254	19449.925
1380.26186	17897.425
1383.72883	17106.925
1387.19347	16515.125
1390.65578	15874.425
1394.11575	15342.125
1397.57339	15117.825
1401.0287	15169.125
1404.48168	15414.325
1407.93234	15738.725
1411.38068	15987.525
1414.82669	16000.725
1418.27039	15686.125
1421.71177	15230.425
1425.15083	14786.725
1428.58758	14538.325
1432.02203	14510.025
1435.45416	14607.725
1438.88399	14706.125
1442.31151	14722.825
1445.73673	14846.325
1449.15965	14905.425
1452.58027	14915.925
1455.9986	14790.625
1459.41463	14769.725
1462.82837	14884.725
1466.23982	15233.025
1469.64898	15610.025
1473.05586	15829.125
1476.46045	16091.225
1479.86276	16417.825
1483.26279	16854.325
1486.66054	17383.525
1490.05602	18025.225
1493.44922	18884.125
1496.84016	20178.525
1500.22882	22149.625
1503.61521	24795.125
1506.99934	27922.825
1510.38121	30886.725
1513.76081	32373.125
1517.13816	31062.325
1520.51324	27422.325
1523.88607	23569.525
1527.25665	20846.225
1530.62498	19191.025
1533.99105	18173.925
1537.35488	17502.725
1540.71647	17073.025
1544.07581	16854.925
1547.4329	16704.725
1550.78776	16569.125
1554.14038	16513.325
1557.49077	16701.225
1560.83892	17057.125
1564.18484	17606.425
1567.52853	18101.525
1570.86999	18443.825
1574.20922	18692.325
1577.54624	18515.625
1580.88103	17558.725
1584.2136	16416.025
1587.54395	15873.825
1590.87208	16228.825
1594.19801	17246.725
1597.52172	18581.225
1600.84321	19034.425
1604.16251	18252.225
1607.47959	16885.525
1610.79447	15514.325
1614.10715	14209.525
1617.41763	13236.225
1620.7259	12564.525
1624.03199	12295.425
1627.33587	12327.625
1630.63757	12688.425
1633.93707	13431.125
1637.23439	14496.925
1640.52951	15970.525
1643.82246	17881.425
1647.11321	20158.425
1650.40179	21906.925
1653.68819	21458.925
1656.97241	18609.125
1660.25446	15348.725
1663.53433	13004.125
1666.81203	11565.625
1670.08756	10764.925
1673.36092	10253.625
1676.63211	9958.825
1679.90115	9732.725
1683.16801	9556.825
1686.43272	9447.925
1689.69527	9403.325
1692.95567	9324.825
1696.2139	9319.425
1699.46999	9316.325
1702.72392	9267.125
1705.97571	9258.425
1709.22535	9217.625
1712.47284	9207.425
1715.71819	9216.925
1718.96139	9200.525
1722.20246	9175.425
1725.44139	9155.725
1728.67818	9057.725
1731.91284	8960.825
1735.14537	8904.525
1738.37576	8874.525
1741.60403	8800.325
1744.83017	8789.625
1748.05418	8756.325
1751.27607	8751.925
1754.49584	8717.925
1757.71349	8742.025
1760.92903	8749.025
1764.14244	8726.025
1767.35375	8722.425
1770.56294	8696.525
1773.77002	8635.925
1776.97499	8624.425
1780.17785	8578.225
1783.37861	8548.025
1786.57727	8550.025
1789.77382	8519.525
1792.96828	8524.425
1796.16064	8506.725
1799.3509	8484.125
1802.53907	8476.225
1805.72514	8435.025
1808.90913	8412.025
1812.09102	8391.925
1815.27083	8373.725
1818.44856	8344.125
1821.6242	8331.125
1824.79776	8327.425
1827.96924	8321.425
1831.13864	8309.325
1834.30597	8288.025
1837.47122	8277.525
1840.6344	8319.825
1843.7955	8298.625
1846.95454	8284.425
1850.11151	8275.625
1853.26642	8290.225
1856.41926	8307.525
1859.57004	8318.525
1862.71876	8292.425
1865.86542	8309.825
1869.01003	8290.725
1872.15258	8311.625
1875.29308	8339.725
1878.43152	8324.225
1881.56792	8341.525
1884.70227	8326.925
1887.83457	8359.125
1890.96482	8348.825
1894.09304	8354.825
1897.21921	8342.025
1900.34335	8360.625
1903.46544	8352.425
1906.58551	8344.425
1909.70353	8359.025
1912.81953	8366.925
1915.93349	8396.125
1919.04543	8375.425
1922.15534	8360.925
1925.26322	8325.625
1928.36908	8311.225
1931.47292	8284.125
1934.57473	8218.025
1937.67453	8188.825
1940.77232	8123.325
1943.86808	8089.125
1946.96184	8041.725
1950.05358	8000.025
1953.14331	7951.125
1956.23103	7906.225
1959.31675	7906.225
1962.40046	7881.925
1965.48217	7856.925
1968.56188	7833.425
1971.63959	7806.925
1974.7153	7795.525
1977.78901	7767.125
1980.86073	7729.925
1983.93046	7682.425
1986.99819	7665.925
1990.06394	7657.625
1993.1277	7618.225
1996.18947	7590.625
1999.24925	7568.325
2002.30706	7549.025
2005.36288	7512.725
2008.41672	7505.925
2011.46859	7481.725
2014.51848	7460.325
2017.56639	7446.925
2020.61233	7414.625
2023.6563	7397.225
2026.6983	7368.225
2029.73833	7350.125
2032.7764	7352.525
2035.8125	7317.725
2038.84664	7318.625
2041.87881	7281.125
2044.90903	7283.025
2047.93729	7270.425
2050.96359	7254.125
2053.98794	7256.525
2057.01034	7238.325
2060.03078	7232.625
2063.04927	7214.025
2066.06582	7193.625
2069.08042	7186.225
2072.09307	7218.625
2075.10378	7183.025
2078.11255	7182.225
2081.11938	7177.025
2084.12426	7165.125
2087.12722	7169.225
2090.12824	7148.225
2093.12732	7145.025
2096.12447	7141.325
2099.11969	7127.525
2102.11299	7136.625
2105.10435	7140.525
2108.09379	7164.325
2111.08131	7152.025
2114.0669	7140.325
2117.05057	7158.125
2120.03233	7158.425
2123.01216	7157.725
2125.99008	7168.425
2128.96609	7180.725
2131.94018	7198.925
2134.91236	7170.425
2137.88263	7194.725
2140.851	7188.225
2143.81746	7182.525
2146.78201	7180.225
2149.74466	7171.425
2152.7054	7157.425
2155.66425	7132.925
2158.6212	7136.125
2161.57625	7143.925
2164.52941	7128.825
2167.48067	7134.225
2170.43004	7122.725
2173.37752	7129.125
2176.32311	7123.525
2179.26681	7134.725
2182.20863	7141.325
2185.14856	7132.625
2188.08661	7122.125
2191.02278	7142.325
2193.95707	7112.125
2196.88948	7092.925
2199.82001	7101.825
2202.74867	7082.825
2205.67545	7073.025
2208.60037	7080.725
2211.52341	7080.625
2214.44458	7051.825
2217.36388	7035.425
2220.28132	7027.625
2223.1969	7012.425
2226.11061	7008.525
2229.02246	6970.025
2231.93245	6966.425
2234.84058	6946.525
2237.74686	6941.025
2240.65128	6923.925
2243.55385	6925.525
2246.45456	6903.225
2249.35343	6906.225
2252.25044	6915.925
2255.14561	6914.225
2258.03893	6928.025
2260.93041	6898.225
2263.82004	6880.125
2266.70783	6858.325
2269.59378	6832.925
2272.4779	6819.325
2275.36017	6803.925
2278.24061	6788.225
2281.11922	6779.525
2283.996	6767.125
2286.87094	6763.525
2289.74405	6729.825
2292.61534	6720.325
2295.4848	6719.325
2298.35243	6701.325
2301.21824	6710.225
2304.08223	6713.225
2306.94439	6696.225
2309.80474	6707.625
2312.66327	6706.825
2315.51999	6693.125
2318.37489	6705.925
2321.22797	6667.725
2324.07925	6682.225
2326.92871	6668.225
2329.77637	6673.125
2332.62222	6669.325
2335.46626	6662.325
2338.3085	6639.625
2341.14893	6650.725
2343.98756	6670.325
2346.8244	6662.825
2349.65943	6669.225
2352.49267	6682.425
2355.32411	6687.525
2358.15376	6701.925
2360.98161	6697.325
2363.80768	6710.125
2366.63195	6704.125
2369.45444	6698.425
2372.27514	6710.825
2375.09405	6672.125
2377.91118	6665.225
2380.72652	6638.125
2383.54009	6612.525
2386.35187	6579.525
2389.16188	6541.525
2391.97011	6514.125
2394.77657	6498.825
2397.58125	6473.125
2400.38416	6482.525
2403.18529	6455.725
2405.98466	6440.725
2408.78226	6441.525
2411.57809	6401.425
2414.37216	6406.325
2417.16446	6402.225
2419.955	6387.725
2422.74378	6375.625
2425.5308	6359.625
2428.31606	6377.225
2431.09956	6370.625
2433.88131	6367.225
2436.6613	6364.125
2439.43954	6359.625
2442.21603	6360.125
2444.99077	6356.925
2447.76377	6365.225
2450.53501	6369.625
2453.30451	6351.325
2456.07226	6367.425
2458.83827	6370.825
2461.60254	6363.725
2464.36507	6334.825
2467.12586	6352.925
2469.88492	6351.325
2472.64224	6354.825
2475.39782	6340.625
2478.15167	6385.725
2480.90379	6358.525
2483.65417	6399.925
2486.40283	6401.625
2489.14976	6426.825
2491.89497	6416.025
2494.63845	6438.125
2497.3802	6409.225
2500.12024	6422.725
2502.85855	6411.225
2505.59514	6385.225
2508.33002	6352.225
2511.06318	6358.625
2513.79462	6313.425
2516.52435	6279.625
2519.25237	6287.225
2521.97867	6276.425
2524.70327	6246.625
2527.42616	6235.425
2530.14734	6232.825
2532.86681	6225.525
2535.58458	6223.425
2538.30065	6221.525
2541.01501	6222.425
2543.72768	6229.925
2546.43864	6220.425
2549.14791	6226.125
2551.85548	6227.225
2554.56136	6217.025
2557.26554	6199.525
2559.96803	6179.325
2562.66883	6173.425
2565.36794	6160.425
2568.06536	6146.525
2570.7611	6125.825
2573.45514	6123.725
2576.14751	6115.125
2578.83819	6101.825
2581.52719	6104.825
2584.21451	6107.725
2586.90015	6101.125
2589.58411	6107.425
2592.2664	6081.525
2594.94701	6096.925
2597.62594	6090.525
2600.30321	6061.025
2602.9788	6073.425
2605.65273	6069.025
2608.32498	6072.125
2610.99557	6082.625
2613.66449	6066.725
2616.33175	6077.125
2618.99734	6053.425
2621.66128	6062.025
2624.32355	6080.425
2626.98416	6037.625
2629.64311	6037.925
2632.30041	6047.825
2634.95605	6018.425
2637.61004	6040.025
2640.26238	6024.725
2642.91306	5997.525
2645.56209	5991.425
2648.20948	5976.225
2650.85521	5958.925
2653.4993	5968.125
2656.14175	5968.625
2658.78255	5981.225
2661.42171	5983.425
2664.05923	6004.825
2666.6951	5998.825
2669.32934	6001.325
2671.96194	6010.725
2674.59291	6036.525
2677.22224	6012.825
2679.84993	6036.325
2682.476	6020.625
2685.10043	6001.825
2687.72324	6020.725
2690.34441	6013.625
2692.96396	6012.625
2695.58188	5992.025
2698.19818	6003.925
2700.81285	6015.225
2703.4259	6014.025
2706.03733	6009.225
2708.64714	6001.225
2711.25533	5999.625
2713.86191	6007.925
2716.46687	6022.925
2719.07021	6023.425
2721.67194	6034.025
2724.27206	6009.625
2726.87057	6021.925
2729.46747	6010.825
2732.06276	6016.925
2734.65644	6014.225
2737.24852	6016.325
2739.83899	6007.025
2742.42786	6004.725
2745.01513	5987.325
2747.60079	5966.825
2750.18486	5957.725
2752.76733	5937.525
2755.3482	5963.525
2757.92747	5940.825
2760.50515	5919.325
2763.08123	5928.125
2765.65573	5909.125
2768.22863	5914.525
2770.79994	5890.925
2773.36967	5899.725
2775.9378	5898.125
2778.50435	5896.325
2781.06932	5910.125
2783.6327	5902.825
2786.1945	5906.425
2788.75471	5890.125
2791.31335	5870.125
2793.87041	5871.125
2796.42589	5858.825
2798.97979	5850.925
2801.53212	5849.925
2804.08288	5853.425
2806.63206	5837.325
2809.17967	5827.825
2811.72571	5839.825
2814.27018	5830.325
2816.81308	5817.725
2819.35442	5817.425
2821.89419	5831.125
2824.43239	5839.625
2826.96904	5831.325
2829.50412	5840.825
2832.03763	5818.625
2834.56959	5843.725
2837.1	5833.425
2839.62884	5870.425
2842.15613	5856.225
2844.68186	5888.225
2847.20604	5903.925
2849.72867	5923.225
2852.24974	5924.725
2854.76927	5905.525
2857.28724	5922.825
2859.80367	5887.525
2862.31855	5899.525
2864.83189	5873.125
2867.34368	5857.025
2869.85393	5878.625
2872.36264	5864.925
2874.8698	5875.625
2877.37543	5856.925
2879.87952	5868.625
2882.38207	5850.225
2884.88308	5832.225
2887.38256	5837.625
2889.88051	5821.425
2892.37692	5828.925
2894.8718	5812.425
2897.36515	5845.525
2899.85698	5853.625
2902.34727	5842.825
2904.83604	5854.125
2907.32328	5859.625
2909.809	5865.425
2912.29319	5856.625
2914.77587	5874.525
2917.25702	5829.725
2919.73665	5825.025
2922.21476	5843.525
2924.69136	5833.325
2927.16644	5836.325
2929.64	5800.625
2932.11205	5807.025
2934.58258	5772.625
2937.05161	5795.625
2939.51912	5770.525
2941.98513	5730.725
2944.44962	5710.225
2946.91261	5686.925
2949.37409	5697.425
2951.83407	5662.225
2954.29254	5628.225
2956.74951	5629.525
2959.20498	5660.625
2961.65895	5643.425
2964.11142	5615.325
2966.56239	5613.925
2969.01186	5595.025
2971.45984	5587.325
2973.90632	5579.925
2976.35131	5547.825
2978.7948	5555.625
2981.23681	5528.125
2983.67732	5510.925
2986.11635	5502.625
2988.55388	5505.025
2990.98993	5489.625
2993.4245	5473.625
2995.85758	5467.525
2998.28917	5443.825
3000.71928	5429.525
3003.14791	5431.525
3005.57506	5424.625
3008.00073	5413.625
3010.42493	5288.825
3012.84764	5378.825
3015.26888	5379.325
3017.68865	5359.325
3020.10694	5361.125
3022.52376	5343.325
3024.9391	5328.825
3027.35298	5325.425
3029.76539	5311.025
3032.17632	5323.925
3034.5858	5308.625
3036.9938	5314.225
3039.40034	5296.425
3041.80542	5305.025
3044.20903	5278.025
3046.61118	5271.325
3049.01187	5245.625
3051.4111	5246.425
3053.80888	5231.225
3056.20519	5246.025
3058.60005	5207.525
3060.99345	5205.325
3063.3854	5184.925
3065.7759	5163.025
3068.16494	5174.225
3070.55254	5147.525
3072.93868	5138.225
3075.32338	5101.125
3077.70662	5092.225
3080.08842	5084.925
3082.46878	5068.325
3084.84769	5068.725
3087.22515	5068.125
3089.60118	5059.225
3091.97576	5068.825
3094.3489	5059.425
3096.72061	5042.825
3099.09087	5060.525
3101.4597	5049.025
3103.82709	5030.825
3106.19305	5040.625
3108.55757	5013.725
3110.92066	5026.225
3113.28232	5003.725
3115.64255	4999.425
3118.00134	4997.125
3120.35871	4996.725
3122.71466	4969.725
3125.06917	4962.125
3127.42226	4964.725
3129.77393	4979.825
3132.12417	4958.225
3134.47299	4962.125
3136.82039	4950.025
3139.16636	4961.925
3141.51092	4973.825
3143.85406	4954.925
3146.19579	4952.725
3148.53609	4954.625
3150.87499	4954.125
3153.21246	4970.525
3155.54853	4975.925
3157.88318	4984.825
3160.21642	4972.125
3162.54826	4987.725
3164.87868	4986.425
3167.2077	4982.525
3169.5353	4986.525
3171.86151	4995.625
3174.18631	4974.725
3176.5097	4960.825
3178.83169	4961.725
3181.15228	4965.425
3183.47147	4962.725
3185.78926	4969.625
3188.10565	4960.325
3190.42065	4961.825
3192.73424	4949.625
