Data from AgNP_FTO_APTES_UA_10uM_CRN_5uM_R6G_10uM_NaF_0.1M_Addition_RamanShift__10__14-54-00-645.txt Node

Date: Thu Feb 10 14:54:00 GMT 2022
User: TCL
Spectrometer: QEP01345
Trigger mode: 4
Integration Time (sec): 7.000000E0
Scans to average: 10
Electric dark correction enabled: true
Nonlinearity correction enabled: false
Boxcar width: 0
XAxis mode: Raman Shifts
Number of Pixels in Spectrum: 1044
>>>>>Begin Spectral Data<<<<<
46.04893	1.425
50.45542	-0.075
54.85868	-2.375
59.25871	-1.075
63.6555	75.025
68.04907	78.025
72.43941	79.925
76.82654	79.325
81.21044	88.125
85.59113	86.225
89.96862	92.625
94.34289	96.525
98.71396	95.425
103.08183	103.025
107.4465	106.225
111.80798	106.125
116.16626	110.025
120.52136	117.825
124.87327	120.925
129.222	126.825
133.56755	135.925
137.90993	143.225
142.24913	155.325
146.58517	176.325
150.91804	209.525
155.24774	253.025
159.57429	313.125
163.89768	402.825
168.21792	536.125
172.53501	722.125
176.84895	1013.125
181.15975	1422.325
185.46741	1994.425
189.77193	2757.025
194.07331	3672.925
198.37157	4737.725
202.6667	5866.025
206.9587	6971.125
211.24758	8052.725
215.53334	9129.025
219.81599	10272.225
224.09553	11517.025
228.37195	12880.425
232.64527	14418.025
236.91549	16037.225
241.18261	17670.825
245.44663	19145.225
249.70755	20449.725
253.96539	21649.825
258.22014	22652.025
262.4718	23423.525
266.72039	23990.925
270.96589	24271.825
275.20832	24329.425
279.44768	24203.425
283.68397	24070.125
287.91719	23848.025
292.14735	23708.625
296.37445	23718.825
300.59849	23808.725
304.81948	23909.825
309.03742	23946.025
313.25231	23822.025
317.46415	23412.325
321.67296	22936.425
325.87872	22514.025
330.08145	22295.425
334.28114	22293.125
338.47781	22412.125
342.67145	22730.825
346.86207	23061.625
351.04966	23460.325
355.23424	23803.425
359.4158	24101.225
363.59435	24299.825
367.76989	24484.225
371.94243	24628.125
376.11196	24668.125
380.27849	24710.525
384.44203	24824.925
388.60257	24987.225
392.76012	25357.625
396.91468	25689.025
401.06626	26086.925
405.21485	26325.925
409.36047	26202.625
413.50311	25974.725
417.64277	25855.525
421.77947	26022.425
425.9132	26235.525
430.04396	26423.525
434.17176	26460.025
438.2966	26527.825
442.41849	26799.625
446.53742	27383.725
450.6534	28082.425
454.76644	28497.425
458.87653	28697.125
462.98368	28566.325
467.08789	28339.225
471.18916	27912.525
475.2875	27576.225
479.38291	27313.525
483.4754	27123.125
487.56496	26857.925
491.6516	26476.625
495.73531	26106.925
499.81612	25926.025
503.89401	26045.125
507.96899	26188.225
512.04106	26284.225
516.11023	26191.425
520.1765	25900.325
524.23987	25593.225
528.30034	25334.225
532.35792	25058.225
536.41261	24785.925
540.46441	24535.725
544.51333	24610.825
548.55936	24839.925
552.60252	25363.525
556.64279	25924.825
560.6802	26398.525
564.71473	26696.225
568.7464	27206.725
572.7752	28154.725
576.80114	29351.625
580.82422	30519.625
584.84444	31765.125
588.86181	33225.725
592.87633	34359.925
596.888	33958.025
600.89682	32117.725
604.9028	31186.925
608.90594	32163.925
612.90624	33404.025
616.90371	31217.225
620.89834	27252.525
624.89015	25595.825
628.87913	25566.225
632.86528	25771.125
636.84862	25747.725
640.82913	25292.625
644.80683	24644.725
648.78172	24266.025
652.75379	24269.825
656.72306	24467.825
660.68952	24783.525
664.65319	24676.625
668.61405	24345.425
672.57211	24295.725
676.52738	24399.625
680.47986	24388.225
684.42955	24221.925
688.37646	24112.525
692.32058	24317.525
696.26192	24597.625
700.20048	25007.325
704.13626	25209.425
708.06928	25293.925
711.99952	25223.525
715.927	25154.925
719.85171	25136.725
723.77365	24995.825
727.69284	24570.025
731.60928	24207.325
735.52295	24021.525
739.43388	24003.525
743.34206	24089.225
747.24749	24248.425
751.15017	24505.025
755.05012	25018.825
758.94733	25745.625
762.8418	26886.025
766.73354	28535.125
770.62254	29879.525
774.50882	29873.225
778.39237	28628.625
782.27321	26990.925
786.15132	25646.125
790.02671	24845.925
793.89938	24368.925
797.76935	24163.825
801.6366	24102.425
805.50115	24045.525
809.36299	23934.025
813.22213	23718.825
817.07857	23642.325
820.93231	23589.225
824.78336	23455.925
828.63172	23349.625
832.47738	23245.325
836.32036	23209.625
840.16066	23184.725
843.99827	23234.625
847.8332	23235.125
851.66546	23274.825
855.49504	23336.825
859.32195	23354.325
863.1462	23303.425
866.96777	23196.925
870.78668	23176.825
874.60293	23211.825
878.41652	23229.825
882.22745	23268.625
886.03573	23327.625
889.84136	23308.725
893.64433	23225.725
897.44466	23165.225
901.24235	23117.225
905.0374	23111.525
908.8298	23050.325
912.61957	23102.425
916.40671	23326.225
920.19121	23702.625
923.97308	23954.725
927.75233	23907.225
931.52895	23578.725
935.30295	23208.225
939.07433	22874.025
942.84309	22517.625
946.60924	22360.825
950.37278	22368.925
954.13371	22356.625
957.89203	22356.725
961.64774	22364.525
965.40086	22379.725
969.15137	22355.525
972.89929	22217.425
976.64461	22169.425
980.38733	22104.225
984.12747	22141.225
987.86502	22239.025
991.59999	22375.125
995.33237	22541.925
999.06217	22862.125
1002.78939	23299.325
1006.51404	23731.725
1010.23611	24214.425
1013.95561	24528.025
1017.67255	24555.625
1021.38692	24363.425
1025.09872	23959.425
1028.80796	23607.825
1032.51465	23555.525
1036.21877	23585.825
1039.92035	23705.025
1043.61937	23743.925
1047.31584	23801.525
1051.00976	23723.925
1054.70114	23847.625
1058.38998	24026.925
1062.07627	24345.125
1065.76003	24657.625
1069.44126	24988.925
1073.11995	25433.925
1076.79611	25800.525
1080.46974	25937.025
1084.14085	26139.125
1087.80943	26366.525
1091.47549	26613.525
1095.13903	26679.025
1098.80005	26378.825
1102.45857	25732.725
1106.11456	25218.625
1109.76805	24962.325
1113.41903	24898.725
1117.06751	24949.525
1120.71348	25115.025
1124.35696	25377.925
1127.99793	25638.225
1131.63641	25892.925
1135.2724	25844.825
1138.90589	25831.025
1142.5369	25954.025
1146.16542	26171.825
1149.79145	26397.625
1153.415	26677.725
1157.03607	27059.525
1160.65467	27796.025
1164.27079	29061.625
1167.88443	30531.725
1171.49561	32069.725
1175.10432	33768.425
1178.71056	36041.925
1182.31434	38128.625
1185.91565	39336.925
1189.51451	39383.625
1193.11091	38769.925
1196.70485	37654.225
1200.29634	36480.625
1203.88538	35499.825
1207.47197	35170.725
1211.05612	35024.125
1214.63782	34447.125
1218.21708	33461.725
1221.79391	32314.025
1225.36829	31436.325
1228.94024	31000.625
1232.50976	30662.325
1236.07685	30272.425
1239.6415	30008.425
1243.20374	29925.125
1246.76355	30120.625
1250.32093	30539.425
1253.8759	31142.325
1257.42845	31974.125
1260.97859	32867.125
1264.52631	33900.725
1268.07163	34922.325
1271.61453	35890.325
1275.15503	36821.525
1278.69312	37773.225
1282.22882	38857.525
1285.76211	40113.825
1289.29301	41611.525
1292.82151	43517.925
1296.34761	45750.525
1299.87133	48355.325
1303.39266	51038.025
1306.9116	53309.425
1310.42815	54893.325
1313.94233	55511.125
1317.45412	55028.225
1320.96354	54069.725
1324.47058	53647.425
1327.97525	53451.925
1331.47754	53519.625
1334.97747	53567.925
1338.47502	53440.025
1341.97022	53211.525
1345.46305	52737.325
1348.95352	52112.325
1352.44163	51433.125
1355.92738	51481.725
1359.41078	52289.625
1362.89183	53022.825
1366.37053	51896.825
1369.84688	48382.925
1373.32088	43909.325
1376.79254	40810.925
1380.26186	39720.625
1383.72883	39924.425
1387.19347	40145.425
1390.65578	39980.825
1394.11575	39905.425
1397.57339	40297.825
1401.0287	40925.125
1404.48168	41318.525
1407.93234	41257.025
1411.38068	40381.825
1414.82669	38966.425
1418.27039	37309.125
1421.71177	35778.925
1425.15083	34605.425
1428.58758	34190.925
1432.02203	34644.125
1435.45416	35740.525
1438.88399	36958.725
1442.31151	37737.125
1445.73673	38106.425
1449.15965	38311.425
1452.58027	38332.325
1455.9986	38362.625
1459.41463	38720.725
1462.82837	39326.025
1466.23982	39940.725
1469.64898	40421.225
1473.05586	40568.125
1476.46045	40450.225
1479.86276	40013.225
1483.26279	39527.725
1486.66054	39356.925
1490.05602	39415.125
1493.44922	39829.325
1496.84016	40340.725
1500.22882	41134.525
1503.61521	42131.825
1506.99934	43162.025
1510.38121	43885.325
1513.76081	43855.525
1517.13816	43206.225
1520.51324	42463.625
1523.88607	42105.825
1527.25665	42243.625
1530.62498	42478.425
1533.99105	42390.225
1537.35488	41746.225
1540.71647	40755.425
1544.07581	39464.825
1547.4329	38202.425
1550.78776	37188.025
1554.14038	36488.625
1557.49077	36007.125
1560.83892	35765.025
1564.18484	35597.025
1567.52853	35576.625
1570.86999	35805.225
1574.20922	36564.825
1577.54624	37238.125
1580.88103	37576.625
1584.2136	38135.125
1587.54395	39317.425
1590.87208	41243.325
1594.19801	43624.825
1597.52172	45734.225
1600.84321	45956.625
1604.16251	43919.525
1607.47959	40604.925
1610.79447	37102.725
1614.10715	33968.025
1617.41763	31394.125
1620.7259	29583.725
1624.03199	28692.525
1627.33587	28708.325
1630.63757	29586.325
1633.93707	31675.825
1637.23439	35156.525
1640.52951	40189.425
1643.82246	45831.625
1647.11321	50039.225
1650.40179	50221.725
1653.68819	45857.525
1656.97241	39466.525
1660.25446	33468.725
1663.53433	29210.925
1666.81203	26382.425
1670.08756	24630.825
1673.36092	23590.725
1676.63211	22902.925
1679.90115	22352.725
1683.16801	21953.225
1686.43272	21668.225
1689.69527	21488.525
1692.95567	21290.825
1696.2139	21213.125
1699.46999	21117.525
1702.72392	21002.525
1705.97571	20923.125
1709.22535	20895.825
1712.47284	20801.225
1715.71819	20775.025
1718.96139	20729.525
1722.20246	20623.025
1725.44139	20518.425
1728.67818	20401.725
1731.91284	20255.025
1735.14537	20150.425
1738.37576	20051.425
1741.60403	19991.425
1744.83017	19887.925
1748.05418	19825.025
1751.27607	19776.625
1754.49584	19779.225
1757.71349	19769.025
1760.92903	19769.625
1764.14244	19729.225
1767.35375	19714.325
1770.56294	19666.325
1773.77002	19624.625
1776.97499	19560.625
1780.17785	19506.525
1783.37861	19422.625
1786.57727	19435.425
1789.77382	19359.825
1792.96828	19302.325
1796.16064	19234.925
1799.3509	19250.025
1802.53907	19203.825
1805.72514	19146.925
1808.90913	19097.325
1812.09102	19082.125
1815.27083	19029.425
1818.44856	19008.625
1821.6242	18968.525
1824.79776	18923.225
1827.96924	18914.225
1831.13864	18938.725
1834.30597	18938.325
1837.47122	18901.325
1840.6344	18910.925
1843.7955	18924.825
1846.95454	18913.825
1850.11151	18906.725
1853.26642	18873.325
1856.41926	18855.125
1859.57004	18891.825
1862.71876	18775.125
1865.86542	18765.925
1869.01003	18727.225
1872.15258	18720.025
1875.29308	18712.325
1878.43152	18636.725
1881.56792	18617.425
1884.70227	18617.325
1887.83457	18590.625
1890.96482	18591.725
1894.09304	18533.025
1897.21921	18488.025
1900.34335	18469.925
1903.46544	18417.525
1906.58551	18405.225
1909.70353	18346.625
1912.81953	18334.225
1915.93349	18310.325
1919.04543	18271.925
1922.15534	18228.925
1925.26322	18179.825
1928.36908	18175.825
1931.47292	18111.425
1934.57473	18082.125
1937.67453	18034.525
1940.77232	18012.725
1943.86808	17913.125
1946.96184	17866.025
1950.05358	17832.925
1953.14331	17769.625
1956.23103	17713.525
1959.31675	17680.325
1962.40046	17590.425
1965.48217	17577.725
1968.56188	17465.825
1971.63959	17423.925
1974.7153	17422.825
1977.78901	17353.425
1980.86073	17256.025
1983.93046	17209.525
1986.99819	17194.525
1990.06394	17146.025
1993.1277	17087.225
1996.18947	17042.325
1999.24925	16964.225
2002.30706	16921.825
2005.36288	16861.125
2008.41672	16814.025
2011.46859	16770.625
2014.51848	16750.325
2017.56639	16712.125
2020.61233	16629.725
2023.6563	16605.625
2026.6983	16589.825
2029.73833	16510.825
2032.7764	16473.925
2035.8125	16457.825
2038.84664	16386.425
2041.87881	16383.025
2044.90903	16329.225
2047.93729	16334.025
2050.96359	16335.825
2053.98794	16287.825
2057.01034	16240.825
2060.03078	16252.725
2063.04927	16207.625
2066.06582	16203.525
2069.08042	16207.225
2072.09307	16201.225
2075.10378	16171.425
2078.11255	16133.725
2081.11938	16137.325
2084.12426	16135.325
2087.12722	16134.325
2090.12824	16106.125
2093.12732	16139.825
2096.12447	16119.125
2099.11969	16107.725
2102.11299	16110.225
2105.10435	16106.225
2108.09379	16095.025
2111.08131	16125.125
2114.0669	16116.925
2117.05057	16128.525
2120.03233	16119.825
2123.01216	16181.425
2125.99008	16152.425
2128.96609	16178.425
2131.94018	16196.125
2134.91236	16193.225
2137.88263	16187.925
2140.851	16168.725
2143.81746	16176.125
2146.78201	16186.325
2149.74466	16212.225
2152.7054	16176.725
2155.66425	16181.425
2158.6212	16181.625
2161.57625	16169.525
2164.52941	16151.725
2167.48067	16146.925
2170.43004	16143.625
2173.37752	16087.425
2176.32311	16101.125
2179.26681	16082.025
2182.20863	16121.925
2185.14856	16116.525
2188.08661	16086.325
2191.02278	16137.925
2193.95707	16086.325
2196.88948	16059.525
2199.82001	16062.325
2202.74867	15993.625
2205.67545	15971.125
2208.60037	15935.025
2211.52341	15939.525
2214.44458	15915.025
2217.36388	15901.925
2220.28132	15863.325
2223.1969	15861.925
2226.11061	15824.425
2229.02246	15771.525
2231.93245	15762.925
2234.84058	15750.825
2237.74686	15722.525
2240.65128	15716.025
2243.55385	15695.125
2246.45456	15655.125
2249.35343	15633.325
2252.25044	15589.025
2255.14561	15577.825
2258.03893	15551.125
2260.93041	15470.325
2263.82004	15435.525
2266.70783	15382.025
2269.59378	15319.525
2272.4779	15307.625
2275.36017	15266.025
2278.24061	15237.225
2281.11922	15210.625
2283.996	15205.225
2286.87094	15219.025
2289.74405	15163.625
2292.61534	15133.125
2295.4848	15136.425
2298.35243	15156.525
2301.21824	15136.625
2304.08223	15133.925
2306.94439	15109.825
2309.80474	15092.125
2312.66327	15081.725
2315.51999	15021.025
2318.37489	15056.025
2321.22797	15024.625
2324.07925	14989.325
2326.92871	14970.425
2329.77637	14987.925
2332.62222	14974.325
2335.46626	14942.025
2338.3085	14905.325
2341.14893	14959.825
2343.98756	14909.125
2346.8244	14920.325
2349.65943	14883.025
2352.49267	14894.125
2355.32411	14896.525
2358.15376	14871.925
2360.98161	14887.925
2363.80768	14864.325
2366.63195	14891.625
2369.45444	14835.525
2372.27514	14822.125
2375.09405	14797.625
2377.91118	14788.725
2380.72652	14754.925
2383.54009	14725.125
2386.35187	14696.925
2389.16188	14630.925
2391.97011	14609.225
2394.77657	14576.325
2397.58125	14578.825
2400.38416	14555.125
2403.18529	14508.025
2405.98466	14529.325
2408.78226	14506.625
2411.57809	14487.625
2414.37216	14484.525
2417.16446	14466.625
2419.955	14429.125
2422.74378	14436.525
2425.5308	14417.225
2428.31606	14427.125
2431.09956	14402.125
2433.88131	14374.725
2436.6613	14369.225
2439.43954	14373.425
2442.21603	14391.225
2444.99077	14340.825
2447.76377	14351.625
2450.53501	14312.025
2453.30451	14321.125
2456.07226	14321.725
2458.83827	14324.325
2461.60254	14347.725
2464.36507	14301.825
2467.12586	14262.925
2469.88492	14272.425
2472.64224	14267.925
2475.39782	14271.925
2478.15167	14315.425
2480.90379	14287.925
2483.65417	14342.825
2486.40283	14294.525
2489.14976	14289.825
2491.89497	14287.325
2494.63845	14295.225
2497.3802	14293.025
2500.12024	14265.125
2502.85855	14233.125
2505.59514	14224.125
2508.33002	14254.525
2511.06318	14225.625
2513.79462	14215.025
2516.52435	14201.225
2519.25237	14233.725
2521.97867	14206.525
2524.70327	14219.225
2527.42616	14183.725
2530.14734	14167.525
2532.86681	14152.425
2535.58458	14148.825
2538.30065	14129.125
2541.01501	14088.525
2543.72768	14099.325
2546.43864	14095.725
2549.14791	14103.425
2551.85548	14081.025
2554.56136	14065.325
2557.26554	14023.125
2559.96803	14024.025
2562.66883	13992.025
2565.36794	13994.925
2568.06536	13967.025
2570.7611	13954.325
2573.45514	13919.825
2576.14751	13912.225
2578.83819	13882.625
2581.52719	13888.425
2584.21451	13882.225
2586.90015	13860.525
2589.58411	13863.025
2592.2664	13843.125
2594.94701	13849.525
2597.62594	13840.525
2600.30321	13793.125
2602.9788	13783.125
2605.65273	13782.425
2608.32498	13810.125
2610.99557	13807.325
2613.66449	13806.825
2616.33175	13795.925
2618.99734	13788.325
2621.66128	13752.525
2624.32355	13735.225
2626.98416	13712.125
2629.64311	13735.925
2632.30041	13705.525
2634.95605	13692.025
2637.61004	13662.025
2640.26238	13658.525
2642.91306	13641.925
2645.56209	13716.025
2648.20948	13698.825
2650.85521	13712.525
2653.4993	13702.825
2656.14175	13713.025
2658.78255	13688.425
2661.42171	13737.625
2664.05923	13739.425
2666.6951	13763.625
2669.32934	13749.425
2671.96194	13737.225
2674.59291	13750.125
2677.22224	13734.925
2679.84993	13752.625
2682.476	13756.525
2685.10043	13724.325
2687.72324	13712.825
2690.34441	13743.825
2692.96396	13750.025
2695.58188	13732.725
2698.19818	13716.825
2700.81285	13722.425
2703.4259	13724.025
2706.03733	13769.025
2708.64714	13750.225
2711.25533	13766.525
2713.86191	13711.025
2716.46687	13736.825
2719.07021	13744.625
2721.67194	13798.025
2724.27206	13766.125
2726.87057	13807.525
2729.46747	13812.625
2732.06276	13826.225
2734.65644	13794.425
2737.24852	13821.325
2739.83899	13796.825
2742.42786	13817.925
2745.01513	13752.425
2747.60079	13748.925
2750.18486	13772.225
2752.76733	13745.325
2755.3482	13730.125
2757.92747	13739.325
2760.50515	13707.925
2763.08123	13711.225
2765.65573	13688.225
2768.22863	13696.525
2770.79994	13680.925
2773.36967	13684.625
2775.9378	13657.925
2778.50435	13668.125
2781.06932	13647.425
2783.6327	13624.225
2786.1945	13684.325
2788.75471	13623.225
2791.31335	13619.225
2793.87041	13577.825
2796.42589	13576.525
2798.97979	13583.425
2801.53212	13532.125
2804.08288	13528.025
2806.63206	13480.225
2809.17967	13482.925
2811.72571	13446.525
2814.27018	13434.725
2816.81308	13383.525
2819.35442	13340.325
2821.89419	13297.725
2824.43239	13286.425
2826.96904	13273.825
2829.50412	13248.925
2832.03763	13251.725
2834.56959	13244.625
2837.1	13214.825
2839.62884	13241.425
2842.15613	13234.925
2844.68186	13251.825
2847.20604	13221.825
2849.72867	13260.425
2852.24974	13233.725
2854.76927	13184.725
2857.28724	13167.925
2859.80367	13162.525
2862.31855	13153.725
2864.83189	13130.225
2867.34368	13100.125
2869.85393	13094.625
2872.36264	13088.825
2874.8698	13096.125
2877.37543	13067.325
2879.87952	13046.625
2882.38207	13065.425
2884.88308	13059.225
2887.38256	13052.025
2889.88051	13055.625
2892.37692	13041.525
2894.8718	13061.425
2897.36515	13073.525
2899.85698	13110.425
2902.34727	13108.825
2904.83604	13081.625
2907.32328	13156.725
2909.809	13142.425
2912.29319	13131.425
2914.77587	13075.025
2917.25702	13097.125
2919.73665	13094.325
2922.21476	13111.425
2924.69136	13080.025
2927.16644	13073.925
2929.64	13059.625
2932.11205	13033.325
2934.58258	13026.725
2937.05161	13025.625
2939.51912	13034.625
2941.98513	13005.425
2944.44962	12984.925
2946.91261	12948.925
2949.37409	12953.125
2951.83407	12947.225
2954.29254	12907.025
2956.74951	12902.725
2959.20498	12906.625
2961.65895	12895.225
2964.11142	12887.825
2966.56239	12871.125
2969.01186	12874.925
2971.45984	12847.225
2973.90632	12863.225
2976.35131	12822.425
2978.7948	12785.125
2981.23681	12703.725
2983.67732	12715.425
2986.11635	12658.725
2988.55388	12625.325
2990.98993	12620.525
2993.4245	12611.325
2995.85758	12561.125
2998.28917	12532.025
3000.71928	12519.925
3003.14791	12472.425
3005.57506	12458.825
3008.00073	12440.225
3010.42493	12254.725
3012.84764	12344.125
3015.26888	12301.225
3017.68865	12293.225
3020.10694	12262.625
3022.52376	12242.425
3024.9391	12231.925
3027.35298	12233.825
3029.76539	12214.625
3032.17632	12229.425
3034.5858	12208.525
3036.9938	12220.725
3039.40034	12188.825
3041.80542	12195.225
3044.20903	12160.725
3046.61118	12145.025
3049.01187	12107.925
3051.4111	12105.825
3053.80888	12066.225
3056.20519	12079.925
3058.60005	12021.225
3060.99345	12002.025
3063.3854	11952.525
3065.7759	11894.625
3068.16494	11896.925
3070.55254	11833.025
3072.93868	11799.825
3075.32338	11789.325
3077.70662	11745.825
3080.08842	11720.125
3082.46878	11697.025
3084.84769	11655.625
3087.22515	11654.725
3089.60118	11661.625
3091.97576	11654.725
3094.3489	11628.525
3096.72061	11633.225
3099.09087	11645.325
3101.4597	11615.825
3103.82709	11623.625
3106.19305	11606.225
3108.55757	11596.625
3110.92066	11540.625
3113.28232	11528.725
3115.64255	11500.725
3118.00134	11466.325
3120.35871	11445.625
3122.71466	11411.525
3125.06917	11392.225
3127.42226	11377.125
