Data from AgNP_FTO_APTES_UA_10uM_CRN_5uM_R6G_10uM_NaF_0.1M_Addition_RamanShift__9__14-52-50-643.txt Node

Date: Thu Feb 10 14:52:50 GMT 2022
User: TCL
Spectrometer: QEP01345
Trigger mode: 4
Integration Time (sec): 7.000000E0
Scans to average: 10
Electric dark correction enabled: true
Nonlinearity correction enabled: false
Boxcar width: 0
XAxis mode: Raman Shifts
Number of Pixels in Spectrum: 1044
>>>>>Begin Spectral Data<<<<<
46.04893	0.0125
50.45542	-0.3875
54.85868	-1.3875
59.25871	-1.0875
63.6555	77.0125
68.04907	75.5125
72.43941	83.6125
76.82654	83.9125
81.21044	90.6125
85.59113	88.0125
89.96862	90.3125
94.34289	99.7125
98.71396	94.7125
103.08183	102.8125
107.4465	110.5125
111.80798	105.0125
116.16626	113.7125
120.52136	115.9125
124.87327	123.4125
129.222	129.7125
133.56755	137.0125
137.90993	144.0125
142.24913	158.2125
146.58517	178.8125
150.91804	216.0125
155.24774	253.7125
159.57429	317.4125
163.89768	404.9125
168.21792	539.3125
172.53501	733.0125
176.84895	1024.1125
181.15975	1432.0125
185.46741	2017.2125
189.77193	2767.3125
194.07331	3704.9125
198.37157	4772.6125
202.6667	5899.4125
206.9587	6985.7125
211.24758	8087.6125
215.53334	9183.1125
219.81599	10330.7125
224.09553	11565.7125
228.37195	12982.8125
232.64527	14526.3125
236.91549	16144.4125
241.18261	17735.2125
245.44663	19231.4125
249.70755	20554.6125
253.96539	21751.8125
258.22014	22727.8125
262.4718	23541.1125
266.72039	24077.3125
270.96589	24379.8125
275.20832	24432.5125
279.44768	24270.1125
283.68397	24117.2125
287.91719	23901.4125
292.14735	23812.9125
296.37445	23829.0125
300.59849	23871.5125
304.81948	23991.8125
309.03742	24047.3125
313.25231	23912.0125
317.46415	23523.6125
321.67296	23067.0125
325.87872	22615.6125
330.08145	22457.0125
334.28114	22388.0125
338.47781	22502.0125
342.67145	22804.9125
346.86207	23149.7125
351.04966	23561.6125
355.23424	23935.1125
359.4158	24248.9125
363.59435	24485.0125
367.76989	24674.7125
371.94243	24792.2125
376.11196	24875.2125
380.27849	24906.9125
384.44203	25034.1125
388.60257	25211.2125
392.76012	25530.2125
396.91468	25871.0125
401.06626	26298.4125
405.21485	26551.6125
409.36047	26403.4125
413.50311	26173.0125
417.64277	26090.9125
421.77947	26262.0125
425.9132	26449.8125
430.04396	26641.6125
434.17176	26713.1125
438.2966	26762.8125
442.41849	27054.5125
446.53742	27657.3125
450.6534	28368.9125
454.76644	28868.1125
458.87653	29019.9125
462.98368	28887.8125
467.08789	28590.4125
471.18916	28155.4125
475.2875	27720.9125
479.38291	27400.1125
483.4754	27207.5125
487.56496	26916.1125
491.6516	26564.2125
495.73531	26169.0125
499.81612	26002.7125
503.89401	26146.7125
507.96899	26395.1125
512.04106	26400.6125
516.11023	26261.1125
520.1765	25998.5125
524.23987	25690.5125
528.30034	25369.6125
532.35792	25132.2125
536.41261	24828.3125
540.46441	24581.0125
544.51333	24602.9125
548.55936	24852.4125
552.60252	25332.6125
556.64279	25981.9125
560.6802	26487.0125
564.71473	26764.4125
568.7464	27275.1125
572.7752	28248.3125
576.80114	29472.7125
580.82422	30658.5125
584.84444	31985.6125
588.86181	33663.4125
592.87633	34923.1125
596.888	34405.3125
600.89682	32381.0125
604.9028	31346.8125
608.90594	32451.6125
612.90624	33717.4125
616.90371	31429.6125
620.89834	27287.3125
624.89015	25576.6125
628.87913	25519.9125
632.86528	25714.5125
636.84862	25670.1125
640.82913	25199.4125
644.80683	24543.6125
648.78172	24182.7125
652.75379	24174.3125
656.72306	24457.9125
660.68952	24757.5125
664.65319	24613.3125
668.61405	24236.0125
672.57211	24239.0125
676.52738	24343.9125
680.47986	24293.3125
684.42955	24118.7125
688.37646	24025.6125
692.32058	24174.1125
696.26192	24612.1125
700.20048	24963.4125
704.13626	25194.9125
708.06928	25204.2125
711.99952	25106.5125
715.927	25061.2125
719.85171	25122.0125
723.77365	24931.1125
727.69284	24510.4125
731.60928	24125.8125
735.52295	23955.7125
739.43388	23942.0125
743.34206	24019.6125
747.24749	24182.8125
751.15017	24491.2125
755.05012	24963.5125
758.94733	25728.6125
762.8418	26884.6125
766.73354	28568.1125
770.62254	29979.1125
774.50882	29958.7125
778.39237	28648.5125
782.27321	26947.9125
786.15132	25617.8125
790.02671	24767.7125
793.89938	24342.8125
797.76935	24119.1125
801.6366	24106.7125
805.50115	24006.6125
809.36299	23877.2125
813.22213	23695.0125
817.07857	23583.4125
820.93231	23490.4125
824.78336	23369.7125
828.63172	23263.7125
832.47738	23126.4125
836.32036	23097.7125
840.16066	23141.2125
843.99827	23114.1125
847.8332	23143.0125
851.66546	23177.6125
855.49504	23258.3125
859.32195	23297.4125
863.1462	23176.1125
866.96777	23134.6125
870.78668	23084.2125
874.60293	23108.0125
878.41652	23119.8125
882.22745	23180.2125
886.03573	23205.1125
889.84136	23210.6125
893.64433	23167.6125
897.44466	23058.8125
901.24235	23008.0125
905.0374	22916.5125
908.8298	22931.0125
912.61957	22974.4125
916.40671	23220.1125
920.19121	23553.6125
923.97308	23844.2125
927.75233	23813.8125
931.52895	23494.0125
935.30295	23100.2125
939.07433	22724.4125
942.84309	22389.5125
946.60924	22259.3125
950.37278	22242.1125
954.13371	22242.8125
957.89203	22242.2125
961.64774	22244.1125
965.40086	22236.9125
969.15137	22221.0125
972.89929	22171.1125
976.64461	22057.5125
980.38733	22058.3125
984.12747	22089.2125
987.86502	22181.8125
991.59999	22276.0125
995.33237	22485.1125
999.06217	22846.1125
1002.78939	23285.2125
1006.51404	23810.9125
1010.23611	24324.6125
1013.95561	24634.7125
1017.67255	24679.4125
1021.38692	24385.4125
1025.09872	23960.4125
1028.80796	23617.2125
1032.51465	23552.8125
1036.21877	23684.3125
1039.92035	23780.8125
1043.61937	23859.9125
1047.31584	23818.4125
1051.00976	23745.7125
1054.70114	23819.9125
1058.38998	23978.9125
1062.07627	24238.4125
1065.76003	24604.1125
1069.44126	24943.1125
1073.11995	25370.1125
1076.79611	25732.6125
1080.46974	25962.9125
1084.14085	26098.7125
1087.80943	26377.6125
1091.47549	26613.2125
1095.13903	26673.6125
1098.80005	26305.7125
1102.45857	25713.6125
1106.11456	25190.0125
1109.76805	24906.4125
1113.41903	24837.4125
1117.06751	24947.7125
1120.71348	25129.2125
1124.35696	25356.1125
1127.99793	25618.6125
1131.63641	25845.6125
1135.2724	25828.4125
1138.90589	25862.2125
1142.5369	25955.7125
1146.16542	26187.8125
1149.79145	26476.4125
1153.415	26734.0125
1157.03607	27127.5125
1160.65467	27912.3125
1164.27079	29277.2125
1167.88443	30823.8125
1171.49561	32399.3125
1175.10432	34238.9125
1178.71056	36613.3125
1182.31434	38891.5125
1185.91565	40033.4125
1189.51451	40029.8125
1193.11091	39281.4125
1196.70485	38051.3125
1200.29634	36750.4125
1203.88538	35856.2125
1207.47197	35554.5125
1211.05612	35419.8125
1214.63782	34852.9125
1218.21708	33820.4125
1221.79391	32599.0125
1225.36829	31749.7125
1228.94024	31248.7125
1232.50976	30907.7125
1236.07685	30461.7125
1239.6415	30178.8125
1243.20374	30110.9125
1246.76355	30314.1125
1250.32093	30747.4125
1253.8759	31429.2125
1257.42845	32235.2125
1260.97859	33212.4125
1264.52631	34250.8125
1268.07163	35287.8125
1271.61453	36336.6125
1275.15503	37293.5125
1278.69312	38302.7125
1282.22882	39376.8125
1285.76211	40736.4125
1289.29301	42322.3125
1292.82151	44318.0125
1296.34761	46761.3125
1299.87133	49611.1125
1303.39266	52514.7125
1306.9116	55031.4125
1310.42815	56782.7125
1313.94233	57465.8125
1317.45412	56883.4125
1320.96354	55850.4125
1324.47058	55204.6125
1327.97525	55046.4125
1331.47754	54982.4125
1334.97747	54956.9125
1338.47502	54760.0125
1341.97022	54308.7125
1345.46305	53655.4125
1348.95352	52906.3125
1352.44163	52276.8125
1355.92738	52439.8125
1359.41078	53613.8125
1362.89183	54497.5125
1366.37053	53425.2125
1369.84688	49714.3125
1373.32088	44813.5125
1376.79254	41462.9125
1380.26186	40356.5125
1383.72883	40597.8125
1387.19347	40902.3125
1390.65578	40750.8125
1394.11575	40711.8125
1397.57339	41163.1125
1401.0287	41900.3125
1404.48168	42411.4125
1407.93234	42394.9125
1411.38068	41490.3125
1414.82669	40021.3125
1418.27039	38250.5125
1421.71177	36564.8125
1425.15083	35331.3125
1428.58758	34877.2125
1432.02203	35375.3125
1435.45416	36561.3125
1438.88399	37888.9125
1442.31151	38763.2125
1445.73673	39076.9125
1449.15965	39275.5125
1452.58027	39267.9125
1455.9986	39270.7125
1459.41463	39539.3125
1462.82837	40137.9125
1466.23982	40815.3125
1469.64898	41310.4125
1473.05586	41520.4125
1476.46045	41415.5125
1479.86276	40918.9125
1483.26279	40379.5125
1486.66054	40119.2125
1490.05602	40225.2125
1493.44922	40553.7125
1496.84016	41033.7125
1500.22882	41696.3125
1503.61521	42663.7125
1506.99934	43740.7125
1510.38121	44459.5125
1513.76081	44443.7125
1517.13816	43676.4125
1520.51324	42968.4125
1523.88607	42541.2125
1527.25665	42740.1125
1530.62498	43099.6125
1533.99105	42985.0125
1537.35488	42421.3125
1540.71647	41329.3125
1544.07581	40038.4125
1547.4329	38687.2125
1550.78776	37658.1125
1554.14038	36889.2125
1557.49077	36414.6125
1560.83892	36099.7125
1564.18484	35962.2125
1567.52853	35951.5125
1570.86999	36244.5125
1574.20922	36975.1125
1577.54624	37718.0125
1580.88103	38059.4125
1584.2136	38715.5125
1587.54395	40124.4125
1590.87208	42318.9125
1594.19801	44918.7125
1597.52172	47306.2125
1600.84321	47621.8125
1604.16251	45353.2125
1607.47959	41595.4125
1610.79447	37855.7125
1614.10715	34466.2125
1617.41763	31721.6125
1620.7259	29827.9125
1624.03199	28927.3125
1627.33587	28930.5125
1630.63757	29938.8125
1633.93707	32191.6125
1637.23439	35866.5125
1640.52951	41176.8125
1643.82246	47204.9125
1647.11321	51617.6125
1650.40179	51727.1125
1653.68819	47058.9125
1656.97241	40142.5125
1660.25446	33848.7125
1663.53433	29346.3125
1666.81203	26479.4125
1670.08756	24732.8125
1673.36092	23611.9125
1676.63211	22845.7125
1679.90115	22317.4125
1683.16801	21951.7125
1686.43272	21634.7125
1689.69527	21472.6125
1692.95567	21313.8125
1696.2139	21197.3125
1699.46999	21083.8125
1702.72392	20996.4125
1705.97571	20917.2125
1709.22535	20874.9125
1712.47284	20793.5125
1715.71819	20739.6125
1718.96139	20708.1125
1722.20246	20603.0125
1725.44139	20490.2125
1728.67818	20398.6125
1731.91284	20214.5125
1735.14537	20098.5125
1738.37576	20004.3125
1741.60403	19915.4125
1744.83017	19852.0125
1748.05418	19794.6125
1751.27607	19727.8125
1754.49584	19727.3125
1757.71349	19738.9125
1760.92903	19681.7125
1764.14244	19686.0125
1767.35375	19718.1125
1770.56294	19580.2125
1773.77002	19549.3125
1776.97499	19525.8125
1780.17785	19456.7125
1783.37861	19424.6125
1786.57727	19383.2125
1789.77382	19345.3125
1792.96828	19294.1125
1796.16064	19245.0125
1799.3509	19208.6125
1802.53907	19190.1125
1805.72514	19121.0125
1808.90913	19050.1125
1812.09102	19043.5125
1815.27083	18988.4125
1818.44856	18980.1125
1821.6242	18954.3125
1824.79776	18910.6125
1827.96924	18921.8125
1831.13864	18877.4125
1834.30597	18901.2125
1837.47122	18881.7125
1840.6344	18896.7125
1843.7955	18907.9125
1846.95454	18874.5125
1850.11151	18843.5125
1853.26642	18824.2125
1856.41926	18868.6125
1859.57004	18823.9125
1862.71876	18790.7125
1865.86542	18759.6125
1869.01003	18726.9125
1872.15258	18696.6125
1875.29308	18642.8125
1878.43152	18616.5125
1881.56792	18607.4125
1884.70227	18590.2125
1887.83457	18567.9125
1890.96482	18536.5125
1894.09304	18513.8125
1897.21921	18494.5125
1900.34335	18463.0125
1903.46544	18413.9125
1906.58551	18372.9125
1909.70353	18366.4125
1912.81953	18323.8125
1915.93349	18319.2125
1919.04543	18279.0125
1922.15534	18235.8125
1925.26322	18200.7125
1928.36908	18165.2125
1931.47292	18133.4125
1934.57473	18055.3125
1937.67453	18023.7125
1940.77232	17971.9125
1943.86808	17908.4125
1946.96184	17847.3125
1950.05358	17801.5125
1953.14331	17742.7125
1956.23103	17681.2125
1959.31675	17676.3125
1962.40046	17606.0125
1965.48217	17536.2125
1968.56188	17508.9125
1971.63959	17417.3125
1974.7153	17384.7125
1977.78901	17339.8125
1980.86073	17225.4125
1983.93046	17205.2125
1986.99819	17174.4125
1990.06394	17144.6125
1993.1277	17104.1125
1996.18947	17022.3125
1999.24925	16972.0125
2002.30706	16922.2125
2005.36288	16839.6125
2008.41672	16798.1125
2011.46859	16762.6125
2014.51848	16763.3125
2017.56639	16691.3125
2020.61233	16671.5125
2023.6563	16628.8125
2026.6983	16590.8125
2029.73833	16527.3125
2032.7764	16517.4125
2035.8125	16432.7125
2038.84664	16413.4125
2041.87881	16384.7125
2044.90903	16356.9125
2047.93729	16343.7125
2050.96359	16327.1125
2053.98794	16309.7125
2057.01034	16293.9125
2060.03078	16252.7125
2063.04927	16252.7125
2066.06582	16238.7125
2069.08042	16205.5125
2072.09307	16213.2125
2075.10378	16183.7125
2078.11255	16146.7125
2081.11938	16168.9125
2084.12426	16150.1125
2087.12722	16187.1125
2090.12824	16143.7125
2093.12732	16136.2125
2096.12447	16136.9125
2099.11969	16140.1125
2102.11299	16150.4125
2105.10435	16129.0125
2108.09379	16138.7125
2111.08131	16160.0125
2114.0669	16146.2125
2117.05057	16161.5125
2120.03233	16181.9125
2123.01216	16175.8125
2125.99008	16170.7125
2128.96609	16208.8125
2131.94018	16217.9125
2134.91236	16198.9125
2137.88263	16239.0125
2140.851	16226.2125
2143.81746	16196.9125
2146.78201	16224.4125
2149.74466	16216.5125
2152.7054	16202.3125
2155.66425	16185.0125
2158.6212	16181.1125
2161.57625	16201.3125
2164.52941	16180.9125
2167.48067	16158.8125
2170.43004	16171.1125
2173.37752	16138.1125
2176.32311	16145.4125
2179.26681	16138.2125
2182.20863	16145.1125
2185.14856	16152.8125
2188.08661	16156.8125
2191.02278	16140.9125
2193.95707	16148.1125
2196.88948	16123.4125
2199.82001	16099.4125
2202.74867	16038.4125
2205.67545	16035.1125
2208.60037	16003.7125
2211.52341	15994.1125
2214.44458	15990.3125
2217.36388	15967.7125
2220.28132	15923.9125
2223.1969	15870.3125
2226.11061	15870.8125
2229.02246	15885.0125
2231.93245	15822.0125
2234.84058	15787.8125
2237.74686	15772.6125
2240.65128	15808.8125
2243.55385	15757.1125
2246.45456	15681.4125
2249.35343	15659.6125
2252.25044	15655.0125
2255.14561	15640.6125
2258.03893	15642.5125
2260.93041	15540.4125
2263.82004	15484.5125
2266.70783	15457.8125
2269.59378	15360.5125
2272.4779	15356.2125
2275.36017	15307.6125
2278.24061	15289.2125
2281.11922	15311.1125
2283.996	15259.0125
2286.87094	15226.1125
2289.74405	15236.2125
2292.61534	15227.7125
2295.4848	15198.8125
2298.35243	15215.0125
2301.21824	15193.6125
2304.08223	15169.2125
2306.94439	15183.6125
2309.80474	15147.7125
2312.66327	15172.8125
2315.51999	15134.2125
2318.37489	15134.0125
2321.22797	15121.8125
2324.07925	15076.2125
2326.92871	15065.1125
2329.77637	15044.8125
2332.62222	15007.0125
2335.46626	15005.5125
2338.3085	15001.0125
2341.14893	15025.8125
2343.98756	15011.8125
2346.8244	14981.0125
2349.65943	14984.2125
2352.49267	14963.4125
2355.32411	14970.8125
2358.15376	14983.2125
2360.98161	14979.7125
2363.80768	14969.0125
2366.63195	14963.9125
2369.45444	14945.1125
2372.27514	14905.6125
2375.09405	14885.9125
2377.91118	14871.8125
2380.72652	14825.2125
2383.54009	14815.5125
2386.35187	14774.0125
2389.16188	14728.6125
2391.97011	14699.1125
2394.77657	14675.3125
2397.58125	14647.8125
2400.38416	14641.2125
2403.18529	14623.8125
2405.98466	14622.7125
2408.78226	14560.2125
2411.57809	14548.3125
2414.37216	14575.3125
2417.16446	14547.1125
2419.955	14510.6125
2422.74378	14514.0125
2425.5308	14516.0125
2428.31606	14506.9125
2431.09956	14480.4125
2433.88131	14493.8125
2436.6613	14482.6125
2439.43954	14498.3125
2442.21603	14477.9125
2444.99077	14462.7125
2447.76377	14474.6125
2450.53501	14443.0125
2453.30451	14434.8125
2456.07226	14396.6125
2458.83827	14426.2125
2461.60254	14430.7125
2464.36507	14393.3125
2467.12586	14394.0125
2469.88492	14392.7125
2472.64224	14392.3125
2475.39782	14369.6125
2478.15167	14426.3125
2480.90379	14397.1125
2483.65417	14481.0125
2486.40283	14419.1125
2489.14976	14422.3125
2491.89497	14397.5125
2494.63845	14442.9125
2497.3802	14409.9125
2500.12024	14388.0125
2502.85855	14374.0125
2505.59514	14336.5125
2508.33002	14322.4125
2511.06318	14358.7125
2513.79462	14342.3125
2516.52435	14318.4125
2519.25237	14341.6125
2521.97867	14325.1125
2524.70327	14324.0125
2527.42616	14308.7125
2530.14734	14313.0125
2532.86681	14263.2125
2535.58458	14278.5125
2538.30065	14271.2125
2541.01501	14252.1125
2543.72768	14248.2125
2546.43864	14249.8125
2549.14791	14212.5125
2551.85548	14241.8125
2554.56136	14221.2125
2557.26554	14222.8125
2559.96803	14168.1125
2562.66883	14167.4125
2565.36794	14161.2125
2568.06536	14139.4125
2570.7611	14118.8125
2573.45514	14078.7125
2576.14751	14080.7125
2578.83819	14064.8125
2581.52719	14034.9125
2584.21451	14018.5125
2586.90015	14033.4125
2589.58411	14022.7125
2592.2664	14016.6125
2594.94701	14002.3125
2597.62594	13974.5125
2600.30321	13969.5125
2602.9788	13971.6125
2605.65273	13970.4125
2608.32498	14013.2125
2610.99557	13988.9125
2613.66449	13991.3125
2616.33175	13948.3125
2618.99734	13975.6125
2621.66128	13972.5125
2624.32355	13938.5125
2626.98416	13906.7125
2629.64311	13925.6125
2632.30041	13874.1125
2634.95605	13870.9125
2637.61004	13868.3125
2640.26238	13830.9125
2642.91306	13876.8125
2645.56209	13851.8125
2648.20948	13892.7125
2650.85521	13878.8125
2653.4993	13898.0125
2656.14175	13892.6125
2658.78255	13890.9125
2661.42171	13888.3125
2664.05923	13933.1125
2666.6951	13941.4125
2669.32934	13954.8125
2671.96194	13926.7125
2674.59291	13953.9125
2677.22224	13919.6125
2679.84993	13932.4125
2682.476	13934.5125
2685.10043	13937.6125
2687.72324	13892.9125
2690.34441	13923.3125
2692.96396	13931.7125
2695.58188	13918.2125
2698.19818	13928.0125
2700.81285	13947.3125
2703.4259	13911.0125
2706.03733	13954.5125
2708.64714	13942.7125
2711.25533	13969.1125
2713.86191	13952.9125
2716.46687	13959.8125
2719.07021	13963.9125
2721.67194	13969.4125
2724.27206	13991.7125
2726.87057	13986.3125
2729.46747	14020.9125
2732.06276	14003.2125
2734.65644	14032.8125
2737.24852	14026.0125
2739.83899	13999.9125
2742.42786	14010.3125
2745.01513	13974.9125
2747.60079	13972.6125
2750.18486	13957.7125
2752.76733	13960.0125
2755.3482	13922.6125
2757.92747	13962.4125
2760.50515	13904.2125
2763.08123	13933.6125
2765.65573	13914.5125
2768.22863	13887.6125
2770.79994	13906.3125
2773.36967	13905.5125
2775.9378	13915.1125
2778.50435	13924.9125
2781.06932	13913.7125
2783.6327	13891.8125
2786.1945	13883.5125
2788.75471	13854.9125
2791.31335	13848.0125
2793.87041	13828.9125
2796.42589	13818.2125
2798.97979	13807.5125
2801.53212	13777.4125
2804.08288	13776.7125
2806.63206	13714.5125
2809.17967	13699.1125
2811.72571	13679.9125
2814.27018	13654.9125
2816.81308	13605.7125
2819.35442	13575.4125
2821.89419	13527.4125
2824.43239	13510.3125
2826.96904	13521.2125
2829.50412	13490.5125
2832.03763	13488.7125
2834.56959	13479.3125
2837.1	13480.6125
2839.62884	13476.0125
2842.15613	13457.6125
2844.68186	13476.8125
2847.20604	13463.3125
2849.72867	13487.9125
2852.24974	13477.6125
2854.76927	13463.0125
2857.28724	13440.6125
2859.80367	13371.0125
2862.31855	13396.0125
2864.83189	13360.6125
2867.34368	13352.1125
2869.85393	13328.4125
2872.36264	13319.5125
2874.8698	13322.9125
2877.37543	13291.1125
2879.87952	13311.1125
2882.38207	13314.9125
2884.88308	13295.7125
2887.38256	13322.2125
2889.88051	13318.2125
2892.37692	13306.5125
2894.8718	13292.4125
2897.36515	13352.4125
2899.85698	13352.9125
2902.34727	13366.0125
2904.83604	13384.2125
2907.32328	13411.1125
2909.809	13407.0125
2912.29319	13383.6125
2914.77587	13385.3125
2917.25702	13345.7125
2919.73665	13334.0125
2922.21476	13361.4125
2924.69136	13325.7125
2927.16644	13359.1125
2929.64	13330.9125
2932.11205	13319.2125
2934.58258	13266.1125
2937.05161	13306.8125
2939.51912	13318.2125
2941.98513	13284.5125
2944.44962	13235.8125
2946.91261	13190.1125
2949.37409	13236.3125
2951.83407	13199.1125
2954.29254	13187.0125
2956.74951	13181.7125
2959.20498	13180.2125
2961.65895	13184.2125
2964.11142	13163.3125
2966.56239	13143.4125
2969.01186	13112.4125
2971.45984	13121.7125
2973.90632	13119.1125
2976.35131	13076.1125
2978.7948	13045.1125
2981.23681	12987.4125
2983.67732	12970.1125
2986.11635	12950.0125
2988.55388	12888.5125
2990.98993	12870.3125
2993.4245	12859.8125
2995.85758	12804.2125
2998.28917	12759.5125
3000.71928	12744.8125
3003.14791	12727.2125
3005.57506	12729.1125
3008.00073	12653.0125
3010.42493	12558.3125
3012.84764	12628.6125
3015.26888	12596.5125
3017.68865	12556.7125
3020.10694	12537.0125
3022.52376	12506.1125
3024.9391	12487.6125
