Data from AgNP_FTO_APTES_UA_10uM_CRN_2uM_R6G_10uM_NaF_0.1M_Addition_RamanShift__1__13-58-00-575.txt Node

Date: Thu Feb 10 13:58:00 GMT 2022
User: TCL
Spectrometer: QEP01345
Trigger mode: 4
Integration Time (sec): 7.000000E0
Scans to average: 10
Electric dark correction enabled: true
Nonlinearity correction enabled: false
Boxcar width: 0
XAxis mode: Raman Shifts
Number of Pixels in Spectrum: 1044
>>>>>Begin Spectral Data<<<<<
46.04893	0.175
50.45542	-0.225
54.85868	-1.525
59.25871	-1.025
63.6555	60.375
68.04907	69.775
72.43941	69.675
76.82654	69.975
81.21044	74.275
85.59113	77.475
89.96862	80.175
94.34289	83.775
98.71396	86.875
103.08183	89.875
107.4465	93.175
111.80798	90.875
116.16626	96.175
120.52136	101.575
124.87327	103.575
129.222	106.875
133.56755	119.775
137.90993	122.875
142.24913	135.575
146.58517	150.175
150.91804	176.375
155.24774	209.575
159.57429	261.375
163.89768	333.875
168.21792	446.475
172.53501	608.575
176.84895	847.675
181.15975	1191.775
185.46741	1663.275
189.77193	2319.875
194.07331	3113.775
198.37157	4009.775
202.6667	4979.575
206.9587	5913.475
211.24758	6859.975
215.53334	7831.075
219.81599	8855.175
224.09553	9975.675
228.37195	11200.175
232.64527	12586.175
236.91549	13964.575
241.18261	15316.875
245.44663	16561.075
249.70755	17633.475
253.96539	18568.775
258.22014	19343.975
262.4718	20002.275
266.72039	20396.075
270.96589	20654.075
275.20832	20668.675
279.44768	20485.275
283.68397	20267.975
287.91719	20093.775
292.14735	19988.075
296.37445	20094.875
300.59849	20350.675
304.81948	20669.875
309.03742	20861.875
313.25231	20785.275
317.46415	20295.375
321.67296	19524.675
325.87872	18847.875
330.08145	18531.275
334.28114	18491.875
338.47781	18653.875
342.67145	18973.375
346.86207	19314.975
351.04966	19828.075
355.23424	20362.575
359.4158	20799.475
363.59435	21047.675
367.76989	21229.375
371.94243	21260.975
376.11196	21249.475
380.27849	21234.975
384.44203	21229.875
388.60257	21264.375
392.76012	21427.175
396.91468	21720.775
401.06626	22116.075
405.21485	22324.975
409.36047	22126.375
413.50311	21580.675
417.64277	21065.375
421.77947	20842.775
425.9132	20805.975
430.04396	20866.175
434.17176	20932.275
438.2966	21007.375
442.41849	21286.075
446.53742	21676.875
450.6534	22103.275
454.76644	22379.775
458.87653	22533.375
462.98368	22471.375
467.08789	22377.375
471.18916	22175.875
475.2875	21891.675
479.38291	21638.675
483.4754	21413.075
487.56496	21249.775
491.6516	21017.975
495.73531	20836.775
499.81612	20759.675
503.89401	20836.275
507.96899	20979.575
512.04106	21025.575
516.11023	21141.875
520.1765	21066.575
524.23987	20983.975
528.30034	20787.675
532.35792	20569.575
536.41261	20331.575
540.46441	20093.675
544.51333	20024.575
548.55936	20203.375
552.60252	20633.575
556.64279	21069.675
560.6802	21307.675
564.71473	21421.075
568.7464	21824.875
572.7752	22374.075
576.80114	22718.975
580.82422	23110.475
584.84444	23464.975
588.86181	23778.575
592.87633	23946.875
596.888	23848.675
600.89682	23709.075
604.9028	24467.175
608.90594	27337.975
612.90624	30879.375
616.90371	29320.075
620.89834	23668.775
624.89015	21000.775
628.87913	20555.575
632.86528	20784.475
636.84862	20981.675
640.82913	20760.275
644.80683	20158.875
648.78172	19759.075
652.75379	19682.075
656.72306	20027.575
660.68952	20538.275
664.65319	20397.375
668.61405	19894.675
672.57211	19729.575
676.52738	19803.075
680.47986	19741.075
684.42955	19621.875
688.37646	19533.675
692.32058	19620.875
696.26192	19820.175
700.20048	20065.775
704.13626	20287.875
708.06928	20313.775
711.99952	20157.275
715.927	20058.575
719.85171	20100.075
723.77365	20013.575
727.69284	19768.075
731.60928	19499.875
735.52295	19418.975
739.43388	19403.275
743.34206	19440.075
747.24749	19489.575
751.15017	19651.875
755.05012	19967.875
758.94733	20600.475
762.8418	21839.575
766.73354	23970.875
770.62254	26064.275
774.50882	26630.875
778.39237	25499.575
782.27321	23494.475
786.15132	21643.975
790.02671	20423.675
793.89938	19835.675
797.76935	19559.975
801.6366	19390.975
805.50115	19335.375
809.36299	19225.875
813.22213	19117.275
817.07857	19031.375
820.93231	19007.575
824.78336	18995.875
828.63172	18966.875
832.47738	18939.675
836.32036	18908.375
840.16066	18876.475
843.99827	18822.475
847.8332	18820.075
851.66546	18841.575
855.49504	18870.375
859.32195	18877.975
863.1462	18803.775
866.96777	18791.175
870.78668	18751.175
874.60293	18797.875
878.41652	18796.775
882.22745	18890.475
886.03573	18927.275
889.84136	18958.875
893.64433	18913.875
897.44466	18886.975
901.24235	18837.175
905.0374	18811.675
908.8298	18777.975
912.61957	18765.275
916.40671	18857.975
920.19121	19037.375
923.97308	19167.175
927.75233	19242.275
931.52895	19208.975
935.30295	18990.275
939.07433	18647.575
942.84309	18331.675
946.60924	18167.475
950.37278	18073.875
954.13371	18044.575
957.89203	18022.375
961.64774	17985.175
965.40086	17969.175
969.15137	17964.275
972.89929	17917.875
976.64461	17887.875
980.38733	17876.575
984.12747	17895.775
987.86502	17973.275
991.59999	18061.275
995.33237	18187.175
999.06217	18382.275
1002.78939	18664.775
1006.51404	18954.475
1010.23611	19272.975
1013.95561	19461.575
1017.67255	19513.475
1021.38692	19352.275
1025.09872	19150.075
1028.80796	18890.875
1032.51465	18842.175
1036.21877	18887.775
1039.92035	18985.775
1043.61937	19063.875
1047.31584	19126.175
1051.00976	19145.975
1054.70114	19152.475
1058.38998	19279.175
1062.07627	19426.675
1065.76003	19646.175
1069.44126	19883.575
1073.11995	20224.075
1076.79611	20576.275
1080.46974	20764.975
1084.14085	20985.575
1087.80943	21257.475
1091.47549	21479.675
1095.13903	21449.875
1098.80005	21072.975
1102.45857	20613.575
1106.11456	20231.675
1109.76805	20049.775
1113.41903	20069.875
1117.06751	20207.375
1120.71348	20548.375
1124.35696	20949.975
1127.99793	21351.275
1131.63641	21457.875
1135.2724	21094.675
1138.90589	20828.575
1142.5369	20636.475
1146.16542	20503.675
1149.79145	20482.075
1153.415	20550.175
1157.03607	20771.475
1160.65467	21160.275
1164.27079	21890.675
1167.88443	22883.975
1171.49561	24159.475
1175.10432	25913.875
1178.71056	28151.475
1182.31434	30199.875
1185.91565	31279.375
1189.51451	31356.075
1193.11091	30690.175
1196.70485	29464.775
1200.29634	28154.275
1203.88538	26978.175
1207.47197	26002.675
1211.05612	25202.575
1214.63782	24517.175
1218.21708	23960.375
1221.79391	23419.575
1225.36829	23119.575
1228.94024	22919.775
1232.50976	22884.875
1236.07685	22803.475
1239.6415	22740.975
1243.20374	22734.975
1246.76355	22851.475
1250.32093	23061.675
1253.8759	23425.175
1257.42845	24027.975
1260.97859	24655.375
1264.52631	25379.275
1268.07163	26091.375
1271.61453	26698.475
1275.15503	27204.775
1278.69312	27666.775
1282.22882	28106.875
1285.76211	28748.975
1289.29301	29548.175
1292.82151	30579.375
1296.34761	31625.975
1299.87133	33029.475
1303.39266	34798.575
1306.9116	36807.975
1310.42815	38836.075
1313.94233	39885.275
1317.45412	39474.075
1320.96354	38353.675
1324.47058	37367.775
1327.97525	36539.475
1331.47754	35965.675
1334.97747	35729.775
1338.47502	35848.475
1341.97022	36231.575
1345.46305	36844.475
1348.95352	37595.075
1352.44163	38387.975
1355.92738	39400.075
1359.41078	41164.875
1362.89183	43083.575
1366.37053	42184.475
1369.84688	37964.175
1373.32088	33375.275
1376.79254	30368.975
1380.26186	28959.575
1383.72883	28337.475
1387.19347	27878.875
1390.65578	27387.075
1394.11575	26978.875
1397.57339	26728.075
1401.0287	26629.475
1404.48168	26678.075
1407.93234	26591.675
1411.38068	26303.475
1414.82669	25920.075
1418.27039	25348.375
1421.71177	24764.875
1425.15083	24268.375
1428.58758	23986.775
1432.02203	24145.475
1435.45416	24548.175
1438.88399	24968.575
1442.31151	25275.475
1445.73673	25469.675
1449.15965	25690.775
1452.58027	25829.175
1455.9986	25882.775
1459.41463	26048.875
1462.82837	26386.175
1466.23982	26768.075
1469.64898	27176.275
1473.05586	27529.875
1476.46045	27641.775
1479.86276	27716.475
1483.26279	27822.975
1486.66054	28129.675
1490.05602	28670.675
1493.44922	29489.175
1496.84016	30772.475
1500.22882	32731.675
1503.61521	35423.275
1506.99934	38174.475
1510.38121	40134.275
1513.76081	40196.375
1517.13816	38185.075
1520.51324	35194.275
1523.88607	32609.875
1527.25665	31013.975
1530.62498	30176.575
1533.99105	29586.475
1537.35488	29025.575
1540.71647	28350.275
1544.07581	27668.575
1547.4329	27081.875
1550.78776	26662.875
1554.14038	26396.375
1557.49077	26376.375
1560.83892	26455.775
1564.18484	26773.375
1567.52853	27160.875
1570.86999	27608.775
1574.20922	27968.075
1577.54624	28088.175
1580.88103	27571.475
1584.2136	26895.375
1587.54395	26654.275
1590.87208	27085.675
1594.19801	28171.675
1597.52172	29441.975
1600.84321	29835.075
1604.16251	29006.075
1607.47959	27660.475
1610.79447	26119.175
1614.10715	24379.575
1617.41763	22778.475
1620.7259	21619.975
1624.03199	20962.075
1627.33587	20864.575
1630.63757	21264.275
1633.93707	22261.575
1637.23439	23962.375
1640.52951	26695.775
1643.82246	29990.375
1647.11321	33244.975
1650.40179	34767.975
1653.68819	33317.975
1656.97241	29466.675
1660.25446	25206.175
1663.53433	22066.175
1666.81203	20027.675
1670.08756	18770.775
1673.36092	17997.275
1676.63211	17507.175
1679.90115	17206.375
1683.16801	16894.775
1686.43272	16704.475
1689.69527	16572.575
1692.95567	16440.875
1696.2139	16369.775
1699.46999	16339.975
1702.72392	16284.575
1705.97571	16209.075
1709.22535	16195.875
1712.47284	16152.875
1715.71819	16153.475
1718.96139	16125.175
1722.20246	16056.575
1725.44139	15987.975
1728.67818	15842.075
1731.91284	15773.175
1735.14537	15661.975
1738.37576	15583.775
1741.60403	15565.575
1744.83017	15504.175
1748.05418	15466.975
1751.27607	15416.775
1754.49584	15400.675
1757.71349	15376.375
1760.92903	15365.175
1764.14244	15370.875
1767.35375	15325.275
1770.56294	15279.475
1773.77002	15249.775
1776.97499	15209.975
1780.17785	15147.475
1783.37861	15122.575
1786.57727	15102.975
1789.77382	15057.275
1792.96828	15054.975
1796.16064	14978.575
1799.3509	15006.275
1802.53907	14960.475
1805.72514	14919.275
1808.90913	14853.075
1812.09102	14809.375
1815.27083	14792.075
1818.44856	14766.275
1821.6242	14758.375
1824.79776	14712.975
1827.96924	14689.375
1831.13864	14690.375
1834.30597	14698.675
1837.47122	14684.775
1840.6344	14689.475
1843.7955	14677.675
1846.95454	14668.575
1850.11151	14655.975
1853.26642	14635.975
1856.41926	14641.375
1859.57004	14646.975
1862.71876	14587.975
1865.86542	14562.175
1869.01003	14577.475
1872.15258	14560.875
1875.29308	14521.875
1878.43152	14494.975
1881.56792	14436.975
1884.70227	14448.875
1887.83457	14425.875
1890.96482	14389.575
1894.09304	14361.675
1897.21921	14350.075
1900.34335	14343.375
1903.46544	14321.975
1906.58551	14320.475
1909.70353	14252.175
1912.81953	14255.075
1915.93349	14247.675
1919.04543	14201.775
1922.15534	14190.275
1925.26322	14100.275
1928.36908	14115.675
1931.47292	14069.575
1934.57473	14029.675
1937.67453	13999.875
1940.77232	13954.775
1943.86808	13916.075
1946.96184	13866.775
1950.05358	13842.675
1953.14331	13803.675
1956.23103	13759.775
1959.31675	13731.875
1962.40046	13706.375
1965.48217	13641.275
1968.56188	13618.975
1971.63959	13579.275
1974.7153	13513.875
1977.78901	13489.775
1980.86073	13458.675
1983.93046	13408.375
1986.99819	13374.975
1990.06394	13339.075
1993.1277	13258.975
1996.18947	13246.575
1999.24925	13177.575
2002.30706	13154.475
2005.36288	13125.875
2008.41672	13076.975
2011.46859	13017.475
2014.51848	12990.675
2017.56639	12958.075
2020.61233	12918.175
2023.6563	12897.875
2026.6983	12858.275
2029.73833	12813.275
2032.7764	12758.175
2035.8125	12763.275
2038.84664	12745.675
2041.87881	12696.175
2044.90903	12681.475
2047.93729	12657.275
2050.96359	12631.575
2053.98794	12627.175
2057.01034	12603.875
2060.03078	12596.975
2063.04927	12579.375
2066.06582	12592.975
2069.08042	12526.875
2072.09307	12566.075
2075.10378	12558.375
2078.11255	12532.675
2081.11938	12534.575
2084.12426	12513.275
2087.12722	12540.375
2090.12824	12519.475
2093.12732	12523.675
2096.12447	12508.275
2099.11969	12494.075
2102.11299	12529.475
2105.10435	12525.175
2108.09379	12530.175
2111.08131	12519.775
2114.0669	12544.575
2117.05057	12549.975
2120.03233	12546.375
2123.01216	12572.475
2125.99008	12563.075
2128.96609	12593.975
2131.94018	12602.075
2134.91236	12600.875
2137.88263	12607.675
2140.851	12623.975
2143.81746	12629.975
2146.78201	12603.175
2149.74466	12594.575
2152.7054	12599.375
2155.66425	12579.675
2158.6212	12601.375
2161.57625	12547.275
2164.52941	12571.275
2167.48067	12541.675
2170.43004	12526.475
2173.37752	12561.375
2176.32311	12563.975
2179.26681	12578.375
2182.20863	12572.775
2185.14856	12565.975
2188.08661	12520.675
2191.02278	12547.975
2193.95707	12535.975
2196.88948	12519.475
2199.82001	12521.875
2202.74867	12498.275
2205.67545	12444.075
2208.60037	12463.875
2211.52341	12445.775
2214.44458	12391.575
2217.36388	12386.775
2220.28132	12338.075
2223.1969	12309.175
2226.11061	12328.575
2229.02246	12292.175
2231.93245	12258.575
2234.84058	12244.375
2237.74686	12203.075
2240.65128	12213.975
2243.55385	12176.975
2246.45456	12147.375
2249.35343	12164.975
2252.25044	12167.075
2255.14561	12154.275
2258.03893	12148.575
2260.93041	12092.275
2263.82004	12061.475
2266.70783	12072.675
2269.59378	11991.475
2272.4779	11973.275
2275.36017	11960.175
2278.24061	11962.375
2281.11922	11918.775
2283.996	11891.075
2286.87094	11888.375
2289.74405	11857.075
2292.61534	11837.675
2295.4848	11840.675
2298.35243	11845.675
2301.21824	11786.475
2304.08223	11802.675
2306.94439	11775.075
2309.80474	11776.875
2312.66327	11787.575
2315.51999	11781.275
2318.37489	11784.975
2321.22797	11753.975
2324.07925	11721.575
2326.92871	11720.675
2329.77637	11705.475
2332.62222	11674.875
2335.46626	11676.175
2338.3085	11641.675
2341.14893	11627.275
2343.98756	11629.775
2346.8244	11636.275
2349.65943	11626.775
2352.49267	11609.775
2355.32411	11616.075
2358.15376	11636.275
2360.98161	11648.875
2363.80768	11650.375
2366.63195	11627.975
2369.45444	11618.575
2372.27514	11607.375
2375.09405	11621.475
2377.91118	11557.175
2380.72652	11530.275
2383.54009	11515.175
2386.35187	11477.775
2389.16188	11451.875
2391.97011	11425.275
2394.77657	11373.675
2397.58125	11355.175
2400.38416	11355.475
2403.18529	11331.275
2405.98466	11322.775
2408.78226	11282.975
2411.57809	11278.975
2414.37216	11252.875
2417.16446	11250.375
2419.955	11223.275
2422.74378	11243.775
2425.5308	11219.675
2428.31606	11237.575
2431.09956	11225.875
2433.88131	11200.775
2436.6613	11220.675
2439.43954	11214.175
2442.21603	11184.275
2444.99077	11172.075
2447.76377	11197.175
2450.53501	11189.075
2453.30451	11179.775
2456.07226	11147.875
2458.83827	11172.675
2461.60254	11172.875
2464.36507	11166.875
2467.12586	11143.075
2469.88492	11133.975
2472.64224	11137.575
2475.39782	11132.775
2478.15167	11151.575
2480.90379	11137.375
2483.65417	11167.675
2486.40283	11160.075
2489.14976	11159.975
2491.89497	11148.275
2494.63845	11145.675
2497.3802	11107.275
2500.12024	11111.175
2502.85855	11072.375
2505.59514	11049.475
2508.33002	11049.475
2511.06318	11025.775
2513.79462	11033.475
2516.52435	11010.775
2519.25237	10995.675
2521.97867	10950.975
2524.70327	10965.975
2527.42616	10963.475
2530.14734	10960.675
2532.86681	10945.675
2535.58458	10946.175
2538.30065	10936.375
2541.01501	10930.975
2543.72768	10907.175
2546.43864	10892.675
2549.14791	10886.675
2551.85548	10876.275
2554.56136	10868.375
2557.26554	10859.375
2559.96803	10837.775
2562.66883	10807.475
2565.36794	10775.975
2568.06536	10783.175
2570.7611	10766.775
2573.45514	10736.575
2576.14751	10722.675
2578.83819	10682.675
2581.52719	10673.175
2584.21451	10666.875
2586.90015	10650.975
2589.58411	10648.875
2592.2664	10637.275
2594.94701	10621.475
2597.62594	10598.575
2600.30321	10597.875
2602.9788	10582.975
2605.65273	10571.575
2608.32498	10590.175
2610.99557	10567.475
2613.66449	10556.475
2616.33175	10572.775
2618.99734	10551.375
2621.66128	10521.675
2624.32355	10503.675
2626.98416	10476.275
2629.64311	10468.775
2632.30041	10456.175
2634.95605	10436.775
2637.61004	10423.675
2640.26238	10437.575
2642.91306	10442.375
2645.56209	10423.175
2648.20948	10417.875
2650.85521	10399.875
2653.4993	10416.675
2656.14175	10419.875
2658.78255	10406.375
2661.42171	10419.975
2664.05923	10443.975
2666.6951	10441.675
2669.32934	10456.075
2671.96194	10433.875
2674.59291	10448.475
2677.22224	10418.875
2679.84993	10445.275
2682.476	10426.775
2685.10043	10443.175
2687.72324	10402.475
2690.34441	10425.675
2692.96396	10407.175
2695.58188	10410.075
2698.19818	10403.475
2700.81285	10399.975
2703.4259	10403.975
2706.03733	10418.675
2708.64714	10424.475
2711.25533	10421.775
2713.86191	10410.475
2716.46687	10442.475
2719.07021	10431.075
2721.67194	10445.275
2724.27206	10470.975
2726.87057	10449.475
2729.46747	10440.275
2732.06276	10456.175
2734.65644	10448.975
2737.24852	10454.075
2739.83899	10435.175
2742.42786	10420.075
2745.01513	10371.575
2747.60079	10395.275
2750.18486	10400.975
2752.76733	10379.775
2755.3482	10347.375
2757.92747	10362.975
2760.50515	10319.075
2763.08123	10312.475
2765.65573	10291.175
2768.22863	10277.075
2770.79994	10274.875
2773.36967	10263.775
2775.9378	10241.275
2778.50435	10253.875
2781.06932	10229.575
2783.6327	10232.475
2786.1945	10251.775
2788.75471	10240.275
2791.31335	10206.275
2793.87041	10218.175
2796.42589	10181.175
2798.97979	10204.475
2801.53212	10166.375
2804.08288	10157.775
2806.63206	10120.375
2809.17967	10094.075
2811.72571	10073.775
2814.27018	10061.475
2816.81308	10053.675
2819.35442	10016.175
2821.89419	10010.175
2824.43239	10023.875
2826.96904	10002.275
2829.50412	9983.375
2832.03763	9958.875
2834.56959	9977.975
2837.1	9963.675
2839.62884	9985.475
2842.15613	9996.275
2844.68186	9997.975
2847.20604	9968.775
2849.72867	9993.575
2852.24974	10028.775
2854.76927	10003.475
2857.28724	9963.975
2859.80367	9970.575
2862.31855	9937.275
2864.83189	9964.675
2867.34368	9922.175
2869.85393	9934.975
2872.36264	9898.875
2874.8698	9898.675
2877.37543	9925.175
2879.87952	9896.875
2882.38207	9870.475
2884.88308	9880.275
2887.38256	9869.075
2889.88051	9860.575
2892.37692	9862.775
2894.8718	9843.175
2897.36515	9861.675
2899.85698	9854.475
2902.34727	9862.375
2904.83604	9882.975
2907.32328	9909.875
2909.809	9916.675
2912.29319	9936.975
2914.77587	9911.075
2917.25702	9918.375
2919.73665	9888.675
2922.21476	9886.475
2924.69136	9883.175
2927.16644	9858.475
2929.64	9848.475
2932.11205	9829.775
2934.58258	9821.675
2937.05161	9828.175
2939.51912	9790.275
2941.98513	9792.975
2944.44962	9778.575
2946.91261	9711.375
2949.37409	9727.175
2951.83407	9726.475
2954.29254	9743.275
2956.74951	9706.575
2959.20498	9693.775
2961.65895	9714.875
2964.11142	9725.475
2966.56239	9689.275
2969.01186	9671.675
2971.45984	9661.675
2973.90632	9673.375
2976.35131	9644.075
2978.7948	9631.475
2981.23681	9625.475
2983.67732	9588.775
2986.11635	9587.175
2988.55388	9551.875
2990.98993	9536.075
2993.4245	9509.675
2995.85758	9500.875
2998.28917	9465.175
3000.71928	9472.175
3003.14791	9420.875
3005.57506	9439.075
3008.00073	9376.075
3010.42493	9282.675
3012.84764	9353.875
3015.26888	9348.375
3017.68865	9325.175
3020.10694	9303.075
3022.52376	9286.375
3024.9391	9279.975
3027.35298	9271.375
3029.76539	9261.175
3032.17632	9246.575
3034.5858	9229.775
3036.9938	9223.175
3039.40034	9227.975
3041.80542	9197.575
3044.20903	9192.375
3046.61118	9186.275
3049.01187	9155.275
3051.4111	9180.475
3053.80888	9137.975
3056.20519	9111.875
3058.60005	9111.875
3060.99345	9091.075
3063.3854	9086.775
3065.7759	9051.075
3068.16494	9035.675
3070.55254	9004.975
3072.93868	8995.775
3075.32338	8975.075
3077.70662	8960.275
3080.08842	8952.375
3082.46878	8934.675
3084.84769	8900.575
3087.22515	8897.275
3089.60118	8882.275
3091.97576	8874.175
3094.3489	8883.675
3096.72061	8864.475
3099.09087	8891.275
3101.4597	8882.675
3103.82709	8884.875
3106.19305	8879.875
3108.55757	8881.375
3110.92066	8831.275
3113.28232	8815.875
3115.64255	8793.275
3118.00134	8796.375
3120.35871	8803.775
3122.71466	8756.275
3125.06917	8720.575
3127.42226	8724.175
3129.77393	8720.575
3132.12417	8714.975
3134.47299	8682.075
3136.82039	8704.875
3139.16636	8687.275
3141.51092	8694.875
3143.85406	8720.875
