Data from AgNP_FTO_APTES_UA_10uM_CRN_50uM_R6G_10uM_NaF_0.1M_Addition_RamanShift__19__17-04-40-806.txt Node

Date: Thu Feb 10 17:04:40 GMT 2022
User: TCL
Spectrometer: QEP01345
Trigger mode: 4
Integration Time (sec): 7.000000E0
Scans to average: 10
Electric dark correction enabled: true
Nonlinearity correction enabled: false
Boxcar width: 0
XAxis mode: Raman Shifts
Number of Pixels in Spectrum: 1044
>>>>>Begin Spectral Data<<<<<
46.04893	1.025
50.45542	0.225
54.85868	-2.075
59.25871	-2.675
63.6555	59.925
68.04907	61.625
72.43941	65.225
76.82654	64.225
81.21044	72.525
85.59113	69.625
89.96862	76.825
94.34289	77.725
98.71396	80.325
103.08183	84.525
107.4465	86.525
111.80798	83.925
116.16626	86.425
120.52136	89.125
124.87327	96.725
129.222	95.225
133.56755	103.425
137.90993	110.325
142.24913	114.325
146.58517	128.725
150.91804	154.425
155.24774	180.825
159.57429	217.225
163.89768	276.925
168.21792	361.425
172.53501	498.425
176.84895	683.125
181.15975	967.925
185.46741	1358.925
189.77193	1877.425
194.07331	2500.625
198.37157	3219.925
202.6667	3982.325
206.9587	4725.525
211.24758	5449.125
215.53334	6166.625
219.81599	6934.025
224.09553	7781.325
228.37195	8688.025
232.64527	9715.025
236.91549	10821.725
241.18261	11935.525
245.44663	12989.425
249.70755	13993.125
253.96539	14832.425
258.22014	15580.325
262.4718	16200.325
266.72039	16656.525
270.96589	16907.125
275.20832	16991.325
279.44768	16958.025
283.68397	16878.325
287.91719	16770.825
292.14735	16698.925
296.37445	16654.125
300.59849	16680.325
304.81948	16667.925
309.03742	16504.625
313.25231	16263.725
317.46415	15933.625
321.67296	15547.825
325.87872	15231.125
330.08145	15128.225
334.28114	15157.425
338.47781	15267.425
342.67145	15426.725
346.86207	15633.225
351.04966	15837.325
355.23424	16080.425
359.4158	16314.525
363.59435	16473.125
367.76989	16605.025
371.94243	16699.825
376.11196	16810.725
380.27849	16940.225
384.44203	17016.625
388.60257	17151.425
392.76012	17285.225
396.91468	17519.925
401.06626	17765.625
405.21485	17884.825
409.36047	17841.625
413.50311	17683.625
417.64277	17573.825
421.77947	17601.325
425.9132	17630.125
430.04396	17694.425
434.17176	17825.825
438.2966	17910.625
442.41849	18210.125
446.53742	18538.025
450.6534	18951.625
454.76644	19284.725
458.87653	19465.425
462.98368	19506.025
467.08789	19407.125
471.18916	19275.925
475.2875	19178.525
479.38291	19161.425
483.4754	19049.625
487.56496	18828.225
491.6516	18500.925
495.73531	18228.625
499.81612	18121.125
503.89401	18193.925
507.96899	18228.425
512.04106	18215.325
516.11023	18102.925
520.1765	17971.425
524.23987	17813.825
528.30034	17709.825
532.35792	17590.725
536.41261	17492.025
540.46441	17410.525
544.51333	17478.025
548.55936	17685.225
552.60252	17995.625
556.64279	18323.125
560.6802	18498.325
564.71473	18578.325
568.7464	18731.625
572.7752	19055.325
576.80114	19308.525
580.82422	19538.225
584.84444	19762.225
588.86181	19925.825
592.87633	20016.525
596.888	20045.925
600.89682	20141.425
604.9028	20615.325
608.90594	21669.625
612.90624	22667.625
616.90371	21471.325
620.89834	19098.125
624.89015	18160.525
628.87913	18158.625
632.86528	18195.925
636.84862	18061.425
640.82913	17826.525
644.80683	17516.025
648.78172	17262.825
652.75379	17177.625
656.72306	17298.425
660.68952	17464.925
664.65319	17442.825
668.61405	17279.725
672.57211	17209.725
676.52738	17218.725
680.47986	17270.925
684.42955	17222.125
688.37646	17186.725
692.32058	17260.925
696.26192	17341.925
700.20048	17529.425
704.13626	17602.325
708.06928	17582.125
711.99952	17503.625
715.927	17469.025
719.85171	17444.425
723.77365	17437.725
727.69284	17331.425
731.60928	17193.425
735.52295	17150.925
739.43388	17102.725
743.34206	17168.125
747.24749	17230.225
751.15017	17348.625
755.05012	17591.525
758.94733	17956.025
762.8418	18627.325
766.73354	19609.625
770.62254	20452.225
774.50882	20594.125
778.39237	19813.325
782.27321	18739.125
786.15132	17869.225
790.02671	17397.025
793.89938	17151.925
797.76935	17071.225
801.6366	17077.325
805.50115	17047.725
809.36299	16925.425
813.22213	16804.225
817.07857	16790.325
820.93231	16769.025
824.78336	16741.225
828.63172	16703.425
832.47738	16686.825
836.32036	16664.825
840.16066	16752.625
843.99827	16823.625
847.8332	16797.125
851.66546	16749.025
855.49504	16670.325
859.32195	16735.225
863.1462	16704.025
866.96777	16649.825
870.78668	16595.425
874.60293	16602.325
878.41652	16577.525
882.22745	16605.125
886.03573	16619.025
889.84136	16584.325
893.64433	16574.525
897.44466	16498.225
901.24235	16449.125
905.0374	16429.425
908.8298	16416.525
912.61957	16486.325
916.40671	16648.625
920.19121	16840.025
923.97308	16925.225
927.75233	16917.325
931.52895	16838.025
935.30295	16694.225
939.07433	16436.125
942.84309	16282.325
946.60924	16196.725
950.37278	16184.625
954.13371	16100.725
957.89203	16072.725
961.64774	16000.725
965.40086	15955.825
969.15137	15945.525
972.89929	15878.225
976.64461	15806.825
980.38733	15797.525
984.12747	15860.125
987.86502	16006.025
991.59999	16134.525
995.33237	16387.625
999.06217	16780.625
1002.78939	17161.925
1006.51404	17331.825
1010.23611	17378.825
1013.95561	17420.125
1017.67255	17457.625
1021.38692	17372.825
1025.09872	17280.525
1028.80796	17444.525
1032.51465	17927.425
1036.21877	18370.525
1039.92035	18425.225
1043.61937	18144.325
1047.31584	17797.525
1051.00976	17433.425
1054.70114	17282.225
1058.38998	17295.225
1062.07627	17422.825
1065.76003	17489.025
1069.44126	17510.425
1073.11995	17627.025
1076.79611	17768.925
1080.46974	17796.625
1084.14085	17890.425
1087.80943	18017.125
1091.47549	18144.325
1095.13903	18139.825
1098.80005	18004.225
1102.45857	17770.925
1106.11456	17575.425
1109.76805	17504.125
1113.41903	17518.425
1117.06751	17598.225
1120.71348	17740.325
1124.35696	17834.925
1127.99793	17948.025
1131.63641	18046.925
1135.2724	17990.525
1138.90589	17913.225
1142.5369	17897.125
1146.16542	17938.525
1149.79145	17997.225
1153.415	18132.825
1157.03607	18390.725
1160.65467	18798.525
1164.27079	19443.125
1167.88443	20234.125
1171.49561	21189.425
1175.10432	22364.625
1178.71056	23789.525
1182.31434	25150.625
1185.91565	25984.025
1189.51451	25993.425
1193.11091	25441.925
1196.70485	24620.925
1200.29634	23754.625
1203.88538	23107.025
1207.47197	22654.825
1211.05612	22292.725
1214.63782	21889.825
1218.21708	21564.025
1221.79391	21274.025
1225.36829	21084.225
1228.94024	20855.525
1232.50976	20584.225
1236.07685	20257.725
1239.6415	20213.525
1243.20374	20220.625
1246.76355	20406.125
1250.32093	20669.125
1253.8759	21051.525
1257.42845	21531.125
1260.97859	21958.425
1264.52631	22280.225
1268.07163	22787.125
1271.61453	23317.825
1275.15503	23901.625
1278.69312	24603.525
1282.22882	25178.025
1285.76211	25649.325
1289.29301	26092.025
1292.82151	26841.925
1296.34761	27836.725
1299.87133	29134.925
1303.39266	30604.025
1306.9116	32153.825
1310.42815	33590.025
1313.94233	34455.425
1317.45412	34480.125
1320.96354	33961.625
1324.47058	33585.825
1327.97525	33166.925
1331.47754	32960.925
1334.97747	32853.025
1338.47502	32902.825
1341.97022	32950.025
1345.46305	32789.225
1348.95352	32278.425
1352.44163	31726.225
1355.92738	31624.125
1359.41078	32123.225
1362.89183	32614.025
1366.37053	31833.025
1369.84688	29734.025
1373.32088	27350.425
1376.79254	25769.825
1380.26186	25166.725
1383.72883	25164.225
1387.19347	25212.625
1390.65578	25130.825
1394.11575	25134.225
1397.57339	25388.925
1401.0287	25781.525
1404.48168	26081.125
1407.93234	26051.825
1411.38068	25728.425
1414.82669	24962.425
1418.27039	24102.125
1421.71177	23144.325
1425.15083	22418.625
1428.58758	22005.825
1432.02203	21915.725
1435.45416	22245.625
1438.88399	22771.325
1442.31151	23272.825
1445.73673	23644.525
1449.15965	23994.925
1452.58027	24259.225
1455.9986	24471.725
1459.41463	24729.125
1462.82837	25029.225
1466.23982	25401.425
1469.64898	25816.525
1473.05586	25998.625
1476.46045	26021.325
1479.86276	25805.825
1483.26279	25486.825
1486.66054	25240.225
1490.05602	25110.925
1493.44922	25124.125
1496.84016	25204.525
1500.22882	25518.525
1503.61521	26047.325
1506.99934	26750.725
1510.38121	27438.925
1513.76081	27614.425
1517.13816	27355.125
1520.51324	26690.725
1523.88607	26136.425
1527.25665	25798.925
1530.62498	25698.525
1533.99105	25670.725
1537.35488	25537.525
1540.71647	25286.425
1544.07581	24943.125
1547.4329	24489.425
1550.78776	24084.625
1554.14038	23854.425
1557.49077	23674.825
1560.83892	23573.225
1564.18484	23538.625
1567.52853	23530.525
1570.86999	23600.125
1574.20922	23854.225
1577.54624	24082.225
1580.88103	24235.425
1584.2136	24402.825
1587.54395	24917.525
1590.87208	25817.425
1594.19801	27024.325
1597.52172	28264.725
1600.84321	28612.425
1604.16251	27622.425
1607.47959	25929.625
1610.79447	24179.025
1614.10715	22527.825
1617.41763	21150.725
1620.7259	20116.925
1624.03199	19583.125
1627.33587	19499.825
1630.63757	19922.625
1633.93707	20869.625
1637.23439	22271.225
1640.52951	24223.725
1643.82246	26383.825
1647.11321	27990.425
1650.40179	28151.825
1653.68819	26680.925
1656.97241	24042.125
1660.25446	21409.225
1663.53433	19341.825
1666.81203	17957.125
1670.08756	17013.025
1673.36092	16402.525
1676.63211	15975.425
1679.90115	15676.425
1683.16801	15470.825
1686.43272	15338.825
1689.69527	15192.025
1692.95567	15107.125
1696.2139	15059.725
1699.46999	15039.625
1702.72392	14973.225
1705.97571	14907.525
1709.22535	14865.125
1712.47284	14824.925
1715.71819	14833.325
1718.96139	14785.625
1722.20246	14775.725
1725.44139	14662.325
1728.67818	14596.725
1731.91284	14512.225
1735.14537	14449.125
1738.37576	14401.725
1741.60403	14375.725
1744.83017	14335.925
1748.05418	14274.625
1751.27607	14299.125
1754.49584	14303.925
1757.71349	14269.125
1760.92903	14273.525
1764.14244	14235.125
1767.35375	14237.225
1770.56294	14196.825
1773.77002	14198.125
1776.97499	14144.825
1780.17785	14106.625
1783.37861	14091.225
1786.57727	14042.625
1789.77382	14038.925
1792.96828	14007.225
1796.16064	13989.625
1799.3509	13945.225
1802.53907	13923.525
1805.72514	13910.025
1808.90913	13863.225
1812.09102	13851.625
1815.27083	13822.325
1818.44856	13833.325
1821.6242	13794.125
1824.79776	13765.525
1827.96924	13769.725
1831.13864	13768.325
1834.30597	13741.125
1837.47122	13736.125
1840.6344	13745.825
1843.7955	13722.325
1846.95454	13734.425
1850.11151	13718.725
1853.26642	13708.225
1856.41926	13721.525
1859.57004	13682.925
1862.71876	13686.825
1865.86542	13661.425
1869.01003	13662.125
1872.15258	13659.125
1875.29308	13636.525
1878.43152	13615.625
1881.56792	13620.825
1884.70227	13606.125
1887.83457	13596.325
1890.96482	13538.125
1894.09304	13550.725
1897.21921	13527.125
1900.34335	13505.025
1903.46544	13507.525
1906.58551	13514.925
1909.70353	13478.625
1912.81953	13466.025
1915.93349	13455.825
1919.04543	13438.725
1922.15534	13383.625
1925.26322	13351.625
1928.36908	13363.425
1931.47292	13338.025
1934.57473	13328.925
1937.67453	13292.825
1940.77232	13267.525
1943.86808	13202.625
1946.96184	13173.325
1950.05358	13118.425
1953.14331	13120.925
1956.23103	13055.625
1959.31675	13036.225
1962.40046	12973.425
1965.48217	12971.725
1968.56188	12882.125
1971.63959	12871.625
1974.7153	12833.725
1977.78901	12805.725
1980.86073	12762.825
1983.93046	12732.125
1986.99819	12674.925
1990.06394	12668.425
1993.1277	12658.125
1996.18947	12596.125
1999.24925	12544.525
2002.30706	12531.125
2005.36288	12508.525
2008.41672	12443.125
2011.46859	12398.225
2014.51848	12401.625
2017.56639	12390.725
2020.61233	12333.225
2023.6563	12298.525
2026.6983	12282.525
2029.73833	12261.325
2032.7764	12246.625
2035.8125	12223.825
2038.84664	12165.425
2041.87881	12179.225
2044.90903	12133.025
2047.93729	12130.525
2050.96359	12117.125
2053.98794	12130.225
2057.01034	12097.725
2060.03078	12091.925
2063.04927	12067.225
2066.06582	12094.925
2069.08042	12061.025
2072.09307	12083.125
2075.10378	12074.825
2078.11255	12055.825
2081.11938	12062.325
2084.12426	12038.425
2087.12722	12007.825
2090.12824	12006.725
2093.12732	12004.525
2096.12447	11979.025
2099.11969	11996.225
2102.11299	11988.025
2105.10435	12015.825
2108.09379	12015.425
2111.08131	12039.325
2114.0669	12041.125
2117.05057	12048.025
2120.03233	12038.525
2123.01216	12054.825
2125.99008	12067.825
2128.96609	12093.325
2131.94018	12094.325
2134.91236	12097.625
2137.88263	12110.025
2140.851	12123.925
2143.81746	12135.225
2146.78201	12145.825
2149.74466	12145.225
2152.7054	12136.325
2155.66425	12143.325
2158.6212	12137.025
2161.57625	12127.925
2164.52941	12128.425
2167.48067	12132.125
2170.43004	12101.625
2173.37752	12107.125
2176.32311	12108.625
2179.26681	12125.425
2182.20863	12106.325
2185.14856	12095.125
2188.08661	12112.825
2191.02278	12145.325
2193.95707	12126.925
2196.88948	12109.525
2199.82001	12117.825
2202.74867	12105.525
2205.67545	12109.225
2208.60037	12087.225
2211.52341	12076.025
2214.44458	12090.725
2217.36388	12049.725
2220.28132	12052.525
2223.1969	12011.425
2226.11061	12003.225
2229.02246	11952.725
2231.93245	11940.725
2234.84058	11923.425
2237.74686	11913.825
2240.65128	11897.325
2243.55385	11879.225
2246.45456	11860.125
2249.35343	11843.125
2252.25044	11811.625
2255.14561	11816.325
2258.03893	11815.425
2260.93041	11762.225
2263.82004	11738.425
2266.70783	11707.825
2269.59378	11667.725
2272.4779	11662.825
2275.36017	11616.425
2278.24061	11607.725
2281.11922	11594.325
2283.996	11581.725
2286.87094	11563.125
2289.74405	11569.625
2292.61534	11568.625
2295.4848	11540.825
2298.35243	11535.025
2301.21824	11534.925
2304.08223	11531.525
2306.94439	11541.625
2309.80474	11544.525
2312.66327	11548.125
2315.51999	11581.325
2318.37489	11562.125
2321.22797	11548.925
2324.07925	11531.025
2326.92871	11516.625
2329.77637	11484.625
2332.62222	11489.125
2335.46626	11491.125
2338.3085	11484.225
2341.14893	11506.625
2343.98756	11472.125
2346.8244	11495.925
2349.65943	11481.625
2352.49267	11476.325
2355.32411	11500.925
2358.15376	11446.425
2360.98161	11453.525
2363.80768	11479.825
2366.63195	11417.625
2369.45444	11409.525
2372.27514	11381.625
2375.09405	11364.825
2377.91118	11341.725
2380.72652	11311.825
2383.54009	11276.225
2386.35187	11263.325
2389.16188	11230.125
2391.97011	11223.825
2394.77657	11194.725
2397.58125	11175.425
2400.38416	11187.125
2403.18529	11184.225
2405.98466	11153.225
2408.78226	11112.825
2411.57809	11130.225
2414.37216	11088.125
2417.16446	11123.725
2419.955	11068.925
2422.74378	11094.025
2425.5308	11058.725
2428.31606	11062.725
2431.09956	11064.925
2433.88131	11053.725
2436.6613	11046.925
2439.43954	11026.225
2442.21603	11043.725
2444.99077	11029.125
2447.76377	11036.025
2450.53501	10987.125
2453.30451	10997.625
2456.07226	10996.425
2458.83827	10999.625
2461.60254	10994.925
2464.36507	10983.225
2467.12586	10964.025
2469.88492	10987.025
2472.64224	10975.325
2475.39782	10996.025
2478.15167	10999.925
2480.90379	10993.225
2483.65417	11028.025
2486.40283	11009.925
2489.14976	11019.125
2491.89497	11016.925
2494.63845	11039.225
2497.3802	11022.025
2500.12024	11019.025
2502.85855	11003.325
2505.59514	11006.125
2508.33002	10948.925
2511.06318	10981.625
2513.79462	10954.825
2516.52435	10948.325
2519.25237	10936.125
2521.97867	10938.025
2524.70327	10954.925
2527.42616	10932.425
2530.14734	10912.825
2532.86681	10904.425
2535.58458	10928.225
2538.30065	10940.025
2541.01501	10927.925
2543.72768	10911.225
2546.43864	10909.325
2549.14791	10894.825
2551.85548	10873.325
2554.56136	10873.125
2557.26554	10840.025
2559.96803	10824.625
2562.66883	10797.425
2565.36794	10789.325
2568.06536	10786.725
2570.7611	10763.625
2573.45514	10743.425
2576.14751	10744.925
2578.83819	10728.125
2581.52719	10725.225
2584.21451	10730.925
2586.90015	10710.625
2589.58411	10706.425
2592.2664	10710.125
2594.94701	10705.025
2597.62594	10697.225
2600.30321	10672.625
2602.9788	10656.325
2605.65273	10624.625
2608.32498	10662.725
2610.99557	10647.825
2613.66449	10638.625
2616.33175	10656.025
2618.99734	10663.725
2621.66128	10669.025
2624.32355	10644.425
2626.98416	10663.525
2629.64311	10637.825
2632.30041	10645.825
2634.95605	10612.125
2637.61004	10615.325
2640.26238	10577.225
2642.91306	10592.625
2645.56209	10573.325
2648.20948	10579.525
2650.85521	10585.725
2653.4993	10573.025
2656.14175	10566.025
2658.78255	10582.625
2661.42171	10596.825
2664.05923	10609.025
2666.6951	10602.925
2669.32934	10590.825
2671.96194	10601.625
2674.59291	10618.925
2677.22224	10574.225
2679.84993	10573.525
2682.476	10580.125
2685.10043	10571.925
2687.72324	10554.825
2690.34441	10554.525
2692.96396	10585.625
2695.58188	10535.225
2698.19818	10547.225
2700.81285	10554.325
2703.4259	10571.225
2706.03733	10551.425
2708.64714	10563.425
2711.25533	10553.525
2713.86191	10554.525
2716.46687	10609.225
2719.07021	10582.425
2721.67194	10603.525
2724.27206	10577.625
2726.87057	10605.625
2729.46747	10588.725
2732.06276	10598.525
2734.65644	10593.725
2737.24852	10605.925
2739.83899	10587.825
2742.42786	10583.525
2745.01513	10546.325
2747.60079	10554.125
2750.18486	10529.625
2752.76733	10566.825
2755.3482	10533.225
2757.92747	10514.025
2760.50515	10535.725
2763.08123	10511.425
2765.65573	10518.225
2768.22863	10500.125
2770.79994	10499.525
2773.36967	10511.825
2775.9378	10502.025
2778.50435	10532.625
2781.06932	10519.125
2783.6327	10523.025
2786.1945	10518.825
2788.75471	10501.825
2791.31335	10478.825
2793.87041	10475.125
2796.42589	10435.925
2798.97979	10416.125
2801.53212	10422.025
2804.08288	10395.625
2806.63206	10388.225
2809.17967	10355.725
2811.72571	10329.725
2814.27018	10339.325
2816.81308	10332.625
2819.35442	10284.425
2821.89419	10265.725
2824.43239	10261.425
2826.96904	10253.025
2829.50412	10243.325
2832.03763	10265.425
2834.56959	10223.325
2837.1	10213.125
2839.62884	10237.325
2842.15613	10219.325
2844.68186	10244.025
2847.20604	10227.225
2849.72867	10248.725
2852.24974	10221.725
2854.76927	10215.625
2857.28724	10215.625
2859.80367	10179.125
2862.31855	10178.825
2864.83189	10197.425
2867.34368	10138.625
2869.85393	10127.825
2872.36264	10158.125
2874.8698	10147.025
2877.37543	10162.525
2879.87952	10134.725
2882.38207	10160.725
2884.88308	10133.225
2887.38256	10160.825
2889.88051	10134.325
2892.37692	10136.725
2894.8718	10162.725
2897.36515	10162.125
2899.85698	10175.525
2902.34727	10198.825
2904.83604	10197.125
2907.32328	10231.725
2909.809	10229.325
2912.29319	10244.625
2914.77587	10251.425
2917.25702	10231.325
2919.73665	10218.625
2922.21476	10230.525
2924.69136	10204.425
2927.16644	10221.625
2929.64	10173.225
2932.11205	10184.425
2934.58258	10161.225
2937.05161	10174.025
2939.51912	10185.525
2941.98513	10182.825
2944.44962	10157.125
2946.91261	10096.425
2949.37409	10143.425
2951.83407	10116.525
2954.29254	10112.325
2956.74951	10094.825
2959.20498	10109.125
2961.65895	10107.525
2964.11142	10109.225
2966.56239	10075.425
2969.01186	10093.025
2971.45984	10070.225
2973.90632	10067.525
2976.35131	10044.025
2978.7948	10004.125
2981.23681	10016.325
2983.67732	9978.425
2986.11635	9987.425
2988.55388	9977.125
2990.98993	9967.125
2993.4245	9938.325
2995.85758	9913.825
2998.28917	9880.625
3000.71928	9879.225
3003.14791	9874.825
3005.57506	9857.425
3008.00073	9813.425
3010.42493	9801.625
3012.84764	9792.725
3015.26888	9790.025
3017.68865	9768.525
3020.10694	9762.325
3022.52376	9743.725
3024.9391	9736.125
3027.35298	9714.925
3029.76539	9688.925
3032.17632	9721.725
3034.5858	9720.125
3036.9938	9697.525
3039.40034	9699.525
3041.80542	9711.725
3044.20903	9674.625
3046.61118	9666.225
3049.01187	9665.325
3051.4111	9647.825
3053.80888	9640.625
3056.20519	9642.525
3058.60005	9605.325
3060.99345	9626.725
3063.3854	9583.325
3065.7759	9551.425
3068.16494	9572.125
3070.55254	9535.525
3072.93868	9532.025
3075.32338	9506.825
3077.70662	9495.525
3080.08842	9456.825
3082.46878	9448.625
3084.84769	9469.625
3087.22515	9456.925
3089.60118	9441.425
3091.97576	9447.425
3094.3489	9424.425
3096.72061	9435.825
3099.09087	9442.325
3101.4597	9443.625
3103.82709	9442.225
3106.19305	9426.725
3108.55757	9453.225
3110.92066	9434.025
3113.28232	9433.025
3115.64255	9396.425
3118.00134	9396.625
3120.35871	9386.425
3122.71466	9349.925
3125.06917	9327.525
3127.42226	9326.025
3129.77393	9340.625
3132.12417	9326.725
3134.47299	9308.425
3136.82039	9322.025
