Data from AgNP_FTO_APTES_UA_10uM_CRN_0uM_R6G_10uM_NaF_0.1M_Addition_RamanShift__17__12-28-10-457.txt Node

Date: Thu Feb 10 12:28:10 GMT 2022
User: TCL
Spectrometer: QEP01345
Trigger mode: 4
Integration Time (sec): 7.000000E0
Scans to average: 10
Electric dark correction enabled: true
Nonlinearity correction enabled: false
Boxcar width: 0
XAxis mode: Raman Shifts
Number of Pixels in Spectrum: 1044
>>>>>Begin Spectral Data<<<<<
46.04893	0.375
50.45542	0.975
54.85868	-1.125
59.25871	-1.225
63.6555	58.875
68.04907	58.275
72.43941	59.475
76.82654	56.475
81.21044	68.875
85.59113	66.275
89.96862	70.375
94.34289	72.775
98.71396	73.875
103.08183	77.975
107.4465	83.275
111.80798	81.975
116.16626	83.875
120.52136	89.275
124.87327	95.075
129.222	95.875
133.56755	104.575
137.90993	108.875
142.24913	119.875
146.58517	133.075
150.91804	157.175
155.24774	183.575
159.57429	232.775
163.89768	299.775
168.21792	393.975
172.53501	543.075
176.84895	759.875
181.15975	1073.075
185.46741	1506.475
189.77193	2080.175
194.07331	2785.775
198.37157	3587.575
202.6667	4421.375
206.9587	5281.475
211.24758	6092.675
215.53334	6939.075
219.81599	7875.975
224.09553	8889.675
228.37195	10007.175
232.64527	11258.275
236.91549	12548.475
241.18261	13802.475
245.44663	14889.475
249.70755	15795.075
253.96539	16619.575
258.22014	17273.175
262.4718	17845.675
266.72039	18254.575
270.96589	18461.975
275.20832	18444.375
279.44768	18254.775
283.68397	18002.475
287.91719	17837.075
292.14735	17755.975
296.37445	17838.275
300.59849	18021.675
304.81948	18279.375
309.03742	18476.575
313.25231	18325.275
317.46415	17823.875
321.67296	17086.475
325.87872	16424.875
330.08145	16072.975
334.28114	16001.575
338.47781	16088.575
342.67145	16330.575
346.86207	16677.275
351.04966	17173.875
355.23424	17801.575
359.4158	18228.175
363.59435	18544.675
367.76989	18687.375
371.94243	18745.075
376.11196	18768.075
380.27849	18800.175
384.44203	18826.775
388.60257	18818.175
392.76012	18959.875
396.91468	19198.475
401.06626	19583.575
405.21485	19763.275
409.36047	19559.875
413.50311	19047.675
417.64277	18580.875
421.77947	18397.775
425.9132	18396.975
430.04396	18426.575
434.17176	18470.775
438.2966	18559.275
442.41849	18877.875
446.53742	19390.475
450.6534	19918.175
454.76644	20283.475
458.87653	20400.975
462.98368	20215.575
467.08789	19937.775
471.18916	19585.375
475.2875	19224.275
479.38291	19045.375
483.4754	18979.475
487.56496	18855.575
491.6516	18614.275
495.73531	18412.175
499.81612	18301.375
503.89401	18439.175
507.96899	18525.275
512.04106	18547.975
516.11023	18527.975
520.1765	18439.575
524.23987	18293.975
528.30034	18106.475
532.35792	17846.375
536.41261	17505.675
540.46441	17200.875
544.51333	17071.875
548.55936	17255.675
552.60252	17687.375
556.64279	18174.175
560.6802	18482.775
564.71473	18660.375
568.7464	19060.575
572.7752	19601.175
576.80114	19854.275
580.82422	20065.475
584.84444	20433.975
588.86181	20742.475
592.87633	21011.975
596.888	21124.175
600.89682	21023.075
604.9028	21940.075
608.90594	25000.175
612.90624	28759.975
616.90371	27165.975
620.89834	21193.475
624.89015	18403.875
628.87913	17990.075
632.86528	18085.075
636.84862	18039.775
640.82913	17723.375
644.80683	17140.575
648.78172	16650.675
652.75379	16515.475
656.72306	16815.975
660.68952	17301.175
664.65319	17182.675
668.61405	16671.075
672.57211	16413.875
676.52738	16436.775
680.47986	16447.375
684.42955	16362.175
688.37646	16236.375
692.32058	16313.375
696.26192	16514.175
700.20048	16726.375
704.13626	16873.475
708.06928	16884.575
711.99952	16740.975
715.927	16641.575
719.85171	16680.375
723.77365	16619.775
727.69284	16394.675
731.60928	16193.975
735.52295	16136.675
739.43388	16124.775
743.34206	16217.075
747.24749	16284.775
751.15017	16466.675
755.05012	16747.875
758.94733	17359.875
762.8418	18553.075
766.73354	20686.875
770.62254	22845.975
774.50882	23620.875
778.39237	22417.775
782.27321	20266.075
786.15132	18338.375
790.02671	17133.675
793.89938	16553.275
797.76935	16349.775
801.6366	16249.575
805.50115	16189.375
809.36299	16006.275
813.22213	15822.275
817.07857	15710.575
820.93231	15608.675
824.78336	15584.075
828.63172	15544.275
832.47738	15534.875
836.32036	15532.575
840.16066	15586.975
843.99827	15648.375
847.8332	15631.475
851.66546	15571.075
855.49504	15535.975
859.32195	15531.075
863.1462	15481.775
866.96777	15399.175
870.78668	15351.575
874.60293	15343.575
878.41652	15328.875
882.22745	15412.075
886.03573	15510.175
889.84136	15500.575
893.64433	15504.075
897.44466	15467.475
901.24235	15404.075
905.0374	15334.375
908.8298	15212.775
912.61957	15208.075
916.40671	15304.675
920.19121	15539.375
923.97308	15836.875
927.75233	16068.475
931.52895	16060.075
935.30295	15848.375
939.07433	15390.375
942.84309	14934.675
946.60924	14750.375
950.37278	14684.175
954.13371	14603.675
957.89203	14536.475
961.64774	14460.775
965.40086	14424.175
969.15137	14358.475
972.89929	14244.975
976.64461	14230.975
980.38733	14218.575
984.12747	14294.475
987.86502	14422.675
991.59999	14619.375
995.33237	14954.375
999.06217	15537.775
1002.78939	16196.875
1006.51404	16611.375
1010.23611	16843.375
1013.95561	17004.075
1017.67255	17029.275
1021.38692	16762.375
1025.09872	16538.675
1028.80796	16593.575
1032.51465	17093.975
1036.21877	17583.075
1039.92035	17660.975
1043.61937	17321.775
1047.31584	16819.375
1051.00976	16319.675
1054.70114	16096.075
1058.38998	16051.475
1062.07627	16107.875
1065.76003	16127.575
1069.44126	16210.875
1073.11995	16505.875
1076.79611	16820.775
1080.46974	17053.775
1084.14085	17288.775
1087.80943	17617.675
1091.47549	17873.275
1095.13903	17781.775
1098.80005	17420.975
1102.45857	16841.375
1106.11456	16461.675
1109.76805	16363.575
1113.41903	16472.075
1117.06751	16605.575
1120.71348	16898.675
1124.35696	17238.675
1127.99793	17670.475
1131.63641	17859.875
1135.2724	17631.775
1138.90589	17330.075
1142.5369	17104.075
1146.16542	16943.875
1149.79145	16889.175
1153.415	16955.375
1157.03607	17143.975
1160.65467	17676.375
1164.27079	18500.975
1167.88443	19732.275
1171.49561	21380.475
1175.10432	23680.275
1178.71056	26586.675
1182.31434	29314.675
1185.91565	30757.475
1189.51451	30536.875
1193.11091	29211.875
1196.70485	27192.775
1200.29634	25304.575
1203.88538	23873.775
1207.47197	22788.875
1211.05612	21959.175
1214.63782	21418.875
1218.21708	21145.775
1221.79391	21155.175
1225.36829	21257.875
1228.94024	21205.375
1232.50976	20789.775
1236.07685	20387.375
1239.6415	20123.475
1243.20374	19898.975
1246.76355	19929.775
1250.32093	20209.175
1253.8759	20740.775
1257.42845	21512.775
1260.97859	22357.575
1264.52631	23289.775
1268.07163	24250.575
1271.61453	25266.675
1275.15503	26176.375
1278.69312	27049.675
1282.22882	27777.375
1285.76211	28385.575
1289.29301	28930.175
1292.82151	29763.575
1296.34761	30875.275
1299.87133	32533.875
1303.39266	34826.475
1306.9116	37780.575
1310.42815	41044.975
1313.94233	43259.075
1317.45412	43412.375
1320.96354	42021.375
1324.47058	40389.475
1327.97525	39048.075
1331.47754	37902.475
1334.97747	37188.275
1338.47502	36719.975
1341.97022	36379.175
1345.46305	35993.075
1348.95352	35771.875
1352.44163	36038.875
1355.92738	37260.675
1359.41078	39853.775
1362.89183	42626.075
1366.37053	42319.575
1369.84688	38099.875
1373.32088	32860.475
1376.79254	29132.975
1380.26186	27434.175
1383.72883	26754.575
1387.19347	26261.575
1390.65578	25683.075
1394.11575	25479.975
1397.57339	25749.575
1401.0287	26293.375
1404.48168	26855.075
1407.93234	26942.275
1411.38068	26657.975
1414.82669	25913.775
1418.27039	24965.175
1421.71177	24033.875
1425.15083	23154.175
1428.58758	22683.675
1432.02203	22760.875
1435.45416	23224.675
1438.88399	23765.775
1442.31151	24263.375
1445.73673	24652.275
1449.15965	25085.775
1452.58027	25322.775
1455.9986	25431.475
1459.41463	25692.475
1462.82837	26217.375
1466.23982	26880.975
1469.64898	27461.275
1473.05586	27750.475
1476.46045	27702.375
1479.86276	27483.775
1483.26279	27223.875
1486.66054	27246.275
1490.05602	27459.075
1493.44922	27958.775
1496.84016	28678.075
1500.22882	29832.275
1503.61521	31648.875
1506.99934	33914.975
1510.38121	35936.575
1513.76081	36625.575
1517.13816	35297.575
1520.51324	32637.375
1523.88607	30054.575
1527.25665	28285.875
1530.62498	27229.375
1533.99105	26634.375
1537.35488	26225.475
1540.71647	25804.475
1544.07581	25360.375
1547.4329	24909.975
1550.78776	24592.175
1554.14038	24392.875
1557.49077	24276.575
1560.83892	24313.475
1564.18484	24471.275
1567.52853	24709.975
1570.86999	25021.275
1574.20922	25353.375
1577.54624	25529.875
1580.88103	25160.175
1584.2136	24737.975
1587.54395	24946.975
1590.87208	26096.775
1594.19801	28118.275
1597.52172	30324.175
1600.84321	31092.875
1604.16251	29614.475
1607.47959	27108.275
1610.79447	24496.575
1614.10715	22054.075
1617.41763	20124.775
1620.7259	18776.075
1624.03199	18118.775
1627.33587	18133.975
1630.63757	18825.675
1633.93707	20247.875
1637.23439	22529.075
1640.52951	25727.875
1643.82246	29355.375
1647.11321	32430.075
1650.40179	33421.975
1653.68819	31425.975
1656.97241	27031.075
1660.25446	22425.475
1663.53433	18996.975
1666.81203	16792.575
1670.08756	15426.475
1673.36092	14612.275
1676.63211	14095.375
1679.90115	13734.675
1683.16801	13483.475
1686.43272	13288.175
1689.69527	13164.475
1692.95567	13003.375
1696.2139	12946.475
1699.46999	12905.975
1702.72392	12873.075
1705.97571	12830.575
1709.22535	12817.175
1712.47284	12759.475
1715.71819	12720.975
1718.96139	12685.475
1722.20246	12657.575
1725.44139	12534.975
1728.67818	12451.675
1731.91284	12348.475
1735.14537	12253.075
1738.37576	12207.075
1741.60403	12149.375
1744.83017	12135.275
1748.05418	12073.275
1751.27607	12019.475
1754.49584	11990.875
1757.71349	11968.775
1760.92903	11953.875
1764.14244	11967.675
1767.35375	11951.675
1770.56294	11904.075
1773.77002	11869.975
1776.97499	11860.575
1780.17785	11823.375
1783.37861	11810.875
1786.57727	11790.175
1789.77382	11734.575
1792.96828	11736.675
1796.16064	11703.675
1799.3509	11682.675
1802.53907	11649.275
1805.72514	11622.175
1808.90913	11581.675
1812.09102	11545.175
1815.27083	11543.775
1818.44856	11519.175
1821.6242	11477.375
1824.79776	11478.275
1827.96924	11477.075
1831.13864	11492.575
1834.30597	11502.175
1837.47122	11516.775
1840.6344	11529.275
1843.7955	11550.975
1846.95454	11542.675
1850.11151	11536.575
1853.26642	11553.475
1856.41926	11566.975
1859.57004	11568.275
1862.71876	11556.075
1865.86542	11547.375
1869.01003	11534.275
1872.15258	11520.775
1875.29308	11525.975
1878.43152	11529.475
1881.56792	11541.175
1884.70227	11542.075
1887.83457	11509.675
1890.96482	11488.975
1894.09304	11483.375
1897.21921	11480.875
1900.34335	11470.975
1903.46544	11473.175
1906.58551	11433.675
1909.70353	11416.875
1912.81953	11399.675
1915.93349	11368.875
1919.04543	11308.775
1922.15534	11252.575
1925.26322	11230.675
1928.36908	11149.175
1931.47292	11116.875
1934.57473	11074.675
1937.67453	11030.675
1940.77232	10979.675
1943.86808	10926.675
1946.96184	10862.675
1950.05358	10821.475
1953.14331	10780.575
1956.23103	10732.075
1959.31675	10716.475
1962.40046	10679.675
1965.48217	10668.775
1968.56188	10639.775
1971.63959	10597.275
1974.7153	10571.175
1977.78901	10569.975
1980.86073	10499.875
1983.93046	10437.475
1986.99819	10404.075
1990.06394	10398.675
1993.1277	10382.775
1996.18947	10323.075
1999.24925	10308.775
2002.30706	10254.475
2005.36288	10240.975
2008.41672	10213.375
2011.46859	10180.875
2014.51848	10136.975
2017.56639	10114.375
2020.61233	10117.775
2023.6563	10092.375
2026.6983	10070.175
2029.73833	10051.375
2032.7764	10013.575
2035.8125	10032.575
2038.84664	9982.475
2041.87881	9959.475
2044.90903	9956.075
2047.93729	9947.575
2050.96359	9961.975
2053.98794	9924.675
2057.01034	9899.775
2060.03078	9908.975
2063.04927	9898.075
2066.06582	9878.575
2069.08042	9891.975
2072.09307	9862.975
2075.10378	9843.175
2078.11255	9844.875
2081.11938	9832.275
2084.12426	9819.475
2087.12722	9829.675
2090.12824	9813.475
2093.12732	9822.375
2096.12447	9830.675
2099.11969	9827.275
2102.11299	9820.075
2105.10435	9818.675
2108.09379	9845.975
2111.08131	9826.575
2114.0669	9823.475
2117.05057	9839.675
2120.03233	9857.575
2123.01216	9861.175
2125.99008	9869.275
2128.96609	9841.575
2131.94018	9867.975
2134.91236	9858.475
2137.88263	9869.475
2140.851	9873.675
2143.81746	9869.075
2146.78201	9871.775
2149.74466	9865.275
2152.7054	9863.675
2155.66425	9853.475
2158.6212	9876.975
2161.57625	9841.075
2164.52941	9845.075
2167.48067	9838.075
2170.43004	9855.375
2173.37752	9825.775
2176.32311	9857.975
2179.26681	9843.675
2182.20863	9830.175
2185.14856	9842.675
2188.08661	9825.775
2191.02278	9840.975
2193.95707	9826.875
2196.88948	9819.375
2199.82001	9845.075
2202.74867	9806.175
2205.67545	9792.175
2208.60037	9822.875
2211.52341	9799.175
2214.44458	9783.975
2217.36388	9783.175
2220.28132	9788.375
2223.1969	9751.575
2226.11061	9732.475
2229.02246	9726.075
2231.93245	9684.375
2234.84058	9659.475
2237.74686	9656.375
2240.65128	9657.675
2243.55385	9609.075
2246.45456	9574.875
2249.35343	9587.475
2252.25044	9556.975
2255.14561	9571.675
2258.03893	9580.975
2260.93041	9545.975
2263.82004	9509.575
2266.70783	9500.475
2269.59378	9466.375
2272.4779	9455.075
2275.36017	9414.875
2278.24061	9420.375
2281.11922	9390.375
2283.996	9392.375
2286.87094	9374.375
2289.74405	9363.775
2292.61534	9350.075
2295.4848	9355.775
2298.35243	9350.275
2301.21824	9347.975
2304.08223	9344.075
2306.94439	9369.075
2309.80474	9365.275
2312.66327	9388.575
2315.51999	9371.575
2318.37489	9360.175
2321.22797	9355.975
2324.07925	9346.575
2326.92871	9329.075
2329.77637	9336.475
2332.62222	9360.875
2335.46626	9328.875
2338.3085	9324.475
2341.14893	9337.175
2343.98756	9379.275
2346.8244	9376.375
2349.65943	9365.775
2352.49267	9396.075
2355.32411	9386.375
2358.15376	9395.475
2360.98161	9379.275
2363.80768	9388.975
2366.63195	9377.675
2369.45444	9352.875
2372.27514	9298.775
2375.09405	9299.275
2377.91118	9292.975
2380.72652	9254.375
2383.54009	9228.875
2386.35187	9207.375
2389.16188	9156.675
2391.97011	9153.475
2394.77657	9132.975
2397.58125	9117.075
2400.38416	9108.375
2403.18529	9093.375
2405.98466	9077.175
2408.78226	9054.375
2411.57809	9025.675
2414.37216	8996.675
2417.16446	9000.775
2419.955	9000.175
2422.74378	8965.475
2425.5308	8970.675
2428.31606	8976.775
2431.09956	8996.875
2433.88131	8977.575
2436.6613	8970.375
2439.43954	9006.375
2442.21603	8970.375
2444.99077	8954.775
2447.76377	8969.775
2450.53501	8968.975
2453.30451	8978.875
2456.07226	8950.975
2458.83827	8972.375
2461.60254	8975.075
2464.36507	8956.075
2467.12586	8966.675
2469.88492	8954.375
2472.64224	8977.075
2475.39782	9000.575
2478.15167	9003.875
2480.90379	9028.075
2483.65417	9036.275
2486.40283	9022.975
2489.14976	9046.375
2491.89497	9045.175
2494.63845	9026.175
2497.3802	9032.275
2500.12024	9035.075
2502.85855	9030.675
2505.59514	9012.275
2508.33002	9000.075
2511.06318	8997.075
2513.79462	8972.175
2516.52435	8946.975
2519.25237	8959.875
2521.97867	8936.075
2524.70327	8937.475
2527.42616	8893.975
2530.14734	8923.575
2532.86681	8903.075
2535.58458	8909.275
2538.30065	8925.375
2541.01501	8927.475
2543.72768	8927.875
2546.43864	8905.075
2549.14791	8908.775
2551.85548	8885.275
2554.56136	8911.275
2557.26554	8879.975
2559.96803	8854.575
2562.66883	8852.875
2565.36794	8844.575
2568.06536	8869.275
2570.7611	8821.575
2573.45514	8825.875
2576.14751	8825.275
2578.83819	8807.075
2581.52719	8800.275
2584.21451	8807.275
2586.90015	8797.375
2589.58411	8801.575
2592.2664	8805.475
2594.94701	8794.975
2597.62594	8807.275
2600.30321	8791.175
2602.9788	8806.275
2605.65273	8770.575
2608.32498	8803.375
2610.99557	8786.775
2613.66449	8786.075
2616.33175	8754.775
2618.99734	8777.375
2621.66128	8782.575
2624.32355	8799.675
2626.98416	8800.175
2629.64311	8787.575
2632.30041	8780.975
2634.95605	8760.375
2637.61004	8741.275
2640.26238	8746.775
2642.91306	8739.975
2645.56209	8730.675
2648.20948	8716.075
2650.85521	8719.175
2653.4993	8716.175
2656.14175	8741.875
2658.78255	8730.675
2661.42171	8756.475
2664.05923	8724.375
2666.6951	8772.775
2669.32934	8775.975
2671.96194	8769.675
2674.59291	8758.875
2677.22224	8756.975
2679.84993	8751.475
2682.476	8741.575
2685.10043	8741.775
2687.72324	8707.175
2690.34441	8684.475
2692.96396	8692.475
2695.58188	8690.175
2698.19818	8665.075
2700.81285	8673.275
2703.4259	8662.175
2706.03733	8647.975
2708.64714	8655.175
2711.25533	8688.875
2713.86191	8664.075
2716.46687	8675.275
2719.07021	8706.675
2721.67194	8738.175
2724.27206	8730.775
2726.87057	8724.275
2729.46747	8722.975
2732.06276	8754.575
2734.65644	8759.775
2737.24852	8719.675
2739.83899	8721.075
2742.42786	8718.175
2745.01513	8712.975
2747.60079	8703.875
2750.18486	8687.275
2752.76733	8699.775
2755.3482	8657.375
2757.92747	8667.375
2760.50515	8640.675
2763.08123	8676.775
2765.65573	8634.575
2768.22863	8646.975
2770.79994	8644.775
2773.36967	8639.675
2775.9378	8663.975
2778.50435	8633.575
2781.06932	8652.775
2783.6327	8647.375
2786.1945	8672.975
2788.75471	8652.775
2791.31335	8642.175
2793.87041	8617.675
2796.42589	8612.575
2798.97979	8599.575
2801.53212	8604.675
2804.08288	8571.975
2806.63206	8553.975
2809.17967	8559.775
2811.72571	8527.575
2814.27018	8517.375
2816.81308	8506.475
2819.35442	8501.275
2821.89419	8481.075
2824.43239	8498.775
2826.96904	8500.375
2829.50412	8487.675
2832.03763	8469.575
2834.56959	8466.675
2837.1	8462.175
2839.62884	8462.975
2842.15613	8472.075
2844.68186	8512.175
2847.20604	8512.975
2849.72867	8515.175
2852.24974	8490.075
2854.76927	8517.375
2857.28724	8470.375
2859.80367	8472.275
2862.31855	8474.375
2864.83189	8493.575
2867.34368	8479.775
2869.85393	8481.775
2872.36264	8474.775
2874.8698	8491.375
2877.37543	8488.075
2879.87952	8498.375
2882.38207	8516.475
2884.88308	8482.375
2887.38256	8484.575
2889.88051	8486.175
2892.37692	8495.775
2894.8718	8510.475
2897.36515	8503.475
2899.85698	8505.475
2902.34727	8547.975
2904.83604	8561.875
2907.32328	8559.675
2909.809	8563.875
2912.29319	8569.675
2914.77587	8565.175
2917.25702	8566.175
2919.73665	8565.775
2922.21476	8571.975
2924.69136	8542.775
2927.16644	8571.975
2929.64	8522.075
2932.11205	8483.675
2934.58258	8446.575
2937.05161	8450.475
2939.51912	8472.875
2941.98513	8428.175
2944.44962	8420.875
2946.91261	8386.775
2949.37409	8372.475
2951.83407	8357.175
2954.29254	8382.175
2956.74951	8381.875
2959.20498	8365.575
2961.65895	8368.075
2964.11142	8370.775
2966.56239	8330.075
2969.01186	8320.775
2971.45984	8287.475
2973.90632	8258.075
2976.35131	8247.475
2978.7948	8221.575
2981.23681	8203.475
2983.67732	8179.975
2986.11635	8164.975
2988.55388	8127.175
2990.98993	8126.075
2993.4245	8128.675
2995.85758	8100.875
2998.28917	8088.775
3000.71928	8077.175
3003.14791	8046.575
3005.57506	8036.175
3008.00073	8014.675
3010.42493	8027.475
3012.84764	7997.175
3015.26888	7979.075
3017.68865	7955.075
3020.10694	7939.575
3022.52376	7917.375
3024.9391	7939.775
3027.35298	7935.275
3029.76539	7913.775
3032.17632	7900.975
3034.5858	7937.275
3036.9938	7920.875
3039.40034	7890.275
3041.80542	7914.075
3044.20903	7899.075
3046.61118	7894.775
3049.01187	7881.975
3051.4111	7853.875
3053.80888	7821.975
3056.20519	7809.075
3058.60005	7792.575
3060.99345	7802.775
3063.3854	7788.075
3065.7759	7750.075
3068.16494	7766.075
3070.55254	7738.675
3072.93868	7720.375
3075.32338	7702.475
3077.70662	7672.675
3080.08842	7676.775
3082.46878	7655.275
3084.84769	7648.075
3087.22515	7641.275
3089.60118	7647.075
3091.97576	7661.475
3094.3489	7650.775
3096.72061	7663.775
3099.09087	7660.675
3101.4597	7650.075
3103.82709	7656.175
3106.19305	7647.275
3108.55757	7635.675
3110.92066	7613.975
3113.28232	7610.675
3115.64255	7612.075
3118.00134	7583.475
3120.35871	7593.075
3122.71466	7564.275
3125.06917	7549.075
3127.42226	7543.675
3129.77393	7550.675
3132.12417	7522.675
3134.47299	7531.675
3136.82039	7534.375
3139.16636	7535.675
3141.51092	7538.775
3143.85406	7520.275
3146.19579	7515.975
3148.53609	7538.975
3150.87499	7550.075
3153.21246	7545.675
3155.54853	7558.075
3157.88318	7551.475
3160.21642	7555.175
3162.54826	7556.775
3164.87868	7592.575
3167.2077	7573.175
3169.5353	7590.675
3171.86151	7593.175
3174.18631	7595.175
3176.5097	7584.675
