Data from AgNP_FTO_APTES_UA_10uM_CRN_500uM_R6G_10uM_NaF_0.1M_Addition_RamanShift__18__19-01-20-950.txt Node

Date: Thu Feb 10 19:01:20 GMT 2022
User: TCL
Spectrometer: QEP01345
Trigger mode: 4
Integration Time (sec): 7.000000E0
Scans to average: 10
Electric dark correction enabled: true
Nonlinearity correction enabled: false
Boxcar width: 0
XAxis mode: Raman Shifts
Number of Pixels in Spectrum: 1044
>>>>>Begin Spectral Data<<<<<
46.04893	-0.075
50.45542	-1.275
54.85868	-1.475
59.25871	0.125
63.6555	58.025
68.04907	57.625
72.43941	64.325
76.82654	60.225
81.21044	67.425
85.59113	66.725
89.96862	70.225
94.34289	72.825
98.71396	78.725
103.08183	79.325
107.4465	80.525
111.80798	80.825
116.16626	83.725
120.52136	85.225
124.87327	94.425
129.222	95.225
133.56755	102.725
137.90993	107.625
142.24913	114.725
146.58517	128.425
150.91804	150.625
155.24774	177.225
159.57429	218.825
163.89768	280.625
168.21792	369.525
172.53501	507.425
176.84895	700.925
181.15975	996.125
185.46741	1391.325
189.77193	1943.625
194.07331	2589.125
198.37157	3340.925
202.6667	4134.425
206.9587	4921.425
211.24758	5684.225
215.53334	6444.125
219.81599	7255.425
224.09553	8107.325
228.37195	9064.725
232.64527	10142.925
236.91549	11269.225
241.18261	12413.725
245.44663	13507.325
249.70755	14531.025
253.96539	15425.825
258.22014	16157.125
262.4718	16751.525
266.72039	17218.425
270.96589	17488.025
275.20832	17544.925
279.44768	17475.525
283.68397	17344.925
287.91719	17167.025
292.14735	17073.825
296.37445	17053.725
300.59849	17049.525
304.81948	17033.225
309.03742	16937.825
313.25231	16739.525
317.46415	16399.325
321.67296	16073.625
325.87872	15781.125
330.08145	15642.325
334.28114	15675.725
338.47781	15773.125
342.67145	15928.225
346.86207	16154.125
351.04966	16434.525
355.23424	16663.825
359.4158	16932.825
363.59435	17128.825
367.76989	17286.625
371.94243	17414.925
376.11196	17544.825
380.27849	17652.525
384.44203	17804.625
388.60257	17866.025
392.76012	18031.325
396.91468	18189.525
401.06626	18380.525
405.21485	18507.025
409.36047	18495.825
413.50311	18338.625
417.64277	18199.925
421.77947	18195.725
425.9132	18264.325
430.04396	18407.225
434.17176	18524.125
438.2966	18717.825
442.41849	18960.325
446.53742	19361.325
450.6534	19759.925
454.76644	20134.825
458.87653	20294.925
462.98368	20254.225
467.08789	20146.425
471.18916	19993.725
475.2875	19911.725
479.38291	19910.325
483.4754	19865.425
487.56496	19660.725
491.6516	19385.125
495.73531	19074.525
499.81612	18867.125
503.89401	18880.025
507.96899	18957.725
512.04106	18920.625
516.11023	18894.725
520.1765	18749.125
524.23987	18670.525
528.30034	18555.025
532.35792	18420.725
536.41261	18315.025
540.46441	18208.725
544.51333	18222.725
548.55936	18380.125
552.60252	18659.725
556.64279	19043.325
560.6802	19280.825
564.71473	19471.725
568.7464	19728.925
572.7752	20132.425
576.80114	20396.825
580.82422	20527.125
584.84444	20592.925
588.86181	20774.825
592.87633	20994.125
596.888	21005.625
600.89682	20807.025
604.9028	21013.225
608.90594	22038.225
612.90624	23270.925
616.90371	22373.325
620.89834	19794.225
624.89015	18648.625
628.87913	18528.225
632.86528	18587.225
636.84862	18597.425
640.82913	18474.025
644.80683	18197.025
648.78172	17984.025
652.75379	17923.625
656.72306	18055.625
660.68952	18229.425
664.65319	18169.925
668.61405	17952.825
672.57211	17929.825
676.52738	17967.625
680.47986	18046.225
684.42955	17978.625
688.37646	17915.725
692.32058	17986.025
696.26192	18070.325
700.20048	18189.325
704.13626	18289.125
708.06928	18307.425
711.99952	18237.525
715.927	18210.925
719.85171	18158.325
723.77365	18186.025
727.69284	18068.525
731.60928	17938.125
735.52295	17912.925
739.43388	17897.325
743.34206	17897.125
747.24749	17962.925
751.15017	18032.825
755.05012	18216.825
758.94733	18550.525
762.8418	19188.425
766.73354	20086.525
770.62254	21034.025
774.50882	21278.325
778.39237	20640.325
782.27321	19558.225
786.15132	18658.225
790.02671	18112.425
793.89938	17861.325
797.76935	17752.525
801.6366	17712.925
805.50115	17706.225
809.36299	17667.025
813.22213	17565.825
817.07857	17531.825
820.93231	17514.425
824.78336	17463.625
828.63172	17425.025
832.47738	17399.525
836.32036	17345.425
840.16066	17379.825
843.99827	17362.925
847.8332	17393.425
851.66546	17358.125
855.49504	17350.925
859.32195	17346.025
863.1462	17337.925
866.96777	17333.125
870.78668	17320.725
874.60293	17321.725
878.41652	17298.225
882.22745	17314.125
886.03573	17333.725
889.84136	17341.025
893.64433	17307.525
897.44466	17283.825
901.24235	17213.925
905.0374	17174.625
908.8298	17109.925
912.61957	17093.925
916.40671	17183.325
920.19121	17311.525
923.97308	17417.925
927.75233	17378.725
931.52895	17284.625
935.30295	17189.625
939.07433	16960.125
942.84309	16786.625
946.60924	16693.225
950.37278	16663.025
954.13371	16623.425
957.89203	16562.825
961.64774	16543.925
965.40086	16514.725
969.15137	16443.525
972.89929	16423.925
976.64461	16349.425
980.38733	16337.125
984.12747	16346.225
987.86502	16407.825
991.59999	16495.125
995.33237	16667.325
999.06217	16921.725
1002.78939	17186.425
1006.51404	17355.325
1010.23611	17448.125
1013.95561	17540.425
1017.67255	17598.425
1021.38692	17467.625
1025.09872	17343.325
1028.80796	17310.025
1032.51465	17448.125
1036.21877	17597.225
1039.92035	17630.925
1043.61937	17520.525
1047.31584	17384.025
1051.00976	17247.625
1054.70114	17258.925
1058.38998	17286.725
1062.07627	17378.325
1065.76003	17452.025
1069.44126	17528.925
1073.11995	17583.425
1076.79611	17709.625
1080.46974	17754.325
1084.14085	17815.325
1087.80943	17993.425
1091.47549	18088.825
1095.13903	18137.925
1098.80005	18056.125
1102.45857	17801.125
1106.11456	17643.525
1109.76805	17586.325
1113.41903	17632.325
1117.06751	17722.025
1120.71348	17887.425
1124.35696	18002.625
1127.99793	18152.725
1131.63641	18289.925
1135.2724	18179.625
1138.90589	18036.225
1142.5369	17995.525
1146.16542	18033.925
1149.79145	18105.025
1153.415	18259.325
1157.03607	18461.425
1160.65467	18818.225
1164.27079	19433.225
1167.88443	20169.425
1171.49561	21044.725
1175.10432	22109.225
1178.71056	23501.925
1182.31434	24830.825
1185.91565	25569.625
1189.51451	25597.225
1193.11091	25162.525
1196.70485	24460.325
1200.29634	23678.925
1203.88538	23086.625
1207.47197	22662.125
1211.05612	22210.925
1214.63782	21847.925
1218.21708	21510.325
1221.79391	21255.125
1225.36829	21035.825
1228.94024	20797.625
1232.50976	20433.525
1236.07685	20187.025
1239.6415	20102.525
1243.20374	20111.425
1246.76355	20211.125
1250.32093	20410.225
1253.8759	20650.225
1257.42845	21039.525
1260.97859	21435.225
1264.52631	21875.425
1268.07163	22250.225
1271.61453	22671.025
1275.15503	23116.225
1278.69312	23662.425
1282.22882	24124.425
1285.76211	24628.225
1289.29301	25233.425
1292.82151	26070.925
1296.34761	27214.225
1299.87133	28544.925
1303.39266	29940.425
1306.9116	31358.325
1310.42815	32599.725
1313.94233	33438.625
1317.45412	33464.425
1320.96354	33068.125
1324.47058	32561.525
1327.97525	32164.725
1331.47754	31882.325
1334.97747	31738.325
1338.47502	31733.925
1341.97022	31621.925
1345.46305	31371.325
1348.95352	31021.225
1352.44163	30699.925
1355.92738	30736.925
1359.41078	31256.625
1362.89183	31821.725
1366.37053	31336.725
1369.84688	29250.425
1373.32088	26793.925
1376.79254	25188.125
1380.26186	24597.125
1383.72883	24581.025
1387.19347	24755.325
1390.65578	24809.525
1394.11575	24905.025
1397.57339	25221.725
1401.0287	25619.125
1404.48168	25958.325
1407.93234	25913.225
1411.38068	25458.125
1414.82669	24687.325
1418.27039	23746.625
1421.71177	22809.525
1425.15083	22036.125
1428.58758	21572.125
1432.02203	21559.925
1435.45416	21949.425
1438.88399	22438.925
1442.31151	22914.925
1445.73673	23305.625
1449.15965	23692.325
1452.58027	23978.025
1455.9986	24160.925
1459.41463	24320.225
1462.82837	24517.425
1466.23982	24728.625
1469.64898	24925.325
1473.05586	25003.825
1476.46045	24907.125
1479.86276	24628.025
1483.26279	24384.525
1486.66054	24150.125
1490.05602	24064.725
1493.44922	24080.325
1496.84016	24168.725
1500.22882	24474.225
1503.61521	24965.425
1506.99934	25751.925
1510.38121	26450.325
1513.76081	26719.425
1517.13816	26313.125
1520.51324	25578.125
1523.88607	24880.825
1527.25665	24588.825
1530.62498	24459.025
1533.99105	24529.225
1537.35488	24433.925
1540.71647	24261.625
1544.07581	23948.625
1547.4329	23529.725
1550.78776	23114.125
1554.14038	22845.525
1557.49077	22717.725
1560.83892	22617.825
1564.18484	22610.625
1567.52853	22647.325
1570.86999	22791.425
1574.20922	23090.125
1577.54624	23414.325
1580.88103	23577.025
1584.2136	23734.425
1587.54395	24183.425
1590.87208	24923.025
1594.19801	25968.425
1597.52172	26944.325
1600.84321	27289.225
1604.16251	26513.525
1607.47959	24995.125
1610.79447	23299.325
1614.10715	21672.225
1617.41763	20322.625
1620.7259	19365.625
1624.03199	18812.925
1627.33587	18720.525
1630.63757	19087.025
1633.93707	19939.425
1637.23439	21341.125
1640.52951	23338.325
1643.82246	25605.625
1647.11321	27362.325
1650.40179	27711.625
1653.68819	26254.825
1656.97241	23601.425
1660.25446	20872.425
1663.53433	18808.425
1666.81203	17447.325
1670.08756	16577.025
1673.36092	16000.825
1676.63211	15613.025
1679.90115	15360.925
1683.16801	15151.625
1686.43272	15004.825
1689.69527	14869.725
1692.95567	14763.525
1696.2139	14751.425
1699.46999	14687.925
1702.72392	14653.425
1705.97571	14592.025
1709.22535	14515.525
1712.47284	14494.025
1715.71819	14501.325
1718.96139	14450.325
1722.20246	14395.125
1725.44139	14356.625
1728.67818	14271.625
1731.91284	14217.725
1735.14537	14147.825
1738.37576	14078.925
1741.60403	14043.225
1744.83017	13998.225
1748.05418	14005.225
1751.27607	14004.825
1754.49584	13970.225
1757.71349	13951.125
1760.92903	13967.825
1764.14244	13928.725
1767.35375	13920.025
1770.56294	13881.925
1773.77002	13842.125
1776.97499	13806.125
1780.17785	13767.525
1783.37861	13730.525
1786.57727	13707.825
1789.77382	13649.825
1792.96828	13643.825
1796.16064	13604.025
1799.3509	13571.125
1802.53907	13555.025
1805.72514	13525.325
1808.90913	13519.925
1812.09102	13476.325
1815.27083	13461.425
1818.44856	13401.325
1821.6242	13377.125
1824.79776	13355.425
1827.96924	13368.625
1831.13864	13323.525
1834.30597	13298.125
1837.47122	13285.525
1840.6344	13277.625
1843.7955	13311.325
1846.95454	13293.025
1850.11151	13281.825
1853.26642	13266.325
1856.41926	13260.225
1859.57004	13221.725
1862.71876	13218.325
1865.86542	13202.025
1869.01003	13199.125
1872.15258	13183.025
1875.29308	13162.625
1878.43152	13182.425
1881.56792	13156.025
1884.70227	13122.725
1887.83457	13108.825
1890.96482	13099.125
1894.09304	13066.525
1897.21921	13042.725
1900.34335	13061.725
1903.46544	13051.225
1906.58551	13033.925
1909.70353	13001.825
1912.81953	12972.725
1915.93349	12949.225
1919.04543	12943.325
1922.15534	12913.125
1925.26322	12885.225
1928.36908	12853.025
1931.47292	12855.325
1934.57473	12807.625
1937.67453	12790.525
1940.77232	12729.925
1943.86808	12706.125
1946.96184	12666.225
1950.05358	12626.425
1953.14331	12580.425
1956.23103	12571.125
1959.31675	12528.625
1962.40046	12511.525
1965.48217	12465.725
1968.56188	12446.425
1971.63959	12363.525
1974.7153	12351.825
1977.78901	12307.325
1980.86073	12267.425
1983.93046	12244.625
1986.99819	12183.225
1990.06394	12155.625
1993.1277	12135.625
1996.18947	12060.325
1999.24925	12045.425
2002.30706	11999.125
2005.36288	11964.525
2008.41672	11928.725
2011.46859	11907.025
2014.51848	11898.125
2017.56639	11870.625
2020.61233	11843.325
2023.6563	11778.725
2026.6983	11747.125
2029.73833	11740.025
2032.7764	11716.425
2035.8125	11728.825
2038.84664	11668.525
2041.87881	11584.125
2044.90903	11613.325
2047.93729	11591.225
2050.96359	11564.725
2053.98794	11541.225
2057.01034	11525.325
2060.03078	11531.925
2063.04927	11516.325
2066.06582	11534.625
2069.08042	11532.125
2072.09307	11516.925
2075.10378	11506.625
2078.11255	11474.125
2081.11938	11468.825
2084.12426	11470.825
2087.12722	11458.825
2090.12824	11443.825
2093.12732	11449.025
2096.12447	11424.925
2099.11969	11455.925
2102.11299	11419.425
2105.10435	11438.425
2108.09379	11434.825
2111.08131	11464.625
2114.0669	11435.625
2117.05057	11441.425
2120.03233	11458.725
2123.01216	11475.725
2125.99008	11478.325
2128.96609	11473.025
2131.94018	11463.325
2134.91236	11492.025
2137.88263	11479.225
2140.851	11502.925
2143.81746	11505.225
2146.78201	11498.225
2149.74466	11491.625
2152.7054	11523.325
2155.66425	11501.725
2158.6212	11480.725
2161.57625	11504.625
2164.52941	11471.125
2167.48067	11455.325
2170.43004	11468.625
2173.37752	11454.025
2176.32311	11472.825
2179.26681	11462.625
2182.20863	11431.325
2185.14856	11463.825
2188.08661	11430.025
2191.02278	11482.925
2193.95707	11448.225
2196.88948	11466.525
2199.82001	11453.125
2202.74867	11426.025
2205.67545	11406.425
2208.60037	11377.525
2211.52341	11377.125
2214.44458	11359.725
2217.36388	11345.625
2220.28132	11328.025
2223.1969	11301.625
2226.11061	11276.225
2229.02246	11255.725
2231.93245	11250.425
2234.84058	11187.425
2237.74686	11185.425
2240.65128	11153.125
2243.55385	11119.325
2246.45456	11111.025
2249.35343	11126.325
2252.25044	11110.325
2255.14561	11067.425
2258.03893	11031.825
2260.93041	11033.825
2263.82004	11002.325
2266.70783	10987.725
2269.59378	10935.425
2272.4779	10927.225
2275.36017	10884.825
2278.24061	10855.125
2281.11922	10848.025
2283.996	10866.125
2286.87094	10843.425
2289.74405	10807.025
2292.61534	10805.625
2295.4848	10800.125
2298.35243	10794.325
2301.21824	10753.225
2304.08223	10797.125
2306.94439	10774.425
2309.80474	10780.525
2312.66327	10761.225
2315.51999	10751.025
2318.37489	10722.125
2321.22797	10744.625
2324.07925	10718.625
2326.92871	10693.125
2329.77637	10673.625
2332.62222	10648.325
2335.46626	10630.425
2338.3085	10623.125
2341.14893	10622.425
2343.98756	10620.225
2346.8244	10618.325
2349.65943	10592.725
2352.49267	10577.225
2355.32411	10580.425
2358.15376	10622.225
2360.98161	10571.125
2363.80768	10583.325
2366.63195	10589.625
2369.45444	10555.525
2372.27514	10555.625
2375.09405	10527.925
2377.91118	10522.025
2380.72652	10485.925
2383.54009	10450.525
2386.35187	10424.625
2389.16188	10380.925
2391.97011	10363.925
2394.77657	10347.825
2397.58125	10347.225
2400.38416	10322.225
2403.18529	10319.425
2405.98466	10307.825
2408.78226	10296.025
2411.57809	10267.425
2414.37216	10254.925
2417.16446	10258.025
2419.955	10221.225
2422.74378	10216.325
2425.5308	10200.425
2428.31606	10200.525
2431.09956	10204.925
2433.88131	10197.425
2436.6613	10184.325
2439.43954	10141.425
2442.21603	10133.825
2444.99077	10117.525
2447.76377	10143.425
2450.53501	10120.325
2453.30451	10120.825
2456.07226	10093.525
2458.83827	10085.425
2461.60254	10120.125
2464.36507	10078.125
2467.12586	10080.925
2469.88492	10054.425
2472.64224	10065.525
2475.39782	10075.325
2478.15167	10112.825
2480.90379	10083.025
2483.65417	10082.825
2486.40283	10089.025
2489.14976	10081.025
2491.89497	10053.425
2494.63845	10081.725
2497.3802	10039.525
2500.12024	10037.025
2502.85855	10034.525
2505.59514	10046.125
2508.33002	10011.325
2511.06318	10004.525
2513.79462	10002.225
2516.52435	9984.725
2519.25237	9961.125
2521.97867	9980.825
2524.70327	9963.325
2527.42616	9950.925
2530.14734	9934.225
2532.86681	9913.425
2535.58458	9911.925
2538.30065	9911.325
2541.01501	9915.425
2543.72768	9901.225
2546.43864	9875.825
2549.14791	9860.125
2551.85548	9863.125
2554.56136	9829.425
2557.26554	9807.125
2559.96803	9788.025
2562.66883	9753.125
2565.36794	9738.125
2568.06536	9752.325
2570.7611	9711.125
2573.45514	9703.825
2576.14751	9715.325
2578.83819	9699.925
2581.52719	9684.025
2584.21451	9680.925
2586.90015	9669.625
2589.58411	9623.625
2592.2664	9644.325
2594.94701	9622.725
2597.62594	9604.625
2600.30321	9598.725
2602.9788	9588.525
2605.65273	9571.625
2608.32498	9573.725
2610.99557	9561.025
2613.66449	9577.325
2616.33175	9583.325
2618.99734	9563.525
2621.66128	9556.725
2624.32355	9529.725
2626.98416	9539.325
2629.64311	9517.025
2632.30041	9515.025
2634.95605	9493.625
2637.61004	9476.725
2640.26238	9490.225
2642.91306	9475.425
2645.56209	9476.625
2648.20948	9475.525
2650.85521	9461.625
2653.4993	9458.425
2656.14175	9444.325
2658.78255	9468.725
2661.42171	9473.325
2664.05923	9445.625
2666.6951	9468.125
2669.32934	9459.825
2671.96194	9438.725
2674.59291	9414.825
2677.22224	9444.225
2679.84993	9462.725
2682.476	9441.125
2685.10043	9431.525
2687.72324	9416.125
2690.34441	9446.325
2692.96396	9457.925
2695.58188	9419.525
2698.19818	9399.225
2700.81285	9425.025
2703.4259	9391.025
2706.03733	9441.225
2708.64714	9397.825
2711.25533	9413.625
2713.86191	9404.425
2716.46687	9430.225
2719.07021	9426.525
2721.67194	9431.025
2724.27206	9433.725
2726.87057	9444.425
2729.46747	9441.025
2732.06276	9459.125
2734.65644	9426.825
2737.24852	9439.125
2739.83899	9431.325
2742.42786	9438.325
2745.01513	9405.125
2747.60079	9392.825
2750.18486	9384.025
2752.76733	9385.525
2755.3482	9362.725
2757.92747	9332.725
2760.50515	9330.025
2763.08123	9329.125
2765.65573	9320.525
2768.22863	9325.625
2770.79994	9323.525
2773.36967	9325.725
2775.9378	9303.325
2778.50435	9283.825
2781.06932	9295.625
2783.6327	9293.525
2786.1945	9278.725
2788.75471	9270.725
2791.31335	9265.425
2793.87041	9265.525
2796.42589	9251.725
2798.97979	9222.125
2801.53212	9229.225
2804.08288	9207.825
2806.63206	9174.025
2809.17967	9159.325
2811.72571	9141.325
2814.27018	9105.525
2816.81308	9080.325
2819.35442	9071.725
2821.89419	9051.925
2824.43239	9055.325
2826.96904	9036.625
2829.50412	9017.225
2832.03763	9024.125
2834.56959	9018.825
2837.1	9011.525
2839.62884	9003.125
2842.15613	9014.125
2844.68186	9025.825
2847.20604	9028.225
2849.72867	9046.725
2852.24974	9041.225
2854.76927	9024.525
2857.28724	8984.925
2859.80367	9001.025
2862.31855	8971.925
2864.83189	8967.125
2867.34368	8947.625
2869.85393	8953.725
2872.36264	8953.025
2874.8698	8952.025
2877.37543	8937.825
2879.87952	8942.225
2882.38207	8919.325
2884.88308	8936.825
2887.38256	8936.125
2889.88051	8942.625
2892.37692	8927.425
2894.8718	8922.325
2897.36515	8948.225
2899.85698	8966.725
2902.34727	8970.525
2904.83604	8979.325
2907.32328	8985.025
2909.809	8980.825
2912.29319	9006.225
2914.77587	8989.025
2917.25702	8972.925
2919.73665	8995.125
2922.21476	8981.625
2924.69136	8974.625
2927.16644	8975.225
2929.64	8972.525
2932.11205	8952.225
2934.58258	8911.825
2937.05161	8960.525
2939.51912	8924.825
2941.98513	8902.225
2944.44962	8892.725
2946.91261	8875.625
2949.37409	8905.225
2951.83407	8865.025
2954.29254	8862.825
2956.74951	8830.225
2959.20498	8839.425
2961.65895	8838.225
2964.11142	8849.625
2966.56239	8823.025
2969.01186	8792.725
2971.45984	8784.325
2973.90632	8783.125
2976.35131	8752.025
2978.7948	8731.325
2981.23681	8700.625
2983.67732	8704.725
2986.11635	8694.625
2988.55388	8653.125
2990.98993	8651.525
2993.4245	8609.525
2995.85758	8591.225
2998.28917	8575.325
3000.71928	8577.925
3003.14791	8539.425
3005.57506	8556.725
3008.00073	8523.525
3010.42493	8497.825
3012.84764	8479.625
3015.26888	8489.725
3017.68865	8450.825
3020.10694	8436.825
3022.52376	8450.725
3024.9391	8438.925
3027.35298	8398.025
3029.76539	8417.025
3032.17632	8394.225
3034.5858	8404.925
3036.9938	8418.725
3039.40034	8410.625
3041.80542	8406.425
3044.20903	8378.625
3046.61118	8374.625
3049.01187	8349.325
3051.4111	8377.925
3053.80888	8332.125
3056.20519	8321.325
3058.60005	8310.725
3060.99345	8301.825
3063.3854	8299.625
3065.7759	8260.025
3068.16494	8226.125
3070.55254	8224.525
3072.93868	8191.625
3075.32338	8174.325
3077.70662	8170.025
3080.08842	8144.525
3082.46878	8128.025
3084.84769	8141.225
3087.22515	8149.525
3089.60118	8153.625
3091.97576	8131.425
3094.3489	8131.325
3096.72061	8119.925
3099.09087	8149.225
3101.4597	8105.425
3103.82709	8123.425
3106.19305	8094.025
3108.55757	8096.525
3110.92066	8089.825
3113.28232	8084.725
3115.64255	8066.925
3118.00134	8066.925
3120.35871	8068.425
3122.71466	8014.725
3125.06917	8016.125
3127.42226	7989.125
3129.77393	7998.425
3132.12417	7994.825
3134.47299	7989.325
3136.82039	7977.725
3139.16636	8002.825
3141.51092	7988.125
3143.85406	8017.025
3146.19579	8005.125
3148.53609	8001.925
3150.87499	8002.625
3153.21246	8009.525
3155.54853	8019.725
3157.88318	7990.925
