Data from AgNP_FTO_APTES_UA_10uM_CRN_0uM_R6G_10uM_NaF_0.1M_Addition_RamanShift__7__11-17-00-361.txt Node

Date: Thu Feb 10 11:17:00 GMT 2022
User: TCL
Spectrometer: QEP01345
Trigger mode: 4
Integration Time (sec): 7.000000E0
Scans to average: 10
Electric dark correction enabled: true
Nonlinearity correction enabled: false
Boxcar width: 0
XAxis mode: Raman Shifts
Number of Pixels in Spectrum: 1044
>>>>>Begin Spectral Data<<<<<
46.04893	0.2125
50.45542	-0.9875
54.85868	-1.8875
59.25871	-1.5875
63.6555	92.3125
68.04907	94.7125
72.43941	102.0125
76.82654	98.0125
81.21044	106.3125
85.59113	103.1125
89.96862	112.0125
94.34289	116.1125
98.71396	118.8125
103.08183	125.7125
107.4465	130.9125
111.80798	129.2125
116.16626	132.3125
120.52136	143.9125
124.87327	147.1125
129.222	158.7125
133.56755	170.0125
137.90993	188.4125
142.24913	207.1125
146.58517	236.7125
150.91804	284.7125
155.24774	340.5125
159.57429	438.8125
163.89768	562.0125
168.21792	761.8125
172.53501	1050.5125
176.84895	1477.8125
181.15975	2085.5125
185.46741	2942.3125
189.77193	4101.8125
194.07331	5508.3125
198.37157	7147.0125
202.6667	8866.7125
206.9587	10591.5125
211.24758	12261.6125
215.53334	13963.6125
219.81599	15801.9125
224.09553	17760.3125
228.37195	19928.7125
232.64527	22338.4125
236.91549	24982.1125
241.18261	27704.2125
245.44663	30353.6125
249.70755	32779.5125
253.96539	34860.8125
258.22014	36651.7125
262.4718	37946.9125
266.72039	38660.9125
270.96589	38885.4125
275.20832	38562.3125
279.44768	37762.5125
283.68397	36873.7125
287.91719	35940.1125
292.14735	35185.6125
296.37445	34597.5125
300.59849	34169.6125
304.81948	33809.8125
309.03742	33451.8125
313.25231	32964.6125
317.46415	32366.0125
321.67296	31788.6125
325.87872	31273.8125
330.08145	31126.6125
334.28114	31198.3125
338.47781	31417.1125
342.67145	31720.6125
346.86207	32086.5125
351.04966	32545.9125
355.23424	33102.2125
359.4158	33568.9125
363.59435	33990.8125
367.76989	34297.6125
371.94243	34481.8125
376.11196	34645.7125
380.27849	34679.8125
384.44203	34781.3125
388.60257	34804.9125
392.76012	34979.7125
396.91468	35235.9125
401.06626	35517.3125
405.21485	35718.5125
409.36047	35536.1125
413.50311	35063.5125
417.64277	34685.8125
421.77947	34562.7125
425.9132	34663.7125
430.04396	34847.2125
434.17176	34930.0125
438.2966	35197.4125
442.41849	35492.3125
446.53742	35892.9125
450.6534	36311.4125
454.76644	36568.0125
458.87653	36797.3125
462.98368	36920.2125
467.08789	36865.9125
471.18916	36748.7125
475.2875	36552.7125
479.38291	36442.1125
483.4754	36344.2125
487.56496	36330.5125
491.6516	36199.2125
495.73531	36001.2125
499.81612	35926.9125
503.89401	36062.3125
507.96899	36256.4125
512.04106	36463.5125
516.11023	36619.3125
520.1765	36653.3125
524.23987	36643.1125
528.30034	36538.6125
532.35792	36524.6125
536.41261	36469.6125
540.46441	36384.4125
544.51333	36443.8125
548.55936	36686.7125
552.60252	37178.6125
556.64279	37702.2125
560.6802	38082.7125
564.71473	38447.1125
568.7464	38854.4125
572.7752	39194.9125
576.80114	39474.2125
580.82422	39522.5125
584.84444	39476.9125
588.86181	39577.2125
592.87633	39670.9125
596.888	39643.3125
600.89682	39701.7125
604.9028	40732.3125
608.90594	43676.7125
612.90624	47045.2125
616.90371	46193.8125
620.89834	41760.1125
624.89015	39287.5125
628.87913	38547.7125
632.86528	38274.7125
636.84862	38154.4125
640.82913	37691.2125
644.80683	37092.2125
648.78172	36679.5125
652.75379	36474.4125
656.72306	36833.8125
660.68952	37331.8125
664.65319	37284.2125
668.61405	37013.7125
672.57211	37010.7125
676.52738	37232.2125
680.47986	37471.4125
684.42955	37525.2125
688.37646	37506.0125
692.32058	37577.3125
696.26192	37769.8125
700.20048	37917.7125
704.13626	38044.8125
708.06928	38089.2125
711.99952	38008.4125
715.927	37894.0125
719.85171	37766.3125
723.77365	37668.8125
727.69284	37469.9125
731.60928	37288.7125
735.52295	37208.7125
739.43388	37182.2125
743.34206	37263.5125
747.24749	37341.5125
751.15017	37363.3125
755.05012	37613.9125
758.94733	38051.7125
762.8418	39159.4125
766.73354	40726.5125
770.62254	42529.9125
774.50882	43467.2125
778.39237	42905.0125
782.27321	41322.7125
786.15132	39849.5125
790.02671	38753.1125
793.89938	38106.9125
797.76935	37765.4125
801.6366	37573.3125
805.50115	37570.8125
809.36299	37565.8125
813.22213	37565.0125
817.07857	37502.8125
820.93231	37477.3125
824.78336	37454.0125
828.63172	37375.9125
832.47738	37350.4125
836.32036	37301.0125
840.16066	37305.4125
843.99827	37394.8125
847.8332	37398.7125
851.66546	37511.1125
855.49504	37652.5125
859.32195	37757.2125
863.1462	37748.8125
866.96777	37888.7125
870.78668	38028.8125
874.60293	38184.1125
878.41652	38308.8125
882.22745	38422.9125
886.03573	38655.9125
889.84136	38843.8125
893.64433	39080.4125
897.44466	39337.1125
901.24235	39574.4125
905.0374	39792.0125
908.8298	40135.8125
912.61957	40523.0125
916.40671	40868.6125
920.19121	41055.7125
923.97308	41337.2125
927.75233	41444.1125
931.52895	41360.5125
935.30295	40966.7125
939.07433	40403.9125
942.84309	39905.3125
946.60924	39511.6125
950.37278	39112.6125
954.13371	38827.2125
957.89203	38595.4125
961.64774	38367.1125
965.40086	38195.4125
969.15137	38054.7125
972.89929	37834.5125
976.64461	37713.8125
980.38733	37630.9125
984.12747	37584.4125
987.86502	37540.1125
991.59999	37592.4125
995.33237	37702.8125
999.06217	37899.8125
1002.78939	38153.9125
1006.51404	38365.9125
1010.23611	38656.6125
1013.95561	39004.3125
1017.67255	39150.9125
1021.38692	39085.8125
1025.09872	38944.3125
1028.80796	38816.9125
1032.51465	38736.4125
1036.21877	38731.8125
1039.92035	38900.5125
1043.61937	39093.0125
1047.31584	39187.0125
1051.00976	39323.0125
1054.70114	39445.5125
1058.38998	39464.2125
1062.07627	39587.0125
1065.76003	39716.4125
1069.44126	39777.1125
1073.11995	39862.2125
1076.79611	40151.0125
1080.46974	40301.0125
1084.14085	40370.4125
1087.80943	40449.8125
1091.47549	40616.7125
1095.13903	40551.6125
1098.80005	40399.1125
1102.45857	40064.4125
1106.11456	39831.3125
1109.76805	39549.6125
1113.41903	39457.3125
1117.06751	39466.0125
1120.71348	39593.1125
1124.35696	39788.1125
1127.99793	40077.9125
1131.63641	40271.3125
1135.2724	40028.4125
1138.90589	39674.5125
1142.5369	39526.1125
1146.16542	39391.3125
1149.79145	39407.1125
1153.415	39408.4125
1157.03607	39586.4125
1160.65467	40004.1125
1164.27079	40671.5125
1167.88443	41540.2125
1171.49561	42844.8125
1175.10432	44451.5125
1178.71056	46517.9125
1182.31434	48552.4125
1185.91565	49780.2125
1189.51451	50254.5125
1193.11091	49856.4125
1196.70485	48973.3125
1200.29634	47800.7125
1203.88538	46781.4125
1207.47197	46015.1125
1211.05612	45401.8125
1214.63782	44712.4125
1218.21708	43935.4125
1221.79391	43132.1125
1225.36829	42631.9125
1228.94024	42390.4125
1232.50976	42215.3125
1236.07685	42209.7125
1239.6415	42305.3125
1243.20374	42347.0125
1246.76355	42353.2125
1250.32093	42582.0125
1253.8759	42931.4125
1257.42845	43514.4125
1260.97859	44225.1125
1264.52631	44998.9125
1268.07163	45791.3125
1271.61453	46448.2125
1275.15503	47116.6125
1278.69312	47689.7125
1282.22882	48172.7125
1285.76211	48756.2125
1289.29301	49541.4125
1292.82151	50529.7125
1296.34761	51883.1125
1299.87133	53293.9125
1303.39266	54968.0125
1306.9116	56699.8125
1310.42815	58257.4125
1313.94233	59034.2125
1317.45412	58780.2125
1320.96354	58192.1125
1324.47058	57491.1125
1327.97525	56776.2125
1331.47754	56385.6125
1334.97747	56152.9125
1338.47502	56220.7125
1341.97022	56647.9125
1345.46305	57432.0125
1348.95352	58260.3125
1352.44163	58756.8125
1355.92738	59137.9125
1359.41078	59965.2125
1362.89183	61109.9125
1366.37053	60538.7125
1369.84688	57230.0125
1373.32088	53182.5125
1376.79254	50326.1125
1380.26186	48999.4125
1383.72883	48506.0125
1387.19347	48264.8125
1390.65578	48000.0125
1394.11575	47769.1125
1397.57339	47692.9125
1401.0287	47697.3125
1404.48168	47562.3125
1407.93234	47178.5125
1411.38068	46424.0125
1414.82669	45669.5125
1418.27039	44807.9125
1421.71177	44123.3125
1425.15083	43573.7125
1428.58758	43115.8125
1432.02203	43105.0125
1435.45416	43372.3125
1438.88399	43796.0125
1442.31151	44085.6125
1445.73673	44305.5125
1449.15965	44586.0125
1452.58027	44756.7125
1455.9986	44806.7125
1459.41463	44893.7125
1462.82837	44931.0125
1466.23982	45103.9125
1469.64898	45231.9125
1473.05586	45215.4125
1476.46045	45189.1125
1479.86276	45104.2125
1483.26279	45138.6125
1486.66054	45302.3125
1490.05602	45684.8125
1493.44922	46381.3125
1496.84016	47468.0125
1500.22882	49147.3125
1503.61521	51222.4125
1506.99934	53365.0125
1510.38121	55166.8125
1513.76081	55638.4125
1517.13816	54609.4125
1520.51324	52574.4125
1523.88607	50709.8125
1527.25665	49293.9125
1530.62498	48529.3125
1533.99105	48007.6125
1537.35488	47517.9125
1540.71647	46832.2125
1544.07581	46168.2125
1547.4329	45695.0125
1550.78776	45320.2125
1554.14038	45053.6125
1557.49077	45049.3125
1560.83892	45180.5125
1564.18484	45448.8125
1567.52853	45857.2125
1570.86999	46298.6125
1574.20922	46882.4125
1577.54624	47295.3125
1580.88103	47231.8125
1584.2136	46960.2125
1587.54395	46882.4125
1590.87208	47238.3125
1594.19801	47817.6125
1597.52172	48440.2125
1600.84321	48284.9125
1604.16251	47164.0125
1607.47959	45641.8125
1610.79447	44144.2125
1614.10715	42522.5125
1617.41763	40896.2125
1620.7259	39675.6125
1624.03199	39059.5125
1627.33587	39107.3125
1630.63757	39607.7125
1633.93707	40855.3125
1637.23439	42656.3125
1640.52951	45198.0125
1643.82246	48078.3125
1647.11321	50373.8125
1650.40179	50982.1125
1653.68819	49130.5125
1656.97241	45358.2125
1660.25446	41427.1125
1663.53433	38449.1125
1666.81203	36549.4125
1670.08756	35381.1125
1673.36092	34640.3125
1676.63211	34111.8125
1679.90115	33710.1125
1683.16801	33354.0125
1686.43272	33238.5125
1689.69527	33048.3125
1692.95567	32840.5125
1696.2139	32725.6125
1699.46999	32684.0125
1702.72392	32636.1125
1705.97571	32588.5125
1709.22535	32547.3125
1712.47284	32501.5125
1715.71819	32532.6125
1718.96139	32491.7125
1722.20246	32461.7125
1725.44139	32444.5125
1728.67818	32343.0125
1731.91284	32302.2125
1735.14537	32292.0125
1738.37576	32241.5125
1741.60403	32183.0125
1744.83017	32232.5125
1748.05418	32232.7125
1751.27607	32257.1125
1754.49584	32292.6125
1757.71349	32386.7125
1760.92903	32432.6125
1764.14244	32463.8125
1767.35375	32609.9125
1770.56294	32547.6125
1773.77002	32439.0125
1776.97499	32374.7125
1780.17785	32354.7125
1783.37861	32351.2125
1786.57727	32240.8125
1789.77382	32046.9125
1792.96828	31871.3125
1796.16064	31697.9125
1799.3509	31571.1125
1802.53907	31480.8125
1805.72514	31241.7125
1808.90913	31129.2125
1812.09102	30970.1125
1815.27083	30815.9125
1818.44856	30765.2125
1821.6242	30727.9125
1824.79776	30626.9125
1827.96924	30512.9125
1831.13864	30469.0125
1834.30597	30490.9125
1837.47122	30466.3125
1840.6344	30472.2125
1843.7955	30401.0125
1846.95454	30360.2125
1850.11151	30298.8125
1853.26642	30218.8125
1856.41926	30213.5125
1859.57004	30127.7125
1862.71876	30103.0125
1865.86542	30020.6125
1869.01003	30019.0125
1872.15258	30008.2125
1875.29308	29994.7125
1878.43152	29918.0125
1881.56792	29843.9125
1884.70227	29775.8125
1887.83457	29671.6125
1890.96482	29621.2125
1894.09304	29535.7125
1897.21921	29510.5125
1900.34335	29441.8125
1903.46544	29431.1125
1906.58551	29444.8125
1909.70353	29366.8125
1912.81953	29258.5125
1915.93349	29240.6125
1919.04543	29257.1125
1922.15534	29190.6125
1925.26322	29147.2125
1928.36908	29077.6125
1931.47292	29125.0125
1934.57473	29054.7125
1937.67453	28997.0125
1940.77232	28898.4125
1943.86808	28844.6125
1946.96184	28783.5125
1950.05358	28658.5125
1953.14331	28614.3125
1956.23103	28480.8125
1959.31675	28340.3125
1962.40046	28286.9125
1965.48217	28218.4125
1968.56188	28146.5125
1971.63959	28024.3125
1974.7153	27978.0125
1977.78901	27882.1125
1980.86073	27765.3125
1983.93046	27649.9125
1986.99819	27553.9125
1990.06394	27457.3125
1993.1277	27370.0125
1996.18947	27231.5125
1999.24925	27114.9125
2002.30706	27054.9125
2005.36288	26963.2125
2008.41672	26944.9125
2011.46859	26843.2125
2014.51848	26708.9125
2017.56639	26636.5125
2020.61233	26582.8125
2023.6563	26555.2125
2026.6983	26454.4125
2029.73833	26373.4125
2032.7764	26345.3125
2035.8125	26305.8125
2038.84664	26228.4125
2041.87881	26212.2125
2044.90903	26205.1125
2047.93729	26148.4125
2050.96359	26133.3125
2053.98794	26216.8125
2057.01034	26238.6125
2060.03078	26188.5125
2063.04927	26214.1125
2066.06582	26220.2125
2069.08042	26275.6125
2072.09307	26293.9125
2075.10378	26353.3125
2078.11255	26338.0125
2081.11938	26374.9125
2084.12426	26384.8125
2087.12722	26423.2125
2090.12824	26379.0125
2093.12732	26342.2125
2096.12447	26324.1125
2099.11969	26354.4125
2102.11299	26300.1125
2105.10435	26253.0125
2108.09379	26215.2125
2111.08131	26195.2125
2114.0669	26102.7125
2117.05057	26093.3125
2120.03233	26036.2125
2123.01216	26012.7125
2125.99008	25997.7125
2128.96609	26029.0125
2131.94018	26009.7125
2134.91236	25969.5125
2137.88263	25938.3125
2140.851	25930.8125
2143.81746	25896.4125
2146.78201	25818.8125
2149.74466	25821.1125
2152.7054	25798.5125
2155.66425	25746.5125
2158.6212	25739.2125
2161.57625	25682.8125
2164.52941	25672.1125
2167.48067	25603.5125
2170.43004	25614.7125
2173.37752	25592.7125
2176.32311	25497.4125
2179.26681	25510.2125
2182.20863	25486.2125
2185.14856	25526.2125
2188.08661	25486.8125
2191.02278	25483.6125
2193.95707	25440.2125
2196.88948	25434.5125
2199.82001	25424.3125
2202.74867	25455.7125
2205.67545	25415.6125
2208.60037	25322.6125
2211.52341	25278.0125
2214.44458	25204.0125
2217.36388	25167.1125
2220.28132	25054.6125
2223.1969	25040.8125
2226.11061	24974.0125
2229.02246	24899.0125
2231.93245	24817.6125
2234.84058	24763.6125
2237.74686	24719.9125
2240.65128	24696.5125
2243.55385	24647.7125
2246.45456	24610.1125
2249.35343	24534.3125
2252.25044	24506.7125
2255.14561	24510.0125
2258.03893	24525.8125
2260.93041	24424.7125
2263.82004	24369.2125
2266.70783	24301.0125
2269.59378	24218.2125
2272.4779	24152.8125
2275.36017	24096.9125
2278.24061	24083.0125
2281.11922	24027.7125
2283.996	23974.3125
2286.87094	23905.6125
2289.74405	23912.7125
2292.61534	23873.3125
2295.4848	23817.5125
2298.35243	23846.7125
2301.21824	23784.7125
2304.08223	23746.1125
2306.94439	23730.1125
2309.80474	23703.5125
2312.66327	23680.1125
2315.51999	23623.2125
2318.37489	23591.2125
2321.22797	23469.3125
2324.07925	23460.5125
2326.92871	23425.2125
2329.77637	23331.6125
2332.62222	23315.2125
2335.46626	23290.7125
2338.3085	23236.7125
2341.14893	23230.2125
2343.98756	23183.0125
2346.8244	23132.4125
2349.65943	23145.0125
2352.49267	23113.7125
2355.32411	23109.5125
2358.15376	23092.0125
2360.98161	23074.0125
2363.80768	23055.3125
2366.63195	23060.9125
2369.45444	22977.9125
2372.27514	22968.8125
2375.09405	22948.4125
2377.91118	22951.7125
2380.72652	22871.5125
2383.54009	22797.5125
2386.35187	22797.8125
2389.16188	22775.1125
2391.97011	22712.2125
2394.77657	22684.4125
2397.58125	22639.7125
2400.38416	22581.4125
2403.18529	22495.5125
2405.98466	22466.5125
2408.78226	22360.4125
2411.57809	22386.7125
2414.37216	22402.1125
2417.16446	22323.6125
2419.955	22234.1125
2422.74378	22195.2125
2425.5308	22172.6125
2428.31606	22153.9125
2431.09956	22181.8125
2433.88131	22212.7125
2436.6613	22227.9125
2439.43954	22186.5125
2442.21603	22073.5125
2444.99077	22017.8125
2447.76377	22043.3125
2450.53501	22021.2125
2453.30451	22012.0125
2456.07226	22009.3125
2458.83827	21933.7125
2461.60254	21869.2125
2464.36507	21839.5125
2467.12586	21840.9125
2469.88492	21819.8125
2472.64224	21814.2125
2475.39782	21753.7125
2478.15167	21786.4125
2480.90379	21775.2125
2483.65417	21793.4125
2486.40283	21719.8125
2489.14976	21721.9125
2491.89497	21690.2125
2494.63845	21718.7125
2497.3802	21721.9125
2500.12024	21740.8125
2502.85855	21696.8125
2505.59514	21650.2125
2508.33002	21547.6125
2511.06318	21505.4125
2513.79462	21465.7125
2516.52435	21422.3125
2519.25237	21394.5125
2521.97867	21410.1125
2524.70327	21399.4125
2527.42616	21290.3125
2530.14734	21224.3125
2532.86681	21215.6125
2535.58458	21214.1125
2538.30065	21167.1125
2541.01501	21167.4125
2543.72768	21175.4125
2546.43864	21180.2125
2549.14791	21138.7125
2551.85548	21137.9125
2554.56136	21064.2125
2557.26554	20991.9125
2559.96803	20902.3125
2562.66883	20845.8125
2565.36794	20821.9125
2568.06536	20739.3125
2570.7611	20717.4125
2573.45514	20718.3125
2576.14751	20687.9125
2578.83819	20644.0125
2581.52719	20629.7125
2584.21451	20528.5125
2586.90015	20477.9125
2589.58411	20479.6125
2592.2664	20429.5125
2594.94701	20426.5125
2597.62594	20429.7125
2600.30321	20399.2125
2602.9788	20381.9125
2605.65273	20306.0125
2608.32498	20302.0125
2610.99557	20247.7125
2613.66449	20265.2125
2616.33175	20211.5125
2618.99734	20152.7125
2621.66128	20137.9125
2624.32355	20104.9125
2626.98416	20052.3125
2629.64311	20021.8125
2632.30041	19976.3125
2634.95605	19948.4125
2637.61004	19896.6125
2640.26238	19904.9125
2642.91306	19846.2125
2645.56209	19846.4125
2648.20948	19825.5125
2650.85521	19831.8125
2653.4993	19825.6125
2656.14175	19810.0125
2658.78255	19798.4125
2661.42171	19739.0125
2664.05923	19785.0125
2666.6951	19806.1125
2669.32934	19807.4125
2671.96194	19772.9125
2674.59291	19812.1125
2677.22224	19768.6125
2679.84993	19791.8125
2682.476	19738.6125
2685.10043	19787.8125
2687.72324	19746.3125
2690.34441	19743.8125
2692.96396	19770.1125
2695.58188	19720.9125
2698.19818	19680.9125
2700.81285	19746.8125
2703.4259	19667.4125
2706.03733	19624.0125
2708.64714	19614.8125
2711.25533	19667.9125
2713.86191	19649.8125
2716.46687	19726.6125
2719.07021	19751.4125
2721.67194	19739.3125
2724.27206	19711.7125
2726.87057	19744.8125
2729.46747	19719.6125
2732.06276	19731.0125
2734.65644	19664.5125
2737.24852	19665.0125
2739.83899	19643.5125
2742.42786	19678.1125
2745.01513	19663.0125
2747.60079	19637.4125
2750.18486	19571.9125
2752.76733	19529.4125
2755.3482	19521.4125
2757.92747	19491.8125
2760.50515	19449.4125
2763.08123	19403.1125
2765.65573	19371.6125
2768.22863	19330.7125
2770.79994	19366.0125
2773.36967	19317.3125
2775.9378	19305.0125
2778.50435	19274.5125
2781.06932	19231.6125
2783.6327	19193.0125
2786.1945	19146.2125
2788.75471	19136.3125
2791.31335	19126.8125
2793.87041	19079.9125
2796.42589	19088.1125
2798.97979	18998.1125
2801.53212	18912.8125
2804.08288	18928.9125
2806.63206	18850.1125
2809.17967	18837.5125
2811.72571	18791.5125
2814.27018	18746.1125
2816.81308	18655.7125
2819.35442	18661.8125
2821.89419	18612.6125
2824.43239	18587.4125
2826.96904	18502.7125
2829.50412	18517.8125
2832.03763	18482.5125
2834.56959	18510.2125
2837.1	18504.5125
2839.62884	18534.3125
2842.15613	18548.2125
2844.68186	18636.9125
2847.20604	18657.4125
2849.72867	18773.4125
2852.24974	18796.0125
2854.76927	18752.9125
2857.28724	18723.9125
2859.80367	18705.3125
2862.31855	18735.5125
2864.83189	18712.0125
2867.34368	18710.1125
2869.85393	18667.9125
2872.36264	18635.4125
2874.8698	18623.3125
2877.37543	18601.5125
2879.87952	18580.6125
2882.38207	18607.0125
2884.88308	18617.9125
2887.38256	18628.0125
2889.88051	18609.0125
2892.37692	18646.6125
2894.8718	18699.7125
2897.36515	18744.9125
2899.85698	18727.1125
2902.34727	18753.9125
2904.83604	18751.3125
2907.32328	18868.0125
2909.809	18843.3125
2912.29319	18906.0125
2914.77587	18941.0125
2917.25702	18955.7125
2919.73665	18911.8125
2922.21476	18927.4125
2924.69136	18913.5125
2927.16644	18897.3125
2929.64	18793.9125
2932.11205	18755.0125
2934.58258	18648.2125
2937.05161	18618.0125
2939.51912	18568.5125
2941.98513	18511.9125
2944.44962	18473.8125
2946.91261	18335.2125
2949.37409	18289.9125
2951.83407	18241.1125
2954.29254	18256.2125
2956.74951	18213.1125
2959.20498	18172.5125
2961.65895	18101.2125
2964.11142	18128.8125
2966.56239	18111.0125
2969.01186	18079.1125
2971.45984	18019.6125
2973.90632	17979.3125
2976.35131	17919.4125
2978.7948	17912.9125
2981.23681	17888.6125
2983.67732	17816.1125
2986.11635	17742.5125
2988.55388	17684.5125
2990.98993	17676.3125
2993.4245	17646.7125
2995.85758	17571.9125
2998.28917	17534.7125
3000.71928	17461.1125
3003.14791	17413.2125
3005.57506	17413.8125
3008.00073	17375.9125
3010.42493	17368.1125
3012.84764	17318.4125
3015.26888	17316.8125
3017.68865	17269.3125
3020.10694	17239.1125
3022.52376	17185.6125
