Data from AgNP_FTO_APTES_UA_10uM_CRN_0uM_R6G_10uM_NaF_0.1M_Addition_RamanShift__24__12-36-20-468.txt Node

Date: Thu Feb 10 12:36:20 GMT 2022
User: TCL
Spectrometer: QEP01345
Trigger mode: 4
Integration Time (sec): 7.000000E0
Scans to average: 10
Electric dark correction enabled: true
Nonlinearity correction enabled: false
Boxcar width: 0
XAxis mode: Raman Shifts
Number of Pixels in Spectrum: 1044
>>>>>Begin Spectral Data<<<<<
46.04893	0.2125
50.45542	-1.1875
54.85868	-1.4875
59.25871	-0.4875
63.6555	54.0125
68.04907	55.9125
72.43941	60.1125
76.82654	61.0125
81.21044	64.2125
85.59113	64.5125
89.96862	70.6125
94.34289	75.0125
98.71396	73.3125
103.08183	74.1125
107.4465	79.9125
111.80798	76.5125
116.16626	83.5125
120.52136	85.9125
124.87327	90.6125
129.222	90.7125
133.56755	99.0125
137.90993	101.2125
142.24913	111.6125
146.58517	122.5125
150.91804	144.3125
155.24774	166.8125
159.57429	208.7125
163.89768	264.9125
168.21792	347.9125
172.53501	476.8125
176.84895	661.1125
181.15975	921.0125
185.46741	1284.7125
189.77193	1791.8125
194.07331	2389.6125
198.37157	3077.7125
202.6667	3807.7125
206.9587	4520.3125
211.24758	5216.3125
215.53334	5948.8125
219.81599	6760.1125
224.09553	7639.0125
228.37195	8623.1125
232.64527	9701.0125
236.91549	10798.8125
241.18261	11872.6125
245.44663	12794.5125
249.70755	13608.5125
253.96539	14270.0125
258.22014	14896.4125
262.4718	15433.2125
266.72039	15821.5125
270.96589	16013.2125
275.20832	16065.0125
279.44768	15932.0125
283.68397	15769.5125
287.91719	15639.9125
292.14735	15644.2125
296.37445	15734.9125
300.59849	15994.1125
304.81948	16297.8125
309.03742	16511.4125
313.25231	16356.8125
317.46415	15798.4125
321.67296	14957.8125
325.87872	14293.1125
330.08145	13991.1125
334.28114	13960.0125
338.47781	14167.2125
342.67145	14453.9125
346.86207	14908.3125
351.04966	15512.8125
355.23424	16264.5125
359.4158	16885.0125
363.59435	17218.3125
367.76989	17349.1125
371.94243	17367.4125
376.11196	17345.6125
380.27849	17314.5125
384.44203	17327.7125
388.60257	17233.5125
392.76012	17234.7125
396.91468	17466.2125
401.06626	17897.6125
405.21485	18215.6125
409.36047	18069.9125
413.50311	17473.5125
417.64277	17016.7125
421.77947	16714.9125
425.9132	16661.7125
430.04396	16767.6125
434.17176	16849.6125
438.2966	17084.1125
442.41849	17495.7125
446.53742	18057.4125
450.6534	18629.3125
454.76644	19054.5125
458.87653	19082.3125
462.98368	18949.9125
467.08789	18594.6125
471.18916	18178.1125
475.2875	17784.3125
479.38291	17518.3125
483.4754	17356.3125
487.56496	17156.0125
491.6516	16972.5125
495.73531	16831.5125
499.81612	16765.1125
503.89401	16879.9125
507.96899	16983.1125
512.04106	17072.3125
516.11023	17125.1125
520.1765	17182.1125
524.23987	17122.5125
528.30034	16895.2125
532.35792	16652.3125
536.41261	16346.3125
540.46441	16047.5125
544.51333	15908.1125
548.55936	16048.0125
552.60252	16412.8125
556.64279	16813.9125
560.6802	17013.0125
564.71473	17231.1125
568.7464	17762.0125
572.7752	18281.1125
576.80114	18259.2125
580.82422	18144.9125
584.84444	18181.2125
588.86181	18345.4125
592.87633	18543.0125
596.888	18821.1125
600.89682	19188.6125
604.9028	20428.7125
608.90594	23864.3125
612.90624	28166.5125
616.90371	26872.8125
620.89834	20713.9125
624.89015	17839.4125
628.87913	17446.3125
632.86528	17446.9125
636.84862	17384.8125
640.82913	17036.8125
644.80683	16407.8125
648.78172	15965.8125
652.75379	15939.9125
656.72306	16351.9125
660.68952	16946.8125
664.65319	16914.2125
668.61405	16412.7125
672.57211	16142.1125
676.52738	16103.4125
680.47986	16093.1125
684.42955	16011.1125
688.37646	15939.4125
692.32058	16017.5125
696.26192	16142.0125
700.20048	16359.0125
704.13626	16536.0125
708.06928	16522.9125
711.99952	16377.5125
715.927	16264.0125
719.85171	16276.1125
723.77365	16183.3125
727.69284	16005.7125
731.60928	15840.8125
735.52295	15867.1125
739.43388	15931.0125
743.34206	16040.7125
747.24749	16146.5125
751.15017	16365.1125
755.05012	16651.6125
758.94733	17258.3125
762.8418	18487.9125
766.73354	20620.6125
770.62254	22827.0125
774.50882	23762.4125
778.39237	22807.6125
782.27321	20496.3125
786.15132	18333.5125
790.02671	17038.7125
793.89938	16432.4125
797.76935	16213.0125
801.6366	16090.6125
805.50115	16029.6125
809.36299	15925.6125
813.22213	15833.7125
817.07857	15790.9125
820.93231	15739.8125
824.78336	15756.7125
828.63172	15864.4125
832.47738	15902.2125
836.32036	15943.7125
840.16066	15998.3125
843.99827	16006.0125
847.8332	15935.7125
851.66546	15882.4125
855.49504	15832.7125
859.32195	15814.1125
863.1462	15774.3125
866.96777	15671.5125
870.78668	15605.3125
874.60293	15637.9125
878.41652	15667.7125
882.22745	15800.0125
886.03573	15826.7125
889.84136	15836.5125
893.64433	15779.4125
897.44466	15733.1125
901.24235	15711.4125
905.0374	15622.1125
908.8298	15573.7125
912.61957	15568.9125
916.40671	15682.1125
920.19121	15856.8125
923.97308	16145.7125
927.75233	16334.1125
931.52895	16415.6125
935.30295	16245.9125
939.07433	15819.7125
942.84309	15484.0125
946.60924	15330.8125
950.37278	15247.2125
954.13371	15158.5125
957.89203	15050.6125
961.64774	15000.6125
965.40086	14962.8125
969.15137	14892.3125
972.89929	14856.6125
976.64461	14815.6125
980.38733	14860.6125
984.12747	14956.4125
987.86502	15119.4125
991.59999	15311.7125
995.33237	15675.1125
999.06217	16220.9125
1002.78939	16939.4125
1006.51404	17440.7125
1010.23611	17774.7125
1013.95561	17978.3125
1017.67255	18050.6125
1021.38692	17833.6125
1025.09872	17617.0125
1028.80796	17705.5125
1032.51465	18111.1125
1036.21877	18504.5125
1039.92035	18543.5125
1043.61937	18218.7125
1047.31584	17693.4125
1051.00976	17210.0125
1054.70114	16928.2125
1058.38998	16846.6125
1062.07627	16859.3125
1065.76003	16938.0125
1069.44126	17096.3125
1073.11995	17315.0125
1076.79611	17489.7125
1080.46974	17644.9125
1084.14085	17849.3125
1087.80943	18217.2125
1091.47549	18326.5125
1095.13903	18118.1125
1098.80005	17671.2125
1102.45857	17213.8125
1106.11456	16950.9125
1109.76805	16951.0125
1113.41903	17130.3125
1117.06751	17458.1125
1120.71348	17884.8125
1124.35696	18363.8125
1127.99793	18822.8125
1131.63641	18891.9125
1135.2724	18485.4125
1138.90589	17982.3125
1142.5369	17677.6125
1146.16542	17420.6125
1149.79145	17261.8125
1153.415	17291.6125
1157.03607	17495.6125
1160.65467	17823.9125
1164.27079	18498.1125
1167.88443	19443.7125
1171.49561	20812.1125
1175.10432	22986.0125
1178.71056	25760.4125
1182.31434	28211.7125
1185.91565	29476.6125
1189.51451	29456.7125
1193.11091	28196.5125
1196.70485	26263.3125
1200.29634	24456.8125
1203.88538	23091.4125
1207.47197	21871.8125
1211.05612	21027.3125
1214.63782	20561.8125
1218.21708	20572.0125
1221.79391	20818.3125
1225.36829	21141.1125
1228.94024	21267.1125
1232.50976	21165.5125
1236.07685	21020.7125
1239.6415	20824.6125
1243.20374	20644.5125
1246.76355	20563.7125
1250.32093	20712.4125
1253.8759	21223.3125
1257.42845	21853.4125
1260.97859	22600.5125
1264.52631	23268.5125
1268.07163	23965.8125
1271.61453	24668.0125
1275.15503	25432.4125
1278.69312	26194.1125
1282.22882	26787.7125
1285.76211	27407.6125
1289.29301	28023.7125
1292.82151	28723.4125
1296.34761	29537.3125
1299.87133	30833.2125
1303.39266	32803.2125
1306.9116	35721.7125
1310.42815	39031.7125
1313.94233	41371.3125
1317.45412	41638.9125
1320.96354	40150.9125
1324.47058	38098.1125
1327.97525	36317.4125
1331.47754	34957.1125
1334.97747	34318.7125
1338.47502	34353.5125
1341.97022	34567.1125
1345.46305	34720.0125
1348.95352	34874.8125
1352.44163	35399.1125
1355.92738	36870.1125
1359.41078	39852.9125
1362.89183	42820.2125
1366.37053	42151.6125
1369.84688	37775.7125
1373.32088	32844.4125
1376.79254	29548.7125
1380.26186	27858.6125
1383.72883	27045.9125
1387.19347	26335.2125
1390.65578	25752.1125
1394.11575	25521.1125
1397.57339	25738.2125
1401.0287	26290.5125
1404.48168	26891.0125
1407.93234	27454.0125
1411.38068	27653.1125
1414.82669	27338.2125
1418.27039	26552.1125
1421.71177	25659.8125
1425.15083	24905.9125
1428.58758	24432.7125
1432.02203	24406.7125
1435.45416	24568.9125
1438.88399	24681.1125
1442.31151	24793.0125
1445.73673	24987.2125
1449.15965	25230.7125
1452.58027	25348.9125
1455.9986	25320.2125
1459.41463	25444.7125
1462.82837	25782.9125
1466.23982	26251.5125
1469.64898	26672.6125
1473.05586	26956.4125
1476.46045	27014.0125
1479.86276	27135.6125
1483.26279	27359.9125
1486.66054	27727.9125
1490.05602	28275.1125
1493.44922	28922.6125
1496.84016	29778.5125
1500.22882	30937.4125
1503.61521	32584.4125
1506.99934	34670.6125
1510.38121	36733.7125
1513.76081	37641.0125
1517.13816	36546.1125
1520.51324	33781.6125
1523.88607	30968.5125
1527.25665	28983.6125
1530.62498	27759.3125
1533.99105	27046.0125
1537.35488	26624.0125
1540.71647	26357.6125
1544.07581	26175.3125
1547.4329	25984.2125
1550.78776	25807.6125
1554.14038	25644.0125
1557.49077	25674.0125
1560.83892	25859.0125
1564.18484	25981.7125
1567.52853	26078.1125
1570.86999	26127.2125
1574.20922	26230.6125
1577.54624	26213.4125
1580.88103	25660.3125
1584.2136	25085.8125
1587.54395	25244.0125
1590.87208	26392.7125
1594.19801	28333.1125
1597.52172	30539.4125
1600.84321	31543.1125
1604.16251	30605.7125
1607.47959	28423.6125
1610.79447	25853.7125
1614.10715	23441.1125
1617.41763	21684.7125
1620.7259	20531.9125
1624.03199	20053.6125
1627.33587	20099.7125
1630.63757	20753.9125
1633.93707	22061.6125
1637.23439	23909.5125
1640.52951	26324.1125
1643.82246	28765.9125
1647.11321	30875.2125
1650.40179	31635.4125
1653.68819	30075.0125
1656.97241	26503.1125
1660.25446	22711.2125
1663.53433	19927.6125
1666.81203	18223.0125
1670.08756	17205.2125
1673.36092	16578.0125
1676.63211	16158.9125
1679.90115	15896.8125
1683.16801	15654.7125
1686.43272	15519.9125
1689.69527	15427.1125
1692.95567	15326.3125
1696.2139	15308.9125
1699.46999	15281.6125
1702.72392	15219.2125
1705.97571	15205.0125
1709.22535	15190.3125
1712.47284	15168.0125
1715.71819	15177.9125
1718.96139	15137.0125
1722.20246	15112.2125
1725.44139	15055.5125
1728.67818	14952.5125
1731.91284	14853.8125
1735.14537	14777.5125
1738.37576	14713.4125
1741.60403	14703.9125
1744.83017	14640.1125
1748.05418	14635.4125
1751.27607	14590.5125
1754.49584	14544.8125
1757.71349	14574.9125
1760.92903	14553.6125
1764.14244	14537.3125
1767.35375	14532.0125
1770.56294	14500.6125
1773.77002	14510.6125
1776.97499	14473.9125
1780.17785	14465.0125
1783.37861	14429.0125
1786.57727	14431.4125
1789.77382	14435.0125
1792.96828	14395.6125
1796.16064	14396.5125
1799.3509	14363.2125
1802.53907	14351.8125
1805.72514	14323.3125
1808.90913	14276.8125
1812.09102	14275.9125
1815.27083	14258.1125
1818.44856	14215.6125
1821.6242	14175.1125
1824.79776	14193.6125
1827.96924	14165.9125
1831.13864	14186.5125
1834.30597	14197.3125
1837.47122	14169.3125
1840.6344	14161.6125
1843.7955	14186.2125
1846.95454	14200.6125
1850.11151	14172.1125
1853.26642	14230.8125
1856.41926	14234.1125
1859.57004	14264.8125
1862.71876	14282.0125
1865.86542	14291.4125
1869.01003	14318.9125
1872.15258	14291.2125
1875.29308	14331.0125
1878.43152	14341.9125
1881.56792	14384.0125
1884.70227	14395.2125
1887.83457	14397.7125
1890.96482	14388.2125
1894.09304	14379.5125
1897.21921	14420.6125
1900.34335	14453.6125
1903.46544	14453.7125
1906.58551	14457.4125
1909.70353	14477.4125
1912.81953	14485.6125
1915.93349	14495.8125
1919.04543	14442.8125
1922.15534	14408.2125
1925.26322	14360.5125
1928.36908	14336.9125
1931.47292	14256.5125
1934.57473	14193.9125
1937.67453	14129.3125
1940.77232	14031.6125
1943.86808	13987.6125
1946.96184	13933.4125
1950.05358	13856.9125
1953.14331	13770.9125
1956.23103	13697.0125
1959.31675	13663.4125
1962.40046	13642.9125
1965.48217	13590.6125
1968.56188	13538.4125
1971.63959	13501.9125
1974.7153	13462.9125
1977.78901	13418.2125
1980.86073	13373.4125
1983.93046	13334.2125
1986.99819	13305.1125
1990.06394	13261.4125
1993.1277	13250.2125
1996.18947	13187.0125
1999.24925	13139.3125
2002.30706	13113.4125
2005.36288	13093.6125
2008.41672	13072.7125
2011.46859	13016.0125
2014.51848	13018.3125
2017.56639	12984.7125
2020.61233	12955.9125
2023.6563	12907.7125
2026.6983	12911.3125
2029.73833	12847.3125
2032.7764	12831.2125
2035.8125	12837.3125
2038.84664	12804.2125
2041.87881	12784.8125
2044.90903	12765.1125
2047.93729	12736.4125
2050.96359	12729.2125
2053.98794	12732.0125
2057.01034	12697.0125
2060.03078	12687.0125
2063.04927	12673.9125
2066.06582	12690.1125
2069.08042	12670.4125
2072.09307	12688.8125
2075.10378	12655.3125
2078.11255	12647.7125
2081.11938	12635.4125
2084.12426	12625.8125
2087.12722	12617.2125
2090.12824	12585.5125
2093.12732	12609.3125
2096.12447	12595.0125
2099.11969	12600.6125
2102.11299	12605.8125
2105.10435	12598.4125
2108.09379	12597.1125
2111.08131	12592.5125
2114.0669	12605.1125
2117.05057	12659.0125
2120.03233	12641.7125
2123.01216	12634.6125
2125.99008	12685.4125
2128.96609	12663.2125
2131.94018	12698.4125
2134.91236	12697.4125
2137.88263	12706.0125
2140.851	12680.3125
2143.81746	12726.9125
2146.78201	12692.8125
2149.74466	12709.7125
2152.7054	12705.3125
2155.66425	12702.8125
2158.6212	12702.9125
2161.57625	12689.3125
2164.52941	12685.2125
2167.48067	12704.5125
2170.43004	12705.8125
2173.37752	12671.6125
2176.32311	12707.2125
2179.26681	12708.4125
2182.20863	12697.1125
2185.14856	12710.6125
2188.08661	12691.3125
2191.02278	12692.5125
2193.95707	12700.5125
2196.88948	12678.8125
2199.82001	12708.2125
2202.74867	12701.2125
2205.67545	12713.7125
2208.60037	12699.6125
2211.52341	12707.6125
2214.44458	12679.8125
2217.36388	12675.0125
2220.28132	12647.3125
2223.1969	12621.3125
2226.11061	12651.4125
2229.02246	12573.9125
2231.93245	12547.1125
2234.84058	12516.9125
2237.74686	12489.8125
2240.65128	12517.4125
2243.55385	12467.8125
2246.45456	12425.3125
2249.35343	12426.9125
2252.25044	12439.9125
2255.14561	12449.2125
2258.03893	12450.7125
2260.93041	12394.7125
2263.82004	12383.2125
2266.70783	12345.9125
2269.59378	12314.1125
2272.4779	12265.8125
2275.36017	12230.2125
2278.24061	12241.9125
2281.11922	12218.1125
2283.996	12183.3125
2286.87094	12212.5125
2289.74405	12185.0125
2292.61534	12169.2125
2295.4848	12169.4125
2298.35243	12190.7125
2301.21824	12179.6125
2304.08223	12180.1125
2306.94439	12190.6125
2309.80474	12175.2125
2312.66327	12195.3125
2315.51999	12186.5125
2318.37489	12206.7125
2321.22797	12188.7125
2324.07925	12162.7125
2326.92871	12160.7125
2329.77637	12141.1125
2332.62222	12146.7125
2335.46626	12120.7125
2338.3085	12142.5125
2341.14893	12147.2125
2343.98756	12192.7125
2346.8244	12201.5125
2349.65943	12189.5125
2352.49267	12209.4125
2355.32411	12186.6125
2358.15376	12225.5125
2360.98161	12210.0125
2363.80768	12178.9125
2366.63195	12169.8125
2369.45444	12131.7125
2372.27514	12092.6125
2375.09405	12102.1125
2377.91118	12057.2125
2380.72652	12017.9125
2383.54009	12012.5125
2386.35187	11989.4125
2389.16188	11931.8125
2391.97011	11934.6125
2394.77657	11885.5125
2397.58125	11875.6125
2400.38416	11852.4125
2403.18529	11862.6125
2405.98466	11828.5125
2408.78226	11798.2125
2411.57809	11779.6125
2414.37216	11733.7125
2417.16446	11737.3125
2419.955	11701.7125
2422.74378	11711.8125
2425.5308	11688.5125
2428.31606	11704.0125
2431.09956	11729.4125
2433.88131	11694.2125
2436.6613	11708.6125
2439.43954	11708.0125
2442.21603	11662.3125
2444.99077	11687.3125
2447.76377	11670.8125
2450.53501	11683.9125
2453.30451	11681.3125
2456.07226	11669.9125
2458.83827	11676.1125
2461.60254	11649.3125
2464.36507	11655.7125
2467.12586	11661.2125
2469.88492	11660.7125
2472.64224	11655.8125
2475.39782	11688.8125
2478.15167	11705.6125
2480.90379	11716.4125
2483.65417	11741.4125
2486.40283	11720.9125
2489.14976	11761.1125
2491.89497	11745.6125
2494.63845	11788.7125
2497.3802	11763.2125
2500.12024	11754.1125
2502.85855	11765.5125
2505.59514	11759.5125
2508.33002	11762.6125
2511.06318	11711.1125
2513.79462	11677.8125
2516.52435	11661.7125
2519.25237	11666.1125
2521.97867	11630.4125
2524.70327	11640.4125
2527.42616	11588.4125
2530.14734	11631.8125
2532.86681	11617.9125
2535.58458	11615.3125
2538.30065	11609.7125
2541.01501	11608.5125
2543.72768	11581.2125
2546.43864	11610.5125
2549.14791	11598.2125
2551.85548	11598.9125
2554.56136	11596.8125
2557.26554	11560.8125
2559.96803	11550.9125
2562.66883	11527.2125
2565.36794	11524.8125
2568.06536	11510.6125
2570.7611	11508.1125
2573.45514	11470.4125
2576.14751	11481.5125
2578.83819	11477.2125
2581.52719	11461.2125
2584.21451	11476.0125
2586.90015	11477.2125
2589.58411	11468.8125
2592.2664	11491.2125
2594.94701	11464.7125
2597.62594	11472.6125
2600.30321	11464.2125
2602.9788	11469.7125
2605.65273	11460.0125
2608.32498	11464.7125
2610.99557	11479.2125
2613.66449	11467.1125
2616.33175	11442.0125
2618.99734	11474.8125
2621.66128	11416.7125
2624.32355	11496.1125
2626.98416	11459.4125
2629.64311	11442.5125
2632.30041	11443.7125
2634.95605	11433.3125
2637.61004	11411.7125
2640.26238	11397.4125
2642.91306	11426.2125
2645.56209	11394.7125
2648.20948	11382.8125
2650.85521	11375.8125
2653.4993	11344.4125
2656.14175	11391.0125
2658.78255	11359.2125
2661.42171	11377.2125
2664.05923	11387.1125
2666.6951	11424.9125
2669.32934	11415.8125
2671.96194	11425.0125
2674.59291	11437.0125
2677.22224	11424.0125
2679.84993	11443.2125
2682.476	11420.7125
2685.10043	11430.1125
2687.72324	11395.7125
2690.34441	11409.9125
2692.96396	11396.3125
2695.58188	11368.4125
2698.19818	11352.8125
2700.81285	11391.6125
2703.4259	11364.0125
2706.03733	11384.7125
2708.64714	11355.7125
2711.25533	11397.5125
2713.86191	11394.3125
2716.46687	11432.6125
2719.07021	11448.5125
2721.67194	11460.5125
2724.27206	11463.5125
2726.87057	11458.7125
2729.46747	11456.0125
2732.06276	11450.8125
2734.65644	11472.0125
2737.24852	11467.9125
2739.83899	11440.3125
2742.42786	11429.9125
2745.01513	11434.4125
2747.60079	11402.1125
2750.18486	11392.3125
2752.76733	11400.6125
2755.3482	11417.6125
2757.92747	11406.9125
2760.50515	11386.3125
2763.08123	11379.3125
2765.65573	11353.2125
2768.22863	11357.3125
2770.79994	11325.1125
2773.36967	11370.2125
2775.9378	11353.9125
2778.50435	11349.7125
2781.06932	11349.7125
2783.6327	11344.3125
2786.1945	11369.8125
2788.75471	11353.8125
2791.31335	11320.0125
2793.87041	11331.0125
2796.42589	11307.4125
2798.97979	11293.7125
2801.53212	11284.8125
2804.08288	11269.3125
2806.63206	11252.7125
2809.17967	11204.5125
2811.72571	11180.3125
2814.27018	11207.9125
2816.81308	11209.6125
2819.35442	11175.3125
2821.89419	11161.9125
2824.43239	11191.8125
2826.96904	11197.4125
2829.50412	11197.5125
2832.03763	11151.8125
2834.56959	11165.6125
2837.1	11205.3125
2839.62884	11202.8125
2842.15613	11204.5125
2844.68186	11254.4125
2847.20604	11257.7125
2849.72867	11272.9125
2852.24974	11278.1125
2854.76927	11275.8125
2857.28724	11268.9125
2859.80367	11228.9125
2862.31855	11216.9125
2864.83189	11216.0125
2867.34368	11207.4125
2869.85393	11204.2125
2872.36264	11191.3125
2874.8698	11186.5125
2877.37543	11194.7125
2879.87952	11201.1125
2882.38207	11173.2125
2884.88308	11189.1125
2887.38256	11196.7125
2889.88051	11185.0125
2892.37692	11204.5125
2894.8718	11205.7125
2897.36515	11203.4125
2899.85698	11228.5125
2902.34727	11261.4125
2904.83604	11259.8125
2907.32328	11277.0125
2909.809	11267.9125
2912.29319	11243.8125
2914.77587	11247.9125
2917.25702	11209.1125
2919.73665	11227.7125
2922.21476	11234.6125
2924.69136	11222.1125
2927.16644	11212.9125
2929.64	11186.5125
2932.11205	11138.5125
2934.58258	11129.9125
2937.05161	11120.9125
2939.51912	11165.2125
2941.98513	11111.0125
2944.44962	11099.4125
2946.91261	11037.9125
2949.37409	11036.8125
2951.83407	11025.2125
2954.29254	11016.6125
2956.74951	11002.9125
2959.20498	10996.5125
2961.65895	10985.4125
2964.11142	10968.7125
2966.56239	10956.4125
2969.01186	10943.7125
2971.45984	10910.1125
2973.90632	10860.4125
2976.35131	10870.7125
2978.7948	10839.3125
2981.23681	10814.3125
2983.67732	10767.0125
2986.11635	10729.9125
2988.55388	10726.4125
2990.98993	10724.3125
2993.4245	10692.9125
2995.85758	10656.9125
2998.28917	10653.2125
3000.71928	10653.5125
3003.14791	10621.1125
3005.57506	10611.7125
3008.00073	10591.2125
3010.42493	10556.7125
3012.84764	10545.9125
3015.26888	10513.1125
3017.68865	10501.4125
3020.10694	10475.5125
3022.52376	10467.7125
3024.9391	10459.6125
