Data from AgNP_FTO_APTES_UA_10uM_CRN_5uM_R6G_10uM_NaF_0.1M_Addition_RamanShift__17__15-02-10-655.txt Node

Date: Thu Feb 10 15:02:10 GMT 2022
User: TCL
Spectrometer: QEP01345
Trigger mode: 4
Integration Time (sec): 7.000000E0
Scans to average: 10
Electric dark correction enabled: true
Nonlinearity correction enabled: false
Boxcar width: 0
XAxis mode: Raman Shifts
Number of Pixels in Spectrum: 1044
>>>>>Begin Spectral Data<<<<<
46.04893	0.6125
50.45542	0.7125
54.85868	-2.2875
59.25871	-1.1875
63.6555	70.0125
68.04907	75.3125
72.43941	79.9125
76.82654	76.1125
81.21044	85.3125
85.59113	83.3125
89.96862	91.4125
94.34289	90.4125
98.71396	92.4125
103.08183	99.5125
107.4465	101.8125
111.80798	101.9125
116.16626	109.6125
120.52136	108.9125
124.87327	115.5125
129.222	122.7125
133.56755	129.3125
137.90993	140.4125
142.24913	148.3125
146.58517	171.1125
150.91804	198.3125
155.24774	240.3125
159.57429	294.0125
163.89768	375.8125
168.21792	506.3125
172.53501	692.8125
176.84895	962.0125
181.15975	1356.8125
185.46741	1891.6125
189.77193	2615.5125
194.07331	3473.1125
198.37157	4481.5125
202.6667	5535.4125
206.9587	6552.6125
211.24758	7560.3125
215.53334	8596.5125
219.81599	9683.8125
224.09553	10901.6125
228.37195	12205.0125
232.64527	13680.9125
236.91549	15225.3125
241.18261	16745.8125
245.44663	18138.3125
249.70755	19420.9125
253.96539	20552.1125
258.22014	21495.8125
262.4718	22340.4125
266.72039	22856.5125
270.96589	23229.6125
275.20832	23335.4125
279.44768	23266.5125
283.68397	23108.1125
287.91719	22950.2125
292.14735	22905.8125
296.37445	22913.4125
300.59849	22988.2125
304.81948	23011.9125
309.03742	22929.5125
313.25231	22597.9125
317.46415	22093.9125
321.67296	21416.2125
325.87872	20873.3125
330.08145	20595.4125
334.28114	20575.8125
338.47781	20765.4125
342.67145	20979.3125
346.86207	21392.6125
351.04966	21727.2125
355.23424	22223.1125
359.4158	22590.7125
363.59435	22827.7125
367.76989	22999.3125
371.94243	23137.3125
376.11196	23291.9125
380.27849	23398.8125
384.44203	23488.2125
388.60257	23667.1125
392.76012	23894.4125
396.91468	24132.5125
401.06626	24516.0125
405.21485	24713.5125
409.36047	24576.6125
413.50311	24220.3125
417.64277	23984.2125
421.77947	23966.0125
425.9132	24067.0125
430.04396	24257.5125
434.17176	24363.0125
438.2966	24501.0125
442.41849	24913.3125
446.53742	25542.2125
450.6534	26319.2125
454.76644	26891.2125
458.87653	27117.4125
462.98368	26992.7125
467.08789	26714.2125
471.18916	26332.7125
475.2875	26042.4125
479.38291	25886.5125
483.4754	25717.5125
487.56496	25388.3125
491.6516	24871.3125
495.73531	24457.3125
499.81612	24296.1125
503.89401	24425.5125
507.96899	24534.3125
512.04106	24491.2125
516.11023	24287.3125
520.1765	24065.5125
524.23987	23823.5125
528.30034	23565.2125
532.35792	23305.9125
536.41261	23043.2125
540.46441	22776.0125
544.51333	22849.5125
548.55936	23167.6125
552.60252	23757.6125
556.64279	24386.1125
560.6802	24800.2125
564.71473	25048.4125
568.7464	25469.0125
572.7752	26094.2125
576.80114	26705.3125
580.82422	27167.2125
584.84444	27605.9125
588.86181	27982.7125
592.87633	28268.5125
596.888	28256.5125
600.89682	28023.1125
604.9028	28678.6125
608.90594	30910.5125
612.90624	33064.0125
616.90371	30741.9125
620.89834	25923.5125
624.89015	24000.1125
628.87913	23831.3125
632.86528	23827.1125
636.84862	23654.4125
640.82913	23308.4125
644.80683	22630.8125
648.78172	22215.2125
652.75379	22071.2125
656.72306	22364.7125
660.68952	22691.3125
664.65319	22639.1125
668.61405	22196.8125
672.57211	22049.8125
676.52738	22090.4125
680.47986	22098.6125
684.42955	21949.7125
688.37646	21939.4125
692.32058	22071.4125
696.26192	22346.0125
700.20048	22627.4125
704.13626	22805.1125
708.06928	22738.2125
711.99952	22594.2125
715.927	22546.7125
719.85171	22548.8125
723.77365	22524.3125
727.69284	22244.8125
731.60928	21963.1125
735.52295	21899.7125
739.43388	21899.0125
743.34206	21938.3125
747.24749	22047.0125
751.15017	22298.5125
755.05012	22710.9125
758.94733	23451.2125
762.8418	24714.5125
766.73354	26605.1125
770.62254	28311.1125
774.50882	28479.3125
778.39237	27030.0125
782.27321	25036.8125
786.15132	23458.7125
790.02671	22519.1125
793.89938	22122.4125
797.76935	21930.4125
801.6366	21908.6125
805.50115	21877.1125
809.36299	21706.6125
813.22213	21487.2125
817.07857	21395.8125
820.93231	21323.9125
824.78336	21184.0125
828.63172	21066.9125
832.47738	21058.4125
836.32036	21062.0125
840.16066	21158.1125
843.99827	21226.8125
847.8332	21196.2125
851.66546	21117.7125
855.49504	21081.3125
859.32195	21101.0125
863.1462	20994.3125
866.96777	20942.4125
870.78668	20899.9125
874.60293	20877.5125
878.41652	20894.3125
882.22745	20910.3125
886.03573	20993.1125
889.84136	20941.8125
893.64433	20843.2125
897.44466	20796.9125
901.24235	20711.8125
905.0374	20603.3125
908.8298	20593.4125
912.61957	20622.2125
916.40671	20837.8125
920.19121	21115.6125
923.97308	21408.2125
927.75233	21455.0125
931.52895	21265.4125
935.30295	20999.7125
939.07433	20565.0125
942.84309	20239.3125
946.60924	20096.8125
950.37278	20073.2125
954.13371	20070.3125
957.89203	19987.1125
961.64774	19963.7125
965.40086	19893.2125
969.15137	19845.9125
972.89929	19733.5125
976.64461	19696.8125
980.38733	19719.1125
984.12747	19799.8125
987.86502	20017.6125
991.59999	20263.3125
995.33237	20675.4125
999.06217	21306.7125
1002.78939	22016.2125
1006.51404	22430.9125
1010.23611	22639.8125
1013.95561	22858.9125
1017.67255	22843.8125
1021.38692	22568.8125
1025.09872	22296.9125
1028.80796	22361.0125
1032.51465	22884.2125
1036.21877	23444.6125
1039.92035	23535.4125
1043.61937	23242.0125
1047.31584	22725.3125
1051.00976	22184.9125
1054.70114	21965.8125
1058.38998	22021.7125
1062.07627	22208.7125
1065.76003	22372.5125
1069.44126	22553.2125
1073.11995	22784.7125
1076.79611	23092.0125
1080.46974	23311.1125
1084.14085	23476.0125
1087.80943	23793.5125
1091.47549	23997.0125
1095.13903	24021.8125
1098.80005	23716.4125
1102.45857	23215.2125
1106.11456	22795.1125
1109.76805	22650.8125
1113.41903	22737.5125
1117.06751	22862.6125
1120.71348	23022.7125
1124.35696	23332.0125
1127.99793	23533.2125
1131.63641	23743.5125
1135.2724	23631.6125
1138.90589	23515.9125
1142.5369	23502.7125
1146.16542	23530.1125
1149.79145	23670.2125
1153.415	23903.5125
1157.03607	24364.2125
1160.65467	25100.7125
1164.27079	26289.4125
1167.88443	27777.9125
1171.49561	29620.7125
1175.10432	31989.3125
1178.71056	34924.5125
1182.31434	37611.2125
1185.91565	39110.5125
1189.51451	39036.5125
1193.11091	37882.0125
1196.70485	36203.1125
1200.29634	34536.1125
1203.88538	33282.4125
1207.47197	32452.2125
1211.05612	31834.0125
1214.63782	31147.0125
1218.21708	30571.9125
1221.79391	30160.9125
1225.36829	29927.1125
1228.94024	29504.2125
1232.50976	28894.1125
1236.07685	28328.8125
1239.6415	28079.1125
1243.20374	27988.9125
1246.76355	28152.4125
1250.32093	28623.4125
1253.8759	29291.9125
1257.42845	30182.1125
1260.97859	31086.5125
1264.52631	32060.5125
1268.07163	33030.7125
1271.61453	34142.4125
1275.15503	35224.9125
1278.69312	36357.1125
1282.22882	37343.6125
1285.76211	38241.0125
1289.29301	39243.4125
1292.82151	40611.6125
1296.34761	42463.3125
1299.87133	45012.9125
1303.39266	47910.9125
1306.9116	50997.0125
1310.42815	53895.6125
1313.94233	55723.0125
1317.45412	55806.7125
1320.96354	54995.3125
1324.47058	54067.3125
1327.97525	53268.6125
1331.47754	52784.7125
1334.97747	52603.2125
1338.47502	52597.7125
1341.97022	52473.8125
1345.46305	51827.1125
1348.95352	50678.6125
1352.44163	49667.0125
1355.92738	49602.7125
1359.41078	50862.1125
1362.89183	51966.5125
1366.37053	50552.5125
1369.84688	46558.3125
1373.32088	41939.2125
1376.79254	38875.5125
1380.26186	37749.2125
1383.72883	37747.1125
1387.19347	37882.4125
1390.65578	37697.5125
1394.11575	37825.1125
1397.57339	38334.9125
1401.0287	39212.1125
1404.48168	39979.2125
1407.93234	40147.1125
1411.38068	39588.0125
1414.82669	38357.8125
1418.27039	36584.7125
1421.71177	34807.4125
1425.15083	33365.8125
1428.58758	32678.3125
1432.02203	32824.6125
1435.45416	33696.4125
1438.88399	34794.1125
1442.31151	35819.8125
1445.73673	36494.9125
1449.15965	37031.8125
1452.58027	37443.6125
1455.9986	37699.2125
1459.41463	38071.9125
1462.82837	38735.8125
1466.23982	39470.1125
1469.64898	40100.6125
1473.05586	40373.3125
1476.46045	40268.1125
1479.86276	39748.8125
1483.26279	39077.6125
1486.66054	38616.7125
1490.05602	38536.5125
1493.44922	38538.6125
1496.84016	38755.1125
1500.22882	39253.8125
1503.61521	40251.5125
1506.99934	41589.1125
1510.38121	42637.0125
1513.76081	42910.8125
1517.13816	41985.2125
1520.51324	40539.4125
1523.88607	39258.4125
1527.25665	38545.7125
1530.62498	38402.0125
1533.99105	38348.7125
1537.35488	38242.3125
1540.71647	37826.6125
1544.07581	37156.1125
1547.4329	36375.7125
1550.78776	35702.4125
1554.14038	35155.7125
1557.49077	34823.6125
1560.83892	34622.8125
1564.18484	34498.8125
1567.52853	34472.8125
1570.86999	34638.9125
1574.20922	35092.7125
1577.54624	35562.0125
1580.88103	35748.4125
1584.2136	36107.1125
1587.54395	37221.2125
1590.87208	39150.7125
1594.19801	41727.2125
1597.52172	44330.5125
1600.84321	45069.9125
1604.16251	43165.3125
1607.47959	39789.0125
1610.79447	36141.6125
1614.10715	32725.5125
1617.41763	29911.5125
1620.7259	27949.5125
1624.03199	26962.3125
1627.33587	26877.2125
1630.63757	27739.7125
1633.93707	29814.4125
1637.23439	33033.3125
1640.52951	37391.6125
1643.82246	42043.5125
1647.11321	45207.8125
1650.40179	45159.7125
1653.68819	41586.8125
1656.97241	35886.7125
1660.25446	30484.8125
1663.53433	26423.6125
1666.81203	23859.8125
1670.08756	22170.1125
1673.36092	21185.3125
1676.63211	20473.2125
1679.90115	19914.2125
1683.16801	19591.1125
1686.43272	19339.0125
1689.69527	19139.3125
1692.95567	18984.0125
1696.2139	18872.7125
1699.46999	18876.5125
1702.72392	18753.9125
1705.97571	18658.9125
1709.22535	18560.7125
1712.47284	18512.0125
1715.71819	18479.7125
1718.96139	18401.1125
1722.20246	18358.2125
1725.44139	18263.1125
1728.67818	18121.7125
1731.91284	17972.7125
1735.14537	17909.8125
1738.37576	17803.8125
1741.60403	17746.4125
1744.83017	17678.5125
1748.05418	17616.4125
1751.27607	17583.4125
1754.49584	17546.4125
1757.71349	17540.7125
1760.92903	17550.1125
1764.14244	17489.9125
1767.35375	17487.4125
1770.56294	17427.1125
1773.77002	17413.2125
1776.97499	17355.1125
1780.17785	17332.3125
1783.37861	17288.0125
1786.57727	17253.6125
1789.77382	17199.5125
1792.96828	17201.9125
1796.16064	17100.6125
1799.3509	17111.5125
1802.53907	17083.7125
1805.72514	17045.4125
1808.90913	16944.2125
1812.09102	16952.9125
1815.27083	16869.7125
1818.44856	16895.4125
1821.6242	16845.2125
1824.79776	16820.0125
1827.96924	16839.1125
1831.13864	16803.6125
1834.30597	16865.6125
1837.47122	16820.8125
1840.6344	16806.3125
1843.7955	16840.9125
1846.95454	16854.3125
1850.11151	16862.6125
1853.26642	16829.6125
1856.41926	16860.5125
1859.57004	16859.2125
1862.71876	16815.7125
1865.86542	16766.7125
1869.01003	16767.1125
1872.15258	16753.7125
1875.29308	16732.7125
1878.43152	16712.7125
1881.56792	16717.6125
1884.70227	16697.8125
1887.83457	16704.0125
1890.96482	16675.4125
1894.09304	16670.9125
1897.21921	16639.7125
1900.34335	16592.3125
1903.46544	16592.3125
1906.58551	16550.0125
1909.70353	16544.4125
1912.81953	16513.3125
1915.93349	16489.4125
1919.04543	16471.2125
1922.15534	16403.9125
1925.26322	16330.1125
1928.36908	16313.0125
1931.47292	16300.1125
1934.57473	16243.0125
1937.67453	16170.3125
1940.77232	16122.9125
1943.86808	16070.5125
1946.96184	16014.0125
1950.05358	15961.9125
1953.14331	15905.2125
1956.23103	15843.7125
1959.31675	15811.4125
1962.40046	15744.1125
1965.48217	15704.9125
1968.56188	15651.9125
1971.63959	15659.5125
1974.7153	15598.7125
1977.78901	15548.7125
1980.86073	15434.0125
1983.93046	15410.4125
1986.99819	15395.6125
1990.06394	15348.6125
1993.1277	15318.8125
1996.18947	15258.1125
1999.24925	15190.1125
2002.30706	15143.6125
2005.36288	15103.7125
2008.41672	15083.6125
2011.46859	15045.1125
2014.51848	15012.2125
2017.56639	14957.2125
2020.61233	14902.9125
2023.6563	14907.3125
2026.6983	14881.3125
2029.73833	14828.3125
2032.7764	14817.9125
2035.8125	14790.6125
2038.84664	14762.2125
2041.87881	14725.9125
2044.90903	14730.5125
2047.93729	14677.2125
2050.96359	14698.4125
2053.98794	14661.1125
2057.01034	14633.1125
2060.03078	14639.3125
2063.04927	14634.2125
2066.06582	14613.8125
2069.08042	14582.7125
2072.09307	14563.4125
2075.10378	14554.2125
2078.11255	14534.0125
2081.11938	14508.5125
2084.12426	14515.6125
2087.12722	14539.5125
2090.12824	14492.5125
2093.12732	14490.1125
2096.12447	14507.1125
2099.11969	14517.5125
2102.11299	14500.5125
2105.10435	14498.3125
2108.09379	14489.3125
2111.08131	14529.0125
2114.0669	14524.2125
2117.05057	14529.0125
2120.03233	14542.6125
2123.01216	14530.9125
2125.99008	14541.1125
2128.96609	14556.3125
2131.94018	14565.5125
2134.91236	14576.2125
2137.88263	14582.8125
2140.851	14598.0125
2143.81746	14641.0125
2146.78201	14623.3125
2149.74466	14641.1125
2152.7054	14623.1125
2155.66425	14609.1125
2158.6212	14594.9125
2161.57625	14589.7125
2164.52941	14603.2125
2167.48067	14559.2125
2170.43004	14560.9125
2173.37752	14559.0125
2176.32311	14535.7125
2179.26681	14563.4125
2182.20863	14551.6125
2185.14856	14564.4125
2188.08661	14546.6125
2191.02278	14586.4125
2193.95707	14568.4125
2196.88948	14557.3125
2199.82001	14552.3125
2202.74867	14535.5125
2205.67545	14544.5125
2208.60037	14505.3125
2211.52341	14513.8125
2214.44458	14497.7125
2217.36388	14507.0125
2220.28132	14432.6125
2223.1969	14419.9125
2226.11061	14400.0125
2229.02246	14395.6125
2231.93245	14328.6125
2234.84058	14296.5125
2237.74686	14285.9125
2240.65128	14251.5125
2243.55385	14234.4125
2246.45456	14198.8125
2249.35343	14192.6125
2252.25044	14191.8125
2255.14561	14185.3125
2258.03893	14173.7125
2260.93041	14156.5125
2263.82004	14082.4125
2266.70783	14041.9125
2269.59378	13958.5125
2272.4779	13944.8125
2275.36017	13903.0125
2278.24061	13869.6125
2281.11922	13865.5125
2283.996	13845.0125
2286.87094	13857.4125
2289.74405	13856.1125
2292.61534	13836.4125
2295.4848	13822.2125
2298.35243	13847.0125
2301.21824	13846.9125
2304.08223	13851.2125
2306.94439	13826.8125
2309.80474	13835.2125
2312.66327	13852.0125
2315.51999	13838.2125
2318.37489	13840.2125
2321.22797	13843.4125
2324.07925	13823.0125
2326.92871	13796.3125
2329.77637	13778.8125
2332.62222	13785.7125
2335.46626	13774.1125
2338.3085	13786.2125
2341.14893	13818.0125
2343.98756	13813.7125
2346.8244	13837.5125
2349.65943	13810.2125
2352.49267	13778.7125
2355.32411	13778.0125
2358.15376	13799.5125
2360.98161	13765.8125
2363.80768	13796.1125
2366.63195	13771.3125
2369.45444	13733.7125
2372.27514	13692.0125
2375.09405	13673.7125
2377.91118	13632.0125
2380.72652	13598.7125
2383.54009	13605.9125
2386.35187	13568.1125
2389.16188	13502.4125
2391.97011	13502.8125
2394.77657	13494.5125
2397.58125	13465.0125
2400.38416	13458.7125
2403.18529	13429.0125
2405.98466	13416.2125
2408.78226	13373.7125
2411.57809	13349.4125
2414.37216	13352.7125
2417.16446	13345.5125
2419.955	13297.0125
2422.74378	13312.0125
2425.5308	13289.9125
2428.31606	13284.0125
2431.09956	13301.6125
2433.88131	13295.6125
2436.6613	13287.7125
2439.43954	13300.3125
2442.21603	13288.3125
2444.99077	13278.8125
2447.76377	13259.9125
2450.53501	13241.5125
2453.30451	13248.2125
2456.07226	13222.0125
2458.83827	13268.2125
2461.60254	13254.9125
2464.36507	13239.0125
2467.12586	13248.3125
2469.88492	13251.0125
2472.64224	13238.8125
2475.39782	13278.8125
2478.15167	13280.8125
2480.90379	13305.9125
2483.65417	13324.9125
2486.40283	13304.0125
2489.14976	13351.8125
2491.89497	13320.9125
2494.63845	13360.1125
2497.3802	13317.3125
2500.12024	13316.0125
2502.85855	13307.3125
2505.59514	13283.1125
2508.33002	13282.4125
2511.06318	13275.9125
2513.79462	13278.5125
2516.52435	13273.1125
2519.25237	13272.7125
2521.97867	13262.8125
2524.70327	13273.2125
2527.42616	13256.2125
2530.14734	13257.1125
2532.86681	13215.8125
2535.58458	13246.6125
2538.30065	13232.0125
2541.01501	13229.3125
2543.72768	13206.6125
2546.43864	13214.9125
2549.14791	13221.1125
2551.85548	13210.0125
2554.56136	13187.2125
2557.26554	13138.7125
2559.96803	13145.7125
2562.66883	13142.7125
2565.36794	13120.7125
2568.06536	13101.7125
2570.7611	13073.6125
2573.45514	13123.5125
2576.14751	13067.8125
2578.83819	13073.8125
2581.52719	13078.9125
2584.21451	13078.3125
2586.90015	13070.1125
2589.58411	13066.6125
2592.2664	13051.2125
2594.94701	13044.1125
2597.62594	13059.4125
2600.30321	13029.1125
2602.9788	13032.5125
2605.65273	13061.6125
2608.32498	13060.1125
2610.99557	13035.0125
2613.66449	13045.2125
2616.33175	13059.7125
2618.99734	13075.4125
2621.66128	13082.0125
2624.32355	13069.0125
2626.98416	13080.9125
2629.64311	13065.9125
2632.30041	13082.6125
2634.95605	13040.8125
2637.61004	13027.8125
2640.26238	13032.5125
2642.91306	12995.4125
2645.56209	13020.2125
2648.20948	13005.7125
2650.85521	13023.6125
2653.4993	13044.6125
2656.14175	13016.6125
2658.78255	13056.8125
2661.42171	13025.9125
2664.05923	13079.8125
2666.6951	13056.2125
2669.32934	13074.2125
2671.96194	13041.0125
2674.59291	13075.5125
2677.22224	13103.3125
2679.84993	13080.9125
2682.476	13055.3125
2685.10043	13057.1125
2687.72324	13035.3125
2690.34441	13024.1125
2692.96396	13038.4125
2695.58188	13021.4125
2698.19818	12998.6125
2700.81285	13020.8125
2703.4259	13010.9125
2706.03733	13046.6125
2708.64714	13033.2125
2711.25533	13046.1125
2713.86191	13052.6125
2716.46687	13050.2125
2719.07021	13040.8125
2721.67194	13069.8125
2724.27206	13075.0125
2726.87057	13081.6125
2729.46747	13093.7125
2732.06276	13093.0125
2734.65644	13121.8125
2737.24852	13138.3125
2739.83899	13127.9125
2742.42786	13095.7125
2745.01513	13062.0125
2747.60079	13073.2125
2750.18486	13023.7125
2752.76733	13075.5125
2755.3482	13046.8125
2757.92747	13054.0125
2760.50515	13040.7125
2763.08123	13035.4125
2765.65573	13016.6125
2768.22863	13041.7125
2770.79994	13051.6125
2773.36967	13015.8125
2775.9378	13021.7125
2778.50435	13040.9125
2781.06932	13037.0125
2783.6327	13036.3125
2786.1945	13062.0125
2788.75471	13026.1125
2791.31335	13009.2125
2793.87041	13000.5125
2796.42589	12975.7125
2798.97979	12964.3125
2801.53212	12917.7125
2804.08288	12944.9125
2806.63206	12930.2125
2809.17967	12907.1125
2811.72571	12855.4125
2814.27018	12863.7125
2816.81308	12794.2125
2819.35442	12820.1125
2821.89419	12756.9125
2824.43239	12747.9125
2826.96904	12710.4125
2829.50412	12722.8125
2832.03763	12703.0125
2834.56959	12720.3125
2837.1	12697.1125
2839.62884	12701.9125
2842.15613	12704.2125
2844.68186	12711.6125
2847.20604	12702.2125
2849.72867	12716.6125
2852.24974	12697.3125
2854.76927	12718.2125
2857.28724	12682.8125
2859.80367	12649.0125
2862.31855	12627.7125
2864.83189	12612.5125
2867.34368	12568.0125
2869.85393	12584.6125
2872.36264	12595.6125
2874.8698	12576.7125
2877.37543	12583.6125
2879.87952	12587.3125
2882.38207	12586.7125
2884.88308	12611.0125
2887.38256	12600.4125
2889.88051	12622.4125
2892.37692	12602.2125
2894.8718	12612.0125
2897.36515	12627.7125
2899.85698	12653.8125
2902.34727	12696.3125
2904.83604	12675.7125
2907.32328	12721.4125
2909.809	12695.7125
2912.29319	12724.2125
2914.77587	12717.2125
2917.25702	12684.0125
2919.73665	12692.0125
2922.21476	12695.6125
2924.69136	12670.8125
2927.16644	12664.8125
2929.64	12641.5125
2932.11205	12638.5125
2934.58258	12616.0125
2937.05161	12602.2125
2939.51912	12579.0125
2941.98513	12597.4125
2944.44962	12545.6125
2946.91261	12521.5125
2949.37409	12547.3125
2951.83407	12531.4125
2954.29254	12513.0125
2956.74951	12509.7125
2959.20498	12484.3125
2961.65895	12488.6125
2964.11142	12487.4125
2966.56239	12467.4125
2969.01186	12439.9125
2971.45984	12437.2125
2973.90632	12444.5125
2976.35131	12392.5125
2978.7948	12342.8125
2981.23681	12309.5125
2983.67732	12284.0125
2986.11635	12240.5125
2988.55388	12226.4125
2990.98993	12195.5125
2993.4245	12192.1125
2995.85758	12143.0125
2998.28917	12118.9125
3000.71928	12092.8125
3003.14791	12098.8125
3005.57506	12080.1125
3008.00073	12042.1125
3010.42493	11899.6125
3012.84764	11977.2125
3015.26888	11959.8125
3017.68865	11928.9125
3020.10694	11915.6125
3022.52376	11892.6125
3024.9391	11861.5125
