Data from AgNP_FTO_APTES_UA_10uM_CRN_0uM_R6G_10uM_NaF_0.1M_Addition_RamanShift__7__12-16-30-441.txt Node

Date: Thu Feb 10 12:16:30 GMT 2022
User: TCL
Spectrometer: QEP01345
Trigger mode: 4
Integration Time (sec): 7.000000E0
Scans to average: 10
Electric dark correction enabled: true
Nonlinearity correction enabled: false
Boxcar width: 0
XAxis mode: Raman Shifts
Number of Pixels in Spectrum: 1044
>>>>>Begin Spectral Data<<<<<
46.04893	-0.5125
50.45542	-0.2125
54.85868	-1.4125
59.25871	-0.4125
63.6555	57.4875
68.04907	60.1875
72.43941	62.1875
76.82654	61.9875
81.21044	70.5875
85.59113	64.2875
89.96862	71.8875
94.34289	74.2875
98.71396	75.8875
103.08183	80.1875
107.4465	82.4875
111.80798	82.0875
116.16626	86.2875
120.52136	90.3875
124.87327	94.4875
129.222	97.3875
133.56755	106.8875
137.90993	112.7875
142.24913	119.1875
146.58517	138.4875
150.91804	164.7875
155.24774	197.4875
159.57429	244.8875
163.89768	316.0875
168.21792	423.4875
172.53501	580.8875
176.84895	810.2875
181.15975	1136.6875
185.46741	1603.3875
189.77193	2230.5875
194.07331	2980.2875
198.37157	3853.1875
202.6667	4764.3875
206.9587	5690.2875
211.24758	6583.6875
215.53334	7486.5875
219.81599	8477.0875
224.09553	9535.4875
228.37195	10722.8875
232.64527	12003.8875
236.91549	13375.3875
241.18261	14731.6875
245.44663	15944.9875
249.70755	16941.2875
253.96539	17822.7875
258.22014	18593.3875
262.4718	19157.0875
266.72039	19600.4875
270.96589	19768.9875
275.20832	19719.3875
279.44768	19471.5875
283.68397	19143.0875
287.91719	18886.9875
292.14735	18802.2875
296.37445	18808.6875
300.59849	18988.3875
304.81948	19211.7875
309.03742	19367.1875
313.25231	19351.9875
317.46415	19015.1875
321.67296	18442.1875
325.87872	17909.0875
330.08145	17669.4875
334.28114	17592.3875
338.47781	17727.4875
342.67145	17968.4875
346.86207	18368.7875
351.04966	18848.8875
355.23424	19387.2875
359.4158	19836.2875
363.59435	20159.0875
367.76989	20253.1875
371.94243	20263.8875
376.11196	20235.4875
380.27849	20182.1875
384.44203	20205.2875
388.60257	20294.6875
392.76012	20469.8875
396.91468	20762.3875
401.06626	21071.8875
405.21485	21321.1875
409.36047	21091.2875
413.50311	20586.7875
417.64277	20289.0875
421.77947	20209.4875
425.9132	20300.0875
430.04396	20371.5875
434.17176	20368.2875
438.2966	20362.5875
442.41849	20618.2875
446.53742	21026.2875
450.6534	21483.6875
454.76644	21714.4875
458.87653	21756.0875
462.98368	21602.9875
467.08789	21398.7875
471.18916	21092.2875
475.2875	20718.1875
479.38291	20440.3875
483.4754	20318.0875
487.56496	20190.8875
491.6516	20063.4875
495.73531	19884.7875
499.81612	19868.0875
503.89401	19964.1875
507.96899	20154.5875
512.04106	20208.2875
516.11023	20213.7875
520.1765	20058.1875
524.23987	19950.2875
528.30034	19779.4875
532.35792	19577.7875
536.41261	19293.9875
540.46441	19017.2875
544.51333	18887.9875
548.55936	19009.6875
552.60252	19412.4875
556.64279	19882.5875
560.6802	20199.7875
564.71473	20341.8875
568.7464	20633.5875
572.7752	21160.4875
576.80114	21624.2875
580.82422	22210.7875
584.84444	23093.5875
588.86181	24345.1875
592.87633	25418.7875
596.888	25456.8875
600.89682	24262.8875
604.9028	23978.1875
608.90594	26236.7875
612.90624	29431.3875
616.90371	27963.1875
620.89834	22595.5875
624.89015	19959.2875
628.87913	19521.1875
632.86528	19733.0875
636.84862	19911.7875
640.82913	19586.9875
644.80683	19003.4875
648.78172	18608.4875
652.75379	18597.8875
656.72306	18917.9875
660.68952	19362.6875
664.65319	19230.8875
668.61405	18688.0875
672.57211	18524.2875
676.52738	18619.9875
680.47986	18588.0875
684.42955	18433.7875
688.37646	18240.4875
692.32058	18345.3875
696.26192	18594.1875
700.20048	18897.2875
704.13626	19084.6875
708.06928	19119.2875
711.99952	19050.5875
715.927	19002.1875
719.85171	19058.1875
723.77365	18949.5875
727.69284	18660.2875
731.60928	18329.9875
735.52295	18232.7875
739.43388	18264.7875
743.34206	18347.3875
747.24749	18451.0875
751.15017	18621.6875
755.05012	18932.9875
758.94733	19478.2875
762.8418	20605.0875
766.73354	22555.8875
770.62254	24414.0875
774.50882	24864.3875
778.39237	23826.9875
782.27321	22092.1875
786.15132	20498.3875
790.02671	19342.4875
793.89938	18799.2875
797.76935	18512.3875
801.6366	18397.3875
805.50115	18276.6875
809.36299	18201.8875
813.22213	18027.2875
817.07857	17893.1875
820.93231	17784.6875
824.78336	17765.1875
828.63172	17709.9875
832.47738	17646.1875
836.32036	17647.9875
840.16066	17594.9875
843.99827	17569.8875
847.8332	17601.1875
851.66546	17654.4875
855.49504	17673.6875
859.32195	17677.3875
863.1462	17625.0875
866.96777	17571.2875
870.78668	17573.3875
874.60293	17588.3875
878.41652	17626.4875
882.22745	17720.8875
886.03573	17774.1875
889.84136	17820.8875
893.64433	17793.3875
897.44466	17780.7875
901.24235	17770.7875
905.0374	17725.7875
908.8298	17648.2875
912.61957	17603.8875
916.40671	17709.1875
920.19121	17870.7875
923.97308	18120.6875
927.75233	18294.4875
931.52895	18234.0875
935.30295	17926.3875
939.07433	17488.9875
942.84309	17141.4875
946.60924	16959.7875
950.37278	16884.9875
954.13371	16885.3875
957.89203	16858.9875
961.64774	16814.0875
965.40086	16783.6875
969.15137	16735.2875
972.89929	16646.4875
976.64461	16597.9875
980.38733	16602.5875
984.12747	16605.9875
987.86502	16643.7875
991.59999	16733.5875
995.33237	16852.7875
999.06217	17063.4875
1002.78939	17439.6875
1006.51404	17875.0875
1010.23611	18258.3875
1013.95561	18482.3875
1017.67255	18561.1875
1021.38692	18410.2875
1025.09872	18041.5875
1028.80796	17700.6875
1032.51465	17574.3875
1036.21877	17586.4875
1039.92035	17637.6875
1043.61937	17685.0875
1047.31584	17698.9875
1051.00976	17739.2875
1054.70114	17793.5875
1058.38998	17814.7875
1062.07627	17936.3875
1065.76003	18136.8875
1069.44126	18371.8875
1073.11995	18783.4875
1076.79611	19177.1875
1080.46974	19474.2875
1084.14085	19706.8875
1087.80943	19978.5875
1091.47549	20238.7875
1095.13903	20140.7875
1098.80005	19780.8875
1102.45857	19219.6875
1106.11456	18834.9875
1109.76805	18567.5875
1113.41903	18601.7875
1117.06751	18721.1875
1120.71348	18990.2875
1124.35696	19357.3875
1127.99793	19743.3875
1131.63641	19862.8875
1135.2724	19711.0875
1138.90589	19421.0875
1142.5369	19310.5875
1146.16542	19288.3875
1149.79145	19332.6875
1153.415	19340.9875
1157.03607	19546.7875
1160.65467	20071.8875
1164.27079	21018.8875
1167.88443	22233.5875
1171.49561	23649.6875
1175.10432	25559.2875
1178.71056	27930.8875
1182.31434	30183.0875
1185.91565	31296.3875
1189.51451	31107.0875
1193.11091	30053.8875
1196.70485	28515.1875
1200.29634	26927.0875
1203.88538	25699.4875
1207.47197	24895.1875
1211.05612	24295.3875
1214.63782	23680.5875
1218.21708	23083.3875
1221.79391	22543.9875
1225.36829	22280.3875
1228.94024	22197.1875
1232.50976	22059.1875
1236.07685	21839.4875
1239.6415	21614.5875
1243.20374	21491.1875
1246.76355	21500.6875
1250.32093	21723.5875
1253.8759	22150.5875
1257.42845	22852.4875
1260.97859	23680.5875
1264.52631	24630.9875
1268.07163	25497.2875
1271.61453	26332.2875
1275.15503	26967.9875
1278.69312	27612.4875
1282.22882	28265.0875
1285.76211	29112.0875
1289.29301	30198.9875
1292.82151	31379.1875
1296.34761	32793.5875
1299.87133	34572.3875
1303.39266	36592.4875
1306.9116	38771.2875
1310.42815	40820.3875
1313.94233	41980.3875
1317.45412	41528.3875
1320.96354	40194.8875
1324.47058	38950.6875
1327.97525	38077.7875
1331.47754	37507.7875
1334.97747	36955.4875
1338.47502	36451.2875
1341.97022	36096.7875
1345.46305	36060.5875
1348.95352	36425.9875
1352.44163	37139.4875
1355.92738	38416.8875
1359.41078	40676.8875
1362.89183	43043.0875
1366.37053	42924.8875
1369.84688	39075.6875
1373.32088	33863.6875
1376.79254	30204.8875
1380.26186	28526.3875
1383.72883	27918.4875
1387.19347	27455.0875
1390.65578	26847.2875
1394.11575	26583.0875
1397.57339	26699.6875
1401.0287	27066.2875
1404.48168	27344.2875
1407.93234	27282.1875
1411.38068	26815.8875
1414.82669	26124.6875
1418.27039	25395.2875
1421.71177	24652.4875
1425.15083	24066.9875
1428.58758	23841.4875
1432.02203	24150.3875
1435.45416	24784.3875
1438.88399	25313.9875
1442.31151	25617.0875
1445.73673	25698.0875
1449.15965	25828.2875
1452.58027	25799.1875
1455.9986	25745.5875
1459.41463	25927.8875
1462.82837	26361.2875
1466.23982	26911.7875
1469.64898	27359.7875
1473.05586	27595.3875
1476.46045	27612.3875
1479.86276	27573.1875
1483.26279	27608.3875
1486.66054	27864.7875
1490.05602	28390.0875
1493.44922	29194.7875
1496.84016	30321.0875
1500.22882	31719.4875
1503.61521	33576.7875
1506.99934	35596.6875
1510.38121	37215.7875
1513.76081	37556.9875
1517.13816	36149.8875
1520.51324	33780.6875
1523.88607	31595.9875
1527.25665	30193.1875
1530.62498	29393.3875
1533.99105	28793.1875
1537.35488	28055.0875
1540.71647	27278.5875
1544.07581	26449.2875
1547.4329	25777.7875
1550.78776	25274.3875
1554.14038	24951.0875
1557.49077	24915.0875
1560.83892	24998.9875
1564.18484	25285.3875
1567.52853	25608.7875
1570.86999	25995.5875
1574.20922	26452.5875
1577.54624	26678.9875
1580.88103	26348.5875
1584.2136	26040.1875
1587.54395	26308.8875
1590.87208	27339.6875
1594.19801	28923.9875
1597.52172	30563.3875
1600.84321	30912.2875
1604.16251	29464.8875
1607.47959	27269.9875
1610.79447	25055.1875
1614.10715	22924.5875
1617.41763	21177.9875
1620.7259	19982.1875
1624.03199	19435.1875
1627.33587	19466.1875
1630.63757	20063.0875
1633.93707	21538.1875
1637.23439	23983.1875
1640.52951	27662.9875
1643.82246	32135.8875
1647.11321	35943.4875
1650.40179	37032.9875
1653.68819	34402.8875
1656.97241	29270.5875
1660.25446	24252.9875
1663.53433	20708.5875
1666.81203	18561.3875
1670.08756	17275.5875
1673.36092	16516.0875
1676.63211	16096.7875
1679.90115	15770.0875
1683.16801	15470.6875
1686.43272	15334.1875
1689.69527	15158.2875
1692.95567	15035.5875
1696.2139	14949.1875
1699.46999	14942.5875
1702.72392	14853.9875
1705.97571	14845.2875
1709.22535	14818.2875
1712.47284	14753.0875
1715.71819	14744.0875
1718.96139	14699.1875
1722.20246	14668.4875
1725.44139	14567.6875
1728.67818	14447.8875
1731.91284	14358.4875
1735.14537	14263.3875
1738.37576	14205.5875
1741.60403	14146.0875
1744.83017	14087.4875
1748.05418	14044.5875
1751.27607	14011.7875
1754.49584	13941.3875
1757.71349	13942.7875
1760.92903	13917.4875
1764.14244	13908.2875
1767.35375	13887.7875
1770.56294	13849.8875
1773.77002	13824.6875
1776.97499	13786.2875
1780.17785	13734.9875
1783.37861	13730.8875
1786.57727	13687.9875
1789.77382	13652.0875
1792.96828	13628.6875
1796.16064	13605.2875
1799.3509	13597.6875
1802.53907	13564.6875
1805.72514	13514.8875
1808.90913	13451.2875
1812.09102	13433.9875
1815.27083	13427.1875
1818.44856	13435.7875
1821.6242	13374.8875
1824.79776	13392.9875
1827.96924	13382.8875
1831.13864	13415.0875
1834.30597	13409.4875
1837.47122	13418.0875
1840.6344	13434.6875
1843.7955	13469.7875
1846.95454	13466.4875
1850.11151	13423.7875
1853.26642	13405.2875
1856.41926	13439.7875
1859.57004	13416.0875
1862.71876	13396.9875
1865.86542	13344.3875
1869.01003	13318.9875
1872.15258	13286.1875
1875.29308	13250.3875
1878.43152	13229.0875
1881.56792	13207.3875
1884.70227	13198.9875
1887.83457	13173.4875
1890.96482	13109.5875
1894.09304	13054.9875
1897.21921	13034.6875
1900.34335	13043.2875
1903.46544	12982.3875
1906.58551	12957.7875
1909.70353	12913.2875
1912.81953	12916.6875
1915.93349	12882.9875
1919.04543	12854.9875
1922.15534	12782.4875
1925.26322	12748.6875
1928.36908	12714.2875
1931.47292	12687.4875
1934.57473	12656.7875
1937.67453	12605.3875
1940.77232	12573.8875
1943.86808	12528.2875
1946.96184	12479.1875
1950.05358	12442.3875
1953.14331	12424.9875
1956.23103	12368.4875
1959.31675	12325.3875
1962.40046	12297.5875
1965.48217	12277.1875
1968.56188	12222.2875
1971.63959	12148.7875
1974.7153	12137.9875
1977.78901	12078.4875
1980.86073	12020.7875
1983.93046	12001.8875
1986.99819	11960.1875
1990.06394	11959.4875
1993.1277	11909.1875
1996.18947	11849.1875
1999.24925	11808.2875
2002.30706	11776.7875
2005.36288	11738.9875
2008.41672	11706.2875
2011.46859	11659.6875
2014.51848	11653.3875
2017.56639	11616.7875
2020.61233	11585.1875
2023.6563	11547.4875
2026.6983	11510.2875
2029.73833	11457.2875
2032.7764	11451.5875
2035.8125	11426.8875
2038.84664	11389.5875
2041.87881	11379.1875
2044.90903	11341.7875
2047.93729	11340.4875
2050.96359	11312.5875
2053.98794	11308.2875
2057.01034	11297.4875
2060.03078	11255.9875
2063.04927	11261.1875
2066.06582	11250.3875
2069.08042	11246.8875
2072.09307	11224.8875
2075.10378	11232.4875
2078.11255	11232.4875
2081.11938	11211.3875
2084.12426	11186.4875
2087.12722	11181.9875
2090.12824	11188.1875
2093.12732	11189.4875
2096.12447	11185.3875
2099.11969	11188.3875
2102.11299	11175.0875
2105.10435	11172.5875
2108.09379	11204.1875
2111.08131	11221.3875
2114.0669	11199.8875
2117.05057	11195.0875
2120.03233	11189.6875
2123.01216	11220.4875
2125.99008	11209.4875
2128.96609	11201.8875
2131.94018	11242.8875
2134.91236	11221.4875
2137.88263	11248.2875
2140.851	11218.8875
2143.81746	11226.1875
2146.78201	11205.7875
2149.74466	11188.0875
2152.7054	11187.3875
2155.66425	11163.5875
2158.6212	11177.3875
2161.57625	11144.0875
2164.52941	11145.4875
2167.48067	11131.7875
2170.43004	11142.3875
2173.37752	11146.2875
2176.32311	11138.0875
2179.26681	11119.8875
2182.20863	11124.6875
2185.14856	11115.3875
2188.08661	11088.9875
2191.02278	11082.5875
2193.95707	11101.5875
2196.88948	11077.9875
2199.82001	11073.6875
2202.74867	11070.6875
2205.67545	11010.2875
2208.60037	11012.3875
2211.52341	10979.1875
2214.44458	11000.8875
2217.36388	10953.6875
2220.28132	10944.6875
2223.1969	10901.6875
2226.11061	10859.2875
2229.02246	10860.8875
2231.93245	10855.9875
2234.84058	10835.1875
2237.74686	10823.2875
2240.65128	10826.3875
2243.55385	10779.4875
2246.45456	10763.6875
2249.35343	10740.6875
2252.25044	10731.6875
2255.14561	10714.9875
2258.03893	10678.3875
2260.93041	10677.3875
2263.82004	10658.6875
2266.70783	10625.8875
2269.59378	10570.1875
2272.4779	10573.6875
2275.36017	10509.7875
2278.24061	10527.9875
2281.11922	10512.2875
2283.996	10498.6875
2286.87094	10460.2875
2289.74405	10444.1875
2292.61534	10460.2875
2295.4848	10406.7875
2298.35243	10399.5875
2301.21824	10405.8875
2304.08223	10399.0875
2306.94439	10371.5875
2309.80474	10359.5875
2312.66327	10372.7875
2315.51999	10352.1875
2318.37489	10325.8875
2321.22797	10295.4875
2324.07925	10318.5875
2326.92871	10308.6875
2329.77637	10251.2875
2332.62222	10240.8875
2335.46626	10245.6875
2338.3085	10220.5875
2341.14893	10232.6875
2343.98756	10236.8875
2346.8244	10231.7875
2349.65943	10242.9875
2352.49267	10232.2875
2355.32411	10250.8875
2358.15376	10245.0875
2360.98161	10234.3875
2363.80768	10258.7875
2366.63195	10236.9875
2369.45444	10202.2875
2372.27514	10200.5875
2375.09405	10194.2875
2377.91118	10171.1875
2380.72652	10137.6875
2383.54009	10096.9875
2386.35187	10060.4875
2389.16188	10035.2875
2391.97011	10004.5875
2394.77657	9965.1875
2397.58125	9952.1875
2400.38416	9950.2875
2403.18529	9921.4875
2405.98466	9925.4875
2408.78226	9894.1875
2411.57809	9873.4875
2414.37216	9854.3875
2417.16446	9862.8875
2419.955	9844.5875
2422.74378	9823.0875
2425.5308	9862.4875
2428.31606	9841.4875
2431.09956	9838.2875
2433.88131	9821.8875
2436.6613	9834.0875
2439.43954	9842.1875
2442.21603	9811.8875
2444.99077	9815.0875
2447.76377	9797.1875
2450.53501	9805.6875
2453.30451	9785.0875
2456.07226	9807.0875
2458.83827	9807.2875
2461.60254	9797.9875
2464.36507	9764.1875
2467.12586	9739.2875
2469.88492	9762.7875
2472.64224	9778.3875
2475.39782	9756.7875
2478.15167	9742.6875
2480.90379	9779.3875
2483.65417	9776.7875
2486.40283	9752.4875
2489.14976	9766.4875
2491.89497	9739.0875
2494.63845	9743.6875
2497.3802	9699.5875
2500.12024	9723.1875
2502.85855	9703.5875
2505.59514	9716.7875
2508.33002	9699.8875
2511.06318	9692.9875
2513.79462	9680.9875
2516.52435	9660.0875
2519.25237	9646.2875
2521.97867	9624.7875
2524.70327	9600.4875
2527.42616	9567.9875
2530.14734	9587.6875
2532.86681	9582.8875
2535.58458	9550.2875
2538.30065	9568.7875
2541.01501	9562.0875
2543.72768	9545.3875
2546.43864	9536.5875
2549.14791	9539.5875
2551.85548	9532.8875
2554.56136	9516.5875
2557.26554	9484.6875
2559.96803	9451.3875
2562.66883	9448.1875
2565.36794	9453.1875
2568.06536	9424.0875
2570.7611	9426.5875
2573.45514	9376.1875
2576.14751	9378.0875
2578.83819	9354.9875
2581.52719	9354.9875
2584.21451	9355.4875
2586.90015	9348.7875
2589.58411	9335.3875
2592.2664	9305.5875
2594.94701	9268.7875
2597.62594	9310.3875
2600.30321	9276.7875
2602.9788	9275.3875
2605.65273	9264.5875
2608.32498	9278.6875
2610.99557	9255.4875
2613.66449	9265.4875
2616.33175	9221.6875
2618.99734	9204.7875
2621.66128	9229.8875
2624.32355	9203.6875
2626.98416	9201.5875
2629.64311	9156.0875
2632.30041	9171.7875
2634.95605	9146.5875
2637.61004	9156.8875
2640.26238	9133.8875
2642.91306	9123.6875
2645.56209	9138.2875
2648.20948	9110.8875
2650.85521	9106.3875
2653.4993	9138.1875
2656.14175	9129.2875
2658.78255	9166.3875
2661.42171	9118.5875
2664.05923	9160.2875
2666.6951	9170.4875
2669.32934	9161.8875
2671.96194	9160.4875
2674.59291	9167.1875
2677.22224	9154.9875
2679.84993	9151.3875
2682.476	9159.3875
2685.10043	9139.0875
2687.72324	9146.7875
2690.34441	9123.1875
2692.96396	9114.6875
2695.58188	9115.2875
2698.19818	9101.6875
2700.81285	9113.1875
2703.4259	9089.1875
2706.03733	9095.6875
2708.64714	9072.0875
2711.25533	9087.4875
2713.86191	9098.7875
2716.46687	9140.1875
2719.07021	9137.6875
2721.67194	9160.0875
2724.27206	9152.7875
2726.87057	9153.1875
2729.46747	9134.6875
2732.06276	9163.2875
2734.65644	9154.0875
2737.24852	9163.5875
2739.83899	9137.1875
2742.42786	9137.2875
2745.01513	9100.5875
2747.60079	9096.9875
2750.18486	9074.4875
2752.76733	9086.0875
2755.3482	9046.2875
2757.92747	9052.9875
2760.50515	9046.3875
2763.08123	9023.4875
2765.65573	9013.2875
2768.22863	9004.1875
2770.79994	9019.5875
2773.36967	9009.9875
2775.9378	8983.0875
2778.50435	8999.4875
2781.06932	8957.5875
2783.6327	8991.4875
2786.1945	8973.2875
2788.75471	8982.1875
2791.31335	8960.3875
2793.87041	8962.2875
2796.42589	8928.1875
2798.97979	8926.2875
2801.53212	8915.1875
2804.08288	8903.4875
2806.63206	8914.6875
2809.17967	8861.3875
2811.72571	8842.5875
2814.27018	8844.7875
2816.81308	8800.8875
2819.35442	8796.6875
2821.89419	8783.2875
2824.43239	8786.4875
2826.96904	8773.3875
2829.50412	8781.9875
2832.03763	8754.4875
2834.56959	8762.3875
2837.1	8748.0875
2839.62884	8733.8875
2842.15613	8748.8875
2844.68186	8745.7875
2847.20604	8771.1875
2849.72867	8768.3875
2852.24974	8779.1875
2854.76927	8760.3875
2857.28724	8751.8875
2859.80367	8709.5875
2862.31855	8737.8875
2864.83189	8729.3875
2867.34368	8752.1875
2869.85393	8720.5875
2872.36264	8698.8875
2874.8698	8704.7875
2877.37543	8705.8875
2879.87952	8711.0875
2882.38207	8700.2875
2884.88308	8700.3875
2887.38256	8696.4875
2889.88051	8684.7875
2892.37692	8697.3875
2894.8718	8711.0875
2897.36515	8701.7875
2899.85698	8700.8875
2902.34727	8712.0875
2904.83604	8737.4875
2907.32328	8751.6875
2909.809	8729.0875
2912.29319	8714.0875
2914.77587	8702.4875
2917.25702	8696.4875
2919.73665	8690.1875
2922.21476	8707.6875
2924.69136	8704.5875
2927.16644	8720.5875
2929.64	8673.2875
2932.11205	8668.7875
2934.58258	8637.5875
2937.05161	8618.5875
2939.51912	8648.3875
2941.98513	8611.7875
2944.44962	8586.3875
2946.91261	8563.7875
2949.37409	8552.3875
2951.83407	8553.8875
2954.29254	8557.5875
2956.74951	8549.6875
2959.20498	8526.3875
2961.65895	8534.7875
2964.11142	8548.2875
2966.56239	8525.4875
2969.01186	8489.5875
2971.45984	8465.3875
2973.90632	8443.3875
2976.35131	8427.1875
2978.7948	8415.8875
2981.23681	8412.4875
2983.67732	8368.4875
2986.11635	8366.1875
2988.55388	8323.3875
2990.98993	8320.1875
2993.4245	8305.7875
2995.85758	8277.5875
2998.28917	8275.2875
3000.71928	8244.5875
3003.14791	8233.7875
3005.57506	8237.2875
3008.00073	8204.3875
3010.42493	8195.1875
3012.84764	8142.3875
3015.26888	8127.8875
3017.68865	8116.7875
3020.10694	8103.1875
3022.52376	8100.4875
3024.9391	8089.1875
3027.35298	8081.8875
3029.76539	8045.5875
3032.17632	8051.1875
3034.5858	8055.9875
3036.9938	8056.4875
3039.40034	8042.9875
3041.80542	8031.1875
3044.20903	8024.5875
3046.61118	8011.7875
3049.01187	7964.9875
3051.4111	7996.5875
3053.80888	7936.3875
