Data from AgNP_FTO_APTES_UA_10uM_CRN_50uM_R6G_10uM_NaF_0.1M_Addition_RamanShift__10__16-54-10-793.txt Node

Date: Thu Feb 10 16:54:10 GMT 2022
User: TCL
Spectrometer: QEP01345
Trigger mode: 4
Integration Time (sec): 7.000000E0
Scans to average: 10
Electric dark correction enabled: true
Nonlinearity correction enabled: false
Boxcar width: 0
XAxis mode: Raman Shifts
Number of Pixels in Spectrum: 1044
>>>>>Begin Spectral Data<<<<<
46.04893	0.375
50.45542	-0.025
54.85868	-1.325
59.25871	-0.625
63.6555	62.575
68.04907	66.375
72.43941	69.575
76.82654	72.175
81.21044	76.275
85.59113	74.975
89.96862	77.675
94.34289	79.975
98.71396	81.275
103.08183	88.875
107.4465	88.975
111.80798	91.775
116.16626	95.275
120.52136	97.175
124.87327	104.075
129.222	105.975
133.56755	112.775
137.90993	114.175
142.24913	125.575
146.58517	145.975
150.91804	168.875
155.24774	201.375
159.57429	246.175
163.89768	314.075
168.21792	417.075
172.53501	565.275
176.84895	787.475
181.15975	1111.075
185.46741	1542.575
189.77193	2144.275
194.07331	2849.175
198.37157	3687.575
202.6667	4549.875
206.9587	5399.675
211.24758	6223.275
215.53334	7079.675
219.81599	7961.275
224.09553	8893.675
228.37195	9964.875
232.64527	11122.175
236.91549	12355.775
241.18261	13604.375
245.44663	14806.975
249.70755	15841.775
253.96539	16819.475
258.22014	17630.675
262.4718	18256.275
266.72039	18731.475
270.96589	18968.975
275.20832	19071.475
279.44768	19094.775
283.68397	19032.775
287.91719	18916.875
292.14735	18875.475
296.37445	18886.575
300.59849	18962.375
304.81948	18999.475
309.03742	18973.275
313.25231	18730.775
317.46415	18343.275
321.67296	17896.675
325.87872	17606.475
330.08145	17396.475
334.28114	17404.775
338.47781	17470.475
342.67145	17613.275
346.86207	17845.775
351.04966	18044.475
355.23424	18251.175
359.4158	18463.875
363.59435	18653.775
367.76989	18724.375
371.94243	18825.475
376.11196	18861.475
380.27849	18906.475
384.44203	18992.975
388.60257	19125.875
392.76012	19348.775
396.91468	19657.675
401.06626	19966.975
405.21485	20121.875
409.36047	20086.375
413.50311	19879.975
417.64277	19756.975
421.77947	19790.875
425.9132	19902.275
430.04396	20048.275
434.17176	20131.375
438.2966	20185.375
442.41849	20421.875
446.53742	20781.575
450.6534	21186.975
454.76644	21546.975
458.87653	21752.475
462.98368	21763.875
467.08789	21722.175
471.18916	21588.775
475.2875	21509.675
479.38291	21514.975
483.4754	21473.175
487.56496	21224.475
491.6516	20872.275
495.73531	20527.475
499.81612	20223.775
503.89401	20274.975
507.96899	20377.075
512.04106	20404.175
516.11023	20325.275
520.1765	20114.075
524.23987	19902.375
528.30034	19698.775
532.35792	19515.875
536.41261	19362.575
540.46441	19287.375
544.51333	19350.075
548.55936	19627.775
552.60252	20025.975
556.64279	20431.575
560.6802	20729.075
564.71473	20975.775
568.7464	21387.275
572.7752	22107.975
576.80114	22881.675
580.82422	23528.975
584.84444	23825.075
588.86181	24171.075
592.87633	24404.775
596.888	24100.475
600.89682	23456.575
604.9028	23355.675
608.90594	24226.275
612.90624	24919.375
616.90371	23439.175
620.89834	20815.675
624.89015	19769.175
628.87913	19759.875
632.86528	19945.775
636.84862	19943.275
640.82913	19722.075
644.80683	19355.375
648.78172	19046.775
652.75379	18973.975
656.72306	19080.375
660.68952	19299.775
664.65319	19231.975
668.61405	19068.975
672.57211	19057.575
676.52738	19118.775
680.47986	19133.275
684.42955	19059.275
688.37646	19008.975
692.32058	19070.275
696.26192	19229.875
700.20048	19441.275
704.13626	19605.575
708.06928	19676.275
711.99952	19662.775
715.927	19610.875
719.85171	19540.375
723.77365	19413.375
727.69284	19191.875
731.60928	18978.375
735.52295	18834.275
739.43388	18781.075
743.34206	18854.775
747.24749	18927.875
751.15017	19156.175
755.05012	19459.775
758.94733	19987.075
762.8418	20775.475
766.73354	21976.875
770.62254	22912.075
774.50882	22834.975
778.39237	21906.875
782.27321	20732.075
786.15132	19827.375
790.02671	19236.675
793.89938	18920.275
797.76935	18755.375
801.6366	18672.075
805.50115	18644.575
809.36299	18561.375
813.22213	18478.975
817.07857	18484.075
820.93231	18472.075
824.78336	18429.175
828.63172	18289.775
832.47738	18235.275
836.32036	18194.275
840.16066	18182.675
843.99827	18169.675
847.8332	18164.475
851.66546	18188.675
855.49504	18242.975
859.32195	18242.975
863.1462	18218.675
866.96777	18167.875
870.78668	18110.175
874.60293	18129.675
878.41652	18140.575
882.22745	18175.175
886.03573	18204.875
889.84136	18182.075
893.64433	18123.375
897.44466	18125.775
901.24235	18076.075
905.0374	18069.075
908.8298	18073.475
912.61957	18136.875
916.40671	18363.775
920.19121	18611.975
923.97308	18749.075
927.75233	18575.775
931.52895	18356.175
935.30295	18082.675
939.07433	17813.275
942.84309	17612.575
946.60924	17504.275
950.37278	17486.975
954.13371	17455.875
957.89203	17458.075
961.64774	17455.275
965.40086	17453.875
969.15137	17371.275
972.89929	17323.075
976.64461	17248.775
980.38733	17198.375
984.12747	17214.775
987.86502	17259.375
991.59999	17304.375
995.33237	17405.275
999.06217	17565.575
1002.78939	17744.775
1006.51404	17980.275
1010.23611	18214.475
1013.95561	18395.875
1017.67255	18433.475
1021.38692	18325.275
1025.09872	18139.075
1028.80796	18033.475
1032.51465	17977.875
1036.21877	18011.175
1039.92035	18086.575
1043.61937	18127.675
1047.31584	18196.175
1051.00976	18270.975
1054.70114	18381.275
1058.38998	18548.175
1062.07627	18765.475
1065.76003	19016.275
1069.44126	19215.875
1073.11995	19491.275
1076.79611	19659.975
1080.46974	19722.575
1084.14085	19738.275
1087.80943	19930.575
1091.47549	20045.475
1095.13903	20140.375
1098.80005	19966.375
1102.45857	19560.475
1106.11456	19167.575
1109.76805	18939.675
1113.41903	18846.875
1117.06751	18919.275
1120.71348	19054.975
1124.35696	19232.075
1127.99793	19392.675
1131.63641	19591.175
1135.2724	19577.575
1138.90589	19570.675
1142.5369	19645.175
1146.16542	19849.275
1149.79145	20021.175
1153.415	20208.775
1157.03607	20557.275
1160.65467	21029.275
1164.27079	21855.675
1167.88443	22822.375
1171.49561	23859.875
1175.10432	25015.175
1178.71056	26419.975
1182.31434	27704.675
1185.91565	28492.175
1189.51451	28721.875
1193.11091	28467.975
1196.70485	27784.075
1200.29634	26934.875
1203.88538	26306.875
1207.47197	26035.575
1211.05612	25831.175
1214.63782	25414.375
1218.21708	24672.275
1221.79391	23827.475
1225.36829	23176.075
1228.94024	22709.075
1232.50976	22519.675
1236.07685	22414.075
1239.6415	22407.875
1243.20374	22471.675
1246.76355	22629.175
1250.32093	22901.375
1253.8759	23317.775
1257.42845	23881.175
1260.97859	24497.575
1264.52631	25043.075
1268.07163	25595.975
1271.61453	26207.175
1275.15503	26749.375
1278.69312	27430.175
1282.22882	28154.175
1285.76211	29045.075
1289.29301	30080.175
1292.82151	31424.775
1296.34761	32911.675
1299.87133	34501.675
1303.39266	35934.275
1306.9116	36975.775
1310.42815	37626.475
1313.94233	37900.975
1317.45412	37859.375
1320.96354	37780.575
1324.47058	37883.375
1327.97525	38088.875
1331.47754	38261.075
1334.97747	38341.275
1338.47502	38419.375
1341.97022	38349.875
1345.46305	38052.375
1348.95352	37623.275
1352.44163	36988.275
1355.92738	36576.375
1359.41078	36618.875
1362.89183	36672.375
1366.37053	35837.375
1369.84688	33795.875
1373.32088	31296.175
1376.79254	29569.275
1380.26186	29018.675
1383.72883	29166.775
1387.19347	29393.375
1390.65578	29287.675
1394.11575	29221.675
1397.57339	29263.875
1401.0287	29358.075
1404.48168	29372.175
1407.93234	29044.075
1411.38068	28328.875
1414.82669	27255.875
1418.27039	26124.775
1421.71177	25074.275
1425.15083	24282.075
1428.58758	23953.375
1432.02203	24156.775
1435.45416	24738.875
1438.88399	25403.375
1442.31151	25944.575
1445.73673	26401.975
1449.15965	26736.475
1452.58027	27044.675
1455.9986	27154.175
1459.41463	27387.175
1462.82837	27696.275
1466.23982	28039.975
1469.64898	28332.275
1473.05586	28461.575
1476.46045	28355.475
1479.86276	28138.775
1483.26279	27828.375
1486.66054	27676.675
1490.05602	27812.375
1493.44922	28062.275
1496.84016	28492.775
1500.22882	29152.675
1503.61521	29975.375
1506.99934	30858.375
1510.38121	31535.475
1513.76081	31679.975
1517.13816	31490.275
1520.51324	31138.575
1523.88607	30967.675
1527.25665	30955.075
1530.62498	31010.375
1533.99105	30825.975
1537.35488	30314.275
1540.71647	29556.575
1544.07581	28615.375
1547.4329	27750.775
1550.78776	27014.975
1554.14038	26554.675
1557.49077	26292.375
1560.83892	26173.875
1564.18484	26158.875
1567.52853	26158.775
1570.86999	26443.975
1574.20922	26976.775
1577.54624	27461.275
1580.88103	27799.875
1584.2136	28078.775
1587.54395	28611.575
1590.87208	29471.175
1594.19801	30506.075
1597.52172	31348.375
1600.84321	31199.875
1604.16251	29879.275
1607.47959	28028.575
1610.79447	26173.475
1614.10715	24437.775
1617.41763	22902.775
1620.7259	21821.575
1624.03199	21225.875
1627.33587	21161.275
1630.63757	21667.375
1633.93707	22845.075
1637.23439	24845.975
1640.52951	27610.175
1643.82246	30864.275
1647.11321	33358.975
1650.40179	33816.175
1653.68819	31821.575
1656.97241	28283.675
1660.25446	24661.475
1663.53433	21791.475
1666.81203	19774.675
1670.08756	18573.675
1673.36092	17770.475
1676.63211	17205.875
1679.90115	16877.975
1683.16801	16578.675
1686.43272	16413.575
1689.69527	16247.175
1692.95567	16108.075
1696.2139	16063.275
1699.46999	15988.975
1702.72392	15901.475
1705.97571	15843.075
1709.22535	15779.175
1712.47284	15727.875
1715.71819	15683.575
1718.96139	15640.175
1722.20246	15602.875
1725.44139	15522.475
1728.67818	15415.275
1731.91284	15333.775
1735.14537	15248.375
1738.37576	15183.075
1741.60403	15141.875
1744.83017	15109.275
1748.05418	15080.375
1751.27607	15013.575
1754.49584	15026.775
1757.71349	15028.675
1760.92903	14973.675
1764.14244	14940.175
1767.35375	14938.075
1770.56294	14906.475
1773.77002	14880.275
1776.97499	14821.375
1780.17785	14765.575
1783.37861	14758.275
1786.57727	14738.675
1789.77382	14695.375
1792.96828	14647.175
1796.16064	14623.475
1799.3509	14574.875
1802.53907	14575.675
1805.72514	14507.475
1808.90913	14466.875
1812.09102	14439.075
1815.27083	14405.375
1818.44856	14392.175
1821.6242	14354.575
1824.79776	14329.875
1827.96924	14346.675
1831.13864	14350.875
1834.30597	14364.575
1837.47122	14323.675
1840.6344	14310.275
1843.7955	14315.875
1846.95454	14292.775
1850.11151	14278.775
1853.26642	14255.775
1856.41926	14239.875
1859.57004	14246.675
1862.71876	14222.175
1865.86542	14187.275
1869.01003	14148.175
1872.15258	14163.975
1875.29308	14154.375
1878.43152	14109.975
1881.56792	14088.775
1884.70227	14048.875
1887.83457	14003.175
1890.96482	13992.975
1894.09304	13967.375
1897.21921	13923.875
1900.34335	13891.075
1903.46544	13902.475
1906.58551	13872.675
1909.70353	13850.775
1912.81953	13815.475
1915.93349	13815.975
1919.04543	13772.275
1922.15534	13755.875
1925.26322	13707.775
1928.36908	13694.175
1931.47292	13686.675
1934.57473	13639.975
1937.67453	13635.875
1940.77232	13570.375
1943.86808	13505.275
1946.96184	13455.175
1950.05358	13427.275
1953.14331	13417.875
1956.23103	13391.375
1959.31675	13322.675
1962.40046	13286.775
1965.48217	13220.275
1968.56188	13205.175
1971.63959	13161.375
1974.7153	13091.075
1977.78901	13062.975
1980.86073	13022.575
1983.93046	12989.075
1986.99819	12957.475
1990.06394	12918.275
1993.1277	12883.275
1996.18947	12831.175
1999.24925	12788.875
2002.30706	12752.775
2005.36288	12741.475
2008.41672	12667.075
2011.46859	12642.575
2014.51848	12619.975
2017.56639	12588.975
2020.61233	12554.675
2023.6563	12493.275
2026.6983	12451.275
2029.73833	12456.975
2032.7764	12385.675
2035.8125	12383.275
2038.84664	12343.475
2041.87881	12304.875
2044.90903	12265.475
2047.93729	12238.575
2050.96359	12253.575
2053.98794	12227.675
2057.01034	12204.175
2060.03078	12184.575
2063.04927	12181.575
2066.06582	12176.475
2069.08042	12156.875
2072.09307	12162.075
2075.10378	12134.575
2078.11255	12147.075
2081.11938	12150.275
2084.12426	12133.975
2087.12722	12132.175
2090.12824	12091.175
2093.12732	12110.075
2096.12447	12064.675
2099.11969	12099.375
2102.11299	12078.875
2105.10435	12081.175
2108.09379	12097.475
2111.08131	12084.475
2114.0669	12102.975
2117.05057	12099.175
2120.03233	12127.575
2123.01216	12128.675
2125.99008	12102.975
2128.96609	12119.175
2131.94018	12139.775
2134.91236	12115.375
2137.88263	12159.675
2140.851	12151.475
2143.81746	12161.575
2146.78201	12144.475
2149.74466	12149.775
2152.7054	12124.675
2155.66425	12131.575
2158.6212	12106.075
2161.57625	12120.475
2164.52941	12108.975
2167.48067	12096.875
2170.43004	12066.175
2173.37752	12054.375
2176.32311	12061.575
2179.26681	12061.375
2182.20863	12045.675
2185.14856	12049.175
2188.08661	12046.775
2191.02278	12055.675
2193.95707	12063.875
2196.88948	12038.875
2199.82001	12048.475
2202.74867	12010.375
2205.67545	11958.675
2208.60037	11947.675
2211.52341	11929.475
2214.44458	11929.075
2217.36388	11887.275
2220.28132	11880.975
2223.1969	11836.575
2226.11061	11849.275
2229.02246	11815.775
2231.93245	11795.675
2234.84058	11776.375
2237.74686	11759.675
2240.65128	11762.075
2243.55385	11704.875
2246.45456	11705.075
2249.35343	11668.375
2252.25044	11622.875
2255.14561	11632.075
2258.03893	11609.075
2260.93041	11587.575
2263.82004	11532.175
2266.70783	11519.175
2269.59378	11462.875
2272.4779	11434.175
2275.36017	11403.775
2278.24061	11382.075
2281.11922	11363.075
2283.996	11366.275
2286.87094	11320.275
2289.74405	11315.275
2292.61534	11297.475
2295.4848	11277.875
2298.35243	11273.275
2301.21824	11259.875
2304.08223	11264.275
2306.94439	11254.875
2309.80474	11247.975
2312.66327	11220.775
2315.51999	11234.775
2318.37489	11227.775
2321.22797	11181.275
2324.07925	11180.075
2326.92871	11141.475
2329.77637	11140.675
2332.62222	11128.875
2335.46626	11100.975
2338.3085	11072.775
2341.14893	11069.875
2343.98756	11105.575
2346.8244	11083.175
2349.65943	11066.375
2352.49267	11081.175
2355.32411	11052.775
2358.15376	11063.875
2360.98161	11049.375
2363.80768	11064.275
2366.63195	11057.475
2369.45444	11015.075
2372.27514	10987.675
2375.09405	10979.675
2377.91118	10973.075
2380.72652	10911.575
2383.54009	10883.275
2386.35187	10867.475
2389.16188	10835.375
2391.97011	10817.975
2394.77657	10785.075
2397.58125	10786.175
2400.38416	10781.875
2403.18529	10767.875
2405.98466	10736.675
2408.78226	10746.175
2411.57809	10730.675
2414.37216	10698.275
2417.16446	10717.575
2419.955	10696.875
2422.74378	10707.075
2425.5308	10689.375
2428.31606	10700.375
2431.09956	10676.175
2433.88131	10663.175
2436.6613	10640.075
2439.43954	10629.975
2442.21603	10638.075
2444.99077	10596.675
2447.76377	10600.775
2450.53501	10591.475
2453.30451	10591.875
2456.07226	10575.675
2458.83827	10563.375
2461.60254	10556.175
2464.36507	10553.375
2467.12586	10538.275
2469.88492	10530.675
2472.64224	10548.375
2475.39782	10521.475
2478.15167	10508.075
2480.90379	10540.575
2483.65417	10522.975
2486.40283	10527.775
2489.14976	10515.375
2491.89497	10528.575
2494.63845	10510.775
2497.3802	10526.375
2500.12024	10516.775
2502.85855	10489.275
2505.59514	10483.875
2508.33002	10457.775
2511.06318	10463.175
2513.79462	10453.575
2516.52435	10440.575
2519.25237	10436.675
2521.97867	10420.875
2524.70327	10422.175
2527.42616	10389.075
2530.14734	10417.675
2532.86681	10397.975
2535.58458	10409.475
2538.30065	10390.675
2541.01501	10387.075
2543.72768	10367.675
2546.43864	10366.775
2549.14791	10324.575
2551.85548	10339.675
2554.56136	10331.375
2557.26554	10264.775
2559.96803	10247.675
2562.66883	10256.775
2565.36794	10231.975
2568.06536	10228.075
2570.7611	10203.475
2573.45514	10189.675
2576.14751	10132.775
2578.83819	10158.975
2581.52719	10141.775
2584.21451	10115.075
2586.90015	10136.575
2589.58411	10119.075
2592.2664	10109.675
2594.94701	10095.675
2597.62594	10083.575
2600.30321	10057.175
2602.9788	10067.475
2605.65273	10046.975
2608.32498	10042.175
2610.99557	10031.775
2613.66449	10007.975
2616.33175	10013.875
2618.99734	10006.475
2621.66128	9988.875
2624.32355	9996.475
2626.98416	9981.875
2629.64311	9978.375
2632.30041	9963.275
2634.95605	9941.475
2637.61004	9955.875
2640.26238	9939.475
2642.91306	9904.075
2645.56209	9917.075
2648.20948	9924.675
2650.85521	9903.075
2653.4993	9924.575
2656.14175	9934.175
2658.78255	9908.775
2661.42171	9934.375
2664.05923	9946.775
2666.6951	9929.975
2669.32934	9934.875
2671.96194	9948.075
2674.59291	9957.975
2677.22224	9931.275
2679.84993	9945.975
2682.476	9926.475
2685.10043	9921.775
2687.72324	9897.275
2690.34441	9911.475
2692.96396	9910.175
2695.58188	9892.575
2698.19818	9891.175
2700.81285	9923.375
2703.4259	9930.475
2706.03733	9911.975
2708.64714	9904.575
2711.25533	9925.975
2713.86191	9915.775
2716.46687	9944.775
2719.07021	9925.575
2721.67194	9947.875
2724.27206	9915.375
2726.87057	9950.975
2729.46747	9934.375
2732.06276	9953.375
2734.65644	9935.575
2737.24852	9943.075
2739.83899	9902.375
2742.42786	9921.275
2745.01513	9875.575
2747.60079	9892.875
2750.18486	9847.875
2752.76733	9858.475
2755.3482	9841.775
2757.92747	9841.475
2760.50515	9835.075
2763.08123	9831.475
2765.65573	9803.775
2768.22863	9811.775
2770.79994	9792.275
2773.36967	9800.675
2775.9378	9785.875
2778.50435	9790.175
2781.06932	9780.875
2783.6327	9767.575
2786.1945	9785.075
2788.75471	9769.775
2791.31335	9741.375
2793.87041	9729.575
2796.42589	9708.375
2798.97979	9673.775
2801.53212	9680.875
2804.08288	9679.675
2806.63206	9638.275
2809.17967	9632.275
2811.72571	9588.275
2814.27018	9579.475
2816.81308	9560.575
2819.35442	9546.175
2821.89419	9519.975
2824.43239	9531.275
2826.96904	9489.475
2829.50412	9526.175
2832.03763	9480.275
2834.56959	9478.075
2837.1	9461.875
2839.62884	9460.875
2842.15613	9482.675
2844.68186	9461.375
2847.20604	9474.775
2849.72867	9475.975
2852.24974	9485.475
2854.76927	9459.175
2857.28724	9463.975
2859.80367	9447.275
2862.31855	9387.275
2864.83189	9402.275
2867.34368	9383.275
2869.85393	9347.975
2872.36264	9338.875
2874.8698	9355.875
2877.37543	9337.175
2879.87952	9316.875
2882.38207	9329.675
2884.88308	9320.375
2887.38256	9340.475
2889.88051	9354.475
2892.37692	9328.275
2894.8718	9312.675
2897.36515	9338.275
2899.85698	9327.575
2902.34727	9338.075
2904.83604	9331.875
2907.32328	9354.275
2909.809	9340.875
2912.29319	9342.975
2914.77587	9368.775
2917.25702	9340.175
2919.73665	9334.875
2922.21476	9336.075
2924.69136	9339.875
2927.16644	9311.875
2929.64	9288.075
2932.11205	9310.075
2934.58258	9266.775
2937.05161	9287.875
2939.51912	9302.875
2941.98513	9252.875
2944.44962	9262.775
2946.91261	9237.375
2949.37409	9220.475
2951.83407	9187.875
2954.29254	9211.875
2956.74951	9194.975
2959.20498	9178.375
2961.65895	9171.175
2964.11142	9179.875
2966.56239	9178.375
2969.01186	9174.175
2971.45984	9135.375
2973.90632	9143.875
2976.35131	9135.975
2978.7948	9108.275
2981.23681	9070.375
2983.67732	9056.475
2986.11635	9032.975
2988.55388	9036.375
2990.98993	9015.675
2993.4245	8974.275
2995.85758	8950.575
2998.28917	8920.475
3000.71928	8909.675
3003.14791	8881.875
3005.57506	8861.175
3008.00073	8870.675
3010.42493	8815.075
3012.84764	8820.075
3015.26888	8794.875
3017.68865	8748.975
3020.10694	8762.175
3022.52376	8751.575
3024.9391	8735.475
3027.35298	8725.275
3029.76539	8735.275
3032.17632	8719.675
3034.5858	8709.475
3036.9938	8689.375
3039.40034	8691.275
3041.80542	8709.575
3044.20903	8642.675
3046.61118	8668.175
3049.01187	8649.475
3051.4111	8648.575
3053.80888	8628.975
3056.20519	8602.575
3058.60005	8572.975
3060.99345	8544.475
3063.3854	8535.675
3065.7759	8511.475
3068.16494	8494.875
3070.55254	8479.275
3072.93868	8446.275
3075.32338	8420.275
3077.70662	8419.075
3080.08842	8391.675
3082.46878	8384.475
3084.84769	8378.575
3087.22515	8339.975
3089.60118	8365.075
3091.97576	8330.775
3094.3489	8325.775
3096.72061	8324.175
3099.09087	8322.175
3101.4597	8344.475
3103.82709	8313.475
3106.19305	8298.375
3108.55757	8290.875
3110.92066	8290.675
3113.28232	8278.475
3115.64255	8265.075
3118.00134	8246.475
3120.35871	8222.075
3122.71466	8198.375
3125.06917	8193.375
3127.42226	8162.175
3129.77393	8172.475
3132.12417	8159.375
3134.47299	8168.075
3136.82039	8142.675
3139.16636	8128.875
3141.51092	8133.275
3143.85406	8142.875
3146.19579	8133.575
3148.53609	8132.475
3150.87499	8131.875
3153.21246	8152.075
