Data from AgNP_FTO_APTES_UA_10uM_CRN_20uM_R6G_10uM_NaF_0.1M_Addition_RamanShift__13__16-18-00-748.txt Node

Date: Thu Feb 10 16:18:00 GMT 2022
User: TCL
Spectrometer: QEP01345
Trigger mode: 4
Integration Time (sec): 7.000000E0
Scans to average: 10
Electric dark correction enabled: true
Nonlinearity correction enabled: false
Boxcar width: 0
XAxis mode: Raman Shifts
Number of Pixels in Spectrum: 1044
>>>>>Begin Spectral Data<<<<<
46.04893	0.1375
50.45542	-1.5625
54.85868	-0.9625
59.25871	-1.2625
63.6555	66.1375
68.04907	66.5375
72.43941	69.9375
76.82654	67.6375
81.21044	76.7375
85.59113	76.1375
89.96862	81.2375
94.34289	87.5375
98.71396	86.0375
103.08183	92.9375
107.4465	96.4375
111.80798	92.4375
116.16626	98.2375
120.52136	103.7375
124.87327	108.3375
129.222	110.9375
133.56755	114.7375
137.90993	121.5375
142.24913	137.4375
146.58517	152.7375
150.91804	180.0375
155.24774	210.8375
159.57429	262.2375
163.89768	332.8375
168.21792	441.3375
172.53501	602.6375
176.84895	836.2375
181.15975	1180.5375
185.46741	1650.0375
189.77193	2290.9375
194.07331	3062.2375
198.37157	3952.6375
202.6667	4887.4375
206.9587	5831.2375
211.24758	6725.7375
215.53334	7599.6375
219.81599	8562.5375
224.09553	9555.7375
228.37195	10697.9375
232.64527	11958.0375
236.91549	13258.0375
241.18261	14597.1375
245.44663	15894.8375
249.70755	17067.6375
253.96539	18125.7375
258.22014	18997.3375
262.4718	19738.5375
266.72039	20192.6375
270.96589	20484.1375
275.20832	20576.8375
279.44768	20509.6375
283.68397	20432.1375
287.91719	20339.9375
292.14735	20190.1375
296.37445	20200.7375
300.59849	20202.5375
304.81948	20229.8375
309.03742	20153.5375
313.25231	19968.0375
317.46415	19669.4375
321.67296	19243.0375
325.87872	18925.8375
330.08145	18805.0375
334.28114	18791.8375
338.47781	18867.7375
342.67145	19103.7375
346.86207	19308.0375
351.04966	19559.2375
355.23424	19787.0375
359.4158	19966.9375
363.59435	20155.4375
367.76989	20286.3375
371.94243	20368.5375
376.11196	20431.7375
380.27849	20480.1375
384.44203	20596.9375
388.60257	20723.3375
392.76012	20914.2375
396.91468	21225.9375
401.06626	21567.8375
405.21485	21767.2375
409.36047	21742.7375
413.50311	21586.6375
417.64277	21381.5375
421.77947	21407.4375
425.9132	21533.9375
430.04396	21665.4375
434.17176	21760.0375
438.2966	21895.9375
442.41849	22072.0375
446.53742	22421.0375
450.6534	22782.0375
454.76644	23100.1375
458.87653	23240.0375
462.98368	23307.0375
467.08789	23251.9375
471.18916	23166.9375
475.2875	22977.3375
479.38291	22914.4375
483.4754	22864.3375
487.56496	22692.5375
491.6516	22493.7375
495.73531	22244.6375
499.81612	22081.1375
503.89401	22086.3375
507.96899	22152.3375
512.04106	22200.7375
516.11023	22151.0375
520.1765	22020.2375
524.23987	21840.3375
528.30034	21647.4375
532.35792	21491.4375
536.41261	21371.0375
540.46441	21237.8375
544.51333	21307.2375
548.55936	21520.6375
552.60252	21888.1375
556.64279	22200.8375
560.6802	22503.2375
564.71473	22719.0375
568.7464	23053.5375
572.7752	23684.6375
576.80114	24413.2375
580.82422	25018.1375
584.84444	25421.7375
588.86181	25569.6375
592.87633	25591.7375
596.888	25459.5375
600.89682	25085.9375
604.9028	25158.2375
608.90594	26042.4375
612.90624	26834.1375
616.90371	25378.2375
620.89834	22914.1375
624.89015	21887.4375
628.87913	21829.8375
632.86528	22059.0375
636.84862	22090.4375
640.82913	21891.1375
644.80683	21522.0375
648.78172	21212.4375
652.75379	21141.5375
656.72306	21283.5375
660.68952	21433.2375
664.65319	21402.1375
668.61405	21303.3375
672.57211	21235.4375
676.52738	21348.3375
680.47986	21306.2375
684.42955	21214.9375
688.37646	21178.6375
692.32058	21258.1375
696.26192	21434.0375
700.20048	21619.8375
704.13626	21793.7375
708.06928	21863.8375
711.99952	21826.4375
715.927	21721.8375
719.85171	21670.2375
723.77365	21543.0375
727.69284	21391.9375
731.60928	21163.3375
735.52295	20995.3375
739.43388	20929.4375
743.34206	20972.6375
747.24749	21075.5375
751.15017	21224.0375
755.05012	21513.0375
758.94733	22009.6375
762.8418	22766.4375
766.73354	23898.7375
770.62254	24857.3375
774.50882	24877.7375
778.39237	24047.6375
782.27321	22927.5375
786.15132	22042.9375
790.02671	21451.2375
793.89938	21115.8375
797.76935	20941.7375
801.6366	20830.0375
805.50115	20748.9375
809.36299	20663.2375
813.22213	20599.5375
817.07857	20608.6375
820.93231	20576.8375
824.78336	20555.7375
828.63172	20493.5375
832.47738	20452.8375
836.32036	20409.5375
840.16066	20348.5375
843.99827	20383.3375
847.8332	20368.9375
851.66546	20430.7375
855.49504	20448.2375
859.32195	20439.6375
863.1462	20419.4375
866.96777	20424.9375
870.78668	20354.5375
874.60293	20380.0375
878.41652	20394.7375
882.22745	20442.3375
886.03573	20468.5375
889.84136	20440.5375
893.64433	20392.1375
897.44466	20358.5375
901.24235	20350.9375
905.0374	20292.4375
908.8298	20357.7375
912.61957	20393.8375
916.40671	20583.0375
920.19121	20801.8375
923.97308	20904.8375
927.75233	20801.0375
931.52895	20580.6375
935.30295	20333.5375
939.07433	20085.3375
942.84309	19895.9375
946.60924	19775.4375
950.37278	19718.9375
954.13371	19683.4375
957.89203	19672.3375
961.64774	19644.4375
965.40086	19661.2375
969.15137	19652.6375
972.89929	19572.5375
976.64461	19538.8375
980.38733	19484.8375
984.12747	19488.6375
987.86502	19541.5375
991.59999	19560.7375
995.33237	19655.6375
999.06217	19812.5375
1002.78939	20020.1375
1006.51404	20272.8375
1010.23611	20519.0375
1013.95561	20726.8375
1017.67255	20692.9375
1021.38692	20580.6375
1025.09872	20410.3375
1028.80796	20226.8375
1032.51465	20160.3375
1036.21877	20162.4375
1039.92035	20243.1375
1043.61937	20325.9375
1047.31584	20407.8375
1051.00976	20493.8375
1054.70114	20628.0375
1058.38998	20775.3375
1062.07627	21072.2375
1065.76003	21313.3375
1069.44126	21484.7375
1073.11995	21792.3375
1076.79611	21942.7375
1080.46974	22034.1375
1084.14085	22082.8375
1087.80943	22208.3375
1091.47549	22357.3375
1095.13903	22416.1375
1098.80005	22296.0375
1102.45857	21915.5375
1106.11456	21559.0375
1109.76805	21301.9375
1113.41903	21224.6375
1117.06751	21252.2375
1120.71348	21392.4375
1124.35696	21537.5375
1127.99793	21689.1375
1131.63641	21845.9375
1135.2724	21807.6375
1138.90589	21780.3375
1142.5369	21825.3375
1146.16542	21900.8375
1149.79145	22081.0375
1153.415	22304.4375
1157.03607	22544.2375
1160.65467	22940.8375
1164.27079	23609.3375
1167.88443	24383.6375
1171.49561	25274.3375
1175.10432	26366.4375
1178.71056	27681.4375
1182.31434	28886.5375
1185.91565	29773.6375
1189.51451	30182.6375
1193.11091	30154.7375
1196.70485	29602.1375
1200.29634	28715.4375
1203.88538	27961.0375
1207.47197	27474.0375
1211.05612	27186.3375
1214.63782	26779.8375
1218.21708	26217.1375
1221.79391	25512.0375
1225.36829	24969.6375
1228.94024	24680.6375
1232.50976	24517.5375
1236.07685	24464.6375
1239.6415	24469.4375
1243.20374	24520.4375
1246.76355	24611.9375
1250.32093	24864.9375
1253.8759	25245.3375
1257.42845	25753.3375
1260.97859	26349.8375
1264.52631	26900.1375
1268.07163	27421.8375
1271.61453	27914.5375
1275.15503	28390.2375
1278.69312	28900.6375
1282.22882	29438.0375
1285.76211	30073.9375
1289.29301	30789.7375
1292.82151	31709.3375
1296.34761	32787.3375
1299.87133	33978.8375
1303.39266	35078.6375
1306.9116	36055.4375
1310.42815	36725.4375
1313.94233	37034.5375
1317.45412	37019.4375
1320.96354	36991.5375
1324.47058	37075.5375
1327.97525	37299.2375
1331.47754	37611.8375
1334.97747	37930.4375
1338.47502	38351.2375
1341.97022	38891.6375
1345.46305	39125.6375
1348.95352	39084.1375
1352.44163	38613.9375
1355.92738	37925.9375
1359.41078	37526.7375
1362.89183	37276.8375
1366.37053	36365.3375
1369.84688	34458.7375
1373.32088	32299.9375
1376.79254	30714.0375
1380.26186	30020.5375
1383.72883	29978.2375
1387.19347	29988.5375
1390.65578	29810.7375
1394.11575	29678.2375
1397.57339	29647.2375
1401.0287	29663.2375
1404.48168	29643.0375
1407.93234	29440.6375
1411.38068	28953.5375
1414.82669	28205.7375
1418.27039	27359.9375
1421.71177	26519.2375
1425.15083	25889.0375
1428.58758	25531.7375
1432.02203	25625.5375
1435.45416	26012.2375
1438.88399	26502.5375
1442.31151	26943.0375
1445.73673	27329.4375
1449.15965	27667.5375
1452.58027	28000.5375
1455.9986	28203.4375
1459.41463	28534.1375
1462.82837	28888.0375
1466.23982	29285.1375
1469.64898	29647.5375
1473.05586	29766.8375
1476.46045	29810.6375
1479.86276	29687.9375
1483.26279	29572.3375
1486.66054	29532.5375
1490.05602	29597.3375
1493.44922	29931.1375
1496.84016	30469.9375
1500.22882	31199.8375
1503.61521	32087.8375
1506.99934	32958.0375
1510.38121	33541.1375
1513.76081	33655.5375
1517.13816	33253.7375
1520.51324	32731.6375
1523.88607	32351.6375
1527.25665	32215.7375
1530.62498	32112.9375
1533.99105	31921.9375
1537.35488	31438.7375
1540.71647	30785.4375
1544.07581	29994.0375
1547.4329	29233.4375
1550.78776	28688.4375
1554.14038	28340.2375
1557.49077	28183.0375
1560.83892	28096.4375
1564.18484	28060.8375
1567.52853	28073.9375
1570.86999	28216.8375
1574.20922	28554.5375
1577.54624	28879.8375
1580.88103	28975.3375
1584.2136	29003.9375
1587.54395	29254.6375
1590.87208	29896.7375
1594.19801	30715.3375
1597.52172	31526.9375
1600.84321	31595.8375
1604.16251	30686.1375
1607.47959	29290.3375
1610.79447	27801.0375
1614.10715	26281.5375
1617.41763	24888.6375
1620.7259	23809.6375
1624.03199	23167.5375
1627.33587	22998.2375
1630.63757	23350.6375
1633.93707	24312.3375
1637.23439	25902.7375
1640.52951	28290.4375
1643.82246	30986.9375
1647.11321	33145.9375
1650.40179	33851.6375
1653.68819	32457.6375
1656.97241	29507.8375
1660.25446	26379.0375
1663.53433	23795.6375
1666.81203	21918.9375
1670.08756	20665.7375
1673.36092	19896.3375
1676.63211	19379.1375
1679.90115	19034.5375
1683.16801	18728.8375
1686.43272	18541.9375
1689.69527	18357.2375
1692.95567	18266.3375
1696.2139	18176.1375
1699.46999	18119.7375
1702.72392	18034.4375
1705.97571	17973.9375
1709.22535	17909.5375
1712.47284	17859.8375
1715.71819	17841.7375
1718.96139	17783.2375
1722.20246	17738.4375
1725.44139	17661.7375
1728.67818	17581.9375
1731.91284	17472.4375
1735.14537	17375.2375
1738.37576	17319.6375
1741.60403	17268.6375
1744.83017	17188.1375
1748.05418	17139.6375
1751.27607	17124.5375
1754.49584	17095.1375
1757.71349	17088.9375
1760.92903	17085.8375
1764.14244	17038.5375
1767.35375	17036.2375
1770.56294	17009.8375
1773.77002	16973.8375
1776.97499	16914.0375
1780.17785	16882.3375
1783.37861	16831.5375
1786.57727	16833.4375
1789.77382	16809.1375
1792.96828	16759.6375
1796.16064	16710.6375
1799.3509	16693.0375
1802.53907	16678.1375
1805.72514	16599.0375
1808.90913	16555.7375
1812.09102	16526.6375
1815.27083	16485.0375
1818.44856	16490.5375
1821.6242	16442.3375
1824.79776	16461.1375
1827.96924	16405.8375
1831.13864	16353.6375
1834.30597	16404.9375
1837.47122	16382.6375
1840.6344	16400.8375
1843.7955	16390.6375
1846.95454	16364.7375
1850.11151	16358.5375
1853.26642	16315.7375
1856.41926	16339.5375
1859.57004	16300.9375
1862.71876	16257.3375
1865.86542	16242.4375
1869.01003	16222.4375
1872.15258	16182.4375
1875.29308	16171.8375
1878.43152	16135.8375
1881.56792	16131.2375
1884.70227	16086.9375
1887.83457	16048.3375
1890.96482	16013.7375
1894.09304	15981.6375
1897.21921	15958.4375
1900.34335	15935.9375
1903.46544	15928.3375
1906.58551	15883.1375
1909.70353	15894.6375
1912.81953	15852.3375
1915.93349	15823.8375
1919.04543	15777.3375
1922.15534	15755.1375
1925.26322	15748.9375
1928.36908	15689.5375
1931.47292	15680.5375
1934.57473	15620.8375
1937.67453	15586.1375
1940.77232	15549.3375
1943.86808	15546.5375
1946.96184	15463.7375
1950.05358	15427.5375
1953.14331	15355.4375
1956.23103	15298.4375
1959.31675	15266.4375
1962.40046	15195.2375
1965.48217	15131.1375
1968.56188	15099.9375
1971.63959	15036.7375
1974.7153	15004.6375
1977.78901	14962.0375
1980.86073	14923.7375
1983.93046	14898.4375
1986.99819	14846.5375
1990.06394	14785.4375
1993.1277	14763.1375
1996.18947	14686.4375
1999.24925	14655.1375
2002.30706	14602.1375
2005.36288	14555.1375
2008.41672	14519.6375
2011.46859	14450.5375
2014.51848	14439.9375
2017.56639	14432.0375
2020.61233	14365.3375
2023.6563	14323.0375
2026.6983	14271.1375
2029.73833	14226.6375
2032.7764	14225.5375
2035.8125	14178.2375
2038.84664	14110.6375
2041.87881	14073.7375
2044.90903	14034.8375
2047.93729	14010.0375
2050.96359	14009.6375
2053.98794	13986.2375
2057.01034	13971.4375
2060.03078	13947.7375
2063.04927	13900.4375
2066.06582	13919.9375
2069.08042	13940.5375
2072.09307	13930.2375
2075.10378	13900.9375
2078.11255	13879.4375
2081.11938	13880.8375
2084.12426	13862.9375
2087.12722	13863.4375
2090.12824	13886.1375
2093.12732	13867.0375
2096.12447	13835.5375
2099.11969	13859.4375
2102.11299	13829.3375
2105.10435	13835.1375
2108.09379	13850.6375
2111.08131	13862.2375
2114.0669	13833.1375
2117.05057	13815.6375
2120.03233	13852.1375
2123.01216	13897.9375
2125.99008	13885.9375
2128.96609	13874.1375
2131.94018	13925.4375
2134.91236	13907.5375
2137.88263	13906.0375
2140.851	13887.4375
2143.81746	13901.0375
2146.78201	13884.3375
2149.74466	13876.8375
2152.7054	13877.4375
2155.66425	13869.1375
2158.6212	13885.7375
2161.57625	13888.1375
2164.52941	13879.0375
2167.48067	13874.4375
2170.43004	13871.5375
2173.37752	13823.9375
2176.32311	13837.7375
2179.26681	13851.0375
2182.20863	13818.5375
2185.14856	13821.3375
2188.08661	13813.8375
2191.02278	13809.5375
2193.95707	13803.8375
2196.88948	13782.7375
2199.82001	13773.8375
2202.74867	13773.0375
2205.67545	13727.9375
2208.60037	13711.5375
2211.52341	13690.4375
2214.44458	13687.9375
2217.36388	13605.5375
2220.28132	13605.4375
2223.1969	13565.4375
2226.11061	13560.7375
2229.02246	13519.1375
2231.93245	13506.3375
2234.84058	13434.5375
2237.74686	13448.9375
2240.65128	13447.9375
2243.55385	13404.9375
2246.45456	13370.2375
2249.35343	13355.1375
2252.25044	13386.6375
2255.14561	13316.3375
2258.03893	13313.0375
2260.93041	13252.9375
2263.82004	13238.6375
2266.70783	13186.9375
2269.59378	13145.6375
2272.4779	13082.4375
2275.36017	13056.5375
2278.24061	13064.5375
2281.11922	13002.4375
2283.996	12980.3375
2286.87094	12990.2375
2289.74405	13013.5375
2292.61534	12953.5375
2295.4848	12940.6375
2298.35243	12910.4375
2301.21824	12913.5375
2304.08223	12890.3375
2306.94439	12891.0375
2309.80474	12870.0375
2312.66327	12867.9375
2315.51999	12823.3375
2318.37489	12837.1375
2321.22797	12814.4375
2324.07925	12797.1375
2326.92871	12783.8375
2329.77637	12700.8375
2332.62222	12722.9375
2335.46626	12697.7375
2338.3085	12683.8375
2341.14893	12672.9375
2343.98756	12679.9375
2346.8244	12671.2375
2349.65943	12662.7375
2352.49267	12623.9375
2355.32411	12613.7375
2358.15376	12645.4375
2360.98161	12626.4375
2363.80768	12654.7375
2366.63195	12637.4375
2369.45444	12595.2375
2372.27514	12588.3375
2375.09405	12583.2375
2377.91118	12562.9375
2380.72652	12515.6375
2383.54009	12505.6375
2386.35187	12464.4375
2389.16188	12431.9375
2391.97011	12397.2375
2394.77657	12354.4375
2397.58125	12337.7375
2400.38416	12312.9375
2403.18529	12326.7375
2405.98466	12281.1375
2408.78226	12263.6375
2411.57809	12270.1375
2414.37216	12247.0375
2417.16446	12257.6375
2419.955	12233.3375
2422.74378	12216.4375
2425.5308	12163.9375
2428.31606	12191.5375
2431.09956	12215.7375
2433.88131	12166.9375
2436.6613	12178.0375
2439.43954	12175.6375
2442.21603	12138.5375
2444.99077	12131.7375
2447.76377	12123.1375
2450.53501	12124.1375
2453.30451	12102.5375
2456.07226	12083.1375
2458.83827	12068.4375
2461.60254	12088.9375
2464.36507	12033.8375
2467.12586	12003.9375
2469.88492	11990.3375
2472.64224	11982.7375
2475.39782	12014.8375
2478.15167	12025.8375
2480.90379	12007.6375
2483.65417	11985.1375
2486.40283	11992.1375
2489.14976	12005.5375
2491.89497	11999.5375
2494.63845	11980.4375
2497.3802	11974.7375
2500.12024	11946.4375
2502.85855	11956.8375
2505.59514	11963.4375
2508.33002	11894.3375
2511.06318	11925.7375
2513.79462	11904.7375
2516.52435	11887.4375
2519.25237	11873.4375
2521.97867	11861.9375
2524.70327	11859.1375
2527.42616	11818.8375
2530.14734	11847.5375
2532.86681	11819.2375
2535.58458	11794.8375
2538.30065	11791.6375
2541.01501	11765.7375
2543.72768	11771.6375
2546.43864	11753.5375
2549.14791	11728.6375
2551.85548	11714.5375
2554.56136	11722.1375
2557.26554	11677.0375
2559.96803	11670.8375
2562.66883	11617.8375
2565.36794	11593.7375
2568.06536	11599.7375
2570.7611	11571.6375
2573.45514	11568.3375
2576.14751	11537.3375
2578.83819	11532.8375
2581.52719	11495.1375
2584.21451	11480.4375
2586.90015	11477.3375
2589.58411	11456.0375
2592.2664	11448.6375
2594.94701	11401.9375
2597.62594	11415.2375
2600.30321	11394.7375
2602.9788	11378.5375
2605.65273	11375.3375
2608.32498	11375.1375
2610.99557	11372.1375
2613.66449	11356.6375
2616.33175	11330.5375
2618.99734	11346.3375
2621.66128	11300.9375
2624.32355	11269.7375
2626.98416	11283.4375
2629.64311	11248.7375
2632.30041	11229.2375
2634.95605	11240.9375
2637.61004	11200.3375
2640.26238	11208.0375
2642.91306	11219.2375
2645.56209	11175.1375
2648.20948	11207.3375
2650.85521	11185.3375
2653.4993	11189.1375
2656.14175	11158.1375
2658.78255	11186.7375
2661.42171	11212.0375
2664.05923	11192.0375
2666.6951	11206.7375
2669.32934	11204.7375
2671.96194	11226.5375
2674.59291	11200.3375
2677.22224	11187.5375
2679.84993	11197.2375
2682.476	11206.3375
2685.10043	11200.8375
2687.72324	11171.0375
2690.34441	11190.5375
2692.96396	11181.8375
2695.58188	11161.4375
2698.19818	11181.9375
2700.81285	11196.7375
2703.4259	11189.3375
2706.03733	11204.1375
2708.64714	11155.1375
2711.25533	11204.3375
2713.86191	11160.1375
2716.46687	11204.0375
2719.07021	11191.4375
2721.67194	11181.8375
2724.27206	11181.0375
2726.87057	11197.8375
2729.46747	11173.7375
2732.06276	11195.7375
2734.65644	11184.1375
2737.24852	11164.7375
2739.83899	11161.3375
2742.42786	11185.3375
2745.01513	11150.7375
2747.60079	11115.6375
2750.18486	11107.3375
2752.76733	11111.1375
2755.3482	11070.0375
2757.92747	11053.4375
2760.50515	11055.3375
2763.08123	11031.1375
2765.65573	11019.2375
2768.22863	11035.9375
2770.79994	11015.7375
2773.36967	11007.9375
2775.9378	11001.8375
2778.50435	11017.0375
2781.06932	10997.3375
2783.6327	10999.4375
2786.1945	10992.5375
2788.75471	10954.9375
2791.31335	10947.1375
2793.87041	10921.8375
2796.42589	10883.9375
2798.97979	10884.4375
2801.53212	10836.7375
2804.08288	10850.3375
2806.63206	10823.5375
2809.17967	10808.2375
2811.72571	10760.0375
2814.27018	10750.0375
2816.81308	10725.2375
2819.35442	10716.0375
2821.89419	10673.8375
2824.43239	10670.0375
2826.96904	10635.9375
2829.50412	10631.5375
2832.03763	10592.5375
2834.56959	10621.8375
2837.1	10581.6375
2839.62884	10598.8375
2842.15613	10592.9375
2844.68186	10583.8375
2847.20604	10593.1375
2849.72867	10584.9375
2852.24974	10591.5375
2854.76927	10528.1375
2857.28724	10519.4375
2859.80367	10503.3375
2862.31855	10499.6375
2864.83189	10476.7375
2867.34368	10455.9375
2869.85393	10445.4375
2872.36264	10427.3375
2874.8698	10431.6375
2877.37543	10409.1375
2879.87952	10420.0375
2882.38207	10415.9375
2884.88308	10409.3375
2887.38256	10404.8375
2889.88051	10400.0375
2892.37692	10414.4375
2894.8718	10400.7375
2897.36515	10400.1375
2899.85698	10404.8375
2902.34727	10417.0375
2904.83604	10392.6375
2907.32328	10416.9375
2909.809	10402.2375
2912.29319	10428.8375
2914.77587	10393.8375
2917.25702	10422.9375
2919.73665	10373.8375
2922.21476	10410.1375
2924.69136	10406.7375
2927.16644	10363.9375
2929.64	10369.5375
2932.11205	10333.8375
2934.58258	10321.3375
2937.05161	10326.4375
2939.51912	10321.3375
2941.98513	10317.9375
2944.44962	10274.6375
2946.91261	10265.2375
2949.37409	10312.6375
2951.83407	10277.2375
2954.29254	10251.1375
2956.74951	10236.9375
2959.20498	10241.4375
2961.65895	10233.0375
2964.11142	10240.8375
2966.56239	10214.4375
2969.01186	10221.2375
2971.45984	10201.2375
2973.90632	10186.4375
2976.35131	10187.6375
2978.7948	10143.1375
2981.23681	10127.5375
2983.67732	10118.6375
2986.11635	10086.6375
2988.55388	10069.5375
2990.98993	10042.2375
2993.4245	10012.2375
2995.85758	9981.9375
2998.28917	9949.8375
3000.71928	9913.4375
3003.14791	9912.7375
3005.57506	9894.2375
3008.00073	9843.9375
3010.42493	9721.3375
3012.84764	9790.6375
3015.26888	9780.2375
3017.68865	9759.6375
3020.10694	9760.9375
3022.52376	9740.4375
3024.9391	9743.9375
