Data from AgNP_FTO_APTES_UA_10uM_CRN_1000uM_R6G_10uM_NaF_0.1M_Addition_RamanShift__2__19-23-30-977.txt Node

Date: Thu Feb 10 19:23:30 GMT 2022
User: TCL
Spectrometer: QEP01345
Trigger mode: 4
Integration Time (sec): 7.000000E0
Scans to average: 10
Electric dark correction enabled: true
Nonlinearity correction enabled: false
Boxcar width: 0
XAxis mode: Raman Shifts
Number of Pixels in Spectrum: 1044
>>>>>Begin Spectral Data<<<<<
46.04893	0.1125
50.45542	-0.0875
54.85868	-1.9875
59.25871	-1.0875
63.6555	60.5125
68.04907	59.4125
72.43941	64.6125
76.82654	64.9125
81.21044	70.8125
85.59113	71.4125
89.96862	77.5125
94.34289	77.9125
98.71396	77.6125
103.08183	84.3125
107.4465	88.0125
111.80798	78.9125
116.16626	89.2125
120.52136	89.7125
124.87327	97.2125
129.222	98.8125
133.56755	106.9125
137.90993	113.0125
142.24913	121.5125
146.58517	136.5125
150.91804	157.8125
155.24774	190.1125
159.57429	236.0125
163.89768	299.5125
168.21792	394.0125
172.53501	535.4125
176.84895	746.8125
181.15975	1050.0125
185.46741	1475.0125
189.77193	2049.4125
194.07331	2742.3125
198.37157	3535.1125
202.6667	4373.0125
206.9587	5210.9125
211.24758	6015.5125
215.53334	6833.1125
219.81599	7686.2125
224.09553	8617.5125
228.37195	9644.0125
232.64527	10750.8125
236.91549	11966.8125
241.18261	13173.4125
245.44663	14374.8125
249.70755	15382.1125
253.96539	16277.1125
258.22014	17057.1125
262.4718	17697.6125
266.72039	18165.4125
270.96589	18442.2125
275.20832	18441.5125
279.44768	18340.7125
283.68397	18131.2125
287.91719	17969.9125
292.14735	17792.5125
296.37445	17803.2125
300.59849	17859.2125
304.81948	17915.8125
309.03742	17898.3125
313.25231	17796.4125
317.46415	17511.0125
321.67296	17157.3125
325.87872	16835.1125
330.08145	16701.7125
334.28114	16704.9125
338.47781	16809.2125
342.67145	16993.2125
346.86207	17209.5125
351.04966	17533.7125
355.23424	17851.5125
359.4158	18167.3125
363.59435	18346.3125
367.76989	18513.1125
371.94243	18627.5125
376.11196	18766.5125
380.27849	18878.6125
384.44203	18946.6125
388.60257	19066.1125
392.76012	19190.0125
396.91468	19399.6125
401.06626	19627.7125
405.21485	19785.2125
409.36047	19705.8125
413.50311	19425.1125
417.64277	19284.6125
421.77947	19223.3125
425.9132	19340.0125
430.04396	19411.5125
434.17176	19497.7125
438.2966	19680.6125
442.41849	19954.4125
446.53742	20459.3125
450.6534	20926.4125
454.76644	21241.0125
458.87653	21304.2125
462.98368	21250.3125
467.08789	21092.0125
471.18916	20891.1125
475.2875	20724.4125
479.38291	20641.8125
483.4754	20592.3125
487.56496	20402.9125
491.6516	20139.3125
495.73531	19887.4125
499.81612	19759.0125
503.89401	19731.1125
507.96899	19758.9125
512.04106	19774.0125
516.11023	19762.4125
520.1765	19666.9125
524.23987	19608.2125
528.30034	19497.4125
532.35792	19386.8125
536.41261	19236.0125
540.46441	19060.8125
544.51333	19080.9125
548.55936	19191.9125
552.60252	19519.0125
556.64279	19927.3125
560.6802	20223.5125
564.71473	20339.5125
568.7464	20612.3125
572.7752	21020.4125
576.80114	21287.9125
580.82422	21456.4125
584.84444	21723.5125
588.86181	22227.4125
592.87633	22782.7125
596.888	22779.4125
600.89682	22252.3125
604.9028	22232.5125
608.90594	23470.2125
612.90624	25239.8125
616.90371	24313.5125
620.89834	21117.3125
624.89015	19655.0125
628.87913	19451.9125
632.86528	19509.9125
636.84862	19543.2125
640.82913	19399.3125
644.80683	19065.3125
648.78172	18890.4125
652.75379	18836.7125
656.72306	19023.2125
660.68952	19247.3125
664.65319	19144.2125
668.61405	18882.6125
672.57211	18810.4125
676.52738	18915.5125
680.47986	18922.3125
684.42955	18880.9125
688.37646	18801.3125
692.32058	18849.6125
696.26192	19013.8125
700.20048	19184.3125
704.13626	19293.7125
708.06928	19315.8125
711.99952	19265.0125
715.927	19208.8125
719.85171	19234.2125
723.77365	19191.6125
727.69284	19039.7125
731.60928	18894.4125
735.52295	18820.9125
739.43388	18793.1125
743.34206	18882.0125
747.24749	18950.5125
751.15017	18990.3125
755.05012	19196.5125
758.94733	19603.4125
762.8418	20311.3125
766.73354	21424.0125
770.62254	22505.1125
774.50882	22908.9125
778.39237	22232.3125
782.27321	20981.5125
786.15132	19924.2125
790.02671	19234.9125
793.89938	18940.8125
797.76935	18808.9125
801.6366	18715.5125
805.50115	18681.6125
809.36299	18606.4125
813.22213	18523.7125
817.07857	18520.1125
820.93231	18495.9125
824.78336	18436.3125
828.63172	18422.4125
832.47738	18361.2125
836.32036	18363.4125
840.16066	18390.3125
843.99827	18415.8125
847.8332	18388.6125
851.66546	18360.6125
855.49504	18362.5125
859.32195	18367.6125
863.1462	18311.1125
866.96777	18293.3125
870.78668	18295.7125
874.60293	18312.2125
878.41652	18301.0125
882.22745	18365.9125
886.03573	18384.6125
889.84136	18397.3125
893.64433	18327.4125
897.44466	18268.5125
901.24235	18251.3125
905.0374	18183.6125
908.8298	18168.5125
912.61957	18135.3125
916.40671	18217.7125
920.19121	18320.0125
923.97308	18465.2125
927.75233	18508.3125
931.52895	18413.7125
935.30295	18235.2125
939.07433	18043.8125
942.84309	17836.5125
946.60924	17707.7125
950.37278	17637.5125
954.13371	17613.8125
957.89203	17588.8125
961.64774	17573.4125
965.40086	17523.1125
969.15137	17507.6125
972.89929	17448.6125
976.64461	17381.7125
980.38733	17379.7125
984.12747	17373.5125
987.86502	17456.9125
991.59999	17560.9125
995.33237	17700.8125
999.06217	17943.7125
1002.78939	18211.8125
1006.51404	18410.5125
1010.23611	18588.9125
1013.95561	18711.6125
1017.67255	18737.4125
1021.38692	18657.5125
1025.09872	18465.3125
1028.80796	18390.7125
1032.51465	18439.3125
1036.21877	18655.6125
1039.92035	18725.6125
1043.61937	18669.6125
1047.31584	18528.8125
1051.00976	18415.0125
1054.70114	18371.0125
1058.38998	18366.7125
1062.07627	18459.0125
1065.76003	18532.3125
1069.44126	18607.3125
1073.11995	18737.1125
1076.79611	18881.5125
1080.46974	18977.5125
1084.14085	19101.4125
1087.80943	19275.9125
1091.47549	19369.0125
1095.13903	19361.8125
1098.80005	19184.8125
1102.45857	18944.6125
1106.11456	18775.6125
1109.76805	18716.8125
1113.41903	18751.1125
1117.06751	18856.2125
1120.71348	19045.3125
1124.35696	19228.6125
1127.99793	19448.1125
1131.63641	19569.0125
1135.2724	19405.5125
1138.90589	19217.4125
1142.5369	19168.7125
1146.16542	19193.2125
1149.79145	19290.1125
1153.415	19355.1125
1157.03607	19538.3125
1160.65467	19922.9125
1164.27079	20564.0125
1167.88443	21304.2125
1171.49561	22278.7125
1175.10432	23441.6125
1178.71056	25028.3125
1182.31434	26472.3125
1185.91565	27211.3125
1189.51451	27016.9125
1193.11091	26385.8125
1196.70485	25542.4125
1200.29634	24667.5125
1203.88538	24068.6125
1207.47197	23656.2125
1211.05612	23211.9125
1214.63782	22760.3125
1218.21708	22377.5125
1221.79391	22118.2125
1225.36829	21876.8125
1228.94024	21702.5125
1232.50976	21455.1125
1236.07685	21205.6125
1239.6415	21036.6125
1243.20374	21049.5125
1246.76355	21159.3125
1250.32093	21342.7125
1253.8759	21628.1125
1257.42845	22032.5125
1260.97859	22465.1125
1264.52631	22961.7125
1268.07163	23403.6125
1271.61453	23842.9125
1275.15503	24330.5125
1278.69312	24768.9125
1282.22882	25251.3125
1285.76211	25818.7125
1289.29301	26642.9125
1292.82151	27628.0125
1296.34761	28916.4125
1299.87133	30316.6125
1303.39266	31892.3125
1306.9116	33467.4125
1310.42815	34815.0125
1313.94233	35616.8125
1317.45412	35378.1125
1320.96354	34578.0125
1324.47058	33744.0125
1327.97525	32985.2125
1331.47754	32340.0125
1334.97747	31929.7125
1338.47502	31596.9125
1341.97022	31430.0125
1345.46305	31208.4125
1348.95352	31208.7125
1352.44163	31554.3125
1355.92738	32373.0125
1359.41078	33776.8125
1362.89183	34967.8125
1366.37053	34436.8125
1369.84688	31747.0125
1373.32088	28616.2125
1376.79254	26533.1125
1380.26186	25771.4125
1383.72883	25718.9125
1387.19347	25776.0125
1390.65578	25590.4125
1394.11575	25547.9125
1397.57339	25700.6125
1401.0287	25976.1125
1404.48168	26133.5125
1407.93234	25944.2125
1411.38068	25450.8125
1414.82669	24795.7125
1418.27039	24024.9125
1421.71177	23250.7125
1425.15083	22558.6125
1428.58758	22194.3125
1432.02203	22300.4125
1435.45416	22736.0125
1438.88399	23223.8125
1442.31151	23570.6125
1445.73673	23855.4125
1449.15965	23961.7125
1452.58027	24094.7125
1455.9986	24062.5125
1459.41463	24120.0125
1462.82837	24301.3125
1466.23982	24620.8125
1469.64898	24856.4125
1473.05586	24979.7125
1476.46045	25004.8125
1479.86276	24928.2125
1483.26279	24786.7125
1486.66054	24713.4125
1490.05602	24794.3125
1493.44922	25109.4125
1496.84016	25490.2125
1500.22882	26085.6125
1503.61521	27022.0125
1506.99934	28135.8125
1510.38121	29063.9125
1513.76081	29337.6125
1517.13816	28694.3125
1520.51324	27565.8125
1523.88607	26525.8125
1527.25665	26035.8125
1530.62498	25847.2125
1533.99105	25784.0125
1537.35488	25570.1125
1540.71647	25205.8125
1544.07581	24682.7125
1547.4329	24167.9125
1550.78776	23727.9125
1554.14038	23380.3125
1557.49077	23243.9125
1560.83892	23178.3125
1564.18484	23226.0125
1567.52853	23364.0125
1570.86999	23598.9125
1574.20922	24052.0125
1577.54624	24358.5125
1580.88103	24424.8125
1584.2136	24415.7125
1587.54395	24777.2125
1590.87208	25493.5125
1594.19801	26526.4125
1597.52172	27598.6125
1600.84321	27928.4125
1604.16251	27083.5125
1607.47959	25478.3125
1610.79447	23744.6125
1614.10715	22090.0125
1617.41763	20786.9125
1620.7259	19895.3125
1624.03199	19485.4125
1627.33587	19437.5125
1630.63757	19856.6125
1633.93707	20701.1125
1637.23439	22254.5125
1640.52951	24388.5125
1643.82246	27056.3125
1647.11321	29277.8125
1650.40179	29895.3125
1653.68819	28224.6125
1656.97241	25096.4125
1660.25446	22016.1125
1663.53433	19750.3125
1666.81203	18332.0125
1670.08756	17410.0125
1673.36092	16884.1125
1676.63211	16512.4125
1679.90115	16253.2125
1683.16801	16037.3125
1686.43272	15929.6125
1689.69527	15778.1125
1692.95567	15727.9125
1696.2139	15669.3125
1699.46999	15651.2125
1702.72392	15578.1125
1705.97571	15518.0125
1709.22535	15503.3125
1712.47284	15457.8125
1715.71819	15448.9125
1718.96139	15409.4125
1722.20246	15358.5125
1725.44139	15299.6125
1728.67818	15247.6125
1731.91284	15162.7125
1735.14537	15086.1125
1738.37576	15045.8125
1741.60403	14978.0125
1744.83017	14966.6125
1748.05418	14931.0125
1751.27607	14908.6125
1754.49584	14901.5125
1757.71349	14877.5125
1760.92903	14866.7125
1764.14244	14841.3125
1767.35375	14814.2125
1770.56294	14840.4125
1773.77002	14805.4125
1776.97499	14770.5125
1780.17785	14719.3125
1783.37861	14690.5125
1786.57727	14659.3125
1789.77382	14616.2125
1792.96828	14605.4125
1796.16064	14583.9125
1799.3509	14559.2125
1802.53907	14535.3125
1805.72514	14464.5125
1808.90913	14416.3125
1812.09102	14412.7125
1815.27083	14379.0125
1818.44856	14367.9125
1821.6242	14355.5125
1824.79776	14283.5125
1827.96924	14298.6125
1831.13864	14232.3125
1834.30597	14217.5125
1837.47122	14210.0125
1840.6344	14216.4125
1843.7955	14238.3125
1846.95454	14178.9125
1850.11151	14169.8125
1853.26642	14150.2125
1856.41926	14186.9125
1859.57004	14171.3125
1862.71876	14144.3125
1865.86542	14120.0125
1869.01003	14101.7125
1872.15258	14100.8125
1875.29308	14106.4125
1878.43152	14096.6125
1881.56792	14071.7125
1884.70227	14053.0125
1887.83457	14017.7125
1890.96482	13983.1125
1894.09304	13917.1125
1897.21921	13931.9125
1900.34335	13928.2125
1903.46544	13918.1125
1906.58551	13899.1125
1909.70353	13861.6125
1912.81953	13870.1125
1915.93349	13873.0125
1919.04543	13819.3125
1922.15534	13777.3125
1925.26322	13724.8125
1928.36908	13725.3125
1931.47292	13736.1125
1934.57473	13701.1125
1937.67453	13675.2125
1940.77232	13643.5125
1943.86808	13570.5125
1946.96184	13546.6125
1950.05358	13506.6125
1953.14331	13488.9125
1956.23103	13418.3125
1959.31675	13370.5125
1962.40046	13345.0125
1965.48217	13305.8125
1968.56188	13257.6125
1971.63959	13229.5125
1974.7153	13181.5125
1977.78901	13161.0125
1980.86073	13087.3125
1983.93046	13069.9125
1986.99819	13037.9125
1990.06394	12978.8125
1993.1277	12953.5125
1996.18947	12898.6125
1999.24925	12875.2125
2002.30706	12834.7125
2005.36288	12783.2125
2008.41672	12749.0125
2011.46859	12718.2125
2014.51848	12678.1125
2017.56639	12658.5125
2020.61233	12651.5125
2023.6563	12596.4125
2026.6983	12576.6125
2029.73833	12549.8125
2032.7764	12494.4125
2035.8125	12468.1125
2038.84664	12449.7125
2041.87881	12396.6125
2044.90903	12358.6125
2047.93729	12356.4125
2050.96359	12336.0125
2053.98794	12323.6125
2057.01034	12307.3125
2060.03078	12297.8125
2063.04927	12261.6125
2066.06582	12283.3125
2069.08042	12304.3125
2072.09307	12299.0125
2075.10378	12261.3125
2078.11255	12283.6125
2081.11938	12254.8125
2084.12426	12247.9125
2087.12722	12239.4125
2090.12824	12242.2125
2093.12732	12216.6125
2096.12447	12210.3125
2099.11969	12232.5125
2102.11299	12208.6125
2105.10435	12204.5125
2108.09379	12191.4125
2111.08131	12228.2125
2114.0669	12233.7125
2117.05057	12219.6125
2120.03233	12236.7125
2123.01216	12237.5125
2125.99008	12279.0125
2128.96609	12286.8125
2131.94018	12314.8125
2134.91236	12299.9125
2137.88263	12267.2125
2140.851	12298.3125
2143.81746	12336.9125
2146.78201	12302.7125
2149.74466	12297.3125
2152.7054	12333.5125
2155.66425	12283.7125
2158.6212	12268.7125
2161.57625	12274.2125
2164.52941	12269.3125
2167.48067	12247.1125
2170.43004	12285.2125
2173.37752	12259.7125
2176.32311	12267.1125
2179.26681	12229.9125
2182.20863	12241.0125
2185.14856	12236.3125
2188.08661	12214.1125
2191.02278	12243.1125
2193.95707	12240.5125
2196.88948	12253.7125
2199.82001	12207.7125
2202.74867	12154.7125
2205.67545	12179.7125
2208.60037	12156.3125
2211.52341	12157.2125
2214.44458	12142.9125
2217.36388	12109.2125
2220.28132	12106.6125
2223.1969	12027.0125
2226.11061	12016.9125
2229.02246	11956.5125
2231.93245	11970.4125
2234.84058	11951.5125
2237.74686	11959.4125
2240.65128	11925.4125
2243.55385	11909.7125
2246.45456	11880.8125
2249.35343	11870.9125
2252.25044	11835.7125
2255.14561	11830.4125
2258.03893	11829.4125
2260.93041	11788.8125
2263.82004	11754.8125
2266.70783	11723.4125
2269.59378	11692.9125
2272.4779	11676.5125
2275.36017	11621.4125
2278.24061	11628.3125
2281.11922	11628.0125
2283.996	11602.8125
2286.87094	11588.2125
2289.74405	11581.8125
2292.61534	11575.3125
2295.4848	11537.0125
2298.35243	11533.4125
2301.21824	11520.2125
2304.08223	11517.3125
2306.94439	11523.1125
2309.80474	11490.4125
2312.66327	11509.1125
2315.51999	11471.6125
2318.37489	11487.9125
2321.22797	11461.0125
2324.07925	11443.6125
2326.92871	11422.6125
2329.77637	11402.2125
2332.62222	11399.4125
2335.46626	11366.5125
2338.3085	11350.2125
2341.14893	11366.1125
2343.98756	11360.0125
2346.8244	11342.0125
2349.65943	11318.9125
2352.49267	11334.8125
2355.32411	11314.2125
2358.15376	11303.3125
2360.98161	11298.7125
2363.80768	11268.1125
2366.63195	11296.8125
2369.45444	11300.2125
2372.27514	11265.1125
2375.09405	11246.4125
2377.91118	11237.4125
2380.72652	11203.9125
2383.54009	11155.6125
2386.35187	11121.5125
2389.16188	11094.8125
2391.97011	11131.9125
2394.77657	11085.4125
2397.58125	11057.9125
2400.38416	11062.8125
2403.18529	11033.5125
2405.98466	10994.6125
2408.78226	10979.3125
2411.57809	10973.9125
2414.37216	10955.7125
2417.16446	10958.6125
2419.955	10932.8125
2422.74378	10913.1125
2425.5308	10899.1125
2428.31606	10897.1125
2431.09956	10878.2125
2433.88131	10870.7125
2436.6613	10859.6125
2439.43954	10855.9125
2442.21603	10824.3125
2444.99077	10833.4125
2447.76377	10837.8125
2450.53501	10824.2125
2453.30451	10804.3125
2456.07226	10787.0125
2458.83827	10797.0125
2461.60254	10819.2125
2464.36507	10780.1125
2467.12586	10772.9125
2469.88492	10760.5125
2472.64224	10734.5125
2475.39782	10752.0125
2478.15167	10794.1125
2480.90379	10770.2125
2483.65417	10769.6125
2486.40283	10784.4125
2489.14976	10773.4125
2491.89497	10759.3125
2494.63845	10749.3125
2497.3802	10739.4125
2500.12024	10723.8125
2502.85855	10712.4125
2505.59514	10724.8125
2508.33002	10711.1125
2511.06318	10708.4125
2513.79462	10668.9125
2516.52435	10687.2125
2519.25237	10642.5125
2521.97867	10643.6125
2524.70327	10638.5125
2527.42616	10628.3125
2530.14734	10593.0125
2532.86681	10572.1125
2535.58458	10609.4125
2538.30065	10592.4125
2541.01501	10580.0125
2543.72768	10563.9125
2546.43864	10547.7125
2549.14791	10524.9125
2551.85548	10537.2125
2554.56136	10492.9125
2557.26554	10461.5125
2559.96803	10452.8125
2562.66883	10445.3125
2565.36794	10412.9125
2568.06536	10406.2125
2570.7611	10390.4125
2573.45514	10366.8125
2576.14751	10359.2125
2578.83819	10321.2125
2581.52719	10349.3125
2584.21451	10330.5125
2586.90015	10314.5125
2589.58411	10276.4125
2592.2664	10295.8125
2594.94701	10278.6125
2597.62594	10256.9125
2600.30321	10231.3125
2602.9788	10230.5125
2605.65273	10208.9125
2608.32498	10215.1125
2610.99557	10213.6125
2613.66449	10183.8125
2616.33175	10199.3125
2618.99734	10183.0125
2621.66128	10183.2125
2624.32355	10163.8125
2626.98416	10147.9125
2629.64311	10137.3125
2632.30041	10117.1125
2634.95605	10086.7125
2637.61004	10090.6125
2640.26238	10047.0125
2642.91306	10093.5125
2645.56209	10067.6125
2648.20948	10081.9125
2650.85521	10063.5125
2653.4993	10044.2125
2656.14175	10044.5125
2658.78255	10083.2125
2661.42171	10063.2125
2664.05923	10079.0125
2666.6951	10085.9125
2669.32934	10063.3125
2671.96194	10049.1125
2674.59291	10047.5125
2677.22224	10062.7125
2679.84993	10046.6125
2682.476	10032.4125
2685.10043	10037.3125
2687.72324	10028.3125
2690.34441	10022.0125
2692.96396	10037.8125
2695.58188	10005.2125
2698.19818	10039.6125
2700.81285	10011.8125
2703.4259	10039.6125
2706.03733	10039.2125
2708.64714	10040.4125
2711.25533	10043.7125
2713.86191	10015.5125
2716.46687	10058.8125
2719.07021	10050.8125
2721.67194	10057.5125
2724.27206	10048.2125
2726.87057	10048.8125
2729.46747	10057.0125
2732.06276	10046.0125
2734.65644	10054.6125
2737.24852	10039.5125
2739.83899	10027.2125
2742.42786	10061.3125
2745.01513	10029.8125
2747.60079	10025.5125
2750.18486	9976.6125
2752.76733	9974.5125
2755.3482	9951.0125
2757.92747	9979.2125
2760.50515	9960.9125
2763.08123	9932.7125
2765.65573	9921.0125
2768.22863	9912.4125
2770.79994	9894.6125
2773.36967	9898.1125
2775.9378	9866.6125
2778.50435	9869.0125
2781.06932	9864.8125
2783.6327	9883.3125
2786.1945	9869.1125
2788.75471	9883.1125
2791.31335	9850.4125
2793.87041	9829.4125
2796.42589	9802.0125
2798.97979	9815.2125
2801.53212	9763.7125
2804.08288	9778.0125
2806.63206	9710.0125
2809.17967	9685.7125
2811.72571	9687.7125
2814.27018	9670.3125
2816.81308	9644.1125
2819.35442	9646.2125
2821.89419	9630.1125
2824.43239	9626.7125
2826.96904	9604.6125
2829.50412	9611.1125
2832.03763	9594.2125
2834.56959	9585.9125
2837.1	9574.9125
2839.62884	9592.8125
2842.15613	9602.7125
2844.68186	9617.7125
2847.20604	9651.0125
2849.72867	9663.5125
2852.24974	9651.6125
2854.76927	9601.6125
2857.28724	9611.6125
2859.80367	9582.1125
2862.31855	9583.4125
2864.83189	9550.7125
2867.34368	9533.8125
2869.85393	9532.0125
2872.36264	9553.7125
2874.8698	9514.4125
2877.37543	9510.5125
2879.87952	9516.3125
2882.38207	9521.9125
2884.88308	9503.8125
2887.38256	9492.7125
2889.88051	9496.9125
2892.37692	9496.3125
2894.8718	9517.2125
2897.36515	9521.2125
2899.85698	9535.2125
2902.34727	9529.1125
2904.83604	9556.2125
2907.32328	9553.4125
2909.809	9535.4125
2912.29319	9541.5125
2914.77587	9537.5125
2917.25702	9519.2125
2919.73665	9510.9125
2922.21476	9528.0125
2924.69136	9498.7125
2927.16644	9524.5125
2929.64	9509.5125
2932.11205	9498.5125
2934.58258	9467.8125
2937.05161	9503.9125
2939.51912	9480.9125
2941.98513	9463.1125
2944.44962	9433.4125
2946.91261	9417.4125
2949.37409	9430.1125
2951.83407	9407.4125
2954.29254	9385.0125
2956.74951	9373.7125
2959.20498	9394.5125
2961.65895	9370.7125
2964.11142	9387.0125
2966.56239	9369.6125
2969.01186	9385.4125
2971.45984	9330.3125
2973.90632	9328.3125
2976.35131	9306.4125
2978.7948	9261.6125
2981.23681	9237.4125
2983.67732	9213.9125
2986.11635	9212.3125
2988.55388	9197.5125
2990.98993	9158.4125
2993.4245	9153.1125
2995.85758	9141.0125
2998.28917	9087.5125
3000.71928	9088.3125
3003.14791	9075.7125
3005.57506	9052.7125
3008.00073	9041.4125
3010.42493	9018.0125
3012.84764	8988.7125
3015.26888	8986.3125
3017.68865	8985.6125
3020.10694	8990.6125
3022.52376	8960.9125
3024.9391	8952.6125
3027.35298	8939.7125
3029.76539	8921.8125
3032.17632	8909.7125
3034.5858	8927.4125
3036.9938	8934.6125
