Data from AgNP_FTO_APTES_UA_10uM_CRN_100uM_R6G_10uM_NaF_0.1M_Addition_RamanShift__22__17-50-10-863.txt Node

Date: Thu Feb 10 17:50:10 GMT 2022
User: TCL
Spectrometer: QEP01345
Trigger mode: 4
Integration Time (sec): 7.000000E0
Scans to average: 10
Electric dark correction enabled: true
Nonlinearity correction enabled: false
Boxcar width: 0
XAxis mode: Raman Shifts
Number of Pixels in Spectrum: 1044
>>>>>Begin Spectral Data<<<<<
46.04893	0.0875
50.45542	-1.0125
54.85868	-2.3125
59.25871	-1.9125
63.6555	65.5875
68.04907	70.6875
72.43941	77.2875
76.82654	75.1875
81.21044	79.9875
85.59113	80.1875
89.96862	86.3875
94.34289	87.1875
98.71396	90.0875
103.08183	93.6875
107.4465	98.4875
111.80798	96.3875
116.16626	99.1875
120.52136	103.0875
124.87327	108.4875
129.222	111.8875
133.56755	121.2875
137.90993	128.8875
142.24913	134.9875
146.58517	155.1875
150.91804	188.7875
155.24774	219.2875
159.57429	260.8875
163.89768	336.2875
168.21792	447.1875
172.53501	622.3875
176.84895	854.5875
181.15975	1200.6875
185.46741	1685.2875
189.77193	2344.7875
194.07331	3124.0875
198.37157	4051.4875
202.6667	5001.1875
206.9587	5952.7875
211.24758	6884.6875
215.53334	7835.3875
219.81599	8809.3875
224.09553	9908.8875
228.37195	11121.5875
232.64527	12461.6875
236.91549	13870.5875
241.18261	15302.1875
245.44663	16648.0875
249.70755	17829.1875
253.96539	18913.5875
258.22014	19824.6875
262.4718	20633.4875
266.72039	21236.9875
270.96589	21606.7875
275.20832	21655.6875
279.44768	21594.8875
283.68397	21415.9875
287.91719	21236.1875
292.14735	21161.2875
296.37445	21191.0875
300.59849	21360.3875
304.81948	21485.8875
309.03742	21529.9875
313.25231	21259.7875
317.46415	20709.5875
321.67296	20005.4875
325.87872	19453.1875
330.08145	19227.2875
334.28114	19288.8875
338.47781	19507.4875
342.67145	19803.0875
346.86207	20241.1875
351.04966	20762.3875
355.23424	21310.7875
359.4158	21850.7875
363.59435	22170.5875
367.76989	22379.8875
371.94243	22559.7875
376.11196	22686.4875
380.27849	22761.3875
384.44203	22911.5875
388.60257	22927.0875
392.76012	22969.1875
396.91468	23195.6875
401.06626	23531.2875
405.21485	23881.3875
409.36047	23765.7875
413.50311	23327.2875
417.64277	22923.6875
421.77947	22768.3875
425.9132	22770.6875
430.04396	22901.6875
434.17176	23064.9875
438.2966	23324.7875
442.41849	23691.0875
446.53742	24180.3875
450.6534	24694.3875
454.76644	25148.9875
458.87653	25313.1875
462.98368	25288.6875
467.08789	25100.9875
471.18916	24821.9875
475.2875	24550.9875
479.38291	24395.7875
483.4754	24209.5875
487.56496	23961.3875
491.6516	23686.9875
495.73531	23431.9875
499.81612	23314.8875
503.89401	23418.1875
507.96899	23508.1875
512.04106	23590.4875
516.11023	23679.5875
520.1765	23705.4875
524.23987	23628.9875
528.30034	23446.0875
532.35792	23266.6875
536.41261	23084.7875
540.46441	22939.0875
544.51333	22904.0875
548.55936	23125.4875
552.60252	23458.0875
556.64279	23807.0875
560.6802	23968.9875
564.71473	24080.6875
568.7464	24383.7875
572.7752	24739.4875
576.80114	24713.7875
580.82422	24561.7875
584.84444	24486.9875
588.86181	24604.1875
592.87633	24782.4875
596.888	25049.8875
600.89682	25385.2875
604.9028	26440.5875
608.90594	29275.7875
612.90624	32839.0875
616.90371	31589.6875
620.89834	26505.7875
624.89015	24293.8875
628.87913	23984.5875
632.86528	23980.8875
636.84862	23913.3875
640.82913	23698.0875
644.80683	23247.8875
648.78172	22917.1875
652.75379	22864.3875
656.72306	23189.0875
660.68952	23626.1875
664.65319	23589.3875
668.61405	23169.3875
672.57211	23015.6875
676.52738	23048.9875
680.47986	23059.9875
684.42955	23041.2875
688.37646	23035.0875
692.32058	23085.2875
696.26192	23216.2875
700.20048	23419.7875
704.13626	23526.5875
708.06928	23479.4875
711.99952	23331.7875
715.927	23292.1875
719.85171	23288.6875
723.77365	23288.2875
727.69284	23168.6875
731.60928	23044.5875
735.52295	23010.1875
739.43388	23050.5875
743.34206	23151.7875
747.24749	23244.0875
751.15017	23366.9875
755.05012	23657.0875
758.94733	24213.8875
762.8418	25236.9875
766.73354	26911.1875
770.62254	28659.8875
774.50882	29501.3875
778.39237	28589.4875
782.27321	26439.2875
786.15132	24738.0875
790.02671	23746.5875
793.89938	23260.5875
797.76935	23056.6875
801.6366	23049.7875
805.50115	22966.5875
809.36299	22884.9875
813.22213	22821.3875
817.07857	22805.8875
820.93231	22817.6875
824.78336	22828.6875
828.63172	22878.1875
832.47738	22912.0875
836.32036	22948.2875
840.16066	22938.3875
843.99827	22941.0875
847.8332	22960.5875
851.66546	22901.6875
855.49504	22887.0875
859.32195	22882.3875
863.1462	22838.3875
866.96777	22802.0875
870.78668	22755.4875
874.60293	22759.1875
878.41652	22836.1875
882.22745	22841.4875
886.03573	22869.8875
889.84136	22832.9875
893.64433	22757.1875
897.44466	22692.3875
901.24235	22701.4875
905.0374	22667.8875
908.8298	22654.7875
912.61957	22687.1875
916.40671	22763.4875
920.19121	22896.1875
923.97308	23052.3875
927.75233	23123.2875
931.52895	23127.3875
935.30295	23027.4875
939.07433	22695.4875
942.84309	22429.8875
946.60924	22320.8875
950.37278	22244.4875
954.13371	22140.1875
957.89203	22024.5875
961.64774	21988.6875
965.40086	21945.0875
969.15137	21873.6875
972.89929	21770.5875
976.64461	21783.1875
980.38733	21783.4875
984.12747	21895.7875
987.86502	22024.2875
991.59999	22213.9875
995.33237	22461.1875
999.06217	22940.3875
1002.78939	23450.3875
1006.51404	23745.4875
1010.23611	23858.4875
1013.95561	24072.0875
1017.67255	24120.7875
1021.38692	23979.6875
1025.09872	23913.4875
1028.80796	24051.8875
1032.51465	24518.9875
1036.21877	24942.4875
1039.92035	24992.5875
1043.61937	24698.7875
1047.31584	24252.1875
1051.00976	23822.5875
1054.70114	23598.5875
1058.38998	23552.9875
1062.07627	23597.7875
1065.76003	23706.5875
1069.44126	23729.1875
1073.11995	23780.6875
1076.79611	23907.9875
1080.46974	24032.9875
1084.14085	24199.1875
1087.80943	24439.9875
1091.47549	24554.9875
1095.13903	24435.2875
1098.80005	24095.1875
1102.45857	23833.7875
1106.11456	23697.3875
1109.76805	23762.1875
1113.41903	23949.7875
1117.06751	24205.8875
1120.71348	24528.6875
1124.35696	24799.1875
1127.99793	25078.5875
1131.63641	25109.4875
1135.2724	24785.0875
1138.90589	24391.4875
1142.5369	24187.0875
1146.16542	23995.1875
1149.79145	23960.5875
1153.415	24039.3875
1157.03607	24219.0875
1160.65467	24532.3875
1164.27079	25082.9875
1167.88443	25869.1875
1171.49561	26966.3875
1175.10432	28603.2875
1178.71056	30726.2875
1182.31434	32609.7875
1185.91565	33535.6875
1189.51451	33531.8875
1193.11091	32519.6875
1196.70485	31189.5875
1200.29634	30069.9875
1203.88538	29193.9875
1207.47197	28351.7875
1211.05612	27675.5875
1214.63782	27179.3875
1218.21708	26972.4875
1221.79391	26933.7875
1225.36829	26954.6875
1228.94024	26828.9875
1232.50976	26650.4875
1236.07685	26513.9875
1239.6415	26537.9875
1243.20374	26637.9875
1246.76355	26827.2875
1250.32093	27098.6875
1253.8759	27577.2875
1257.42845	28217.3875
1260.97859	28688.4875
1264.52631	29052.8875
1268.07163	29506.3875
1271.61453	30010.2875
1275.15503	30578.4875
1278.69312	31033.2875
1282.22882	31445.0875
1285.76211	31865.3875
1289.29301	32291.9875
1292.82151	32947.7875
1296.34761	33850.5875
1299.87133	35081.5875
1303.39266	36746.5875
1306.9116	38999.5875
1310.42815	41456.5875
1313.94233	42934.7875
1317.45412	42826.4875
1320.96354	41593.8875
1324.47058	40286.5875
1327.97525	39017.3875
1331.47754	38282.5875
1334.97747	38167.2875
1338.47502	38584.6875
1341.97022	39227.6875
1345.46305	39539.6875
1348.95352	39532.3875
1352.44163	39625.8875
1355.92738	40460.1875
1359.41078	42525.4875
1362.89183	44721.5875
1366.37053	43763.4875
1369.84688	39763.1875
1373.32088	35716.1875
1376.79254	33038.4875
1380.26186	31854.5875
1383.72883	31369.0875
1387.19347	31116.6875
1390.65578	30863.9875
1394.11575	30733.7875
1397.57339	30923.9875
1401.0287	31291.3875
1404.48168	31808.6875
1407.93234	32213.2875
1411.38068	32424.6875
1414.82669	32194.0875
1418.27039	31478.7875
1421.71177	30612.1875
1425.15083	29796.7875
1428.58758	29282.1875
1432.02203	29219.5875
1435.45416	29382.7875
1438.88399	29585.5875
1442.31151	29825.0875
1445.73673	30112.9875
1449.15965	30376.1875
1452.58027	30519.1875
1455.9986	30590.9875
1459.41463	30725.9875
1462.82837	31029.3875
1466.23982	31484.5875
1469.64898	31904.0875
1473.05586	32183.1875
1476.46045	32310.6875
1479.86276	32385.1875
1483.26279	32499.6875
1486.66054	32704.4875
1490.05602	32991.4875
1493.44922	33404.5875
1496.84016	33902.5875
1500.22882	34665.2875
1503.61521	35917.1875
1506.99934	37586.3875
1510.38121	39340.9875
1513.76081	40218.2875
1517.13816	39404.4875
1520.51324	37351.2875
1523.88607	35193.4875
1527.25665	33613.0875
1530.62498	32752.0875
1533.99105	32266.1875
1537.35488	31964.1875
1540.71647	31824.3875
1544.07581	31691.1875
1547.4329	31506.0875
1550.78776	31237.1875
1554.14038	31109.1875
1557.49077	31132.3875
1560.83892	31255.4875
1564.18484	31378.5875
1567.52853	31482.4875
1570.86999	31544.5875
1574.20922	31629.0875
1577.54624	31641.0875
1580.88103	31391.0875
1584.2136	31078.9875
1587.54395	31311.9875
1590.87208	32179.5875
1594.19801	33679.7875
1597.52172	35358.2875
1600.84321	36001.7875
1604.16251	35124.6875
1607.47959	33321.5875
1610.79447	31270.8875
1614.10715	29378.8875
1617.41763	27818.1875
1620.7259	26703.6875
1624.03199	26139.1875
1627.33587	26100.9875
1630.63757	26537.3875
1633.93707	27486.0875
1637.23439	28797.0875
1640.52951	30550.1875
1643.82246	32489.5875
1647.11321	34238.5875
1650.40179	35065.9875
1653.68819	33991.2875
1656.97241	31117.8875
1660.25446	28035.8875
1663.53433	25726.7875
1666.81203	24233.6875
1670.08756	23240.0875
1673.36092	22665.6875
1676.63211	22252.5875
1679.90115	21979.5875
1683.16801	21748.9875
1686.43272	21593.9875
1689.69527	21498.2875
1692.95567	21370.1875
1696.2139	21307.8875
1699.46999	21280.4875
1702.72392	21251.8875
1705.97571	21249.2875
1709.22535	21208.7875
1712.47284	21155.2875
1715.71819	21162.5875
1718.96139	21160.8875
1722.20246	21118.8875
1725.44139	21094.7875
1728.67818	20972.9875
1731.91284	20916.6875
1735.14537	20838.2875
1738.37576	20764.8875
1741.60403	20703.2875
1744.83017	20696.7875
1748.05418	20647.5875
1751.27607	20655.1875
1754.49584	20625.4875
1757.71349	20574.5875
1760.92903	20571.7875
1764.14244	20579.0875
1767.35375	20559.0875
1770.56294	20555.7875
1773.77002	20524.6875
1776.97499	20520.8875
1780.17785	20458.4875
1783.37861	20464.9875
1786.57727	20438.9875
1789.77382	20387.1875
1792.96828	20397.9875
1796.16064	20361.5875
1799.3509	20352.1875
1802.53907	20330.3875
1805.72514	20260.7875
1808.90913	20227.7875
1812.09102	20208.6875
1815.27083	20154.3875
1818.44856	20138.8875
1821.6242	20093.8875
1824.79776	20068.6875
1827.96924	20064.1875
1831.13864	20064.9875
1834.30597	20075.6875
1837.47122	20056.7875
1840.6344	20031.8875
1843.7955	20031.5875
1846.95454	19998.7875
1850.11151	20013.6875
1853.26642	20013.7875
1856.41926	20024.4875
1859.57004	20022.5875
1862.71876	20033.6875
1865.86542	20015.0875
1869.01003	19985.9875
1872.15258	20017.1875
1875.29308	20001.7875
1878.43152	19959.6875
1881.56792	19997.1875
1884.70227	19973.9875
1887.83457	19950.9875
1890.96482	19925.0875
1894.09304	19920.0875
1897.21921	19890.3875
1900.34335	19874.5875
1903.46544	19894.0875
1906.58551	19833.7875
1909.70353	19868.2875
1912.81953	19855.2875
1915.93349	19856.8875
1919.04543	19808.1875
1922.15534	19736.3875
1925.26322	19696.5875
1928.36908	19701.6875
1931.47292	19680.2875
1934.57473	19604.5875
1937.67453	19626.4875
1940.77232	19600.8875
1943.86808	19493.3875
1946.96184	19402.4875
1950.05358	19368.6875
1953.14331	19337.0875
1956.23103	19295.0875
1959.31675	19218.6875
1962.40046	19184.8875
1965.48217	19103.5875
1968.56188	19062.5875
1971.63959	19009.9875
1974.7153	18957.7875
1977.78901	18888.6875
1980.86073	18875.4875
1983.93046	18866.0875
1986.99819	18756.7875
1990.06394	18718.3875
1993.1277	18706.5875
1996.18947	18651.7875
1999.24925	18569.8875
2002.30706	18535.2875
2005.36288	18475.1875
2008.41672	18452.1875
2011.46859	18365.9875
2014.51848	18356.0875
2017.56639	18345.0875
2020.61233	18276.9875
2023.6563	18222.5875
2026.6983	18181.7875
2029.73833	18137.0875
2032.7764	18104.6875
2035.8125	18088.9875
2038.84664	18039.8875
2041.87881	18003.6875
2044.90903	17945.6875
2047.93729	17927.0875
2050.96359	17937.0875
2053.98794	17903.7875
2057.01034	17915.9875
2060.03078	17878.7875
2063.04927	17873.9875
2066.06582	17831.7875
2069.08042	17849.9875
2072.09307	17807.3875
2075.10378	17793.9875
2078.11255	17786.3875
2081.11938	17798.6875
2084.12426	17771.6875
2087.12722	17760.8875
2090.12824	17752.6875
2093.12732	17733.5875
2096.12447	17741.9875
2099.11969	17742.2875
2102.11299	17743.8875
2105.10435	17741.2875
2108.09379	17793.0875
2111.08131	17775.1875
2114.0669	17781.4875
2117.05057	17825.2875
2120.03233	17833.7875
2123.01216	17843.6875
2125.99008	17872.9875
2128.96609	17891.2875
2131.94018	17903.2875
2134.91236	17901.8875
2137.88263	17911.2875
2140.851	17920.1875
2143.81746	17965.9875
2146.78201	17967.2875
2149.74466	17982.7875
2152.7054	17963.2875
2155.66425	17977.9875
2158.6212	17987.8875
2161.57625	17965.2875
2164.52941	17941.2875
2167.48067	17941.4875
2170.43004	17917.1875
2173.37752	17938.8875
2176.32311	17937.6875
2179.26681	17930.3875
2182.20863	17948.0875
2185.14856	17936.4875
2188.08661	17942.8875
2191.02278	17939.5875
2193.95707	17953.9875
2196.88948	17960.9875
2199.82001	17951.2875
2202.74867	17921.4875
2205.67545	17923.8875
2208.60037	17870.0875
2211.52341	17908.4875
2214.44458	17858.6875
2217.36388	17872.0875
2220.28132	17846.5875
2223.1969	17780.6875
2226.11061	17775.6875
2229.02246	17692.2875
2231.93245	17666.8875
2234.84058	17642.4875
2237.74686	17615.4875
2240.65128	17607.4875
2243.55385	17550.7875
2246.45456	17594.9875
2249.35343	17549.2875
2252.25044	17534.1875
2255.14561	17497.5875
2258.03893	17524.1875
2260.93041	17490.5875
2263.82004	17437.8875
2266.70783	17388.2875
2269.59378	17323.4875
2272.4779	17294.6875
2275.36017	17227.0875
2278.24061	17258.5875
2281.11922	17197.9875
2283.996	17174.2875
2286.87094	17185.1875
2289.74405	17137.3875
2292.61534	17154.5875
2295.4848	17127.1875
2298.35243	17120.8875
2301.21824	17079.1875
2304.08223	17121.8875
2306.94439	17107.1875
2309.80474	17156.1875
2312.66327	17144.7875
2315.51999	17157.0875
2318.37489	17164.5875
2321.22797	17134.2875
2324.07925	17087.8875
2326.92871	17066.5875
2329.77637	17064.5875
2332.62222	17018.8875
2335.46626	17021.7875
2338.3085	16992.6875
2341.14893	16998.9875
2343.98756	17020.7875
2346.8244	16994.0875
2349.65943	17031.1875
2352.49267	16997.8875
2355.32411	16996.0875
2358.15376	16999.2875
2360.98161	16999.3875
2363.80768	16985.7875
2366.63195	16975.6875
2369.45444	16927.7875
2372.27514	16925.1875
2375.09405	16857.4875
2377.91118	16840.7875
2380.72652	16816.1875
2383.54009	16742.0875
2386.35187	16708.9875
2389.16188	16658.8875
2391.97011	16652.8875
2394.77657	16598.7875
2397.58125	16580.3875
2400.38416	16575.3875
2403.18529	16527.0875
2405.98466	16511.2875
2408.78226	16481.8875
2411.57809	16478.1875
2414.37216	16444.1875
2417.16446	16406.4875
2419.955	16417.3875
2422.74378	16403.9875
2425.5308	16394.1875
2428.31606	16406.9875
2431.09956	16399.2875
2433.88131	16358.4875
2436.6613	16338.9875
2439.43954	16340.3875
2442.21603	16341.2875
2444.99077	16274.9875
2447.76377	16348.3875
2450.53501	16299.9875
2453.30451	16290.2875
2456.07226	16257.8875
2458.83827	16260.1875
2461.60254	16224.4875
2464.36507	16239.5875
2467.12586	16237.5875
2469.88492	16220.1875
2472.64224	16210.5875
2475.39782	16210.1875
2478.15167	16254.5875
2480.90379	16229.4875
2483.65417	16277.8875
2486.40283	16296.7875
2489.14976	16260.3875
2491.89497	16265.2875
2494.63845	16286.7875
2497.3802	16286.8875
2500.12024	16279.6875
2502.85855	16241.4875
2505.59514	16231.1875
2508.33002	16199.8875
2511.06318	16197.9875
2513.79462	16173.6875
2516.52435	16128.6875
2519.25237	16170.1875
2521.97867	16090.3875
2524.70327	16107.2875
2527.42616	16120.9875
2530.14734	16109.9875
2532.86681	16081.4875
2535.58458	16106.9875
2538.30065	16084.4875
2541.01501	16082.6875
2543.72768	16068.3875
2546.43864	16027.6875
2549.14791	16015.2875
2551.85548	16022.2875
2554.56136	15995.2875
2557.26554	15937.5875
2559.96803	15918.4875
2562.66883	15863.0875
2565.36794	15835.7875
2568.06536	15875.8875
2570.7611	15816.3875
2573.45514	15783.9875
2576.14751	15791.3875
2578.83819	15787.8875
2581.52719	15739.0875
2584.21451	15745.4875
2586.90015	15741.5875
2589.58411	15734.7875
2592.2664	15734.6875
2594.94701	15681.4875
2597.62594	15719.6875
2600.30321	15667.3875
2602.9788	15652.2875
2605.65273	15629.3875
2608.32498	15636.5875
2610.99557	15620.5875
2613.66449	15595.2875
2616.33175	15618.6875
2618.99734	15601.8875
2621.66128	15618.4875
2624.32355	15635.0875
2626.98416	15601.1875
2629.64311	15578.9875
2632.30041	15579.8875
2634.95605	15566.4875
2637.61004	15505.8875
2640.26238	15506.9875
2642.91306	15482.3875
2645.56209	15455.4875
2648.20948	15452.4875
2650.85521	15447.5875
2653.4993	15459.6875
2656.14175	15444.2875
2658.78255	15432.1875
2661.42171	15475.5875
2664.05923	15514.7875
2666.6951	15489.2875
2669.32934	15496.8875
2671.96194	15474.5875
2674.59291	15545.2875
2677.22224	15504.2875
2679.84993	15492.2875
2682.476	15509.9875
2685.10043	15471.6875
2687.72324	15435.0875
2690.34441	15491.4875
2692.96396	15448.7875
2695.58188	15471.4875
2698.19818	15424.8875
2700.81285	15456.3875
2703.4259	15469.7875
2706.03733	15479.8875
2708.64714	15450.3875
2711.25533	15468.5875
2713.86191	15456.8875
2716.46687	15482.4875
2719.07021	15477.5875
2721.67194	15494.6875
2724.27206	15481.0875
2726.87057	15496.4875
2729.46747	15509.8875
2732.06276	15486.5875
2734.65644	15460.6875
2737.24852	15508.6875
2739.83899	15484.5875
2742.42786	15489.2875
2745.01513	15422.5875
2747.60079	15439.4875
2750.18486	15421.8875
2752.76733	15402.0875
2755.3482	15401.0875
2757.92747	15404.0875
2760.50515	15379.9875
2763.08123	15365.1875
2765.65573	15321.6875
2768.22863	15328.4875
2770.79994	15330.6875
2773.36967	15349.4875
2775.9378	15315.6875
2778.50435	15340.9875
2781.06932	15310.3875
2783.6327	15326.0875
2786.1945	15303.3875
2788.75471	15281.0875
2791.31335	15251.9875
2793.87041	15267.1875
2796.42589	15224.9875
2798.97979	15190.3875
2801.53212	15185.6875
2804.08288	15141.9875
2806.63206	15133.8875
2809.17967	15055.4875
2811.72571	15042.2875
2814.27018	15052.0875
2816.81308	15042.7875
2819.35442	15000.3875
2821.89419	14966.8875
2824.43239	14951.3875
2826.96904	14933.1875
2829.50412	14936.6875
2832.03763	14927.2875
2834.56959	14889.2875
2837.1	14891.5875
2839.62884	14886.4875
2842.15613	14903.8875
2844.68186	14903.4875
2847.20604	14933.3875
2849.72867	14946.6875
2852.24974	14920.3875
2854.76927	14898.4875
2857.28724	14847.3875
2859.80367	14842.4875
2862.31855	14828.8875
2864.83189	14810.0875
2867.34368	14776.5875
2869.85393	14789.2875
2872.36264	14772.0875
2874.8698	14785.5875
2877.37543	14752.4875
2879.87952	14782.0875
2882.38207	14780.6875
2884.88308	14763.3875
2887.38256	14766.8875
2889.88051	14809.9875
2892.37692	14757.8875
2894.8718	14778.1875
2897.36515	14796.1875
2899.85698	14794.8875
2902.34727	14815.2875
2904.83604	14830.6875
2907.32328	14893.4875
2909.809	14813.8875
2912.29319	14837.5875
2914.77587	14809.6875
2917.25702	14837.8875
2919.73665	14816.7875
2922.21476	14801.7875
2924.69136	14790.7875
2927.16644	14797.2875
2929.64	14775.4875
2932.11205	14775.5875
2934.58258	14730.2875
2937.05161	14726.7875
2939.51912	14745.4875
2941.98513	14728.7875
2944.44962	14678.3875
2946.91261	14646.8875
2949.37409	14639.7875
2951.83407	14619.1875
2954.29254	14617.6875
2956.74951	14603.7875
2959.20498	14618.3875
2961.65895	14617.9875
2964.11142	14616.1875
2966.56239	14592.0875
2969.01186	14572.6875
2971.45984	14556.8875
2973.90632	14540.5875
2976.35131	14556.1875
2978.7948	14488.0875
2981.23681	14465.9875
2983.67732	14423.2875
2986.11635	14429.2875
2988.55388	14410.8875
2990.98993	14371.5875
2993.4245	14345.7875
2995.85758	14326.9875
2998.28917	14276.7875
3000.71928	14265.4875
3003.14791	14234.2875
3005.57506	14233.2875
3008.00073	14167.9875
3010.42493	14166.4875
3012.84764	14162.2875
3015.26888	14155.6875
3017.68865	14093.0875
3020.10694	14071.5875
3022.52376	14084.6875
3024.9391	14054.9875
