Data from AgNP_FTO_APTES_UA_10uM_CRN_5uM_R6G_10uM_NaF_0.1M_Addition_RamanShift__23__15-09-10-663.txt Node

Date: Thu Feb 10 15:09:10 GMT 2022
User: TCL
Spectrometer: QEP01345
Trigger mode: 4
Integration Time (sec): 7.000000E0
Scans to average: 10
Electric dark correction enabled: true
Nonlinearity correction enabled: false
Boxcar width: 0
XAxis mode: Raman Shifts
Number of Pixels in Spectrum: 1044
>>>>>Begin Spectral Data<<<<<
46.04893	0.4375
50.45542	-0.3625
54.85868	-1.0625
59.25871	-1.7625
63.6555	76.0375
68.04907	76.9375
72.43941	81.3375
76.82654	81.1375
81.21044	87.2375
85.59113	85.7375
89.96862	90.9375
94.34289	96.9375
98.71396	98.7375
103.08183	105.2375
107.4465	109.3375
111.80798	106.7375
116.16626	112.1375
120.52136	115.1375
124.87327	122.4375
129.222	124.4375
133.56755	138.1375
137.90993	150.0375
142.24913	157.5375
146.58517	181.4375
150.91804	208.0375
155.24774	248.9375
159.57429	312.4375
163.89768	392.8375
168.21792	532.0375
172.53501	727.8375
176.84895	1005.3375
181.15975	1411.8375
185.46741	1986.7375
189.77193	2727.0375
194.07331	3646.9375
198.37157	4693.6375
202.6667	5804.6375
206.9587	6876.8375
211.24758	7924.4375
215.53334	9016.9375
219.81599	10188.4375
224.09553	11451.4375
228.37195	12870.2375
232.64527	14468.7375
236.91549	16080.7375
241.18261	17681.9375
245.44663	19146.3375
249.70755	20425.2375
253.96539	21639.9375
258.22014	22623.7375
262.4718	23442.6375
266.72039	24132.4375
270.96589	24539.7375
275.20832	24651.2375
279.44768	24593.4375
283.68397	24491.1375
287.91719	24342.4375
292.14735	24299.6375
296.37445	24414.5375
300.59849	24543.5375
304.81948	24642.5375
309.03742	24640.3375
313.25231	24249.6375
317.46415	23562.3375
321.67296	22657.8375
325.87872	21965.0375
330.08145	21595.4375
334.28114	21636.5375
338.47781	21845.8375
342.67145	22178.0375
346.86207	22668.0375
351.04966	23234.0375
355.23424	23857.2375
359.4158	24377.3375
363.59435	24672.4375
367.76989	24914.8375
371.94243	25009.7375
376.11196	25103.4375
380.27849	25159.3375
384.44203	25271.7375
388.60257	25329.8375
392.76012	25522.6375
396.91468	25823.6375
401.06626	26267.6375
405.21485	26590.8375
409.36047	26478.6375
413.50311	25930.4375
417.64277	25524.9375
421.77947	25431.6375
425.9132	25545.8375
430.04396	25742.8375
434.17176	25902.3375
438.2966	26185.8375
442.41849	26674.5375
446.53742	27387.0375
450.6534	28276.7375
454.76644	28963.5375
458.87653	29233.2375
462.98368	29047.7375
467.08789	28684.9375
471.18916	28221.4375
475.2875	27795.3375
479.38291	27539.8375
483.4754	27277.7375
487.56496	26857.1375
491.6516	26374.8375
495.73531	25958.3375
499.81612	25790.1375
503.89401	25888.0375
507.96899	25970.8375
512.04106	25882.2375
516.11023	25808.7375
520.1765	25699.0375
524.23987	25483.1375
528.30034	25221.2375
532.35792	24896.6375
536.41261	24538.1375
540.46441	24260.8375
544.51333	24299.2375
548.55936	24655.6375
552.60252	25247.5375
556.64279	25904.7375
560.6802	26312.8375
564.71473	26539.1375
568.7464	27036.0375
572.7752	27703.2375
576.80114	28012.0375
580.82422	28183.2375
584.84444	28373.5375
588.86181	28612.2375
592.87633	29001.5375
596.888	29346.0375
600.89682	29543.9375
604.9028	30787.9375
608.90594	34209.5375
612.90624	37747.7375
616.90371	35226.9375
620.89834	28748.8375
624.89015	26140.2375
628.87913	25859.6375
632.86528	25810.0375
636.84862	25573.3375
640.82913	25019.0375
644.80683	24236.6375
648.78172	23671.9375
652.75379	23611.3375
656.72306	23981.0375
660.68952	24540.0375
664.65319	24420.6375
668.61405	23935.8375
672.57211	23739.7375
676.52738	23715.9375
680.47986	23688.3375
684.42955	23636.5375
688.37646	23598.6375
692.32058	23748.3375
696.26192	23976.5375
700.20048	24281.6375
704.13626	24470.1375
708.06928	24356.6375
711.99952	24113.5375
715.927	24055.4375
719.85171	24069.3375
723.77365	24002.6375
727.69284	23729.5375
731.60928	23453.4375
735.52295	23451.6375
739.43388	23441.5375
743.34206	23571.0375
747.24749	23707.3375
751.15017	23996.0375
755.05012	24460.7375
758.94733	25314.8375
762.8418	26904.9375
766.73354	29346.7375
770.62254	31635.9375
774.50882	32090.5375
778.39237	30356.0375
782.27321	27687.2375
786.15132	25576.9375
790.02671	24315.1375
793.89938	23803.3375
797.76935	23609.9375
801.6366	23535.4375
805.50115	23441.8375
809.36299	23293.1375
813.22213	23119.6375
817.07857	23036.8375
820.93231	23027.7375
824.78336	23009.7375
828.63172	22916.3375
832.47738	22995.0375
836.32036	23024.4375
840.16066	23122.9375
843.99827	23210.0375
847.8332	23147.0375
851.66546	22993.5375
855.49504	22921.5375
859.32195	22915.6375
863.1462	22798.9375
866.96777	22615.5375
870.78668	22534.4375
874.60293	22517.7375
878.41652	22547.7375
882.22745	22645.3375
886.03573	22669.8375
889.84136	22583.4375
893.64433	22547.4375
897.44466	22444.9375
901.24235	22373.8375
905.0374	22307.3375
908.8298	22292.8375
912.61957	22364.0375
916.40671	22619.3375
920.19121	22950.3375
923.97308	23301.0375
927.75233	23433.6375
931.52895	23360.7375
935.30295	23017.8375
939.07433	22538.8375
942.84309	22140.5375
946.60924	21971.9375
950.37278	21904.1375
954.13371	21763.5375
957.89203	21662.4375
961.64774	21585.3375
965.40086	21538.6375
969.15137	21409.8375
972.89929	21322.0375
976.64461	21267.2375
980.38733	21300.4375
984.12747	21427.4375
987.86502	21704.0375
991.59999	22076.9375
995.33237	22668.2375
999.06217	23587.2375
1002.78939	24627.2375
1006.51404	25211.8375
1010.23611	25478.2375
1013.95561	25626.0375
1017.67255	25611.6375
1021.38692	25255.0375
1025.09872	25047.7375
1028.80796	25489.7375
1032.51465	26527.2375
1036.21877	27550.9375
1039.92035	27615.7375
1043.61937	27027.5375
1047.31584	26049.6375
1051.00976	25014.5375
1054.70114	24427.0375
1058.38998	24319.7375
1062.07627	24416.9375
1065.76003	24518.6375
1069.44126	24583.3375
1073.11995	24824.5375
1076.79611	25058.8375
1080.46974	25252.1375
1084.14085	25556.4375
1087.80943	25871.3375
1091.47549	26036.8375
1095.13903	25862.7375
1098.80005	25475.0375
1102.45857	24951.9375
1106.11456	24583.5375
1109.76805	24541.0375
1113.41903	24743.7375
1117.06751	25069.0375
1120.71348	25402.8375
1124.35696	25745.1375
1127.99793	26056.8375
1131.63641	26139.3375
1135.2724	25953.2375
1138.90589	25640.5375
1142.5369	25430.6375
1146.16542	25323.7375
1149.79145	25394.8375
1153.415	25598.2375
1157.03607	26035.7375
1160.65467	26761.4375
1164.27079	27863.1375
1167.88443	29423.8375
1171.49561	31545.2375
1175.10432	34375.4375
1178.71056	37990.6375
1182.31434	41251.8375
1185.91565	42969.2375
1189.51451	42969.3375
1193.11091	41404.2375
1196.70485	39160.4375
1200.29634	37174.9375
1203.88538	35525.3375
1207.47197	34298.9375
1211.05612	33258.6375
1214.63782	32654.2375
1218.21708	32352.7375
1221.79391	32330.9375
1225.36829	32373.2375
1228.94024	32032.6375
1232.50976	31446.5375
1236.07685	30969.9375
1239.6415	30667.8375
1243.20374	30546.2375
1246.76355	30710.7375
1250.32093	31280.2375
1253.8759	32077.4375
1257.42845	33127.6375
1260.97859	34180.0375
1264.52631	35114.2375
1268.07163	36118.7375
1271.61453	37303.8375
1275.15503	38622.0375
1278.69312	39860.7375
1282.22882	40904.5375
1285.76211	41754.3375
1289.29301	42627.4375
1292.82151	43861.8375
1296.34761	45636.2375
1299.87133	48126.2375
1303.39266	51314.1375
1306.9116	55239.4375
1310.42815	59186.9375
1313.94233	61793.8375
1317.45412	61891.8375
1320.96354	60480.4375
1324.47058	58624.5375
1327.97525	56972.2375
1331.47754	55840.7375
1334.97747	55565.0375
1338.47502	55892.1375
1341.97022	56149.6375
1345.46305	55809.8375
1348.95352	54842.3375
1352.44163	53965.4375
1355.92738	54518.9375
1359.41078	57021.2375
1362.89183	59433.9375
1366.37053	57768.2375
1369.84688	52288.0375
1373.32088	46445.8375
1376.79254	42647.1375
1380.26186	41099.1375
1383.72883	40713.2375
1387.19347	40471.9375
1390.65578	40226.6375
1394.11575	40309.4375
1397.57339	40943.7375
1401.0287	41952.2375
1404.48168	42953.8375
1407.93234	43661.9375
1411.38068	43611.8375
1414.82669	42756.7375
1418.27039	41070.1375
1421.71177	39074.3375
1425.15083	37360.5375
1428.58758	36438.2375
1432.02203	36355.3375
1435.45416	36927.9375
1438.88399	37683.1375
1442.31151	38475.1375
1445.73673	39146.8375
1449.15965	39748.9375
1452.58027	40246.6375
1455.9986	40470.3375
1459.41463	40769.1375
1462.82837	41446.9375
1466.23982	42320.5375
1469.64898	43130.1375
1473.05586	43565.9375
1476.46045	43645.1375
1479.86276	43404.3375
1483.26279	43075.2375
1486.66054	42939.6375
1490.05602	43096.4375
1493.44922	43367.4375
1496.84016	43655.2375
1500.22882	44287.4375
1503.61521	45420.1375
1506.99934	47165.9375
1510.38121	48923.1375
1513.76081	49714.0375
1517.13816	48778.3375
1520.51324	46466.5375
1523.88607	44252.2375
1527.25665	42763.8375
1530.62498	41994.4375
1533.99105	41545.8375
1537.35488	41277.9375
1540.71647	40979.8375
1544.07581	40480.1375
1547.4329	39857.2375
1550.78776	39282.1375
1554.14038	38905.2375
1557.49077	38740.1375
1560.83892	38679.7375
1564.18484	38611.0375
1567.52853	38451.9375
1570.86999	38440.5375
1574.20922	38752.7375
1577.54624	39027.7375
1580.88103	39017.1375
1584.2136	39112.4375
1587.54395	40235.9375
1590.87208	42402.5375
1594.19801	45459.6375
1597.52172	48518.3375
1600.84321	49588.3375
1604.16251	47524.4375
1607.47959	43762.9375
1610.79447	39622.2375
1614.10715	35873.7375
1617.41763	32890.2375
1620.7259	30819.6375
1624.03199	29827.3375
1627.33587	29835.9375
1630.63757	30855.6375
1633.93707	33007.4375
1637.23439	36140.2375
1640.52951	40082.3375
1643.82246	44239.7375
1647.11321	47253.3375
1650.40179	47520.3375
1653.68819	44233.0375
1656.97241	38525.6375
1660.25446	32917.4375
1663.53433	28724.2375
1666.81203	26063.0375
1670.08756	24393.7375
1673.36092	23282.5375
1676.63211	22604.6375
1679.90115	22093.9375
1683.16801	21719.5375
1686.43272	21453.5375
1689.69527	21250.8375
1692.95567	21111.3375
1696.2139	21003.1375
1699.46999	20943.6375
1702.72392	20869.6375
1705.97571	20784.9375
1709.22535	20746.4375
1712.47284	20705.2375
1715.71819	20697.4375
1718.96139	20654.6375
1722.20246	20537.4375
1725.44139	20444.3375
1728.67818	20325.0375
1731.91284	20158.5375
1735.14537	20061.8375
1738.37576	19975.8375
1741.60403	19917.1375
1744.83017	19851.8375
1748.05418	19805.5375
1751.27607	19763.1375
1754.49584	19755.1375
1757.71349	19726.8375
1760.92903	19732.0375
1764.14244	19737.6375
1767.35375	19721.1375
1770.56294	19664.3375
1773.77002	19621.6375
1776.97499	19560.9375
1780.17785	19507.0375
1783.37861	19476.1375
1786.57727	19471.6375
1789.77382	19434.4375
1792.96828	19402.4375
1796.16064	19373.3375
1799.3509	19332.9375
1802.53907	19310.1375
1805.72514	19271.1375
1808.90913	19243.5375
1812.09102	19226.8375
1815.27083	19145.0375
1818.44856	19127.8375
1821.6242	19122.5375
1824.79776	19074.9375
1827.96924	19075.0375
1831.13864	19056.9375
1834.30597	19074.9375
1837.47122	19049.7375
1840.6344	19029.5375
1843.7955	19088.4375
1846.95454	19046.6375
1850.11151	19089.1375
1853.26642	19077.1375
1856.41926	19084.2375
1859.57004	19113.6375
1862.71876	19081.9375
1865.86542	19108.1375
1869.01003	19068.0375
1872.15258	19099.5375
1875.29308	19121.5375
1878.43152	19118.8375
1881.56792	19139.7375
1884.70227	19104.7375
1887.83457	19155.0375
1890.96482	19101.8375
1894.09304	19106.2375
1897.21921	19110.9375
1900.34335	19084.8375
1903.46544	19091.1375
1906.58551	19101.4375
1909.70353	19088.2375
1912.81953	19104.7375
1915.93349	19104.1375
1919.04543	19043.4375
1922.15534	18980.6375
1925.26322	18933.7375
1928.36908	18873.4375
1931.47292	18834.9375
1934.57473	18779.4375
1937.67453	18705.6375
1940.77232	18607.0375
1943.86808	18524.4375
1946.96184	18431.6375
1950.05358	18352.7375
1953.14331	18280.7375
1956.23103	18199.8375
1959.31675	18173.8375
1962.40046	18100.1375
1965.48217	18066.5375
1968.56188	17994.4375
1971.63959	17942.8375
1974.7153	17908.0375
1977.78901	17839.9375
1980.86073	17767.1375
1983.93046	17736.5375
1986.99819	17676.1375
1990.06394	17628.6375
1993.1277	17594.9375
1996.18947	17500.7375
1999.24925	17477.6375
2002.30706	17414.7375
2005.36288	17352.1375
2008.41672	17332.4375
2011.46859	17294.6375
2014.51848	17256.8375
2017.56639	17240.2375
2020.61233	17165.7375
2023.6563	17123.1375
2026.6983	17121.0375
2029.73833	17077.7375
2032.7764	17046.7375
2035.8125	17017.1375
2038.84664	16995.1375
2041.87881	16957.3375
2044.90903	16949.3375
2047.93729	16916.9375
2050.96359	16921.2375
2053.98794	16898.6375
2057.01034	16887.5375
2060.03078	16857.2375
2063.04927	16855.2375
2066.06582	16849.7375
2069.08042	16784.7375
2072.09307	16812.1375
2075.10378	16767.2375
2078.11255	16751.7375
2081.11938	16742.3375
2084.12426	16724.0375
2087.12722	16754.9375
2090.12824	16699.1375
2093.12732	16702.8375
2096.12447	16694.2375
2099.11969	16672.3375
2102.11299	16706.4375
2105.10435	16706.3375
2108.09379	16733.5375
2111.08131	16703.5375
2114.0669	16716.9375
2117.05057	16723.5375
2120.03233	16712.9375
2123.01216	16755.0375
2125.99008	16763.1375
2128.96609	16776.5375
2131.94018	16795.2375
2134.91236	16791.5375
2137.88263	16790.9375
2140.851	16815.3375
2143.81746	16813.1375
2146.78201	16809.2375
2149.74466	16839.4375
2152.7054	16841.8375
2155.66425	16794.3375
2158.6212	16805.2375
2161.57625	16814.0375
2164.52941	16797.2375
2167.48067	16786.3375
2170.43004	16780.3375
2173.37752	16771.4375
2176.32311	16784.7375
2179.26681	16803.2375
2182.20863	16788.2375
2185.14856	16759.0375
2188.08661	16771.5375
2191.02278	16821.5375
2193.95707	16822.4375
2196.88948	16804.6375
2199.82001	16773.2375
2202.74867	16776.0375
2205.67545	16801.0375
2208.60037	16777.5375
2211.52341	16791.5375
2214.44458	16796.4375
2217.36388	16776.8375
2220.28132	16730.9375
2223.1969	16667.3375
2226.11061	16669.9375
2229.02246	16636.8375
2231.93245	16608.6375
2234.84058	16547.6375
2237.74686	16519.2375
2240.65128	16559.0375
2243.55385	16477.2375
2246.45456	16464.5375
2249.35343	16435.4375
2252.25044	16434.0375
2255.14561	16430.5375
2258.03893	16431.1375
2260.93041	16367.3375
2263.82004	16312.7375
2266.70783	16278.6375
2269.59378	16209.5375
2272.4779	16159.5375
2275.36017	16133.6375
2278.24061	16086.3375
2281.11922	16072.7375
2283.996	16075.4375
2286.87094	16070.8375
2289.74405	16062.7375
2292.61534	16054.7375
2295.4848	16059.1375
2298.35243	16064.3375
2301.21824	16107.2375
2304.08223	16092.6375
2306.94439	16091.7375
2309.80474	16123.0375
2312.66327	16151.0375
2315.51999	16145.1375
2318.37489	16140.4375
2321.22797	16149.3375
2324.07925	16120.8375
2326.92871	16087.4375
2329.77637	16081.9375
2332.62222	16092.4375
2335.46626	16123.1375
2338.3085	16123.2375
2341.14893	16136.7375
2343.98756	16201.7375
2346.8244	16172.4375
2349.65943	16159.9375
2352.49267	16175.3375
2355.32411	16184.5375
2358.15376	16166.2375
2360.98161	16137.6375
2363.80768	16142.2375
2366.63195	16104.4375
2369.45444	16072.8375
2372.27514	16014.0375
2375.09405	15983.3375
2377.91118	15945.3375
2380.72652	15900.7375
2383.54009	15856.3375
2386.35187	15829.8375
2389.16188	15789.6375
2391.97011	15789.6375
2394.77657	15736.6375
2397.58125	15717.8375
2400.38416	15743.0375
2403.18529	15690.0375
2405.98466	15682.4375
2408.78226	15607.9375
2411.57809	15570.8375
2414.37216	15547.1375
2417.16446	15534.6375
2419.955	15501.5375
2422.74378	15467.6375
2425.5308	15459.7375
2428.31606	15455.7375
2431.09956	15477.1375
2433.88131	15441.3375
2436.6613	15460.7375
2439.43954	15477.9375
2442.21603	15447.7375
2444.99077	15448.6375
2447.76377	15455.6375
2450.53501	15405.3375
2453.30451	15407.7375
2456.07226	15406.1375
2458.83827	15405.6375
2461.60254	15412.1375
2464.36507	15444.8375
2467.12586	15411.7375
2469.88492	15437.6375
2472.64224	15424.9375
2475.39782	15462.4375
2478.15167	15472.4375
2480.90379	15506.4375
2483.65417	15530.0375
2486.40283	15553.3375
2489.14976	15556.3375
2491.89497	15546.9375
2494.63845	15602.3375
2497.3802	15597.6375
2500.12024	15598.0375
2502.85855	15551.6375
2505.59514	15504.7375
2508.33002	15504.4375
2511.06318	15509.6375
2513.79462	15503.1375
2516.52435	15485.6375
2519.25237	15466.6375
2521.97867	15442.6375
2524.70327	15469.0375
2527.42616	15417.8375
2530.14734	15451.4375
2532.86681	15451.1375
2535.58458	15415.0375
2538.30065	15428.5375
2541.01501	15416.9375
2543.72768	15454.2375
2546.43864	15421.4375
2549.14791	15437.2375
2551.85548	15429.5375
2554.56136	15396.9375
2557.26554	15378.3375
2559.96803	15406.7375
2562.66883	15327.4375
2565.36794	15333.1375
2568.06536	15341.8375
2570.7611	15289.1375
2573.45514	15302.2375
2576.14751	15296.6375
2578.83819	15303.6375
2581.52719	15305.0375
2584.21451	15289.4375
2586.90015	15310.2375
2589.58411	15303.5375
2592.2664	15305.1375
2594.94701	15306.1375
2597.62594	15321.9375
2600.30321	15307.7375
2602.9788	15309.3375
2605.65273	15322.9375
2608.32498	15299.9375
2610.99557	15303.2375
2613.66449	15346.5375
2616.33175	15345.7375
2618.99734	15371.0375
2621.66128	15379.1375
2624.32355	15370.3375
2626.98416	15374.2375
2629.64311	15392.9375
2632.30041	15361.9375
2634.95605	15345.9375
2637.61004	15327.0375
2640.26238	15315.8375
2642.91306	15285.3375
2645.56209	15267.3375
2648.20948	15274.8375
2650.85521	15241.7375
2653.4993	15269.6375
2656.14175	15235.2375
2658.78255	15260.5375
2661.42171	15253.0375
2664.05923	15277.7375
2666.6951	15300.9375
2669.32934	15335.7375
2671.96194	15317.5375
2674.59291	15327.4375
2677.22224	15309.0375
2679.84993	15322.7375
2682.476	15294.3375
2685.10043	15315.3375
2687.72324	15283.0375
2690.34441	15262.8375
2692.96396	15248.1375
2695.58188	15237.1375
2698.19818	15216.9375
2700.81285	15260.3375
2703.4259	15229.6375
2706.03733	15251.9375
2708.64714	15225.0375
2711.25533	15267.3375
2713.86191	15252.0375
2716.46687	15260.5375
2719.07021	15282.8375
2721.67194	15292.6375
2724.27206	15291.7375
2726.87057	15275.3375
2729.46747	15286.1375
2732.06276	15298.4375
2734.65644	15332.6375
2737.24852	15332.9375
2739.83899	15319.7375
2742.42786	15322.8375
2745.01513	15274.4375
2747.60079	15308.7375
2750.18486	15236.9375
2752.76733	15266.5375
2755.3482	15275.0375
2757.92747	15280.4375
2760.50515	15243.5375
2763.08123	15254.5375
2765.65573	15238.5375
2768.22863	15243.2375
2770.79994	15247.3375
2773.36967	15217.9375
2775.9378	15245.6375
2778.50435	15254.9375
2781.06932	15276.1375
2783.6327	15284.5375
2786.1945	15304.4375
2788.75471	15257.9375
2791.31335	15232.0375
2793.87041	15207.9375
2796.42589	15176.2375
2798.97979	15176.0375
2801.53212	15141.3375
2804.08288	15139.5375
2806.63206	15102.1375
2809.17967	15077.2375
2811.72571	15089.0375
2814.27018	15065.4375
2816.81308	15010.9375
2819.35442	15007.3375
2821.89419	14968.7375
2824.43239	14992.5375
2826.96904	14961.8375
2829.50412	14957.3375
2832.03763	14939.3375
2834.56959	14928.4375
2837.1	14925.2375
2839.62884	14937.9375
2842.15613	14925.4375
2844.68186	14943.9375
2847.20604	14943.7375
2849.72867	14951.8375
2852.24974	14927.0375
2854.76927	14900.6375
2857.28724	14876.4375
2859.80367	14861.5375
2862.31855	14866.3375
2864.83189	14813.6375
2867.34368	14804.8375
2869.85393	14834.1375
2872.36264	14814.5375
2874.8698	14834.5375
2877.37543	14804.3375
2879.87952	14820.1375
2882.38207	14834.2375
2884.88308	14803.2375
2887.38256	14841.3375
2889.88051	14811.1375
2892.37692	14814.0375
2894.8718	14845.9375
2897.36515	14871.9375
2899.85698	14911.1375
2902.34727	14938.1375
2904.83604	14955.0375
2907.32328	14994.6375
2909.809	14979.5375
2912.29319	14969.1375
2914.77587	14974.8375
2917.25702	14954.3375
2919.73665	14927.2375
2922.21476	14918.8375
2924.69136	14920.7375
2927.16644	14919.0375
2929.64	14859.8375
2932.11205	14835.4375
2934.58258	14802.5375
2937.05161	14810.5375
2939.51912	14808.2375
2941.98513	14785.2375
2944.44962	14750.3375
2946.91261	14726.5375
2949.37409	14745.4375
2951.83407	14726.0375
2954.29254	14675.2375
2956.74951	14716.1375
2959.20498	14682.4375
2961.65895	14666.9375
2964.11142	14663.5375
2966.56239	14629.7375
2969.01186	14636.9375
2971.45984	14599.1375
2973.90632	14594.4375
2976.35131	14538.1375
2978.7948	14499.9375
2981.23681	14461.6375
2983.67732	14428.0375
2986.11635	14369.9375
2988.55388	14356.2375
2990.98993	14324.4375
2993.4245	14313.6375
2995.85758	14265.5375
2998.28917	14226.2375
3000.71928	14225.5375
3003.14791	14171.9375
3005.57506	14197.3375
3008.00073	14155.5375
3010.42493	13994.2375
3012.84764	14069.3375
3015.26888	14033.8375
3017.68865	13994.9375
3020.10694	13978.9375
3022.52376	13945.2375
