Data from AgNP_FTO_APTES_UA_10uM_CRN_1uM_R6G_10uM_NaF_0.1M_Addition_RamanShift__12__13-06-40-508.txt Node

Date: Thu Feb 10 13:06:40 GMT 2022
User: TCL
Spectrometer: QEP01345
Trigger mode: 4
Integration Time (sec): 7.000000E0
Scans to average: 10
Electric dark correction enabled: true
Nonlinearity correction enabled: false
Boxcar width: 0
XAxis mode: Raman Shifts
Number of Pixels in Spectrum: 1044
>>>>>Begin Spectral Data<<<<<
46.04893	0.2
50.45542	-0.3
54.85868	-1.9
59.25871	-1.2
63.6555	79.4
68.04907	82.9
72.43941	85.8
76.82654	85.7
81.21044	92.4
85.59113	91.5
89.96862	95
94.34289	98.3
98.71396	103.8
103.08183	107
107.4465	111.9
111.80798	109.8
116.16626	115.1
120.52136	116.3
124.87327	129.8
129.222	133.3
133.56755	141.4
137.90993	150
142.24913	164.8
146.58517	187.5
150.91804	221.4
155.24774	263.7
159.57429	333.5
163.89768	422.8
168.21792	566.8
172.53501	771.9
176.84895	1078.7
181.15975	1521.3
185.46741	2144.6
189.77193	2961.4
194.07331	3962.5
198.37157	5124.2
202.6667	6332.4
206.9587	7544.3
211.24758	8744.8
215.53334	9918.2
219.81599	11153.1
224.09553	12501.5
228.37195	14039.1
232.64527	15673.2
236.91549	17423.1
241.18261	19212.9
245.44663	20875.5
249.70755	22393.7
253.96539	23685.6
258.22014	24806.4
262.4718	25625.5
266.72039	26244.7
270.96589	26490
275.20832	26521.9
279.44768	26320.5
283.68397	26039.6
287.91719	25782.9
292.14735	25574.8
296.37445	25480.9
300.59849	25522.8
304.81948	25547.9
309.03742	25573.9
313.25231	25487.8
317.46415	25156.1
321.67296	24671.8
325.87872	24230.5
330.08145	24062.2
334.28114	24073.5
338.47781	24209
342.67145	24500.5
346.86207	24829.3
351.04966	25281.3
355.23424	25681
359.4158	26065.7
363.59435	26391.7
367.76989	26560
371.94243	26698.1
376.11196	26736.6
380.27849	26729.6
384.44203	26856.3
388.60257	26998.7
392.76012	27301.9
396.91468	27685.5
401.06626	28140.6
405.21485	28426.8
409.36047	28356.8
413.50311	28077.8
417.64277	27861
421.77947	27987.4
425.9132	28162.4
430.04396	28371.1
434.17176	28455.4
438.2966	28552.9
442.41849	28783.4
446.53742	29256
450.6534	29837.3
454.76644	30220.1
458.87653	30329.2
462.98368	30284.7
467.08789	30097.6
471.18916	29760.3
475.2875	29434.7
479.38291	29179.4
483.4754	29001.1
487.56496	28804.2
491.6516	28557
495.73531	28298.4
499.81612	28143.3
503.89401	28241.2
507.96899	28421.5
512.04106	28487.9
516.11023	28386.9
520.1765	28150.9
524.23987	27945.3
528.30034	27680.2
532.35792	27406.7
536.41261	27084.8
540.46441	26899.7
544.51333	26869.3
548.55936	27077.4
552.60252	27547.3
556.64279	28025.7
560.6802	28401.1
564.71473	28673.8
568.7464	29112.6
572.7752	29997.2
576.80114	31056.3
580.82422	32190.3
584.84444	33306.4
588.86181	34633.8
592.87633	35911.2
596.888	35751.8
600.89682	34098.5
604.9028	33315.6
608.90594	34703.1
612.90624	36390.4
616.90371	34395.5
620.89834	30020.8
624.89015	28146.9
628.87913	28010.5
632.86528	28290.9
636.84862	28320.1
640.82913	27873.3
644.80683	27139.9
648.78172	26685.8
652.75379	26642.6
656.72306	26906.3
660.68952	27318.9
664.65319	27247.6
668.61405	26889.8
672.57211	26808.5
676.52738	26891
680.47986	26863
684.42955	26729.3
688.37646	26619
692.32058	26793.5
696.26192	27070.1
700.20048	27392.2
704.13626	27628.4
708.06928	27713.3
711.99952	27622.4
715.927	27532.6
719.85171	27486.9
723.77365	27271.9
727.69284	26991.9
731.60928	26611.4
735.52295	26397.2
739.43388	26391.6
743.34206	26501.6
747.24749	26644.1
751.15017	26890.7
755.05012	27365.1
758.94733	27957.3
762.8418	29089
766.73354	30778.6
770.62254	32318.9
774.50882	32600.3
778.39237	31405.1
782.27321	29791.4
786.15132	28387.5
790.02671	27420.8
793.89938	26860.7
797.76935	26595.4
801.6366	26459.2
805.50115	26409.6
809.36299	26261.4
813.22213	26101
817.07857	26017.9
820.93231	25958.6
824.78336	25869
828.63172	25774.5
832.47738	25715.3
836.32036	25659.1
840.16066	25684.4
843.99827	25632.4
847.8332	25630.1
851.66546	25729.7
855.49504	25758.4
859.32195	25776
863.1462	25693.2
866.96777	25688
870.78668	25682.5
874.60293	25708
878.41652	25691.8
882.22745	25772.5
886.03573	25828
889.84136	25840.6
893.64433	25828.2
897.44466	25748.9
901.24235	25747.6
905.0374	25713.7
908.8298	25680.4
912.61957	25681.9
916.40671	25843.6
920.19121	26119.8
923.97308	26388.1
927.75233	26481.3
931.52895	26226.2
935.30295	25810.6
939.07433	25406.9
942.84309	25066
946.60924	24916.5
950.37278	24823
954.13371	24836.6
957.89203	24810.9
961.64774	24789.7
965.40086	24774.7
969.15137	24731.6
972.89929	24664.6
976.64461	24582
980.38733	24534.3
984.12747	24539.9
987.86502	24637.1
991.59999	24737
995.33237	24909.7
999.06217	25181
1002.78939	25563.5
1006.51404	26094.2
1010.23611	26571.1
1013.95561	26920.1
1017.67255	26999.6
1021.38692	26723.4
1025.09872	26308.2
1028.80796	25926.2
1032.51465	25773.3
1036.21877	25715.5
1039.92035	25834.1
1043.61937	25952.4
1047.31584	26018.2
1051.00976	26101.6
1054.70114	26218.9
1058.38998	26388.5
1062.07627	26608.5
1065.76003	26956
1069.44126	27323.4
1073.11995	27828.5
1076.79611	28278.1
1080.46974	28442.6
1084.14085	28645.5
1087.80943	28943
1091.47549	29203.7
1095.13903	29278.1
1098.80005	28943.6
1102.45857	28354.3
1106.11456	27847.2
1109.76805	27467
1113.41903	27325.6
1117.06751	27309
1120.71348	27538.9
1124.35696	27814.1
1127.99793	28072.9
1131.63641	28270.5
1135.2724	28212.2
1138.90589	28218.4
1142.5369	28190.7
1146.16542	28389.9
1149.79145	28615.1
1153.415	28811.6
1157.03607	29056.9
1160.65467	29638.3
1164.27079	30679.7
1167.88443	31986.9
1171.49561	33465.8
1175.10432	35223
1178.71056	37357.9
1182.31434	39463.6
1185.91565	40715.1
1189.51451	40971.4
1193.11091	40499.1
1196.70485	39404
1200.29634	38103.3
1203.88538	37049.3
1207.47197	36444.5
1211.05612	36100.8
1214.63782	35567.7
1218.21708	34652.6
1221.79391	33620
1225.36829	32938
1228.94024	32632.6
1232.50976	32361.2
1236.07685	32147.9
1239.6415	31930.8
1243.20374	31874.4
1246.76355	32024.8
1250.32093	32339.4
1253.8759	32897.4
1257.42845	33748.4
1260.97859	34656.1
1264.52631	35679.3
1268.07163	36616.9
1271.61453	37566.5
1275.15503	38427.7
1278.69312	39311.6
1282.22882	40351.3
1285.76211	41496.6
1289.29301	42716.6
1292.82151	44193.3
1296.34761	45986.8
1299.87133	48059.9
1303.39266	50246.7
1306.9116	52216.8
1310.42815	53707.4
1313.94233	54346
1317.45412	54013.7
1320.96354	53199.5
1324.47058	52870.5
1327.97525	52737.6
1331.47754	52755.6
1334.97747	52767.1
1338.47502	52728.1
1341.97022	52759.9
1345.46305	52626.3
1348.95352	52406.5
1352.44163	52077.8
1355.92738	52113.9
1359.41078	52912.9
1362.89183	53724.3
1366.37053	52994.9
1369.84688	49773.6
1373.32088	45421.5
1376.79254	42217.8
1380.26186	40811
1383.72883	40536.7
1387.19347	40399.7
1390.65578	39933.1
1394.11575	39700
1397.57339	39937.1
1401.0287	40294
1404.48168	40703.7
1407.93234	40660.8
1411.38068	40030.2
1414.82669	38882.5
1418.27039	37586.8
1421.71177	36339.5
1425.15083	35448.9
1428.58758	35080.4
1432.02203	35475.7
1435.45416	36295.8
1438.88399	37193.6
1442.31151	37710.1
1445.73673	38079.1
1449.15965	38198.2
1452.58027	38279.6
1455.9986	38466.5
1459.41463	38866
1462.82837	39421.9
1466.23982	40131.3
1469.64898	40586.8
1473.05586	40859.7
1476.46045	40773.6
1479.86276	40586.6
1483.26279	40349
1486.66054	40294.8
1490.05602	40571.4
1493.44922	41115.2
1496.84016	42003.2
1500.22882	42988.5
1503.61521	44214.3
1506.99934	45445.7
1510.38121	46290.7
1513.76081	46211
1517.13816	45339.9
1520.51324	44243.5
1523.88607	43509.2
1527.25665	43147.2
1530.62498	42914.3
1533.99105	42505.5
1537.35488	41756.1
1540.71647	40761.8
1544.07581	39606.7
1547.4329	38575.4
1550.78776	37728.5
1554.14038	37172.9
1557.49077	36898.4
1560.83892	36877.8
1564.18484	36904.6
1567.52853	37033.4
1570.86999	37284.5
1574.20922	37826.7
1577.54624	38247.6
1580.88103	38377
1584.2136	38608.4
1587.54395	39485
1590.87208	41051.1
1594.19801	43058
1597.52172	44852.3
1600.84321	45170.6
1604.16251	43251.3
1607.47959	40374.7
1610.79447	37507.3
1614.10715	34628.2
1617.41763	32291.5
1620.7259	30722.3
1624.03199	29898.4
1627.33587	29897.9
1630.63757	30640.3
1633.93707	32449.8
1637.23439	35573.8
1640.52951	40101.5
1643.82246	45361.1
1647.11321	49392.8
1650.40179	49913.5
1653.68819	46335.1
1656.97241	40443.9
1660.25446	34808.7
1663.53433	30729.3
1666.81203	28082.2
1670.08756	26438.4
1673.36092	25388.3
1676.63211	24748
1679.90115	24281.5
1683.16801	23941.8
1686.43272	23674.2
1689.69527	23437.7
1692.95567	23281.9
1696.2139	23184.1
1699.46999	23121.4
1702.72392	23018.4
1705.97571	22946.5
1709.22535	22928.9
1712.47284	22886.5
1715.71819	22880
1718.96139	22791.4
1722.20246	22677.1
1725.44139	22535.7
1728.67818	22464.5
1731.91284	22275.4
1735.14537	22180
1738.37576	22081.2
1741.60403	22031.3
1744.83017	21935.7
1748.05418	21865.6
1751.27607	21825.9
1754.49584	21809.9
1757.71349	21777.4
1760.92903	21740.4
1764.14244	21746.8
1767.35375	21708
1770.56294	21617.5
1773.77002	21596.9
1776.97499	21547.1
1780.17785	21533.5
1783.37861	21469.4
1786.57727	21439.5
1789.77382	21414.7
1792.96828	21316.6
1796.16064	21286.9
1799.3509	21277.3
1802.53907	21243.9
1805.72514	21150.5
1808.90913	21096.4
1812.09102	21068.2
1815.27083	20996.3
1818.44856	20994.5
1821.6242	20986.7
1824.79776	20934.1
1827.96924	20916.4
1831.13864	20978.4
1834.30597	20985.4
1837.47122	20959.9
1840.6344	20966.7
1843.7955	20980.4
1846.95454	20960.2
1850.11151	20958.8
1853.26642	20943.9
1856.41926	20939.5
1859.57004	20964
1862.71876	20943.6
1865.86542	20909.6
1869.01003	20848.4
1872.15258	20819
1875.29308	20797.6
1878.43152	20690
1881.56792	20704.1
1884.70227	20673.2
1887.83457	20647.4
1890.96482	20579
1894.09304	20488.1
1897.21921	20461.9
1900.34335	20473.8
1903.46544	20435.3
1906.58551	20404
1909.70353	20388.6
1912.81953	20307.6
1915.93349	20253
1919.04543	20221.6
1922.15534	20201.8
1925.26322	20092.3
1928.36908	20066.2
1931.47292	20041.3
1934.57473	19972.6
1937.67453	19928.1
1940.77232	19909.9
1943.86808	19841
1946.96184	19758.2
1950.05358	19714.6
1953.14331	19635.2
1956.23103	19567.3
1959.31675	19485.6
1962.40046	19435.7
1965.48217	19387.4
1968.56188	19319.4
1971.63959	19235.9
1974.7153	19186
1977.78901	19111.5
1980.86073	19049.6
1983.93046	18989.3
1986.99819	18904.6
1990.06394	18890.1
1993.1277	18824
1996.18947	18792.9
1999.24925	18754.9
2002.30706	18666
2005.36288	18645.4
2008.41672	18565.8
2011.46859	18505
2014.51848	18429.8
2017.56639	18403.9
2020.61233	18350.7
2023.6563	18318.7
2026.6983	18277.2
2029.73833	18191.4
2032.7764	18144.7
2035.8125	18133.4
2038.84664	18056.9
2041.87881	18044.7
2044.90903	18007.6
2047.93729	17970.9
2050.96359	17930.4
2053.98794	17937
2057.01034	17884.4
2060.03078	17872.6
2063.04927	17864.4
2066.06582	17877
2069.08042	17794.8
2072.09307	17793
2075.10378	17795.1
2078.11255	17772.7
2081.11938	17756.5
2084.12426	17755.3
2087.12722	17752.5
2090.12824	17740.8
2093.12732	17721
2096.12447	17729.2
2099.11969	17746.3
2102.11299	17714.4
2105.10435	17759.2
2108.09379	17743.3
2111.08131	17750
2114.0669	17759.7
2117.05057	17771.9
2120.03233	17792.8
2123.01216	17856
2125.99008	17782
2128.96609	17804.2
2131.94018	17836.2
2134.91236	17854
2137.88263	17821.7
2140.851	17805.1
2143.81746	17820.8
2146.78201	17835.4
2149.74466	17814.9
2152.7054	17803.8
2155.66425	17777.4
2158.6212	17771.6
2161.57625	17748.5
2164.52941	17770
2167.48067	17737.7
2170.43004	17716
2173.37752	17706.1
2176.32311	17711.3
2179.26681	17720.1
2182.20863	17710.5
2185.14856	17708.3
2188.08661	17704.9
2191.02278	17719
2193.95707	17703.5
2196.88948	17683.8
2199.82001	17651.8
2202.74867	17641.3
2205.67545	17608.9
2208.60037	17591
2211.52341	17551.5
2214.44458	17548.5
2217.36388	17467
2220.28132	17437.9
2223.1969	17387.2
2226.11061	17380.8
2229.02246	17340.4
2231.93245	17328.4
2234.84058	17295.4
2237.74686	17272.5
2240.65128	17252.5
2243.55385	17207.2
2246.45456	17192.8
2249.35343	17171
2252.25044	17173.2
2255.14561	17124.7
2258.03893	17085.7
2260.93041	17046.7
2263.82004	16978.8
2266.70783	16936.8
2269.59378	16886.6
2272.4779	16867.7
2275.36017	16821.9
2278.24061	16819.5
2281.11922	16758.9
2283.996	16750.5
2286.87094	16693.1
2289.74405	16633.5
2292.61534	16639.2
2295.4848	16622.4
2298.35243	16620.1
2301.21824	16601.7
2304.08223	16613.4
2306.94439	16592.9
2309.80474	16555.6
2312.66327	16578.5
2315.51999	16537
2318.37489	16540.4
2321.22797	16513
2324.07925	16514.9
2326.92871	16439.8
2329.77637	16433.6
2332.62222	16429.1
2335.46626	16362.4
2338.3085	16385.8
2341.14893	16331.2
2343.98756	16347.7
2346.8244	16336.8
2349.65943	16323.1
2352.49267	16347.4
2355.32411	16319.7
2358.15376	16320.6
2360.98161	16316.3
2363.80768	16329.4
2366.63195	16336
2369.45444	16313
2372.27514	16264
2375.09405	16233.8
2377.91118	16214.2
2380.72652	16183.4
2383.54009	16156.5
2386.35187	16106.9
2389.16188	16058.4
2391.97011	16017.4
2394.77657	15993.1
2397.58125	15959.1
2400.38416	15948
2403.18529	15889.1
2405.98466	15889.9
2408.78226	15859.3
2411.57809	15821.9
2414.37216	15838.7
2417.16446	15845.2
2419.955	15781.8
2422.74378	15777.4
2425.5308	15809.5
2428.31606	15773
2431.09956	15780.5
2433.88131	15768.6
2436.6613	15775
2439.43954	15741.9
2442.21603	15735.1
2444.99077	15699
2447.76377	15706
2450.53501	15707.3
2453.30451	15673.3
2456.07226	15658.6
2458.83827	15648.3
2461.60254	15658.6
2464.36507	15665.9
2467.12586	15601.9
2469.88492	15596.6
2472.64224	15629.1
2475.39782	15621.7
2478.15167	15600.5
2480.90379	15575.3
2483.65417	15576.7
2486.40283	15596.9
2489.14976	15563.6
2491.89497	15566.2
2494.63845	15597.8
2497.3802	15553.1
2500.12024	15547.2
2502.85855	15508.3
2505.59514	15521
2508.33002	15501.2
2511.06318	15468.8
2513.79462	15467.2
2516.52435	15447.9
2519.25237	15441.9
2521.97867	15434.2
2524.70327	15429
2527.42616	15395.9
2530.14734	15421.1
2532.86681	15381
2535.58458	15362.7
2538.30065	15396.5
2541.01501	15366.4
2543.72768	15329.7
2546.43864	15309.6
2549.14791	15282.4
2551.85548	15285.9
2554.56136	15292.1
2557.26554	15244.6
2559.96803	15202.2
2562.66883	15164.6
2565.36794	15173.1
2568.06536	15128.2
2570.7611	15088.2
2573.45514	15077.1
2576.14751	15093.8
2578.83819	15054.5
2581.52719	15035.3
2584.21451	15012
2586.90015	15016.9
2589.58411	14988.9
2592.2664	14970.5
2594.94701	14927.4
2597.62594	14947.2
2600.30321	14891.8
2602.9788	14869.4
2605.65273	14869.5
2608.32498	14885.1
2610.99557	14872.8
2613.66449	14855.7
2616.33175	14825
2618.99734	14810.8
2621.66128	14817.1
2624.32355	14770.4
2626.98416	14777.5
2629.64311	14738.6
2632.30041	14718.7
2634.95605	14701.8
2637.61004	14696.9
2640.26238	14676.5
2642.91306	14699.2
2645.56209	14709.8
2648.20948	14689.8
2650.85521	14673.8
2653.4993	14687.9
2656.14175	14692.3
2658.78255	14685.9
2661.42171	14712
2664.05923	14696.9
2666.6951	14722
2669.32934	14717.1
2671.96194	14715.8
2674.59291	14750.6
2677.22224	14695.4
2679.84993	14726
2682.476	14714.7
2685.10043	14734.5
2687.72324	14704.3
2690.34441	14697.2
2692.96396	14678.5
2695.58188	14687.5
2698.19818	14699.5
2700.81285	14696.5
2703.4259	14677
2706.03733	14668.8
2708.64714	14647
2711.25533	14685
2713.86191	14677.9
2716.46687	14736.6
2719.07021	14742.7
2721.67194	14720.7
2724.27206	14741.2
2726.87057	14738.3
2729.46747	14734.2
2732.06276	14768.5
2734.65644	14773
2737.24852	14770.3
2739.83899	14701.7
2742.42786	14702.1
2745.01513	14675
2747.60079	14711.4
2750.18486	14645.5
2752.76733	14645.7
2755.3482	14641.7
2757.92747	14661.2
2760.50515	14610.6
2763.08123	14594.7
2765.65573	14540.3
2768.22863	14546.7
2770.79994	14514.6
2773.36967	14536.1
2775.9378	14494.1
2778.50435	14488
2781.06932	14519.1
2783.6327	14492.5
2786.1945	14487.3
2788.75471	14463.2
2791.31335	14439.2
2793.87041	14431.1
2796.42589	14410.5
2798.97979	14380.4
2801.53212	14349
2804.08288	14366.4
2806.63206	14288.2
2809.17967	14273.4
2811.72571	14233.7
2814.27018	14180.3
2816.81308	14171.7
2819.35442	14137.5
2821.89419	14102.2
2824.43239	14092.9
2826.96904	14100.6
2829.50412	14102.2
2832.03763	14020.7
2834.56959	14029
2837.1	14001.9
2839.62884	14002.6
2842.15613	14023.6
2844.68186	14033.2
2847.20604	13998.9
2849.72867	14024.6
2852.24974	14031.3
2854.76927	14019.9
2857.28724	13954.4
2859.80367	13950.4
2862.31855	13911.1
2864.83189	13919.6
2867.34368	13887.4
2869.85393	13889.1
2872.36264	13824.1
2874.8698	13830.5
2877.37543	13842.8
2879.87952	13842.7
2882.38207	13840.7
2884.88308	13806.2
2887.38256	13797.3
2889.88051	13781.2
2892.37692	13831.8
2894.8718	13797.3
2897.36515	13837.6
2899.85698	13822.8
2902.34727	13838.9
2904.83604	13837.1
2907.32328	13862.1
2909.809	13848.6
2912.29319	13841.4
2914.77587	13838.8
2917.25702	13815.5
2919.73665	13788.3
2922.21476	13816.3
2924.69136	13756.5
2927.16644	13797.8
2929.64	13760
2932.11205	13753.1
2934.58258	13727.5
2937.05161	13746.9
2939.51912	13732.1
2941.98513	13695.3
2944.44962	13691.5
2946.91261	13637.4
2949.37409	13657
2951.83407	13627.3
2954.29254	13632.3
2956.74951	13607.3
2959.20498	13613.8
2961.65895	13583.6
2964.11142	13568.2
2966.56239	13552.6
2969.01186	13542.1
2971.45984	13511.2
2973.90632	13519.8
2976.35131	13460.5
2978.7948	13458.3
2981.23681	13400.6
2983.67732	13378.4
2986.11635	13339.7
2988.55388	13334.6
2990.98993	13289.3
2993.4245	13249.2
2995.85758	13220.5
2998.28917	13184.9
3000.71928	13133.3
3003.14791	13147.1
3005.57506	13140.1
3008.00073	13070.3
3010.42493	12939.7
3012.84764	13040.2
3015.26888	12995.1
3017.68865	12951.5
3020.10694	12904.4
3022.52376	12899.5
3024.9391	12880.5
3027.35298	12874.5
3029.76539	12843.2
3032.17632	12861.6
3034.5858	12809.2
3036.9938	12801.2
3039.40034	12822.8
3041.80542	12800.3
3044.20903	12764.5
3046.61118	12771.7
3049.01187	12718.6
3051.4111	12689.1
3053.80888	12667.1
3056.20519	12632.2
3058.60005	12606.1
3060.99345	12633.6
3063.3854	12564.8
3065.7759	12508.9
3068.16494	12468.6
3070.55254	12445.1
3072.93868	12406.5
3075.32338	12368.4
3077.70662	12375.1
3080.08842	12322.6
3082.46878	12311.7
3084.84769	12293.7
3087.22515	12261.2
3089.60118	12247.8
3091.97576	12249.6
3094.3489	12222.9
3096.72061	12224.6
3099.09087	12245.6
3101.4597	12215
3103.82709	12197.6
3106.19305	12209.1
3108.55757	12187.2
3110.92066	12143.1
3113.28232	12131.3
3115.64255	12094.2
3118.00134	12061.2
3120.35871	12039.1
3122.71466	12009.7
3125.06917	11983.6
3127.42226	11958.2
3129.77393	11938.8
3132.12417	11941.4
3134.47299	11922.7
3136.82039	11912.6
3139.16636	11914.5
3141.51092	11916.4
3143.85406	11907.4
3146.19579	11878
3148.53609	11865.1
3150.87499	11894.8
3153.21246	11857.4
3155.54853	11898.4
3157.88318	11867.5
3160.21642	11892.8
3162.54826	11871.7
3164.87868	11884.8
3167.2077	11860
3169.5353	11882.8
3171.86151	11882.9
3174.18631	11856.6
3176.5097	11831.5
3178.83169	11798.6
3181.15228	11798.4
3183.47147	11796.3
3185.78926	11768.1
3188.10565	11747.6
3190.42065	11720.8
3192.73424	11716.3
3195.04645	11674.7
3197.35725	11664.2
3199.66667	11669.9
3201.97469	11658
3204.28132	11634.9
3206.58656	11667.7
3208.8904	11659
3211.19287	11656.3
3213.49394	11648
3215.79363	11674.7
3218.09193	11652.2
3220.38884	11619.9
3222.68438	11657.4
3224.97853	11652.2
3227.2713	11653.8
3229.56269	11632.6
3231.8527	11611.1
3234.14133	11556.9
3236.42858	11550.4
3238.71446	11524.9
3240.99896	11481.7
3243.28209	11472.1
3245.56384	11458.6
3247.84423	11468.7
3250.12324	11415.6
3252.40088	11410.3
3254.67715	11389.8
3256.95205	11395.4
3259.22558	11388.2
3261.49775	11351.9
3263.76855	11354.9
3266.03799	11325.1
3268.30606	11306.7
3270.57277	11263
3272.83812	11245.3
3275.10211	11201.6
3277.36474	11201.8
3279.62601	11200.1
3281.88593	11164.7
3284.14448	11197.5
3286.40168	11185.1
3288.65753	11173.5
3290.91202	11143.8
3293.16516	11130.8
3295.41695	11101.7
3297.66738	11038.1
3299.91647	10994.1
3302.16421	10917
3304.4106	10853
3306.65564	10789.5
3308.89933	10715.9
3311.14169	10634.8
3313.38269	10530
3315.62236	10445.8
3317.86068	10372.6
3320.09766	10271
3322.3333	10201.6
3324.5676	10129.1
3326.80056	9940.2
3329.03219	9890.9
3331.26248	3.8
3333.49143	-0.1
3335.71905	-1.2
