Data from AgNP_FTO_APTES_UA_10uM_CRN_0uM_R6G_10uM_NaF_0.1M_Addition_RamanShift__1__11-10-00-351.txt Node

Date: Thu Feb 10 11:10:00 GMT 2022
User: TCL
Spectrometer: QEP01345
Trigger mode: 4
Integration Time (sec): 7.000000E0
Scans to average: 10
Electric dark correction enabled: true
Nonlinearity correction enabled: false
Boxcar width: 0
XAxis mode: Raman Shifts
Number of Pixels in Spectrum: 1044
>>>>>Begin Spectral Data<<<<<
46.04893	0.625
50.45542	-0.875
54.85868	-2.275
59.25871	-0.375
63.6555	68.725
68.04907	71.425
72.43941	76.025
76.82654	71.925
81.21044	82.525
85.59113	80.225
89.96862	85.725
94.34289	88.225
98.71396	91.025
103.08183	94.025
107.4465	100.025
111.80798	98.525
116.16626	104.125
120.52136	108.725
124.87327	113.725
129.222	129.225
133.56755	134.125
137.90993	145.525
142.24913	161.425
146.58517	186.825
150.91804	225.625
155.24774	274.525
159.57429	348.525
163.89768	456.025
168.21792	624.525
172.53501	851.325
176.84895	1185.825
181.15975	1670.825
185.46741	2337.625
189.77193	3265.825
194.07331	4360.325
198.37157	5618.625
202.6667	6936.025
206.9587	8259.725
211.24758	9575.425
215.53334	10881.725
219.81599	12361.425
224.09553	13929.525
228.37195	15647.025
232.64527	17594.725
236.91549	19554.425
241.18261	21520.025
245.44663	23290.825
249.70755	24796.725
253.96539	26047.425
258.22014	27084.725
262.4718	27848.825
266.72039	28336.325
270.96589	28509.525
275.20832	28337.125
279.44768	27849.425
283.68397	27324.725
287.91719	26868.425
292.14735	26625.425
296.37445	26529.925
300.59849	26616.425
304.81948	26727.425
309.03742	26737.525
313.25231	26464.925
317.46415	25777.025
321.67296	25007.325
325.87872	24377.925
330.08145	23959.925
334.28114	23873.825
338.47781	23981.825
342.67145	24248.625
346.86207	24605.425
351.04966	25174.625
355.23424	25709.425
359.4158	26279.425
363.59435	26647.225
367.76989	26747.225
371.94243	26746.125
376.11196	26735.425
380.27849	26749.725
384.44203	26678.725
388.60257	26792.525
392.76012	26891.325
396.91468	27186.925
401.06626	27488.825
405.21485	27670.825
409.36047	27293.625
413.50311	26694.925
417.64277	26177.425
421.77947	26069.425
425.9132	26117.025
430.04396	26241.925
434.17176	26278.825
438.2966	26438.925
442.41849	26778.725
446.53742	27325.725
450.6534	27866.425
454.76644	28165.925
458.87653	28190.725
462.98368	28087.125
467.08789	27906.825
471.18916	27560.525
475.2875	27200.625
479.38291	27048.025
483.4754	27013.525
487.56496	26956.625
491.6516	26696.625
495.73531	26390.225
499.81612	26136.025
503.89401	26213.625
507.96899	26477.625
512.04106	26661.725
516.11023	26818.225
520.1765	26750.225
524.23987	26512.625
528.30034	26140.725
532.35792	25820.825
536.41261	25454.325
540.46441	25092.225
544.51333	24983.225
548.55936	25117.025
552.60252	25637.025
556.64279	26207.525
560.6802	26687.525
564.71473	27147.325
568.7464	27808.125
572.7752	28605.425
576.80114	29098.525
580.82422	29394.425
584.84444	29896.825
588.86181	30810.825
592.87633	31500.825
596.888	31173.325
600.89682	30296.125
604.9028	30878.925
608.90594	34474.725
612.90624	38985.025
616.90371	37325.225
620.89834	30112.325
624.89015	26217.425
628.87913	25304.225
632.86528	25329.825
636.84862	25434.925
640.82913	25138.925
644.80683	24597.125
648.78172	24167.525
652.75379	24208.025
656.72306	24583.425
660.68952	25016.125
664.65319	24762.525
668.61405	24071.625
672.57211	23831.025
676.52738	23981.925
680.47986	24135.025
684.42955	24140.525
688.37646	23991.925
692.32058	24049.125
696.26192	24262.125
700.20048	24518.225
704.13626	24701.725
708.06928	24818.525
711.99952	24775.425
715.927	24709.525
719.85171	24724.425
723.77365	24658.125
727.69284	24427.525
731.60928	24109.125
735.52295	23984.025
739.43388	23972.525
743.34206	24050.425
747.24749	24108.225
751.15017	24315.825
755.05012	24711.025
758.94733	25456.425
762.8418	26918.725
766.73354	29238.725
770.62254	31823.925
774.50882	32801.825
778.39237	31436.625
782.27321	28787.725
786.15132	26553.225
790.02671	25128.925
793.89938	24439.625
797.76935	24097.925
801.6366	23910.025
805.50115	23857.025
809.36299	23805.325
813.22213	23616.525
817.07857	23536.525
820.93231	23417.725
824.78336	23216.125
828.63172	23034.725
832.47738	22916.825
836.32036	22822.925
840.16066	22785.225
843.99827	22767.225
847.8332	22798.325
851.66546	22891.325
855.49504	22937.325
859.32195	22898.925
863.1462	22865.825
866.96777	22839.825
870.78668	22844.525
874.60293	22923.825
878.41652	22999.625
882.22745	23067.925
886.03573	23228.025
889.84136	23363.825
893.64433	23423.025
897.44466	23580.425
901.24235	23651.825
905.0374	23635.525
908.8298	23678.525
912.61957	23803.625
916.40671	24171.525
920.19121	24577.325
923.97308	25038.725
927.75233	25266.325
931.52895	25115.325
935.30295	24605.525
939.07433	23914.625
942.84309	23287.425
946.60924	22863.725
950.37278	22584.225
954.13371	22423.525
957.89203	22235.525
961.64774	22029.825
965.40086	21869.925
969.15137	21714.625
972.89929	21511.725
976.64461	21313.625
980.38733	21195.525
984.12747	21151.025
987.86502	21169.525
991.59999	21301.225
995.33237	21544.325
999.06217	21915.425
1002.78939	22378.125
1006.51404	22787.325
1010.23611	23235.425
1013.95561	23578.025
1017.67255	23634.625
1021.38692	23386.025
1025.09872	22961.825
1028.80796	22649.025
1032.51465	22452.125
1036.21877	22507.625
1039.92035	22585.125
1043.61937	22679.025
1047.31584	22768.225
1051.00976	22865.225
1054.70114	23005.425
1058.38998	23117.325
1062.07627	23284.325
1065.76003	23412.625
1069.44126	23569.725
1073.11995	23742.425
1076.79611	23997.025
1080.46974	24254.525
1084.14085	24618.725
1087.80943	25089.725
1091.47549	25395.125
1095.13903	25258.225
1098.80005	24811.725
1102.45857	24180.825
1106.11456	23710.325
1109.76805	23465.125
1113.41903	23591.125
1117.06751	23867.625
1120.71348	24239.225
1124.35696	24650.525
1127.99793	25137.425
1131.63641	25487.725
1135.2724	25191.925
1138.90589	24750.025
1142.5369	24539.825
1146.16542	24558.325
1149.79145	24712.825
1153.415	25012.325
1157.03607	25465.225
1160.65467	26474.025
1164.27079	27926.425
1167.88443	29621.725
1171.49561	31676.725
1175.10432	34363.325
1178.71056	37864.525
1182.31434	41217.925
1185.91565	42796.925
1189.51451	42373.125
1193.11091	40698.825
1196.70485	38499.125
1200.29634	36273.325
1203.88538	34765.025
1207.47197	34013.825
1211.05612	33521.725
1214.63782	32766.825
1218.21708	31754.325
1221.79391	30834.825
1225.36829	30414.925
1228.94024	30205.725
1232.50976	29926.825
1236.07685	29643.025
1239.6415	29480.625
1243.20374	29297.425
1246.76355	29291.525
1250.32093	29490.725
1253.8759	30083.225
1257.42845	31034.625
1260.97859	32183.825
1264.52631	33567.925
1268.07163	34834.625
1271.61453	35890.525
1275.15503	36898.925
1278.69312	37763.525
1282.22882	38660.725
1285.76211	39988.725
1289.29301	41841.125
1292.82151	44136.125
1296.34761	46761.825
1299.87133	49871.225
1303.39266	52983.325
1306.9116	55957.925
1310.42815	58423.525
1313.94233	59566.425
1317.45412	58667.325
1320.96354	56932.725
1324.47058	55456.125
1327.97525	54437.425
1331.47754	53655.925
1334.97747	52958.725
1338.47502	52187.725
1341.97022	51396.625
1345.46305	50971.925
1348.95352	51041.125
1352.44163	51681.425
1355.92738	53424.325
1359.41078	56679.925
1362.89183	60275.425
1366.37053	60504.225
1369.84688	55321.825
1373.32088	48232.525
1376.79254	43118.225
1380.26186	41054.925
1383.72883	40863.825
1387.19347	40859.225
1390.65578	40542.525
1394.11575	40486.025
1397.57339	40979.725
1401.0287	41759.425
1404.48168	42304.425
1407.93234	41816.525
1411.38068	40550.225
1414.82669	38875.725
1418.27039	37138.325
1421.71177	35615.825
1425.15083	34376.325
1428.58758	33649.425
1432.02203	33786.525
1435.45416	34641.025
1438.88399	35690.625
1442.31151	36409.625
1445.73673	36818.125
1449.15965	37096.925
1452.58027	37211.425
1455.9986	37151.025
1459.41463	37178.125
1462.82837	37337.325
1466.23982	37512.125
1469.64898	37659.425
1473.05586	37583.125
1476.46045	37301.225
1479.86276	37000.225
1483.26279	36730.125
1486.66054	36807.825
1490.05602	37230.925
1493.44922	38158.025
1496.84016	39446.625
1500.22882	41202.825
1503.61521	43428.125
1506.99934	46013.025
1510.38121	48461.625
1513.76081	49375.725
1517.13816	48021.825
1520.51324	45160.725
1523.88607	42550.525
1527.25665	40913.125
1530.62498	40199.225
1533.99105	39636.425
1537.35488	38875.325
1540.71647	37735.625
1544.07581	36594.725
1547.4329	35540.125
1550.78776	34795.625
1554.14038	34447.925
1557.49077	34423.125
1560.83892	34561.225
1564.18484	34798.625
1567.52853	35082.425
1570.86999	35732.225
1574.20922	36695.025
1577.54624	37600.425
1580.88103	37982.425
1584.2136	38183.625
1587.54395	39103.025
1590.87208	40693.325
1594.19801	42434.025
1597.52172	43471.425
1600.84321	42763.325
1604.16251	39891.925
1607.47959	36258.025
1610.79447	33034.025
1614.10715	30234.725
1617.41763	27979.925
1620.7259	26465.825
1624.03199	25816.225
1627.33587	26045.825
1630.63757	27185.825
1633.93707	29491.225
1637.23439	33129.125
1640.52951	38212.425
1643.82246	43918.625
1647.11321	48184.325
1650.40179	48732.425
1653.68819	44672.725
1656.97241	37620.525
1660.25446	30705.625
1663.53433	25765.525
1666.81203	22727.325
1670.08756	20939.425
1673.36092	19833.825
1676.63211	19094.525
1679.90115	18564.125
1683.16801	18145.325
1686.43272	17896.125
1689.69527	17632.425
1692.95567	17455.825
1696.2139	17319.125
1699.46999	17225.225
1702.72392	17106.625
1705.97571	17009.725
1709.22535	16903.825
1712.47284	16876.225
1715.71819	16814.525
1718.96139	16748.225
1722.20246	16673.125
1725.44139	16535.925
1728.67818	16398.425
1731.91284	16260.925
1735.14537	16126.925
1738.37576	16017.725
1741.60403	15970.925
1744.83017	15842.925
1748.05418	15775.025
1751.27607	15747.625
1754.49584	15692.225
1757.71349	15663.825
1760.92903	15676.125
1764.14244	15653.225
1767.35375	15666.125
1770.56294	15633.525
1773.77002	15560.325
1776.97499	15553.225
1780.17785	15514.725
1783.37861	15492.025
1786.57727	15474.625
1789.77382	15417.025
1792.96828	15391.825
1796.16064	15321.525
1799.3509	15297.025
1802.53907	15262.025
1805.72514	15214.825
1808.90913	15165.625
1812.09102	15143.825
1815.27083	15076.025
1818.44856	15102.225
1821.6242	15079.425
1824.79776	15031.525
1827.96924	15031.725
1831.13864	15085.225
1834.30597	15090.425
1837.47122	15154.025
1840.6344	15151.125
1843.7955	15143.925
1846.95454	15100.925
1850.11151	15117.425
1853.26642	15035.925
1856.41926	14996.425
1859.57004	14930.425
1862.71876	14876.725
1865.86542	14790.625
1869.01003	14721.025
1872.15258	14679.725
1875.29308	14659.825
1878.43152	14645.025
1881.56792	14579.025
1884.70227	14537.825
1887.83457	14469.125
1890.96482	14445.525
1894.09304	14383.225
1897.21921	14335.125
1900.34335	14317.425
1903.46544	14276.425
1906.58551	14232.225
1909.70353	14201.625
1912.81953	14136.025
1915.93349	14116.125
1919.04543	14096.225
1922.15534	14016.625
1925.26322	13982.825
1928.36908	13948.325
1931.47292	13927.425
1934.57473	13872.525
1937.67453	13816.825
1940.77232	13777.725
1943.86808	13735.925
1946.96184	13728.325
1950.05358	13702.025
1953.14331	13660.325
1956.23103	13598.325
1959.31675	13554.625
1962.40046	13516.025
1965.48217	13513.525
1968.56188	13507.725
1971.63959	13492.625
1974.7153	13441.325
1977.78901	13416.525
1980.86073	13373.625
1983.93046	13342.725
1986.99819	13253.625
1990.06394	13213.825
1993.1277	13200.025
1996.18947	13101.425
1999.24925	13094.725
2002.30706	13017.025
2005.36288	12934.225
2008.41672	12925.925
2011.46859	12841.825
2014.51848	12820.725
2017.56639	12751.925
2020.61233	12714.225
2023.6563	12672.125
2026.6983	12599.625
2029.73833	12521.325
2032.7764	12445.525
2035.8125	12387.625
2038.84664	12328.525
2041.87881	12294.125
2044.90903	12269.025
2047.93729	12222.325
2050.96359	12198.525
2053.98794	12201.825
2057.01034	12200.825
2060.03078	12187.825
2063.04927	12159.525
2066.06582	12189.225
2069.08042	12176.625
2072.09307	12171.125
2075.10378	12175.225
2078.11255	12155.725
2081.11938	12177.125
2084.12426	12195.925
2087.12722	12197.825
2090.12824	12201.125
2093.12732	12174.825
2096.12447	12195.925
2099.11969	12197.725
2102.11299	12248.225
2105.10435	12246.025
2108.09379	12238.325
2111.08131	12245.725
2114.0669	12212.025
2117.05057	12215.925
2120.03233	12249.325
2123.01216	12238.825
2125.99008	12251.425
2128.96609	12230.425
2131.94018	12208.725
2134.91236	12222.125
2137.88263	12185.025
2140.851	12152.125
2143.81746	12146.725
2146.78201	12077.725
2149.74466	12033.725
2152.7054	12018.125
2155.66425	11994.325
2158.6212	11973.925
2161.57625	11941.425
2164.52941	11920.325
2167.48067	11874.225
2170.43004	11868.625
2173.37752	11806.825
2176.32311	11807.925
2179.26681	11790.925
2182.20863	11792.925
2185.14856	11797.025
2188.08661	11770.025
2191.02278	11781.725
2193.95707	11771.925
2196.88948	11746.825
2199.82001	11742.225
2202.74867	11712.125
2205.67545	11673.925
2208.60037	11694.125
2211.52341	11637.025
2214.44458	11585.925
2217.36388	11573.025
2220.28132	11538.425
2223.1969	11474.125
2226.11061	11487.025
2229.02246	11469.425
2231.93245	11414.025
2234.84058	11370.225
2237.74686	11371.925
2240.65128	11322.325
2243.55385	11282.125
2246.45456	11270.125
2249.35343	11243.925
2252.25044	11235.025
2255.14561	11198.925
2258.03893	11205.125
2260.93041	11152.925
2263.82004	11132.325
2266.70783	11068.125
2269.59378	11068.725
2272.4779	11026.625
2275.36017	10999.525
2278.24061	10974.525
2281.11922	10940.825
2283.996	10909.425
2286.87094	10899.725
2289.74405	10899.825
2292.61534	10879.225
2295.4848	10846.725
2298.35243	10845.025
2301.21824	10821.725
2304.08223	10814.125
2306.94439	10801.425
2309.80474	10786.025
2312.66327	10773.225
2315.51999	10751.225
2318.37489	10752.525
2321.22797	10696.825
2324.07925	10705.625
2326.92871	10683.925
2329.77637	10655.225
2332.62222	10625.925
2335.46626	10619.525
2338.3085	10615.825
2341.14893	10634.625
2343.98756	10610.825
2346.8244	10597.625
2349.65943	10590.025
2352.49267	10618.925
2355.32411	10650.125
2358.15376	10608.625
2360.98161	10629.725
2363.80768	10633.825
2366.63195	10614.425
2369.45444	10655.625
2372.27514	10594.525
2375.09405	10604.625
2377.91118	10569.525
2380.72652	10529.825
2383.54009	10478.925
2386.35187	10432.825
2389.16188	10425.325
2391.97011	10384.325
2394.77657	10359.625
2397.58125	10336.825
2400.38416	10321.525
2403.18529	10256.025
2405.98466	10261.325
2408.78226	10215.325
2411.57809	10226.425
2414.37216	10217.925
2417.16446	10215.225
2419.955	10180.625
2422.74378	10141.325
2425.5308	10137.025
2428.31606	10166.125
2431.09956	10168.825
2433.88131	10180.025
2436.6613	10208.925
2439.43954	10145.125
2442.21603	10162.225
2444.99077	10125.725
2447.76377	10180.225
2450.53501	10160.425
2453.30451	10147.625
2456.07226	10119.725
2458.83827	10106.225
2461.60254	10086.125
2464.36507	10098.925
2467.12586	10096.625
2469.88492	10076.325
2472.64224	10082.325
2475.39782	10092.725
2478.15167	10104.425
2480.90379	10082.025
2483.65417	10112.725
2486.40283	10078.825
2489.14976	10096.725
2491.89497	10081.725
2494.63845	10113.125
2497.3802	10112.825
2500.12024	10092.325
2502.85855	10108.525
2505.59514	10045.025
2508.33002	9998.725
2511.06318	9969.325
2513.79462	9962.625
2516.52435	9946.125
2519.25237	9923.425
2521.97867	9901.425
2524.70327	9885.025
2527.42616	9851.725
2530.14734	9851.125
2532.86681	9845.025
2535.58458	9843.825
2538.30065	9855.725
2541.01501	9839.225
2543.72768	9822.225
2546.43864	9852.425
2549.14791	9814.525
2551.85548	9822.125
2554.56136	9818.625
2557.26554	9794.625
2559.96803	9775.025
2562.66883	9765.925
2565.36794	9736.925
2568.06536	9718.925
2570.7611	9711.625
2573.45514	9712.625
2576.14751	9689.225
2578.83819	9692.725
2581.52719	9705.025
2584.21451	9685.625
2586.90015	9637.825
2589.58411	9639.025
2592.2664	9625.025
2594.94701	9608.025
2597.62594	9632.525
2600.30321	9621.425
2602.9788	9606.325
2605.65273	9604.525
2608.32498	9578.425
2610.99557	9592.525
2613.66449	9590.325
2616.33175	9590.925
2618.99734	9577.425
2621.66128	9555.425
2624.32355	9531.625
2626.98416	9535.725
2629.64311	9516.325
2632.30041	9512.925
2634.95605	9485.925
2637.61004	9449.625
2640.26238	9476.425
2642.91306	9485.825
2645.56209	9457.125
2648.20948	9449.925
2650.85521	9482.525
2653.4993	9471.525
2656.14175	9484.325
2658.78255	9492.025
2661.42171	9495.425
2664.05923	9493.725
2666.6951	9508.125
2669.32934	9520.525
2671.96194	9499.525
2674.59291	9519.525
2677.22224	9507.725
2679.84993	9519.925
2682.476	9522.225
2685.10043	9511.525
2687.72324	9510.025
2690.34441	9499.125
2692.96396	9512.925
2695.58188	9500.225
2698.19818	9470.225
2700.81285	9506.625
2703.4259	9479.725
2706.03733	9471.125
2708.64714	9437.625
2711.25533	9500.925
2713.86191	9503.325
2716.46687	9543.825
2719.07021	9569.325
2721.67194	9587.925
2724.27206	9564.625
2726.87057	9566.725
2729.46747	9607.725
2732.06276	9594.825
2734.65644	9579.825
2737.24852	9606.125
2739.83899	9575.325
2742.42786	9609.825
2745.01513	9587.225
2747.60079	9600.625
2750.18486	9559.325
2752.76733	9569.625
2755.3482	9577.725
2757.92747	9546.825
2760.50515	9541.025
2763.08123	9528.025
2765.65573	9523.525
2768.22863	9519.425
2770.79994	9523.425
2773.36967	9524.125
2775.9378	9517.425
2778.50435	9510.425
2781.06932	9511.025
2783.6327	9478.925
2786.1945	9463.425
2788.75471	9507.325
2791.31335	9486.225
2793.87041	9513.925
2796.42589	9478.725
2798.97979	9478.325
2801.53212	9433.425
2804.08288	9447.225
2806.63206	9408.525
2809.17967	9405.925
2811.72571	9378.225
2814.27018	9387.325
2816.81308	9357.525
2819.35442	9341.525
2821.89419	9334.225
2824.43239	9329.925
2826.96904	9296.825
2829.50412	9326.125
2832.03763	9344.925
2834.56959	9381.325
2837.1	9391.325
2839.62884	9456.025
2842.15613	9512.025
2844.68186	9657.725
2847.20604	9772.325
2849.72867	9930.725
2852.24974	9991.025
2854.76927	10031.125
2857.28724	10056.225
2859.80367	10095.425
2862.31855	10116.825
2864.83189	10136.325
2867.34368	10132.625
2869.85393	10140.625
2872.36264	10171.325
2874.8698	10175.225
2877.37543	10181.925
2879.87952	10182.125
2882.38207	10202.125
2884.88308	10243.725
2887.38256	10281.725
2889.88051	10278.625
2892.37692	10333.825
2894.8718	10364.225
2897.36515	10461.225
2899.85698	10460.125
2902.34727	10505.425
2904.83604	10523.625
2907.32328	10569.525
2909.809	10560.525
2912.29319	10596.825
2914.77587	10620.825
2917.25702	10651.125
2919.73665	10641.625
2922.21476	10641.025
2924.69136	10626.825
2927.16644	10603.125
2929.64	10570.925
2932.11205	10515.825
2934.58258	10454.525
2937.05161	10401.725
2939.51912	10307.425
2941.98513	10249.725
2944.44962	10119.625
2946.91261	9999.725
2949.37409	9938.225
2951.83407	9839.625
2954.29254	9762.025
2956.74951	9668.725
2959.20498	9614.125
2961.65895	9510.225
2964.11142	9475.925
2966.56239	9417.725
2969.01186	9387.825
2971.45984	9267.425
2973.90632	9211.825
2976.35131	9156.225
2978.7948	9127.125
2981.23681	9073.425
2983.67732	9011.425
2986.11635	8947.125
2988.55388	8902.625
2990.98993	8883.025
2993.4245	8853.425
2995.85758	8816.525
2998.28917	8750.625
3000.71928	8767.425
3003.14791	8702.425
3005.57506	8693.125
3008.00073	8671.725
3010.42493	8671.825
3012.84764	8634.625
3015.26888	8593.225
3017.68865	8579.025
3020.10694	8598.125
3022.52376	8542.725
3024.9391	8534.325
3027.35298	8515.025
3029.76539	8518.425
3032.17632	8506.425
3034.5858	8487.025
3036.9938	8481.125
3039.40034	8503.025
3041.80542	8492.625
3044.20903	8467.225
3046.61118	8492.825
3049.01187	8477.825
3051.4111	8483.325
3053.80888	8419.425
3056.20519	8450.125
3058.60005	8431.625
3060.99345	8389.425
3063.3854	8377.525
3065.7759	8364.025
3068.16494	8370.125
3070.55254	8332.625
3072.93868	8336.125
3075.32338	8296.825
3077.70662	8284.125
3080.08842	8254.825
3082.46878	8239.825
3084.84769	8232.925
3087.22515	8247.825
3089.60118	8234.825
3091.97576	8243.825
3094.3489	8247.225
3096.72061	8286.125
3099.09087	8278.225
3101.4597	8275.525
3103.82709	8289.225
3106.19305	8286.125
3108.55757	8300.125
3110.92066	8289.125
3113.28232	8315.525
3115.64255	8293.225
3118.00134	8292.025
3120.35871	8290.325
3122.71466	8281.925
3125.06917	8262.625
3127.42226	8251.125
3129.77393	8272.125
3132.12417	8285.225
3134.47299	8294.125
3136.82039	8297.525
3139.16636	8332.825
3141.51092	8339.025
3143.85406	8355.725
3146.19579	8358.925
3148.53609	8379.525
3150.87499	8394.625
3153.21246	8431.825
