Data from AgNP_FTO_APTES_UA_10uM_CRN_0uM_R6G_10uM_NaF_0.1M_Addition_RamanShift__18__12-29-20-459.txt Node

Date: Thu Feb 10 12:29:20 GMT 2022
User: TCL
Spectrometer: QEP01345
Trigger mode: 4
Integration Time (sec): 7.000000E0
Scans to average: 10
Electric dark correction enabled: true
Nonlinearity correction enabled: false
Boxcar width: 0
XAxis mode: Raman Shifts
Number of Pixels in Spectrum: 1044
>>>>>Begin Spectral Data<<<<<
46.04893	1.325
50.45542	0.625
54.85868	-0.875
59.25871	-0.975
63.6555	57.625
68.04907	58.725
72.43941	63.125
76.82654	61.625
81.21044	69.925
85.59113	69.925
89.96862	71.525
94.34289	76.325
98.71396	75.725
103.08183	81.125
107.4465	84.025
111.80798	82.525
116.16626	85.925
120.52136	91.325
124.87327	97.425
129.222	93.525
133.56755	103.125
137.90993	107.525
142.24913	119.625
146.58517	131.025
150.91804	158.525
155.24774	183.725
159.57429	231.525
163.89768	297.525
168.21792	394.825
172.53501	547.625
176.84895	759.425
181.15975	1065.425
185.46741	1486.925
189.77193	2073.025
194.07331	2754.825
198.37157	3559.725
202.6667	4407.725
206.9587	5245.425
211.24758	6063.425
215.53334	6901.725
219.81599	7806.725
224.09553	8805.525
228.37195	9959.825
232.64527	11167.225
236.91549	12453.125
241.18261	13672.025
245.44663	14753.625
249.70755	15677.725
253.96539	16489.125
258.22014	17147.025
262.4718	17717.625
266.72039	18132.325
270.96589	18320.325
275.20832	18322.425
279.44768	18124.725
283.68397	17900.025
287.91719	17711.625
292.14735	17637.225
296.37445	17711.725
300.59849	17896.925
304.81948	18145.025
309.03742	18309.425
313.25231	18207.725
317.46415	17733.525
321.67296	16960.125
325.87872	16342.725
330.08145	15970.125
334.28114	15899.725
338.47781	16030.025
342.67145	16230.225
346.86207	16612.325
351.04966	17110.225
355.23424	17683.925
359.4158	18095.825
363.59435	18426.225
367.76989	18587.825
371.94243	18600.825
376.11196	18639.325
380.27849	18658.925
384.44203	18694.825
388.60257	18741.725
392.76012	18852.825
396.91468	19067.125
401.06626	19442.825
405.21485	19650.925
409.36047	19443.025
413.50311	18908.825
417.64277	18440.925
421.77947	18312.925
425.9132	18273.025
430.04396	18361.725
434.17176	18418.125
438.2966	18503.725
442.41849	18809.625
446.53742	19335.325
450.6534	19913.825
454.76644	20286.925
458.87653	20337.625
462.98368	20182.025
467.08789	19878.025
471.18916	19495.925
475.2875	19164.625
479.38291	19000.025
483.4754	18903.825
487.56496	18772.525
491.6516	18530.325
495.73531	18304.625
499.81612	18213.425
503.89401	18301.425
507.96899	18430.225
512.04106	18453.025
516.11023	18425.125
520.1765	18328.525
524.23987	18217.025
528.30034	18000.625
532.35792	17724.525
536.41261	17420.625
540.46441	17074.125
544.51333	16968.025
548.55936	17137.325
552.60252	17587.325
556.64279	18078.625
560.6802	18389.025
564.71473	18557.825
568.7464	19009.425
572.7752	19501.125
576.80114	19733.725
580.82422	19981.125
584.84444	20312.125
588.86181	20697.925
592.87633	21023.725
596.888	21080.125
600.89682	20996.925
604.9028	21847.025
608.90594	24953.925
612.90624	28617.525
616.90371	26985.925
620.89834	21125.925
624.89015	18354.825
628.87913	17963.425
632.86528	18029.025
636.84862	17952.525
640.82913	17629.925
644.80683	16977.225
648.78172	16542.225
652.75379	16402.025
656.72306	16696.525
660.68952	17167.825
664.65319	17084.625
668.61405	16543.625
672.57211	16338.825
676.52738	16332.125
680.47986	16343.125
684.42955	16220.125
688.37646	16110.525
692.32058	16192.525
696.26192	16373.525
700.20048	16585.025
704.13626	16764.425
708.06928	16741.925
711.99952	16618.725
715.927	16514.225
719.85171	16568.325
723.77365	16467.525
727.69284	16294.525
731.60928	16049.225
735.52295	15980.125
739.43388	16027.125
743.34206	16108.325
747.24749	16179.625
751.15017	16320.925
755.05012	16644.925
758.94733	17236.925
762.8418	18438.425
766.73354	20534.325
770.62254	22770.925
774.50882	23459.225
778.39237	22242.725
782.27321	20089.625
786.15132	18189.725
790.02671	16993.725
793.89938	16414.325
797.76935	16221.225
801.6366	16127.625
805.50115	16056.925
809.36299	15899.225
813.22213	15732.825
817.07857	15580.125
820.93231	15510.125
824.78336	15443.825
828.63172	15418.625
832.47738	15404.925
836.32036	15428.925
840.16066	15478.225
843.99827	15567.125
847.8332	15505.825
851.66546	15442.025
855.49504	15409.925
859.32195	15384.025
863.1462	15356.525
866.96777	15262.125
870.78668	15193.625
874.60293	15199.825
878.41652	15213.825
882.22745	15273.925
886.03573	15344.825
889.84136	15377.525
893.64433	15362.125
897.44466	15284.625
901.24235	15281.625
905.0374	15186.825
908.8298	15073.125
912.61957	15045.825
916.40671	15172.225
920.19121	15413.625
923.97308	15744.825
927.75233	15908.025
931.52895	15976.625
935.30295	15740.725
939.07433	15256.925
942.84309	14813.925
946.60924	14615.625
950.37278	14541.025
954.13371	14505.925
957.89203	14389.225
961.64774	14345.125
965.40086	14276.025
969.15137	14220.625
972.89929	14149.925
976.64461	14115.825
980.38733	14114.725
984.12747	14130.925
987.86502	14279.025
991.59999	14492.625
995.33237	14848.725
999.06217	15440.525
1002.78939	16139.525
1006.51404	16587.825
1010.23611	16802.725
1013.95561	16964.625
1017.67255	16943.725
1021.38692	16738.025
1025.09872	16476.325
1028.80796	16576.625
1032.51465	17142.825
1036.21877	17685.525
1039.92035	17732.625
1043.61937	17361.225
1047.31584	16832.125
1051.00976	16314.025
1054.70114	16009.425
1058.38998	15931.425
1062.07627	16012.825
1065.76003	16001.925
1069.44126	16136.825
1073.11995	16386.525
1076.79611	16698.425
1080.46974	16920.025
1084.14085	17151.225
1087.80943	17471.625
1091.47549	17726.825
1095.13903	17611.225
1098.80005	17247.825
1102.45857	16718.025
1106.11456	16363.325
1109.76805	16255.425
1113.41903	16322.125
1117.06751	16487.625
1120.71348	16765.625
1124.35696	17140.925
1127.99793	17508.225
1131.63641	17734.625
1135.2724	17488.625
1138.90589	17199.625
1142.5369	16971.425
1146.16542	16828.325
1149.79145	16774.025
1153.415	16852.725
1157.03607	17040.825
1160.65467	17526.925
1164.27079	18447.325
1167.88443	19673.025
1171.49561	21350.825
1175.10432	23638.825
1178.71056	26592.625
1182.31434	29370.725
1185.91565	30794.325
1189.51451	30596.625
1193.11091	29146.125
1196.70485	27158.525
1200.29634	25253.925
1203.88538	23824.925
1207.47197	22722.025
1211.05612	21922.625
1214.63782	21409.925
1218.21708	21143.325
1221.79391	21151.725
1225.36829	21287.525
1228.94024	21193.925
1232.50976	20764.825
1236.07685	20306.925
1239.6415	20022.025
1243.20374	19883.025
1246.76355	19858.625
1250.32093	20098.825
1253.8759	20666.625
1257.42845	21486.825
1260.97859	22343.525
1264.52631	23280.925
1268.07163	24257.825
1271.61453	25228.025
1275.15503	26183.825
1278.69312	27101.125
1282.22882	27865.325
1285.76211	28479.625
1289.29301	29100.425
1292.82151	29866.525
1296.34761	30984.425
1299.87133	32736.425
1303.39266	35128.525
1306.9116	38131.625
1310.42815	41426.325
1313.94233	43681.225
1317.45412	43841.025
1320.96354	42494.925
1324.47058	40764.125
1327.97525	39283.725
1331.47754	38139.425
1334.97747	37343.325
1338.47502	36836.725
1341.97022	36545.525
1345.46305	36120.925
1348.95352	35831.625
1352.44163	36103.125
1355.92738	37380.425
1359.41078	40019.425
1362.89183	42791.525
1366.37053	42493.425
1369.84688	38279.625
1373.32088	33005.925
1376.79254	29233.425
1380.26186	27523.925
1383.72883	26869.725
1387.19347	26360.925
1390.65578	25812.625
1394.11575	25657.525
1397.57339	25930.925
1401.0287	26518.525
1404.48168	27026.625
1407.93234	27193.525
1411.38068	26818.125
1414.82669	26021.525
1418.27039	25061.625
1421.71177	24103.925
1425.15083	23219.425
1428.58758	22702.325
1432.02203	22772.625
1435.45416	23267.225
1438.88399	23881.725
1442.31151	24336.125
1445.73673	24754.025
1449.15965	25145.625
1452.58027	25381.025
1455.9986	25509.125
1459.41463	25773.025
1462.82837	26331.825
1466.23982	26974.425
1469.64898	27541.825
1473.05586	27842.125
1476.46045	27824.725
1479.86276	27580.625
1483.26279	27352.025
1486.66054	27320.925
1490.05602	27538.725
1493.44922	27976.825
1496.84016	28615.625
1500.22882	29794.925
1503.61521	31521.025
1506.99934	33757.625
1510.38121	35753.125
1513.76081	36421.325
1517.13816	35124.025
1520.51324	32532.725
1523.88607	29972.025
1527.25665	28298.725
1530.62498	27319.725
1533.99105	26750.725
1537.35488	26287.325
1540.71647	25926.725
1544.07581	25440.625
1547.4329	25009.325
1550.78776	24669.325
1554.14038	24398.525
1557.49077	24289.125
1560.83892	24342.325
1564.18484	24472.025
1567.52853	24691.925
1570.86999	25006.125
1574.20922	25302.025
1577.54624	25484.225
1580.88103	25143.225
1584.2136	24754.925
1587.54395	25043.525
1590.87208	26278.325
1594.19801	28328.125
1597.52172	30596.825
1600.84321	31376.225
1604.16251	29912.725
1607.47959	27256.225
1610.79447	24523.625
1614.10715	22064.225
1617.41763	20090.625
1620.7259	18734.025
1624.03199	18121.625
1627.33587	18099.825
1630.63757	18798.625
1633.93707	20249.725
1637.23439	22625.125
1640.52951	25869.225
1643.82246	29552.825
1647.11321	32559.525
1650.40179	33565.025
1653.68819	31495.825
1656.97241	27074.525
1660.25446	22393.025
1663.53433	18929.725
1666.81203	16763.025
1670.08756	15360.525
1673.36092	14585.325
1676.63211	14041.125
1679.90115	13667.625
1683.16801	13396.925
1686.43272	13223.725
1689.69527	13065.625
1692.95567	12955.225
1696.2139	12902.325
1699.46999	12843.625
1702.72392	12797.125
1705.97571	12758.025
1709.22535	12716.825
1712.47284	12665.825
1715.71819	12640.725
1718.96139	12593.325
1722.20246	12557.725
1725.44139	12473.625
1728.67818	12359.225
1731.91284	12257.425
1735.14537	12196.925
1738.37576	12126.525
1741.60403	12074.325
1744.83017	12063.225
1748.05418	11981.625
1751.27607	11972.425
1754.49584	11911.525
1757.71349	11912.925
1760.92903	11874.325
1764.14244	11849.125
1767.35375	11868.425
1770.56294	11842.525
1773.77002	11801.025
1776.97499	11757.325
1780.17785	11731.625
1783.37861	11721.725
1786.57727	11699.125
1789.77382	11669.025
1792.96828	11627.225
1796.16064	11601.225
1799.3509	11585.625
1802.53907	11585.725
1805.72514	11502.325
1808.90913	11466.925
1812.09102	11457.025
1815.27083	11455.225
1818.44856	11406.525
1821.6242	11410.325
1824.79776	11394.425
1827.96924	11378.725
1831.13864	11400.525
1834.30597	11415.125
1837.47122	11420.225
1840.6344	11438.325
1843.7955	11469.525
1846.95454	11456.325
1850.11151	11468.625
1853.26642	11450.925
1856.41926	11478.025
1859.57004	11484.725
1862.71876	11474.925
1865.86542	11451.825
1869.01003	11463.625
1872.15258	11457.825
1875.29308	11456.225
1878.43152	11442.725
1881.56792	11460.125
1884.70227	11474.725
1887.83457	11433.625
1890.96482	11435.725
1894.09304	11414.325
1897.21921	11431.925
1900.34335	11391.325
1903.46544	11394.125
1906.58551	11355.825
1909.70353	11318.025
1912.81953	11310.625
1915.93349	11297.125
1919.04543	11234.225
1922.15534	11200.525
1925.26322	11138.825
1928.36908	11108.325
1931.47292	11045.525
1934.57473	10999.225
1937.67453	10959.325
1940.77232	10893.325
1943.86808	10858.025
1946.96184	10817.725
1950.05358	10745.625
1953.14331	10721.425
1956.23103	10682.025
1959.31675	10647.325
1962.40046	10597.525
1965.48217	10582.525
1968.56188	10551.625
1971.63959	10522.225
1974.7153	10491.325
1977.78901	10456.025
1980.86073	10420.825
1983.93046	10376.625
1986.99819	10366.525
1990.06394	10324.825
1993.1277	10291.825
1996.18947	10253.425
1999.24925	10234.125
2002.30706	10209.225
2005.36288	10155.525
2008.41672	10139.625
2011.46859	10093.825
2014.51848	10099.025
2017.56639	10076.725
2020.61233	10044.425
2023.6563	10008.225
2026.6983	9996.525
2029.73833	9969.225
2032.7764	9952.825
2035.8125	9948.525
2038.84664	9956.225
2041.87881	9899.925
2044.90903	9908.525
2047.93729	9875.625
2050.96359	9867.425
2053.98794	9873.025
2057.01034	9839.425
2060.03078	9831.725
2063.04927	9824.625
2066.06582	9829.225
2069.08042	9816.525
2072.09307	9806.825
2075.10378	9817.125
2078.11255	9793.025
2081.11938	9780.425
2084.12426	9759.225
2087.12722	9756.525
2090.12824	9754.125
2093.12732	9768.225
2096.12447	9760.125
2099.11969	9754.025
2102.11299	9757.425
2105.10435	9764.425
2108.09379	9757.625
2111.08131	9763.025
2114.0669	9757.425
2117.05057	9791.325
2120.03233	9760.425
2123.01216	9802.425
2125.99008	9791.725
2128.96609	9798.825
2131.94018	9791.925
2134.91236	9797.025
2137.88263	9800.625
2140.851	9797.825
2143.81746	9803.125
2146.78201	9784.925
2149.74466	9794.325
2152.7054	9793.325
2155.66425	9799.525
2158.6212	9784.125
2161.57625	9773.425
2164.52941	9790.525
2167.48067	9773.425
2170.43004	9785.025
2173.37752	9769.625
2176.32311	9766.825
2179.26681	9779.725
2182.20863	9779.825
2185.14856	9758.425
2188.08661	9749.525
2191.02278	9757.325
2193.95707	9776.425
2196.88948	9749.525
2199.82001	9763.725
2202.74867	9730.425
2205.67545	9746.925
2208.60037	9747.925
2211.52341	9738.325
2214.44458	9747.825
2217.36388	9747.225
2220.28132	9724.325
2223.1969	9706.025
2226.11061	9687.925
2229.02246	9663.525
2231.93245	9637.625
2234.84058	9597.325
2237.74686	9623.025
2240.65128	9584.025
2243.55385	9547.625
2246.45456	9534.525
2249.35343	9528.225
2252.25044	9528.025
2255.14561	9515.225
2258.03893	9505.525
2260.93041	9490.725
2263.82004	9453.225
2266.70783	9439.425
2269.59378	9407.925
2272.4779	9386.025
2275.36017	9350.825
2278.24061	9338.825
2281.11922	9351.125
2283.996	9332.925
2286.87094	9304.325
2289.74405	9311.325
2292.61534	9288.325
2295.4848	9279.325
2298.35243	9306.025
2301.21824	9299.025
2304.08223	9316.125
2306.94439	9318.025
2309.80474	9330.125
2312.66327	9319.125
2315.51999	9318.225
2318.37489	9328.725
2321.22797	9315.325
2324.07925	9323.025
2326.92871	9305.525
2329.77637	9304.525
2332.62222	9298.725
2335.46626	9283.325
2338.3085	9288.125
2341.14893	9310.725
2343.98756	9358.125
2346.8244	9329.425
2349.65943	9352.225
2352.49267	9366.825
2355.32411	9370.925
2358.15376	9345.725
2360.98161	9343.525
2363.80768	9348.525
2366.63195	9330.125
2369.45444	9290.025
2372.27514	9268.325
2375.09405	9271.725
2377.91118	9251.325
2380.72652	9215.925
2383.54009	9167.125
2386.35187	9182.525
2389.16188	9113.325
2391.97011	9106.725
2394.77657	9074.525
2397.58125	9089.225
2400.38416	9072.325
2403.18529	9059.425
2405.98466	9015.525
2408.78226	9009.525
2411.57809	8989.625
2414.37216	8969.625
2417.16446	8953.125
2419.955	8943.225
2422.74378	8936.325
2425.5308	8925.325
2428.31606	8939.625
2431.09956	8943.925
2433.88131	8926.725
2436.6613	8942.425
2439.43954	8930.025
2442.21603	8931.325
2444.99077	8922.825
2447.76377	8937.125
2450.53501	8925.725
2453.30451	8925.125
2456.07226	8928.825
2458.83827	8944.225
2461.60254	8934.225
2464.36507	8915.225
2467.12586	8932.525
2469.88492	8950.625
2472.64224	8956.525
2475.39782	8957.725
2478.15167	8973.525
2480.90379	9004.825
2483.65417	8996.725
2486.40283	8995.725
2489.14976	9024.425
2491.89497	9024.525
2494.63845	9010.525
2497.3802	9004.225
2500.12024	9016.925
2502.85855	9019.325
2505.59514	9012.425
2508.33002	8969.325
2511.06318	8949.325
2513.79462	8941.525
2516.52435	8923.725
2519.25237	8918.725
2521.97867	8901.025
2524.70327	8931.525
2527.42616	8869.925
2530.14734	8897.025
2532.86681	8911.925
2535.58458	8909.525
2538.30065	8913.325
2541.01501	8897.125
2543.72768	8883.225
2546.43864	8911.325
2549.14791	8880.425
2551.85548	8897.325
2554.56136	8877.025
2557.26554	8861.525
2559.96803	8863.925
2562.66883	8854.825
2565.36794	8848.625
2568.06536	8826.925
2570.7611	8817.325
2573.45514	8805.325
2576.14751	8787.125
2578.83819	8776.125
2581.52719	8777.825
2584.21451	8806.825
2586.90015	8806.325
2589.58411	8783.625
2592.2664	8804.725
2594.94701	8777.525
2597.62594	8810.025
2600.30321	8783.925
2602.9788	8773.025
2605.65273	8791.325
2608.32498	8783.525
2610.99557	8781.825
2613.66449	8787.325
2616.33175	8792.725
2618.99734	8776.425
2621.66128	8779.925
2624.32355	8778.325
2626.98416	8804.625
2629.64311	8800.825
2632.30041	8805.425
2634.95605	8760.025
2637.61004	8767.225
2640.26238	8759.225
2642.91306	8757.425
2645.56209	8738.125
2648.20948	8742.525
2650.85521	8707.925
2653.4993	8714.025
2656.14175	8721.825
2658.78255	8740.825
2661.42171	8729.425
2664.05923	8735.025
2666.6951	8763.925
2669.32934	8770.225
2671.96194	8767.025
2674.59291	8773.325
2677.22224	8766.425
2679.84993	8757.425
2682.476	8740.725
2685.10043	8730.525
2687.72324	8718.925
2690.34441	8698.725
2692.96396	8687.025
2695.58188	8667.725
2698.19818	8670.625
2700.81285	8646.625
2703.4259	8651.225
2706.03733	8675.325
2708.64714	8654.125
2711.25533	8676.425
2713.86191	8662.225
2716.46687	8705.425
2719.07021	8697.125
2721.67194	8741.325
2724.27206	8730.225
2726.87057	8739.925
2729.46747	8722.825
2732.06276	8717.625
2734.65644	8755.325
2737.24852	8748.325
2739.83899	8726.425
2742.42786	8728.325
2745.01513	8726.825
2747.60079	8707.525
2750.18486	8688.925
2752.76733	8684.125
2755.3482	8673.025
2757.92747	8683.125
2760.50515	8664.525
2763.08123	8664.125
2765.65573	8635.925
2768.22863	8657.125
2770.79994	8641.025
2773.36967	8657.025
2775.9378	8659.325
2778.50435	8665.125
2781.06932	8640.325
2783.6327	8648.725
2786.1945	8666.225
2788.75471	8660.525
2791.31335	8618.125
2793.87041	8647.925
2796.42589	8627.425
2798.97979	8619.125
2801.53212	8590.225
2804.08288	8575.625
2806.63206	8568.925
2809.17967	8560.325
2811.72571	8538.225
2814.27018	8527.125
2816.81308	8506.125
2819.35442	8511.125
2821.89419	8506.925
2824.43239	8507.525
2826.96904	8499.225
2829.50412	8502.025
2832.03763	8479.025
2834.56959	8492.225
2837.1	8477.225
2839.62884	8502.825
2842.15613	8502.525
2844.68186	8510.725
2847.20604	8505.325
2849.72867	8539.525
2852.24974	8527.625
2854.76927	8519.825
2857.28724	8504.325
2859.80367	8518.825
2862.31855	8493.425
2864.83189	8499.525
2867.34368	8503.025
2869.85393	8516.925
2872.36264	8498.125
2874.8698	8485.625
2877.37543	8478.425
2879.87952	8504.125
2882.38207	8518.025
2884.88308	8517.525
2887.38256	8513.325
2889.88051	8520.625
2892.37692	8500.025
2894.8718	8539.025
2897.36515	8543.125
2899.85698	8538.625
2902.34727	8573.525
2904.83604	8575.325
2907.32328	8589.825
2909.809	8583.425
2912.29319	8572.025
2914.77587	8580.525
2917.25702	8548.425
2919.73665	8582.725
2922.21476	8614.525
2924.69136	8597.325
2927.16644	8586.125
2929.64	8561.225
2932.11205	8518.025
2934.58258	8493.125
2937.05161	8478.125
2939.51912	8480.925
2941.98513	8478.925
2944.44962	8457.525
2946.91261	8401.425
2949.37409	8435.125
2951.83407	8416.225
2954.29254	8382.725
2956.74951	8402.325
2959.20498	8396.825
2961.65895	8383.325
2964.11142	8361.025
2966.56239	8360.425
2969.01186	8327.725
2971.45984	8313.625
2973.90632	8320.125
2976.35131	8294.325
2978.7948	8279.825
2981.23681	8223.025
2983.67732	8204.925
2986.11635	8191.025
2988.55388	8162.925
2990.98993	8140.825
2993.4245	8131.425
2995.85758	8113.125
2998.28917	8122.525
3000.71928	8074.225
3003.14791	8064.325
3005.57506	8042.225
3008.00073	8053.525
3010.42493	8040.525
3012.84764	8008.925
3015.26888	7983.425
3017.68865	7975.725
3020.10694	7971.025
3022.52376	7950.225
3024.9391	7946.725
3027.35298	7953.725
3029.76539	7927.625
3032.17632	7925.625
3034.5858	7931.725
3036.9938	7940.325
3039.40034	7929.025
3041.80542	7932.325
3044.20903	7914.525
3046.61118	7927.925
3049.01187	7883.425
3051.4111	7884.025
3053.80888	7861.025
3056.20519	7857.925
3058.60005	7836.425
3060.99345	7824.825
3063.3854	7812.425
3065.7759	7797.625
3068.16494	7780.225
3070.55254	7757.825
3072.93868	7742.125
3075.32338	7736.425
3077.70662	7731.725
3080.08842	7683.325
3082.46878	7700.725
3084.84769	7686.025
3087.22515	7677.925
3089.60118	7669.725
3091.97576	7677.025
3094.3489	7697.725
3096.72061	7669.925
3099.09087	7677.725
3101.4597	7662.025
3103.82709	7673.625
3106.19305	7638.325
3108.55757	7664.825
3110.92066	7635.625
3113.28232	7639.825
3115.64255	7619.925
3118.00134	7621.625
3120.35871	7609.525
3122.71466	7583.425
3125.06917	7581.825
3127.42226	7578.125
3129.77393	7564.625
3132.12417	7566.625
3134.47299	7554.625
3136.82039	7555.525
3139.16636	7581.025
3141.51092	7573.125
3143.85406	7544.525
3146.19579	7567.525
3148.53609	7553.925
3150.87499	7560.425
3153.21246	7556.525
3155.54853	7595.525
3157.88318	7577.625
3160.21642	7594.125
3162.54826	7583.825
3164.87868	7594.525
3167.2077	7602.025
3169.5353	7605.025
3171.86151	7608.325
3174.18631	7602.325
3176.5097	7590.425
