Data from AgNP_FTO_APTES_UA_10uM_CRN_1000uM_R6G_10uM_NaF_0.1M_Addition_RamanShift__12__19-35-10-991.txt Node

Date: Thu Feb 10 19:35:10 GMT 2022
User: TCL
Spectrometer: QEP01345
Trigger mode: 4
Integration Time (sec): 7.000000E0
Scans to average: 10
Electric dark correction enabled: true
Nonlinearity correction enabled: false
Boxcar width: 0
XAxis mode: Raman Shifts
Number of Pixels in Spectrum: 1044
>>>>>Begin Spectral Data<<<<<
46.04893	-0.3125
50.45542	-0.3125
54.85868	-1.3125
59.25871	-0.6125
63.6555	45.9875
68.04907	49.9875
72.43941	57.0875
76.82654	55.0875
81.21044	58.5875
85.59113	60.0875
89.96862	62.4875
94.34289	62.7875
98.71396	63.4875
103.08183	67.3875
107.4465	71.1875
111.80798	69.7875
116.16626	71.3875
120.52136	78.1875
124.87327	79.8875
129.222	83.7875
133.56755	84.7875
137.90993	89.3875
142.24913	97.4875
146.58517	109.2875
150.91804	124.6875
155.24774	147.7875
159.57429	186.4875
163.89768	231.2875
168.21792	304.5875
172.53501	411.3875
176.84895	574.8875
181.15975	808.8875
185.46741	1148.9875
189.77193	1581.4875
194.07331	2111.1875
198.37157	2739.0875
202.6667	3394.0875
206.9587	4050.3875
211.24758	4683.2875
215.53334	5309.9875
219.81599	5945.0875
224.09553	6668.2875
228.37195	7449.2875
232.64527	8304.7875
236.91549	9208.2875
241.18261	10162.7875
245.44663	11084.6875
249.70755	11911.6875
253.96539	12650.2875
258.22014	13247.9875
262.4718	13769.2875
266.72039	14076.2875
270.96589	14253.5875
275.20832	14324.4875
279.44768	14262.0875
283.68397	14135.7875
287.91719	14043.9875
292.14735	13927.7875
296.37445	13910.6875
300.59849	13905.8875
304.81948	13912.7875
309.03742	13824.5875
313.25231	13713.0875
317.46415	13493.6875
321.67296	13252.1875
325.87872	13028.3875
330.08145	12943.0875
334.28114	12944.2875
338.47781	13009.5875
342.67145	13164.8875
346.86207	13300.1875
351.04966	13457.2875
355.23424	13656.0875
359.4158	13831.4875
363.59435	13915.6875
367.76989	14063.0875
371.94243	14132.4875
376.11196	14207.4875
380.27849	14268.4875
384.44203	14347.6875
388.60257	14421.4875
392.76012	14521.3875
396.91468	14691.8875
401.06626	14886.1875
405.21485	15003.8875
409.36047	15019.5875
413.50311	14892.3875
417.64277	14801.7875
421.77947	14830.9875
425.9132	14922.3875
430.04396	15034.2875
434.17176	15136.3875
438.2966	15191.2875
442.41849	15359.8875
446.53742	15611.4875
450.6534	15908.0875
454.76644	16051.8875
458.87653	16161.9875
462.98368	16218.3875
467.08789	16229.8875
471.18916	16143.3875
475.2875	16093.8875
479.38291	16009.0875
483.4754	15997.2875
487.56496	15909.4875
491.6516	15771.3875
495.73531	15614.6875
499.81612	15486.2875
503.89401	15497.9875
507.96899	15485.9875
512.04106	15503.6875
516.11023	15491.1875
520.1765	15421.9875
524.23987	15327.9875
528.30034	15220.2875
532.35792	15132.8875
536.41261	15040.6875
540.46441	14983.2875
544.51333	15036.6875
548.55936	15141.7875
552.60252	15362.3875
556.64279	15629.4875
560.6802	15814.8875
564.71473	15907.5875
568.7464	16154.0875
572.7752	16518.4875
576.80114	16895.2875
580.82422	17211.3875
584.84444	17398.9875
588.86181	17557.4875
592.87633	17710.3875
596.888	17641.2875
600.89682	17367.3875
604.9028	17346.6875
608.90594	17908.5875
612.90624	18574.7875
616.90371	17878.8875
620.89834	16204.1875
624.89015	15480.4875
628.87913	15388.5875
632.86528	15533.7875
636.84862	15610.0875
640.82913	15514.2875
644.80683	15294.3875
648.78172	15100.9875
652.75379	15055.3875
656.72306	15140.6875
660.68952	15254.6875
664.65319	15253.0875
668.61405	15134.5875
672.57211	15141.5875
676.52738	15200.9875
680.47986	15226.3875
684.42955	15178.8875
688.37646	15160.3875
692.32058	15179.0875
696.26192	15288.9875
700.20048	15383.7875
704.13626	15491.7875
708.06928	15539.1875
711.99952	15541.7875
715.927	15498.3875
719.85171	15448.0875
723.77365	15370.7875
727.69284	15267.9875
731.60928	15110.9875
735.52295	15050.2875
739.43388	15015.6875
743.34206	15026.3875
747.24749	15091.4875
751.15017	15205.4875
755.05012	15356.5875
758.94733	15619.7875
762.8418	16098.0875
766.73354	16777.8875
770.62254	17424.1875
774.50882	17586.3875
778.39237	17129.6875
782.27321	16370.5875
786.15132	15749.8875
790.02671	15349.7875
793.89938	15144.0875
797.76935	15010.8875
801.6366	14951.6875
805.50115	14942.5875
809.36299	14868.1875
813.22213	14818.2875
817.07857	14791.5875
820.93231	14816.0875
824.78336	14779.3875
828.63172	14758.2875
832.47738	14712.5875
836.32036	14654.1875
840.16066	14664.0875
843.99827	14655.9875
847.8332	14671.3875
851.66546	14692.2875
855.49504	14709.6875
859.32195	14717.4875
863.1462	14688.3875
866.96777	14674.2875
870.78668	14682.9875
874.60293	14702.2875
878.41652	14670.0875
882.22745	14702.7875
886.03573	14751.8875
889.84136	14747.6875
893.64433	14722.7875
897.44466	14733.9875
901.24235	14726.4875
905.0374	14684.8875
908.8298	14675.0875
912.61957	14652.5875
916.40671	14728.4875
920.19121	14877.7875
923.97308	14916.3875
927.75233	14900.4875
931.52895	14793.7875
935.30295	14641.5875
939.07433	14483.7875
942.84309	14338.1875
946.60924	14197.4875
950.37278	14159.5875
954.13371	14156.2875
957.89203	14125.8875
961.64774	14131.2875
965.40086	14139.5875
969.15137	14051.4875
972.89929	14005.8875
976.64461	13958.5875
980.38733	13926.2875
984.12747	13917.4875
987.86502	13916.6875
991.59999	13942.2875
995.33237	13995.6875
999.06217	14096.9875
1002.78939	14195.4875
1006.51404	14267.1875
1010.23611	14412.8875
1013.95561	14532.0875
1017.67255	14605.3875
1021.38692	14558.9875
1025.09872	14478.9875
1028.80796	14368.8875
1032.51465	14346.7875
1036.21877	14335.7875
1039.92035	14319.5875
1043.61937	14366.8875
1047.31584	14418.7875
1051.00976	14451.6875
1054.70114	14554.3875
1058.38998	14623.7875
1062.07627	14728.4875
1065.76003	14853.8875
1069.44126	14898.9875
1073.11995	15042.6875
1076.79611	15174.6875
1080.46974	15206.1875
1084.14085	15273.3875
1087.80943	15314.8875
1091.47549	15404.6875
1095.13903	15461.1875
1098.80005	15411.7875
1102.45857	15212.4875
1106.11456	15023.8875
1109.76805	14888.9875
1113.41903	14828.5875
1117.06751	14873.5875
1120.71348	14942.2875
1124.35696	15066.0875
1127.99793	15245.6875
1131.63641	15381.9875
1135.2724	15308.5875
1138.90589	15238.5875
1142.5369	15215.6875
1146.16542	15228.3875
1149.79145	15336.1875
1153.415	15418.0875
1157.03607	15549.7875
1160.65467	15790.7875
1164.27079	16204.9875
1167.88443	16664.7875
1171.49561	17202.9875
1175.10432	17829.0875
1178.71056	18678.3875
1182.31434	19479.9875
1185.91565	20049.4875
1189.51451	20268.6875
1193.11091	20272.8875
1196.70485	20021.1875
1200.29634	19561.9875
1203.88538	19125.2875
1207.47197	18762.2875
1211.05612	18506.4875
1214.63782	18212.5875
1218.21708	17864.9875
1221.79391	17481.0875
1225.36829	17192.8875
1228.94024	16964.2875
1232.50976	16834.8875
1236.07685	16719.4875
1239.6415	16701.3875
1243.20374	16726.3875
1246.76355	16759.1875
1250.32093	16854.3875
1253.8759	17003.6875
1257.42845	17274.7875
1260.97859	17614.9875
1264.52631	17960.0875
1268.07163	18248.0875
1271.61453	18532.3875
1275.15503	18802.7875
1278.69312	19135.0875
1282.22882	19456.9875
1285.76211	19876.3875
1289.29301	20348.2875
1292.82151	20882.9875
1296.34761	21648.8875
1299.87133	22457.5875
1303.39266	23262.0875
1306.9116	23913.9875
1310.42815	24431.2875
1313.94233	24658.4875
1317.45412	24575.6875
1320.96354	24402.8875
1324.47058	24274.6875
1327.97525	24143.7875
1331.47754	24185.7875
1334.97747	24250.8875
1338.47502	24330.9875
1341.97022	24522.7875
1345.46305	24671.7875
1348.95352	24719.8875
1352.44163	24728.1875
1355.92738	24594.2875
1359.41078	24594.8875
1362.89183	24665.6875
1366.37053	24203.2875
1369.84688	22905.8875
1373.32088	21411.3875
1376.79254	20280.4875
1380.26186	19810.7875
1383.72883	19724.8875
1387.19347	19704.5875
1390.65578	19649.5875
1394.11575	19604.5875
1397.57339	19578.4875
1401.0287	19620.9875
1404.48168	19632.2875
1407.93234	19468.0875
1411.38068	19101.2875
1414.82669	18636.1875
1418.27039	18058.7875
1421.71177	17540.8875
1425.15083	17085.2875
1428.58758	16839.9875
1432.02203	16816.3875
1435.45416	17024.4875
1438.88399	17255.5875
1442.31151	17468.1875
1445.73673	17648.2875
1449.15965	17798.2875
1452.58027	17960.0875
1455.9986	18102.5875
1459.41463	18257.1875
1462.82837	18413.4875
1466.23982	18591.6875
1469.64898	18763.1875
1473.05586	18817.1875
1476.46045	18821.0875
1479.86276	18761.2875
1483.26279	18723.3875
1486.66054	18660.0875
1490.05602	18784.2875
1493.44922	18983.0875
1496.84016	19333.8875
1500.22882	19866.9875
1503.61521	20480.0875
1506.99934	21125.9875
1510.38121	21597.3875
1513.76081	21670.4875
1517.13816	21404.8875
1520.51324	20980.8875
1523.88607	20647.2875
1527.25665	20489.3875
1530.62498	20459.2875
1533.99105	20348.3875
1537.35488	20173.9875
1540.71647	19836.2875
1544.07581	19416.8875
1547.4329	19047.4875
1550.78776	18642.7875
1554.14038	18383.8875
1557.49077	18213.3875
1560.83892	18153.7875
1564.18484	18126.9875
1567.52853	18182.0875
1570.86999	18316.7875
1574.20922	18496.4875
1577.54624	18686.2875
1580.88103	18705.1875
1584.2136	18695.5875
1587.54395	18790.9875
1590.87208	19084.9875
1594.19801	19619.7875
1597.52172	20172.2875
1600.84321	20321.4875
1604.16251	19896.0875
1607.47959	19137.7875
1610.79447	18243.7875
1614.10715	17303.9875
1617.41763	16420.2875
1620.7259	15734.4875
1624.03199	15282.2875
1627.33587	15095.1875
1630.63757	15236.1875
1633.93707	15667.2875
1637.23439	16456.5875
1640.52951	17685.7875
1643.82246	19207.5875
1647.11321	20574.8875
1650.40179	21240.7875
1653.68819	20712.3875
1656.97241	19209.7875
1660.25446	17397.5875
1663.53433	15841.4875
1666.81203	14647.4875
1670.08756	13882.5875
1673.36092	13366.3875
1676.63211	13052.1875
1679.90115	12836.9875
1683.16801	12637.5875
1686.43272	12513.5875
1689.69527	12410.7875
1692.95567	12346.0875
1696.2139	12327.1875
1699.46999	12266.9875
1702.72392	12204.6875
1705.97571	12160.7875
1709.22535	12112.7875
1712.47284	12110.5875
1715.71819	12079.5875
1718.96139	12008.0875
1722.20246	11986.8875
1725.44139	11933.6875
1728.67818	11902.9875
1731.91284	11840.2875
1735.14537	11787.0875
1738.37576	11724.6875
1741.60403	11676.4875
1744.83017	11642.2875
1748.05418	11604.7875
1751.27607	11610.0875
1754.49584	11606.3875
1757.71349	11578.2875
1760.92903	11606.1875
1764.14244	11568.6875
1767.35375	11581.2875
1770.56294	11592.2875
1773.77002	11521.5875
1776.97499	11492.2875
1780.17785	11433.5875
1783.37861	11412.3875
1786.57727	11349.2875
1789.77382	11332.7875
1792.96828	11334.4875
1796.16064	11307.4875
1799.3509	11251.8875
1802.53907	11224.2875
1805.72514	11194.2875
1808.90913	11153.3875
1812.09102	11130.6875
1815.27083	11097.6875
1818.44856	11073.8875
1821.6242	11050.5875
1824.79776	11052.7875
1827.96924	11016.3875
1831.13864	10992.6875
1834.30597	10961.5875
1837.47122	10987.3875
1840.6344	10967.6875
1843.7955	10940.6875
1846.95454	10927.8875
1850.11151	10902.7875
1853.26642	10897.5875
1856.41926	10881.1875
1859.57004	10865.0875
1862.71876	10841.5875
1865.86542	10839.2875
1869.01003	10836.6875
1872.15258	10792.3875
1875.29308	10801.5875
1878.43152	10786.8875
1881.56792	10759.6875
1884.70227	10753.8875
1887.83457	10744.7875
1890.96482	10694.3875
1894.09304	10659.7875
1897.21921	10629.2875
1900.34335	10652.1875
1903.46544	10636.7875
1906.58551	10628.7875
1909.70353	10591.5875
1912.81953	10559.5875
1915.93349	10578.9875
1919.04543	10516.7875
1922.15534	10474.7875
1925.26322	10486.9875
1928.36908	10449.5875
1931.47292	10447.4875
1934.57473	10442.7875
1937.67453	10386.7875
1940.77232	10375.5875
1943.86808	10321.2875
1946.96184	10309.6875
1950.05358	10268.1875
1953.14331	10234.1875
1956.23103	10192.7875
1959.31675	10165.9875
1962.40046	10141.6875
1965.48217	10089.8875
1968.56188	10065.6875
1971.63959	10025.1875
1974.7153	10008.5875
1977.78901	9947.4875
1980.86073	9915.5875
1983.93046	9887.9875
1986.99819	9862.8875
1990.06394	9839.3875
1993.1277	9808.1875
1996.18947	9763.8875
1999.24925	9722.5875
2002.30706	9700.9875
2005.36288	9643.9875
2008.41672	9635.8875
2011.46859	9597.6875
2014.51848	9555.5875
2017.56639	9522.4875
2020.61233	9503.2875
2023.6563	9459.5875
2026.6983	9451.3875
2029.73833	9416.5875
2032.7764	9375.8875
2035.8125	9347.3875
2038.84664	9358.6875
2041.87881	9299.2875
2044.90903	9282.1875
2047.93729	9249.8875
2050.96359	9255.6875
2053.98794	9232.9875
2057.01034	9214.2875
2060.03078	9223.5875
2063.04927	9194.4875
2066.06582	9185.2875
2069.08042	9203.1875
2072.09307	9189.2875
2075.10378	9172.6875
2078.11255	9164.0875
2081.11938	9157.8875
2084.12426	9145.9875
2087.12722	9126.4875
2090.12824	9097.8875
2093.12732	9133.2875
2096.12447	9145.2875
2099.11969	9097.6875
2102.11299	9092.9875
2105.10435	9112.3875
2108.09379	9108.2875
2111.08131	9111.1875
2114.0669	9097.1875
2117.05057	9095.7875
2120.03233	9121.3875
2123.01216	9114.7875
2125.99008	9099.3875
2128.96609	9121.0875
2131.94018	9138.7875
2134.91236	9117.5875
2137.88263	9131.7875
2140.851	9109.8875
2143.81746	9141.7875
2146.78201	9114.7875
2149.74466	9114.9875
2152.7054	9129.3875
2155.66425	9128.4875
2158.6212	9092.2875
2161.57625	9086.2875
2164.52941	9082.0875
2167.48067	9054.6875
2170.43004	9070.8875
2173.37752	9056.9875
2176.32311	9029.3875
2179.26681	9056.6875
2182.20863	9021.1875
2185.14856	9018.5875
2188.08661	9017.3875
2191.02278	9039.5875
2193.95707	9026.0875
2196.88948	9007.3875
2199.82001	8999.5875
2202.74867	8975.4875
2205.67545	8960.3875
2208.60037	8914.6875
2211.52341	8931.4875
2214.44458	8909.0875
2217.36388	8872.0875
2220.28132	8855.1875
2223.1969	8821.8875
2226.11061	8823.4875
2229.02246	8788.5875
2231.93245	8773.5875
2234.84058	8760.4875
2237.74686	8752.9875
2240.65128	8731.0875
2243.55385	8697.7875
2246.45456	8673.5875
2249.35343	8666.2875
2252.25044	8661.0875
2255.14561	8638.0875
2258.03893	8612.8875
2260.93041	8613.1875
2263.82004	8571.0875
2266.70783	8559.8875
2269.59378	8515.7875
2272.4779	8515.4875
2275.36017	8474.8875
2278.24061	8462.1875
2281.11922	8418.9875
2283.996	8445.3875
2286.87094	8407.2875
2289.74405	8380.0875
2292.61534	8377.0875
2295.4848	8363.4875
2298.35243	8362.1875
2301.21824	8336.6875
2304.08223	8322.6875
2306.94439	8329.7875
2309.80474	8322.0875
2312.66327	8308.2875
2315.51999	8296.8875
2318.37489	8275.5875
2321.22797	8236.1875
2324.07925	8244.6875
2326.92871	8217.5875
2329.77637	8189.8875
2332.62222	8183.1875
2335.46626	8161.3875
2338.3085	8154.9875
2341.14893	8153.5875
2343.98756	8140.8875
2346.8244	8118.7875
2349.65943	8112.6875
2352.49267	8101.2875
2355.32411	8093.0875
2358.15376	8087.3875
2360.98161	8071.5875
2363.80768	8078.8875
2366.63195	8070.2875
2369.45444	8062.0875
2372.27514	8044.3875
2375.09405	8052.4875
2377.91118	8037.1875
2380.72652	8026.7875
2383.54009	7965.8875
2386.35187	7952.4875
2389.16188	7929.4875
2391.97011	7931.0875
2394.77657	7901.8875
2397.58125	7878.9875
2400.38416	7883.1875
2403.18529	7855.2875
2405.98466	7827.1875
2408.78226	7824.0875
2411.57809	7792.4875
2414.37216	7796.3875
2417.16446	7776.7875
2419.955	7781.9875
2422.74378	7749.3875
2425.5308	7743.4875
2428.31606	7747.8875
2431.09956	7738.1875
2433.88131	7716.7875
2436.6613	7705.6875
2439.43954	7705.1875
2442.21603	7693.1875
2444.99077	7668.4875
2447.76377	7671.7875
2450.53501	7648.3875
2453.30451	7647.4875
2456.07226	7619.0875
2458.83827	7624.1875
2461.60254	7618.1875
2464.36507	7602.9875
2467.12586	7574.1875
2469.88492	7581.8875
2472.64224	7561.0875
2475.39782	7587.0875
2478.15167	7581.1875
2480.90379	7540.0875
2483.65417	7557.9875
2486.40283	7557.3875
2489.14976	7546.7875
2491.89497	7539.5875
2494.63845	7526.7875
2497.3802	7524.2875
2500.12024	7507.3875
2502.85855	7484.9875
2505.59514	7492.9875
2508.33002	7491.8875
2511.06318	7456.3875
2513.79462	7456.0875
2516.52435	7454.4875
2519.25237	7438.3875
2521.97867	7420.7875
2524.70327	7413.2875
2527.42616	7411.5875
2530.14734	7389.1875
2532.86681	7392.4875
2535.58458	7390.3875
2538.30065	7379.8875
2541.01501	7363.8875
2543.72768	7347.0875
2546.43864	7332.0875
2549.14791	7323.6875
2551.85548	7308.4875
2554.56136	7282.1875
2557.26554	7274.9875
2559.96803	7261.1875
2562.66883	7225.6875
2565.36794	7209.2875
2568.06536	7184.8875
2570.7611	7178.5875
2573.45514	7152.4875
2576.14751	7152.0875
2578.83819	7136.0875
2581.52719	7118.6875
2584.21451	7106.8875
2586.90015	7100.9875
2589.58411	7100.5875
2592.2664	7081.6875
2594.94701	7056.5875
2597.62594	7062.7875
2600.30321	7046.3875
2602.9788	7006.9875
2605.65273	6987.6875
2608.32498	7008.1875
2610.99557	6993.7875
2613.66449	7005.0875
2616.33175	6976.1875
2618.99734	6977.0875
2621.66128	6960.9875
2624.32355	6947.2875
2626.98416	6907.7875
2629.64311	6915.9875
2632.30041	6913.9875
2634.95605	6909.0875
2637.61004	6875.2875
2640.26238	6861.6875
2642.91306	6885.3875
2645.56209	6869.2875
2648.20948	6853.1875
2650.85521	6857.9875
2653.4993	6853.2875
2656.14175	6852.0875
2658.78255	6856.0875
2661.42171	6840.7875
2664.05923	6852.1875
2666.6951	6830.0875
2669.32934	6841.9875
2671.96194	6839.5875
2674.59291	6823.3875
2677.22224	6829.1875
2679.84993	6810.6875
2682.476	6830.2875
2685.10043	6819.1875
2687.72324	6810.4875
2690.34441	6784.9875
2692.96396	6821.1875
2695.58188	6807.9875
2698.19818	6778.8875
2700.81285	6806.2875
2703.4259	6796.2875
2706.03733	6809.5875
2708.64714	6804.6875
2711.25533	6783.7875
2713.86191	6765.4875
2716.46687	6781.3875
2719.07021	6784.0875
2721.67194	6793.2875
2724.27206	6779.3875
2726.87057	6782.1875
2729.46747	6768.5875
2732.06276	6795.0875
2734.65644	6772.5875
2737.24852	6768.7875
2739.83899	6767.0875
2742.42786	6771.9875
2745.01513	6728.9875
2747.60079	6733.8875
2750.18486	6700.8875
2752.76733	6713.0875
2755.3482	6682.5875
2757.92747	6685.5875
2760.50515	6647.6875
2763.08123	6652.6875
2765.65573	6658.3875
2768.22863	6634.9875
2770.79994	6628.5875
2773.36967	6625.1875
2775.9378	6579.6875
2778.50435	6595.3875
2781.06932	6595.9875
2783.6327	6585.9875
2786.1945	6586.0875
2788.75471	6581.3875
2791.31335	6554.4875
2793.87041	6550.8875
2796.42589	6527.4875
2798.97979	6519.6875
2801.53212	6515.0875
2804.08288	6506.3875
2806.63206	6476.5875
2809.17967	6460.9875
2811.72571	6421.8875
2814.27018	6425.1875
2816.81308	6415.1875
2819.35442	6392.6875
2821.89419	6390.7875
2824.43239	6394.1875
2826.96904	6361.3875
2829.50412	6364.7875
2832.03763	6349.8875
2834.56959	6362.5875
2837.1	6342.2875
2839.62884	6345.2875
2842.15613	6350.6875
2844.68186	6371.4875
2847.20604	6392.5875
2849.72867	6406.0875
2852.24974	6404.8875
2854.76927	6385.3875
2857.28724	6367.6875
2859.80367	6332.9875
2862.31855	6339.1875
2864.83189	6319.2875
2867.34368	6300.1875
2869.85393	6303.7875
2872.36264	6318.8875
2874.8698	6284.2875
2877.37543	6285.2875
2879.87952	6270.1875
2882.38207	6266.0875
2884.88308	6282.9875
2887.38256	6259.8875
2889.88051	6238.8875
2892.37692	6260.9875
2894.8718	6228.8875
2897.36515	6277.8875
2899.85698	6266.2875
2902.34727	6257.8875
2904.83604	6247.4875
2907.32328	6275.3875
2909.809	6272.8875
2912.29319	6263.1875
2914.77587	6244.7875
2917.25702	6238.9875
2919.73665	6243.8875
2922.21476	6247.5875
2924.69136	6231.3875
2927.16644	6227.9875
2929.64	6217.8875
2932.11205	6213.8875
2934.58258	6206.4875
2937.05161	6225.2875
2939.51912	6211.0875
2941.98513	6201.3875
2944.44962	6173.7875
2946.91261	6154.0875
2949.37409	6138.5875
2951.83407	6130.7875
2954.29254	6123.9875
2956.74951	6116.3875
2959.20498	6107.9875
2961.65895	6096.2875
2964.11142	6111.8875
2966.56239	6092.0875
2969.01186	6095.0875
2971.45984	6074.5875
2973.90632	6049.1875
2976.35131	6040.0875
2978.7948	6018.5875
2981.23681	5985.5875
2983.67732	5978.7875
2986.11635	5954.5875
2988.55388	5960.9875
2990.98993	5933.5875
2993.4245	5914.1875
2995.85758	5874.2875
2998.28917	5906.7875
3000.71928	5864.4875
3003.14791	5860.7875
3005.57506	5857.0875
3008.00073	5826.3875
3010.42493	5820.6875
3012.84764	5797.9875
3015.26888	5790.2875
3017.68865	5787.5875
3020.10694	5774.3875
3022.52376	5771.8875
3024.9391	5757.1875
3027.35298	5742.5875
3029.76539	5745.0875
3032.17632	5726.1875
3034.5858	5732.3875
3036.9938	5744.4875
3039.40034	5735.2875
3041.80542	5715.1875
3044.20903	5718.7875
3046.61118	5708.8875
3049.01187	5673.7875
3051.4111	5691.3875
3053.80888	5666.7875
3056.20519	5662.9875
3058.60005	5630.6875
3060.99345	5628.5875
3063.3854	5607.4875
3065.7759	5602.6875
3068.16494	5608.8875
3070.55254	5578.8875
