Data from AgNP_FTO_APTES_UA_10uM_CRN_2uM_R6G_10uM_NaF_0.1M_Addition_RamanShift__33__14-35-20-622.txt Node

Date: Thu Feb 10 14:35:20 GMT 2022
User: TCL
Spectrometer: QEP01345
Trigger mode: 4
Integration Time (sec): 7.000000E0
Scans to average: 10
Electric dark correction enabled: true
Nonlinearity correction enabled: false
Boxcar width: 0
XAxis mode: Raman Shifts
Number of Pixels in Spectrum: 1044
>>>>>Begin Spectral Data<<<<<
46.04893	0.4375
50.45542	0.5375
54.85868	-2.3625
59.25871	-0.0625
63.6555	42.9375
68.04907	45.3375
72.43941	49.0375
76.82654	48.9375
81.21044	55.5375
85.59113	52.0375
89.96862	53.8375
94.34289	60.0375
98.71396	62.3375
103.08183	66.4375
107.4465	67.8375
111.80798	65.2375
116.16626	67.4375
120.52136	69.1375
124.87327	71.2375
129.222	71.5375
133.56755	76.3375
137.90993	75.8375
142.24913	80.1375
146.58517	89.3375
150.91804	100.5375
155.24774	118.9375
159.57429	144.8375
163.89768	180.9375
168.21792	235.9375
172.53501	316.4375
176.84895	433.5375
181.15975	601.4375
185.46741	830.0375
189.77193	1152.5375
194.07331	1536.9375
198.37157	1973.1375
202.6667	2433.1375
206.9587	2880.8375
211.24758	3351.2375
215.53334	3841.8375
219.81599	4411.0375
224.09553	5065.6375
228.37195	5787.5375
232.64527	6572.4375
236.91549	7327.9375
241.18261	7965.5375
245.44663	8479.4375
249.70755	8805.5375
253.96539	9089.1375
258.22014	9364.0375
262.4718	9631.4375
266.72039	9852.4375
270.96589	10010.3375
275.20832	10037.4375
279.44768	9929.1375
283.68397	9804.8375
287.91719	9727.2375
292.14735	9812.9375
296.37445	10115.1375
300.59849	10675.5375
304.81948	11272.6375
309.03742	11741.9375
313.25231	11710.0375
317.46415	10970.8375
321.67296	9862.9375
325.87872	8933.1375
330.08145	8474.8375
334.28114	8419.7375
338.47781	8581.3375
342.67145	8914.9375
346.86207	9463.1375
351.04966	10218.3375
355.23424	11083.1375
359.4158	11726.8375
363.59435	11999.4375
367.76989	12054.5375
371.94243	11950.7375
376.11196	11791.3375
380.27849	11633.2375
384.44203	11431.9375
388.60257	11156.3375
392.76012	11012.5375
396.91468	11120.6375
401.06626	11517.0375
405.21485	11764.3375
409.36047	11431.9375
413.50311	10565.7375
417.64277	9751.2375
421.77947	9287.5375
425.9132	9097.6375
430.04396	9040.8375
434.17176	9063.2375
438.2966	9200.3375
442.41849	9460.4375
446.53742	9766.7375
450.6534	10097.6375
454.76644	10262.1375
458.87653	10265.1375
462.98368	10116.1375
467.08789	9936.4375
471.18916	9606.9375
475.2875	9315.5375
479.38291	9058.1375
483.4754	8855.9375
487.56496	8703.8375
491.6516	8593.1375
495.73531	8552.9375
499.81612	8635.4375
503.89401	8773.4375
507.96899	8967.3375
512.04106	9163.1375
516.11023	9422.6375
520.1765	9566.1375
524.23987	9497.1375
528.30034	9231.3375
532.35792	8941.3375
536.41261	8622.8375
540.46441	8316.6375
544.51333	8171.0375
548.55936	8246.4375
552.60252	8561.2375
556.64279	8887.4375
560.6802	9058.9375
564.71473	9281.4375
568.7464	9868.4375
572.7752	10266.8375
576.80114	9816.1375
580.82422	9300.4375
584.84444	9008.4375
588.86181	8933.1375
592.87633	8881.6375
596.888	9000.9375
600.89682	9505.5375
604.9028	11134.1375
608.90594	15642.7375
612.90624	21760.5375
616.90371	20630.1375
620.89834	12828.2375
624.89015	9276.1375
628.87913	8624.2375
632.86528	8718.7375
636.84862	8961.3375
640.82913	8826.0375
644.80683	8232.3375
648.78172	7862.7375
652.75379	7918.3375
656.72306	8467.8375
660.68952	9137.3375
664.65319	8983.9375
668.61405	8264.4375
672.57211	7898.8375
676.52738	7843.9375
680.47986	7866.4375
684.42955	7737.6375
688.37646	7666.6375
692.32058	7707.9375
696.26192	7817.5375
700.20048	7994.3375
704.13626	8130.3375
708.06928	8114.1375
711.99952	8030.1375
715.927	7963.7375
719.85171	7987.9375
723.77365	7971.7375
727.69284	7864.4375
731.60928	7776.5375
735.52295	7733.9375
739.43388	7774.6375
743.34206	7820.1375
747.24749	7850.5375
751.15017	7958.6375
755.05012	8197.1375
758.94733	8812.4375
762.8418	10279.1375
766.73354	12774.6375
770.62254	15431.3375
774.50882	16813.7375
778.39237	15852.9375
782.27321	13137.3375
786.15132	10440.7375
790.02671	8932.9375
793.89938	8283.6375
797.76935	8004.5375
801.6366	7858.9375
805.50115	7784.6375
809.36299	7686.3375
813.22213	7659.4375
817.07857	7634.7375
820.93231	7614.6375
824.78336	7669.9375
828.63172	7719.3375
832.47738	7743.7375
836.32036	7684.1375
840.16066	7621.8375
843.99827	7538.3375
847.8332	7512.6375
851.66546	7522.0375
855.49504	7506.3375
859.32195	7497.3375
863.1462	7421.4375
866.96777	7395.3375
870.78668	7370.3375
874.60293	7397.1375
878.41652	7452.2375
882.22745	7503.5375
886.03573	7540.6375
889.84136	7493.1375
893.64433	7428.5375
897.44466	7431.2375
901.24235	7435.5375
905.0374	7425.2375
908.8298	7397.2375
912.61957	7358.6375
916.40671	7396.7375
920.19121	7479.2375
923.97308	7580.2375
927.75233	7707.0375
931.52895	7852.1375
935.30295	7715.6375
939.07433	7378.2375
942.84309	7098.9375
946.60924	6916.5375
950.37278	6841.7375
954.13371	6785.5375
957.89203	6774.0375
961.64774	6761.4375
965.40086	6744.6375
969.15137	6731.7375
972.89929	6695.8375
976.64461	6670.8375
980.38733	6681.2375
984.12747	6698.2375
987.86502	6704.1375
991.59999	6754.8375
995.33237	6843.6375
999.06217	7044.1375
1002.78939	7243.8375
1006.51404	7473.8375
1010.23611	7737.2375
1013.95561	7900.3375
1017.67255	7857.3375
1021.38692	7696.8375
1025.09872	7529.7375
1028.80796	7423.2375
1032.51465	7442.2375
1036.21877	7534.4375
1039.92035	7640.0375
1043.61937	7673.6375
1047.31584	7673.4375
1051.00976	7648.2375
1054.70114	7586.2375
1058.38998	7579.2375
1062.07627	7646.8375
1065.76003	7695.3375
1069.44126	7759.6375
1073.11995	7870.4375
1076.79611	8060.5375
1080.46974	8255.6375
1084.14085	8589.9375
1087.80943	8953.0375
1091.47549	9107.1375
1095.13903	8864.7375
1098.80005	8388.0375
1102.45857	7997.8375
1106.11456	7851.0375
1109.76805	7945.6375
1113.41903	8203.4375
1117.06751	8633.9375
1120.71348	9159.6375
1124.35696	9735.1375
1127.99793	10260.6375
1131.63641	10191.9375
1135.2724	9519.0375
1138.90589	8833.7375
1142.5369	8451.0375
1146.16542	8207.6375
1149.79145	8047.5375
1153.415	8047.3375
1157.03607	8165.4375
1160.65467	8409.8375
1164.27079	8824.5375
1167.88443	9508.9375
1171.49561	10600.9375
1175.10432	12519.0375
1178.71056	15015.2375
1182.31434	16712.8375
1185.91565	16974.8375
1189.51451	16229.0375
1193.11091	14782.6375
1196.70485	13204.7375
1200.29634	12086.8375
1203.88538	11303.8375
1207.47197	10330.1375
1211.05612	9574.1375
1214.63782	9132.6375
1218.21708	8970.3375
1221.79391	8965.9375
1225.36829	9036.2375
1228.94024	9128.5375
1232.50976	9201.8375
1236.07685	9211.8375
1239.6415	9255.6375
1243.20374	9299.5375
1246.76355	9355.3375
1250.32093	9489.6375
1253.8759	9725.9375
1257.42845	10137.5375
1260.97859	10568.4375
1264.52631	11011.3375
1268.07163	11490.6375
1271.61453	11897.8375
1275.15503	12142.7375
1278.69312	12200.7375
1282.22882	12227.4375
1285.76211	12483.6375
1289.29301	12986.5375
1292.82151	13538.5375
1296.34761	14073.5375
1299.87133	14929.5375
1303.39266	16458.4375
1306.9116	18932.1375
1310.42815	21845.3375
1313.94233	23619.0375
1317.45412	23160.5375
1320.96354	21205.7375
1324.47058	18994.5375
1327.97525	17016.4375
1331.47754	15815.6375
1334.97747	15295.6375
1338.47502	15263.1375
1341.97022	15676.0375
1345.46305	16439.5375
1348.95352	17758.2375
1352.44163	19576.4375
1355.92738	22207.0375
1359.41078	26377.6375
1362.89183	30471.0375
1366.37053	29575.1375
1369.84688	24172.7375
1373.32088	18899.8375
1376.79254	15598.7375
1380.26186	14007.3375
1383.72883	13203.1375
1387.19347	12636.9375
1390.65578	11977.7375
1394.11575	11411.9375
1397.57339	11163.0375
1401.0287	11126.8375
1404.48168	11266.3375
1407.93234	11451.2375
1411.38068	11556.9375
1414.82669	11540.9375
1418.27039	11355.1375
1421.71177	11131.7375
1425.15083	10842.1375
1428.58758	10586.9375
1432.02203	10616.9375
1435.45416	10730.6375
1438.88399	10854.4375
1442.31151	10863.8375
1445.73673	10950.8375
1449.15965	11065.8375
1452.58027	11005.0375
1455.9986	10920.9375
1459.41463	10890.2375
1462.82837	11008.1375
1466.23982	11296.7375
1469.64898	11594.6375
1473.05586	11838.6375
1476.46045	11972.5375
1479.86276	12253.0375
1483.26279	12646.7375
1486.66054	13098.6375
1490.05602	13685.8375
1493.44922	14527.5375
1496.84016	15863.0375
1500.22882	18025.9375
1503.61521	20920.0375
1506.99934	24253.0375
1510.38121	27458.2375
1513.76081	29058.6375
1517.13816	27586.5375
1520.51324	23602.2375
1523.88607	19466.3375
1527.25665	16576.9375
1530.62498	14892.6375
1533.99105	13878.2375
1537.35488	13250.6375
1540.71647	12832.3375
1544.07581	12618.1375
1547.4329	12513.7375
1550.78776	12431.6375
1554.14038	12483.4375
1557.49077	12642.2375
1560.83892	13038.4375
1564.18484	13598.7375
1567.52853	14166.5375
1570.86999	14636.1375
1574.20922	14972.2375
1577.54624	14829.1375
1580.88103	13848.2375
1584.2136	12520.9375
1587.54395	11824.9375
1590.87208	11906.9375
1594.19801	12694.6375
1597.52172	13823.0375
1600.84321	14225.8375
1604.16251	13593.3375
1607.47959	12547.9375
1610.79447	11421.1375
1614.10715	10360.1375
1617.41763	9528.4375
1620.7259	8952.0375
1624.03199	8747.6375
1627.33587	8770.7375
1630.63757	9044.7375
1633.93707	9613.2375
1637.23439	10529.2375
1640.52951	11882.7375
1643.82246	13802.1375
1647.11321	16267.3375
1650.40179	18342.9375
1653.68819	18039.4375
1656.97241	15275.2375
1660.25446	12061.6375
1663.53433	9764.9375
1666.81203	8434.0375
1670.08756	7703.6375
1673.36092	7245.4375
1676.63211	6960.6375
1679.90115	6783.7375
1683.16801	6633.5375
1686.43272	6559.5375
1689.69527	6490.0375
1692.95567	6451.9375
1696.2139	6417.2375
1699.46999	6408.4375
1702.72392	6370.7375
1705.97571	6351.7375
1709.22535	6337.7375
1712.47284	6323.7375
1715.71819	6343.1375
1718.96139	6360.6375
1722.20246	6332.6375
1725.44139	6282.3375
1728.67818	6223.5375
1731.91284	6146.2375
1735.14537	6081.3375
1738.37576	6017.2375
1741.60403	5999.6375
1744.83017	5950.3375
1748.05418	5929.7375
1751.27607	5923.7375
1754.49584	5916.4375
1757.71349	5905.1375
1760.92903	5916.8375
1764.14244	5888.1375
1767.35375	5874.7375
1770.56294	5866.5375
1773.77002	5815.2375
1776.97499	5784.2375
1780.17785	5764.3375
1783.37861	5727.1375
1786.57727	5712.0375
1789.77382	5703.8375
1792.96828	5699.0375
1796.16064	5692.7375
1799.3509	5667.0375
1802.53907	5667.1375
1805.72514	5636.5375
1808.90913	5599.4375
1812.09102	5597.7375
1815.27083	5569.3375
1818.44856	5550.3375
1821.6242	5539.8375
1824.79776	5529.9375
1827.96924	5532.3375
1831.13864	5520.7375
1834.30597	5520.1375
1837.47122	5504.7375
1840.6344	5478.2375
1843.7955	5486.3375
1846.95454	5482.1375
1850.11151	5490.5375
1853.26642	5480.1375
1856.41926	5487.3375
1859.57004	5490.9375
1862.71876	5492.2375
1865.86542	5484.1375
1869.01003	5481.3375
1872.15258	5496.5375
1875.29308	5498.1375
1878.43152	5510.8375
1881.56792	5507.7375
1884.70227	5513.5375
1887.83457	5512.5375
1890.96482	5519.7375
1894.09304	5522.8375
1897.21921	5506.5375
1900.34335	5507.1375
1903.46544	5504.1375
1906.58551	5487.6375
1909.70353	5505.8375
1912.81953	5520.9375
1915.93349	5505.0375
1919.04543	5505.7375
1922.15534	5489.9375
1925.26322	5474.0375
1928.36908	5449.7375
1931.47292	5431.3375
1934.57473	5397.5375
1937.67453	5363.4375
1940.77232	5329.7375
1943.86808	5296.8375
1946.96184	5278.8375
1950.05358	5241.6375
1953.14331	5224.9375
1956.23103	5209.1375
1959.31675	5192.5375
1962.40046	5164.3375
1965.48217	5157.9375
1968.56188	5139.8375
1971.63959	5137.5375
1974.7153	5113.9375
1977.78901	5084.6375
1980.86073	5073.0375
1983.93046	5048.1375
1986.99819	5025.6375
1990.06394	5011.4375
1993.1277	4995.3375
1996.18947	4970.1375
1999.24925	4943.1375
2002.30706	4935.7375
2005.36288	4914.4375
2008.41672	4895.1375
2011.46859	4879.8375
2014.51848	4869.3375
2017.56639	4860.9375
2020.61233	4832.2375
2023.6563	4824.4375
2026.6983	4814.5375
2029.73833	4803.2375
2032.7764	4785.3375
2035.8125	4773.3375
2038.84664	4764.4375
2041.87881	4733.9375
2044.90903	4729.4375
2047.93729	4752.4375
2050.96359	4725.7375
2053.98794	4730.9375
2057.01034	4699.9375
2060.03078	4699.7375
2063.04927	4709.1375
2066.06582	4697.9375
2069.08042	4679.5375
2072.09307	4678.3375
2075.10378	4683.2375
2078.11255	4660.9375
2081.11938	4655.9375
2084.12426	4654.1375
2087.12722	4647.2375
2090.12824	4644.7375
2093.12732	4657.8375
2096.12447	4638.5375
2099.11969	4653.8375
2102.11299	4641.9375
2105.10435	4644.1375
2108.09379	4636.1375
2111.08131	4645.9375
2114.0669	4646.4375
2117.05057	4643.7375
2120.03233	4653.2375
2123.01216	4659.9375
2125.99008	4669.7375
2128.96609	4668.1375
2131.94018	4666.3375
2134.91236	4654.8375
2137.88263	4655.4375
2140.851	4660.2375
2143.81746	4657.2375
2146.78201	4651.7375
2149.74466	4653.4375
2152.7054	4643.2375
2155.66425	4632.4375
2158.6212	4612.9375
2161.57625	4620.9375
2164.52941	4618.7375
2167.48067	4596.2375
2170.43004	4601.8375
2173.37752	4591.0375
2176.32311	4600.3375
2179.26681	4599.1375
2182.20863	4613.0375
2185.14856	4608.8375
2188.08661	4611.5375
2191.02278	4605.6375
2193.95707	4608.4375
2196.88948	4596.6375
2199.82001	4585.6375
2202.74867	4564.9375
2205.67545	4565.3375
2208.60037	4567.7375
2211.52341	4541.4375
2214.44458	4554.1375
2217.36388	4536.5375
2220.28132	4523.5375
2223.1969	4501.8375
2226.11061	4501.7375
2229.02246	4504.5375
2231.93245	4476.1375
2234.84058	4466.6375
2237.74686	4451.1375
2240.65128	4456.7375
2243.55385	4450.3375
2246.45456	4434.0375
2249.35343	4457.0375
2252.25044	4448.8375
2255.14561	4445.2375
2258.03893	4459.1375
2260.93041	4456.2375
2263.82004	4436.5375
2266.70783	4426.2375
2269.59378	4406.1375
2272.4779	4396.9375
2275.36017	4378.1375
2278.24061	4376.6375
2281.11922	4364.7375
2283.996	4344.0375
2286.87094	4351.3375
2289.74405	4326.6375
2292.61534	4314.3375
2295.4848	4308.8375
2298.35243	4298.6375
2301.21824	4306.9375
2304.08223	4296.8375
2306.94439	4295.1375
2309.80474	4288.8375
2312.66327	4288.6375
2315.51999	4296.3375
2318.37489	4291.4375
2321.22797	4281.0375
2324.07925	4284.0375
2326.92871	4268.6375
2329.77637	4263.9375
2332.62222	4249.5375
2335.46626	4263.5375
2338.3085	4252.6375
2341.14893	4270.5375
2343.98756	4251.5375
2346.8244	4274.6375
2349.65943	4280.0375
2352.49267	4293.4375
2355.32411	4295.3375
2358.15376	4301.2375
2360.98161	4311.7375
2363.80768	4317.2375
2366.63195	4332.6375
2369.45444	4330.1375
2372.27514	4323.3375
2375.09405	4311.8375
2377.91118	4306.2375
2380.72652	4276.2375
2383.54009	4237.0375
2386.35187	4213.6375
2389.16188	4214.7375
2391.97011	4184.5375
2394.77657	4170.3375
2397.58125	4155.9375
2400.38416	4137.5375
2403.18529	4129.9375
2405.98466	4111.4375
2408.78226	4100.8375
2411.57809	4088.3375
2414.37216	4092.1375
2417.16446	4098.5375
2419.955	4078.2375
2422.74378	4084.2375
2425.5308	4073.7375
2428.31606	4087.7375
2431.09956	4077.6375
2433.88131	4068.7375
2436.6613	4082.9375
2439.43954	4079.6375
2442.21603	4095.0375
2444.99077	4087.6375
2447.76377	4091.7375
2450.53501	4089.8375
2453.30451	4087.0375
2456.07226	4093.0375
2458.83827	4083.7375
2461.60254	4081.3375
2464.36507	4073.6375
2467.12586	4079.4375
2469.88492	4068.7375
2472.64224	4087.9375
2475.39782	4082.2375
2478.15167	4098.6375
2480.90379	4117.9375
2483.65417	4132.8375
2486.40283	4136.7375
2489.14976	4168.4375
2491.89497	4160.0375
2494.63845	4170.5375
2497.3802	4154.2375
2500.12024	4161.5375
2502.85855	4133.3375
2505.59514	4107.9375
2508.33002	4099.0375
2511.06318	4067.0375
2513.79462	4043.7375
2516.52435	4033.3375
2519.25237	4008.1375
2521.97867	3978.6375
2524.70327	3988.5375
2527.42616	3982.4375
2530.14734	3969.5375
2532.86681	3960.3375
2535.58458	3961.7375
2538.30065	3974.7375
2541.01501	3972.9375
2543.72768	3964.6375
2546.43864	3963.6375
2549.14791	3976.9375
2551.85548	3969.2375
2554.56136	3962.2375
2557.26554	3968.0375
2559.96803	3956.7375
2562.66883	3945.2375
2565.36794	3937.8375
2568.06536	3926.4375
2570.7611	3908.2375
2573.45514	3911.2375
2576.14751	3905.5375
2578.83819	3890.4375
2581.52719	3906.5375
2584.21451	3900.2375
2586.90015	3892.4375
2589.58411	3882.6375
2592.2664	3885.7375
2594.94701	3872.3375
2597.62594	3880.9375
2600.30321	3865.9375
2602.9788	3860.6375
2605.65273	3871.3375
2608.32498	3891.6375
2610.99557	3879.1375
2613.66449	3872.9375
2616.33175	3876.6375
2618.99734	3874.8375
2621.66128	3876.9375
2624.32355	3866.9375
2626.98416	3865.0375
2629.64311	3855.3375
2632.30041	3829.1375
2634.95605	3827.6375
2637.61004	3835.6375
2640.26238	3824.5375
2642.91306	3822.9375
2645.56209	3811.7375
2648.20948	3795.4375
2650.85521	3784.3375
2653.4993	3797.9375
2656.14175	3802.8375
2658.78255	3812.3375
2661.42171	3808.4375
2664.05923	3841.8375
2666.6951	3841.6375
2669.32934	3834.1375
2671.96194	3840.0375
2674.59291	3841.9375
2677.22224	3846.0375
2679.84993	3856.9375
2682.476	3844.2375
2685.10043	3863.1375
2687.72324	3855.1375
2690.34441	3855.3375
2692.96396	3848.0375
2695.58188	3849.3375
2698.19818	3837.8375
2700.81285	3843.8375
2703.4259	3844.2375
2706.03733	3858.1375
2708.64714	3839.3375
2711.25533	3859.1375
2713.86191	3863.5375
2716.46687	3848.3375
2719.07021	3865.5375
2721.67194	3871.2375
2724.27206	3872.1375
2726.87057	3869.4375
2729.46747	3864.1375
2732.06276	3865.6375
2734.65644	3852.1375
2737.24852	3855.7375
2739.83899	3845.9375
2742.42786	3850.2375
2745.01513	3829.4375
2747.60079	3821.3375
2750.18486	3808.7375
2752.76733	3795.6375
2755.3482	3814.5375
2757.92747	3797.6375
2760.50515	3780.8375
2763.08123	3778.5375
2765.65573	3779.1375
2768.22863	3772.2375
2770.79994	3784.4375
2773.36967	3763.8375
2775.9378	3777.6375
2778.50435	3772.0375
2781.06932	3782.6375
2783.6327	3762.8375
2786.1945	3765.0375
2788.75471	3772.6375
2791.31335	3757.2375
2793.87041	3775.8375
2796.42589	3761.3375
2798.97979	3758.9375
2801.53212	3749.8375
2804.08288	3746.6375
2806.63206	3757.0375
2809.17967	3743.9375
2811.72571	3759.3375
2814.27018	3773.8375
2816.81308	3747.6375
2819.35442	3761.5375
2821.89419	3762.3375
2824.43239	3765.0375
2826.96904	3776.0375
2829.50412	3791.2375
2832.03763	3788.7375
2834.56959	3784.4375
2837.1	3792.8375
2839.62884	3820.9375
2842.15613	3837.3375
2844.68186	3867.4375
2847.20604	3884.5375
2849.72867	3931.6375
2852.24974	3941.2375
2854.76927	3934.3375
2857.28724	3919.6375
2859.80367	3922.1375
2862.31855	3903.5375
2864.83189	3894.5375
2867.34368	3883.8375
2869.85393	3880.4375
2872.36264	3894.2375
2874.8698	3902.8375
2877.37543	3878.8375
2879.87952	3895.8375
2882.38207	3878.3375
2884.88308	3873.1375
2887.38256	3879.0375
2889.88051	3857.7375
2892.37692	3853.1375
2894.8718	3849.9375
2897.36515	3872.8375
2899.85698	3849.9375
2902.34727	3869.7375
2904.83604	3869.2375
2907.32328	3869.4375
2909.809	3863.3375
2912.29319	3869.2375
2914.77587	3868.5375
2917.25702	3866.1375
2919.73665	3860.9375
2922.21476	3865.9375
2924.69136	3869.2375
2927.16644	3860.4375
2929.64	3834.9375
2932.11205	3840.2375
2934.58258	3818.1375
2937.05161	3806.2375
2939.51912	3796.6375
2941.98513	3757.0375
2944.44962	3753.1375
2946.91261	3729.4375
2949.37409	3714.3375
2951.83407	3693.2375
2954.29254	3674.6375
2956.74951	3660.5375
2959.20498	3679.6375
2961.65895	3660.3375
2964.11142	3665.3375
2966.56239	3653.1375
2969.01186	3646.6375
2971.45984	3627.9375
2973.90632	3623.5375
2976.35131	3599.6375
2978.7948	3601.5375
2981.23681	3597.4375
2983.67732	3573.9375
2986.11635	3562.7375
2988.55388	3573.0375
2990.98993	3549.2375
2993.4245	3544.6375
2995.85758	3539.2375
2998.28917	3516.1375
3000.71928	3509.7375
3003.14791	3520.5375
3005.57506	3506.0375
3008.00073	3492.7375
3010.42493	3377.5375
3012.84764	3476.1375
3015.26888	3488.0375
3017.68865	3471.0375
3020.10694	3471.0375
3022.52376	3458.7375
3024.9391	3454.8375
3027.35298	3453.4375
3029.76539	3446.3375
3032.17632	3431.5375
3034.5858	3440.1375
3036.9938	3452.8375
3039.40034	3445.0375
3041.80542	3436.6375
3044.20903	3420.5375
3046.61118	3409.1375
3049.01187	3401.6375
3051.4111	3402.9375
3053.80888	3409.8375
3056.20519	3391.0375
3058.60005	3375.7375
3060.99345	3370.4375
3063.3854	3373.5375
3065.7759	3354.9375
3068.16494	3358.3375
3070.55254	3341.1375
3072.93868	3330.1375
3075.32338	3326.0375
3077.70662	3297.9375
3080.08842	3294.6375
3082.46878	3281.5375
3084.84769	3290.9375
3087.22515	3283.4375
3089.60118	3289.4375
3091.97576	3277.0375
3094.3489	3281.1375
3096.72061	3281.8375
3099.09087	3268.5375
3101.4597	3265.6375
3103.82709	3254.9375
3106.19305	3264.6375
