Data from AgNP_FTO_APTES_UA_10uM_CRN_50uM_R6G_10uM_NaF_0.1M_Addition_RamanShift__13__16-57-40-797.txt Node

Date: Thu Feb 10 16:57:40 GMT 2022
User: TCL
Spectrometer: QEP01345
Trigger mode: 4
Integration Time (sec): 7.000000E0
Scans to average: 10
Electric dark correction enabled: true
Nonlinearity correction enabled: false
Boxcar width: 0
XAxis mode: Raman Shifts
Number of Pixels in Spectrum: 1044
>>>>>Begin Spectral Data<<<<<
46.04893	-0.6625
50.45542	0.3375
54.85868	-1.3625
59.25871	-1.5625
63.6555	54.4375
68.04907	56.8375
72.43941	61.4375
76.82654	59.6375
81.21044	66.7375
85.59113	66.6375
89.96862	70.2375
94.34289	73.9375
98.71396	73.5375
103.08183	77.9375
107.4465	77.5375
111.80798	78.4375
116.16626	81.5375
120.52136	82.4375
124.87327	89.7375
129.222	90.5375
133.56755	99.9375
137.90993	104.3375
142.24913	110.9375
146.58517	123.2375
150.91804	141.4375
155.24774	167.7375
159.57429	203.9375
163.89768	257.5375
168.21792	339.9375
172.53501	456.1375
176.84895	640.7375
181.15975	896.7375
185.46741	1260.7375
189.77193	1746.3375
194.07331	2333.6375
198.37157	3004.5375
202.6667	3714.2375
206.9587	4433.1375
211.24758	5121.2375
215.53334	5801.3375
219.81599	6518.6375
224.09553	7274.8375
228.37195	8154.3375
232.64527	9078.2375
236.91549	10120.1375
241.18261	11170.2375
245.44663	12181.0375
249.70755	13102.9375
253.96539	13930.1375
258.22014	14626.8375
262.4718	15199.4375
266.72039	15586.4375
270.96589	15791.0375
275.20832	15879.4375
279.44768	15849.6375
283.68397	15750.6375
287.91719	15662.6375
292.14735	15569.8375
296.37445	15579.0375
300.59849	15530.4375
304.81948	15491.7375
309.03742	15382.4375
313.25231	15253.1375
317.46415	15009.8375
321.67296	14736.7375
325.87872	14532.9375
330.08145	14457.3375
334.28114	14511.4375
338.47781	14614.6375
342.67145	14756.6375
346.86207	14912.6375
351.04966	15075.3375
355.23424	15226.7375
359.4158	15368.9375
363.59435	15505.3375
367.76989	15589.2375
371.94243	15726.8375
376.11196	15799.1375
380.27849	15863.5375
384.44203	15958.3375
388.60257	16087.8375
392.76012	16199.6375
396.91468	16432.2375
401.06626	16653.7375
405.21485	16802.2375
409.36047	16812.2375
413.50311	16705.9375
417.64277	16609.6375
421.77947	16614.6375
425.9132	16666.8375
430.04396	16774.2375
434.17176	16880.4375
438.2966	16956.0375
442.41849	17087.5375
446.53742	17311.6375
450.6534	17539.8375
454.76644	17723.3375
458.87653	17819.8375
462.98368	17886.9375
467.08789	17878.3375
471.18916	17840.1375
475.2875	17751.2375
479.38291	17692.6375
483.4754	17616.8375
487.56496	17503.8375
491.6516	17395.3375
495.73531	17280.5375
499.81612	17161.1375
503.89401	17250.1375
507.96899	17319.4375
512.04106	17339.9375
516.11023	17314.9375
520.1765	17261.2375
524.23987	17172.9375
528.30034	17061.4375
532.35792	16999.7375
536.41261	16906.8375
540.46441	16840.8375
544.51333	16885.6375
548.55936	17053.3375
552.60252	17326.4375
556.64279	17518.0375
560.6802	17664.5375
564.71473	17712.3375
568.7464	17872.8375
572.7752	18112.6375
576.80114	18453.8375
580.82422	18855.2375
584.84444	19022.9375
588.86181	19049.5375
592.87633	18946.5375
596.888	18852.7375
600.89682	18910.7375
604.9028	19164.0375
608.90594	19890.1375
612.90624	20591.8375
616.90371	19726.8375
620.89834	18067.3375
624.89015	17358.0375
628.87913	17267.5375
632.86528	17413.9375
636.84862	17490.7375
640.82913	17368.2375
644.80683	17163.4375
648.78172	17008.3375
652.75379	16961.4375
656.72306	17042.9375
660.68952	17173.2375
664.65319	17184.8375
668.61405	17099.0375
672.57211	17118.4375
676.52738	17158.0375
680.47986	17161.1375
684.42955	17107.9375
688.37646	17104.7375
692.32058	17132.3375
696.26192	17226.5375
700.20048	17363.9375
704.13626	17444.1375
708.06928	17484.3375
711.99952	17474.7375
715.927	17443.9375
719.85171	17403.0375
723.77365	17303.0375
727.69284	17212.1375
731.60928	17098.2375
735.52295	17009.3375
739.43388	16990.8375
743.34206	17008.5375
747.24749	17074.5375
751.15017	17140.1375
755.05012	17309.8375
758.94733	17577.7375
762.8418	18071.0375
766.73354	18854.4375
770.62254	19502.5375
774.50882	19604.9375
778.39237	19087.8375
782.27321	18314.2375
786.15132	17698.5375
790.02671	17319.8375
793.89938	17051.6375
797.76935	16958.4375
801.6366	16904.8375
805.50115	16852.6375
809.36299	16756.6375
813.22213	16732.4375
817.07857	16731.0375
820.93231	16731.7375
824.78336	16706.4375
828.63172	16732.6375
832.47738	16734.1375
836.32036	16704.7375
840.16066	16677.2375
843.99827	16654.5375
847.8332	16669.1375
851.66546	16688.4375
855.49504	16718.7375
859.32195	16715.3375
863.1462	16685.2375
866.96777	16703.6375
870.78668	16698.8375
874.60293	16740.1375
878.41652	16732.1375
882.22745	16758.8375
886.03573	16771.0375
889.84136	16754.9375
893.64433	16750.4375
897.44466	16756.4375
901.24235	16728.5375
905.0374	16675.3375
908.8298	16694.4375
912.61957	16767.4375
916.40671	16822.3375
920.19121	16956.5375
923.97308	16981.5375
927.75233	16908.9375
931.52895	16792.7375
935.30295	16681.3375
939.07433	16536.2375
942.84309	16429.5375
946.60924	16336.5375
950.37278	16300.4375
954.13371	16257.8375
957.89203	16226.0375
961.64774	16227.6375
965.40086	16186.5375
969.15137	16179.8375
972.89929	16135.7375
976.64461	16087.5375
980.38733	16109.0375
984.12747	16104.5375
987.86502	16125.9375
991.59999	16151.3375
995.33237	16213.4375
999.06217	16286.6375
1002.78939	16382.7375
1006.51404	16546.9375
1010.23611	16692.9375
1013.95561	16794.4375
1017.67255	16808.9375
1021.38692	16762.4375
1025.09872	16679.0375
1028.80796	16554.6375
1032.51465	16538.1375
1036.21877	16560.7375
1039.92035	16570.1375
1043.61937	16630.0375
1047.31584	16704.6375
1051.00976	16794.0375
1054.70114	16893.6375
1058.38998	16985.0375
1062.07627	17136.7375
1065.76003	17282.3375
1069.44126	17381.8375
1073.11995	17526.8375
1076.79611	17667.2375
1080.46974	17737.9375
1084.14085	17710.0375
1087.80943	17723.8375
1091.47549	17815.3375
1095.13903	17915.0375
1098.80005	17843.0375
1102.45857	17634.6375
1106.11456	17443.9375
1109.76805	17254.9375
1113.41903	17172.3375
1117.06751	17194.2375
1120.71348	17285.3375
1124.35696	17372.8375
1127.99793	17479.2375
1131.63641	17566.5375
1135.2724	17532.3375
1138.90589	17500.1375
1142.5369	17515.9375
1146.16542	17506.7375
1149.79145	17575.3375
1153.415	17629.0375
1157.03607	17725.1375
1160.65467	17947.0375
1164.27079	18324.2375
1167.88443	18775.7375
1171.49561	19301.4375
1175.10432	19943.5375
1178.71056	20677.7375
1182.31434	21475.9375
1185.91565	22036.0375
1189.51451	22326.1375
1193.11091	22342.3375
1196.70485	22026.6375
1200.29634	21452.7375
1203.88538	20940.5375
1207.47197	20474.2375
1211.05612	20108.6375
1214.63782	19803.2375
1218.21708	19541.8375
1221.79391	19209.9375
1225.36829	18957.8375
1228.94024	18833.2375
1232.50976	18809.0375
1236.07685	18771.3375
1239.6415	18848.4375
1243.20374	18881.1375
1246.76355	18976.5375
1250.32093	19110.7375
1253.8759	19325.0375
1257.42845	19636.0375
1260.97859	19930.1375
1264.52631	20249.3375
1268.07163	20506.9375
1271.61453	20747.6375
1275.15503	20945.7375
1278.69312	21155.9375
1282.22882	21367.6375
1285.76211	21629.2375
1289.29301	21924.5375
1292.82151	22310.0375
1296.34761	22755.2375
1299.87133	23287.5375
1303.39266	23865.3375
1306.9116	24361.7375
1310.42815	24813.0375
1313.94233	25074.2375
1317.45412	25161.4375
1320.96354	25181.4375
1324.47058	25202.2375
1327.97525	25325.8375
1331.47754	25435.6375
1334.97747	25709.4375
1338.47502	26094.8375
1341.97022	26560.3375
1345.46305	26953.9375
1348.95352	27117.2375
1352.44163	26985.0375
1355.92738	26742.4375
1359.41078	26544.2375
1362.89183	26382.0375
1366.37053	25766.7375
1369.84688	24525.2375
1373.32088	23134.8375
1376.79254	22112.8375
1380.26186	21571.9375
1383.72883	21361.3375
1387.19347	21271.2375
1390.65578	21086.6375
1394.11575	20945.4375
1397.57339	20779.4375
1401.0287	20730.6375
1404.48168	20681.4375
1407.93234	20649.7375
1411.38068	20459.7375
1414.82669	20157.3375
1418.27039	19747.3375
1421.71177	19353.8375
1425.15083	18981.9375
1428.58758	18759.5375
1432.02203	18750.3375
1435.45416	18850.1375
1438.88399	19028.0375
1442.31151	19223.5375
1445.73673	19397.2375
1449.15965	19548.5375
1452.58027	19736.5375
1455.9986	19888.1375
1459.41463	20061.4375
1462.82837	20322.0375
1466.23982	20642.4375
1469.64898	20887.2375
1473.05586	21112.2375
1476.46045	21203.6375
1479.86276	21247.2375
1483.26279	21225.3375
1486.66054	21254.9375
1490.05602	21371.0375
1493.44922	21587.3375
1496.84016	21960.8375
1500.22882	22497.6375
1503.61521	23207.1375
1506.99934	23921.2375
1510.38121	24348.8375
1513.76081	24321.5375
1517.13816	24017.4375
1520.51324	23535.1375
1523.88607	23096.3375
1527.25665	22787.9375
1530.62498	22626.6375
1533.99105	22409.7375
1537.35488	22151.9375
1540.71647	21838.0375
1544.07581	21462.4375
1547.4329	21116.5375
1550.78776	20794.1375
1554.14038	20629.1375
1557.49077	20557.0375
1560.83892	20566.7375
1564.18484	20650.9375
1567.52853	20699.6375
1570.86999	20711.2375
1574.20922	20786.9375
1577.54624	20906.7375
1580.88103	20812.9375
1584.2136	20623.0375
1587.54395	20589.5375
1590.87208	20787.0375
1594.19801	21215.8375
1597.52172	21734.6375
1600.84321	21816.4375
1604.16251	21475.5375
1607.47959	20890.4375
1610.79447	20199.4375
1614.10715	19413.3375
1617.41763	18694.6375
1620.7259	18052.6375
1624.03199	17653.6375
1627.33587	17501.7375
1630.63757	17550.4375
1633.93707	17934.5375
1637.23439	18602.2375
1640.52951	19652.6375
1643.82246	20973.8375
1647.11321	22154.6375
1650.40179	22752.6375
1653.68819	22310.6375
1656.97241	21031.3375
1660.25446	19470.7375
1663.53433	18073.1375
1666.81203	17019.9375
1670.08756	16304.1375
1673.36092	15824.0375
1676.63211	15484.8375
1679.90115	15263.1375
1683.16801	15075.4375
1686.43272	14964.4375
1689.69527	14880.3375
1692.95567	14790.3375
1696.2139	14779.0375
1699.46999	14723.7375
1702.72392	14702.4375
1705.97571	14659.6375
1709.22535	14597.4375
1712.47284	14551.6375
1715.71819	14537.0375
1718.96139	14493.4375
1722.20246	14486.4375
1725.44139	14455.1375
1728.67818	14356.3375
1731.91284	14286.4375
1735.14537	14238.8375
1738.37576	14182.1375
1741.60403	14179.8375
1744.83017	14147.5375
1748.05418	14113.7375
1751.27607	14080.5375
1754.49584	14094.0375
1757.71349	14084.1375
1760.92903	14072.6375
1764.14244	14053.7375
1767.35375	14041.0375
1770.56294	14014.7375
1773.77002	13963.2375
1776.97499	13968.4375
1780.17785	13919.1375
1783.37861	13909.6375
1786.57727	13860.3375
1789.77382	13803.1375
1792.96828	13781.6375
1796.16064	13778.8375
1799.3509	13738.9375
1802.53907	13732.8375
1805.72514	13692.3375
1808.90913	13667.7375
1812.09102	13642.1375
1815.27083	13629.7375
1818.44856	13589.0375
1821.6242	13556.4375
1824.79776	13531.0375
1827.96924	13519.5375
1831.13864	13547.0375
1834.30597	13513.8375
1837.47122	13513.3375
1840.6344	13497.1375
1843.7955	13480.0375
1846.95454	13478.6375
1850.11151	13448.2375
1853.26642	13441.2375
1856.41926	13454.1375
1859.57004	13442.5375
1862.71876	13412.9375
1865.86542	13388.2375
1869.01003	13371.1375
1872.15258	13364.3375
1875.29308	13373.4375
1878.43152	13298.6375
1881.56792	13291.3375
1884.70227	13260.5375
1887.83457	13215.9375
1890.96482	13189.7375
1894.09304	13158.1375
1897.21921	13143.2375
1900.34335	13151.6375
1903.46544	13134.8375
1906.58551	13100.3375
1909.70353	13076.0375
1912.81953	13052.2375
1915.93349	13072.9375
1919.04543	13045.2375
1922.15534	13000.4375
1925.26322	12973.5375
1928.36908	12981.9375
1931.47292	12970.3375
1934.57473	12920.9375
1937.67453	12910.4375
1940.77232	12856.6375
1943.86808	12817.7375
1946.96184	12765.4375
1950.05358	12736.8375
1953.14331	12696.7375
1956.23103	12668.5375
1959.31675	12611.9375
1962.40046	12594.3375
1965.48217	12535.4375
1968.56188	12499.5375
1971.63959	12470.8375
1974.7153	12393.4375
1977.78901	12374.7375
1980.86073	12328.5375
1983.93046	12340.7375
1986.99819	12279.7375
1990.06394	12257.1375
1993.1277	12222.8375
1996.18947	12157.5375
1999.24925	12136.6375
2002.30706	12089.3375
2005.36288	12083.2375
2008.41672	12025.8375
2011.46859	11984.6375
2014.51848	11971.2375
2017.56639	11963.9375
2020.61233	11918.8375
2023.6563	11867.2375
2026.6983	11834.8375
2029.73833	11789.5375
2032.7764	11757.1375
2035.8125	11707.1375
2038.84664	11699.4375
2041.87881	11641.7375
2044.90903	11616.1375
2047.93729	11597.7375
2050.96359	11587.5375
2053.98794	11553.9375
2057.01034	11575.7375
2060.03078	11562.4375
2063.04927	11537.5375
2066.06582	11542.0375
2069.08042	11540.2375
2072.09307	11537.7375
2075.10378	11507.8375
2078.11255	11490.7375
2081.11938	11513.6375
2084.12426	11510.3375
2087.12722	11489.1375
2090.12824	11440.4375
2093.12732	11450.5375
2096.12447	11454.5375
2099.11969	11444.4375
2102.11299	11427.5375
2105.10435	11447.6375
2108.09379	11439.7375
2111.08131	11478.3375
2114.0669	11446.5375
2117.05057	11448.2375
2120.03233	11471.5375
2123.01216	11475.9375
2125.99008	11504.9375
2128.96609	11524.2375
2131.94018	11504.3375
2134.91236	11515.6375
2137.88263	11540.9375
2140.851	11544.7375
2143.81746	11536.9375
2146.78201	11543.1375
2149.74466	11541.8375
2152.7054	11528.8375
2155.66425	11507.2375
2158.6212	11549.5375
2161.57625	11512.6375
2164.52941	11506.2375
2167.48067	11498.7375
2170.43004	11472.4375
2173.37752	11473.0375
2176.32311	11479.1375
2179.26681	11463.9375
2182.20863	11455.2375
2185.14856	11453.0375
2188.08661	11453.9375
2191.02278	11458.6375
2193.95707	11451.7375
2196.88948	11446.1375
2199.82001	11442.6375
2202.74867	11419.4375
2205.67545	11382.6375
2208.60037	11376.0375
2211.52341	11342.5375
2214.44458	11340.2375
2217.36388	11323.6375
2220.28132	11307.6375
2223.1969	11260.9375
2226.11061	11244.2375
2229.02246	11210.0375
2231.93245	11198.0375
2234.84058	11155.2375
2237.74686	11160.5375
2240.65128	11160.2375
2243.55385	11133.5375
2246.45456	11104.9375
2249.35343	11098.0375
2252.25044	11089.5375
2255.14561	11067.0375
2258.03893	11047.4375
2260.93041	10994.8375
2263.82004	10971.0375
2266.70783	10962.0375
2269.59378	10933.1375
2272.4779	10884.1375
2275.36017	10834.5375
2278.24061	10857.4375
2281.11922	10821.3375
2283.996	10843.5375
2286.87094	10790.3375
2289.74405	10769.5375
2292.61534	10760.0375
2295.4848	10737.3375
2298.35243	10696.1375
2301.21824	10683.1375
2304.08223	10712.4375
2306.94439	10687.9375
2309.80474	10690.7375
2312.66327	10694.4375
2315.51999	10668.4375
2318.37489	10662.1375
2321.22797	10653.7375
2324.07925	10601.4375
2326.92871	10598.1375
2329.77637	10568.9375
2332.62222	10558.2375
2335.46626	10513.4375
2338.3085	10499.1375
2341.14893	10518.1375
2343.98756	10500.8375
2346.8244	10505.0375
2349.65943	10466.0375
2352.49267	10463.3375
2355.32411	10474.8375
2358.15376	10448.6375
2360.98161	10458.6375
2363.80768	10448.3375
2366.63195	10439.8375
2369.45444	10437.8375
2372.27514	10397.6375
2375.09405	10406.0375
2377.91118	10376.6375
2380.72652	10345.9375
2383.54009	10301.0375
2386.35187	10303.7375
2389.16188	10254.5375
2391.97011	10231.5375
2394.77657	10209.7375
2397.58125	10193.7375
2400.38416	10185.3375
2403.18529	10180.5375
2405.98466	10185.7375
2408.78226	10142.2375
2411.57809	10132.4375
2414.37216	10124.6375
2417.16446	10120.3375
2419.955	10101.5375
2422.74378	10073.4375
2425.5308	10075.7375
2428.31606	10078.0375
2431.09956	10068.7375
2433.88131	10030.3375
2436.6613	10035.3375
2439.43954	10027.4375
2442.21603	10002.2375
2444.99077	10002.7375
2447.76377	9980.8375
2450.53501	9988.4375
2453.30451	9955.3375
2456.07226	9936.7375
2458.83827	9936.1375
2461.60254	9951.0375
2464.36507	9917.9375
2467.12586	9924.7375
2469.88492	9906.2375
2472.64224	9874.5375
2475.39782	9893.6375
2478.15167	9909.1375
2480.90379	9871.2375
2483.65417	9859.1375
2486.40283	9858.9375
2489.14976	9843.9375
2491.89497	9850.5375
2494.63845	9877.3375
2497.3802	9846.9375
2500.12024	9832.4375
2502.85855	9820.2375
2505.59514	9824.0375
2508.33002	9789.1375
2511.06318	9793.2375
2513.79462	9778.0375
2516.52435	9758.3375
2519.25237	9758.7375
2521.97867	9726.0375
2524.70327	9743.2375
2527.42616	9706.3375
2530.14734	9710.9375
2532.86681	9701.6375
2535.58458	9706.1375
2538.30065	9681.5375
2541.01501	9655.1375
2543.72768	9650.3375
2546.43864	9634.1375
2549.14791	9618.5375
2551.85548	9625.8375
2554.56136	9590.4375
2557.26554	9573.5375
2559.96803	9528.4375
2562.66883	9510.3375
2565.36794	9497.2375
2568.06536	9468.6375
2570.7611	9459.3375
2573.45514	9450.3375
2576.14751	9411.4375
2578.83819	9414.7375
2581.52719	9392.2375
2584.21451	9365.2375
2586.90015	9383.8375
2589.58411	9353.7375
2592.2664	9346.5375
2594.94701	9310.1375
2597.62594	9296.7375
2600.30321	9279.3375
2602.9788	9246.0375
2605.65273	9226.3375
2608.32498	9238.2375
2610.99557	9209.8375
2613.66449	9199.6375
2616.33175	9212.0375
2618.99734	9185.6375
2621.66128	9195.8375
2624.32355	9167.8375
2626.98416	9176.2375
2629.64311	9127.5375
2632.30041	9116.1375
2634.95605	9114.8375
2637.61004	9104.0375
2640.26238	9071.3375
2642.91306	9082.5375
2645.56209	9071.5375
2648.20948	9061.0375
2650.85521	9062.6375
2653.4993	9081.6375
2656.14175	9062.6375
2658.78255	9074.0375
2661.42171	9069.1375
2664.05923	9070.3375
2666.6951	9060.8375
2669.32934	9067.9375
2671.96194	9043.2375
2674.59291	9063.0375
2677.22224	9052.4375
2679.84993	9040.2375
2682.476	9031.8375
2685.10043	9039.5375
2687.72324	8989.4375
2690.34441	9023.1375
2692.96396	9029.7375
2695.58188	9033.6375
2698.19818	8997.4375
2700.81285	9055.6375
2703.4259	9010.5375
2706.03733	9022.3375
2708.64714	9004.6375
2711.25533	9003.9375
2713.86191	9001.6375
2716.46687	9034.5375
2719.07021	9017.8375
2721.67194	9022.0375
2724.27206	8985.0375
2726.87057	9007.7375
2729.46747	8997.7375
2732.06276	9015.7375
2734.65644	8982.1375
2737.24852	8975.3375
2739.83899	8971.4375
2742.42786	8962.2375
2745.01513	8938.8375
2747.60079	8940.6375
2750.18486	8917.6375
2752.76733	8916.9375
2755.3482	8903.6375
2757.92747	8872.4375
2760.50515	8876.0375
2763.08123	8850.1375
2765.65573	8830.2375
2768.22863	8850.7375
2770.79994	8825.9375
2773.36967	8833.9375
2775.9378	8821.4375
2778.50435	8812.2375
2781.06932	8826.2375
2783.6327	8796.2375
2786.1945	8780.6375
2788.75471	8756.3375
2791.31335	8741.8375
2793.87041	8747.1375
2796.42589	8699.7375
2798.97979	8706.0375
2801.53212	8678.6375
2804.08288	8679.9375
2806.63206	8631.0375
2809.17967	8628.3375
2811.72571	8603.4375
2814.27018	8569.1375
2816.81308	8578.6375
2819.35442	8556.3375
2821.89419	8525.3375
2824.43239	8519.8375
2826.96904	8495.8375
2829.50412	8483.2375
2832.03763	8480.3375
2834.56959	8472.4375
2837.1	8453.3375
2839.62884	8466.5375
2842.15613	8464.9375
2844.68186	8481.3375
2847.20604	8454.4375
2849.72867	8491.6375
2852.24974	8469.8375
2854.76927	8427.1375
2857.28724	8427.0375
2859.80367	8422.7375
2862.31855	8380.9375
2864.83189	8364.1375
2867.34368	8360.4375
2869.85393	8351.6375
2872.36264	8357.9375
2874.8698	8348.9375
2877.37543	8310.6375
2879.87952	8319.3375
2882.38207	8302.7375
2884.88308	8313.1375
2887.38256	8322.0375
2889.88051	8305.2375
2892.37692	8277.5375
2894.8718	8285.1375
2897.36515	8291.2375
2899.85698	8318.8375
2902.34727	8313.9375
2904.83604	8299.0375
2907.32328	8319.2375
2909.809	8322.6375
2912.29319	8284.8375
2914.77587	8292.4375
2917.25702	8299.9375
2919.73665	8281.1375
2922.21476	8301.5375
2924.69136	8266.7375
2927.16644	8270.4375
2929.64	8246.3375
2932.11205	8256.1375
2934.58258	8252.1375
2937.05161	8228.8375
2939.51912	8261.7375
2941.98513	8230.4375
2944.44962	8216.8375
2946.91261	8172.2375
2949.37409	8171.0375
2951.83407	8183.9375
2954.29254	8180.2375
2956.74951	8145.1375
2959.20498	8154.7375
2961.65895	8133.7375
2964.11142	8140.8375
2966.56239	8138.9375
2969.01186	8144.4375
2971.45984	8124.8375
2973.90632	8156.1375
2976.35131	8131.9375
2978.7948	8086.3375
2981.23681	8076.8375
2983.67732	8081.2375
2986.11635	8063.6375
2988.55388	8050.8375
2990.98993	8022.0375
2993.4245	7998.3375
2995.85758	7963.2375
2998.28917	7946.3375
3000.71928	7958.0375
3003.14791	7950.2375
3005.57506	7898.0375
3008.00073	7921.3375
3010.42493	7864.7375
3012.84764	7896.0375
3015.26888	7855.3375
3017.68865	7816.9375
3020.10694	7824.7375
3022.52376	7811.2375
3024.9391	7795.4375
3027.35298	7797.3375
3029.76539	7781.5375
3032.17632	7774.5375
3034.5858	7771.3375
3036.9938	7770.8375
3039.40034	7780.1375
3041.80542	7753.1375
3044.20903	7721.2375
3046.61118	7722.8375
3049.01187	7713.3375
3051.4111	7713.4375
