Data from AgNP_FTO_APTES_UA_10uM_CRN_200uM_R6G_10uM_NaF_0.1M_Addition_RamanShift__8__18-10-00-887.txt Node

Date: Thu Feb 10 18:10:00 GMT 2022
User: TCL
Spectrometer: QEP01345
Trigger mode: 4
Integration Time (sec): 7.000000E0
Scans to average: 10
Electric dark correction enabled: true
Nonlinearity correction enabled: false
Boxcar width: 0
XAxis mode: Raman Shifts
Number of Pixels in Spectrum: 1044
>>>>>Begin Spectral Data<<<<<
46.04893	1.075
50.45542	-0.625
54.85868	-2.125
59.25871	-1.325
63.6555	58.975
68.04907	61.775
72.43941	68.175
76.82654	64.275
81.21044	67.375
85.59113	71.675
89.96862	75.975
94.34289	77.375
98.71396	79.075
103.08183	83.375
107.4465	85.175
111.80798	85.175
116.16626	87.875
120.52136	93.575
124.87327	96.175
129.222	92.675
133.56755	107.675
137.90993	111.075
142.24913	120.375
146.58517	133.375
150.91804	152.475
155.24774	180.375
159.57429	220.975
163.89768	280.775
168.21792	362.775
172.53501	494.875
176.84895	689.375
181.15975	976.275
185.46741	1365.175
189.77193	1899.975
194.07331	2529.775
198.37157	3252.375
202.6667	4019.575
206.9587	4778.275
211.24758	5521.075
215.53334	6256.475
219.81599	7041.175
224.09553	7886.575
228.37195	8786.875
232.64527	9814.775
236.91549	10927.075
241.18261	12039.175
245.44663	13134.675
249.70755	14098.675
253.96539	14986.575
258.22014	15726.275
262.4718	16312.675
266.72039	16742.975
270.96589	16971.875
275.20832	16998.175
279.44768	16917.675
283.68397	16760.675
287.91719	16630.075
292.14735	16522.075
296.37445	16497.475
300.59849	16507.475
304.81948	16494.975
309.03742	16441.375
313.25231	16303.175
317.46415	16081.575
321.67296	15814.875
325.87872	15582.575
330.08145	15481.475
334.28114	15511.575
338.47781	15595.575
342.67145	15754.175
346.86207	15972.875
351.04966	16179.975
355.23424	16418.275
359.4158	16614.475
363.59435	16830.875
367.76989	16971.475
371.94243	17126.475
376.11196	17232.075
380.27849	17340.875
384.44203	17439.775
388.60257	17551.175
392.76012	17728.375
396.91468	17881.575
401.06626	18110.375
405.21485	18274.475
409.36047	18249.675
413.50311	18125.575
417.64277	18060.875
421.77947	18134.275
425.9132	18202.475
430.04396	18339.875
434.17176	18435.975
438.2966	18520.375
442.41849	18701.575
446.53742	19002.675
450.6534	19366.775
454.76644	19624.575
458.87653	19700.075
462.98368	19694.975
467.08789	19609.975
471.18916	19446.375
475.2875	19316.475
479.38291	19289.575
483.4754	19184.975
487.56496	19056.275
491.6516	18844.675
495.73531	18624.775
499.81612	18504.075
503.89401	18561.875
507.96899	18662.375
512.04106	18650.575
516.11023	18597.275
520.1765	18491.475
524.23987	18339.475
528.30034	18216.475
532.35792	18108.275
536.41261	17981.175
540.46441	17889.875
544.51333	17936.275
548.55936	18106.475
552.60252	18338.475
556.64279	18673.375
560.6802	18889.975
564.71473	19047.675
568.7464	19220.475
572.7752	19623.775
576.80114	20021.675
580.82422	20466.975
584.84444	20909.075
588.86181	21536.375
592.87633	21958.675
596.888	21786.275
600.89682	21141.675
604.9028	20917.675
608.90594	21652.675
612.90624	22536.475
616.90371	21548.775
620.89834	19332.175
624.89015	18396.675
628.87913	18364.475
632.86528	18508.875
636.84862	18535.975
640.82913	18328.775
644.80683	18118.375
648.78172	17963.975
652.75379	17955.975
656.72306	18051.875
660.68952	18226.675
664.65319	18133.975
668.61405	17950.775
672.57211	17916.675
676.52738	18004.475
680.47986	18022.275
684.42955	18006.475
688.37646	17925.575
692.32058	17935.075
696.26192	18109.875
700.20048	18284.675
704.13626	18400.875
708.06928	18451.475
711.99952	18407.675
715.927	18407.875
719.85171	18373.375
723.77365	18349.775
727.69284	18179.375
731.60928	18078.175
735.52295	17950.775
739.43388	17937.875
743.34206	17978.075
747.24749	18040.775
751.15017	18178.675
755.05012	18409.575
758.94733	18732.075
762.8418	19270.275
766.73354	20101.675
770.62254	20854.175
774.50882	21009.075
778.39237	20439.175
782.27321	19519.875
786.15132	18732.475
790.02671	18292.675
793.89938	18024.275
797.76935	17926.175
801.6366	17893.575
805.50115	17873.275
809.36299	17823.975
813.22213	17728.775
817.07857	17745.875
820.93231	17670.275
824.78336	17630.275
828.63172	17571.575
832.47738	17556.775
836.32036	17508.875
840.16066	17521.475
843.99827	17536.875
847.8332	17552.475
851.66546	17572.175
855.49504	17596.475
859.32195	17574.475
863.1462	17563.375
866.96777	17527.075
870.78668	17533.575
874.60293	17489.775
878.41652	17562.875
882.22745	17594.475
886.03573	17606.175
889.84136	17606.175
893.64433	17596.975
897.44466	17550.875
901.24235	17497.675
905.0374	17436.575
908.8298	17451.275
912.61957	17461.775
916.40671	17559.475
920.19121	17691.775
923.97308	17808.175
927.75233	17733.875
931.52895	17633.675
935.30295	17446.075
939.07433	17261.275
942.84309	17073.475
946.60924	17006.975
950.37278	16940.275
954.13371	16924.575
957.89203	16918.675
961.64774	16926.575
965.40086	16885.375
969.15137	16852.875
972.89929	16802.075
976.64461	16758.875
980.38733	16745.775
984.12747	16726.075
987.86502	16781.975
991.59999	16841.575
995.33237	16926.975
999.06217	17043.275
1002.78939	17238.175
1006.51404	17409.675
1010.23611	17568.475
1013.95561	17740.475
1017.67255	17758.875
1021.38692	17733.675
1025.09872	17545.675
1028.80796	17353.175
1032.51465	17333.075
1036.21877	17329.475
1039.92035	17338.475
1043.61937	17413.975
1047.31584	17455.175
1051.00976	17473.575
1054.70114	17567.475
1058.38998	17642.175
1062.07627	17766.975
1065.76003	17950.275
1069.44126	18056.975
1073.11995	18235.075
1076.79611	18379.975
1080.46974	18452.275
1084.14085	18464.675
1087.80943	18554.975
1091.47549	18688.475
1095.13903	18734.275
1098.80005	18603.475
1102.45857	18321.775
1106.11456	18072.075
1109.76805	17950.775
1113.41903	17948.575
1117.06751	18008.175
1120.71348	18126.975
1124.35696	18280.875
1127.99793	18481.775
1131.63641	18615.275
1135.2724	18530.475
1138.90589	18417.975
1142.5369	18441.475
1146.16542	18525.975
1149.79145	18632.575
1153.415	18738.275
1157.03607	18900.375
1160.65467	19247.775
1164.27079	19861.675
1167.88443	20581.375
1171.49561	21334.075
1175.10432	22184.175
1178.71056	23273.175
1182.31434	24309.275
1185.91565	24880.575
1189.51451	24862.675
1193.11091	24496.875
1196.70485	23907.475
1200.29634	23311.575
1203.88538	22872.575
1207.47197	22706.775
1211.05612	22468.275
1214.63782	22102.475
1218.21708	21602.575
1221.79391	21106.575
1225.36829	20737.075
1228.94024	20527.275
1232.50976	20384.975
1236.07685	20252.075
1239.6415	20156.775
1243.20374	20208.675
1246.76355	20317.675
1250.32093	20492.675
1253.8759	20733.975
1257.42845	21108.875
1260.97859	21526.675
1264.52631	21944.075
1268.07163	22334.275
1271.61453	22712.475
1275.15503	23093.275
1278.69312	23511.375
1282.22882	24038.575
1285.76211	24671.875
1289.29301	25476.775
1292.82151	26406.875
1296.34761	27541.775
1299.87133	28829.075
1303.39266	30022.375
1306.9116	30988.375
1310.42815	31688.575
1313.94233	31987.775
1317.45412	31830.775
1320.96354	31481.575
1324.47058	31149.375
1327.97525	30904.075
1331.47754	30720.475
1334.97747	30579.275
1338.47502	30379.675
1341.97022	30167.975
1345.46305	29939.475
1348.95352	29757.975
1352.44163	29799.375
1355.92738	30189.175
1359.41078	30897.475
1362.89183	31461.775
1366.37053	30867.375
1369.84688	29010.675
1373.32088	26638.375
1376.79254	25026.175
1380.26186	24446.475
1383.72883	24556.175
1387.19347	24554.875
1390.65578	24417.075
1394.11575	24349.375
1397.57339	24448.675
1401.0287	24673.875
1404.48168	24885.375
1407.93234	24792.275
1411.38068	24253.275
1414.82669	23596.575
1418.27039	22778.575
1421.71177	22005.275
1425.15083	21405.175
1428.58758	21160.175
1432.02203	21272.575
1435.45416	21698.275
1438.88399	22156.575
1442.31151	22497.375
1445.73673	22781.475
1449.15965	22910.275
1452.58027	22970.175
1455.9986	22987.875
1459.41463	23097.675
1462.82837	23315.375
1466.23982	23564.175
1469.64898	23843.675
1473.05586	24009.675
1476.46045	23996.175
1479.86276	23892.875
1483.26279	23678.875
1486.66054	23568.975
1490.05602	23636.975
1493.44922	23797.775
1496.84016	24083.675
1500.22882	24570.575
1503.61521	25182.475
1506.99934	25866.475
1510.38121	26411.975
1513.76081	26518.975
1517.13816	26133.275
1520.51324	25639.975
1523.88607	25253.675
1527.25665	25185.075
1530.62498	25129.175
1533.99105	25031.975
1537.35488	24801.275
1540.71647	24350.275
1544.07581	23829.575
1547.4329	23248.875
1550.78776	22814.375
1554.14038	22466.275
1557.49077	22254.175
1560.83892	22170.075
1564.18484	22133.675
1567.52853	22207.375
1570.86999	22369.975
1574.20922	22758.775
1577.54624	23083.075
1580.88103	23257.175
1584.2136	23384.575
1587.54395	23820.375
1590.87208	24522.275
1594.19801	25440.775
1597.52172	26362.575
1600.84321	26511.775
1604.16251	25625.275
1607.47959	24156.775
1610.79447	22667.775
1614.10715	21213.075
1617.41763	20071.275
1620.7259	19275.475
1624.03199	18854.375
1627.33587	18791.875
1630.63757	19203.275
1633.93707	20005.675
1637.23439	21444.475
1640.52951	23585.175
1643.82246	26064.875
1647.11321	27972.875
1650.40179	28284.775
1653.68819	26533.675
1656.97241	23731.775
1660.25446	21025.675
1663.53433	19024.875
1666.81203	17747.375
1670.08756	16929.175
1673.36092	16398.375
1676.63211	16029.675
1679.90115	15794.175
1683.16801	15623.775
1686.43272	15495.675
1689.69527	15354.275
1692.95567	15292.575
1696.2139	15267.575
1699.46999	15214.675
1702.72392	15192.775
1705.97571	15124.875
1709.22535	15060.975
1712.47284	15041.875
1715.71819	15028.275
1718.96139	15006.875
1722.20246	14960.175
1725.44139	14948.475
1728.67818	14823.375
1731.91284	14780.075
1735.14537	14719.475
1738.37576	14682.075
1741.60403	14634.975
1744.83017	14605.775
1748.05418	14553.775
1751.27607	14519.775
1754.49584	14542.775
1757.71349	14518.975
1760.92903	14511.375
1764.14244	14503.975
1767.35375	14477.275
1770.56294	14425.275
1773.77002	14412.275
1776.97499	14378.675
1780.17785	14353.775
1783.37861	14320.275
1786.57727	14298.175
1789.77382	14219.175
1792.96828	14247.175
1796.16064	14199.375
1799.3509	14170.575
1802.53907	14150.175
1805.72514	14128.575
1808.90913	14097.075
1812.09102	14060.275
1815.27083	14025.175
1818.44856	14005.875
1821.6242	13993.975
1824.79776	13952.675
1827.96924	13956.875
1831.13864	13937.575
1834.30597	13928.675
1837.47122	13887.075
1840.6344	13922.575
1843.7955	13918.775
1846.95454	13886.875
1850.11151	13851.975
1853.26642	13854.275
1856.41926	13831.275
1859.57004	13866.175
1862.71876	13805.775
1865.86542	13776.075
1869.01003	13760.475
1872.15258	13762.975
1875.29308	13757.975
1878.43152	13726.775
1881.56792	13709.475
1884.70227	13701.875
1887.83457	13684.075
1890.96482	13638.275
1894.09304	13606.075
1897.21921	13605.975
1900.34335	13586.075
1903.46544	13559.675
1906.58551	13523.675
1909.70353	13527.875
1912.81953	13522.575
1915.93349	13502.675
1919.04543	13448.175
1922.15534	13399.975
1925.26322	13380.575
1928.36908	13358.475
1931.47292	13359.075
1934.57473	13314.475
1937.67453	13290.075
1940.77232	13254.075
1943.86808	13233.375
1946.96184	13185.575
1950.05358	13133.275
1953.14331	13108.075
1956.23103	13035.775
1959.31675	13017.675
1962.40046	12992.775
1965.48217	12943.575
1968.56188	12893.475
1971.63959	12853.875
1974.7153	12815.975
1977.78901	12773.475
1980.86073	12725.075
1983.93046	12735.675
1986.99819	12670.975
1990.06394	12645.775
1993.1277	12616.075
1996.18947	12576.575
1999.24925	12542.975
2002.30706	12504.975
2005.36288	12449.075
2008.41672	12400.475
2011.46859	12369.675
2014.51848	12344.275
2017.56639	12321.975
2020.61233	12290.775
2023.6563	12263.875
2026.6983	12231.675
2029.73833	12174.775
2032.7764	12153.375
2035.8125	12142.075
2038.84664	12107.475
2041.87881	12058.175
2044.90903	12034.775
2047.93729	12003.975
2050.96359	11973.075
2053.98794	11985.375
2057.01034	11982.675
2060.03078	11962.975
2063.04927	11955.375
2066.06582	11961.675
2069.08042	11981.475
2072.09307	11923.875
2075.10378	11908.875
2078.11255	11922.675
2081.11938	11912.575
2084.12426	11885.075
2087.12722	11895.175
2090.12824	11879.275
2093.12732	11873.175
2096.12447	11854.275
2099.11969	11870.675
2102.11299	11868.675
2105.10435	11857.675
2108.09379	11858.575
2111.08131	11868.875
2114.0669	11865.175
2117.05057	11870.475
2120.03233	11898.675
2123.01216	11910.875
2125.99008	11892.275
2128.96609	11904.575
2131.94018	11919.175
2134.91236	11949.475
2137.88263	11927.675
2140.851	11951.875
2143.81746	11926.575
2146.78201	11902.275
2149.74466	11904.375
2152.7054	11920.175
2155.66425	11938.975
2158.6212	11924.375
2161.57625	11924.175
2164.52941	11895.975
2167.48067	11883.275
2170.43004	11890.575
2173.37752	11858.975
2176.32311	11902.675
2179.26681	11892.175
2182.20863	11896.075
2185.14856	11883.175
2188.08661	11867.575
2191.02278	11876.175
2193.95707	11874.975
2196.88948	11854.075
2199.82001	11862.175
2202.74867	11813.375
2205.67545	11797.675
2208.60037	11792.375
2211.52341	11756.275
2214.44458	11743.475
2217.36388	11716.475
2220.28132	11696.975
2223.1969	11661.875
2226.11061	11658.775
2229.02246	11612.775
2231.93245	11614.375
2234.84058	11606.275
2237.74686	11560.075
2240.65128	11576.875
2243.55385	11528.875
2246.45456	11510.875
2249.35343	11477.075
2252.25044	11467.775
2255.14561	11472.675
2258.03893	11427.675
2260.93041	11405.575
2263.82004	11379.075
2266.70783	11351.975
2269.59378	11310.775
2272.4779	11277.075
2275.36017	11248.975
2278.24061	11239.575
2281.11922	11214.675
2283.996	11215.875
2286.87094	11191.375
2289.74405	11163.475
2292.61534	11177.375
2295.4848	11175.675
2298.35243	11184.675
2301.21824	11144.575
2304.08223	11153.075
2306.94439	11141.275
2309.80474	11099.575
2312.66327	11131.375
2315.51999	11118.975
2318.37489	11062.075
2321.22797	11035.775
2324.07925	11045.675
2326.92871	11000.875
2329.77637	11002.075
2332.62222	10978.975
2335.46626	10963.475
2338.3085	10935.975
2341.14893	10959.175
2343.98756	10929.675
2346.8244	10921.375
2349.65943	10932.775
2352.49267	10915.475
2355.32411	10885.475
2358.15376	10906.775
2360.98161	10904.075
2363.80768	10873.275
2366.63195	10884.275
2369.45444	10850.075
2372.27514	10840.975
2375.09405	10856.375
2377.91118	10842.475
2380.72652	10794.575
2383.54009	10768.875
2386.35187	10730.775
2389.16188	10700.575
2391.97011	10705.575
2394.77657	10666.975
2397.58125	10597.375
2400.38416	10638.475
2403.18529	10624.875
2405.98466	10610.475
2408.78226	10583.375
2411.57809	10551.575
2414.37216	10536.075
2417.16446	10527.075
2419.955	10517.975
2422.74378	10527.975
2425.5308	10502.775
2428.31606	10498.075
2431.09956	10484.875
2433.88131	10483.775
2436.6613	10478.575
2439.43954	10461.975
2442.21603	10451.375
2444.99077	10455.375
2447.76377	10460.475
2450.53501	10445.375
2453.30451	10415.475
2456.07226	10380.175
2458.83827	10421.775
2461.60254	10397.475
2464.36507	10391.075
2467.12586	10369.375
2469.88492	10357.275
2472.64224	10354.575
2475.39782	10332.075
2478.15167	10323.275
2480.90379	10318.075
2483.65417	10345.475
2486.40283	10340.875
2489.14976	10325.675
2491.89497	10331.875
2494.63845	10320.875
2497.3802	10302.375
2500.12024	10295.775
2502.85855	10305.175
2505.59514	10271.875
2508.33002	10266.775
2511.06318	10250.375
2513.79462	10221.275
2516.52435	10205.275
2519.25237	10197.975
2521.97867	10176.275
2524.70327	10180.975
2527.42616	10190.975
2530.14734	10159.675
2532.86681	10151.275
2535.58458	10178.975
2538.30065	10150.975
2541.01501	10148.375
2543.72768	10141.675
2546.43864	10106.075
2549.14791	10083.675
2551.85548	10095.575
2554.56136	10070.475
2557.26554	10035.275
2559.96803	10007.775
2562.66883	9990.775
2565.36794	9978.975
2568.06536	9957.475
2570.7611	9945.475
2573.45514	9932.775
2576.14751	9911.475
2578.83819	9896.575
2581.52719	9874.975
2584.21451	9875.075
2586.90015	9868.775
2589.58411	9839.575
2592.2664	9833.375
2594.94701	9792.875
2597.62594	9826.875
2600.30321	9809.675
2602.9788	9774.175
2605.65273	9721.875
2608.32498	9741.875
2610.99557	9728.875
2613.66449	9741.175
2616.33175	9714.475
2618.99734	9721.675
2621.66128	9671.575
2624.32355	9685.375
2626.98416	9667.875
2629.64311	9686.575
2632.30041	9630.975
2634.95605	9623.975
2637.61004	9606.475
2640.26238	9571.875
2642.91306	9604.075
2645.56209	9592.275
2648.20948	9598.875
2650.85521	9578.075
2653.4993	9615.275
2656.14175	9589.175
2658.78255	9566.875
2661.42171	9605.775
2664.05923	9602.375
2666.6951	9588.675
2669.32934	9624.175
2671.96194	9607.975
2674.59291	9564.675
2677.22224	9582.375
2679.84993	9574.475
2682.476	9591.175
2685.10043	9575.075
2687.72324	9559.775
2690.34441	9578.275
2692.96396	9576.675
2695.58188	9539.775
2698.19818	9541.475
2700.81285	9575.375
2703.4259	9547.775
2706.03733	9559.275
2708.64714	9552.775
2711.25533	9549.575
2713.86191	9552.275
2716.46687	9541.475
2719.07021	9554.275
2721.67194	9553.475
2724.27206	9550.275
2726.87057	9557.575
2729.46747	9581.875
2732.06276	9559.375
2734.65644	9567.675
2737.24852	9573.075
2739.83899	9550.575
2742.42786	9531.275
2745.01513	9506.075
2747.60079	9501.675
2750.18486	9484.875
2752.76733	9460.175
2755.3482	9454.875
2757.92747	9462.975
2760.50515	9420.875
2763.08123	9412.075
2765.65573	9432.075
2768.22863	9416.375
2770.79994	9391.875
2773.36967	9387.875
2775.9378	9368.775
2778.50435	9368.275
2781.06932	9370.475
2783.6327	9347.275
2786.1945	9362.975
2788.75471	9348.575
2791.31335	9322.775
2793.87041	9297.075
2796.42589	9278.975
2798.97979	9285.175
2801.53212	9245.475
2804.08288	9257.975
2806.63206	9229.575
2809.17967	9193.475
2811.72571	9160.875
2814.27018	9153.675
2816.81308	9135.775
2819.35442	9123.875
2821.89419	9085.275
2824.43239	9114.175
2826.96904	9051.675
2829.50412	9041.975
2832.03763	9046.475
2834.56959	9043.375
2837.1	9031.675
2839.62884	9027.975
2842.15613	9044.375
2844.68186	9071.075
2847.20604	9094.075
2849.72867	9105.075
2852.24974	9090.875
2854.76927	9073.575
2857.28724	9061.175
2859.80367	9026.875
2862.31855	9018.175
2864.83189	8983.275
2867.34368	8966.475
2869.85393	8938.875
2872.36264	8944.775
2874.8698	8960.475
2877.37543	8941.275
2879.87952	8947.775
2882.38207	8936.775
2884.88308	8917.375
2887.38256	8943.175
2889.88051	8945.775
2892.37692	8916.275
2894.8718	8931.675
2897.36515	8924.275
2899.85698	8927.975
2902.34727	8978.175
2904.83604	8954.175
2907.32328	8951.575
2909.809	8936.375
2912.29319	8943.175
2914.77587	8948.075
2917.25702	8932.275
2919.73665	8923.275
2922.21476	8928.075
2924.69136	8924.875
2927.16644	8907.675
2929.64	8900.875
2932.11205	8899.775
2934.58258	8878.375
2937.05161	8891.375
2939.51912	8888.375
2941.98513	8886.075
2944.44962	8853.575
2946.91261	8822.675
2949.37409	8837.975
2951.83407	8824.875
2954.29254	8824.375
2956.74951	8789.975
2959.20498	8787.775
2961.65895	8781.475
2964.11142	8772.675
2966.56239	8771.775
2969.01186	8765.475
2971.45984	8735.675
2973.90632	8718.975
2976.35131	8709.275
2978.7948	8701.075
2981.23681	8634.075
2983.67732	8646.175
2986.11635	8623.175
2988.55388	8611.275
2990.98993	8573.875
2993.4245	8567.575
2995.85758	8546.175
2998.28917	8529.175
3000.71928	8493.975
3003.14791	8502.775
3005.57506	8484.275
3008.00073	8477.475
3010.42493	8449.975
3012.84764	8451.675
3015.26888	8428.375
3017.68865	8417.275
3020.10694	8411.375
3022.52376	8364.275
3024.9391	8363.075
3027.35298	8365.075
3029.76539	8347.175
3032.17632	8354.675
3034.5858	8352.375
3036.9938	8335.475
3039.40034	8336.875
3041.80542	8316.775
3044.20903	8310.075
3046.61118	8294.075
3049.01187	8294.175
3051.4111	8259.875
3053.80888	8252.175
3056.20519	8241.775
3058.60005	8225.775
3060.99345	8182.575
3063.3854	8190.575
3065.7759	8148.575
3068.16494	8132.975
3070.55254	8144.675
3072.93868	8114.275
3075.32338	8105.375
3077.70662	8087.575
3080.08842	8077.575
3082.46878	8056.675
3084.84769	8041.975
3087.22515	8043.475
3089.60118	8042.175
3091.97576	8012.475
3094.3489	8022.875
3096.72061	8029.975
3099.09087	8039.075
3101.4597	8026.975
3103.82709	8017.075
3106.19305	7994.175
3108.55757	8011.875
3110.92066	7976.575
3113.28232	7991.175
3115.64255	7970.675
3118.00134	7935.875
3120.35871	7924.975
3122.71466	7915.675
3125.06917	7895.075
3127.42226	7881.375
3129.77393	7884.675
3132.12417	7855.075
3134.47299	7888.575
3136.82039	7857.975
3139.16636	7868.575
3141.51092	7865.475
3143.85406	7880.375
3146.19579	7866.175
3148.53609	7862.575
3150.87499	7848.175
3153.21246	7880.475
3155.54853	7894.975
