Data from AgNP_FTO_APTES_UA_10uM_CRN_1uM_R6G_10uM_NaF_0.1M_Addition_RamanShift__30__13-27-40-536.txt Node

Date: Thu Feb 10 13:27:40 GMT 2022
User: TCL
Spectrometer: QEP01345
Trigger mode: 4
Integration Time (sec): 7.000000E0
Scans to average: 10
Electric dark correction enabled: true
Nonlinearity correction enabled: false
Boxcar width: 0
XAxis mode: Raman Shifts
Number of Pixels in Spectrum: 1044
>>>>>Begin Spectral Data<<<<<
46.04893	-0.225
50.45542	0.875
54.85868	-0.625
59.25871	-1.425
63.6555	45.475
68.04907	48.975
72.43941	54.875
76.82654	49.675
81.21044	56.375
85.59113	57.975
89.96862	61.475
94.34289	64.175
98.71396	65.275
103.08183	67.375
107.4465	71.775
111.80798	68.875
116.16626	72.675
120.52136	73.675
124.87327	74.375
129.222	77.475
133.56755	83.175
137.90993	84.075
142.24913	88.875
146.58517	99.675
150.91804	113.475
155.24774	133.475
159.57429	162.275
163.89768	203.475
168.21792	267.775
172.53501	355.975
176.84895	493.475
181.15975	689.475
185.46741	947.875
189.77193	1308.275
194.07331	1737.675
198.37157	2246.775
202.6667	2779.175
206.9587	3313.175
211.24758	3846.575
215.53334	4394.775
219.81599	5058.375
224.09553	5776.075
228.37195	6586.575
232.64527	7464.775
236.91549	8322.575
241.18261	9064.975
245.44663	9676.475
249.70755	10100.975
253.96539	10461.075
258.22014	10778.575
262.4718	11127.875
266.72039	11395.075
270.96589	11574.975
275.20832	11616.275
279.44768	11483.275
283.68397	11319.275
287.91719	11249.375
292.14735	11324.575
296.37445	11592.875
300.59849	12147.475
304.81948	12788.275
309.03742	13275.275
313.25231	13240.875
317.46415	12540.275
321.67296	11366.975
325.87872	10406.575
330.08145	9933.675
334.28114	9902.775
338.47781	10100.975
342.67145	10447.175
346.86207	11017.275
351.04966	11807.275
355.23424	12736.675
359.4158	13467.875
363.59435	13769.975
367.76989	13779.875
371.94243	13650.775
376.11196	13511.975
380.27849	13391.675
384.44203	13163.075
388.60257	12925.275
392.76012	12773.175
396.91468	12928.975
401.06626	13360.275
405.21485	13640.475
409.36047	13349.075
413.50311	12492.575
417.64277	11724.775
421.77947	11281.075
425.9132	11083.075
430.04396	11060.675
434.17176	11108.475
438.2966	11267.675
442.41849	11581.075
446.53742	12008.375
450.6534	12381.475
454.76644	12628.275
458.87653	12619.975
462.98368	12459.575
467.08789	12180.475
471.18916	11839.575
475.2875	11469.275
479.38291	11169.375
483.4754	10951.075
487.56496	10776.875
491.6516	10642.475
495.73531	10614.175
499.81612	10675.775
503.89401	10819.375
507.96899	10999.175
512.04106	11209.475
516.11023	11442.475
520.1765	11554.175
524.23987	11521.775
528.30034	11259.275
532.35792	10917.775
536.41261	10584.975
540.46441	10255.375
544.51333	10134.075
548.55936	10190.875
552.60252	10497.675
556.64279	10865.475
560.6802	11026.875
564.71473	11270.775
568.7464	11909.275
572.7752	12348.975
576.80114	12007.275
580.82422	11516.975
584.84444	11302.575
588.86181	11223.975
592.87633	11228.375
596.888	11377.275
600.89682	11842.575
604.9028	13504.775
608.90594	18032.375
612.90624	24269.375
616.90371	23343.175
620.89834	15321.275
624.89015	11541.375
628.87913	10822.075
632.86528	10888.375
636.84862	11109.675
640.82913	10914.575
644.80683	10293.075
648.78172	9884.575
652.75379	9959.975
656.72306	10527.075
660.68952	11257.075
664.65319	11141.175
668.61405	10402.575
672.57211	10001.075
676.52738	9955.575
680.47986	9917.375
684.42955	9846.675
688.37646	9801.175
692.32058	9821.675
696.26192	9969.675
700.20048	10174.975
704.13626	10314.275
708.06928	10329.775
711.99952	10202.275
715.927	10125.175
719.85171	10145.275
723.77365	10127.375
727.69284	9982.475
731.60928	9861.775
735.52295	9837.175
739.43388	9891.275
743.34206	9987.275
747.24749	10048.575
751.15017	10181.575
755.05012	10443.175
758.94733	11097.175
762.8418	12583.675
766.73354	15137.575
770.62254	17887.475
774.50882	19228.975
778.39237	18348.075
782.27321	15544.675
786.15132	12755.075
790.02671	11158.675
793.89938	10465.375
797.76935	10158.475
801.6366	10010.175
805.50115	9935.675
809.36299	9861.075
813.22213	9789.175
817.07857	9765.975
820.93231	9750.175
824.78336	9801.875
828.63172	9852.375
832.47738	9888.075
836.32036	9873.175
840.16066	9821.175
843.99827	9744.775
847.8332	9684.475
851.66546	9671.275
855.49504	9657.675
859.32195	9664.175
863.1462	9578.375
866.96777	9516.875
870.78668	9524.775
874.60293	9564.475
878.41652	9595.075
882.22745	9672.075
886.03573	9722.175
889.84136	9683.475
893.64433	9604.075
897.44466	9581.675
901.24235	9595.875
905.0374	9590.975
908.8298	9537.975
912.61957	9515.475
916.40671	9571.775
920.19121	9690.575
923.97308	9822.775
927.75233	9972.975
931.52895	10104.775
935.30295	9964.075
939.07433	9574.475
942.84309	9259.975
946.60924	9100.575
950.37278	8997.875
954.13371	8945.675
957.89203	8888.575
961.64774	8865.475
965.40086	8845.875
969.15137	8812.075
972.89929	8804.775
976.64461	8784.475
980.38733	8790.175
984.12747	8808.075
987.86502	8872.775
991.59999	8923.075
995.33237	9089.975
999.06217	9345.075
1002.78939	9687.675
1006.51404	10031.175
1010.23611	10298.075
1013.95561	10496.775
1017.67255	10462.175
1021.38692	10245.575
1025.09872	10021.275
1028.80796	9891.375
1032.51465	10015.575
1036.21877	10201.475
1039.92035	10277.875
1043.61937	10307.375
1047.31584	10218.675
1051.00976	10099.075
1054.70114	10025.075
1058.38998	9998.975
1062.07627	10039.275
1065.76003	10109.575
1069.44126	10206.575
1073.11995	10367.475
1076.79611	10526.075
1080.46974	10741.575
1084.14085	11058.375
1087.80943	11475.475
1091.47549	11623.475
1095.13903	11337.375
1098.80005	10819.675
1102.45857	10382.875
1106.11456	10229.375
1109.76805	10270.475
1113.41903	10551.075
1117.06751	10959.275
1120.71348	11520.175
1124.35696	12155.875
1127.99793	12689.475
1131.63641	12634.975
1135.2724	11946.275
1138.90589	11285.675
1142.5369	10885.975
1146.16542	10627.475
1149.79145	10463.175
1153.415	10498.875
1157.03607	10588.375
1160.65467	10874.775
1164.27079	11388.375
1167.88443	12070.475
1171.49561	13331.275
1175.10432	15369.675
1178.71056	18066.175
1182.31434	19974.175
1185.91565	20441.575
1189.51451	19862.675
1193.11091	18393.175
1196.70485	16621.075
1200.29634	15334.175
1203.88538	14366.675
1207.47197	13311.775
1211.05612	12453.175
1214.63782	11972.475
1218.21708	11818.475
1221.79391	11911.175
1225.36829	12042.975
1228.94024	12172.075
1232.50976	12271.475
1236.07685	12304.075
1239.6415	12304.875
1243.20374	12282.575
1246.76355	12297.975
1250.32093	12463.675
1253.8759	12770.875
1257.42845	13302.375
1260.97859	13834.475
1264.52631	14354.275
1268.07163	14827.475
1271.61453	15319.075
1275.15503	15704.175
1278.69312	15872.175
1282.22882	15973.975
1285.76211	16384.675
1289.29301	16954.375
1292.82151	17557.175
1296.34761	18172.975
1299.87133	19092.675
1303.39266	20714.675
1306.9116	23385.975
1310.42815	26448.475
1313.94233	28481.475
1317.45412	28162.175
1320.96354	26293.175
1324.47058	23995.775
1327.97525	22032.675
1331.47754	20802.075
1334.97747	20264.475
1338.47502	20296.175
1341.97022	20672.075
1345.46305	21375.275
1348.95352	22533.675
1352.44163	24249.975
1355.92738	26767.875
1359.41078	30939.875
1362.89183	34876.375
1366.37053	33926.675
1369.84688	28484.175
1373.32088	23111.675
1376.79254	19659.675
1380.26186	17954.275
1383.72883	17066.175
1387.19347	16377.075
1390.65578	15677.975
1394.11575	15125.375
1397.57339	14870.275
1401.0287	14955.275
1404.48168	15238.875
1407.93234	15610.975
1411.38068	15859.475
1414.82669	15832.275
1418.27039	15529.275
1421.71177	15079.075
1425.15083	14662.075
1428.58758	14425.275
1432.02203	14452.475
1435.45416	14595.875
1438.88399	14656.375
1442.31151	14674.575
1445.73673	14743.275
1449.15965	14859.475
1452.58027	14851.375
1455.9986	14699.975
1459.41463	14628.275
1462.82837	14781.475
1466.23982	15094.175
1469.64898	15425.475
1473.05586	15668.775
1476.46045	15857.275
1479.86276	16127.875
1483.26279	16544.875
1486.66054	17065.875
1490.05602	17742.375
1493.44922	18698.475
1496.84016	20065.375
1500.22882	22120.175
1503.61521	24940.475
1506.99934	28169.675
1510.38121	31223.875
1513.76081	32761.675
1517.13816	31293.975
1520.51324	27383.475
1523.88607	23265.875
1527.25665	20439.875
1530.62498	18734.975
1533.99105	17695.875
1537.35488	17068.175
1540.71647	16655.275
1544.07581	16438.175
1547.4329	16290.675
1550.78776	16150.275
1554.14038	16069.775
1557.49077	16241.175
1560.83892	16524.675
1564.18484	17045.475
1567.52853	17600.975
1570.86999	18075.775
1574.20922	18308.075
1577.54624	18175.475
1580.88103	17255.975
1584.2136	16039.475
1587.54395	15511.875
1590.87208	15871.575
1594.19801	17004.975
1597.52172	18456.275
1600.84321	19047.875
1604.16251	18319.375
1607.47959	16893.775
1610.79447	15334.075
1614.10715	13865.375
1617.41763	12765.275
1620.7259	12097.475
1624.03199	11817.175
1627.33587	11877.875
1630.63757	12252.475
1633.93707	13056.175
1637.23439	14215.775
1640.52951	15796.975
1643.82246	17899.075
1647.11321	20263.375
1650.40179	22012.675
1653.68819	21456.975
1656.97241	18467.975
1660.25446	14996.875
1663.53433	12512.375
1666.81203	11091.775
1670.08756	10264.475
1673.36092	9767.375
1676.63211	9461.475
1679.90115	9258.875
1683.16801	9090.375
1686.43272	8978.375
1689.69527	8903.775
1692.95567	8842.375
1696.2139	8805.075
1699.46999	8803.475
1702.72392	8798.275
1705.97571	8759.775
1709.22535	8725.875
1712.47284	8733.975
1715.71819	8750.375
1718.96139	8761.075
1722.20246	8701.575
1725.44139	8674.075
1728.67818	8590.175
1731.91284	8512.475
1735.14537	8432.475
1738.37576	8379.475
1741.60403	8359.575
1744.83017	8304.475
1748.05418	8287.875
1751.27607	8259.775
1754.49584	8249.375
1757.71349	8231.175
1760.92903	8228.175
1764.14244	8242.675
1767.35375	8226.075
1770.56294	8197.975
1773.77002	8167.875
1776.97499	8125.675
1780.17785	8101.075
1783.37861	8083.875
1786.57727	8048.475
1789.77382	8029.975
1792.96828	8030.875
1796.16064	8022.475
1799.3509	8016.275
1802.53907	8011.375
1805.72514	7970.475
1808.90913	7945.775
1812.09102	7918.475
1815.27083	7927.575
1818.44856	7874.975
1821.6242	7886.275
1824.79776	7833.675
1827.96924	7837.975
1831.13864	7835.275
1834.30597	7852.875
1837.47122	7829.375
1840.6344	7826.275
1843.7955	7816.075
1846.95454	7792.375
1850.11151	7804.875
1853.26642	7820.075
1856.41926	7807.775
1859.57004	7831.675
1862.71876	7830.175
1865.86542	7863.875
1869.01003	7866.375
1872.15258	7852.975
1875.29308	7877.975
1878.43152	7890.875
1881.56792	7914.275
1884.70227	7913.975
1887.83457	7927.275
1890.96482	7943.475
1894.09304	7915.275
1897.21921	7921.975
1900.34335	7929.275
1903.46544	7933.975
1906.58551	7942.675
1909.70353	7953.675
1912.81953	7948.275
1915.93349	7961.375
1919.04543	7952.975
1922.15534	7936.375
1925.26322	7914.775
1928.36908	7883.875
1931.47292	7847.575
1934.57473	7804.675
1937.67453	7749.575
1940.77232	7714.275
1943.86808	7652.375
1946.96184	7587.375
1950.05358	7545.775
1953.14331	7526.875
1956.23103	7471.775
1959.31675	7447.875
1962.40046	7425.775
1965.48217	7409.475
1968.56188	7400.275
1971.63959	7364.275
1974.7153	7333.075
1977.78901	7323.175
1980.86073	7278.675
1983.93046	7262.775
1986.99819	7208.875
1990.06394	7201.075
1993.1277	7164.975
1996.18947	7150.775
1999.24925	7127.875
2002.30706	7107.175
2005.36288	7094.675
2008.41672	7075.175
2011.46859	7027.175
2014.51848	7006.575
2017.56639	7021.475
2020.61233	6988.875
2023.6563	6983.175
2026.6983	6938.175
2029.73833	6903.375
2032.7764	6897.875
2035.8125	6901.075
2038.84664	6867.375
2041.87881	6851.275
2044.90903	6847.575
2047.93729	6847.775
2050.96359	6838.775
2053.98794	6811.275
2057.01034	6801.975
2060.03078	6782.375
2063.04927	6771.975
2066.06582	6782.475
2069.08042	6769.675
2072.09307	6744.375
2075.10378	6740.375
2078.11255	6763.875
2081.11938	6748.575
2084.12426	6740.475
2087.12722	6721.675
2090.12824	6718.075
2093.12732	6726.275
2096.12447	6724.075
2099.11969	6706.075
2102.11299	6710.175
2105.10435	6713.875
2108.09379	6716.575
2111.08131	6722.275
2114.0669	6718.775
2117.05057	6710.275
2120.03233	6724.775
2123.01216	6731.875
2125.99008	6725.075
2128.96609	6732.375
2131.94018	6744.675
2134.91236	6743.175
2137.88263	6743.675
2140.851	6736.975
2143.81746	6739.575
2146.78201	6735.675
2149.74466	6727.375
2152.7054	6716.075
2155.66425	6709.075
2158.6212	6700.175
2161.57625	6679.275
2164.52941	6684.675
2167.48067	6664.675
2170.43004	6683.375
2173.37752	6686.175
2176.32311	6678.375
2179.26681	6684.375
2182.20863	6665.975
2185.14856	6681.875
2188.08661	6675.275
2191.02278	6674.275
2193.95707	6675.475
2196.88948	6665.275
2199.82001	6657.575
2202.74867	6657.775
2205.67545	6650.675
2208.60037	6637.875
2211.52341	6626.875
2214.44458	6619.775
2217.36388	6589.175
2220.28132	6600.075
2223.1969	6553.175
2226.11061	6569.575
2229.02246	6543.375
2231.93245	6543.175
2234.84058	6500.575
2237.74686	6485.775
2240.65128	6490.275
2243.55385	6475.475
2246.45456	6471.075
2249.35343	6469.775
2252.25044	6464.775
2255.14561	6477.575
2258.03893	6478.175
2260.93041	6438.775
2263.82004	6442.375
2266.70783	6440.575
2269.59378	6404.475
2272.4779	6385.875
2275.36017	6375.875
2278.24061	6377.975
2281.11922	6362.875
2283.996	6348.975
2286.87094	6344.975
2289.74405	6292.275
2292.61534	6287.875
2295.4848	6279.675
2298.35243	6276.575
2301.21824	6284.075
2304.08223	6273.275
2306.94439	6261.975
2309.80474	6274.275
2312.66327	6264.075
2315.51999	6259.275
2318.37489	6262.875
2321.22797	6254.375
2324.07925	6255.175
2326.92871	6245.975
2329.77637	6224.975
2332.62222	6256.475
2335.46626	6217.775
2338.3085	6206.875
2341.14893	6224.875
2343.98756	6235.575
2346.8244	6231.975
2349.65943	6238.275
2352.49267	6237.275
2355.32411	6246.475
2358.15376	6274.875
2360.98161	6260.175
2363.80768	6278.775
2366.63195	6293.575
2369.45444	6277.175
2372.27514	6260.475
2375.09405	6279.475
2377.91118	6246.875
2380.72652	6205.575
2383.54009	6170.575
2386.35187	6160.375
2389.16188	6113.075
2391.97011	6086.575
2394.77657	6080.475
2397.58125	6067.375
2400.38416	6053.975
2403.18529	6023.975
2405.98466	6015.975
2408.78226	5987.975
2411.57809	5998.775
2414.37216	5982.575
2417.16446	5979.475
2419.955	5951.175
2422.74378	5976.375
2425.5308	5958.775
2428.31606	5954.475
2431.09956	5960.975
2433.88131	5944.875
2436.6613	5976.375
2439.43954	5957.875
2442.21603	5969.575
2444.99077	5952.375
2447.76377	5937.675
2450.53501	5949.975
2453.30451	5954.875
2456.07226	5955.575
2458.83827	5954.575
2461.60254	5957.575
2464.36507	5936.375
2467.12586	5940.575
2469.88492	5935.175
2472.64224	5934.575
2475.39782	5947.175
2478.15167	5964.275
2480.90379	5965.275
2483.65417	5981.775
2486.40283	6019.575
2489.14976	6013.675
2491.89497	6023.575
2494.63845	6025.675
2497.3802	6017.275
2500.12024	6003.475
2502.85855	5994.675
2505.59514	5974.675
2508.33002	5961.675
2511.06318	5923.975
2513.79462	5915.875
2516.52435	5876.175
2519.25237	5878.275
2521.97867	5845.875
2524.70327	5835.475
2527.42616	5821.075
2530.14734	5832.975
2532.86681	5811.775
2535.58458	5825.175
2538.30065	5813.175
2541.01501	5819.975
2543.72768	5808.975
2546.43864	5830.875
2549.14791	5816.675
2551.85548	5811.075
2554.56136	5826.175
2557.26554	5805.175
2559.96803	5787.975
2562.66883	5769.475
2565.36794	5758.675
2568.06536	5751.975
2570.7611	5749.675
2573.45514	5736.375
2576.14751	5727.075
2578.83819	5708.775
2581.52719	5705.075
2584.21451	5712.775
2586.90015	5706.775
2589.58411	5711.175
2592.2664	5710.375
2594.94701	5700.175
2597.62594	5697.275
2600.30321	5702.775
2602.9788	5693.875
2605.65273	5679.975
2608.32498	5691.375
2610.99557	5687.275
2613.66449	5690.575
2616.33175	5684.575
2618.99734	5689.975
2621.66128	5679.675
2624.32355	5672.875
2626.98416	5661.675
2629.64311	5659.675
2632.30041	5657.475
2634.95605	5641.175
2637.61004	5618.875
2640.26238	5620.375
2642.91306	5617.175
2645.56209	5615.575
2648.20948	5588.675
2650.85521	5598.975
2653.4993	5589.875
2656.14175	5595.375
2658.78255	5597.575
2661.42171	5593.575
2664.05923	5616.775
2666.6951	5626.175
2669.32934	5633.575
2671.96194	5649.175
2674.59291	5653.775
2677.22224	5660.875
2679.84993	5665.075
2682.476	5652.475
2685.10043	5663.675
2687.72324	5653.175
2690.34441	5654.775
2692.96396	5632.375
2695.58188	5621.275
2698.19818	5629.275
2700.81285	5636.175
2703.4259	5624.275
2706.03733	5626.975
2708.64714	5610.175
2711.25533	5647.275
2713.86191	5641.075
2716.46687	5651.675
2719.07021	5658.975
2721.67194	5662.475
2724.27206	5648.975
2726.87057	5657.975
2729.46747	5650.575
2732.06276	5660.575
2734.65644	5659.475
2737.24852	5637.575
2739.83899	5631.475
2742.42786	5634.275
2745.01513	5608.475
2747.60079	5601.975
2750.18486	5611.875
2752.76733	5594.875
2755.3482	5584.075
2757.92747	5598.375
2760.50515	5581.975
2763.08123	5560.775
2765.65573	5575.075
2768.22863	5569.075
2770.79994	5527.175
2773.36967	5548.875
2775.9378	5555.075
2778.50435	5547.875
2781.06932	5551.875
2783.6327	5547.575
2786.1945	5557.175
2788.75471	5547.075
2791.31335	5539.375
2793.87041	5539.475
2796.42589	5522.375
2798.97979	5531.375
2801.53212	5530.375
2804.08288	5510.975
2806.63206	5530.975
2809.17967	5513.675
2811.72571	5497.475
2814.27018	5504.875
2816.81308	5505.575
2819.35442	5497.975
2821.89419	5517.975
2824.43239	5525.575
2826.96904	5527.975
2829.50412	5537.475
2832.03763	5532.775
2834.56959	5535.975
2837.1	5520.675
2839.62884	5541.675
2842.15613	5582.975
2844.68186	5615.175
2847.20604	5658.575
2849.72867	5696.375
2852.24974	5705.475
2854.76927	5699.375
2857.28724	5673.375
2859.80367	5665.975
2862.31855	5635.075
2864.83189	5648.975
2867.34368	5630.975
2869.85393	5628.375
2872.36264	5636.275
2874.8698	5622.975
2877.37543	5597.875
2879.87952	5618.675
2882.38207	5605.375
2884.88308	5596.775
2887.38256	5582.975
2889.88051	5590.275
2892.37692	5584.675
2894.8718	5584.375
2897.36515	5590.275
2899.85698	5580.575
2902.34727	5609.075
2904.83604	5603.475
2907.32328	5613.475
2909.809	5616.375
2912.29319	5615.275
2914.77587	5599.075
2917.25702	5595.175
2919.73665	5598.975
2922.21476	5586.475
2924.69136	5586.475
2927.16644	5581.475
2929.64	5558.375
2932.11205	5543.275
2934.58258	5517.375
2937.05161	5512.875
2939.51912	5489.375
2941.98513	5468.575
2944.44962	5440.475
2946.91261	5389.575
2949.37409	5400.575
2951.83407	5377.275
2954.29254	5358.875
2956.74951	5357.275
2959.20498	5353.875
2961.65895	5340.675
2964.11142	5320.775
2966.56239	5292.175
2969.01186	5304.175
2971.45984	5277.475
2973.90632	5254.475
2976.35131	5255.575
2978.7948	5228.375
2981.23681	5217.475
2983.67732	5202.575
2986.11635	5192.575
2988.55388	5179.475
2990.98993	5171.275
2993.4245	5143.175
2995.85758	5130.275
2998.28917	5118.975
3000.71928	5118.175
3003.14791	5107.175
3005.57506	5106.575
3008.00073	5062.475
3010.42493	4962.675
3012.84764	5050.375
3015.26888	5057.575
3017.68865	5026.475
3020.10694	5029.875
3022.52376	5007.875
3024.9391	5003.875
3027.35298	4992.075
3029.76539	4995.575
3032.17632	4995.975
3034.5858	4972.075
3036.9938	4974.575
3039.40034	4975.675
3041.80542	4956.175
3044.20903	4931.975
3046.61118	4949.675
3049.01187	4931.075
3051.4111	4922.875
3053.80888	4920.075
3056.20519	4902.675
3058.60005	4882.375
3060.99345	4862.075
3063.3854	4857.575
3065.7759	4848.075
3068.16494	4843.475
3070.55254	4826.275
3072.93868	4819.875
3075.32338	4795.175
3077.70662	4787.175
3080.08842	4763.475
3082.46878	4753.275
3084.84769	4739.175
3087.22515	4734.975
3089.60118	4741.575
3091.97576	4724.475
3094.3489	4718.275
3096.72061	4725.875
3099.09087	4724.975
3101.4597	4702.875
3103.82709	4711.975
3106.19305	4709.875
3108.55757	4714.575
3110.92066	4687.075
3113.28232	4677.275
3115.64255	4673.975
3118.00134	4661.175
3120.35871	4662.075
3122.71466	4647.375
3125.06917	4639.175
3127.42226	4645.375
3129.77393	4652.175
3132.12417	4640.375
3134.47299	4650.375
3136.82039	4622.875
3139.16636	4638.175
3141.51092	4644.875
3143.85406	4636.975
3146.19579	4633.175
3148.53609	4618.575
3150.87499	4624.275
3153.21246	4643.975
3155.54853	4655.675
3157.88318	4647.475
3160.21642	4653.675
3162.54826	4643.575
3164.87868	4657.675
3167.2077	4662.775
3169.5353	4665.875
3171.86151	4655.575
3174.18631	4653.975
3176.5097	4655.575
3178.83169	4648.475
3181.15228	4653.975
3183.47147	4636.675
3185.78926	4648.975
3188.10565	4640.075
3190.42065	4642.975
3192.73424	4646.475
3195.04645	4646.075
3197.35725	4641.075
3199.66667	4633.775
