Data from AgNP_FTO_APTES_UA_10uM_CRN_0uM_R6G_10uM_NaF_0.1M_Addition_RamanShift__31__12-44-30-479.txt Node

Date: Thu Feb 10 12:44:30 GMT 2022
User: TCL
Spectrometer: QEP01345
Trigger mode: 4
Integration Time (sec): 7.000000E0
Scans to average: 10
Electric dark correction enabled: true
Nonlinearity correction enabled: false
Boxcar width: 0
XAxis mode: Raman Shifts
Number of Pixels in Spectrum: 1044
>>>>>Begin Spectral Data<<<<<
46.04893	0.075
50.45542	0.475
54.85868	-1.425
59.25871	0.575
63.6555	33.275
68.04907	38.075
72.43941	42.975
76.82654	46.775
81.21044	140.675
85.59113	57.475
89.96862	48.775
94.34289	51.775
98.71396	51.475
103.08183	50.775
107.4465	55.875
111.80798	49.775
116.16626	51.575
120.52136	58.975
124.87327	54.375
129.222	56.675
133.56755	62.575
137.90993	60.275
142.24913	66.675
146.58517	69.575
150.91804	81.575
155.24774	92.775
159.57429	113.375
163.89768	141.975
168.21792	183.075
172.53501	247.075
176.84895	332.575
181.15975	461.675
185.46741	633.775
189.77193	884.175
194.07331	1158.875
198.37157	1503.875
202.6667	1848.175
206.9587	2191.475
211.24758	2546.575
215.53334	2930.175
219.81599	3356.375
224.09553	3833.975
228.37195	4398.075
232.64527	4956.575
236.91549	5524.375
241.18261	6015.275
245.44663	6399.875
249.70755	6654.575
253.96539	6863.675
258.22014	7029.475
262.4718	7208.875
266.72039	7386.175
270.96589	7472.575
275.20832	7467.775
279.44768	7356.075
283.68397	7222.675
287.91719	7140.575
292.14735	7205.475
296.37445	7446.675
300.59849	7854.975
304.81948	8340.675
309.03742	8687.075
313.25231	8675.675
317.46415	8126.075
321.67296	7276.975
325.87872	6590.175
330.08145	6252.475
334.28114	6233.375
338.47781	6367.475
342.67145	6618.875
346.86207	7010.575
351.04966	7609.675
355.23424	8315.975
359.4158	8823.875
363.59435	9091.575
367.76989	9099.175
371.94243	9021.375
376.11196	8899.275
380.27849	8814.475
384.44203	8646.475
388.60257	8446.775
392.76012	8305.375
396.91468	8382.975
401.06626	8686.375
405.21485	8897.875
409.36047	8631.475
413.50311	7951.575
417.64277	7344.475
421.77947	6984.675
425.9132	6797.675
430.04396	6783.975
434.17176	6808.675
438.2966	6934.375
442.41849	7184.475
446.53742	7473.575
450.6534	7769.175
454.76644	7883.375
458.87653	7839.975
462.98368	7691.375
467.08789	7481.375
471.18916	7271.775
475.2875	7011.575
479.38291	6839.175
483.4754	6695.275
487.56496	6568.575
491.6516	6471.175
495.73531	6458.375
499.81612	6482.275
503.89401	6597.875
507.96899	6745.875
512.04106	6922.775
516.11023	7124.575
520.1765	7258.275
524.23987	7261.575
528.30034	7060.475
532.35792	6802.975
536.41261	6544.475
540.46441	6278.875
544.51333	6102.375
548.55936	6121.475
552.60252	6331.075
556.64279	6584.775
560.6802	6702.975
564.71473	6908.175
568.7464	7360.675
572.7752	7669.875
576.80114	7373.675
580.82422	6988.275
584.84444	6841.975
588.86181	6812.075
592.87633	6828.575
596.888	6945.775
600.89682	7313.375
604.9028	8472.375
608.90594	11718.075
612.90624	16290.575
616.90371	15768.175
620.89834	9905.875
624.89015	7124.075
628.87913	6560.775
632.86528	6618.775
636.84862	6789.575
640.82913	6661.375
644.80683	6202.875
648.78172	5909.175
652.75379	5947.575
656.72306	6370.975
660.68952	6900.475
664.65319	6773.875
668.61405	6218.175
672.57211	5903.575
676.52738	5870.575
680.47986	5828.875
684.42955	5765.475
688.37646	5738.475
692.32058	5747.875
696.26192	5836.775
700.20048	5978.275
704.13626	6087.875
708.06928	6067.975
711.99952	6002.275
715.927	5946.875
719.85171	5944.575
723.77365	5916.875
727.69284	5821.275
731.60928	5760.575
735.52295	5759.475
739.43388	5810.275
743.34206	5847.575
747.24749	5884.875
751.15017	5965.775
755.05012	6122.475
758.94733	6525.475
762.8418	7574.675
766.73354	9366.175
770.62254	11411.575
774.50882	12561.775
778.39237	12116.175
782.27321	10122.175
786.15132	8010.375
790.02671	6788.375
793.89938	6249.575
797.76935	6032.875
801.6366	5906.875
805.50115	5884.275
809.36299	5819.475
813.22213	5806.275
817.07857	5764.975
820.93231	5748.275
824.78336	5739.175
828.63172	5784.575
832.47738	5784.775
836.32036	5776.975
840.16066	5707.675
843.99827	5651.775
847.8332	5632.075
851.66546	5651.575
855.49504	5646.475
859.32195	5621.375
863.1462	5560.575
866.96777	5530.675
870.78668	5523.275
874.60293	5549.875
878.41652	5602.375
882.22745	5650.575
886.03573	5690.675
889.84136	5683.875
893.64433	5641.875
897.44466	5605.375
901.24235	5599.675
905.0374	5550.675
908.8298	5514.475
912.61957	5496.075
916.40671	5497.675
920.19121	5564.175
923.97308	5652.375
927.75233	5745.075
931.52895	5861.575
935.30295	5778.575
939.07433	5537.275
942.84309	5286.275
946.60924	5140.675
950.37278	5087.275
954.13371	5052.675
957.89203	5032.675
961.64774	5022.775
965.40086	4997.275
969.15137	4993.175
972.89929	4980.575
976.64461	4945.575
980.38733	4966.475
984.12747	4964.175
987.86502	4981.175
991.59999	5031.075
995.33237	5104.375
999.06217	5239.375
1002.78939	5446.075
1006.51404	5639.375
1010.23611	5839.775
1013.95561	5948.975
1017.67255	5919.875
1021.38692	5756.575
1025.09872	5594.075
1028.80796	5459.875
1032.51465	5448.775
1036.21877	5538.375
1039.92035	5645.075
1043.61937	5704.875
1047.31584	5705.075
1051.00976	5668.575
1054.70114	5620.475
1058.38998	5597.775
1062.07627	5608.075
1065.76003	5666.375
1069.44126	5732.375
1073.11995	5839.075
1076.79611	5986.375
1080.46974	6141.675
1084.14085	6398.675
1087.80943	6671.575
1091.47549	6777.575
1095.13903	6564.375
1098.80005	6186.275
1102.45857	5888.375
1106.11456	5794.975
1109.76805	5848.675
1113.41903	6084.575
1117.06751	6408.575
1120.71348	6824.675
1124.35696	7319.875
1127.99793	7734.575
1131.63641	7697.575
1135.2724	7162.275
1138.90589	6631.975
1142.5369	6319.975
1146.16542	6104.775
1149.79145	5980.175
1153.415	5955.975
1157.03607	6038.575
1160.65467	6221.975
1164.27079	6547.675
1167.88443	7053.575
1171.49561	7894.275
1175.10432	9378.875
1178.71056	11343.175
1182.31434	12797.275
1185.91565	13178.175
1189.51451	12728.875
1193.11091	11660.675
1196.70485	10357.675
1200.29634	9348.075
1203.88538	8621.675
1207.47197	7840.775
1211.05612	7204.075
1214.63782	6848.175
1218.21708	6726.875
1221.79391	6771.275
1225.36829	6863.075
1228.94024	6943.875
1232.50976	7011.575
1236.07685	7042.475
1239.6415	6992.275
1243.20374	6983.375
1246.76355	6931.075
1250.32093	7001.475
1253.8759	7180.875
1257.42845	7461.575
1260.97859	7829.075
1264.52631	8231.475
1268.07163	8632.575
1271.61453	8992.275
1275.15503	9217.275
1278.69312	9314.975
1282.22882	9329.275
1285.76211	9576.775
1289.29301	10020.675
1292.82151	10474.675
1296.34761	10936.175
1299.87133	11575.675
1303.39266	12769.175
1306.9116	14652.075
1310.42815	16805.175
1313.94233	18162.675
1317.45412	17848.275
1320.96354	16419.675
1324.47058	14676.975
1327.97525	13197.575
1331.47754	12193.675
1334.97747	11709.475
1338.47502	11640.775
1341.97022	11862.475
1345.46305	12445.975
1348.95352	13484.975
1352.44163	15052.575
1355.92738	17173.575
1359.41078	20237.375
1362.89183	23003.875
1366.37053	22324.675
1369.84688	18649.875
1373.32088	14870.575
1376.79254	12336.075
1380.26186	10989.375
1383.72883	10222.375
1387.19347	9658.375
1390.65578	9090.675
1394.11575	8667.175
1397.57339	8453.775
1401.0287	8486.275
1404.48168	8633.775
1407.93234	8775.675
1411.38068	8795.175
1414.82669	8747.875
1418.27039	8557.775
1421.71177	8328.775
1425.15083	8129.775
1428.58758	7990.475
1432.02203	8019.975
1435.45416	8106.475
1438.88399	8187.475
1442.31151	8203.975
1445.73673	8247.075
1449.15965	8324.575
1452.58027	8291.775
1455.9986	8216.975
1459.41463	8199.675
1462.82837	8326.975
1466.23982	8538.375
1469.64898	8750.975
1473.05586	8896.275
1476.46045	8947.475
1479.86276	9125.875
1483.26279	9376.175
1486.66054	9679.375
1490.05602	10132.575
1493.44922	10792.675
1496.84016	11828.975
1500.22882	13517.975
1503.61521	15722.875
1506.99934	18186.875
1510.38121	20400.375
1513.76081	21354.875
1517.13816	20010.775
1520.51324	16998.375
1523.88607	13925.075
1527.25665	11933.375
1530.62498	10794.575
1533.99105	10147.875
1537.35488	9761.375
1540.71647	9496.375
1544.07581	9392.975
1547.4329	9331.975
1550.78776	9263.675
1554.14038	9203.275
1557.49077	9268.675
1560.83892	9430.575
1564.18484	9770.575
1567.52853	10212.475
1570.86999	10686.475
1574.20922	10997.175
1577.54624	10943.475
1580.88103	10261.675
1584.2136	9262.875
1587.54395	8715.675
1590.87208	8825.975
1594.19801	9494.475
1597.52172	10404.375
1600.84321	10802.175
1604.16251	10371.775
1607.47959	9554.975
1610.79447	8590.575
1614.10715	7675.475
1617.41763	6971.175
1620.7259	6553.275
1624.03199	6385.875
1627.33587	6419.675
1630.63757	6634.275
1633.93707	7086.575
1637.23439	7822.075
1640.52951	8912.375
1643.82246	10414.375
1647.11321	12219.775
1650.40179	13565.575
1653.68819	13246.575
1656.97241	11179.475
1660.25446	8804.175
1663.53433	7148.575
1666.81203	6176.775
1670.08756	5625.475
1673.36092	5295.775
1676.63211	5088.175
1679.90115	4962.875
1683.16801	4844.075
1686.43272	4766.375
1689.69527	4713.775
1692.95567	4667.275
1696.2139	4650.875
1699.46999	4639.875
1702.72392	4625.075
1705.97571	4601.875
1709.22535	4592.375
1712.47284	4595.575
1715.71819	4589.275
1718.96139	4583.875
1722.20246	4581.575
1725.44139	4542.275
1728.67818	4482.675
1731.91284	4423.075
1735.14537	4372.175
1738.37576	4320.675
1741.60403	4303.275
1744.83017	4280.175
1748.05418	4264.875
1751.27607	4246.975
1754.49584	4235.775
1757.71349	4234.875
1760.92903	4228.575
1764.14244	4207.875
1767.35375	4194.675
1770.56294	4176.975
1773.77002	4171.975
1776.97499	4146.775
1780.17785	4120.575
1783.37861	4110.475
1786.57727	4087.775
1789.77382	4071.775
1792.96828	4066.875
1796.16064	4066.275
1799.3509	4054.275
1802.53907	4050.675
1805.72514	4022.675
1808.90913	3993.375
1812.09102	3980.275
1815.27083	3972.275
1818.44856	3966.075
1821.6242	3957.275
1824.79776	3949.775
1827.96924	3944.975
1831.13864	3936.875
1834.30597	3917.675
1837.47122	3908.975
1840.6344	3924.075
1843.7955	3938.775
1846.95454	3909.675
1850.11151	3921.175
1853.26642	3909.075
1856.41926	3915.275
1859.57004	3916.475
1862.71876	3919.975
1865.86542	3927.575
1869.01003	3934.175
1872.15258	3931.475
1875.29308	3933.875
1878.43152	3935.075
1881.56792	3954.175
1884.70227	3958.475
1887.83457	3967.575
1890.96482	3975.575
1894.09304	3981.375
1897.21921	3973.375
1900.34335	3984.075
1903.46544	3992.175
1906.58551	3987.975
1909.70353	4004.075
1912.81953	3993.075
1915.93349	3994.275
1919.04543	3985.575
1922.15534	3966.775
1925.26322	3962.475
1928.36908	3933.175
1931.47292	3904.975
1934.57473	3886.975
1937.67453	3858.075
1940.77232	3815.575
1943.86808	3803.775
1946.96184	3759.175
1950.05358	3734.675
1953.14331	3712.075
1956.23103	3718.375
1959.31675	3693.575
1962.40046	3671.475
1965.48217	3662.475
1968.56188	3649.375
1971.63959	3641.275
1974.7153	3623.275
1977.78901	3613.775
1980.86073	3593.375
1983.93046	3579.975
1986.99819	3576.175
1990.06394	3557.175
1993.1277	3533.775
1996.18947	3515.475
1999.24925	3502.275
2002.30706	3486.875
2005.36288	3500.175
2008.41672	3478.075
2011.46859	3453.475
2014.51848	3466.275
2017.56639	3437.475
2020.61233	3430.275
2023.6563	3420.575
2026.6983	3389.475
2029.73833	3390.975
2032.7764	3382.375
2035.8125	3372.575
2038.84664	3372.275
2041.87881	3355.675
2044.90903	3359.975
2047.93729	3350.875
2050.96359	3352.075
2053.98794	3327.675
2057.01034	3328.075
2060.03078	3329.075
2063.04927	3316.675
2066.06582	3331.875
2069.08042	3307.275
2072.09307	3306.875
2075.10378	3312.875
2078.11255	3307.775
2081.11938	3309.775
2084.12426	3294.675
2087.12722	3308.675
2090.12824	3290.675
2093.12732	3294.775
2096.12447	3294.175
2099.11969	3292.875
2102.11299	3291.675
2105.10435	3291.475
2108.09379	3297.075
2111.08131	3304.475
2114.0669	3288.875
2117.05057	3294.675
2120.03233	3298.375
2123.01216	3301.575
2125.99008	3302.275
2128.96609	3291.475
2131.94018	3302.275
2134.91236	3309.975
2137.88263	3303.875
2140.851	3303.975
2143.81746	3300.575
2146.78201	3284.575
2149.74466	3280.675
2152.7054	3272.175
2155.66425	3268.775
2158.6212	3266.175
2161.57625	3262.075
2164.52941	3260.575
2167.48067	3265.575
2170.43004	3260.075
2173.37752	3272.875
2176.32311	3249.475
2179.26681	3261.475
2182.20863	3238.975
2185.14856	3246.675
2188.08661	3254.475
2191.02278	3231.475
2193.95707	3243.975
2196.88948	3246.775
2199.82001	3230.275
2202.74867	3228.575
2205.67545	3232.275
2208.60037	3224.675
2211.52341	3211.775
2214.44458	3211.975
2217.36388	3198.875
2220.28132	3189.075
2223.1969	3162.175
2226.11061	3170.775
2229.02246	3165.675
2231.93245	3151.975
2234.84058	3143.775
2237.74686	3150.175
2240.65128	3143.075
2243.55385	3141.875
2246.45456	3138.475
2249.35343	3127.075
2252.25044	3116.475
2255.14561	3128.875
2258.03893	3121.475
2260.93041	3122.575
2263.82004	3114.075
2266.70783	3111.775
2269.59378	3106.075
2272.4779	3094.975
2275.36017	3082.575
2278.24061	3088.975
2281.11922	3085.175
2283.996	3072.275
2286.87094	3068.975
2289.74405	3051.875
2292.61534	3047.075
2295.4848	3041.975
2298.35243	3038.275
2301.21824	3020.775
2304.08223	3034.775
2306.94439	3014.975
2309.80474	3021.675
2312.66327	3026.275
2315.51999	3027.475
2318.37489	3019.975
2321.22797	3000.275
2324.07925	3000.675
2326.92871	2998.475
2329.77637	2997.575
2332.62222	3002.675
2335.46626	2983.975
2338.3085	2987.075
2341.14893	2991.575
2343.98756	2996.875
2346.8244	2994.875
2349.65943	2996.075
2352.49267	3008.375
2355.32411	3012.875
2358.15376	3019.075
2360.98161	3031.575
2363.80768	3028.375
2366.63195	3056.075
2369.45444	3042.875
2372.27514	3046.275
2375.09405	3044.775
2377.91118	3039.175
2380.72652	3023.075
2383.54009	2998.975
2386.35187	2968.875
2389.16188	2971.875
2391.97011	2952.775
2394.77657	2911.875
2397.58125	2914.175
2400.38416	2915.975
2403.18529	2909.575
2405.98466	2893.475
2408.78226	2886.675
2411.57809	2886.675
2414.37216	2870.475
2417.16446	2871.875
2419.955	2863.875
2422.74378	2865.675
2425.5308	2871.675
2428.31606	2870.675
2431.09956	2868.275
2433.88131	2854.775
2436.6613	2863.975
2439.43954	2877.975
2442.21603	2875.975
2444.99077	2873.475
2447.76377	2878.575
2450.53501	2879.175
2453.30451	2896.375
2456.07226	2879.975
2458.83827	2891.475
2461.60254	2873.875
2464.36507	2882.975
2467.12586	2870.375
2469.88492	2872.075
2472.64224	2875.075
2475.39782	2874.575
2478.15167	2897.275
2480.90379	2898.175
2483.65417	2911.875
2486.40283	2924.775
2489.14976	2928.175
2491.89497	2940.875
2494.63845	2948.475
2497.3802	2937.375
2500.12024	2931.675
2502.85855	2919.275
2505.59514	2903.575
2508.33002	2891.875
2511.06318	2868.375
2513.79462	2858.975
2516.52435	2841.075
2519.25237	2838.375
2521.97867	2812.475
2524.70327	2811.475
2527.42616	2795.775
2530.14734	2804.875
2532.86681	2785.675
2535.58458	2804.975
2538.30065	2796.975
2541.01501	2800.875
2543.72768	2803.475
2546.43864	2793.575
2549.14791	2803.675
2551.85548	2793.075
2554.56136	2804.975
2557.26554	2802.275
2559.96803	2804.775
2562.66883	2790.475
2565.36794	2783.675
2568.06536	2780.375
2570.7611	2781.875
2573.45514	2774.675
2576.14751	2766.475
2578.83819	2753.175
2581.52719	2751.775
2584.21451	2761.375
2586.90015	2755.375
2589.58411	2743.875
2592.2664	2751.975
2594.94701	2736.575
2597.62594	2743.775
2600.30321	2730.575
2602.9788	2736.875
2605.65273	2733.375
2608.32498	2740.875
2610.99557	2745.875
2613.66449	2740.675
2616.33175	2730.775
2618.99734	2736.575
2621.66128	2737.175
2624.32355	2739.775
2626.98416	2731.275
2629.64311	2715.575
2632.30041	2711.475
2634.95605	2706.575
2637.61004	2701.575
2640.26238	2694.775
2642.91306	2686.775
2645.56209	2684.375
2648.20948	2687.575
2650.85521	2683.975
2653.4993	2681.175
2656.14175	2695.575
2658.78255	2692.575
2661.42171	2707.475
2664.05923	2693.875
2666.6951	2708.275
2669.32934	2715.775
2671.96194	2722.275
2674.59291	2725.375
2677.22224	2737.275
2679.84993	2729.975
2682.476	2721.575
2685.10043	2718.475
2687.72324	2720.975
2690.34441	2711.175
2692.96396	2705.875
2695.58188	2727.375
2698.19818	2713.475
2700.81285	2715.375
2703.4259	2724.475
2706.03733	2707.975
2708.64714	2697.775
2711.25533	2735.375
2713.86191	2722.475
2716.46687	2740.975
2719.07021	2745.275
2721.67194	2762.475
2724.27206	2757.175
2726.87057	2768.475
2729.46747	2762.475
2732.06276	2756.675
2734.65644	2749.975
2737.24852	2766.575
2739.83899	2731.675
2742.42786	2734.675
2745.01513	2719.875
2747.60079	2718.775
2750.18486	2721.775
2752.76733	2710.275
2755.3482	2715.875
2757.92747	2697.775
2760.50515	2707.575
2763.08123	2684.875
2765.65573	2691.275
2768.22863	2701.075
2770.79994	2692.975
2773.36967	2695.275
2775.9378	2682.675
2778.50435	2688.775
2781.06932	2703.075
2783.6327	2688.475
2786.1945	2700.575
2788.75471	2697.675
2791.31335	2706.875
2793.87041	2705.275
2796.42589	2717.475
2798.97979	2708.675
2801.53212	2715.875
2804.08288	2716.775
2806.63206	2716.875
2809.17967	2713.175
2811.72571	2720.775
2814.27018	2724.775
2816.81308	2733.175
2819.35442	2741.475
2821.89419	2756.275
2824.43239	2757.975
2826.96904	2764.175
2829.50412	2780.575
2832.03763	2780.275
2834.56959	2789.675
2837.1	2796.975
2839.62884	2820.275
2842.15613	2844.475
2844.68186	2888.475
2847.20604	2938.775
2849.72867	2981.275
2852.24974	2999.875
2854.76927	3006.175
2857.28724	2973.475
2859.80367	2976.175
2862.31855	2971.375
2864.83189	2965.975
2867.34368	2957.675
2869.85393	2948.575
2872.36264	2960.975
2874.8698	2954.975
2877.37543	2944.875
2879.87952	2927.875
2882.38207	2943.775
2884.88308	2928.175
2887.38256	2931.575
2889.88051	2919.975
2892.37692	2933.375
2894.8718	2922.375
2897.36515	2920.475
2899.85698	2931.475
2902.34727	2922.375
2904.83604	2934.775
2907.32328	2946.575
2909.809	2928.875
2912.29319	2924.275
2914.77587	2917.075
2917.25702	2914.875
2919.73665	2915.275
2922.21476	2910.175
2924.69136	2897.575
2927.16644	2914.475
2929.64	2887.575
2932.11205	2882.875
2934.58258	2854.175
2937.05161	2848.075
2939.51912	2840.975
2941.98513	2795.975
2944.44962	2772.775
2946.91261	2737.675
2949.37409	2711.375
2951.83407	2714.075
2954.29254	2683.375
2956.74951	2677.675
2959.20498	2667.875
2961.65895	2652.375
2964.11142	2649.275
2966.56239	2637.675
2969.01186	2640.975
2971.45984	2621.775
2973.90632	2606.175
2976.35131	2600.875
2978.7948	2597.375
2981.23681	2564.975
2983.67732	2555.975
2986.11635	2546.875
2988.55388	2545.575
2990.98993	2541.775
2993.4245	2522.475
2995.85758	2519.475
2998.28917	2513.075
3000.71928	2509.875
3003.14791	2497.175
3005.57506	2497.375
3008.00073	2493.575
3010.42493	2479.275
3012.84764	2475.375
3015.26888	2479.775
3017.68865	2466.375
3020.10694	2457.075
3022.52376	2452.075
3024.9391	2455.775
3027.35298	2459.075
3029.76539	2451.375
3032.17632	2453.075
3034.5858	2445.775
3036.9938	2451.075
3039.40034	2453.775
3041.80542	2450.975
3044.20903	2436.675
3046.61118	2438.275
3049.01187	2424.975
3051.4111	2440.675
3053.80888	2426.375
3056.20519	2420.775
3058.60005	2422.975
3060.99345	2415.075
3063.3854	2417.875
3065.7759	2408.575
3068.16494	2413.975
3070.55254	2400.175
3072.93868	2400.075
3075.32338	2388.475
3077.70662	2388.775
3080.08842	2374.975
3082.46878	2366.275
3084.84769	2366.175
3087.22515	2360.175
3089.60118	2356.575
3091.97576	2361.175
3094.3489	2358.275
3096.72061	2358.275
3099.09087	2353.675
3101.4597	2358.975
3103.82709	2354.275
3106.19305	2351.575
3108.55757	2347.075
3110.92066	2355.175
3113.28232	2343.075
3115.64255	2347.975
3118.00134	2347.375
3120.35871	2341.075
3122.71466	2345.175
3125.06917	2340.775
3127.42226	2344.675
3129.77393	2354.275
3132.12417	2357.675
3134.47299	2370.775
3136.82039	2365.775
3139.16636	2363.075
3141.51092	2364.275
3143.85406	2376.375
3146.19579	2380.075
3148.53609	2374.475
3150.87499	2390.075
3153.21246	2392.075
3155.54853	2405.775
3157.88318	2401.275
3160.21642	2416.075
3162.54826	2402.475
3164.87868	2426.375
3167.2077	2424.975
3169.5353	2428.475
3171.86151	2426.975
3174.18631	2427.375
3176.5097	2437.675
3178.83169	2438.075
3181.15228	2419.975
3183.47147	2435.875
3185.78926	2442.075
3188.10565	2450.075
3190.42065	2452.975
3192.73424	2453.675
3195.04645	2463.475
3197.35725	2458.875
3199.66667	2457.275
3201.97469	2460.475
3204.28132	2464.175
3206.58656	2476.375
3208.8904	2486.375
3211.19287	2477.775
3213.49394	2491.775
3215.79363	2494.675
3218.09193	2502.875
3220.38884	2484.775
3222.68438	2486.575
3224.97853	2484.475
3227.2713	2495.875
