Data from AgNP_FTO_APTES_UA_10uM_CRN_1uM_R6G_10uM_NaF_0.1M_Addition_RamanShift__1__12-53-50-492.txt Node

Date: Thu Feb 10 12:53:50 GMT 2022
User: TCL
Spectrometer: QEP01345
Trigger mode: 4
Integration Time (sec): 7.000000E0
Scans to average: 10
Electric dark correction enabled: true
Nonlinearity correction enabled: false
Boxcar width: 0
XAxis mode: Raman Shifts
Number of Pixels in Spectrum: 1044
>>>>>Begin Spectral Data<<<<<
46.04893	-0.275
50.45542	-1.275
54.85868	-1.575
59.25871	-1.675
63.6555	79.525
68.04907	83.125
72.43941	88.325
76.82654	86.825
81.21044	96.025
85.59113	93.925
89.96862	99.725
94.34289	102.125
98.71396	102.325
103.08183	110.025
107.4465	110.125
111.80798	108.725
116.16626	119.725
120.52136	121.925
124.87327	127.425
129.222	130.925
133.56755	143.925
137.90993	151.225
142.24913	168.825
146.58517	189.025
150.91804	225.125
155.24774	266.925
159.57429	338.025
163.89768	430.725
168.21792	579.925
172.53501	792.725
176.84895	1099.225
181.15975	1558.625
185.46741	2184.025
189.77193	3016.925
194.07331	4047.925
198.37157	5218.625
202.6667	6443.125
206.9587	7661.325
211.24758	8866.025
215.53334	10086.725
219.81599	11363.025
224.09553	12802.325
228.37195	14363.825
232.64527	16085.125
236.91549	17883.825
241.18261	19692.525
245.44663	21341.125
249.70755	22736.625
253.96539	23960.825
258.22014	25019.325
262.4718	25885.925
266.72039	26471.025
270.96589	26749.225
275.20832	26712.825
279.44768	26460.525
283.68397	26066.825
287.91719	25734.825
292.14735	25527.325
296.37445	25415.125
300.59849	25519.925
304.81948	25733.125
309.03742	25896.125
313.25231	25923.425
317.46415	25678.925
321.67296	25261.725
325.87872	24912.425
330.08145	24795.125
334.28114	24758.225
338.47781	24906.325
342.67145	25253.625
346.86207	25735.925
351.04966	26312.125
355.23424	26875.525
359.4158	27322.325
363.59435	27656.225
367.76989	27870.825
371.94243	27965.825
376.11196	28041.725
380.27849	28134.025
384.44203	28244.725
388.60257	28474.925
392.76012	28734.225
396.91468	29045.325
401.06626	29512.725
405.21485	29802.425
409.36047	29712.625
413.50311	29399.925
417.64277	29318.725
421.77947	29457.925
425.9132	29593.025
430.04396	29792.125
434.17176	29890.725
438.2966	30072.125
442.41849	30516.925
446.53742	31404.725
450.6534	32350.025
454.76644	32882.525
458.87653	32797.725
462.98368	32358.225
467.08789	31830.925
471.18916	31160.525
475.2875	30512.825
479.38291	29947.925
483.4754	29520.725
487.56496	29270.225
491.6516	29045.925
495.73531	28898.325
499.81612	28928.525
503.89401	29176.425
507.96899	29350.125
512.04106	29322.825
516.11023	29188.125
520.1765	28966.525
524.23987	28882.525
528.30034	28738.025
532.35792	28541.825
536.41261	28117.025
540.46441	27693.525
544.51333	27502.925
548.55936	27697.925
552.60252	28181.025
556.64279	28897.025
560.6802	29443.125
564.71473	29639.125
568.7464	29927.525
572.7752	30580.825
576.80114	31477.925
580.82422	32621.825
584.84444	34478.125
588.86181	37081.525
592.87633	39553.025
596.888	39746.825
600.89682	37186.525
604.9028	35549.525
608.90594	37113.725
612.90624	39658.525
616.90371	37513.925
620.89834	32002.425
624.89015	29459.825
628.87913	29077.225
632.86528	29198.325
636.84862	29075.525
640.82913	28516.925
644.80683	27750.425
648.78172	27322.625
652.75379	27410.425
656.72306	27828.425
660.68952	28333.425
664.65319	28241.025
668.61405	27685.125
672.57211	27609.025
676.52738	27862.625
680.47986	27772.525
684.42955	27556.425
688.37646	27409.725
692.32058	27661.825
696.26192	28204.825
700.20048	28676.325
704.13626	28847.925
708.06928	28741.625
711.99952	28583.425
715.927	28589.425
719.85171	28762.925
723.77365	28605.825
727.69284	28086.825
731.60928	27622.025
735.52295	27471.225
739.43388	27521.425
743.34206	27651.825
747.24749	27903.825
751.15017	28156.225
755.05012	28620.525
758.94733	29295.125
762.8418	30469.825
766.73354	32386.125
770.62254	34163.525
774.50882	34581.725
778.39237	33407.325
782.27321	31536.625
786.15132	29905.725
790.02671	28773.525
793.89938	28157.725
797.76935	27961.725
801.6366	27900.425
805.50115	27794.825
809.36299	27691.025
813.22213	27461.025
817.07857	27290.325
820.93231	27171.925
824.78336	27088.725
828.63172	26987.125
832.47738	27021.825
836.32036	27043.525
840.16066	27091.225
843.99827	27167.925
847.8332	27116.725
851.66546	27110.425
855.49504	27164.225
859.32195	27128.025
863.1462	27129.925
866.96777	27007.025
870.78668	26964.425
874.60293	27003.925
878.41652	27048.025
882.22745	27188.425
886.03573	27305.225
889.84136	27240.425
893.64433	27104.125
897.44466	27036.325
901.24235	26935.525
905.0374	26879.525
908.8298	26855.025
912.61957	26835.725
916.40671	26998.225
920.19121	27254.725
923.97308	27590.225
927.75233	27877.925
931.52895	27784.225
935.30295	27389.625
939.07433	26903.725
942.84309	26576.625
946.60924	26472.125
950.37278	26452.725
954.13371	26455.825
957.89203	26412.425
961.64774	26356.325
965.40086	26381.925
969.15137	26388.925
972.89929	26386.125
976.64461	26448.625
980.38733	26538.525
984.12747	26652.825
987.86502	26851.225
991.59999	27034.825
995.33237	27374.425
999.06217	27935.025
1002.78939	28686.125
1006.51404	29454.525
1010.23611	30013.925
1013.95561	30405.325
1017.67255	30460.425
1021.38692	30023.625
1025.09872	29419.125
1028.80796	29185.625
1032.51465	29408.725
1036.21877	29816.225
1039.92035	29998.025
1043.61937	29919.325
1047.31584	29592.725
1051.00976	29184.625
1054.70114	29053.125
1058.38998	29041.125
1062.07627	29166.125
1065.76003	29423.925
1069.44126	29729.425
1073.11995	30342.425
1076.79611	30931.225
1080.46974	31257.225
1084.14085	31540.925
1087.80943	31936.925
1091.47549	32158.325
1095.13903	32066.225
1098.80005	31527.125
1102.45857	30849.825
1106.11456	30339.125
1109.76805	30063.525
1113.41903	30007.725
1117.06751	30107.125
1120.71348	30320.025
1124.35696	30584.725
1127.99793	30931.725
1131.63641	31106.525
1135.2724	31003.425
1138.90589	30828.525
1142.5369	30878.925
1146.16542	31059.325
1149.79145	31296.725
1153.415	31400.125
1157.03607	31600.225
1160.65467	32233.325
1164.27079	33519.425
1167.88443	35139.125
1171.49561	36973.125
1175.10432	39276.925
1178.71056	42295.025
1182.31434	45117.725
1185.91565	46444.825
1189.51451	46028.125
1193.11091	44689.325
1196.70485	43108.225
1200.29634	41695.125
1203.88538	40766.525
1207.47197	40174.825
1211.05612	39754.625
1214.63782	39016.425
1218.21708	38062.925
1221.79391	37195.625
1225.36829	36770.825
1228.94024	36511.725
1232.50976	36118.625
1236.07685	35466.025
1239.6415	34935.225
1243.20374	34757.225
1246.76355	35036.225
1250.32093	35592.025
1253.8759	36408.925
1257.42845	37470.425
1260.97859	38587.525
1264.52631	39871.825
1268.07163	41257.925
1271.61453	42511.025
1275.15503	43674.825
1278.69312	44753.925
1282.22882	45777.125
1285.76211	47137.925
1289.29301	48818.425
1292.82151	50721.725
1296.34761	53066.825
1299.87133	56026.525
1303.39266	59425.025
1306.9116	62830.425
1310.42815	65511.325
1313.94233	66840.625
1317.45412	65800.225
1320.96354	63574.025
1324.47058	61391.525
1327.97525	59975.825
1331.47754	59169.525
1334.97747	58538.725
1338.47502	57965.025
1341.97022	56790.325
1345.46305	55717.125
1348.95352	55223.425
1352.44163	55879.525
1355.92738	58255.425
1359.41078	61904.025
1362.89183	64817.825
1366.37053	64253.625
1369.84688	59327.225
1373.32088	52461.525
1376.79254	47734.625
1380.26186	45941.325
1383.72883	45631.325
1387.19347	45324.825
1390.65578	44598.825
1394.11575	44328.025
1397.57339	44673.325
1401.0287	45388.725
1404.48168	45965.625
1407.93234	46124.325
1411.38068	45649.425
1414.82669	44619.425
1418.27039	43286.925
1421.71177	41876.125
1425.15083	40851.025
1428.58758	40551.725
1432.02203	41237.225
1435.45416	42556.325
1438.88399	43801.125
1442.31151	44488.225
1445.73673	44534.725
1449.15965	44351.825
1452.58027	43962.725
1455.9986	43604.225
1459.41463	43765.425
1462.82837	44533.925
1466.23982	45675.725
1469.64898	46533.925
1473.05586	47094.225
1476.46045	47199.825
1479.86276	46961.025
1483.26279	46608.625
1486.66054	46537.425
1490.05602	46840.125
1493.44922	47312.425
1496.84016	47801.725
1500.22882	48391.125
1503.61521	49440.325
1506.99934	50782.125
1510.38121	51770.525
1513.76081	51772.625
1517.13816	50492.825
1520.51324	48693.625
1523.88607	47243.425
1527.25665	46736.325
1530.62498	46625.525
1533.99105	46333.625
1537.35488	45753.725
1540.71647	44838.025
1544.07581	43800.025
1547.4329	42802.825
1550.78776	41905.825
1554.14038	41213.525
1557.49077	40845.625
1560.83892	40611.825
1564.18484	40561.825
1567.52853	40672.725
1570.86999	41017.825
1574.20922	41617.125
1577.54624	42086.925
1580.88103	42226.325
1584.2136	42561.225
1587.54395	44011.725
1590.87208	46816.625
1594.19801	50429.125
1597.52172	53863.425
1600.84321	54945.825
1604.16251	52373.225
1607.47959	47728.625
1610.79447	42841.925
1614.10715	38662.925
1617.41763	35731.025
1620.7259	33975.525
1624.03199	33225.225
1627.33587	33422.925
1630.63757	34551.725
1633.93707	36883.025
1637.23439	40695.725
1640.52951	46345.925
1643.82246	53210.125
1647.11321	58650.725
1650.40179	59096.125
1653.68819	53873.925
1656.97241	45899.125
1660.25446	38765.425
1663.53433	34020.625
1666.81203	31175.525
1670.08756	29513.525
1673.36092	28433.525
1676.63211	27744.925
1679.90115	27263.425
1683.16801	26922.225
1686.43272	26673.725
1689.69527	26456.925
1692.95567	26296.225
1696.2139	26235.025
1699.46999	26144.325
1702.72392	26078.325
1705.97571	26017.125
1709.22535	25978.525
1712.47284	25954.725
1715.71819	25930.325
1718.96139	25869.725
1722.20246	25785.825
1725.44139	25708.825
1728.67818	25549.125
1731.91284	25374.825
1735.14537	25258.725
1738.37576	25216.525
1741.60403	25152.425
1744.83017	25010.025
1748.05418	24990.125
1751.27607	24924.725
1754.49584	24892.625
1757.71349	24858.425
1760.92903	24855.925
1764.14244	24892.425
1767.35375	24899.125
1770.56294	24780.725
1773.77002	24732.625
1776.97499	24712.925
1780.17785	24675.325
1783.37861	24611.425
1786.57727	24631.625
1789.77382	24605.525
1792.96828	24531.325
1796.16064	24455.925
1799.3509	24457.425
1802.53907	24410.625
1805.72514	24398.325
1808.90913	24315.025
1812.09102	24242.125
1815.27083	24247.425
1818.44856	24223.925
1821.6242	24181.225
1824.79776	24166.725
1827.96924	24116.925
1831.13864	24133.825
1834.30597	24129.425
1837.47122	24138.625
1840.6344	24119.325
1843.7955	24168.425
1846.95454	24095.625
1850.11151	24138.225
1853.26642	24115.725
1856.41926	24087.425
1859.57004	24103.725
1862.71876	24075.025
1865.86542	24088.425
1869.01003	24017.825
1872.15258	24049.425
1875.29308	24016.425
1878.43152	23980.525
1881.56792	23976.325
1884.70227	23947.525
1887.83457	23955.225
1890.96482	23906.425
1894.09304	23866.425
1897.21921	23797.025
1900.34335	23817.725
1903.46544	23803.125
1906.58551	23810.225
1909.70353	23776.825
1912.81953	23718.125
1915.93349	23698.125
1919.04543	23670.025
1922.15534	23601.125
1925.26322	23539.725
1928.36908	23553.625
1931.47292	23493.225
1934.57473	23421.125
1937.67453	23379.525
1940.77232	23362.325
1943.86808	23264.725
1946.96184	23199.625
1950.05358	23129.425
1953.14331	23090.525
1956.23103	23053.025
1959.31675	22963.825
1962.40046	22939.625
1965.48217	22868.625
1968.56188	22808.025
1971.63959	22728.025
1974.7153	22666.425
1977.78901	22650.025
1980.86073	22561.425
1983.93046	22501.525
1986.99819	22406.025
1990.06394	22367.925
1993.1277	22347.625
1996.18947	22273.625
1999.24925	22253.925
2002.30706	22164.425
2005.36288	22116.325
2008.41672	22034.225
2011.46859	21958.725
2014.51848	21947.525
2017.56639	21913.225
2020.61233	21861.425
2023.6563	21834.925
2026.6983	21777.325
2029.73833	21754.325
2032.7764	21680.925
2035.8125	21612.225
2038.84664	21624.725
2041.87881	21619.325
2044.90903	21586.225
2047.93729	21540.625
2050.96359	21512.025
2053.98794	21487.925
2057.01034	21480.825
2060.03078	21458.725
2063.04927	21445.725
2066.06582	21438.325
2069.08042	21425.725
2072.09307	21421.025
2075.10378	21408.125
2078.11255	21372.625
2081.11938	21399.725
2084.12426	21358.225
2087.12722	21431.425
2090.12824	21368.025
2093.12732	21386.225
2096.12447	21365.525
2099.11969	21391.825
2102.11299	21398.425
2105.10435	21429.325
2108.09379	21434.425
2111.08131	21428.525
2114.0669	21456.225
2117.05057	21453.825
2120.03233	21454.125
2123.01216	21534.825
2125.99008	21541.525
2128.96609	21561.825
2131.94018	21587.525
2134.91236	21617.525
2137.88263	21627.425
2140.851	21656.325
2143.81746	21651.325
2146.78201	21633.125
2149.74466	21647.125
2152.7054	21683.625
2155.66425	21640.425
2158.6212	21617.225
2161.57625	21619.525
2164.52941	21619.225
2167.48067	21636.225
2170.43004	21611.025
2173.37752	21622.725
2176.32311	21635.625
2179.26681	21658.625
2182.20863	21663.525
2185.14856	21682.625
2188.08661	21643.325
2191.02278	21673.925
2193.95707	21703.725
2196.88948	21686.125
2199.82001	21685.425
2202.74867	21657.225
2205.67545	21639.525
2208.60037	21608.325
2211.52341	21599.125
2214.44458	21556.725
2217.36388	21500.325
2220.28132	21496.325
2223.1969	21431.725
2226.11061	21457.325
2229.02246	21401.225
2231.93245	21401.725
2234.84058	21375.525
2237.74686	21335.825
2240.65128	21351.925
2243.55385	21300.425
2246.45456	21272.525
2249.35343	21220.325
2252.25044	21217.225
2255.14561	21223.325
2258.03893	21163.525
2260.93041	21101.625
2263.82004	21067.325
2266.70783	21008.125
2269.59378	20958.825
2272.4779	20946.025
2275.36017	20862.025
2278.24061	20900.325
2281.11922	20857.525
2283.996	20863.525
2286.87094	20811.725
2289.74405	20748.125
2292.61534	20784.425
2295.4848	20782.625
2298.35243	20815.825
2301.21824	20787.925
2304.08223	20800.025
2306.94439	20817.325
2309.80474	20796.625
2312.66327	20820.925
2315.51999	20791.925
2318.37489	20809.925
2321.22797	20805.425
2324.07925	20750.125
2326.92871	20712.925
2329.77637	20727.725
2332.62222	20665.925
2335.46626	20676.525
2338.3085	20664.225
2341.14893	20654.725
2343.98756	20671.725
2346.8244	20668.225
2349.65943	20703.225
2352.49267	20670.625
2355.32411	20673.625
2358.15376	20644.925
2360.98161	20681.525
2363.80768	20687.525
2366.63195	20660.925
2369.45444	20616.325
2372.27514	20591.725
2375.09405	20570.325
2377.91118	20529.125
2380.72652	20515.525
2383.54009	20435.025
2386.35187	20413.725
2389.16188	20376.425
2391.97011	20381.525
2394.77657	20323.225
2397.58125	20294.925
2400.38416	20252.725
2403.18529	20238.925
2405.98466	20254.625
2408.78226	20178.225
2411.57809	20170.025
2414.37216	20203.825
2417.16446	20150.225
2419.955	20151.725
2422.74378	20137.725
2425.5308	20098.225
2428.31606	20122.325
2431.09956	20092.725
2433.88131	20117.925
2436.6613	20144.725
2439.43954	20131.425
2442.21603	20105.525
2444.99077	20064.225
2447.76377	20098.425
2450.53501	20120.225
2453.30451	20117.925
2456.07226	20072.125
2458.83827	20052.725
2461.60254	20085.025
2464.36507	20112.025
2467.12586	20078.425
2469.88492	20090.225
2472.64224	20037.025
2475.39782	20064.225
2478.15167	20087.025
2480.90379	20059.425
2483.65417	20107.425
2486.40283	20089.825
2489.14976	20105.125
2491.89497	20089.325
2494.63845	20092.125
2497.3802	20082.625
2500.12024	20074.425
2502.85855	20099.925
2505.59514	20056.525
2508.33002	20047.225
2511.06318	20027.025
2513.79462	20025.225
2516.52435	19988.125
2519.25237	19985.525
2521.97867	19970.225
2524.70327	19976.825
2527.42616	19983.025
2530.14734	19998.625
2532.86681	19974.925
2535.58458	19989.625
2538.30065	19986.325
2541.01501	20013.325
2543.72768	19982.825
2546.43864	19965.925
2549.14791	19962.425
2551.85548	19977.025
2554.56136	19925.125
2557.26554	19900.825
2559.96803	19825.725
2562.66883	19831.425
2565.36794	19819.325
2568.06536	19793.725
2570.7611	19768.925
2573.45514	19772.125
2576.14751	19813.425
2578.83819	19765.125
2581.52719	19749.025
2584.21451	19760.925
2586.90015	19718.025
2589.58411	19701.725
2592.2664	19720.425
2594.94701	19656.025
2597.62594	19682.425
2600.30321	19651.625
2602.9788	19610.325
2605.65273	19592.825
2608.32498	19636.825
2610.99557	19643.225
2613.66449	19630.125
2616.33175	19624.525
2618.99734	19588.425
2621.66128	19535.225
2624.32355	19519.725
2626.98416	19530.725
2629.64311	19492.225
2632.30041	19472.625
2634.95605	19476.725
2637.61004	19427.525
2640.26238	19421.625
2642.91306	19436.525
2645.56209	19446.425
2648.20948	19459.125
2650.85521	19436.025
2653.4993	19454.425
2656.14175	19463.025
2658.78255	19477.225
2661.42171	19475.325
2664.05923	19555.425
2666.6951	19553.025
2669.32934	19577.925
2671.96194	19555.625
2674.59291	19597.525
2677.22224	19542.625
2679.84993	19562.525
2682.476	19558.725
2685.10043	19580.125
2687.72324	19533.825
2690.34441	19525.425
2692.96396	19537.925
2695.58188	19533.725
2698.19818	19490.725
2700.81285	19524.025
2703.4259	19532.025
2706.03733	19548.425
2708.64714	19559.825
2711.25533	19597.325
2713.86191	19561.525
2716.46687	19621.225
2719.07021	19642.125
2721.67194	19665.625
2724.27206	19641.025
2726.87057	19698.625
2729.46747	19686.625
2732.06276	19736.925
2734.65644	19699.325
2737.24852	19701.925
2739.83899	19659.125
2742.42786	19681.925
2745.01513	19639.925
2747.60079	19679.825
2750.18486	19653.125
2752.76733	19646.325
2755.3482	19616.125
2757.92747	19632.625
2760.50515	19628.925
2763.08123	19610.125
2765.65573	19580.925
2768.22863	19557.525
2770.79994	19569.225
2773.36967	19524.625
2775.9378	19524.925
2778.50435	19545.225
2781.06932	19538.225
2783.6327	19567.925
2786.1945	19537.525
2788.75471	19502.625
2791.31335	19497.925
2793.87041	19474.725
2796.42589	19387.225
2798.97979	19423.625
2801.53212	19395.725
2804.08288	19361.925
2806.63206	19335.725
2809.17967	19261.525
2811.72571	19201.625
2814.27018	19233.925
2816.81308	19170.025
2819.35442	19151.325
2821.89419	19113.625
2824.43239	19087.625
2826.96904	19076.025
2829.50412	19063.625
2832.03763	19046.125
2834.56959	19024.825
2837.1	18999.525
2839.62884	19010.925
2842.15613	19004.125
2844.68186	19073.225
2847.20604	19032.325
2849.72867	19069.425
2852.24974	19053.625
2854.76927	19035.225
2857.28724	19026.125
2859.80367	18979.225
2862.31855	18924.325
2864.83189	18951.125
2867.34368	18911.725
2869.85393	18923.425
2872.36264	18882.425
2874.8698	18882.925
2877.37543	18916.025
2879.87952	18894.825
2882.38207	18903.125
2884.88308	18882.825
2887.38256	18902.325
2889.88051	18879.425
2892.37692	18910.625
2894.8718	18933.725
2897.36515	18961.625
2899.85698	18929.925
2902.34727	18968.125
2904.83604	19006.625
2907.32328	19052.025
2909.809	19015.225
2912.29319	19043.525
2914.77587	18999.325
2917.25702	18969.625
2919.73665	18961.725
2922.21476	18968.425
2924.69136	18967.125
2927.16644	18952.525
2929.64	18929.925
2932.11205	18935.425
2934.58258	18830.425
2937.05161	18927.825
2939.51912	18881.525
2941.98513	18863.825
2944.44962	18845.125
2946.91261	18775.225
2949.37409	18816.625
2951.83407	18829.325
2954.29254	18820.225
2956.74951	18833.925
2959.20498	18777.225
2961.65895	18764.625
2964.11142	18793.225
2966.56239	18705.825
2969.01186	18736.825
2971.45984	18691.025
2973.90632	18675.825
2976.35131	18617.525
2978.7948	18602.025
2981.23681	18559.025
2983.67732	18509.925
2986.11635	18521.825
2988.55388	18466.925
2990.98993	18411.325
2993.4245	18405.325
2995.85758	18346.625
2998.28917	18305.725
3000.71928	18309.725
3003.14791	18273.125
3005.57506	18230.725
3008.00073	18201.325
3010.42493	18162.525
3012.84764	18137.025
3015.26888	18088.325
3017.68865	18037.825
3020.10694	17998.725
3022.52376	17995.525
3024.9391	17970.125
3027.35298	17988.125
3029.76539	17963.125
3032.17632	17953.625
3034.5858	17902.725
3036.9938	17901.325
3039.40034	17923.025
3041.80542	17901.825
3044.20903	17875.225
3046.61118	17864.925
3049.01187	17829.825
3051.4111	17802.525
3053.80888	17764.125
3056.20519	17776.225
3058.60005	17674.925
3060.99345	17709.525
3063.3854	17634.225
3065.7759	17592.125
3068.16494	17563.525
3070.55254	17495.925
3072.93868	17469.825
3075.32338	17436.025
3077.70662	17407.025
3080.08842	17379.825
3082.46878	17393.225
3084.84769	17300.725
3087.22515	17303.525
3089.60118	17327.625
3091.97576	17307.625
3094.3489	17264.425
3096.72061	17269.125
3099.09087	17299.225
3101.4597	17267.525
3103.82709	17236.825
3106.19305	17254.425
3108.55757	17240.525
3110.92066	17178.625
3113.28232	17201.225
3115.64255	17132.625
3118.00134	17105.625
3120.35871	17074.425
3122.71466	17024.425
3125.06917	17008.025
3127.42226	16968.525
