Data from AgNP_FTO_APTES_UA_10uM_CRN_0uM_R6G_10uM_NaF_0.1M_Addition_RamanShift__8__11-18-10-362.txt Node

Date: Thu Feb 10 11:18:10 GMT 2022
User: TCL
Spectrometer: QEP01345
Trigger mode: 4
Integration Time (sec): 7.000000E0
Scans to average: 10
Electric dark correction enabled: true
Nonlinearity correction enabled: false
Boxcar width: 0
XAxis mode: Raman Shifts
Number of Pixels in Spectrum: 1044
>>>>>Begin Spectral Data<<<<<
46.04893	0.5125
50.45542	-0.5875
54.85868	-2.9875
59.25871	-1.4875
63.6555	93.6125
68.04907	97.4125
72.43941	101.4125
76.82654	103.2125
81.21044	106.5125
85.59113	107.8125
89.96862	114.3125
94.34289	118.8125
98.71396	120.6125
103.08183	126.2125
107.4465	128.7125
111.80798	129.5125
116.16626	139.7125
120.52136	146.1125
124.87327	155.0125
129.222	162.7125
133.56755	179.0125
137.90993	196.4125
142.24913	211.2125
146.58517	243.2125
150.91804	288.9125
155.24774	352.1125
159.57429	439.2125
163.89768	577.9125
168.21792	782.8125
172.53501	1081.8125
176.84895	1507.0125
181.15975	2122.6125
185.46741	3008.4125
189.77193	4179.2125
194.07331	5648.9125
198.37157	7331.1125
202.6667	9086.0125
206.9587	10846.1125
211.24758	12583.2125
215.53334	14332.5125
219.81599	16201.5125
224.09553	18212.1125
228.37195	20441.7125
232.64527	22903.9125
236.91549	25642.0125
241.18261	28461.6125
245.44663	31187.7125
249.70755	33711.0125
253.96539	35926.6125
258.22014	37735.4125
262.4718	39069.8125
266.72039	39848.8125
270.96589	40006.4125
275.20832	39694.1125
279.44768	38821.3125
283.68397	37879.6125
287.91719	36900.9125
292.14735	36073.8125
296.37445	35416.8125
300.59849	34930.0125
304.81948	34538.7125
309.03742	34144.6125
313.25231	33632.2125
317.46415	33053.4125
321.67296	32434.2125
325.87872	31999.4125
330.08145	31828.1125
334.28114	31964.6125
338.47781	32203.1125
342.67145	32501.7125
346.86207	32895.9125
351.04966	33286.9125
355.23424	33843.5125
359.4158	34289.3125
363.59435	34735.9125
367.76989	35009.9125
371.94243	35279.3125
376.11196	35450.5125
380.27849	35506.8125
384.44203	35634.4125
388.60257	35705.5125
392.76012	35807.3125
396.91468	36107.4125
401.06626	36352.1125
405.21485	36548.8125
409.36047	36382.8125
413.50311	35963.2125
417.64277	35646.6125
421.77947	35564.1125
425.9132	35605.9125
430.04396	35777.8125
434.17176	35878.7125
438.2966	36132.9125
442.41849	36467.1125
446.53742	36855.1125
450.6534	37294.8125
454.76644	37567.2125
458.87653	37754.5125
462.98368	37934.9125
467.08789	37899.0125
471.18916	37818.4125
475.2875	37604.9125
479.38291	37469.6125
483.4754	37426.4125
487.56496	37402.7125
491.6516	37256.0125
495.73531	37131.7125
499.81612	37019.1125
503.89401	37206.2125
507.96899	37435.5125
512.04106	37624.1125
516.11023	37788.3125
520.1765	37824.1125
524.23987	37841.6125
528.30034	37785.5125
532.35792	37880.5125
536.41261	37850.2125
540.46441	37781.7125
544.51333	37851.4125
548.55936	38127.9125
552.60252	38580.4125
556.64279	39111.4125
560.6802	39518.6125
564.71473	39912.9125
568.7464	40212.4125
572.7752	40475.3125
576.80114	40678.2125
580.82422	40657.1125
584.84444	40500.5125
588.86181	40484.0125
592.87633	40457.5125
596.888	40470.2125
600.89682	40595.4125
604.9028	41731.5125
608.90594	44634.7125
612.90624	47951.1125
616.90371	47158.0125
620.89834	43085.9125
624.89015	40825.8125
628.87913	40134.0125
632.86528	39871.3125
636.84862	39693.0125
640.82913	39275.8125
644.80683	38662.5125
648.78172	38173.0125
652.75379	38051.3125
656.72306	38323.4125
660.68952	38791.0125
664.65319	38883.9125
668.61405	38614.2125
672.57211	38633.5125
676.52738	38943.0125
680.47986	39133.5125
684.42955	39206.4125
688.37646	39175.2125
692.32058	39260.5125
696.26192	39452.5125
700.20048	39598.9125
704.13626	39700.9125
708.06928	39757.6125
711.99952	39661.5125
715.927	39514.6125
719.85171	39467.9125
723.77365	39354.9125
727.69284	39205.6125
731.60928	39007.0125
735.52295	38897.6125
739.43388	38878.3125
743.34206	38984.5125
747.24749	39058.2125
751.15017	39103.6125
755.05012	39342.7125
758.94733	39810.4125
762.8418	40697.1125
766.73354	42199.1125
770.62254	43883.3125
774.50882	44849.6125
778.39237	44397.0125
782.27321	42984.0125
786.15132	41575.3125
790.02671	40504.5125
793.89938	39959.1125
797.76935	39647.0125
801.6366	39432.4125
805.50115	39379.9125
809.36299	39440.8125
813.22213	39332.5125
817.07857	39304.8125
820.93231	39348.8125
824.78336	39322.8125
828.63172	39347.0125
832.47738	39287.2125
836.32036	39307.7125
840.16066	39252.5125
843.99827	39274.5125
847.8332	39381.1125
851.66546	39446.1125
855.49504	39627.8125
859.32195	39708.2125
863.1462	39766.2125
866.96777	39891.6125
870.78668	40072.9125
874.60293	40223.2125
878.41652	40386.6125
882.22745	40531.8125
886.03573	40737.5125
889.84136	40988.6125
893.64433	41251.3125
897.44466	41499.7125
901.24235	41771.9125
905.0374	42142.8125
908.8298	42467.0125
912.61957	42900.4125
916.40671	43233.8125
920.19121	43488.5125
923.97308	43610.7125
927.75233	43701.2125
931.52895	43596.0125
935.30295	43269.0125
939.07433	42688.3125
942.84309	42211.9125
946.60924	41815.6125
950.37278	41416.8125
954.13371	41175.6125
957.89203	40899.9125
961.64774	40698.9125
965.40086	40493.6125
969.15137	40346.9125
972.89929	40112.7125
976.64461	40009.5125
980.38733	39979.5125
984.12747	39953.8125
987.86502	39879.3125
991.59999	39973.1125
995.33237	40088.8125
999.06217	40226.5125
1002.78939	40463.0125
1006.51404	40695.0125
1010.23611	41049.0125
1013.95561	41327.2125
1017.67255	41480.9125
1021.38692	41438.1125
1025.09872	41230.0125
1028.80796	41198.7125
1032.51465	41181.1125
1036.21877	41162.4125
1039.92035	41303.1125
1043.61937	41548.3125
1047.31584	41619.5125
1051.00976	41808.9125
1054.70114	41909.9125
1058.38998	41968.8125
1062.07627	42019.1125
1065.76003	42092.3125
1069.44126	42079.0125
1073.11995	42154.2125
1076.79611	42401.2125
1080.46974	42579.1125
1084.14085	42538.6125
1087.80943	42697.2125
1091.47549	42750.1125
1095.13903	42723.7125
1098.80005	42559.0125
1102.45857	42311.4125
1106.11456	42081.2125
1109.76805	41894.5125
1113.41903	41711.0125
1117.06751	41704.9125
1120.71348	41734.2125
1124.35696	41963.9125
1127.99793	42239.6125
1131.63641	42340.4125
1135.2724	42194.0125
1138.90589	41869.1125
1142.5369	41634.0125
1146.16542	41557.8125
1149.79145	41480.2125
1153.415	41514.1125
1157.03607	41567.2125
1160.65467	41893.2125
1164.27079	42522.9125
1167.88443	43302.2125
1171.49561	44451.3125
1175.10432	45956.1125
1178.71056	47912.3125
1182.31434	49794.1125
1185.91565	51026.3125
1189.51451	51494.2125
1193.11091	51286.0125
1196.70485	50562.3125
1200.29634	49413.9125
1203.88538	48460.8125
1207.47197	47705.0125
1211.05612	47007.4125
1214.63782	46297.2125
1218.21708	45599.2125
1221.79391	44857.2125
1225.36829	44483.7125
1228.94024	44260.5125
1232.50976	44174.5125
1236.07685	44192.9125
1239.6415	44297.1125
1243.20374	44361.0125
1246.76355	44315.9125
1250.32093	44579.6125
1253.8759	44821.0125
1257.42845	45423.0125
1260.97859	46005.3125
1264.52631	46669.2125
1268.07163	47452.3125
1271.61453	48007.0125
1275.15503	48588.2125
1278.69312	49159.1125
1282.22882	49583.2125
1285.76211	50031.5125
1289.29301	50638.5125
1292.82151	51452.2125
1296.34761	52586.2125
1299.87133	53831.7125
1303.39266	55304.9125
1306.9116	56849.0125
1310.42815	58322.7125
1313.94233	59202.1125
1317.45412	59135.5125
1320.96354	58683.1125
1324.47058	58178.7125
1327.97525	57462.3125
1331.47754	56939.6125
1334.97747	56743.6125
1338.47502	56864.2125
1341.97022	57362.9125
1345.46305	58263.4125
1348.95352	59138.3125
1352.44163	59643.6125
1355.92738	60001.3125
1359.41078	60686.8125
1362.89183	61662.2125
1366.37053	61067.9125
1369.84688	57864.2125
1373.32088	54142.0125
1376.79254	51564.5125
1380.26186	50246.6125
1383.72883	49705.7125
1387.19347	49400.9125
1390.65578	49053.4125
1394.11575	48844.9125
1397.57339	48774.5125
1401.0287	48711.4125
1404.48168	48604.6125
1407.93234	48179.6125
1411.38068	47577.0125
1414.82669	46930.4125
1418.27039	46188.9125
1421.71177	45662.5125
1425.15083	45127.6125
1428.58758	44775.9125
1432.02203	44764.0125
1435.45416	44913.6125
1438.88399	45160.9125
1442.31151	45370.0125
1445.73673	45624.2125
1449.15965	45853.9125
1452.58027	45916.1125
1455.9986	46046.0125
1459.41463	46122.1125
1462.82837	46222.2125
1466.23982	46301.3125
1469.64898	46489.7125
1473.05586	46469.5125
1476.46045	46528.8125
1479.86276	46547.9125
1483.26279	46585.6125
1486.66054	46770.8125
1490.05602	47135.4125
1493.44922	47714.7125
1496.84016	48739.8125
1500.22882	50352.6125
1503.61521	52406.4125
1506.99934	54444.4125
1510.38121	56150.6125
1513.76081	56545.5125
1517.13816	55561.1125
1520.51324	53626.4125
1523.88607	51773.1125
1527.25665	50357.2125
1530.62498	49628.4125
1533.99105	49137.3125
1537.35488	48646.1125
1540.71647	48126.4125
1544.07581	47566.7125
1547.4329	47165.9125
1550.78776	46788.2125
1554.14038	46624.1125
1557.49077	46598.7125
1560.83892	46764.6125
1564.18484	46974.5125
1567.52853	47389.2125
1570.86999	47810.9125
1574.20922	48339.4125
1577.54624	48646.3125
1580.88103	48556.5125
1584.2136	48206.3125
1587.54395	48076.5125
1590.87208	48291.1125
1594.19801	48802.7125
1597.52172	49433.1125
1600.84321	49422.4125
1604.16251	48399.6125
1607.47959	47179.9125
1610.79447	45789.6125
1614.10715	44334.4125
1617.41763	42814.8125
1620.7259	41674.9125
1624.03199	41088.4125
1627.33587	41092.0125
1630.63757	41554.4125
1633.93707	42637.3125
1637.23439	44154.2125
1640.52951	46330.2125
1643.82246	48789.8125
1647.11321	50813.0125
1650.40179	51433.2125
1653.68819	49885.5125
1656.97241	46571.5125
1660.25446	43043.1125
1663.53433	40309.1125
1666.81203	38527.7125
1670.08756	37504.2125
1673.36092	36838.3125
1676.63211	36364.7125
1679.90115	36005.2125
1683.16801	35656.9125
1686.43272	35569.8125
1689.69527	35409.7125
1692.95567	35151.9125
1696.2139	35041.8125
1699.46999	35023.6125
1702.72392	35038.9125
1705.97571	34944.1125
1709.22535	34909.6125
1712.47284	34875.9125
1715.71819	34860.7125
1718.96139	34897.8125
1722.20246	34893.2125
1725.44139	34831.8125
1728.67818	34797.1125
1731.91284	34689.6125
1735.14537	34707.7125
1738.37576	34724.1125
1741.60403	34696.8125
1744.83017	34716.1125
1748.05418	34724.8125
1751.27607	34787.2125
1754.49584	34884.1125
1757.71349	34932.2125
1760.92903	34986.9125
1764.14244	35066.6125
1767.35375	35222.5125
1770.56294	35151.8125
1773.77002	35015.1125
1776.97499	34969.6125
1780.17785	34918.8125
1783.37861	34879.3125
1786.57727	34756.9125
1789.77382	34565.2125
1792.96828	34330.7125
1796.16064	34159.9125
1799.3509	34055.9125
1802.53907	33929.2125
1805.72514	33658.8125
1808.90913	33522.3125
1812.09102	33380.9125
1815.27083	33219.6125
1818.44856	33157.1125
1821.6242	33063.1125
1824.79776	32964.6125
1827.96924	32866.0125
1831.13864	32847.9125
1834.30597	32799.2125
1837.47122	32783.2125
1840.6344	32773.0125
1843.7955	32750.9125
1846.95454	32655.9125
1850.11151	32588.8125
1853.26642	32533.3125
1856.41926	32548.0125
1859.57004	32478.2125
1862.71876	32390.2125
1865.86542	32373.0125
1869.01003	32291.1125
1872.15258	32336.0125
1875.29308	32353.1125
1878.43152	32282.7125
1881.56792	32187.1125
1884.70227	32112.1125
1887.83457	32043.7125
1890.96482	32019.5125
1894.09304	31898.8125
1897.21921	31844.3125
1900.34335	31798.4125
1903.46544	31754.1125
1906.58551	31776.1125
1909.70353	31691.7125
1912.81953	31596.9125
1915.93349	31558.1125
1919.04543	31577.7125
1922.15534	31523.1125
1925.26322	31425.2125
1928.36908	31478.2125
1931.47292	31412.4125
1934.57473	31364.0125
1937.67453	31314.5125
1940.77232	31210.2125
1943.86808	31140.1125
1946.96184	31136.5125
1950.05358	31017.4125
1953.14331	30900.1125
1956.23103	30786.8125
1959.31675	30618.7125
1962.40046	30567.6125
1965.48217	30493.6125
1968.56188	30375.8125
1971.63959	30296.4125
1974.7153	30237.8125
1977.78901	30059.1125
1980.86073	29942.9125
1983.93046	29861.5125
1986.99819	29756.5125
1990.06394	29660.1125
1993.1277	29532.6125
1996.18947	29386.5125
1999.24925	29277.3125
2002.30706	29186.2125
2005.36288	29098.8125
2008.41672	29074.8125
2011.46859	28939.6125
2014.51848	28854.9125
2017.56639	28769.2125
2020.61233	28695.7125
2023.6563	28683.3125
2026.6983	28613.1125
2029.73833	28510.4125
2032.7764	28480.5125
2035.8125	28369.0125
2038.84664	28330.7125
2041.87881	28332.3125
2044.90903	28315.2125
2047.93729	28233.9125
2050.96359	28295.9125
2053.98794	28340.4125
2057.01034	28389.4125
2060.03078	28329.6125
2063.04927	28335.3125
2066.06582	28330.4125
2069.08042	28400.8125
2072.09307	28448.3125
2075.10378	28452.8125
2078.11255	28399.3125
2081.11938	28475.3125
2084.12426	28482.6125
2087.12722	28405.9125
2090.12824	28439.5125
2093.12732	28378.2125
2096.12447	28387.6125
2099.11969	28399.3125
2102.11299	28358.7125
2105.10435	28339.5125
2108.09379	28276.2125
2111.08131	28216.6125
2114.0669	28138.4125
2117.05057	28085.5125
2120.03233	28061.1125
2123.01216	28056.7125
2125.99008	28039.9125
2128.96609	28033.9125
2131.94018	28052.4125
2134.91236	28018.5125
2137.88263	27945.1125
2140.851	27956.4125
2143.81746	27976.6125
2146.78201	27876.9125
2149.74466	27888.6125
2152.7054	27835.8125
2155.66425	27828.1125
2158.6212	27815.8125
2161.57625	27779.9125
2164.52941	27742.6125
2167.48067	27707.2125
2170.43004	27739.4125
2173.37752	27715.2125
2176.32311	27595.2125
2179.26681	27566.8125
2182.20863	27576.5125
2185.14856	27655.4125
2188.08661	27557.6125
2191.02278	27582.9125
2193.95707	27559.6125
2196.88948	27552.1125
2199.82001	27534.0125
2202.74867	27506.5125
2205.67545	27480.0125
2208.60037	27409.3125
2211.52341	27344.6125
2214.44458	27331.0125
2217.36388	27198.5125
2220.28132	27118.9125
2223.1969	27062.4125
2226.11061	27038.4125
2229.02246	27009.8125
2231.93245	26891.1125
2234.84058	26758.5125
2237.74686	26783.0125
2240.65128	26710.6125
2243.55385	26694.8125
2246.45456	26627.8125
2249.35343	26579.2125
2252.25044	26537.7125
2255.14561	26519.2125
2258.03893	26560.8125
2260.93041	26457.2125
2263.82004	26373.0125
2266.70783	26351.0125
2269.59378	26267.3125
2272.4779	26207.7125
2275.36017	26123.4125
2278.24061	26074.4125
2281.11922	26004.9125
2283.996	25928.6125
2286.87094	25908.0125
2289.74405	25891.0125
2292.61534	25866.5125
2295.4848	25854.9125
2298.35243	25813.2125
2301.21824	25731.9125
2304.08223	25744.7125
2306.94439	25712.8125
2309.80474	25702.9125
2312.66327	25696.2125
2315.51999	25631.4125
2318.37489	25546.2125
2321.22797	25473.6125
2324.07925	25427.6125
2326.92871	25341.2125
2329.77637	25339.9125
2332.62222	25268.8125
2335.46626	25239.2125
2338.3085	25161.6125
2341.14893	25170.7125
2343.98756	25152.5125
2346.8244	25114.9125
2349.65943	25044.0125
2352.49267	25086.4125
2355.32411	25052.4125
2358.15376	25013.0125
2360.98161	25004.6125
2363.80768	24978.3125
2366.63195	24956.4125
2369.45444	24908.9125
2372.27514	24894.3125
2375.09405	24883.0125
2377.91118	24857.6125
2380.72652	24804.5125
2383.54009	24763.6125
2386.35187	24737.9125
2389.16188	24702.2125
2391.97011	24615.4125
2394.77657	24584.9125
2397.58125	24543.4125
2400.38416	24473.4125
2403.18529	24337.8125
2405.98466	24317.1125
2408.78226	24229.4125
2411.57809	24263.0125
2414.37216	24249.6125
2417.16446	24198.5125
2419.955	24076.0125
2422.74378	24066.6125
2425.5308	24018.4125
2428.31606	24042.7125
2431.09956	24048.8125
2433.88131	24040.8125
2436.6613	24092.8125
2439.43954	24042.5125
2442.21603	23952.8125
2444.99077	23860.1125
2447.76377	23891.0125
2450.53501	23888.8125
2453.30451	23906.7125
2456.07226	23795.1125
2458.83827	23768.3125
2461.60254	23683.3125
2464.36507	23656.2125
2467.12586	23659.9125
2469.88492	23644.1125
2472.64224	23571.6125
2475.39782	23543.4125
2478.15167	23620.1125
2480.90379	23608.0125
2483.65417	23604.7125
2486.40283	23538.3125
2489.14976	23549.2125
2491.89497	23514.0125
2494.63845	23517.2125
2497.3802	23535.7125
2500.12024	23529.9125
2502.85855	23542.6125
2505.59514	23415.4125
2508.33002	23362.4125
2511.06318	23312.1125
2513.79462	23246.9125
2516.52435	23204.9125
2519.25237	23192.7125
2521.97867	23162.1125
2524.70327	23159.0125
2527.42616	23055.6125
2530.14734	23020.5125
2532.86681	22955.1125
2535.58458	22940.5125
2538.30065	22934.0125
2541.01501	22893.6125
2543.72768	22933.1125
2546.43864	22962.0125
2549.14791	22881.0125
2551.85548	22886.6125
2554.56136	22804.0125
2557.26554	22726.2125
2559.96803	22663.7125
2562.66883	22572.6125
2565.36794	22535.9125
2568.06536	22450.5125
2570.7611	22424.9125
2573.45514	22426.3125
2576.14751	22418.8125
2578.83819	22366.4125
2581.52719	22333.8125
2584.21451	22241.1125
2586.90015	22157.6125
2589.58411	22131.9125
2592.2664	22124.4125
2594.94701	22115.3125
2597.62594	22104.0125
2600.30321	22016.1125
2602.9788	22026.1125
2605.65273	21989.8125
2608.32498	21974.1125
2610.99557	21921.1125
2613.66449	21901.0125
2616.33175	21855.6125
2618.99734	21812.8125
2621.66128	21751.3125
2624.32355	21726.8125
2626.98416	21691.2125
2629.64311	21680.5125
2632.30041	21612.7125
2634.95605	21565.9125
2637.61004	21542.9125
2640.26238	21484.3125
2642.91306	21478.3125
2645.56209	21451.3125
2648.20948	21445.4125
2650.85521	21434.5125
2653.4993	21421.5125
2656.14175	21409.7125
2658.78255	21363.1125
2661.42171	21329.7125
2664.05923	21379.8125
2666.6951	21425.0125
2669.32934	21438.0125
2671.96194	21376.2125
2674.59291	21400.6125
2677.22224	21364.2125
2679.84993	21381.4125
2682.476	21389.9125
2685.10043	21383.2125
2687.72324	21360.8125
2690.34441	21399.8125
2692.96396	21368.9125
2695.58188	21316.7125
2698.19818	21300.0125
2700.81285	21321.7125
2703.4259	21287.0125
2706.03733	21205.9125
2708.64714	21191.4125
2711.25533	21229.5125
2713.86191	21220.6125
2716.46687	21281.2125
2719.07021	21303.0125
2721.67194	21339.9125
2724.27206	21307.0125
2726.87057	21340.5125
2729.46747	21325.2125
2732.06276	21271.0125
2734.65644	21270.4125
2737.24852	21270.9125
2739.83899	21193.2125
2742.42786	21210.7125
2745.01513	21224.1125
2747.60079	21193.6125
2750.18486	21105.9125
2752.76733	21103.9125
2755.3482	21064.7125
2757.92747	21060.4125
2760.50515	20993.4125
2763.08123	20943.7125
2765.65573	20924.0125
2768.22863	20886.9125
2770.79994	20878.6125
2773.36967	20863.5125
2775.9378	20809.2125
2778.50435	20781.9125
2781.06932	20759.7125
2783.6327	20730.1125
2786.1945	20687.1125
2788.75471	20668.0125
2791.31335	20647.1125
2793.87041	20619.7125
2796.42589	20572.7125
2798.97979	20524.1125
2801.53212	20446.5125
2804.08288	20406.8125
2806.63206	20348.7125
2809.17967	20279.6125
2811.72571	20266.7125
2814.27018	20176.4125
2816.81308	20124.7125
2819.35442	20107.0125
2821.89419	20083.3125
2824.43239	20032.1125
2826.96904	19981.9125
2829.50412	19960.6125
2832.03763	19939.8125
2834.56959	19972.6125
2837.1	19943.3125
2839.62884	19952.8125
2842.15613	19986.8125
2844.68186	20057.0125
2847.20604	20050.6125
2849.72867	20167.3125
2852.24974	20119.9125
2854.76927	20116.4125
2857.28724	20112.1125
2859.80367	20115.4125
2862.31855	20128.1125
2864.83189	20129.2125
2867.34368	20065.3125
2869.85393	20025.6125
2872.36264	20015.8125
2874.8698	20005.0125
2877.37543	19980.7125
2879.87952	19955.4125
2882.38207	19942.2125
2884.88308	19974.4125
2887.38256	19982.2125
2889.88051	19957.0125
2892.37692	19983.2125
2894.8718	20025.0125
2897.36515	20092.2125
2899.85698	20042.8125
2902.34727	20042.2125
2904.83604	20108.5125
2907.32328	20190.8125
2909.809	20179.1125
2912.29319	20229.5125
2914.77587	20249.9125
2917.25702	20252.9125
2919.73665	20209.2125
2922.21476	20272.5125
2924.69136	20216.4125
2927.16644	20191.8125
2929.64	20102.7125
2932.11205	20078.5125
2934.58258	19972.8125
2937.05161	19957.8125
2939.51912	19914.9125
2941.98513	19837.0125
2944.44962	19799.9125
2946.91261	19668.7125
2949.37409	19611.4125
2951.83407	19625.7125
2954.29254	19609.8125
2956.74951	19537.9125
2959.20498	19522.3125
2961.65895	19450.1125
2964.11142	19497.5125
2966.56239	19506.6125
2969.01186	19464.7125
2971.45984	19342.4125
2973.90632	19326.8125
2976.35131	19311.7125
2978.7948	19310.0125
2981.23681	19249.8125
2983.67732	19177.4125
2986.11635	19122.5125
2988.55388	19091.0125
2990.98993	19039.1125
2993.4245	19030.2125
2995.85758	18959.1125
2998.28917	18904.3125
3000.71928	18862.8125
3003.14791	18767.7125
3005.57506	18828.4125
3008.00073	18730.6125
3010.42493	18735.2125
3012.84764	18716.9125
3015.26888	18679.8125
3017.68865	18650.6125
3020.10694	18636.0125
3022.52376	18559.8125
