Data from AgNP_FTO_APTES_UA_10uM_CRN_10uM_R6G_10uM_NaF_0.1M_Addition_RamanShift__12__15-38-20-699.txt Node

Date: Thu Feb 10 15:38:20 GMT 2022
User: TCL
Spectrometer: QEP01345
Trigger mode: 4
Integration Time (sec): 7.000000E0
Scans to average: 10
Electric dark correction enabled: true
Nonlinearity correction enabled: false
Boxcar width: 0
XAxis mode: Raman Shifts
Number of Pixels in Spectrum: 1044
>>>>>Begin Spectral Data<<<<<
46.04893	-0.0875
50.45542	-0.8875
54.85868	-0.9875
59.25871	-1.4875
63.6555	75.0125
68.04907	74.7125
72.43941	79.7125
76.82654	77.8125
81.21044	83.8125
85.59113	85.6125
89.96862	89.3125
94.34289	92.4125
98.71396	94.9125
103.08183	103.0125
107.4465	105.4125
111.80798	103.1125
116.16626	105.6125
120.52136	109.8125
124.87327	117.8125
129.222	120.3125
133.56755	133.3125
137.90993	139.9125
142.24913	151.7125
146.58517	173.6125
150.91804	199.1125
155.24774	243.8125
159.57429	301.9125
163.89768	385.4125
168.21792	508.7125
172.53501	698.0125
176.84895	973.8125
181.15975	1367.2125
185.46741	1916.6125
189.77193	2657.1125
194.07331	3556.2125
198.37157	4593.3125
202.6667	5677.8125
206.9587	6730.7125
211.24758	7772.7125
215.53334	8823.0125
219.81599	9923.1125
224.09553	11063.5125
228.37195	12400.2125
232.64527	13819.2125
236.91549	15356.6125
241.18261	16942.9125
245.44663	18381.1125
249.70755	19725.9125
253.96539	20931.5125
258.22014	21962.9125
262.4718	22711.9125
266.72039	23303.2125
270.96589	23590.7125
275.20832	23661.5125
279.44768	23603.5125
283.68397	23478.2125
287.91719	23307.9125
292.14735	23173.3125
296.37445	23162.2125
300.59849	23161.7125
304.81948	23173.6125
309.03742	23183.9125
313.25231	22970.6125
317.46415	22616.5125
321.67296	22214.2125
325.87872	21891.4125
330.08145	21707.8125
334.28114	21733.2125
338.47781	21841.3125
342.67145	22030.5125
346.86207	22295.1125
351.04966	22605.1125
355.23424	22862.7125
359.4158	23118.6125
363.59435	23334.4125
367.76989	23534.0125
371.94243	23646.3125
376.11196	23737.2125
380.27849	23742.3125
384.44203	23820.9125
388.60257	23991.5125
392.76012	24265.3125
396.91468	24637.2125
401.06626	25005.6125
405.21485	25264.9125
409.36047	25254.8125
413.50311	25025.9125
417.64277	24900.4125
421.77947	25005.6125
425.9132	25167.1125
430.04396	25346.8125
434.17176	25411.2125
438.2966	25533.0125
442.41849	25764.2125
446.53742	26208.2125
450.6534	26715.8125
454.76644	27079.2125
458.87653	27273.2125
462.98368	27299.6125
467.08789	27180.1125
471.18916	26951.6125
475.2875	26691.8125
479.38291	26583.3125
483.4754	26444.3125
487.56496	26298.8125
491.6516	26036.6125
495.73531	25671.9125
499.81612	25462.7125
503.89401	25500.7125
507.96899	25590.2125
512.04106	25673.1125
516.11023	25584.7125
520.1765	25363.8125
524.23987	25150.9125
528.30034	24829.1125
532.35792	24646.6125
536.41261	24427.1125
540.46441	24277.9125
544.51333	24361.2125
548.55936	24566.3125
552.60252	24999.7125
556.64279	25423.7125
560.6802	25779.3125
564.71473	26119.9125
568.7464	26595.1125
572.7752	27501.4125
576.80114	28557.8125
580.82422	29563.6125
584.84444	30298.5125
588.86181	30944.4125
592.87633	31526.3125
596.888	31289.7125
600.89682	30261.1125
604.9028	29779.7125
608.90594	30609.7125
612.90624	31416.4125
616.90371	29523.6125
620.89834	26434.8125
624.89015	25223.9125
628.87913	25270.4125
632.86528	25494.1125
636.84862	25494.4125
640.82913	25107.6125
644.80683	24621.4125
648.78172	24223.7125
652.75379	24126.4125
656.72306	24254.5125
660.68952	24549.2125
664.65319	24497.5125
668.61405	24259.7125
672.57211	24294.4125
676.52738	24342.4125
680.47986	24322.5125
684.42955	24180.9125
688.37646	24149.5125
692.32058	24242.3125
696.26192	24460.5125
700.20048	24751.0125
704.13626	24936.3125
708.06928	25037.7125
711.99952	25031.8125
715.927	24900.5125
719.85171	24805.2125
723.77365	24683.8125
727.69284	24377.5125
731.60928	24074.5125
735.52295	23927.7125
739.43388	23844.3125
743.34206	23910.6125
747.24749	24015.0125
751.15017	24274.2125
755.05012	24637.9125
758.94733	25299.7125
762.8418	26223.1125
766.73354	27596.6125
770.62254	28676.7125
774.50882	28696.9125
778.39237	27640.9125
782.27321	26267.9125
786.15132	25240.0125
790.02671	24508.0125
793.89938	24106.6125
797.76935	23875.7125
801.6366	23746.2125
805.50115	23701.1125
809.36299	23556.3125
813.22213	23466.5125
817.07857	23444.0125
820.93231	23439.9125
824.78336	23358.5125
828.63172	23242.3125
832.47738	23152.6125
836.32036	23139.9125
840.16066	23147.8125
843.99827	23151.4125
847.8332	23109.5125
851.66546	23226.2125
855.49504	23261.3125
859.32195	23255.8125
863.1462	23223.9125
866.96777	23153.2125
870.78668	23128.0125
874.60293	23163.1125
878.41652	23139.4125
882.22745	23175.6125
886.03573	23232.8125
889.84136	23232.5125
893.64433	23146.0125
897.44466	23081.8125
901.24235	23061.8125
905.0374	23064.7125
908.8298	23055.2125
912.61957	23166.0125
916.40671	23336.5125
920.19121	23659.6125
923.97308	23865.0125
927.75233	23759.5125
931.52895	23426.6125
935.30295	23091.6125
939.07433	22764.2125
942.84309	22505.8125
946.60924	22365.6125
950.37278	22325.3125
954.13371	22361.7125
957.89203	22326.7125
961.64774	22316.9125
965.40086	22269.1125
969.15137	22272.2125
972.89929	22172.5125
976.64461	22102.8125
980.38733	22050.6125
984.12747	22056.3125
987.86502	22051.9125
991.59999	22150.4125
995.33237	22295.6125
999.06217	22559.2125
1002.78939	22872.0125
1006.51404	23176.4125
1010.23611	23581.3125
1013.95561	23788.1125
1017.67255	23817.4125
1021.38692	23623.4125
1025.09872	23344.4125
1028.80796	23092.4125
1032.51465	22931.0125
1036.21877	22987.0125
1039.92035	23093.6125
1043.61937	23165.3125
1047.31584	23263.7125
1051.00976	23324.8125
1054.70114	23477.6125
1058.38998	23676.0125
1062.07627	23992.4125
1065.76003	24319.1125
1069.44126	24578.9125
1073.11995	24914.9125
1076.79611	25223.7125
1080.46974	25317.9125
1084.14085	25434.5125
1087.80943	25658.1125
1091.47549	25877.1125
1095.13903	25968.4125
1098.80005	25730.0125
1102.45857	25210.4125
1106.11456	24711.3125
1109.76805	24450.7125
1113.41903	24330.2125
1117.06751	24394.1125
1120.71348	24566.7125
1124.35696	24712.7125
1127.99793	24927.7125
1131.63641	25145.1125
1135.2724	25225.7125
1138.90589	25192.5125
1142.5369	25243.6125
1146.16542	25388.3125
1149.79145	25594.2125
1153.415	25913.0125
1157.03607	26257.7125
1160.65467	26831.1125
1164.27079	27755.4125
1167.88443	28844.1125
1171.49561	30054.8125
1175.10432	31418.5125
1178.71056	33100.3125
1182.31434	34636.5125
1185.91565	35710.7125
1189.51451	36117.6125
1193.11091	35898.1125
1196.70485	35077.9125
1200.29634	34073.0125
1203.88538	33255.4125
1207.47197	32940.8125
1211.05612	32768.9125
1214.63782	32337.0125
1218.21708	31562.2125
1221.79391	30478.9125
1225.36829	29684.5125
1228.94024	29262.1125
1232.50976	28971.1125
1236.07685	28816.2125
1239.6415	28748.7125
1243.20374	28730.5125
1246.76355	28875.7125
1250.32093	29222.9125
1253.8759	29716.3125
1257.42845	30397.3125
1260.97859	31182.8125
1264.52631	31939.7125
1268.07163	32724.3125
1271.61453	33555.9125
1275.15503	34252.8125
1278.69312	35067.0125
1282.22882	35866.2125
1285.76211	36863.4125
1289.29301	38005.1125
1292.82151	39381.6125
1296.34761	40943.8125
1299.87133	42779.1125
1303.39266	44558.7125
1306.9116	46022.2125
1310.42815	46878.8125
1313.94233	47274.8125
1317.45412	47114.9125
1320.96354	46864.3125
1324.47058	46897.1125
1327.97525	47183.0125
1331.47754	47494.8125
1334.97747	47772.7125
1338.47502	48093.9125
1341.97022	48414.4125
1345.46305	48471.0125
1348.95352	48056.3125
1352.44163	47272.5125
1355.92738	46533.8125
1359.41078	46316.5125
1362.89183	46164.1125
1366.37053	45139.7125
1369.84688	42712.2125
1373.32088	39660.0125
1376.79254	37475.7125
1380.26186	36642.2125
1383.72883	36692.8125
1387.19347	36831.3125
1390.65578	36668.9125
1394.11575	36524.1125
1397.57339	36753.1125
1401.0287	36982.2125
1404.48168	37181.5125
1407.93234	36946.1125
1411.38068	36227.5125
1414.82669	35086.8125
1418.27039	33827.5125
1421.71177	32595.3125
1425.15083	31674.7125
1428.58758	31262.7125
1432.02203	31541.1125
1435.45416	32271.9125
1438.88399	33078.9125
1442.31151	33800.9125
1445.73673	34193.6125
1449.15965	34473.6125
1452.58027	34788.4125
1455.9986	35035.7125
1459.41463	35372.7125
1462.82837	35922.7125
1466.23982	36435.1125
1469.64898	36795.7125
1473.05586	36956.1125
1476.46045	36929.9125
1479.86276	36639.2125
1483.26279	36339.9125
1486.66054	36277.8125
1490.05602	36336.3125
1493.44922	36671.0125
1496.84016	37184.1125
1500.22882	37919.8125
1503.61521	38785.4125
1506.99934	39677.7125
1510.38121	40210.8125
1513.76081	40272.8125
1517.13816	39869.1125
1520.51324	39418.2125
1523.88607	39215.6125
1527.25665	39233.9125
1530.62498	39338.0125
1533.99105	39164.3125
1537.35488	38565.0125
1540.71647	37620.3125
1544.07581	36476.1125
1547.4329	35488.6125
1550.78776	34681.3125
1554.14038	34180.4125
1557.49077	33833.5125
1560.83892	33658.1125
1564.18484	33534.6125
1567.52853	33569.5125
1570.86999	33766.0125
1574.20922	34270.2125
1577.54624	34794.5125
1580.88103	35117.7125
1584.2136	35464.6125
1587.54395	36203.7125
1590.87208	37455.2125
1594.19801	38948.1125
1597.52172	40267.2125
1600.84321	40294.0125
1604.16251	38743.5125
1607.47959	36504.4125
1610.79447	34041.5125
1614.10715	31767.9125
1617.41763	29753.3125
1620.7259	28301.8125
1624.03199	27519.4125
1627.33587	27394.0125
1630.63757	28019.3125
1633.93707	29571.1125
1637.23439	32141.6125
1640.52951	35890.0125
1643.82246	40141.5125
1647.11321	43316.4125
1650.40179	43782.1125
1653.68819	40990.5125
1656.97241	36310.2125
1660.25446	31672.8125
1663.53433	28077.9125
1666.81203	25623.4125
1670.08756	24038.8125
1673.36092	23053.2125
1676.63211	22419.0125
1679.90115	21922.9125
1683.16801	21605.1125
1686.43272	21344.6125
1689.69527	21156.5125
1692.95567	20994.2125
1696.2139	20901.4125
1699.46999	20840.8125
1702.72392	20719.5125
1705.97571	20646.2125
1709.22535	20601.4125
1712.47284	20504.7125
1715.71819	20460.0125
1718.96139	20394.8125
1722.20246	20316.5125
1725.44139	20248.0125
1728.67818	20142.8125
1731.91284	19988.9125
1735.14537	19854.1125
1738.37576	19790.7125
1741.60403	19714.7125
1744.83017	19703.3125
1748.05418	19593.2125
1751.27607	19551.9125
1754.49584	19536.3125
1757.71349	19548.6125
1760.92903	19526.4125
1764.14244	19427.4125
1767.35375	19471.5125
1770.56294	19448.2125
1773.77002	19398.8125
1776.97499	19359.9125
1780.17785	19275.9125
1783.37861	19250.5125
1786.57727	19219.9125
1789.77382	19153.7125
1792.96828	19089.4125
1796.16064	19038.4125
1799.3509	19022.1125
1802.53907	19031.4125
1805.72514	18923.1125
1808.90913	18875.5125
1812.09102	18858.4125
1815.27083	18838.8125
1818.44856	18824.3125
1821.6242	18730.8125
1824.79776	18700.0125
1827.96924	18718.0125
1831.13864	18671.3125
1834.30597	18707.5125
1837.47122	18716.0125
1840.6344	18676.6125
1843.7955	18698.5125
1846.95454	18687.8125
1850.11151	18696.3125
1853.26642	18650.5125
1856.41926	18641.0125
1859.57004	18634.4125
1862.71876	18600.5125
1865.86542	18553.9125
1869.01003	18485.9125
1872.15258	18463.5125
1875.29308	18474.9125
1878.43152	18444.9125
1881.56792	18392.2125
1884.70227	18355.1125
1887.83457	18344.7125
1890.96482	18303.0125
1894.09304	18274.8125
1897.21921	18232.5125
1900.34335	18230.2125
1903.46544	18165.7125
1906.58551	18148.8125
1909.70353	18126.0125
1912.81953	18082.1125
1915.93349	18058.3125
1919.04543	18018.8125
1922.15534	17998.8125
1925.26322	17958.2125
1928.36908	17898.0125
1931.47292	17852.2125
1934.57473	17803.8125
1937.67453	17784.7125
1940.77232	17764.1125
1943.86808	17689.2125
1946.96184	17616.1125
1950.05358	17568.3125
1953.14331	17498.0125
1956.23103	17479.3125
1959.31675	17427.7125
1962.40046	17350.4125
1965.48217	17295.0125
1968.56188	17242.0125
1971.63959	17166.7125
1974.7153	17142.6125
1977.78901	17070.4125
1980.86073	17053.6125
1983.93046	16962.9125
1986.99819	16899.4125
1990.06394	16887.8125
1993.1277	16815.6125
1996.18947	16758.5125
1999.24925	16720.7125
2002.30706	16674.2125
2005.36288	16607.4125
2008.41672	16547.4125
2011.46859	16495.7125
2014.51848	16478.4125
2017.56639	16421.1125
2020.61233	16410.2125
2023.6563	16366.1125
2026.6983	16310.3125
2029.73833	16233.9125
2032.7764	16227.1125
2035.8125	16163.1125
2038.84664	16125.8125
2041.87881	16061.3125
2044.90903	16042.9125
2047.93729	16020.5125
2050.96359	15979.9125
2053.98794	15955.6125
2057.01034	15960.2125
2060.03078	15917.0125
2063.04927	15880.0125
2066.06582	15911.4125
2069.08042	15923.7125
2072.09307	15897.1125
2075.10378	15876.2125
2078.11255	15860.9125
2081.11938	15860.8125
2084.12426	15836.6125
2087.12722	15832.5125
2090.12824	15835.6125
2093.12732	15832.8125
2096.12447	15803.5125
2099.11969	15796.1125
2102.11299	15793.4125
2105.10435	15798.1125
2108.09379	15808.5125
2111.08131	15826.3125
2114.0669	15797.9125
2117.05057	15800.1125
2120.03233	15820.3125
2123.01216	15861.1125
2125.99008	15869.0125
2128.96609	15858.6125
2131.94018	15880.1125
2134.91236	15890.8125
2137.88263	15860.3125
2140.851	15867.8125
2143.81746	15880.8125
2146.78201	15892.6125
2149.74466	15854.9125
2152.7054	15826.0125
2155.66425	15841.2125
2158.6212	15836.3125
2161.57625	15848.2125
2164.52941	15848.1125
2167.48067	15799.9125
2170.43004	15775.4125
2173.37752	15791.7125
2176.32311	15782.5125
2179.26681	15799.3125
2182.20863	15799.2125
2185.14856	15778.4125
2188.08661	15773.0125
2191.02278	15787.1125
2193.95707	15738.8125
2196.88948	15743.8125
2199.82001	15720.4125
2202.74867	15688.2125
2205.67545	15640.9125
2208.60037	15614.4125
2211.52341	15607.6125
2214.44458	15579.3125
2217.36388	15544.5125
2220.28132	15523.8125
2223.1969	15504.1125
2226.11061	15490.7125
2229.02246	15454.8125
2231.93245	15394.4125
2234.84058	15376.4125
2237.74686	15365.6125
2240.65128	15343.2125
2243.55385	15302.6125
2246.45456	15288.3125
2249.35343	15252.1125
2252.25044	15219.2125
2255.14561	15163.9125
2258.03893	15170.5125
2260.93041	15152.8125
2263.82004	15064.6125
2266.70783	15044.8125
2269.59378	14985.3125
2272.4779	14937.6125
2275.36017	14891.4125
2278.24061	14882.7125
2281.11922	14872.5125
2283.996	14861.1125
2286.87094	14832.4125
2289.74405	14802.4125
2292.61534	14765.1125
2295.4848	14753.9125
2298.35243	14746.0125
2301.21824	14730.9125
2304.08223	14721.6125
2306.94439	14712.9125
2309.80474	14696.0125
2312.66327	14690.0125
2315.51999	14652.8125
2318.37489	14619.0125
2321.22797	14613.1125
2324.07925	14623.7125
2326.92871	14548.1125
2329.77637	14516.7125
2332.62222	14517.5125
2335.46626	14481.4125
2338.3085	14476.0125
2341.14893	14485.7125
2343.98756	14461.8125
2346.8244	14454.6125
2349.65943	14431.2125
2352.49267	14448.9125
2355.32411	14429.2125
2358.15376	14435.9125
2360.98161	14432.3125
2363.80768	14462.1125
2366.63195	14439.0125
2369.45444	14396.7125
2372.27514	14364.2125
2375.09405	14365.1125
2377.91118	14326.3125
2380.72652	14292.4125
2383.54009	14262.7125
2386.35187	14272.4125
2389.16188	14203.7125
2391.97011	14152.7125
2394.77657	14125.0125
2397.58125	14084.8125
2400.38416	14118.7125
2403.18529	14080.8125
2405.98466	14049.4125
2408.78226	14037.8125
2411.57809	14025.1125
2414.37216	13997.5125
2417.16446	14002.4125
2419.955	13974.1125
2422.74378	13962.8125
2425.5308	13949.6125
2428.31606	13943.2125
2431.09956	13933.4125
2433.88131	13943.3125
2436.6613	13925.1125
2439.43954	13901.0125
2442.21603	13905.1125
2444.99077	13879.2125
2447.76377	13864.7125
2450.53501	13844.6125
2453.30451	13835.9125
2456.07226	13831.1125
2458.83827	13850.0125
2461.60254	13832.9125
2464.36507	13807.7125
2467.12586	13775.1125
2469.88492	13734.9125
2472.64224	13758.9125
2475.39782	13764.4125
2478.15167	13765.2125
2480.90379	13766.8125
2483.65417	13764.3125
2486.40283	13765.5125
2489.14976	13730.1125
2491.89497	13749.8125
2494.63845	13767.0125
2497.3802	13743.2125
2500.12024	13739.3125
2502.85855	13713.1125
2505.59514	13716.4125
2508.33002	13696.2125
2511.06318	13663.3125
2513.79462	13678.1125
2516.52435	13645.4125
2519.25237	13640.6125
2521.97867	13595.9125
2524.70327	13594.1125
2527.42616	13587.1125
2530.14734	13601.0125
2532.86681	13570.7125
2535.58458	13552.0125
2538.30065	13552.4125
2541.01501	13544.3125
2543.72768	13560.0125
2546.43864	13541.4125
2549.14791	13525.2125
2551.85548	13499.9125
2554.56136	13478.6125
2557.26554	13448.2125
2559.96803	13405.4125
2562.66883	13371.8125
2565.36794	13380.0125
2568.06536	13367.0125
2570.7611	13350.6125
2573.45514	13321.1125
2576.14751	13327.8125
2578.83819	13297.8125
2581.52719	13272.8125
2584.21451	13258.5125
2586.90015	13251.8125
2589.58411	13225.2125
2592.2664	13196.6125
2594.94701	13195.4125
2597.62594	13187.0125
2600.30321	13156.8125
2602.9788	13147.0125
2605.65273	13139.5125
2608.32498	13148.7125
2610.99557	13164.6125
2613.66449	13159.3125
2616.33175	13102.4125
2618.99734	13143.5125
2621.66128	13090.1125
2624.32355	13051.0125
2626.98416	13067.3125
2629.64311	13045.0125
2632.30041	13027.0125
2634.95605	13022.0125
2637.61004	12985.5125
2640.26238	12992.4125
2642.91306	12964.6125
2645.56209	12954.5125
2648.20948	12999.5125
2650.85521	12972.2125
2653.4993	12977.4125
2656.14175	12924.0125
2658.78255	12996.4125
2661.42171	12994.2125
2664.05923	13014.5125
2666.6951	13000.4125
2669.32934	13012.3125
2671.96194	13016.8125
2674.59291	13029.5125
2677.22224	13004.4125
2679.84993	13005.0125
2682.476	12976.7125
2685.10043	12990.3125
2687.72324	12972.9125
2690.34441	12978.3125
2692.96396	13002.1125
2695.58188	13010.7125
2698.19818	12995.7125
2700.81285	12981.9125
2703.4259	13003.5125
2706.03733	13012.5125
2708.64714	12991.7125
2711.25533	12996.2125
2713.86191	12992.5125
2716.46687	13004.4125
2719.07021	12979.6125
2721.67194	13017.3125
2724.27206	13010.8125
2726.87057	13023.3125
2729.46747	13025.5125
2732.06276	13058.2125
2734.65644	13015.3125
2737.24852	12975.0125
2739.83899	13005.8125
2742.42786	13009.4125
2745.01513	13003.0125
2747.60079	12964.4125
2750.18486	12963.5125
2752.76733	12926.7125
2755.3482	12920.4125
2757.92747	12915.5125
2760.50515	12928.0125
2763.08123	12892.5125
2765.65573	12870.1125
2768.22863	12884.3125
2770.79994	12857.4125
2773.36967	12833.2125
2775.9378	12839.4125
2778.50435	12828.4125
2781.06932	12823.9125
2783.6327	12823.3125
2786.1945	12784.5125
2788.75471	12794.8125
2791.31335	12740.3125
2793.87041	12741.8125
2796.42589	12747.3125
2798.97979	12726.5125
2801.53212	12697.4125
2804.08288	12718.0125
2806.63206	12680.4125
2809.17967	12642.1125
2811.72571	12595.1125
2814.27018	12575.6125
2816.81308	12534.4125
2819.35442	12485.9125
2821.89419	12475.0125
2824.43239	12450.7125
2826.96904	12425.5125
2829.50412	12425.0125
2832.03763	12402.2125
2834.56959	12395.0125
2837.1	12366.1125
2839.62884	12392.4125
2842.15613	12376.9125
2844.68186	12408.6125
2847.20604	12365.4125
2849.72867	12358.5125
2852.24974	12348.5125
2854.76927	12329.2125
2857.28724	12318.1125
2859.80367	12294.7125
2862.31855	12263.4125
2864.83189	12241.0125
2867.34368	12194.3125
2869.85393	12224.1125
2872.36264	12199.5125
2874.8698	12169.2125
2877.37543	12191.8125
2879.87952	12194.0125
2882.38207	12163.0125
2884.88308	12172.0125
2887.38256	12181.4125
2889.88051	12141.5125
2892.37692	12162.2125
2894.8718	12153.8125
2897.36515	12163.6125
2899.85698	12175.2125
2902.34727	12190.5125
2904.83604	12175.2125
2907.32328	12210.2125
2909.809	12189.4125
2912.29319	12196.2125
2914.77587	12163.4125
2917.25702	12156.2125
2919.73665	12141.2125
2922.21476	12175.4125
2924.69136	12139.4125
2927.16644	12157.9125
2929.64	12114.4125
2932.11205	12091.8125
2934.58258	12072.8125
2937.05161	12099.9125
2939.51912	12085.0125
2941.98513	12051.8125
2944.44962	12031.0125
2946.91261	12007.8125
2949.37409	12059.7125
2951.83407	12016.4125
2954.29254	12003.8125
2956.74951	11993.2125
2959.20498	11981.7125
2961.65895	11955.2125
2964.11142	11964.8125
2966.56239	11958.8125
2969.01186	11948.4125
2971.45984	11899.0125
2973.90632	11898.3125
2976.35131	11880.0125
2978.7948	11883.0125
2981.23681	11843.7125
2983.67732	11844.9125
2986.11635	11777.5125
2988.55388	11748.0125
2990.98993	11741.6125
2993.4245	11699.9125
2995.85758	11673.3125
2998.28917	11631.3125
3000.71928	11616.1125
3003.14791	11565.9125
3005.57506	11567.5125
3008.00073	11497.4125
3010.42493	11343.0125
3012.84764	11432.6125
3015.26888	11410.1125
3017.68865	11391.8125
3020.10694	11383.2125
3022.52376	11367.2125
