Data from AgNP_FTO_APTES_UA_10uM_CRN_100uM_R6G_10uM_NaF_0.1M_Addition_RamanShift__20__17-47-50-860.txt Node

Date: Thu Feb 10 17:47:50 GMT 2022
User: TCL
Spectrometer: QEP01345
Trigger mode: 4
Integration Time (sec): 7.000000E0
Scans to average: 10
Electric dark correction enabled: true
Nonlinearity correction enabled: false
Boxcar width: 0
XAxis mode: Raman Shifts
Number of Pixels in Spectrum: 1044
>>>>>Begin Spectral Data<<<<<
46.04893	-0.0625
50.45542	-0.4625
54.85868	-2.2625
59.25871	-1.0625
63.6555	63.8375
68.04907	65.1375
72.43941	73.6375
76.82654	71.0375
81.21044	78.3375
85.59113	77.2375
89.96862	82.0375
94.34289	82.2375
98.71396	87.8375
103.08183	92.7375
107.4465	92.2375
111.80798	91.4375
116.16626	98.8375
120.52136	99.6375
124.87327	104.0375
129.222	110.3375
133.56755	114.8375
137.90993	121.0375
142.24913	129.6375
146.58517	150.4375
150.91804	168.1375
155.24774	201.8375
159.57429	243.3375
163.89768	311.9375
168.21792	409.8375
172.53501	564.7375
176.84895	787.9375
181.15975	1103.9375
185.46741	1548.1375
189.77193	2136.2375
194.07331	2859.7375
198.37157	3686.9375
202.6667	4580.2375
206.9587	5443.4375
211.24758	6270.8375
215.53334	7119.2375
219.81599	7996.3375
224.09553	8944.5375
228.37195	10018.0375
232.64527	11191.0375
236.91549	12473.6375
241.18261	13760.7375
245.44663	14979.5375
249.70755	16125.4375
253.96539	17130.9375
258.22014	17999.0375
262.4718	18728.5375
266.72039	19272.1375
270.96589	19611.8375
275.20832	19655.5375
279.44768	19654.2375
283.68397	19474.5375
287.91719	19293.9375
292.14735	19198.4375
296.37445	19181.9375
300.59849	19166.6375
304.81948	19192.6375
309.03742	19042.5375
313.25231	18789.7375
317.46415	18431.3375
321.67296	17974.9375
325.87872	17677.8375
330.08145	17542.9375
334.28114	17590.1375
338.47781	17731.4375
342.67145	17945.0375
346.86207	18208.7375
351.04966	18547.8375
355.23424	18870.4375
359.4158	19201.3375
363.59435	19446.0375
367.76989	19652.2375
371.94243	19763.3375
376.11196	19929.4375
380.27849	20056.3375
384.44203	20237.6375
388.60257	20337.3375
392.76012	20440.3375
396.91468	20660.6375
401.06626	20935.7375
405.21485	21147.8375
409.36047	21135.2375
413.50311	20920.3375
417.64277	20728.1375
421.77947	20739.8375
425.9132	20763.9375
430.04396	20909.5375
434.17176	21090.2375
438.2966	21270.8375
442.41849	21637.1375
446.53742	22020.2375
450.6534	22531.6375
454.76644	23001.1375
458.87653	23170.9375
462.98368	23109.2375
467.08789	22958.6375
471.18916	22765.7375
475.2875	22644.5375
479.38291	22553.3375
483.4754	22428.1375
487.56496	22212.0375
491.6516	21869.9375
495.73531	21651.2375
499.81612	21496.2375
503.89401	21545.8375
507.96899	21593.2375
512.04106	21550.7375
516.11023	21532.1375
520.1765	21439.3375
524.23987	21368.9375
528.30034	21195.7375
532.35792	21110.6375
536.41261	20973.1375
540.46441	20853.3375
544.51333	20930.9375
548.55936	21110.3375
552.60252	21383.3375
556.64279	21705.3375
560.6802	21895.8375
564.71473	22016.6375
568.7464	22218.0375
572.7752	22523.2375
576.80114	22698.1375
580.82422	22779.4375
584.84444	22890.0375
588.86181	23070.7375
592.87633	23307.7375
596.888	23489.3375
600.89682	23654.1375
604.9028	24195.4375
608.90594	25666.2375
612.90624	27288.1375
616.90371	26140.8375
620.89834	23097.3375
624.89015	21772.6375
628.87913	21657.8375
632.86528	21683.0375
636.84862	21669.9375
640.82913	21463.6375
644.80683	21115.4375
648.78172	20861.9375
652.75379	20754.2375
656.72306	20896.4375
660.68952	21176.4375
664.65319	21113.8375
668.61405	20889.6375
672.57211	20856.7375
676.52738	20849.9375
680.47986	20852.0375
684.42955	20854.5375
688.37646	20883.2375
692.32058	20881.2375
696.26192	21005.7375
700.20048	21187.8375
704.13626	21299.9375
708.06928	21241.6375
711.99952	21133.8375
715.927	21094.6375
719.85171	21069.8375
723.77365	21078.1375
727.69284	21028.8375
731.60928	20869.6375
735.52295	20836.1375
739.43388	20885.3375
743.34206	20922.2375
747.24749	21017.7375
751.15017	21093.1375
755.05012	21339.2375
758.94733	21767.3375
762.8418	22484.0375
766.73354	23599.1375
770.62254	24635.7375
774.50882	25036.5375
778.39237	24251.1375
782.27321	22879.9375
786.15132	21830.6375
790.02671	21192.8375
793.89938	20910.3375
797.76935	20776.2375
801.6366	20775.4375
805.50115	20743.3375
809.36299	20663.1375
813.22213	20592.5375
817.07857	20556.8375
820.93231	20534.8375
824.78336	20522.5375
828.63172	20550.6375
832.47738	20485.0375
836.32036	20542.0375
840.16066	20576.2375
843.99827	20627.3375
847.8332	20578.0375
851.66546	20550.3375
855.49504	20544.3375
859.32195	20565.2375
863.1462	20523.5375
866.96777	20457.0375
870.78668	20422.1375
874.60293	20450.0375
878.41652	20442.1375
882.22745	20489.6375
886.03573	20489.1375
889.84136	20466.0375
893.64433	20419.6375
897.44466	20363.4375
901.24235	20319.3375
905.0374	20279.1375
908.8298	20278.0375
912.61957	20312.3375
916.40671	20441.7375
920.19121	20545.3375
923.97308	20728.2375
927.75233	20733.3375
931.52895	20669.4375
935.30295	20530.6375
939.07433	20284.6375
942.84309	20113.1375
946.60924	20011.4375
950.37278	19974.6375
954.13371	19878.9375
957.89203	19812.9375
961.64774	19746.2375
965.40086	19711.5375
969.15137	19636.2375
972.89929	19586.0375
976.64461	19540.8375
980.38733	19531.0375
984.12747	19648.4375
987.86502	19755.9375
991.59999	19925.5375
995.33237	20212.6375
999.06217	20595.2375
1002.78939	21002.9375
1006.51404	21221.8375
1010.23611	21328.9375
1013.95561	21436.9375
1017.67255	21511.6375
1021.38692	21377.4375
1025.09872	21269.3375
1028.80796	21406.2375
1032.51465	21783.5375
1036.21877	22213.7375
1039.92035	22236.1375
1043.61937	22018.8375
1047.31584	21641.7375
1051.00976	21241.0375
1054.70114	21044.4375
1058.38998	21060.2375
1062.07627	21132.2375
1065.76003	21205.6375
1069.44126	21253.2375
1073.11995	21348.7375
1076.79611	21445.1375
1080.46974	21502.4375
1084.14085	21643.5375
1087.80943	21771.3375
1091.47549	21869.7375
1095.13903	21857.5375
1098.80005	21687.6375
1102.45857	21500.8375
1106.11456	21287.6375
1109.76805	21316.7375
1113.41903	21404.9375
1117.06751	21565.9375
1120.71348	21725.2375
1124.35696	21894.7375
1127.99793	22065.8375
1131.63641	22167.2375
1135.2724	22001.9375
1138.90589	21818.3375
1142.5369	21700.6375
1146.16542	21656.7375
1149.79145	21671.4375
1153.415	21776.7375
1157.03607	21961.4375
1160.65467	22379.6375
1164.27079	23014.9375
1167.88443	23740.0375
1171.49561	24703.0375
1175.10432	25977.1375
1178.71056	27613.6375
1182.31434	29096.6375
1185.91565	29965.9375
1189.51451	30065.8375
1193.11091	29436.0375
1196.70485	28505.4375
1200.29634	27584.5375
1203.88538	26887.1375
1207.47197	26346.9375
1211.05612	25867.3375
1214.63782	25446.3375
1218.21708	25233.9375
1221.79391	25018.4375
1225.36829	24897.3375
1228.94024	24683.0375
1232.50976	24364.5375
1236.07685	24159.2375
1239.6415	24103.7375
1243.20374	24159.0375
1246.76355	24291.6375
1250.32093	24615.1375
1253.8759	24987.6375
1257.42845	25454.1375
1260.97859	25849.8375
1264.52631	26289.0375
1268.07163	26725.2375
1271.61453	27215.7375
1275.15503	27745.7375
1278.69312	28417.6375
1282.22882	28866.0375
1285.76211	29300.0375
1289.29301	29801.9375
1292.82151	30580.0375
1296.34761	31649.6375
1299.87133	32925.4375
1303.39266	34476.9375
1306.9116	36204.9375
1310.42815	37890.9375
1313.94233	38930.0375
1317.45412	38933.8375
1320.96354	38429.3375
1324.47058	37697.1375
1327.97525	37107.1375
1331.47754	36681.2375
1334.97747	36620.5375
1338.47502	36884.0375
1341.97022	37099.2375
1345.46305	36968.4375
1348.95352	36529.7375
1352.44163	36066.0375
1355.92738	36101.1375
1359.41078	37020.7375
1362.89183	37960.5375
1366.37053	37304.5375
1369.84688	34674.3375
1373.32088	31784.0375
1376.79254	29864.0375
1380.26186	29050.4375
1383.72883	28866.0375
1387.19347	28901.3375
1390.65578	28842.2375
1394.11575	28896.1375
1397.57339	29228.1375
1401.0287	29725.6375
1404.48168	30241.4375
1407.93234	30531.1375
1411.38068	30446.8375
1414.82669	29912.3375
1418.27039	29001.2375
1421.71177	27955.0375
1425.15083	27044.1375
1428.58758	26471.6375
1432.02203	26396.3375
1435.45416	26648.8375
1438.88399	27112.1375
1442.31151	27471.1375
1445.73673	27888.2375
1449.15965	28262.2375
1452.58027	28559.3375
1455.9986	28733.3375
1459.41463	28901.7375
1462.82837	29261.8375
1466.23982	29661.7375
1469.64898	30077.3375
1473.05586	30284.4375
1476.46045	30371.4375
1479.86276	30321.7375
1483.26279	30044.5375
1486.66054	29871.6375
1490.05602	29857.5375
1493.44922	29868.7375
1496.84016	29922.6375
1500.22882	30143.9375
1503.61521	30744.9375
1506.99934	31535.3375
1510.38121	32424.6375
1513.76081	32720.4375
1517.13816	32264.8375
1520.51324	31281.4375
1523.88607	30317.9375
1527.25665	29689.5375
1530.62498	29382.2375
1533.99105	29292.6375
1537.35488	29245.7375
1540.71647	29156.6375
1544.07581	28872.1375
1547.4329	28552.6375
1550.78776	28239.6375
1554.14038	28003.8375
1557.49077	27872.8375
1560.83892	27828.7375
1564.18484	27790.2375
1567.52853	27785.7375
1570.86999	27828.5375
1574.20922	28006.6375
1577.54624	28223.7375
1580.88103	28276.6375
1584.2136	28461.3375
1587.54395	28930.6375
1590.87208	29927.8375
1594.19801	31314.9375
1597.52172	32709.1375
1600.84321	33221.0375
1604.16251	32355.2375
1607.47959	30540.1375
1610.79447	28577.2375
1614.10715	26741.4375
1617.41763	25179.9375
1620.7259	24115.3375
1624.03199	23530.5375
1627.33587	23461.8375
1630.63757	23882.8375
1633.93707	24823.7375
1637.23439	26284.2375
1640.52951	28161.1375
1643.82246	30306.9375
1647.11321	31892.1375
1650.40179	32181.7375
1653.68819	30764.8375
1656.97241	28023.5375
1660.25446	25197.4375
1663.53433	23038.2375
1666.81203	21596.6375
1670.08756	20680.5375
1673.36092	20069.6375
1676.63211	19664.0375
1679.90115	19334.9375
1683.16801	19157.2375
1686.43272	19011.2375
1689.69527	18888.1375
1692.95567	18763.9375
1696.2139	18687.3375
1699.46999	18686.4375
1702.72392	18614.5375
1705.97571	18623.2375
1709.22535	18567.3375
1712.47284	18540.1375
1715.71819	18483.8375
1718.96139	18464.9375
1722.20246	18450.0375
1725.44139	18368.9375
1728.67818	18299.0375
1731.91284	18219.3375
1735.14537	18143.4375
1738.37576	18108.7375
1741.60403	18076.5375
1744.83017	18017.6375
1748.05418	17997.4375
1751.27607	17982.6375
1754.49584	17948.3375
1757.71349	17955.0375
1760.92903	17907.0375
1764.14244	17924.4375
1767.35375	17912.7375
1770.56294	17893.4375
1773.77002	17880.6375
1776.97499	17848.6375
1780.17785	17801.0375
1783.37861	17763.7375
1786.57727	17754.0375
1789.77382	17719.6375
1792.96828	17693.8375
1796.16064	17678.4375
1799.3509	17650.4375
1802.53907	17641.3375
1805.72514	17623.0375
1808.90913	17568.5375
1812.09102	17535.3375
1815.27083	17487.8375
1818.44856	17489.9375
1821.6242	17457.1375
1824.79776	17407.0375
1827.96924	17408.3375
1831.13864	17447.6375
1834.30597	17420.6375
1837.47122	17418.0375
1840.6344	17417.6375
1843.7955	17424.2375
1846.95454	17364.7375
1850.11151	17382.6375
1853.26642	17378.2375
1856.41926	17389.1375
1859.57004	17401.7375
1862.71876	17368.4375
1865.86542	17377.5375
1869.01003	17343.5375
1872.15258	17342.6375
1875.29308	17331.0375
1878.43152	17320.2375
1881.56792	17301.2375
1884.70227	17297.1375
1887.83457	17282.8375
1890.96482	17270.0375
1894.09304	17213.9375
1897.21921	17199.1375
1900.34335	17208.2375
1903.46544	17205.3375
1906.58551	17202.8375
1909.70353	17169.3375
1912.81953	17176.0375
1915.93349	17168.7375
1919.04543	17113.3375
1922.15534	17059.4375
1925.26322	17041.9375
1928.36908	17014.6375
1931.47292	17023.9375
1934.57473	16988.1375
1937.67453	16929.8375
1940.77232	16892.5375
1943.86808	16816.7375
1946.96184	16772.4375
1950.05358	16743.4375
1953.14331	16735.5375
1956.23103	16639.9375
1959.31675	16590.5375
1962.40046	16575.6375
1965.48217	16506.0375
1968.56188	16466.4375
1971.63959	16395.8375
1974.7153	16354.4375
1977.78901	16330.0375
1980.86073	16288.4375
1983.93046	16273.8375
1986.99819	16216.6375
1990.06394	16175.1375
1993.1277	16127.3375
1996.18947	16100.2375
1999.24925	16047.8375
2002.30706	15968.3375
2005.36288	15959.8375
2008.41672	15922.9375
2011.46859	15874.4375
2014.51848	15851.0375
2017.56639	15827.8375
2020.61233	15785.5375
2023.6563	15709.0375
2026.6983	15712.7375
2029.73833	15676.7375
2032.7764	15650.4375
2035.8125	15599.0375
2038.84664	15592.4375
2041.87881	15555.6375
2044.90903	15501.1375
2047.93729	15488.4375
2050.96359	15483.5375
2053.98794	15476.8375
2057.01034	15453.9375
2060.03078	15456.9375
2063.04927	15416.8375
2066.06582	15419.6375
2069.08042	15447.2375
2072.09307	15417.2375
2075.10378	15398.1375
2078.11255	15370.3375
2081.11938	15357.3375
2084.12426	15359.5375
2087.12722	15354.9375
2090.12824	15311.3375
2093.12732	15298.2375
2096.12447	15327.7375
2099.11969	15330.5375
2102.11299	15321.6375
2105.10435	15350.8375
2108.09379	15378.4375
2111.08131	15367.8375
2114.0669	15394.5375
2117.05057	15399.2375
2120.03233	15408.6375
2123.01216	15412.8375
2125.99008	15422.8375
2128.96609	15463.4375
2131.94018	15425.6375
2134.91236	15460.9375
2137.88263	15457.9375
2140.851	15476.7375
2143.81746	15501.8375
2146.78201	15503.6375
2149.74466	15528.8375
2152.7054	15490.5375
2155.66425	15503.3375
2158.6212	15521.5375
2161.57625	15503.0375
2164.52941	15463.4375
2167.48067	15477.0375
2170.43004	15487.6375
2173.37752	15464.5375
2176.32311	15492.9375
2179.26681	15508.5375
2182.20863	15460.8375
2185.14856	15486.9375
2188.08661	15479.2375
2191.02278	15484.9375
2193.95707	15483.9375
2196.88948	15511.9375
2199.82001	15493.9375
2202.74867	15477.7375
2205.67545	15470.8375
2208.60037	15445.6375
2211.52341	15466.5375
2214.44458	15439.4375
2217.36388	15402.3375
2220.28132	15389.2375
2223.1969	15364.9375
2226.11061	15327.4375
2229.02246	15304.5375
2231.93245	15255.6375
2234.84058	15211.6375
2237.74686	15208.2375
2240.65128	15228.9375
2243.55385	15191.4375
2246.45456	15163.1375
2249.35343	15121.1375
2252.25044	15150.2375
2255.14561	15091.5375
2258.03893	15078.1375
2260.93041	15071.1375
2263.82004	15019.3375
2266.70783	14985.9375
2269.59378	14912.0375
2272.4779	14911.7375
2275.36017	14826.0375
2278.24061	14839.5375
2281.11922	14832.6375
2283.996	14809.6375
2286.87094	14820.5375
2289.74405	14767.8375
2292.61534	14770.6375
2295.4848	14741.2375
2298.35243	14737.7375
2301.21824	14737.6375
2304.08223	14765.7375
2306.94439	14763.6375
2309.80474	14762.4375
2312.66327	14790.1375
2315.51999	14759.8375
2318.37489	14772.3375
2321.22797	14740.3375
2324.07925	14716.5375
2326.92871	14683.2375
2329.77637	14691.2375
2332.62222	14661.7375
2335.46626	14677.9375
2338.3085	14662.3375
2341.14893	14652.7375
2343.98756	14643.4375
2346.8244	14654.7375
2349.65943	14629.0375
2352.49267	14659.2375
2355.32411	14621.3375
2358.15376	14632.0375
2360.98161	14643.3375
2363.80768	14629.6375
2366.63195	14585.4375
2369.45444	14551.4375
2372.27514	14539.7375
2375.09405	14528.2375
2377.91118	14493.5375
2380.72652	14452.3375
2383.54009	14424.1375
2386.35187	14356.2375
2389.16188	14346.7375
2391.97011	14325.1375
2394.77657	14320.1375
2397.58125	14275.8375
2400.38416	14290.3375
2403.18529	14252.0375
2405.98466	14252.4375
2408.78226	14194.9375
2411.57809	14216.2375
2414.37216	14177.7375
2417.16446	14143.9375
2419.955	14152.2375
2422.74378	14139.7375
2425.5308	14105.2375
2428.31606	14123.7375
2431.09956	14111.5375
2433.88131	14113.1375
2436.6613	14095.5375
2439.43954	14097.9375
2442.21603	14064.0375
2444.99077	14068.6375
2447.76377	14072.0375
2450.53501	14025.1375
2453.30451	14033.5375
2456.07226	14033.8375
2458.83827	14004.6375
2461.60254	13970.9375
2464.36507	13982.0375
2467.12586	13949.0375
2469.88492	13988.4375
2472.64224	13989.6375
2475.39782	13983.4375
2478.15167	14021.5375
2480.90379	13989.7375
2483.65417	14018.3375
2486.40283	14020.7375
2489.14976	14034.5375
2491.89497	14026.1375
2494.63845	14024.9375
2497.3802	13993.8375
2500.12024	14004.4375
2502.85855	13981.1375
2505.59514	13977.0375
2508.33002	13945.9375
2511.06318	13950.8375
2513.79462	13947.6375
2516.52435	13928.8375
2519.25237	13894.1375
2521.97867	13885.4375
2524.70327	13903.6375
2527.42616	13913.7375
2530.14734	13892.6375
2532.86681	13872.0375
2535.58458	13886.9375
2538.30065	13883.0375
2541.01501	13882.4375
2543.72768	13850.4375
2546.43864	13859.2375
2549.14791	13835.8375
2551.85548	13811.6375
2554.56136	13827.2375
2557.26554	13774.2375
2559.96803	13737.0375
2562.66883	13707.1375
2565.36794	13695.5375
2568.06536	13688.3375
2570.7611	13672.5375
2573.45514	13636.8375
2576.14751	13657.3375
2578.83819	13647.2375
2581.52719	13602.8375
2584.21451	13621.7375
2586.90015	13586.6375
2589.58411	13616.9375
2592.2664	13585.4375
2594.94701	13558.5375
2597.62594	13580.6375
2600.30321	13514.9375
2602.9788	13511.7375
2605.65273	13496.2375
2608.32498	13516.7375
2610.99557	13490.7375
2613.66449	13504.1375
2616.33175	13487.0375
2618.99734	13514.8375
2621.66128	13501.8375
2624.32355	13478.8375
2626.98416	13507.5375
2629.64311	13473.8375
2632.30041	13489.6375
2634.95605	13439.0375
2637.61004	13448.3375
2640.26238	13423.4375
2642.91306	13398.8375
2645.56209	13382.9375
2648.20948	13383.9375
2650.85521	13359.4375
2653.4993	13371.8375
2656.14175	13351.6375
2658.78255	13357.2375
2661.42171	13383.2375
2664.05923	13390.2375
2666.6951	13412.1375
2669.32934	13446.3375
2671.96194	13379.0375
2674.59291	13447.8375
2677.22224	13406.6375
2679.84993	13425.7375
2682.476	13386.3375
2685.10043	13376.1375
2687.72324	13363.7375
2690.34441	13364.7375
2692.96396	13379.6375
2695.58188	13367.3375
2698.19818	13350.4375
2700.81285	13375.2375
2703.4259	13364.6375
2706.03733	13359.2375
2708.64714	13366.0375
2711.25533	13377.0375
2713.86191	13374.2375
2716.46687	13399.6375
2719.07021	13374.8375
2721.67194	13419.4375
2724.27206	13382.6375
2726.87057	13418.7375
2729.46747	13429.1375
2732.06276	13453.3375
2734.65644	13383.3375
2737.24852	13420.3375
2739.83899	13371.8375
2742.42786	13367.6375
2745.01513	13335.7375
2747.60079	13349.5375
2750.18486	13357.8375
2752.76733	13333.2375
2755.3482	13346.1375
2757.92747	13313.1375
2760.50515	13324.5375
2763.08123	13307.3375
2765.65573	13300.0375
2768.22863	13292.7375
2770.79994	13270.2375
2773.36967	13295.5375
2775.9378	13285.0375
2778.50435	13289.4375
2781.06932	13293.4375
2783.6327	13271.3375
2786.1945	13283.4375
2788.75471	13276.4375
2791.31335	13224.2375
2793.87041	13209.4375
2796.42589	13183.3375
2798.97979	13201.9375
2801.53212	13151.5375
2804.08288	13129.9375
2806.63206	13077.6375
2809.17967	13074.2375
2811.72571	13039.1375
2814.27018	13037.8375
2816.81308	13011.6375
2819.35442	12981.4375
2821.89419	12974.2375
2824.43239	12958.9375
2826.96904	12938.7375
2829.50412	12953.3375
2832.03763	12922.5375
2834.56959	12958.2375
2837.1	12897.0375
2839.62884	12888.6375
2842.15613	12909.4375
2844.68186	12921.1375
2847.20604	12917.2375
2849.72867	12924.5375
2852.24974	12938.8375
2854.76927	12863.2375
2857.28724	12878.0375
2859.80367	12843.6375
2862.31855	12822.9375
2864.83189	12816.8375
2867.34368	12810.3375
2869.85393	12804.0375
2872.36264	12770.7375
2874.8698	12778.5375
2877.37543	12753.2375
2879.87952	12802.1375
2882.38207	12797.7375
2884.88308	12786.6375
2887.38256	12808.5375
2889.88051	12788.0375
2892.37692	12793.8375
2894.8718	12823.8375
2897.36515	12798.5375
2899.85698	12821.3375
2902.34727	12855.1375
2904.83604	12868.6375
2907.32328	12886.4375
2909.809	12867.1375
2912.29319	12847.1375
2914.77587	12865.6375
2917.25702	12860.8375
2919.73665	12851.4375
2922.21476	12854.0375
2924.69136	12849.4375
2927.16644	12843.6375
2929.64	12803.9375
2932.11205	12805.8375
2934.58258	12792.8375
2937.05161	12780.4375
2939.51912	12797.9375
2941.98513	12798.9375
2944.44962	12749.4375
2946.91261	12715.2375
2949.37409	12734.0375
2951.83407	12722.0375
2954.29254	12683.7375
2956.74951	12693.9375
2959.20498	12688.7375
2961.65895	12688.2375
2964.11142	12679.9375
2966.56239	12636.8375
2969.01186	12701.2375
2971.45984	12629.2375
2973.90632	12640.2375
2976.35131	12617.7375
2978.7948	12632.8375
2981.23681	12554.4375
2983.67732	12542.9375
2986.11635	12526.2375
2988.55388	12516.0375
2990.98993	12497.5375
2993.4245	12441.3375
2995.85758	12416.9375
2998.28917	12377.9375
3000.71928	12399.2375
3003.14791	12345.3375
3005.57506	12366.7375
3008.00073	12319.9375
3010.42493	12284.6375
3012.84764	12249.9375
3015.26888	12250.9375
3017.68865	12218.4375
3020.10694	12260.6375
3022.52376	12198.3375
3024.9391	12194.1375
