Data from AgNP_FTO_APTES_UA_10uM_CRN_50uM_R6G_10uM_NaF_0.1M_Addition_RamanShift__28__17-15-10-819.txt Node

Date: Thu Feb 10 17:15:10 GMT 2022
User: TCL
Spectrometer: QEP01345
Trigger mode: 4
Integration Time (sec): 7.000000E0
Scans to average: 10
Electric dark correction enabled: true
Nonlinearity correction enabled: false
Boxcar width: 0
XAxis mode: Raman Shifts
Number of Pixels in Spectrum: 1044
>>>>>Begin Spectral Data<<<<<
46.04893	-0.4625
50.45542	-0.7625
54.85868	-1.9625
59.25871	-0.9625
63.6555	65.2375
68.04907	68.8375
72.43941	75.6375
76.82654	68.7375
81.21044	78.7375
85.59113	79.1375
89.96862	86.2375
94.34289	87.2375
98.71396	88.3375
103.08183	92.2375
107.4465	94.4375
111.80798	95.5375
116.16626	98.9375
120.52136	101.8375
124.87327	104.0375
129.222	110.1375
133.56755	120.6375
137.90993	125.7375
142.24913	135.9375
146.58517	151.0375
150.91804	178.2375
155.24774	206.4375
159.57429	259.1375
163.89768	331.7375
168.21792	440.0375
172.53501	590.3375
176.84895	821.4375
181.15975	1157.3375
185.46741	1625.0375
189.77193	2233.9375
194.07331	3010.4375
198.37157	3877.7375
202.6667	4800.3375
206.9587	5690.8375
211.24758	6610.1375
215.53334	7504.5375
219.81599	8469.1375
224.09553	9530.3375
228.37195	10739.0375
232.64527	12041.9375
236.91549	13442.9375
241.18261	14799.1375
245.44663	16007.2375
249.70755	17086.1375
253.96539	18037.7375
258.22014	18889.5375
262.4718	19596.8375
266.72039	20174.3375
270.96589	20507.5375
275.20832	20613.2375
279.44768	20519.1375
283.68397	20338.2375
287.91719	20193.0375
292.14735	20165.4375
296.37445	20315.5375
300.59849	20547.4375
304.81948	20837.6375
309.03742	20897.8375
313.25231	20662.3375
317.46415	19979.8375
321.67296	19079.0375
325.87872	18366.0375
330.08145	18048.5375
334.28114	18073.4375
338.47781	18270.9375
342.67145	18641.3375
346.86207	19120.9375
351.04966	19742.5375
355.23424	20459.9375
359.4158	21031.1375
363.59435	21347.3375
367.76989	21550.7375
371.94243	21631.5375
376.11196	21724.1375
380.27849	21752.7375
384.44203	21783.1375
388.60257	21708.0375
392.76012	21760.7375
396.91468	21997.7375
401.06626	22349.3375
405.21485	22705.7375
409.36047	22497.1375
413.50311	21919.0375
417.64277	21365.7375
421.77947	21088.9375
425.9132	21053.4375
430.04396	21158.1375
434.17176	21297.5375
438.2966	21537.7375
442.41849	21895.0375
446.53742	22450.5375
450.6534	23036.7375
454.76644	23455.2375
458.87653	23647.2375
462.98368	23520.0375
467.08789	23299.4375
471.18916	22994.2375
475.2875	22678.2375
479.38291	22459.9375
483.4754	22160.3375
487.56496	21871.5375
491.6516	21574.3375
495.73531	21352.7375
499.81612	21262.2375
503.89401	21345.6375
507.96899	21465.9375
512.04106	21548.2375
516.11023	21686.4375
520.1765	21757.9375
524.23987	21688.3375
528.30034	21474.5375
532.35792	21221.4375
536.41261	21017.5375
540.46441	20810.2375
544.51333	20802.8375
548.55936	20943.6375
552.60252	21350.2375
556.64279	21742.2375
560.6802	21962.2375
564.71473	22045.8375
568.7464	22422.6375
572.7752	22789.1375
576.80114	22660.3375
580.82422	22430.3375
584.84444	22302.2375
588.86181	22351.5375
592.87633	22566.1375
596.888	22755.3375
600.89682	23234.6375
604.9028	24616.4375
608.90594	28199.4375
612.90624	32794.3375
616.90371	31362.9375
620.89834	25029.6375
624.89015	22178.2375
628.87913	21736.3375
632.86528	21734.3375
636.84862	21729.9375
640.82913	21436.9375
644.80683	20860.0375
648.78172	20495.5375
652.75379	20487.8375
656.72306	20865.6375
660.68952	21466.8375
664.65319	21393.6375
668.61405	20866.9375
672.57211	20622.7375
676.52738	20655.5375
680.47986	20679.0375
684.42955	20618.7375
688.37646	20612.1375
692.32058	20690.3375
696.26192	20833.7375
700.20048	21018.8375
704.13626	21138.3375
708.06928	21076.5375
711.99952	20920.2375
715.927	20870.3375
719.85171	20878.7375
723.77365	20900.7375
727.69284	20731.2375
731.60928	20613.0375
735.52295	20594.1375
739.43388	20600.1375
743.34206	20700.1375
747.24749	20780.3375
751.15017	20950.9375
755.05012	21237.1375
758.94733	21861.5375
762.8418	23110.7375
766.73354	25182.7375
770.62254	27357.7375
774.50882	28380.4375
778.39237	27256.1375
782.27321	24782.7375
786.15132	22645.4375
790.02671	21404.8375
793.89938	20868.1375
797.76935	20656.8375
801.6366	20575.5375
805.50115	20455.2375
809.36299	20408.8375
813.22213	20345.8375
817.07857	20345.2375
820.93231	20331.9375
824.78336	20360.2375
828.63172	20433.4375
832.47738	20453.3375
836.32036	20457.3375
840.16066	20459.2375
843.99827	20467.1375
847.8332	20432.8375
851.66546	20379.7375
855.49504	20375.5375
859.32195	20300.0375
863.1462	20253.8375
866.96777	20184.9375
870.78668	20143.0375
874.60293	20193.2375
878.41652	20202.5375
882.22745	20282.5375
886.03573	20288.1375
889.84136	20269.4375
893.64433	20184.1375
897.44466	20109.7375
901.24235	20116.3375
905.0374	20110.0375
908.8298	20054.0375
912.61957	20084.1375
916.40671	20245.6375
920.19121	20404.3375
923.97308	20520.1375
927.75233	20606.1375
931.52895	20656.5375
935.30295	20516.2375
939.07433	20162.1375
942.84309	19859.2375
946.60924	19708.7375
950.37278	19612.5375
954.13371	19524.8375
957.89203	19432.3375
961.64774	19381.2375
965.40086	19338.8375
969.15137	19259.2375
972.89929	19176.7375
976.64461	19165.2375
980.38733	19179.8375
984.12747	19267.5375
987.86502	19372.2375
991.59999	19525.9375
995.33237	19844.7375
999.06217	20323.3375
1002.78939	20856.4375
1006.51404	21203.7375
1010.23611	21387.5375
1013.95561	21592.3375
1017.67255	21606.7375
1021.38692	21451.7375
1025.09872	21325.2375
1028.80796	21464.2375
1032.51465	21952.7375
1036.21877	22401.6375
1039.92035	22421.5375
1043.61937	22165.7375
1047.31584	21705.1375
1051.00976	21253.6375
1054.70114	21010.9375
1058.38998	20990.0375
1062.07627	21021.8375
1065.76003	21126.5375
1069.44126	21130.5375
1073.11995	21241.2375
1076.79611	21343.2375
1080.46974	21455.6375
1084.14085	21709.3375
1087.80943	21996.3375
1091.47549	22139.8375
1095.13903	21986.7375
1098.80005	21610.1375
1102.45857	21267.0375
1106.11456	21114.5375
1109.76805	21167.3375
1113.41903	21382.6375
1117.06751	21712.8375
1120.71348	22133.1375
1124.35696	22513.5375
1127.99793	22849.7375
1131.63641	22861.2375
1135.2724	22421.9375
1138.90589	21967.8375
1142.5369	21672.3375
1146.16542	21459.1375
1149.79145	21407.1375
1153.415	21488.5375
1157.03607	21634.9375
1160.65467	21993.5375
1164.27079	22602.8375
1167.88443	23451.7375
1171.49561	24691.3375
1175.10432	26636.3375
1178.71056	29045.6375
1182.31434	31247.9375
1185.91565	32170.6375
1189.51451	31921.8375
1193.11091	30653.5375
1196.70485	29035.9375
1200.29634	27673.9375
1203.88538	26699.1375
1207.47197	25772.6375
1211.05612	24937.0375
1214.63782	24456.7375
1218.21708	24289.9375
1221.79391	24265.8375
1225.36829	24285.6375
1228.94024	24167.0375
1232.50976	24003.2375
1236.07685	23924.3375
1239.6415	23976.1375
1243.20374	24124.9375
1246.76355	24281.9375
1250.32093	24625.6375
1253.8759	25140.6375
1257.42845	25787.4375
1260.97859	26328.2375
1264.52631	26762.6375
1268.07163	27274.0375
1271.61453	27794.1375
1275.15503	28368.0375
1278.69312	28811.6375
1282.22882	29194.8375
1285.76211	29500.8375
1289.29301	30062.1375
1292.82151	30699.5375
1296.34761	31562.3375
1299.87133	32827.5375
1303.39266	34680.0375
1306.9116	37237.9375
1310.42815	40071.5375
1313.94233	41972.7375
1317.45412	41801.2375
1320.96354	40342.6375
1324.47058	38636.5375
1327.97525	37079.1375
1331.47754	36196.4375
1334.97747	35999.7375
1338.47502	36453.7375
1341.97022	37050.7375
1345.46305	37403.3375
1348.95352	37609.4375
1352.44163	38065.4375
1355.92738	39483.6375
1359.41078	42356.7375
1362.89183	45358.0375
1366.37053	44334.7375
1369.84688	39433.2375
1373.32088	34516.6375
1376.79254	31329.3375
1380.26186	29921.5375
1383.72883	29365.4375
1387.19347	29046.8375
1390.65578	28642.3375
1394.11575	28383.3375
1397.57339	28456.8375
1401.0287	28781.0375
1404.48168	29265.9375
1407.93234	29820.8375
1411.38068	30098.1375
1414.82669	29900.2375
1418.27039	29200.2375
1421.71177	28307.1375
1425.15083	27506.8375
1428.58758	27038.5375
1432.02203	26942.7375
1435.45416	27150.5375
1438.88399	27363.5375
1442.31151	27543.4375
1445.73673	27827.2375
1449.15965	28092.8375
1452.58027	28186.1375
1455.9986	28191.4375
1459.41463	28299.1375
1462.82837	28551.2375
1466.23982	29051.9375
1469.64898	29528.2375
1473.05586	29862.5375
1476.46045	30038.1375
1479.86276	30202.8375
1483.26279	30468.1375
1486.66054	30775.3375
1490.05602	31182.5375
1493.44922	31690.1375
1496.84016	32414.5375
1500.22882	33486.6375
1503.61521	35109.8375
1506.99934	37310.3375
1510.38121	39702.4375
1513.76081	40921.1375
1517.13816	40040.4375
1520.51324	37329.1375
1523.88607	34402.5375
1527.25665	32304.1375
1530.62498	31058.8375
1533.99105	30313.2375
1537.35488	29846.6375
1540.71647	29580.7375
1544.07581	29415.6375
1547.4329	29242.3375
1550.78776	28982.1375
1554.14038	28870.6375
1557.49077	28917.9375
1560.83892	29135.7375
1564.18484	29374.0375
1567.52853	29591.9375
1570.86999	29739.7375
1574.20922	29782.6375
1577.54624	29783.6375
1580.88103	29359.3375
1584.2136	28828.1375
1587.54395	28850.9375
1590.87208	29697.1375
1594.19801	31263.0375
1597.52172	33146.1375
1600.84321	33911.9375
1604.16251	32987.2375
1607.47959	30952.7375
1610.79447	28871.4375
1614.10715	26807.3375
1617.41763	25205.9375
1620.7259	24124.0375
1624.03199	23598.7375
1627.33587	23621.2375
1630.63757	24080.1375
1633.93707	25109.2375
1637.23439	26516.7375
1640.52951	28384.9375
1643.82246	30609.6375
1647.11321	32724.8375
1650.40179	33919.9375
1653.68819	32933.4375
1656.97241	29679.8375
1660.25446	26098.9375
1663.53433	23469.7375
1666.81203	21791.8375
1670.08756	20737.6375
1673.36092	20112.2375
1676.63211	19703.4375
1679.90115	19421.9375
1683.16801	19167.9375
1686.43272	19032.4375
1689.69527	18938.7375
1692.95567	18821.9375
1696.2139	18769.0375
1699.46999	18738.0375
1702.72392	18686.4375
1705.97571	18631.4375
1709.22535	18614.1375
1712.47284	18588.2375
1715.71819	18608.3375
1718.96139	18571.3375
1722.20246	18575.4375
1725.44139	18510.5375
1728.67818	18408.0375
1731.91284	18281.5375
1735.14537	18232.1375
1738.37576	18156.9375
1741.60403	18131.4375
1744.83017	18053.0375
1748.05418	18051.5375
1751.27607	18029.0375
1754.49584	18056.6375
1757.71349	18019.9375
1760.92903	18012.0375
1764.14244	17988.4375
1767.35375	17980.1375
1770.56294	17960.5375
1773.77002	17951.9375
1776.97499	17897.2375
1780.17785	17862.3375
1783.37861	17834.6375
1786.57727	17830.6375
1789.77382	17799.8375
1792.96828	17775.4375
1796.16064	17766.5375
1799.3509	17731.5375
1802.53907	17708.1375
1805.72514	17662.2375
1808.90913	17634.2375
1812.09102	17584.8375
1815.27083	17577.7375
1818.44856	17551.7375
1821.6242	17508.6375
1824.79776	17458.9375
1827.96924	17467.8375
1831.13864	17472.4375
1834.30597	17478.8375
1837.47122	17480.0375
1840.6344	17433.6375
1843.7955	17425.7375
1846.95454	17431.7375
1850.11151	17413.4375
1853.26642	17446.9375
1856.41926	17432.6375
1859.57004	17427.9375
1862.71876	17466.3375
1865.86542	17444.0375
1869.01003	17421.4375
1872.15258	17442.8375
1875.29308	17426.1375
1878.43152	17425.3375
1881.56792	17407.3375
1884.70227	17375.7375
1887.83457	17378.3375
1890.96482	17366.3375
1894.09304	17334.0375
1897.21921	17314.5375
1900.34335	17333.5375
1903.46544	17314.5375
1906.58551	17318.2375
1909.70353	17315.1375
1912.81953	17324.9375
1915.93349	17321.9375
1919.04543	17288.9375
1922.15534	17269.9375
1925.26322	17192.3375
1928.36908	17184.5375
1931.47292	17183.9375
1934.57473	17135.5375
1937.67453	17118.8375
1940.77232	17071.5375
1943.86808	16968.3375
1946.96184	16930.8375
1950.05358	16885.0375
1953.14331	16839.5375
1956.23103	16795.7375
1959.31675	16737.8375
1962.40046	16665.2375
1965.48217	16639.8375
1968.56188	16599.7375
1971.63959	16581.3375
1974.7153	16482.9375
1977.78901	16445.7375
1980.86073	16418.8375
1983.93046	16363.0375
1986.99819	16312.7375
1990.06394	16265.7375
1993.1277	16248.9375
1996.18947	16165.1375
1999.24925	16135.6375
2002.30706	16096.9375
2005.36288	16066.4375
2008.41672	16006.6375
2011.46859	15956.2375
2014.51848	15960.4375
2017.56639	15904.7375
2020.61233	15887.0375
2023.6563	15812.7375
2026.6983	15793.8375
2029.73833	15742.1375
2032.7764	15707.0375
2035.8125	15691.1375
2038.84664	15656.9375
2041.87881	15619.4375
2044.90903	15587.8375
2047.93729	15585.0375
2050.96359	15567.5375
2053.98794	15555.2375
2057.01034	15509.2375
2060.03078	15522.7375
2063.04927	15504.6375
2066.06582	15500.7375
2069.08042	15478.2375
2072.09307	15452.7375
2075.10378	15465.8375
2078.11255	15429.4375
2081.11938	15395.3375
2084.12426	15429.1375
2087.12722	15411.6375
2090.12824	15353.9375
2093.12732	15362.8375
2096.12447	15368.0375
2099.11969	15362.3375
2102.11299	15361.5375
2105.10435	15409.8375
2108.09379	15396.7375
2111.08131	15428.3375
2114.0669	15387.8375
2117.05057	15426.1375
2120.03233	15429.0375
2123.01216	15456.9375
2125.99008	15476.7375
2128.96609	15453.0375
2131.94018	15508.1375
2134.91236	15488.5375
2137.88263	15483.0375
2140.851	15530.5375
2143.81746	15517.6375
2146.78201	15527.1375
2149.74466	15545.2375
2152.7054	15522.8375
2155.66425	15539.7375
2158.6212	15529.6375
2161.57625	15522.4375
2164.52941	15508.7375
2167.48067	15497.4375
2170.43004	15495.5375
2173.37752	15511.6375
2176.32311	15497.2375
2179.26681	15512.1375
2182.20863	15497.0375
2185.14856	15478.5375
2188.08661	15490.2375
2191.02278	15491.9375
2193.95707	15535.3375
2196.88948	15501.2375
2199.82001	15513.5375
2202.74867	15474.6375
2205.67545	15504.1375
2208.60037	15492.1375
2211.52341	15466.3375
2214.44458	15466.0375
2217.36388	15429.6375
2220.28132	15441.5375
2223.1969	15387.8375
2226.11061	15360.7375
2229.02246	15310.9375
2231.93245	15275.2375
2234.84058	15259.2375
2237.74686	15259.7375
2240.65128	15210.9375
2243.55385	15197.2375
2246.45456	15163.3375
2249.35343	15182.8375
2252.25044	15164.8375
2255.14561	15135.2375
2258.03893	15105.2375
2260.93041	15083.8375
2263.82004	15041.0375
2266.70783	15022.0375
2269.59378	14987.8375
2272.4779	14933.8375
2275.36017	14874.7375
2278.24061	14888.8375
2281.11922	14852.1375
2283.996	14839.9375
2286.87094	14801.2375
2289.74405	14805.7375
2292.61534	14776.6375
2295.4848	14758.0375
2298.35243	14746.5375
2301.21824	14788.9375
2304.08223	14772.7375
2306.94439	14780.5375
2309.80474	14781.0375
2312.66327	14787.7375
2315.51999	14799.7375
2318.37489	14796.8375
2321.22797	14788.3375
2324.07925	14757.0375
2326.92871	14723.6375
2329.77637	14726.6375
2332.62222	14697.3375
2335.46626	14692.2375
2338.3085	14700.8375
2341.14893	14687.4375
2343.98756	14722.0375
2346.8244	14712.9375
2349.65943	14715.8375
2352.49267	14717.2375
2355.32411	14743.7375
2358.15376	14724.3375
2360.98161	14702.8375
2363.80768	14708.9375
2366.63195	14676.8375
2369.45444	14654.1375
2372.27514	14599.5375
2375.09405	14598.4375
2377.91118	14548.8375
2380.72652	14499.4375
2383.54009	14467.2375
2386.35187	14425.3375
2389.16188	14385.9375
2391.97011	14369.3375
2394.77657	14322.3375
2397.58125	14324.9375
2400.38416	14296.5375
2403.18529	14281.9375
2405.98466	14252.6375
2408.78226	14227.1375
2411.57809	14204.4375
2414.37216	14177.9375
2417.16446	14169.4375
2419.955	14144.9375
2422.74378	14135.6375
2425.5308	14134.3375
2428.31606	14138.9375
2431.09956	14126.1375
2433.88131	14132.7375
2436.6613	14100.2375
2439.43954	14117.4375
2442.21603	14096.1375
2444.99077	14076.1375
2447.76377	14081.2375
2450.53501	14051.6375
2453.30451	14050.2375
2456.07226	14042.2375
2458.83827	14048.1375
2461.60254	14040.4375
2464.36507	13993.2375
2467.12586	14013.2375
2469.88492	13981.7375
2472.64224	14028.4375
2475.39782	14056.5375
2478.15167	14041.7375
2480.90379	14003.8375
2483.65417	14063.9375
2486.40283	14085.9375
2489.14976	14061.7375
2491.89497	14070.6375
2494.63845	14087.3375
2497.3802	14075.2375
2500.12024	14069.6375
2502.85855	14063.6375
2505.59514	14015.0375
2508.33002	14015.1375
2511.06318	13977.7375
2513.79462	13971.8375
2516.52435	13923.2375
2519.25237	13925.1375
2521.97867	13896.8375
2524.70327	13895.3375
2527.42616	13866.3375
2530.14734	13882.1375
2532.86681	13876.7375
2535.58458	13879.4375
2538.30065	13858.4375
2541.01501	13867.6375
2543.72768	13861.6375
2546.43864	13856.8375
2549.14791	13845.0375
2551.85548	13806.3375
2554.56136	13775.7375
2557.26554	13766.5375
2559.96803	13724.2375
2562.66883	13719.9375
2565.36794	13717.4375
2568.06536	13708.5375
2570.7611	13669.1375
2573.45514	13657.3375
2576.14751	13633.5375
2578.83819	13641.1375
2581.52719	13619.7375
2584.21451	13586.3375
2586.90015	13613.4375
2589.58411	13597.0375
2592.2664	13594.9375
2594.94701	13571.9375
2597.62594	13578.6375
2600.30321	13517.5375
2602.9788	13526.0375
2605.65273	13525.1375
2608.32498	13545.8375
2610.99557	13525.6375
2613.66449	13525.6375
2616.33175	13512.3375
2618.99734	13500.2375
2621.66128	13512.0375
2624.32355	13522.5375
2626.98416	13514.9375
2629.64311	13521.5375
2632.30041	13503.1375
2634.95605	13484.0375
2637.61004	13448.4375
2640.26238	13450.2375
2642.91306	13408.4375
2645.56209	13374.2375
2648.20948	13382.7375
2650.85521	13363.8375
2653.4993	13383.1375
2656.14175	13385.1375
2658.78255	13367.5375
2661.42171	13400.5375
2664.05923	13417.7375
2666.6951	13430.6375
2669.32934	13418.3375
2671.96194	13445.9375
2674.59291	13471.7375
2677.22224	13460.1375
2679.84993	13443.5375
2682.476	13446.6375
2685.10043	13413.2375
2687.72324	13363.4375
2690.34441	13418.6375
2692.96396	13386.7375
2695.58188	13405.8375
2698.19818	13384.7375
2700.81285	13403.2375
2703.4259	13394.5375
2706.03733	13406.9375
2708.64714	13367.3375
2711.25533	13405.5375
2713.86191	13394.4375
2716.46687	13390.4375
2719.07021	13402.6375
2721.67194	13433.8375
2724.27206	13388.8375
2726.87057	13419.8375
2729.46747	13438.2375
2732.06276	13416.4375
2734.65644	13427.4375
2737.24852	13421.8375
2739.83899	13391.5375
2742.42786	13379.3375
2745.01513	13361.8375
2747.60079	13325.3375
2750.18486	13350.6375
2752.76733	13371.3375
2755.3482	13339.1375
2757.92747	13319.7375
2760.50515	13301.0375
2763.08123	13280.7375
2765.65573	13265.9375
2768.22863	13294.2375
2770.79994	13272.0375
2773.36967	13273.2375
2775.9378	13264.8375
2778.50435	13286.5375
2781.06932	13304.3375
2783.6327	13280.4375
2786.1945	13262.1375
2788.75471	13260.4375
2791.31335	13229.4375
2793.87041	13218.9375
2796.42589	13204.3375
2798.97979	13192.2375
2801.53212	13141.9375
2804.08288	13149.1375
2806.63206	13092.3375
2809.17967	13068.2375
2811.72571	13048.4375
2814.27018	13033.5375
2816.81308	13030.8375
2819.35442	12999.5375
2821.89419	12994.4375
2824.43239	13013.6375
2826.96904	12992.2375
2829.50412	12992.3375
2832.03763	13000.1375
2834.56959	12972.1375
2837.1	12946.9375
2839.62884	12965.6375
2842.15613	12958.0375
2844.68186	12969.0375
2847.20604	12959.3375
2849.72867	13011.8375
2852.24974	13008.5375
2854.76927	12987.0375
2857.28724	12946.7375
2859.80367	12931.8375
2862.31855	12884.8375
2864.83189	12894.6375
2867.34368	12871.4375
2869.85393	12868.8375
2872.36264	12849.0375
2874.8698	12850.8375
2877.37543	12861.3375
2879.87952	12871.4375
2882.38207	12839.3375
2884.88308	12854.9375
2887.38256	12857.2375
2889.88051	12843.3375
2892.37692	12818.6375
2894.8718	12852.2375
2897.36515	12861.5375
2899.85698	12877.9375
2902.34727	12903.0375
2904.83604	12888.8375
2907.32328	12901.5375
2909.809	12895.2375
2912.29319	12905.9375
2914.77587	12903.7375
2917.25702	12882.9375
2919.73665	12884.2375
2922.21476	12868.7375
2924.69136	12886.9375
2927.16644	12860.7375
2929.64	12817.8375
2932.11205	12816.6375
2934.58258	12750.8375
2937.05161	12781.2375
2939.51912	12807.1375
2941.98513	12804.2375
2944.44962	12741.6375
2946.91261	12708.6375
2949.37409	12715.6375
2951.83407	12688.0375
2954.29254	12692.5375
2956.74951	12670.1375
2959.20498	12702.9375
2961.65895	12682.2375
2964.11142	12695.8375
2966.56239	12623.6375
2969.01186	12632.3375
2971.45984	12612.0375
2973.90632	12615.8375
2976.35131	12595.2375
2978.7948	12559.2375
2981.23681	12518.1375
2983.67732	12520.9375
2986.11635	12489.2375
2988.55388	12467.4375
2990.98993	12466.8375
2993.4245	12424.0375
2995.85758	12381.7375
2998.28917	12356.5375
3000.71928	12349.1375
3003.14791	12325.3375
3005.57506	12330.0375
3008.00073	12290.5375
3010.42493	12264.6375
3012.84764	12252.8375
3015.26888	12208.6375
3017.68865	12179.6375
3020.10694	12197.1375
3022.52376	12159.9375
3024.9391	12145.5375
