Data from AgNP_FTO_APTES_UA_10uM_CRN_2uM_R6G_10uM_NaF_0.1M_Addition_RamanShift__36__14-38-50-626.txt Node

Date: Thu Feb 10 14:38:50 GMT 2022
User: TCL
Spectrometer: QEP01345
Trigger mode: 4
Integration Time (sec): 7.000000E0
Scans to average: 10
Electric dark correction enabled: true
Nonlinearity correction enabled: false
Boxcar width: 0
XAxis mode: Raman Shifts
Number of Pixels in Spectrum: 1044
>>>>>Begin Spectral Data<<<<<
46.04893	0.3
50.45542	-1.8
54.85868	-2
59.25871	-1.5
63.6555	82.6
68.04907	80.8
72.43941	91.7
76.82654	86.3
81.21044	97.5
85.59113	95.1
89.96862	95.4
94.34289	99.2
98.71396	105
103.08183	110.7
107.4465	110.4
111.80798	113.1
116.16626	116.7
120.52136	121.9
124.87327	130.3
129.222	132.9
133.56755	139.3
137.90993	153.5
142.24913	160.8
146.58517	183.6
150.91804	214.2
155.24774	253.5
159.57429	314.5
163.89768	399.1
168.21792	528.8
172.53501	719.9
176.84895	997.8
181.15975	1405.2
185.46741	1966.8
189.77193	2719.6
194.07331	3634.4
198.37157	4683.2
202.6667	5777.9
206.9587	6878.1
211.24758	7940.8
215.53334	9055.8
219.81599	10206
224.09553	11484.2
228.37195	12875.8
232.64527	14433.7
236.91549	16021.5
241.18261	17632.9
245.44663	19104
249.70755	20370.5
253.96539	21530.4
258.22014	22536.6
262.4718	23363.8
266.72039	23944.4
270.96589	24273.5
275.20832	24249.5
279.44768	24075.9
283.68397	23773.5
287.91719	23509.6
292.14735	23310.1
296.37445	23287.6
300.59849	23369.3
304.81948	23581.8
309.03742	23696.6
313.25231	23629.7
317.46415	23372.5
321.67296	22924.8
325.87872	22605.7
330.08145	22500.5
334.28114	22489.6
338.47781	22716.8
342.67145	23062.3
346.86207	23475.1
351.04966	23948.2
355.23424	24433.3
359.4158	24824.8
363.59435	25108.7
367.76989	25338.7
371.94243	25512
376.11196	25666.3
380.27849	25819.8
384.44203	25980.6
388.60257	26123.6
392.76012	26347.9
396.91468	26590.5
401.06626	26981.9
405.21485	27208.6
409.36047	27193.9
413.50311	26901.5
417.64277	26765.6
421.77947	26763.2
425.9132	26925.8
430.04396	27143.2
434.17176	27356.3
438.2966	27768.1
442.41849	28555.1
446.53742	29739.3
450.6534	31041.4
454.76644	31833.3
458.87653	31796.6
462.98368	31214.6
467.08789	30426.6
471.18916	29628.8
475.2875	28865.4
479.38291	28351.5
483.4754	27970.8
487.56496	27645.9
491.6516	27351.1
495.73531	27037.5
499.81612	26922.1
503.89401	27044.6
507.96899	27096.1
512.04106	27028
516.11023	26987.8
520.1765	26871.2
524.23987	27004.3
528.30034	27038.9
532.35792	26977.8
536.41261	26536.9
540.46441	26116.5
544.51333	25943.1
548.55936	26123.1
552.60252	26622.6
556.64279	27340
560.6802	27932.5
564.71473	28078.7
568.7464	28275.6
572.7752	28759.4
576.80114	29155.5
580.82422	29707.3
584.84444	30755.2
588.86181	32465.8
592.87633	34479.7
596.888	35285.1
600.89682	33879
604.9028	33101.4
608.90594	35031.1
612.90624	37604.9
616.90371	35484.2
620.89834	30362.4
624.89015	28215.4
628.87913	27930.2
632.86528	27708.3
636.84862	27279.3
640.82913	26634.1
644.80683	26014.2
648.78172	25612.1
652.75379	25710.7
656.72306	26123.7
660.68952	26620.8
664.65319	26558.9
668.61405	26099.3
672.57211	26010.3
676.52738	26081.7
680.47986	25993.5
684.42955	25816.9
688.37646	25798.6
692.32058	26060.3
696.26192	26504.6
700.20048	26908.5
704.13626	27039.8
708.06928	26846.7
711.99952	26614.2
715.927	26662.5
719.85171	26817.2
723.77365	26737
727.69284	26379.1
731.60928	26111.4
735.52295	26125
739.43388	26200.7
743.34206	26290
747.24749	26423.1
751.15017	26634.9
755.05012	27029.5
758.94733	27670.8
762.8418	28758.5
766.73354	30475
770.62254	32149.7
774.50882	32596.6
778.39237	31522.1
782.27321	29709.6
786.15132	28094.4
790.02671	27168.9
793.89938	26765.8
797.76935	26636.2
801.6366	26582.6
805.50115	26523.6
809.36299	26403.9
813.22213	26215.2
817.07857	26091.6
820.93231	26076.3
824.78336	25995.4
828.63172	26059.2
832.47738	26125.7
836.32036	26213.6
840.16066	26460.5
843.99827	26598.1
847.8332	26499.3
851.66546	26350.4
855.49504	26358.8
859.32195	26313.4
863.1462	26207.3
866.96777	26063
870.78668	25957.8
874.60293	26032.5
878.41652	26048.6
882.22745	26157.4
886.03573	26236
889.84136	26151.7
893.64433	26040.5
897.44466	25931.8
901.24235	25816.1
905.0374	25774.2
908.8298	25796.5
912.61957	25833.9
916.40671	26043.3
920.19121	26359.2
923.97308	26770.8
927.75233	27038.9
931.52895	26996.9
935.30295	26687.6
939.07433	26306.7
942.84309	26010.1
946.60924	25965.1
950.37278	25914.7
954.13371	25795.9
957.89203	25562.2
961.64774	25531.1
965.40086	25523.2
969.15137	25476
972.89929	25424.5
976.64461	25507.7
980.38733	25690.1
984.12747	25906.7
987.86502	26267.7
991.59999	26655.2
995.33237	27279.8
999.06217	28200.1
1002.78939	29245.3
1006.51404	29815.5
1010.23611	30176.5
1013.95561	30420.8
1017.67255	30388.2
1021.38692	29910.2
1025.09872	29580.3
1028.80796	30005.4
1032.51465	31211.3
1036.21877	32351.3
1039.92035	32445.7
1043.61937	31783.5
1047.31584	30720.4
1051.00976	29598.3
1054.70114	28986.2
1058.38998	28761.1
1062.07627	28622.2
1065.76003	28574.8
1069.44126	28644.4
1073.11995	29012
1076.79611	29351.5
1080.46974	29633.2
1084.14085	29909.5
1087.80943	30197
1091.47549	30350.6
1095.13903	30158.9
1098.80005	29726
1102.45857	29317.5
1106.11456	29067.4
1109.76805	29177.5
1113.41903	29279.1
1117.06751	29392.3
1120.71348	29603.2
1124.35696	29828.9
1127.99793	30087.2
1131.63641	30180.2
1135.2724	30019.5
1138.90589	29846.9
1142.5369	29716
1146.16542	29774.3
1149.79145	29868.2
1153.415	30047
1157.03607	30278.7
1160.65467	30944.4
1164.27079	32123.6
1167.88443	33625.3
1171.49561	35615.9
1175.10432	38148.1
1178.71056	41591.9
1182.31434	44744.3
1185.91565	46262.3
1189.51451	45546.6
1193.11091	43604.6
1196.70485	41602.6
1200.29634	39954.9
1203.88538	38829.2
1207.47197	38066.9
1211.05612	37418.8
1214.63782	36811.9
1218.21708	36585.8
1221.79391	36678.4
1225.36829	36736.2
1228.94024	36322.4
1232.50976	35247.8
1236.07685	34256.1
1239.6415	33668.6
1243.20374	33617.7
1246.76355	33985.8
1250.32093	34710.9
1253.8759	35491.4
1257.42845	36487.7
1260.97859	37499.6
1264.52631	38622
1268.07163	39797.2
1271.61453	40991.7
1275.15503	42276.2
1278.69312	43492.1
1282.22882	44580.2
1285.76211	45640.9
1289.29301	46814.6
1292.82151	48470.6
1296.34761	50664.3
1299.87133	53730.2
1303.39266	57555.3
1306.9116	61661.1
1310.42815	65467.7
1313.94233	67522.3
1317.45412	66885.1
1320.96354	64382.1
1324.47058	61429.4
1327.97525	58758.3
1331.47754	56937.9
1334.97747	55944.2
1338.47502	55316.1
1341.97022	54371.3
1345.46305	53284.8
1348.95352	52711.6
1352.44163	53786.5
1355.92738	56690
1359.41078	60509.2
1362.89183	63188.2
1366.37053	61737
1369.84688	56252.7
1373.32088	49654
1376.79254	45481.6
1380.26186	44049.5
1383.72883	43921.5
1387.19347	43741.8
1390.65578	43144
1394.11575	42996.7
1397.57339	43536.6
1401.0287	44378.9
1404.48168	45106.2
1407.93234	45374.7
1411.38068	45059.4
1414.82669	44282
1418.27039	42975.9
1421.71177	41377.7
1425.15083	40012.7
1428.58758	39348.6
1432.02203	39779.7
1435.45416	40865.5
1438.88399	42030.2
1442.31151	42755
1445.73673	43133
1449.15965	43345.4
1452.58027	43205.8
1455.9986	42802.3
1459.41463	42791.6
1462.82837	43441.5
1466.23982	44558.7
1469.64898	45667.5
1473.05586	46348.7
1476.46045	46653.9
1479.86276	46633.8
1483.26279	46285.1
1486.66054	46042.3
1490.05602	46115.1
1493.44922	46193.3
1496.84016	46091
1500.22882	46174.8
1503.61521	46793.9
1506.99934	47773.8
1510.38121	48758.3
1513.76081	48869.1
1517.13816	47848.9
1520.51324	46003.6
1523.88607	44370
1527.25665	43619.3
1530.62498	43594.9
1533.99105	43628.3
1537.35488	43531.3
1540.71647	43129.6
1544.07581	42474.6
1547.4329	41761.4
1550.78776	41030.1
1554.14038	40383.9
1557.49077	39778.7
1560.83892	39395.1
1564.18484	39295
1567.52853	39274.9
1570.86999	39608.3
1574.20922	40116.6
1577.54624	40659.7
1580.88103	40710.5
1584.2136	41221.3
1587.54395	42779.8
1590.87208	45545.9
1594.19801	49194.4
1597.52172	52906.1
1600.84321	54455.9
1604.16251	52539.6
1607.47959	47860.5
1610.79447	42570.5
1614.10715	38144.8
1617.41763	35179.2
1620.7259	33492
1624.03199	32987.1
1627.33587	33231.4
1630.63757	34420.7
1633.93707	36512.6
1637.23439	39805.6
1640.52951	44482.5
1643.82246	50010.9
1647.11321	54298.3
1650.40179	54397.2
1653.68819	49659
1656.97241	42673.7
1660.25446	36622.3
1663.53433	32655.5
1666.81203	30271.4
1670.08756	28832.6
1673.36092	27909
1676.63211	27380.8
1679.90115	26956.5
1683.16801	26626.4
1686.43272	26421.2
1689.69527	26256.3
1692.95567	26084.9
1696.2139	26044.1
1699.46999	26021
1702.72392	25933.2
1705.97571	25930
1709.22535	25944.7
1712.47284	25898.1
1715.71819	25866.3
1718.96139	25796.8
1722.20246	25774.3
1725.44139	25719.9
1728.67818	25603.6
1731.91284	25440.6
1735.14537	25349.7
1738.37576	25270.5
1741.60403	25193.8
1744.83017	25109.9
1748.05418	25093.1
1751.27607	25016.9
1754.49584	25031.6
1757.71349	25026.9
1760.92903	25018.9
1764.14244	25033.7
1767.35375	25018.5
1770.56294	24970
1773.77002	24982.9
1776.97499	24923.9
1780.17785	24899.8
1783.37861	24862.3
1786.57727	24806.4
1789.77382	24798.6
1792.96828	24771.9
1796.16064	24735.4
1799.3509	24713.1
1802.53907	24710.6
1805.72514	24615.7
1808.90913	24601.4
1812.09102	24537.8
1815.27083	24539.5
1818.44856	24490
1821.6242	24421.8
1824.79776	24419.4
1827.96924	24401.6
1831.13864	24416.6
1834.30597	24401.5
1837.47122	24333.7
1840.6344	24350.3
1843.7955	24380.2
1846.95454	24337.9
1850.11151	24315.3
1853.26642	24361.7
1856.41926	24368.8
1859.57004	24410.6
1862.71876	24347
1865.86542	24380.9
1869.01003	24306.7
1872.15258	24317.1
1875.29308	24319.1
1878.43152	24292
1881.56792	24291.4
1884.70227	24308.6
1887.83457	24272.8
1890.96482	24296.3
1894.09304	24237.5
1897.21921	24222.7
1900.34335	24233.3
1903.46544	24202.2
1906.58551	24191.1
1909.70353	24204.1
1912.81953	24181.7
1915.93349	24178.1
1919.04543	24151.1
1922.15534	24128.7
1925.26322	24095.8
1928.36908	24064.6
1931.47292	24041.5
1934.57473	23997.9
1937.67453	23921
1940.77232	23908.1
1943.86808	23820.6
1946.96184	23756
1950.05358	23691.2
1953.14331	23650.3
1956.23103	23572.4
1959.31675	23537.1
1962.40046	23437.9
1965.48217	23384.8
1968.56188	23331.1
1971.63959	23284.4
1974.7153	23294.9
1977.78901	23202.8
1980.86073	23111.9
1983.93046	23024.6
1986.99819	22987.8
1990.06394	22995.6
1993.1277	22907.3
1996.18947	22845.5
1999.24925	22792.5
2002.30706	22726.3
2005.36288	22676.7
2008.41672	22592.3
2011.46859	22570.8
2014.51848	22529.5
2017.56639	22507.5
2020.61233	22466.5
2023.6563	22409.1
2026.6983	22406.4
2029.73833	22327.9
2032.7764	22328.6
2035.8125	22325.7
2038.84664	22263.8
2041.87881	22214.4
2044.90903	22171
2047.93729	22192.3
2050.96359	22182.3
2053.98794	22160.2
2057.01034	22165.9
2060.03078	22146.1
2063.04927	22126.1
2066.06582	22089.6
2069.08042	22081.5
2072.09307	22075.7
2075.10378	22064.6
2078.11255	22076.8
2081.11938	22059.8
2084.12426	22039.8
2087.12722	22053.4
2090.12824	22041.9
2093.12732	21994.4
2096.12447	22036.6
2099.11969	22066.9
2102.11299	22053
2105.10435	22078.3
2108.09379	22086.5
2111.08131	22074.8
2114.0669	22118.9
2117.05057	22137.9
2120.03233	22135.1
2123.01216	22181.9
2125.99008	22193.1
2128.96609	22204.5
2131.94018	22270.3
2134.91236	22311.7
2137.88263	22280.7
2140.851	22340.3
2143.81746	22391.2
2146.78201	22393.4
2149.74466	22396.8
2152.7054	22385.9
2155.66425	22373.9
2158.6212	22390.3
2161.57625	22408.8
2164.52941	22435.1
2167.48067	22370.7
2170.43004	22405.9
2173.37752	22399.6
2176.32311	22401.2
2179.26681	22371
2182.20863	22403.4
2185.14856	22448.6
2188.08661	22442
2191.02278	22502.2
2193.95707	22514.6
2196.88948	22526.8
2199.82001	22489.5
2202.74867	22449.7
2205.67545	22448.4
2208.60037	22456
2211.52341	22439.6
2214.44458	22393.2
2217.36388	22410.2
2220.28132	22384.9
2223.1969	22313.4
2226.11061	22318.6
2229.02246	22290.7
2231.93245	22242.4
2234.84058	22220.4
2237.74686	22202.7
2240.65128	22187
2243.55385	22149
2246.45456	22136.9
2249.35343	22126.2
2252.25044	22114.7
2255.14561	22061.3
2258.03893	22059.8
2260.93041	21992.9
2263.82004	21908.6
2266.70783	21905
2269.59378	21839.6
2272.4779	21767.9
2275.36017	21711.2
2278.24061	21694.5
2281.11922	21695.7
2283.996	21664.3
2286.87094	21662.5
2289.74405	21668.4
2292.61534	21678
2295.4848	21677.6
2298.35243	21711.9
2301.21824	21727.7
2304.08223	21768.2
2306.94439	21748.1
2309.80474	21716.6
2312.66327	21778.3
2315.51999	21757.2
2318.37489	21793.4
2321.22797	21768.6
2324.07925	21699.7
2326.92871	21690.7
2329.77637	21735
2332.62222	21701.9
2335.46626	21702.1
2338.3085	21701.6
2341.14893	21750.9
2343.98756	21802.1
2346.8244	21786
2349.65943	21750.2
2352.49267	21685.9
2355.32411	21683.5
2358.15376	21660.5
2360.98161	21647.6
2363.80768	21642.7
2366.63195	21640.2
2369.45444	21549.7
2372.27514	21569.7
2375.09405	21504.4
2377.91118	21471.5
2380.72652	21410.5
2383.54009	21405.4
2386.35187	21404.7
2389.16188	21328.6
2391.97011	21314.6
2394.77657	21299.8
2397.58125	21322.3
2400.38416	21271.6
2403.18529	21251.5
2405.98466	21202
2408.78226	21158.7
2411.57809	21134.9
2414.37216	21118.6
2417.16446	21103.3
2419.955	21063.9
2422.74378	21056.4
2425.5308	21046.5
2428.31606	21061.4
2431.09956	21033.5
2433.88131	21054.8
2436.6613	21042.1
2439.43954	21025
2442.21603	21036.9
2444.99077	21043.3
2447.76377	21007.4
2450.53501	20969.8
2453.30451	20927
2456.07226	20959
2458.83827	20984.6
2461.60254	20987.7
2464.36507	20984.4
2467.12586	20985.3
2469.88492	20998.6
2472.64224	21018.1
2475.39782	21035.7
2478.15167	21069.6
2480.90379	21092.4
2483.65417	21126.8
2486.40283	21126.1
2489.14976	21168.4
2491.89497	21118.3
2494.63845	21126.6
2497.3802	21142.3
2500.12024	21186.4
2502.85855	21084.8
2505.59514	21107.4
2508.33002	21048.1
2511.06318	21043.8
2513.79462	21063.5
2516.52435	21015.1
2519.25237	21055.4
2521.97867	21027.8
2524.70327	21035.2
2527.42616	21035.8
2530.14734	21002.9
2532.86681	20981.6
2535.58458	20971.4
2538.30065	20989.5
2541.01501	20979.3
2543.72768	20971.9
2546.43864	20963.9
2549.14791	20981.6
2551.85548	20981.8
2554.56136	20958.9
2557.26554	20906.1
2559.96803	20915.4
2562.66883	20883.5
2565.36794	20877.9
2568.06536	20823.3
2570.7611	20845.6
2573.45514	20843.3
2576.14751	20787.4
2578.83819	20836.7
2581.52719	20795.1
2584.21451	20803.2
2586.90015	20797.8
2589.58411	20786.5
2592.2664	20783.2
2594.94701	20786.8
2597.62594	20770.3
2600.30321	20729.8
2602.9788	20735.2
2605.65273	20728.4
2608.32498	20754.4
2610.99557	20754.6
2613.66449	20772.1
2616.33175	20729.5
2618.99734	20764.3
2621.66128	20774
2624.32355	20771.4
2626.98416	20712.8
2629.64311	20732.2
2632.30041	20709.5
2634.95605	20695.8
2637.61004	20685.5
2640.26238	20597.7
2642.91306	20613.8
2645.56209	20648.7
2648.20948	20619.4
2650.85521	20597.1
2653.4993	20651.2
2656.14175	20598.8
2658.78255	20644.8
2661.42171	20610
2664.05923	20682.2
2666.6951	20714.9
2669.32934	20714.2
2671.96194	20700.8
2674.59291	20762.1
2677.22224	20713.7
2679.84993	20731.8
2682.476	20738.4
2685.10043	20699
2687.72324	20666.9
2690.34441	20656.3
2692.96396	20666.6
2695.58188	20654.7
2698.19818	20629.5
2700.81285	20672.2
2703.4259	20681.7
2706.03733	20730.6
2708.64714	20683.7
2711.25533	20735.8
2713.86191	20739.9
2716.46687	20774.4
2719.07021	20757.3
2721.67194	20812.2
2724.27206	20820.7
2726.87057	20818.3
2729.46747	20813.2
2732.06276	20837.1
2734.65644	20840.9
2737.24852	20860.5
2739.83899	20821.3
2742.42786	20846.8
2745.01513	20785.9
2747.60079	20744.3
2750.18486	20756.1
2752.76733	20754.7
2755.3482	20731.6
2757.92747	20770.6
2760.50515	20735.9
2763.08123	20754.1
2765.65573	20703.9
2768.22863	20716.8
2770.79994	20725.9
2773.36967	20719.2
2775.9378	20741.6
2778.50435	20754.6
2781.06932	20738.2
2783.6327	20757.5
2786.1945	20760.2
2788.75471	20755.4
2791.31335	20700.5
2793.87041	20685.4
2796.42589	20631.6
2798.97979	20630.5
2801.53212	20595.4
2804.08288	20587
2806.63206	20550.7
2809.17967	20527.4
2811.72571	20491.2
2814.27018	20461.7
2816.81308	20423.8
2819.35442	20398.9
2821.89419	20362.2
2824.43239	20352.4
2826.96904	20306.8
2829.50412	20337.7
2832.03763	20286.5
2834.56959	20316.7
2837.1	20247
2839.62884	20330.7
2842.15613	20330.8
2844.68186	20332.4
2847.20604	20314
2849.72867	20312.4
2852.24974	20292.1
2854.76927	20276.6
2857.28724	20222.2
2859.80367	20205.1
2862.31855	20215.2
2864.83189	20168
2867.34368	20170.1
2869.85393	20191.4
2872.36264	20183
2874.8698	20153.8
2877.37543	20202
2879.87952	20186.6
2882.38207	20237.8
2884.88308	20191
2887.38256	20220.7
2889.88051	20231.6
2892.37692	20259.9
2894.8718	20256.4
2897.36515	20310.7
2899.85698	20329.9
2902.34727	20388.5
2904.83604	20372.5
2907.32328	20425.6
2909.809	20436.4
2912.29319	20411.9
2914.77587	20397.2
2917.25702	20397.6
2919.73665	20357
2922.21476	20389.4
2924.69136	20407.9
2927.16644	20364.9
2929.64	20328.8
2932.11205	20325.1
2934.58258	20250.6
2937.05161	20311.1
2939.51912	20304.1
2941.98513	20267.1
2944.44962	20266.5
2946.91261	20212.3
2949.37409	20281.4
2951.83407	20250
2954.29254	20224.5
2956.74951	20230.9
2959.20498	20238
2961.65895	20213.9
2964.11142	20282.9
2966.56239	20212.3
2969.01186	20240.8
2971.45984	20196.1
2973.90632	20228.2
2976.35131	20171.8
2978.7948	20129.2
2981.23681	20026.9
2983.67732	20036.5
2986.11635	19960.1
2988.55388	19942.5
2990.98993	19906.3
2993.4245	19879.8
2995.85758	19858.9
2998.28917	19803
3000.71928	19836.9
3003.14791	19759.7
3005.57506	19787.6
3008.00073	19735.5
3010.42493	19590.2
3012.84764	19655
3015.26888	19621
3017.68865	19577.3
3020.10694	19568
3022.52376	19542.1
3024.9391	19536.1
3027.35298	19501.2
3029.76539	19515.4
3032.17632	19514.8
3034.5858	19514
3036.9938	19484.8
3039.40034	19498.3
3041.80542	19456.8
3044.20903	19485
3046.61118	19480.5
3049.01187	19417.3
3051.4111	19426.7
3053.80888	19374.7
3056.20519	19324.8
3058.60005	19291.3
3060.99345	19301.1
3063.3854	19254.8
3065.7759	19214.8
3068.16494	19196.1
3070.55254	19160.4
3072.93868	19101.1
3075.32338	19053.5
3077.70662	19057.9
3080.08842	18981.4
3082.46878	18986.1
3084.84769	18950.9
3087.22515	18969.9
3089.60118	19003.3
3091.97576	18980.4
3094.3489	18985.5
3096.72061	19051.2
3099.09087	19027.6
3101.4597	18947.2
3103.82709	18951.8
3106.19305	18957.9
3108.55757	18974
3110.92066	18914.2
3113.28232	18899.7
3115.64255	18852.4
3118.00134	18801.5
3120.35871	18792.8
3122.71466	18744.6
3125.06917	18706.1
3127.42226	18742.1
3129.77393	18719.2
3132.12417	18672.9
3134.47299	18663.1
3136.82039	18652.2
3139.16636	18678.1
3141.51092	18667.2
3143.85406	18645.1
3146.19579	18689.6
3148.53609	18654.1
3150.87499	18657.8
3153.21246	18631
3155.54853	18731.8
3157.88318	18715
3160.21642	18691.3
3162.54826	18704.2
3164.87868	18736.8
3167.2077	18719.6
3169.5353	18783.3
3171.86151	18720.8
3174.18631	18732.4
3176.5097	18725.6
3178.83169	18698
3181.15228	18688.8
3183.47147	18634.7
3185.78926	18651.8
3188.10565	18608.1
3190.42065	18580.7
3192.73424	18583.9
3195.04645	18573.5
3197.35725	18575.3
3199.66667	18568.6
3201.97469	18611.8
3204.28132	18605.1
3206.58656	18657.2
3208.8904	18642.4
3211.19287	18628.7
3213.49394	18592.9
3215.79363	18634
3218.09193	18663.1
3220.38884	18644.5
3222.68438	18663.2
3224.97853	18627.9
3227.2713	18692.5
3229.56269	18639.1
3231.8527	18617.7
3234.14133	18601
3236.42858	18546
3238.71446	18548.8
3240.99896	18542.2
3243.28209	18503.6
3245.56384	18514.6
3247.84423	18539.7
3250.12324	18472.3
3252.40088	18441.4
3254.67715	18442.7
3256.95205	18445.2
3259.22558	18395.5
3261.49775	18384.3
3263.76855	18369.7
3266.03799	18378.6
3268.30606	18390.5
3270.57277	18329.7
3272.83812	18304
3275.10211	18286.7
3277.36474	18263
3279.62601	18280.1
3281.88593	18227.6
3284.14448	18228.1
3286.40168	18202.9
3288.65753	18223.4
3290.91202	18222.7
3293.16516	18214.5
3295.41695	18205.6
3297.66738	18112.3
3299.91647	18042
3302.16421	17923.2
3304.4106	17806.4
3306.65564	17718
3308.89933	17606.9
3311.14169	17494.7
3313.38269	17353.6
3315.62236	17262.9
3317.86068	17107
3320.09766	17008.1
3322.3333	16880.4
3324.5676	16823.3
3326.80056	16559.6
3329.03219	16482.3
3331.26248	5
3333.49143	0.8
3335.71905	-1
