Data from AgNP_FTO_APTES_UA_10uM_CRN_500uM_R6G_10uM_NaF_0.1M_Addition_RamanShift__2__18-42-40-927.txt Node

Date: Thu Feb 10 18:42:40 GMT 2022
User: TCL
Spectrometer: QEP01345
Trigger mode: 4
Integration Time (sec): 7.000000E0
Scans to average: 10
Electric dark correction enabled: true
Nonlinearity correction enabled: false
Boxcar width: 0
XAxis mode: Raman Shifts
Number of Pixels in Spectrum: 1044
>>>>>Begin Spectral Data<<<<<
46.04893	-0.1375
50.45542	-0.8375
54.85868	-1.7375
59.25871	-1.1375
63.6555	60.8625
68.04907	61.2625
72.43941	62.9625
76.82654	64.6625
81.21044	71.3625
85.59113	69.6625
89.96862	75.2625
94.34289	79.0625
98.71396	81.3625
103.08183	85.5625
107.4465	85.4625
111.80798	81.6625
116.16626	91.4625
120.52136	93.0625
124.87327	99.7625
129.222	100.9625
133.56755	108.0625
137.90993	112.5625
142.24913	122.6625
146.58517	131.7625
150.91804	157.5625
155.24774	186.5625
159.57429	227.0625
163.89768	291.5625
168.21792	385.8625
172.53501	524.7625
176.84895	736.0625
181.15975	1028.8625
185.46741	1445.5625
189.77193	2013.0625
194.07331	2682.9625
198.37157	3466.9625
202.6667	4286.7625
206.9587	5108.3625
211.24758	5911.9625
215.53334	6694.3625
219.81599	7545.6625
224.09553	8458.8625
228.37195	9465.0625
232.64527	10572.8625
236.91549	11779.7625
241.18261	12973.5625
245.44663	14098.2625
249.70755	15156.9625
253.96539	16059.5625
258.22014	16808.2625
262.4718	17425.6625
266.72039	17921.1625
270.96589	18159.3625
275.20832	18193.0625
279.44768	18115.2625
283.68397	17920.7625
287.91719	17716.5625
292.14735	17615.8625
296.37445	17564.4625
300.59849	17635.5625
304.81948	17742.9625
309.03742	17700.8625
313.25231	17579.2625
317.46415	17308.7625
321.67296	16943.5625
325.87872	16614.1625
330.08145	16481.7625
334.28114	16486.2625
338.47781	16569.4625
342.67145	16797.9625
346.86207	17050.3625
351.04966	17353.9625
355.23424	17673.1625
359.4158	17936.6625
363.59435	18168.5625
367.76989	18362.3625
371.94243	18459.8625
376.11196	18584.6625
380.27849	18677.3625
384.44203	18779.7625
388.60257	18913.6625
392.76012	19032.1625
396.91468	19229.4625
401.06626	19466.9625
405.21485	19629.4625
409.36047	19573.7625
413.50311	19304.9625
417.64277	19106.6625
421.77947	19039.0625
425.9132	19082.0625
430.04396	19150.1625
434.17176	19272.2625
438.2966	19395.0625
442.41849	19699.1625
446.53742	20082.6625
450.6534	20531.3625
454.76644	20817.3625
458.87653	20905.3625
462.98368	20879.7625
467.08789	20783.1625
471.18916	20611.2625
475.2875	20491.8625
479.38291	20401.1625
483.4754	20289.0625
487.56496	20119.3625
491.6516	19883.3625
495.73531	19679.0625
499.81612	19521.7625
503.89401	19554.6625
507.96899	19616.6625
512.04106	19631.1625
516.11023	19640.7625
520.1765	19598.0625
524.23987	19506.3625
528.30034	19374.1625
532.35792	19292.8625
536.41261	19155.5625
540.46441	19023.9625
544.51333	18995.4625
548.55936	19148.8625
552.60252	19439.9625
556.64279	19784.6625
560.6802	20010.2625
564.71473	20146.4625
568.7464	20325.6625
572.7752	20709.3625
576.80114	20958.2625
580.82422	21090.5625
584.84444	21326.5625
588.86181	21696.3625
592.87633	22086.1625
596.888	22090.8625
600.89682	21709.2625
604.9028	21868.8625
608.90594	23305.8625
612.90624	25144.2625
616.90371	24253.4625
620.89834	21099.6625
624.89015	19652.0625
628.87913	19450.2625
632.86528	19496.1625
636.84862	19601.9625
640.82913	19463.3625
644.80683	19130.3625
648.78172	18909.2625
652.75379	18922.8625
656.72306	19081.7625
660.68952	19322.9625
664.65319	19248.2625
668.61405	18960.7625
672.57211	18893.0625
676.52738	18952.4625
680.47986	18994.6625
684.42955	18909.1625
688.37646	18908.4625
692.32058	18949.1625
696.26192	19110.1625
700.20048	19234.8625
704.13626	19379.2625
708.06928	19369.6625
711.99952	19315.8625
715.927	19314.2625
719.85171	19306.0625
723.77365	19299.7625
727.69284	19133.3625
731.60928	19012.5625
735.52295	18923.1625
739.43388	18935.3625
743.34206	18980.3625
747.24749	19022.2625
751.15017	19133.0625
755.05012	19303.8625
758.94733	19630.3625
762.8418	20343.7625
766.73354	21399.0625
770.62254	22582.5625
774.50882	22972.6625
778.39237	22317.8625
782.27321	21126.3625
786.15132	20057.4625
790.02671	19376.6625
793.89938	19092.1625
797.76935	18936.3625
801.6366	18847.8625
805.50115	18838.5625
809.36299	18756.6625
813.22213	18681.5625
817.07857	18703.3625
820.93231	18674.5625
824.78336	18648.8625
828.63172	18636.6625
832.47738	18622.8625
836.32036	18612.6625
840.16066	18609.5625
843.99827	18672.1625
847.8332	18616.5625
851.66546	18629.3625
855.49504	18601.6625
859.32195	18637.6625
863.1462	18613.1625
866.96777	18570.7625
870.78668	18590.9625
874.60293	18596.6625
878.41652	18579.6625
882.22745	18599.7625
886.03573	18638.6625
889.84136	18665.9625
893.64433	18598.5625
897.44466	18580.6625
901.24235	18509.3625
905.0374	18472.5625
908.8298	18402.3625
912.61957	18416.9625
916.40671	18493.2625
920.19121	18638.9625
923.97308	18771.2625
927.75233	18758.7625
931.52895	18729.5625
935.30295	18563.1625
939.07433	18342.8625
942.84309	18155.0625
946.60924	18074.6625
950.37278	18011.4625
954.13371	17968.9625
957.89203	17926.2625
961.64774	17920.1625
965.40086	17886.0625
969.15137	17857.3625
972.89929	17820.2625
976.64461	17754.8625
980.38733	17772.7625
984.12747	17805.6625
987.86502	17872.7625
991.59999	17998.4625
995.33237	18117.4625
999.06217	18353.8625
1002.78939	18630.5625
1006.51404	18813.3625
1010.23611	18929.3625
1013.95561	19044.7625
1017.67255	19069.3625
1021.38692	19003.6625
1025.09872	18860.2625
1028.80796	18791.1625
1032.51465	18874.2625
1036.21877	19089.6625
1039.92035	19169.7625
1043.61937	19095.3625
1047.31584	18984.1625
1051.00976	18828.6625
1054.70114	18803.8625
1058.38998	18828.7625
1062.07627	18870.3625
1065.76003	18986.0625
1069.44126	19068.0625
1073.11995	19164.5625
1076.79611	19321.2625
1080.46974	19400.3625
1084.14085	19495.7625
1087.80943	19672.4625
1091.47549	19777.4625
1095.13903	19805.9625
1098.80005	19626.6625
1102.45857	19412.8625
1106.11456	19199.6625
1109.76805	19184.7625
1113.41903	19224.5625
1117.06751	19303.1625
1120.71348	19490.9625
1124.35696	19650.3625
1127.99793	19893.5625
1131.63641	19952.8625
1135.2724	19842.0625
1138.90589	19605.1625
1142.5369	19513.5625
1146.16542	19511.6625
1149.79145	19578.3625
1153.415	19647.1625
1157.03607	19795.8625
1160.65467	20118.6625
1164.27079	20699.3625
1167.88443	21426.8625
1171.49561	22294.4625
1175.10432	23351.4625
1178.71056	24784.8625
1182.31434	26146.0625
1185.91565	26927.7625
1189.51451	26830.8625
1193.11091	26239.8625
1196.70485	25383.2625
1200.29634	24639.8625
1203.88538	24007.3625
1207.47197	23499.3625
1211.05612	23080.7625
1214.63782	22651.2625
1218.21708	22350.9625
1221.79391	22069.9625
1225.36829	21855.9625
1228.94024	21684.9625
1232.50976	21480.7625
1236.07685	21241.1625
1239.6415	21169.3625
1243.20374	21212.2625
1246.76355	21348.9625
1250.32093	21523.9625
1253.8759	21776.9625
1257.42845	22175.8625
1260.97859	22591.2625
1264.52631	23029.0625
1268.07163	23487.2625
1271.61453	23896.1625
1275.15503	24305.9625
1278.69312	24719.8625
1282.22882	25148.6625
1285.76211	25608.3625
1289.29301	26284.3625
1292.82151	27125.6625
1296.34761	28165.7625
1299.87133	29456.7625
1303.39266	30871.7625
1306.9116	32271.9625
1310.42815	33552.7625
1313.94233	34303.9625
1317.45412	34067.9625
1320.96354	33390.6625
1324.47058	32577.1625
1327.97525	31856.2625
1331.47754	31276.4625
1334.97747	30898.9625
1338.47502	30637.6625
1341.97022	30541.4625
1345.46305	30466.4625
1348.95352	30596.5625
1352.44163	30898.7625
1355.92738	31758.9625
1359.41078	33128.8625
1362.89183	34284.1625
1366.37053	33721.9625
1369.84688	31157.3625
1373.32088	28157.4625
1376.79254	26184.0625
1380.26186	25502.7625
1383.72883	25348.4625
1387.19347	25318.7625
1390.65578	25087.1625
1394.11575	25028.3625
1397.57339	25087.6625
1401.0287	25226.2625
1404.48168	25366.4625
1407.93234	25220.3625
1411.38068	24785.1625
1414.82669	24262.3625
1418.27039	23583.7625
1421.71177	22913.4625
1425.15083	22355.8625
1428.58758	22046.6625
1432.02203	22137.6625
1435.45416	22509.2625
1438.88399	22940.1625
1442.31151	23203.7625
1445.73673	23375.0625
1449.15965	23575.5625
1452.58027	23632.7625
1455.9986	23681.4625
1459.41463	23754.1625
1462.82837	23916.8625
1466.23982	24151.1625
1469.64898	24390.8625
1473.05586	24588.3625
1476.46045	24611.3625
1479.86276	24577.8625
1483.26279	24502.3625
1486.66054	24488.1625
1490.05602	24613.1625
1493.44922	24935.9625
1496.84016	25370.9625
1500.22882	26090.5625
1503.61521	27081.5625
1506.99934	28287.1625
1510.38121	29235.5625
1513.76081	29552.5625
1517.13816	28869.5625
1520.51324	27641.3625
1523.88607	26558.3625
1527.25665	25903.7625
1530.62498	25646.0625
1533.99105	25520.9625
1537.35488	25272.6625
1540.71647	24956.7625
1544.07581	24527.4625
1547.4329	24067.5625
1550.78776	23715.1625
1554.14038	23417.6625
1557.49077	23304.0625
1560.83892	23323.8625
1564.18484	23372.0625
1567.52853	23511.5625
1570.86999	23805.3625
1574.20922	24144.5625
1577.54624	24323.7625
1580.88103	24329.0625
1584.2136	24233.2625
1587.54395	24483.4625
1590.87208	25105.8625
1594.19801	26027.0625
1597.52172	26921.7625
1600.84321	27255.7625
1604.16251	26505.1625
1607.47959	25164.4625
1610.79447	23638.9625
1614.10715	22224.8625
1617.41763	21017.0625
1620.7259	20212.1625
1624.03199	19830.4625
1627.33587	19824.7625
1630.63757	20150.8625
1633.93707	20923.7625
1637.23439	22180.3625
1640.52951	24093.8625
1643.82246	26394.9625
1647.11321	28410.3625
1650.40179	29067.0625
1653.68819	27698.7625
1656.97241	24976.9625
1660.25446	22205.2625
1663.53433	20169.2625
1666.81203	18842.9625
1670.08756	18000.0625
1673.36092	17501.0625
1676.63211	17121.1625
1679.90115	16919.2625
1683.16801	16722.4625
1686.43272	16563.0625
1689.69527	16454.5625
1692.95567	16395.0625
1696.2139	16352.9625
1699.46999	16360.1625
1702.72392	16308.9625
1705.97571	16243.7625
1709.22535	16200.0625
1712.47284	16149.9625
1715.71819	16137.2625
1718.96139	16133.8625
1722.20246	16105.4625
1725.44139	16051.2625
1728.67818	15967.3625
1731.91284	15892.2625
1735.14537	15839.9625
1738.37576	15759.7625
1741.60403	15725.5625
1744.83017	15689.2625
1748.05418	15672.9625
1751.27607	15664.3625
1754.49584	15652.0625
1757.71349	15620.2625
1760.92903	15577.1625
1764.14244	15611.2625
1767.35375	15607.3625
1770.56294	15575.4625
1773.77002	15535.7625
1776.97499	15519.3625
1780.17785	15487.1625
1783.37861	15459.5625
1786.57727	15415.5625
1789.77382	15375.3625
1792.96828	15333.0625
1796.16064	15341.1625
1799.3509	15311.1625
1802.53907	15309.7625
1805.72514	15261.3625
1808.90913	15209.2625
1812.09102	15179.7625
1815.27083	15132.1625
1818.44856	15118.5625
1821.6242	15071.5625
1824.79776	15078.1625
1827.96924	15056.0625
1831.13864	15041.7625
1834.30597	15054.8625
1837.47122	15016.5625
1840.6344	15012.2625
1843.7955	15023.3625
1846.95454	14998.5625
1850.11151	14987.9625
1853.26642	14959.0625
1856.41926	14974.3625
1859.57004	14931.0625
1862.71876	14896.4625
1865.86542	14884.1625
1869.01003	14888.7625
1872.15258	14892.5625
1875.29308	14891.1625
1878.43152	14848.1625
1881.56792	14830.7625
1884.70227	14821.5625
1887.83457	14782.9625
1890.96482	14774.5625
1894.09304	14741.4625
1897.21921	14710.6625
1900.34335	14730.3625
1903.46544	14717.0625
1906.58551	14735.0625
1909.70353	14691.2625
1912.81953	14666.7625
1915.93349	14614.1625
1919.04543	14597.5625
1922.15534	14585.4625
1925.26322	14549.2625
1928.36908	14529.4625
1931.47292	14538.5625
1934.57473	14490.4625
1937.67453	14446.0625
1940.77232	14408.7625
1943.86808	14395.7625
1946.96184	14324.5625
1950.05358	14287.2625
1953.14331	14270.6625
1956.23103	14240.7625
1959.31675	14199.4625
1962.40046	14187.1625
1965.48217	14099.9625
1968.56188	14085.7625
1971.63959	14054.9625
1974.7153	13996.5625
1977.78901	13973.6625
1980.86073	13928.4625
1983.93046	13887.4625
1986.99819	13831.3625
1990.06394	13804.8625
1993.1277	13760.9625
1996.18947	13703.2625
1999.24925	13666.9625
2002.30706	13648.5625
2005.36288	13565.9625
2008.41672	13551.9625
2011.46859	13512.4625
2014.51848	13497.2625
2017.56639	13475.0625
2020.61233	13427.0625
2023.6563	13391.5625
2026.6983	13377.4625
2029.73833	13343.5625
2032.7764	13324.3625
2035.8125	13260.1625
2038.84664	13239.3625
2041.87881	13207.4625
2044.90903	13177.8625
2047.93729	13151.1625
2050.96359	13112.5625
2053.98794	13123.2625
2057.01034	13127.6625
2060.03078	13065.5625
2063.04927	13073.7625
2066.06582	13083.7625
2069.08042	13075.1625
2072.09307	13095.3625
2075.10378	13058.7625
2078.11255	13059.7625
2081.11938	13044.8625
2084.12426	13035.1625
2087.12722	13015.3625
2090.12824	13041.6625
2093.12732	12983.2625
2096.12447	13034.5625
2099.11969	13030.7625
2102.11299	12989.0625
2105.10435	12998.3625
2108.09379	13008.8625
2111.08131	13005.8625
2114.0669	13033.9625
2117.05057	13030.3625
2120.03233	13057.5625
2123.01216	13070.2625
2125.99008	13071.2625
2128.96609	13086.3625
2131.94018	13116.9625
2134.91236	13090.5625
2137.88263	13102.1625
2140.851	13089.9625
2143.81746	13113.2625
2146.78201	13130.4625
2149.74466	13141.1625
2152.7054	13136.3625
2155.66425	13123.0625
2158.6212	13124.4625
2161.57625	13102.8625
2164.52941	13089.6625
2167.48067	13083.1625
2170.43004	13067.7625
2173.37752	13094.0625
2176.32311	13081.5625
2179.26681	13067.2625
2182.20863	13064.4625
2185.14856	13061.0625
2188.08661	13067.6625
2191.02278	13091.4625
2193.95707	13080.7625
2196.88948	13093.6625
2199.82001	13037.9625
2202.74867	13046.0625
2205.67545	13007.2625
2208.60037	13006.1625
2211.52341	12996.9625
2214.44458	12980.3625
2217.36388	12954.0625
2220.28132	12949.6625
2223.1969	12909.2625
2226.11061	12879.0625
2229.02246	12862.9625
2231.93245	12837.5625
2234.84058	12793.6625
2237.74686	12784.1625
2240.65128	12754.7625
2243.55385	12755.8625
2246.45456	12720.3625
2249.35343	12695.1625
2252.25044	12693.5625
2255.14561	12664.6625
2258.03893	12689.8625
2260.93041	12657.5625
2263.82004	12602.1625
2266.70783	12584.5625
2269.59378	12522.3625
2272.4779	12516.0625
2275.36017	12464.4625
2278.24061	12462.0625
2281.11922	12429.1625
2283.996	12433.8625
2286.87094	12448.5625
2289.74405	12416.3625
2292.61534	12415.3625
2295.4848	12405.1625
2298.35243	12407.0625
2301.21824	12387.7625
2304.08223	12368.7625
2306.94439	12352.3625
2309.80474	12355.6625
2312.66327	12337.0625
2315.51999	12313.0625
2318.37489	12316.0625
2321.22797	12334.6625
2324.07925	12275.5625
2326.92871	12244.2625
2329.77637	12225.9625
2332.62222	12236.6625
2335.46626	12200.0625
2338.3085	12187.3625
2341.14893	12203.1625
2343.98756	12184.2625
2346.8244	12195.5625
2349.65943	12170.4625
2352.49267	12152.0625
2355.32411	12161.0625
2358.15376	12149.8625
2360.98161	12134.5625
2363.80768	12146.3625
2366.63195	12136.0625
2369.45444	12102.1625
2372.27514	12098.9625
2375.09405	12067.3625
2377.91118	12077.8625
2380.72652	12045.3625
2383.54009	12014.9625
2386.35187	11969.9625
2389.16188	11937.9625
2391.97011	11935.7625
2394.77657	11908.0625
2397.58125	11870.1625
2400.38416	11862.8625
2403.18529	11835.5625
2405.98466	11848.8625
2408.78226	11815.1625
2411.57809	11795.5625
2414.37216	11787.9625
2417.16446	11787.2625
2419.955	11755.4625
2422.74378	11741.7625
2425.5308	11731.2625
2428.31606	11748.0625
2431.09956	11732.6625
2433.88131	11706.9625
2436.6613	11699.2625
2439.43954	11691.2625
2442.21603	11657.2625
2444.99077	11653.3625
2447.76377	11636.0625
2450.53501	11677.9625
2453.30451	11666.0625
2456.07226	11640.8625
2458.83827	11625.2625
2461.60254	11632.3625
2464.36507	11631.2625
2467.12586	11609.5625
2469.88492	11578.6625
2472.64224	11623.3625
2475.39782	11607.1625
2478.15167	11609.6625
2480.90379	11584.3625
2483.65417	11619.3625
2486.40283	11608.7625
2489.14976	11589.6625
2491.89497	11593.0625
2494.63845	11610.0625
2497.3802	11567.5625
2500.12024	11561.6625
2502.85855	11555.6625
2505.59514	11533.5625
2508.33002	11516.5625
2511.06318	11533.4625
2513.79462	11489.0625
2516.52435	11485.8625
2519.25237	11453.4625
2521.97867	11440.4625
2524.70327	11454.6625
2527.42616	11439.7625
2530.14734	11424.3625
2532.86681	11403.7625
2535.58458	11398.5625
2538.30065	11394.4625
2541.01501	11372.1625
2543.72768	11339.0625
2546.43864	11354.2625
2549.14791	11351.9625
2551.85548	11297.1625
2554.56136	11290.0625
2557.26554	11265.9625
2559.96803	11250.3625
2562.66883	11232.1625
2565.36794	11228.4625
2568.06536	11180.5625
2570.7611	11189.3625
2573.45514	11171.4625
2576.14751	11170.6625
2578.83819	11133.3625
2581.52719	11149.8625
2584.21451	11101.8625
2586.90015	11087.8625
2589.58411	11059.9625
2592.2664	11074.1625
2594.94701	11053.8625
2597.62594	11035.4625
2600.30321	11021.5625
2602.9788	10999.4625
2605.65273	10979.1625
2608.32498	10970.5625
2610.99557	10984.9625
2613.66449	10998.8625
2616.33175	10970.8625
2618.99734	10991.5625
2621.66128	10936.4625
2624.32355	10931.6625
2626.98416	10921.4625
2629.64311	10882.3625
2632.30041	10899.4625
2634.95605	10877.2625
2637.61004	10834.8625
2640.26238	10828.0625
2642.91306	10830.6625
2645.56209	10823.3625
2648.20948	10844.2625
2650.85521	10808.7625
2653.4993	10821.6625
2656.14175	10817.5625
2658.78255	10822.8625
2661.42171	10837.7625
2664.05923	10812.7625
2666.6951	10831.7625
2669.32934	10815.9625
2671.96194	10826.1625
2674.59291	10803.5625
2677.22224	10829.6625
2679.84993	10826.1625
2682.476	10803.8625
2685.10043	10801.1625
2687.72324	10789.9625
2690.34441	10802.3625
2692.96396	10796.6625
2695.58188	10801.5625
2698.19818	10762.1625
2700.81285	10785.6625
2703.4259	10800.6625
2706.03733	10830.7625
2708.64714	10792.3625
2711.25533	10802.9625
2713.86191	10787.1625
2716.46687	10797.9625
2719.07021	10814.1625
2721.67194	10828.9625
2724.27206	10790.2625
2726.87057	10804.9625
2729.46747	10811.3625
2732.06276	10837.1625
2734.65644	10795.6625
2737.24852	10817.4625
2739.83899	10804.6625
2742.42786	10803.9625
2745.01513	10786.4625
2747.60079	10761.3625
2750.18486	10781.8625
2752.76733	10751.6625
2755.3482	10739.5625
2757.92747	10715.6625
2760.50515	10690.4625
2763.08123	10661.2625
2765.65573	10649.0625
2768.22863	10667.2625
2770.79994	10658.7625
2773.36967	10661.7625
2775.9378	10645.3625
2778.50435	10617.3625
2781.06932	10615.3625
2783.6327	10602.2625
2786.1945	10615.3625
2788.75471	10598.6625
2791.31335	10567.2625
2793.87041	10571.4625
2796.42589	10558.5625
2798.97979	10554.6625
2801.53212	10508.7625
2804.08288	10508.6625
2806.63206	10459.3625
2809.17967	10478.0625
2811.72571	10428.0625
2814.27018	10415.0625
2816.81308	10359.0625
2819.35442	10343.6625
2821.89419	10363.0625
2824.43239	10339.7625
2826.96904	10298.1625
2829.50412	10316.5625
2832.03763	10284.8625
2834.56959	10294.8625
2837.1	10291.6625
2839.62884	10299.3625
2842.15613	10319.4625
2844.68186	10338.4625
2847.20604	10334.8625
2849.72867	10363.5625
2852.24974	10340.3625
2854.76927	10322.2625
2857.28724	10283.7625
2859.80367	10280.4625
2862.31855	10282.1625
2864.83189	10240.6625
2867.34368	10226.2625
2869.85393	10212.3625
2872.36264	10240.4625
2874.8698	10220.8625
2877.37543	10211.9625
2879.87952	10192.9625
2882.38207	10211.2625
2884.88308	10198.8625
2887.38256	10206.5625
2889.88051	10201.4625
2892.37692	10196.1625
2894.8718	10199.7625
2897.36515	10218.4625
2899.85698	10203.5625
2902.34727	10269.7625
2904.83604	10248.3625
2907.32328	10254.1625
2909.809	10241.2625
2912.29319	10248.5625
2914.77587	10262.2625
2917.25702	10222.4625
2919.73665	10209.2625
2922.21476	10245.4625
2924.69136	10209.2625
2927.16644	10228.1625
2929.64	10231.1625
2932.11205	10175.2625
2934.58258	10191.2625
2937.05161	10193.8625
2939.51912	10194.7625
2941.98513	10155.0625
2944.44962	10131.2625
2946.91261	10125.8625
2949.37409	10115.6625
2951.83407	10125.3625
2954.29254	10096.7625
2956.74951	10089.1625
2959.20498	10108.5625
2961.65895	10088.8625
2964.11142	10088.1625
2966.56239	10062.0625
2969.01186	10045.5625
2971.45984	10051.3625
2973.90632	10032.0625
2976.35131	10009.9625
2978.7948	10005.6625
2981.23681	9951.1625
2983.67732	9956.3625
2986.11635	9922.0625
2988.55388	9903.3625
2990.98993	9887.2625
2993.4245	9838.5625
2995.85758	9817.2625
2998.28917	9808.4625
3000.71928	9816.5625
3003.14791	9790.1625
3005.57506	9789.7625
3008.00073	9750.4625
3010.42493	9768.3625
3012.84764	9730.0625
3015.26888	9722.2625
3017.68865	9677.6625
3020.10694	9697.0625
3022.52376	9688.5625
3024.9391	9668.9625
3027.35298	9640.1625
