Data from AgNP_FTO_APTES_UA_10uM_CRN_200uM_R6G_10uM_NaF_0.1M_Addition_RamanShift__4__18-05-20-881.txt Node

Date: Thu Feb 10 18:05:20 GMT 2022
User: TCL
Spectrometer: QEP01345
Trigger mode: 4
Integration Time (sec): 7.000000E0
Scans to average: 10
Electric dark correction enabled: true
Nonlinearity correction enabled: false
Boxcar width: 0
XAxis mode: Raman Shifts
Number of Pixels in Spectrum: 1044
>>>>>Begin Spectral Data<<<<<
46.04893	0.7625
50.45542	-1.1375
54.85868	-1.2375
59.25871	-1.7375
63.6555	60.9625
68.04907	62.7625
72.43941	68.6625
76.82654	62.0625
81.21044	72.7625
85.59113	73.4625
89.96862	77.8625
94.34289	81.0625
98.71396	79.2625
103.08183	84.1625
107.4465	87.9625
111.80798	84.5625
116.16626	86.2625
120.52136	93.4625
124.87327	98.4625
129.222	101.1625
133.56755	106.9625
137.90993	114.4625
142.24913	121.4625
146.58517	136.8625
150.91804	160.5625
155.24774	186.2625
159.57429	229.2625
163.89768	291.5625
168.21792	389.7625
172.53501	525.8625
176.84895	733.2625
181.15975	1032.4625
185.46741	1444.4625
189.77193	2002.6625
194.07331	2686.4625
198.37157	3464.5625
202.6667	4267.6625
206.9587	5078.2625
211.24758	5851.9625
215.53334	6638.8625
219.81599	7468.1625
224.09553	8359.9625
228.37195	9366.0625
232.64527	10485.3625
236.91549	11648.1625
241.18261	12795.6625
245.44663	13961.8625
249.70755	14977.4625
253.96539	15888.9625
258.22014	16675.6625
262.4718	17306.7625
266.72039	17732.5625
270.96589	17982.4625
275.20832	18018.8625
279.44768	17884.4625
283.68397	17714.5625
287.91719	17529.8625
292.14735	17414.0625
296.37445	17424.2625
300.59849	17386.7625
304.81948	17448.6625
309.03742	17418.6625
313.25231	17284.6625
317.46415	17051.4625
321.67296	16717.8625
325.87872	16455.0625
330.08145	16289.3625
334.28114	16311.5625
338.47781	16435.2625
342.67145	16634.3625
346.86207	16815.2625
351.04966	17114.9625
355.23424	17381.4625
359.4158	17639.9625
363.59435	17885.5625
367.76989	18044.3625
371.94243	18174.5625
376.11196	18319.4625
380.27849	18414.4625
384.44203	18529.3625
388.60257	18682.2625
392.76012	18819.9625
396.91468	19052.5625
401.06626	19299.8625
405.21485	19411.4625
409.36047	19376.9625
413.50311	19222.1625
417.64277	19093.8625
421.77947	19121.7625
425.9132	19215.5625
430.04396	19316.4625
434.17176	19364.6625
438.2966	19474.5625
442.41849	19736.1625
446.53742	20126.1625
450.6534	20575.9625
454.76644	20886.6625
458.87653	20985.3625
462.98368	20854.7625
467.08789	20707.3625
471.18916	20474.8625
475.2875	20272.8625
479.38291	20173.6625
483.4754	20116.4625
487.56496	19919.9625
491.6516	19734.2625
495.73531	19497.6625
499.81612	19403.0625
503.89401	19482.5625
507.96899	19533.3625
512.04106	19527.7625
516.11023	19445.7625
520.1765	19341.0625
524.23987	19202.0625
528.30034	19099.2625
532.35792	19017.3625
536.41261	18848.7625
540.46441	18709.3625
544.51333	18701.2625
548.55936	18878.7625
552.60252	19174.3625
556.64279	19537.4625
560.6802	19799.8625
564.71473	19883.5625
568.7464	20053.9625
572.7752	20451.3625
576.80114	20834.4625
580.82422	21211.6625
584.84444	21709.7625
588.86181	22386.9625
592.87633	22900.5625
596.888	22744.7625
600.89682	22077.8625
604.9028	22014.8625
608.90594	23140.2625
612.90624	24547.7625
616.90371	23428.5625
620.89834	20609.9625
624.89015	19397.2625
628.87913	19296.2625
632.86528	19342.7625
636.84862	19308.9625
640.82913	19111.6625
644.80683	18819.5625
648.78172	18623.0625
652.75379	18579.3625
656.72306	18746.4625
660.68952	18969.7625
664.65319	18876.6625
668.61405	18632.1625
672.57211	18583.3625
676.52738	18642.3625
680.47986	18682.7625
684.42955	18606.1625
688.37646	18582.9625
692.32058	18623.8625
696.26192	18826.7625
700.20048	19023.5625
704.13626	19134.1625
708.06928	19112.1625
711.99952	19039.2625
715.927	19001.0625
719.85171	19090.2625
723.77365	19022.6625
727.69284	18904.7625
731.60928	18733.5625
735.52295	18667.6625
739.43388	18645.7625
743.34206	18706.1625
747.24749	18736.5625
751.15017	18890.4625
755.05012	19086.7625
758.94733	19518.2625
762.8418	20109.5625
766.73354	21093.1625
770.62254	22020.8625
774.50882	22305.8625
778.39237	21684.6625
782.27321	20537.0625
786.15132	19580.5625
790.02671	19002.0625
793.89938	18740.8625
797.76935	18629.0625
801.6366	18616.8625
805.50115	18590.5625
809.36299	18495.5625
813.22213	18439.1625
817.07857	18348.0625
820.93231	18303.6625
824.78336	18270.9625
828.63172	18204.1625
832.47738	18211.9625
836.32036	18237.9625
840.16066	18297.8625
843.99827	18330.1625
847.8332	18322.8625
851.66546	18265.0625
855.49504	18257.4625
859.32195	18267.4625
863.1462	18236.7625
866.96777	18194.6625
870.78668	18174.2625
874.60293	18171.9625
878.41652	18175.5625
882.22745	18236.5625
886.03573	18264.1625
889.84136	18261.2625
893.64433	18231.0625
897.44466	18147.3625
901.24235	18102.0625
905.0374	18050.4625
908.8298	18020.0625
912.61957	18038.2625
916.40671	18128.3625
920.19121	18322.5625
923.97308	18486.5625
927.75233	18477.5625
931.52895	18356.3625
935.30295	18212.3625
939.07433	17999.3625
942.84309	17783.7625
946.60924	17682.9625
950.37278	17637.2625
954.13371	17614.8625
957.89203	17576.3625
961.64774	17518.8625
965.40086	17525.0625
969.15137	17513.2625
972.89929	17431.1625
976.64461	17400.4625
980.38733	17390.4625
984.12747	17458.0625
987.86502	17531.0625
991.59999	17655.4625
995.33237	17863.6625
999.06217	18147.3625
1002.78939	18447.0625
1006.51404	18676.8625
1010.23611	18782.5625
1013.95561	18931.3625
1017.67255	18919.3625
1021.38692	18838.3625
1025.09872	18632.3625
1028.80796	18655.5625
1032.51465	18894.7625
1036.21877	19217.8625
1039.92035	19324.6625
1043.61937	19223.0625
1047.31584	19000.7625
1051.00976	18762.9625
1054.70114	18614.1625
1058.38998	18605.8625
1062.07627	18682.6625
1065.76003	18786.3625
1069.44126	18898.2625
1073.11995	19075.4625
1076.79611	19205.1625
1080.46974	19285.8625
1084.14085	19392.9625
1087.80943	19537.4625
1091.47549	19660.2625
1095.13903	19638.6625
1098.80005	19525.7625
1102.45857	19214.0625
1106.11456	19005.9625
1109.76805	18934.9625
1113.41903	18973.0625
1117.06751	19020.8625
1120.71348	19180.6625
1124.35696	19306.3625
1127.99793	19477.5625
1131.63641	19635.8625
1135.2724	19514.0625
1138.90589	19395.9625
1142.5369	19356.7625
1146.16542	19407.6625
1149.79145	19462.3625
1153.415	19610.6625
1157.03607	19790.6625
1160.65467	20196.6625
1164.27079	20935.8625
1167.88443	21809.3625
1171.49561	22680.3625
1175.10432	23749.4625
1178.71056	25195.5625
1182.31434	26584.8625
1185.91565	27274.8625
1189.51451	27115.0625
1193.11091	26435.3625
1196.70485	25646.4625
1200.29634	24857.1625
1203.88538	24368.4625
1207.47197	24046.6625
1211.05612	23772.8625
1214.63782	23295.8625
1218.21708	22813.2625
1221.79391	22400.8625
1225.36829	22173.4625
1228.94024	21884.0625
1232.50976	21636.5625
1236.07685	21377.9625
1239.6415	21246.1625
1243.20374	21282.5625
1246.76355	21448.6625
1250.32093	21713.9625
1253.8759	22074.4625
1257.42845	22480.1625
1260.97859	22935.7625
1264.52631	23435.7625
1268.07163	23923.8625
1271.61453	24513.3625
1275.15503	25041.2625
1278.69312	25590.6625
1282.22882	26105.9625
1285.76211	26742.2625
1289.29301	27548.9625
1292.82151	28537.8625
1296.34761	29915.9625
1299.87133	31488.6625
1303.39266	33203.6625
1306.9116	34714.2625
1310.42815	35871.6625
1313.94233	36375.2625
1317.45412	35921.9625
1320.96354	35122.7625
1324.47058	34374.7625
1327.97525	33746.7625
1331.47754	33310.3625
1334.97747	32990.4625
1338.47502	32678.5625
1341.97022	32304.8625
1345.46305	31930.7625
1348.95352	31758.7625
1352.44163	32065.3625
1355.92738	32860.9625
1359.41078	34199.0625
1362.89183	35196.0625
1366.37053	34585.7625
1369.84688	32119.1625
1373.32088	29054.8625
1376.79254	26960.5625
1380.26186	26261.8625
1383.72883	26226.3625
1387.19347	26241.9625
1390.65578	26019.9625
1394.11575	25977.5625
1397.57339	26189.5625
1401.0287	26533.2625
1404.48168	26772.2625
1407.93234	26721.4625
1411.38068	26268.0625
1414.82669	25532.3625
1418.27039	24706.8625
1421.71177	23898.9625
1425.15083	23183.4625
1428.58758	22824.1625
1432.02203	22962.5625
1435.45416	23454.4625
1438.88399	23990.4625
1442.31151	24398.8625
1445.73673	24641.0625
1449.15965	24787.9625
1452.58027	24813.8625
1455.9986	24773.1625
1459.41463	24831.7625
1462.82837	25076.3625
1466.23982	25404.5625
1469.64898	25770.9625
1473.05586	26051.7625
1476.46045	26142.8625
1479.86276	26033.6625
1483.26279	25810.4625
1486.66054	25719.7625
1490.05602	25742.3625
1493.44922	25936.2625
1496.84016	26196.0625
1500.22882	26686.7625
1503.61521	27382.7625
1506.99934	28254.6625
1510.38121	28932.2625
1513.76081	29035.7625
1517.13816	28479.2625
1520.51324	27655.3625
1523.88607	26993.6625
1527.25665	26687.5625
1530.62498	26644.3625
1533.99105	26557.4625
1537.35488	26342.1625
1540.71647	25949.4625
1544.07581	25406.1625
1547.4329	24817.9625
1550.78776	24352.3625
1554.14038	24042.2625
1557.49077	23858.1625
1560.83892	23715.3625
1564.18484	23670.6625
1567.52853	23746.5625
1570.86999	23999.3625
1574.20922	24332.9625
1577.54624	24671.6625
1580.88103	24813.6625
1584.2136	24988.8625
1587.54395	25592.1625
1590.87208	26618.6625
1594.19801	27904.0625
1597.52172	29082.8625
1600.84321	29399.3625
1604.16251	28331.0625
1607.47959	26493.6625
1610.79447	24494.4625
1614.10715	22736.8625
1617.41763	21395.2625
1620.7259	20513.3625
1624.03199	20079.7625
1627.33587	20128.4625
1630.63757	20591.4625
1633.93707	21567.5625
1637.23439	23138.7625
1640.52951	25492.0625
1643.82246	28277.0625
1647.11321	30531.3625
1650.40179	30833.1625
1653.68819	28880.0625
1656.97241	25615.2625
1660.25446	22512.8625
1663.53433	20296.3625
1666.81203	18870.4625
1670.08756	17951.6625
1673.36092	17433.7625
1676.63211	17026.0625
1679.90115	16775.3625
1683.16801	16558.7625
1686.43272	16447.1625
1689.69527	16341.6625
1692.95567	16238.7625
1696.2139	16187.0625
1699.46999	16152.1625
1702.72392	16101.5625
1705.97571	16073.1625
1709.22535	16050.0625
1712.47284	16005.8625
1715.71819	16014.0625
1718.96139	15956.4625
1722.20246	15922.5625
1725.44139	15879.4625
1728.67818	15795.7625
1731.91284	15680.7625
1735.14537	15637.9625
1738.37576	15608.0625
1741.60403	15556.5625
1744.83017	15543.8625
1748.05418	15499.5625
1751.27607	15461.4625
1754.49584	15471.1625
1757.71349	15437.3625
1760.92903	15472.4625
1764.14244	15426.6625
1767.35375	15437.4625
1770.56294	15392.3625
1773.77002	15397.6625
1776.97499	15361.6625
1780.17785	15307.6625
1783.37861	15269.1625
1786.57727	15257.5625
1789.77382	15221.2625
1792.96828	15184.7625
1796.16064	15160.4625
1799.3509	15126.6625
1802.53907	15092.4625
1805.72514	15121.9625
1808.90913	15040.5625
1812.09102	15026.3625
1815.27083	14976.6625
1818.44856	14970.4625
1821.6242	14941.4625
1824.79776	14906.4625
1827.96924	14904.1625
1831.13864	14948.3625
1834.30597	14885.2625
1837.47122	14923.1625
1840.6344	14897.7625
1843.7955	14890.6625
1846.95454	14869.4625
1850.11151	14854.4625
1853.26642	14838.5625
1856.41926	14845.3625
1859.57004	14833.5625
1862.71876	14786.1625
1865.86542	14793.9625
1869.01003	14767.0625
1872.15258	14759.2625
1875.29308	14773.3625
1878.43152	14736.6625
1881.56792	14733.1625
1884.70227	14691.6625
1887.83457	14688.0625
1890.96482	14624.2625
1894.09304	14620.7625
1897.21921	14618.0625
1900.34335	14634.1625
1903.46544	14607.4625
1906.58551	14564.0625
1909.70353	14525.8625
1912.81953	14512.4625
1915.93349	14527.2625
1919.04543	14492.0625
1922.15534	14439.0625
1925.26322	14408.9625
1928.36908	14408.0625
1931.47292	14409.7625
1934.57473	14368.8625
1937.67453	14317.9625
1940.77232	14306.9625
1943.86808	14248.3625
1946.96184	14218.8625
1950.05358	14179.1625
1953.14331	14120.6625
1956.23103	14083.3625
1959.31675	14035.7625
1962.40046	14002.6625
1965.48217	13977.0625
1968.56188	13927.9625
1971.63959	13878.9625
1974.7153	13848.1625
1977.78901	13812.3625
1980.86073	13812.3625
1983.93046	13763.0625
1986.99819	13680.1625
1990.06394	13646.0625
1993.1277	13660.4625
1996.18947	13599.7625
1999.24925	13573.2625
2002.30706	13532.9625
2005.36288	13477.3625
2008.41672	13427.1625
2011.46859	13410.7625
2014.51848	13379.4625
2017.56639	13363.5625
2020.61233	13321.5625
2023.6563	13299.6625
2026.6983	13253.8625
2029.73833	13202.4625
2032.7764	13200.7625
2035.8125	13179.0625
2038.84664	13145.7625
2041.87881	13123.9625
2044.90903	13097.9625
2047.93729	13039.1625
2050.96359	13072.1625
2053.98794	13033.5625
2057.01034	13021.9625
2060.03078	13002.0625
2063.04927	13014.6625
2066.06582	12996.2625
2069.08042	13012.5625
2072.09307	12992.0625
2075.10378	12998.4625
2078.11255	12963.8625
2081.11938	12971.6625
2084.12426	12949.9625
2087.12722	12946.7625
2090.12824	12944.6625
2093.12732	12950.0625
2096.12447	12972.4625
2099.11969	12940.2625
2102.11299	12932.7625
2105.10435	12908.3625
2108.09379	12942.8625
2111.08131	12966.0625
2114.0669	12963.6625
2117.05057	12975.5625
2120.03233	12994.6625
2123.01216	13020.1625
2125.99008	13004.0625
2128.96609	13010.7625
2131.94018	13012.4625
2134.91236	13040.5625
2137.88263	13017.0625
2140.851	13048.9625
2143.81746	13070.3625
2146.78201	13052.6625
2149.74466	13025.3625
2152.7054	13038.2625
2155.66425	13053.2625
2158.6212	13037.6625
2161.57625	13048.4625
2164.52941	13041.6625
2167.48067	13036.9625
2170.43004	13049.0625
2173.37752	13013.2625
2176.32311	13029.8625
2179.26681	13036.2625
2182.20863	13045.6625
2185.14856	13047.3625
2188.08661	13028.2625
2191.02278	13030.7625
2193.95707	13013.5625
2196.88948	13057.6625
2199.82001	13040.7625
2202.74867	13014.5625
2205.67545	12987.3625
2208.60037	12964.9625
2211.52341	12964.3625
2214.44458	12946.7625
2217.36388	12935.2625
2220.28132	12896.3625
2223.1969	12889.9625
2226.11061	12855.9625
2229.02246	12836.8625
2231.93245	12819.1625
2234.84058	12785.7625
2237.74686	12791.8625
2240.65128	12782.5625
2243.55385	12701.7625
2246.45456	12691.1625
2249.35343	12700.9625
2252.25044	12686.8625
2255.14561	12678.4625
2258.03893	12653.8625
2260.93041	12648.6625
2263.82004	12585.3625
2266.70783	12569.5625
2269.59378	12509.5625
2272.4779	12491.5625
2275.36017	12464.1625
2278.24061	12465.2625
2281.11922	12429.8625
2283.996	12415.1625
2286.87094	12394.0625
2289.74405	12380.3625
2292.61534	12386.1625
2295.4848	12376.7625
2298.35243	12404.3625
2301.21824	12398.5625
2304.08223	12382.8625
2306.94439	12410.6625
2309.80474	12409.3625
2312.66327	12377.9625
2315.51999	12362.0625
2318.37489	12363.6625
2321.22797	12344.2625
2324.07925	12329.8625
2326.92871	12341.9625
2329.77637	12280.6625
2332.62222	12281.9625
2335.46626	12239.7625
2338.3085	12265.5625
2341.14893	12239.7625
2343.98756	12255.2625
2346.8244	12222.6625
2349.65943	12225.6625
2352.49267	12232.9625
2355.32411	12242.3625
2358.15376	12194.5625
2360.98161	12238.4625
2363.80768	12221.3625
2366.63195	12208.2625
2369.45444	12170.7625
2372.27514	12166.4625
2375.09405	12146.1625
2377.91118	12136.0625
2380.72652	12132.4625
2383.54009	12066.7625
2386.35187	12047.4625
2389.16188	12020.2625
2391.97011	12009.0625
2394.77657	11976.8625
2397.58125	11949.1625
2400.38416	11962.0625
2403.18529	11944.5625
2405.98466	11920.3625
2408.78226	11877.5625
2411.57809	11872.4625
2414.37216	11863.3625
2417.16446	11855.4625
2419.955	11830.3625
2422.74378	11816.7625
2425.5308	11800.5625
2428.31606	11819.7625
2431.09956	11817.7625
2433.88131	11806.5625
2436.6613	11801.2625
2439.43954	11772.9625
2442.21603	11784.2625
2444.99077	11765.3625
2447.76377	11755.6625
2450.53501	11756.4625
2453.30451	11746.3625
2456.07226	11717.1625
2458.83827	11718.1625
2461.60254	11726.6625
2464.36507	11692.2625
2467.12586	11708.3625
2469.88492	11716.7625
2472.64224	11714.3625
2475.39782	11690.5625
2478.15167	11721.6625
2480.90379	11717.7625
2483.65417	11704.6625
2486.40283	11722.9625
2489.14976	11709.2625
2491.89497	11710.3625
2494.63845	11697.7625
2497.3802	11688.9625
2500.12024	11692.6625
2502.85855	11676.5625
2505.59514	11649.0625
2508.33002	11692.9625
2511.06318	11656.1625
2513.79462	11603.0625
2516.52435	11623.4625
2519.25237	11610.5625
2521.97867	11600.1625
2524.70327	11590.1625
2527.42616	11584.0625
2530.14734	11612.4625
2532.86681	11564.3625
2535.58458	11571.9625
2538.30065	11558.7625
2541.01501	11575.5625
2543.72768	11555.7625
2546.43864	11532.0625
2549.14791	11513.3625
2551.85548	11510.8625
2554.56136	11516.4625
2557.26554	11490.2625
2559.96803	11458.7625
2562.66883	11444.0625
2565.36794	11394.8625
2568.06536	11403.2625
2570.7611	11370.0625
2573.45514	11392.3625
2576.14751	11389.6625
2578.83819	11353.1625
2581.52719	11364.4625
2584.21451	11329.5625
2586.90015	11314.6625
2589.58411	11326.9625
2592.2664	11332.1625
2594.94701	11312.0625
2597.62594	11287.7625
2600.30321	11294.4625
2602.9788	11278.7625
2605.65273	11242.3625
2608.32498	11248.5625
2610.99557	11233.7625
2613.66449	11245.0625
2616.33175	11209.7625
2618.99734	11205.3625
2621.66128	11188.3625
2624.32355	11174.7625
2626.98416	11173.0625
2629.64311	11172.5625
2632.30041	11161.7625
2634.95605	11145.1625
2637.61004	11098.2625
2640.26238	11132.2625
2642.91306	11103.3625
2645.56209	11115.8625
2648.20948	11104.9625
2650.85521	11087.0625
2653.4993	11097.4625
2656.14175	11105.4625
2658.78255	11094.0625
2661.42171	11121.6625
2664.05923	11143.5625
2666.6951	11146.0625
2669.32934	11165.3625
2671.96194	11130.4625
2674.59291	11133.2625
2677.22224	11139.7625
2679.84993	11143.7625
2682.476	11124.9625
2685.10043	11101.0625
2687.72324	11086.2625
2690.34441	11103.3625
2692.96396	11105.0625
2695.58188	11098.9625
2698.19818	11068.3625
2700.81285	11103.0625
2703.4259	11111.1625
2706.03733	11118.7625
2708.64714	11102.1625
2711.25533	11111.0625
2713.86191	11109.8625
2716.46687	11123.1625
2719.07021	11145.9625
2721.67194	11144.2625
2724.27206	11113.3625
2726.87057	11141.6625
2729.46747	11133.0625
2732.06276	11160.7625
2734.65644	11151.7625
2737.24852	11143.8625
2739.83899	11121.3625
2742.42786	11120.2625
2745.01513	11083.4625
2747.60079	11103.0625
2750.18486	11064.9625
2752.76733	11076.0625
2755.3482	11046.4625
2757.92747	11048.0625
2760.50515	11055.2625
2763.08123	11050.7625
2765.65573	11013.5625
2768.22863	11012.5625
2770.79994	11020.0625
2773.36967	11008.2625
2775.9378	11009.7625
2778.50435	11016.2625
2781.06932	11013.2625
2783.6327	11006.0625
2786.1945	11014.5625
2788.75471	10992.3625
2791.31335	10962.7625
2793.87041	10957.2625
2796.42589	10946.0625
2798.97979	10945.8625
2801.53212	10922.6625
2804.08288	10899.5625
2806.63206	10879.4625
2809.17967	10832.1625
2811.72571	10820.5625
2814.27018	10802.8625
2816.81308	10745.1625
2819.35442	10745.4625
2821.89419	10716.2625
2824.43239	10731.5625
2826.96904	10708.6625
2829.50412	10724.3625
2832.03763	10696.7625
2834.56959	10705.0625
2837.1	10688.4625
2839.62884	10699.5625
2842.15613	10704.4625
2844.68186	10741.7625
2847.20604	10724.8625
2849.72867	10760.4625
2852.24974	10752.3625
2854.76927	10731.2625
2857.28724	10703.2625
2859.80367	10692.2625
2862.31855	10660.2625
2864.83189	10685.9625
2867.34368	10664.3625
2869.85393	10655.1625
2872.36264	10653.5625
2874.8698	10651.8625
2877.37543	10625.7625
2879.87952	10641.1625
2882.38207	10619.2625
2884.88308	10619.8625
2887.38256	10650.7625
2889.88051	10635.5625
2892.37692	10645.0625
2894.8718	10645.0625
2897.36515	10644.0625
2899.85698	10677.7625
2902.34727	10693.9625
2904.83604	10691.2625
2907.32328	10685.2625
2909.809	10702.5625
2912.29319	10697.9625
2914.77587	10693.2625
2917.25702	10696.2625
2919.73665	10679.0625
2922.21476	10670.3625
2924.69136	10651.9625
2927.16644	10684.7625
2929.64	10676.1625
2932.11205	10689.1625
2934.58258	10621.0625
2937.05161	10641.3625
2939.51912	10640.6625
2941.98513	10634.3625
2944.44962	10609.6625
2946.91261	10578.9625
2949.37409	10573.0625
2951.83407	10577.1625
2954.29254	10546.6625
2956.74951	10565.0625
2959.20498	10555.5625
2961.65895	10536.6625
2964.11142	10551.3625
2966.56239	10538.8625
2969.01186	10516.4625
2971.45984	10507.2625
2973.90632	10508.2625
2976.35131	10487.1625
2978.7948	10463.4625
2981.23681	10429.7625
2983.67732	10442.3625
2986.11635	10401.5625
2988.55388	10370.3625
2990.98993	10353.6625
2993.4245	10342.1625
2995.85758	10309.2625
2998.28917	10286.2625
3000.71928	10257.8625
3003.14791	10260.6625
3005.57506	10251.8625
3008.00073	10270.7625
3010.42493	10238.6625
3012.84764	10199.9625
3015.26888	10209.6625
3017.68865	10175.9625
3020.10694	10187.1625
3022.52376	10144.3625
3024.9391	10139.9625
