Data from AgNP_FTO_APTES_UA_10uM_CRN_10uM_R6G_10uM_NaF_0.1M_Addition_RamanShift__11__15-37-10-698.txt Node

Date: Thu Feb 10 15:37:10 GMT 2022
User: TCL
Spectrometer: QEP01345
Trigger mode: 4
Integration Time (sec): 7.000000E0
Scans to average: 10
Electric dark correction enabled: true
Nonlinearity correction enabled: false
Boxcar width: 0
XAxis mode: Raman Shifts
Number of Pixels in Spectrum: 1044
>>>>>Begin Spectral Data<<<<<
46.04893	1.225
50.45542	0.225
54.85868	-2.175
59.25871	-1.675
63.6555	74.825
68.04907	75.625
72.43941	78.025
76.82654	77.425
81.21044	85.625
85.59113	86.725
89.96862	91.825
94.34289	93.925
98.71396	98.325
103.08183	98.925
107.4465	105.025
111.80798	102.725
116.16626	110.825
120.52136	112.925
124.87327	121.125
129.222	121.125
133.56755	135.925
137.90993	142.525
142.24913	154.425
146.58517	174.325
150.91804	207.425
155.24774	246.125
159.57429	307.025
163.89768	391.225
168.21792	524.925
172.53501	726.325
176.84895	996.325
181.15975	1406.225
185.46741	1959.525
189.77193	2719.025
194.07331	3644.525
198.37157	4692.025
202.6667	5774.525
206.9587	6906.725
211.24758	7942.525
215.53334	9006.125
219.81599	10121.725
224.09553	11310.625
228.37195	12657.625
232.64527	14124.525
236.91549	15693.125
241.18261	17272.825
245.44663	18796.825
249.70755	20144.525
253.96539	21379.825
258.22014	22387.025
262.4718	23185.925
266.72039	23761.325
270.96589	24050.025
275.20832	24098.825
279.44768	24063.625
283.68397	23905.925
287.91719	23746.225
292.14735	23633.725
296.37445	23621.725
300.59849	23615.025
304.81948	23691.725
309.03742	23651.025
313.25231	23526.625
317.46415	23142.525
321.67296	22689.925
325.87872	22325.525
330.08145	22154.525
334.28114	22163.325
338.47781	22269.925
342.67145	22505.325
346.86207	22781.425
351.04966	23114.125
355.23424	23366.425
359.4158	23679.225
363.59435	23884.425
367.76989	24008.225
371.94243	24162.825
376.11196	24202.325
380.27849	24263.725
384.44203	24318.225
388.60257	24522.525
392.76012	24802.525
396.91468	25192.225
401.06626	25584.925
405.21485	25848.525
409.36047	25836.825
413.50311	25609.325
417.64277	25497.125
421.77947	25614.425
425.9132	25810.225
430.04396	26030.125
434.17176	26084.825
438.2966	26180.025
442.41849	26384.725
446.53742	26878.325
450.6534	27421.425
454.76644	27845.625
458.87653	28028.125
462.98368	28034.225
467.08789	27911.825
471.18916	27613.225
475.2875	27353.025
479.38291	27168.825
483.4754	27060.825
487.56496	26847.725
491.6516	26521.125
495.73531	26190.725
499.81612	25954.625
503.89401	25978.025
507.96899	26145.525
512.04106	26191.825
516.11023	26099.425
520.1765	25889.525
524.23987	25593.525
528.30034	25295.525
532.35792	25075.125
536.41261	24854.225
540.46441	24687.525
544.51333	24712.225
548.55936	24949.125
552.60252	25392.925
556.64279	25883.525
560.6802	26257.125
564.71473	26590.625
568.7464	27147.525
572.7752	28113.725
576.80114	29247.025
580.82422	30423.025
584.84444	31266.225
588.86181	32174.525
592.87633	32998.725
596.888	32731.725
600.89682	31380.325
604.9028	30708.525
608.90594	31431.125
612.90624	32174.825
616.90371	30192.325
620.89834	26946.125
624.89015	25692.625
628.87913	25713.025
632.86528	25958.625
636.84862	25977.925
640.82913	25520.525
644.80683	24981.125
648.78172	24599.125
652.75379	24484.825
656.72306	24658.325
660.68952	24965.525
664.65319	24873.525
668.61405	24651.325
672.57211	24655.625
676.52738	24714.725
680.47986	24670.125
684.42955	24542.325
688.37646	24500.925
692.32058	24626.825
696.26192	24888.125
700.20048	25172.525
704.13626	25380.725
708.06928	25492.325
711.99952	25447.425
715.927	25378.825
719.85171	25282.625
723.77365	25106.925
727.69284	24765.225
731.60928	24430.525
735.52295	24236.525
739.43388	24176.125
743.34206	24286.525
747.24749	24410.125
751.15017	24661.825
755.05012	25084.625
758.94733	25756.525
762.8418	26753.525
766.73354	28164.625
770.62254	29332.225
774.50882	29317.025
778.39237	28164.625
782.27321	26723.125
786.15132	25598.625
790.02671	24926.725
793.89938	24487.125
797.76935	24287.725
801.6366	24131.725
805.50115	24079.125
809.36299	23967.125
813.22213	23816.725
817.07857	23844.025
820.93231	23779.025
824.78336	23692.325
828.63172	23516.425
832.47738	23502.225
836.32036	23464.225
840.16066	23455.725
843.99827	23464.725
847.8332	23442.125
851.66546	23510.625
855.49504	23594.725
859.32195	23616.025
863.1462	23545.425
866.96777	23505.025
870.78668	23432.225
874.60293	23454.125
878.41652	23465.325
882.22745	23506.125
886.03573	23575.325
889.84136	23554.325
893.64433	23489.525
897.44466	23411.225
901.24235	23351.825
905.0374	23350.025
908.8298	23392.525
912.61957	23459.125
916.40671	23674.325
920.19121	24001.525
923.97308	24251.425
927.75233	24138.725
931.52895	23817.825
935.30295	23469.025
939.07433	23065.025
942.84309	22786.025
946.60924	22643.025
950.37278	22611.025
954.13371	22642.925
957.89203	22629.525
961.64774	22578.725
965.40086	22613.925
969.15137	22557.425
972.89929	22475.725
976.64461	22359.825
980.38733	22308.725
984.12747	22333.825
987.86502	22392.325
991.59999	22464.025
995.33237	22594.625
999.06217	22867.925
1002.78939	23249.825
1006.51404	23602.525
1010.23611	23975.025
1013.95561	24261.925
1017.67255	24260.925
1021.38692	24063.025
1025.09872	23740.725
1028.80796	23498.125
1032.51465	23331.525
1036.21877	23374.925
1039.92035	23477.825
1043.61937	23591.025
1047.31584	23632.925
1051.00976	23700.825
1054.70114	23874.125
1058.38998	24063.525
1062.07627	24390.125
1065.76003	24676.325
1069.44126	25003.825
1073.11995	25410.825
1076.79611	25691.525
1080.46974	25796.225
1084.14085	25904.025
1087.80943	26195.225
1091.47549	26444.825
1095.13903	26521.225
1098.80005	26252.625
1102.45857	25679.725
1106.11456	25147.825
1109.76805	24855.925
1113.41903	24764.725
1117.06751	24812.525
1120.71348	24934.525
1124.35696	25164.125
1127.99793	25403.625
1131.63641	25585.925
1135.2724	25664.125
1138.90589	25654.425
1142.5369	25753.125
1146.16542	25960.925
1149.79145	26176.625
1153.415	26506.525
1157.03607	26871.725
1160.65467	27538.825
1164.27079	28596.825
1167.88443	29796.125
1171.49561	31095.625
1175.10432	32512.525
1178.71056	34262.825
1182.31434	35896.325
1185.91565	36983.525
1189.51451	37312.725
1193.11091	37070.025
1196.70485	36301.825
1200.29634	35202.825
1203.88538	34426.125
1207.47197	34098.825
1211.05612	34059.625
1214.63782	33630.225
1218.21708	32636.725
1221.79391	31562.825
1225.36829	30676.725
1228.94024	30201.725
1232.50976	29870.825
1236.07685	29656.525
1239.6415	29547.925
1243.20374	29527.525
1246.76355	29716.125
1250.32093	30070.425
1253.8759	30632.625
1257.42845	31346.425
1260.97859	32198.225
1264.52631	33003.825
1268.07163	33912.325
1271.61453	34755.325
1275.15503	35571.725
1278.69312	36408.725
1282.22882	37373.125
1285.76211	38463.225
1289.29301	39777.525
1292.82151	41359.625
1296.34761	43184.925
1299.87133	45211.325
1303.39266	47212.225
1306.9116	48803.625
1310.42815	49807.425
1313.94233	50173.925
1317.45412	49935.825
1320.96354	49590.725
1324.47058	49567.925
1327.97525	49801.025
1331.47754	49997.725
1334.97747	50376.225
1338.47502	50591.625
1341.97022	50776.525
1345.46305	50649.425
1348.95352	50069.325
1352.44163	49312.725
1355.92738	48567.425
1359.41078	48520.825
1362.89183	48537.125
1366.37053	47458.425
1369.84688	44841.125
1373.32088	41518.525
1376.79254	39083.525
1380.26186	38193.425
1383.72883	38262.525
1387.19347	38518.325
1390.65578	38371.825
1394.11575	38339.825
1397.57339	38534.125
1401.0287	38947.625
1404.48168	39193.825
1407.93234	38993.025
1411.38068	38130.825
1414.82669	36901.525
1418.27039	35382.025
1421.71177	34048.125
1425.15083	33066.425
1428.58758	32680.925
1432.02203	33009.925
1435.45416	33815.525
1438.88399	34808.425
1442.31151	35525.325
1445.73673	35935.825
1449.15965	36275.325
1452.58027	36503.325
1455.9986	36690.225
1459.41463	37111.825
1462.82837	37602.825
1466.23982	38168.825
1469.64898	38654.425
1473.05586	38787.925
1476.46045	38630.225
1479.86276	38345.725
1483.26279	38063.825
1486.66054	37882.425
1490.05602	37949.825
1493.44922	38287.825
1496.84016	38765.425
1500.22882	39426.225
1503.61521	40227.925
1506.99934	41162.225
1510.38121	41702.325
1513.76081	41725.125
1517.13816	41402.225
1520.51324	40990.225
1523.88607	40895.725
1527.25665	41001.925
1530.62498	41135.525
1533.99105	40938.725
1537.35488	40314.625
1540.71647	39311.825
1544.07581	38130.625
1547.4329	37008.625
1550.78776	36061.025
1554.14038	35512.425
1557.49077	35143.125
1560.83892	34896.125
1564.18484	34722.525
1567.52853	34710.825
1570.86999	34980.125
1574.20922	35592.725
1577.54624	36177.225
1580.88103	36543.825
1584.2136	37001.525
1587.54395	37957.625
1590.87208	39475.425
1594.19801	41198.425
1597.52172	42663.125
1600.84321	42694.025
1604.16251	40905.925
1607.47959	38242.725
1610.79447	35571.725
1614.10715	32975.625
1617.41763	30798.225
1620.7259	29272.925
1624.03199	28386.125
1627.33587	28282.825
1630.63757	29017.825
1633.93707	30725.425
1637.23439	33680.425
1640.52951	37852.125
1643.82246	42635.825
1647.11321	46146.625
1650.40179	46569.625
1653.68819	43295.725
1656.97241	38065.225
1660.25446	32885.725
1663.53433	29032.125
1666.81203	26390.725
1670.08756	24695.425
1673.36092	23686.825
1676.63211	22954.825
1679.90115	22478.725
1683.16801	22086.525
1686.43272	21856.925
1689.69527	21637.525
1692.95567	21470.225
1696.2139	21380.225
1699.46999	21346.725
1702.72392	21210.725
1705.97571	21119.125
1709.22535	20994.625
1712.47284	20933.525
1715.71819	20935.025
1718.96139	20844.525
1722.20246	20791.025
1725.44139	20664.425
1728.67818	20575.925
1731.91284	20427.625
1735.14537	20334.325
1738.37576	20240.125
1741.60403	20131.525
1744.83017	20035.625
1748.05418	20031.025
1751.27607	19964.725
1754.49584	19948.125
1757.71349	19940.725
1760.92903	19934.225
1764.14244	19861.325
1767.35375	19825.525
1770.56294	19828.325
1773.77002	19813.325
1776.97499	19710.125
1780.17785	19684.925
1783.37861	19629.225
1786.57727	19578.725
1789.77382	19515.025
1792.96828	19510.825
1796.16064	19479.325
1799.3509	19425.625
1802.53907	19369.525
1805.72514	19324.225
1808.90913	19283.325
1812.09102	19256.025
1815.27083	19192.325
1818.44856	19170.725
1821.6242	19110.125
1824.79776	19094.125
1827.96924	19083.125
1831.13864	19072.225
1834.30597	19090.825
1837.47122	19112.125
1840.6344	19076.525
1843.7955	19085.325
1846.95454	19080.925
1850.11151	19060.325
1853.26642	19049.325
1856.41926	19022.225
1859.57004	18999.225
1862.71876	18937.725
1865.86542	18922.525
1869.01003	18908.925
1872.15258	18867.025
1875.29308	18831.125
1878.43152	18824.525
1881.56792	18769.925
1884.70227	18756.325
1887.83457	18697.525
1890.96482	18672.425
1894.09304	18650.925
1897.21921	18625.325
1900.34335	18596.725
1903.46544	18566.925
1906.58551	18544.325
1909.70353	18524.025
1912.81953	18480.725
1915.93349	18462.925
1919.04543	18420.725
1922.15534	18368.625
1925.26322	18343.225
1928.36908	18282.625
1931.47292	18259.925
1934.57473	18209.825
1937.67453	18205.725
1940.77232	18146.725
1943.86808	18055.425
1946.96184	18053.225
1950.05358	17943.025
1953.14331	17893.325
1956.23103	17842.925
1959.31675	17823.425
1962.40046	17740.725
1965.48217	17715.225
1968.56188	17625.325
1971.63959	17578.325
1974.7153	17499.725
1977.78901	17473.325
1980.86073	17392.925
1983.93046	17351.725
1986.99819	17324.825
1990.06394	17232.425
1993.1277	17217.025
1996.18947	17146.525
1999.24925	17099.725
2002.30706	17015.125
2005.36288	16982.825
2008.41672	16913.925
2011.46859	16880.625
2014.51848	16846.125
2017.56639	16804.625
2020.61233	16743.125
2023.6563	16703.025
2026.6983	16669.625
2029.73833	16643.525
2032.7764	16594.625
2035.8125	16532.625
2038.84664	16507.425
2041.87881	16460.625
2044.90903	16388.025
2047.93729	16370.525
2050.96359	16374.125
2053.98794	16325.425
2057.01034	16315.625
2060.03078	16283.725
2063.04927	16297.425
2066.06582	16288.925
2069.08042	16284.025
2072.09307	16257.325
2075.10378	16269.625
2078.11255	16231.825
2081.11938	16212.825
2084.12426	16191.925
2087.12722	16215.825
2090.12824	16198.125
2093.12732	16186.225
2096.12447	16198.825
2099.11969	16161.125
2102.11299	16152.425
2105.10435	16165.425
2108.09379	16179.325
2111.08131	16194.025
2114.0669	16165.825
2117.05057	16154.025
2120.03233	16204.825
2123.01216	16202.725
2125.99008	16218.625
2128.96609	16239.125
2131.94018	16246.925
2134.91236	16252.325
2137.88263	16246.925
2140.851	16258.625
2143.81746	16233.125
2146.78201	16233.425
2149.74466	16225.925
2152.7054	16234.225
2155.66425	16221.125
2158.6212	16216.525
2161.57625	16202.325
2164.52941	16185.825
2167.48067	16215.125
2170.43004	16168.625
2173.37752	16143.825
2176.32311	16184.225
2179.26681	16168.925
2182.20863	16179.725
2185.14856	16179.025
2188.08661	16160.525
2191.02278	16150.525
2193.95707	16161.025
2196.88948	16108.825
2199.82001	16072.325
2202.74867	16079.425
2205.67545	16034.525
2208.60037	15989.725
2211.52341	16008.625
2214.44458	15969.925
2217.36388	15929.525
2220.28132	15930.425
2223.1969	15874.325
2226.11061	15869.825
2229.02246	15830.625
2231.93245	15791.725
2234.84058	15753.725
2237.74686	15741.425
2240.65128	15746.425
2243.55385	15688.825
2246.45456	15675.425
2249.35343	15649.725
2252.25044	15604.525
2255.14561	15598.725
2258.03893	15571.425
2260.93041	15525.525
2263.82004	15472.125
2266.70783	15420.625
2269.59378	15399.925
2272.4779	15305.325
2275.36017	15290.925
2278.24061	15284.125
2281.11922	15241.325
2283.996	15222.225
2286.87094	15176.925
2289.74405	15164.525
2292.61534	15142.325
2295.4848	15137.325
2298.35243	15124.725
2301.21824	15101.325
2304.08223	15093.525
2306.94439	15073.425
2309.80474	15092.025
2312.66327	15081.825
2315.51999	15048.325
2318.37489	15031.025
2321.22797	15013.725
2324.07925	14969.525
2326.92871	14930.925
2329.77637	14919.825
2332.62222	14906.325
2335.46626	14869.225
2338.3085	14846.025
2341.14893	14827.325
2343.98756	14842.825
2346.8244	14836.025
2349.65943	14827.325
2352.49267	14834.125
2355.32411	14831.625
2358.15376	14842.325
2360.98161	14830.625
2363.80768	14818.325
2366.63195	14801.025
2369.45444	14772.525
2372.27514	14764.625
2375.09405	14734.025
2377.91118	14709.325
2380.72652	14694.725
2383.54009	14650.325
2386.35187	14628.925
2389.16188	14595.525
2391.97011	14556.925
2394.77657	14536.025
2397.58125	14496.625
2400.38416	14488.425
2403.18529	14464.725
2405.98466	14442.625
2408.78226	14427.325
2411.57809	14404.925
2414.37216	14380.725
2417.16446	14387.525
2419.955	14350.325
2422.74378	14347.625
2425.5308	14359.725
2428.31606	14345.225
2431.09956	14356.925
2433.88131	14328.125
2436.6613	14307.525
2439.43954	14303.325
2442.21603	14278.525
2444.99077	14280.125
2447.76377	14252.725
2450.53501	14227.925
2453.30451	14246.325
2456.07226	14216.425
2458.83827	14242.825
2461.60254	14212.025
2464.36507	14193.525
2467.12586	14158.225
2469.88492	14148.425
2472.64224	14169.925
2475.39782	14178.325
2478.15167	14148.025
2480.90379	14166.625
2483.65417	14156.725
2486.40283	14156.825
2489.14976	14159.525
2491.89497	14136.825
2494.63845	14161.425
2497.3802	14128.825
2500.12024	14147.825
2502.85855	14137.125
2505.59514	14123.625
2508.33002	14102.125
2511.06318	14086.825
2513.79462	14069.825
2516.52435	14071.725
2519.25237	14070.325
2521.97867	14016.125
2524.70327	14020.825
2527.42616	13991.625
2530.14734	13993.425
2532.86681	13989.325
2535.58458	13982.525
2538.30065	13962.425
2541.01501	13965.325
2543.72768	13980.125
2546.43864	13976.225
2549.14791	13929.025
2551.85548	13898.125
2554.56136	13907.425
2557.26554	13857.525
2559.96803	13871.325
2562.66883	13802.225
2565.36794	13803.725
2568.06536	13765.625
2570.7611	13760.925
2573.45514	13800.725
2576.14751	13743.925
2578.83819	13719.025
2581.52719	13688.825
2584.21451	13686.725
2586.90015	13650.225
2589.58411	13670.625
2592.2664	13655.625
2594.94701	13637.825
2597.62594	13591.625
2600.30321	13582.325
2602.9788	13582.025
2605.65273	13571.525
2608.32498	13596.325
2610.99557	13567.325
2613.66449	13588.025
2616.33175	13542.425
2618.99734	13542.325
2621.66128	13521.925
2624.32355	13525.225
2626.98416	13501.825
2629.64311	13475.925
2632.30041	13475.025
2634.95605	13472.925
2637.61004	13435.525
2640.26238	13428.125
2642.91306	13427.825
2645.56209	13406.425
2648.20948	13405.325
2650.85521	13444.425
2653.4993	13442.625
2656.14175	13434.925
2658.78255	13449.825
2661.42171	13429.325
2664.05923	13477.925
2666.6951	13461.625
2669.32934	13477.525
2671.96194	13454.325
2674.59291	13468.325
2677.22224	13475.525
2679.84993	13496.425
2682.476	13469.425
2685.10043	13471.425
2687.72324	13426.425
2690.34441	13465.825
2692.96396	13433.725
2695.58188	13427.125
2698.19818	13437.525
2700.81285	13444.825
2703.4259	13441.225
2706.03733	13492.525
2708.64714	13468.825
2711.25533	13465.925
2713.86191	13468.125
2716.46687	13449.025
2719.07021	13449.725
2721.67194	13478.325
2724.27206	13474.825
2726.87057	13475.025
2729.46747	13499.625
2732.06276	13494.625
2734.65644	13503.925
2737.24852	13499.225
2739.83899	13484.625
2742.42786	13500.325
2745.01513	13478.125
2747.60079	13446.325
2750.18486	13430.025
2752.76733	13427.225
2755.3482	13404.725
2757.92747	13401.725
2760.50515	13397.225
2763.08123	13383.425
2765.65573	13328.525
2768.22863	13364.725
2770.79994	13362.425
2773.36967	13332.325
2775.9378	13327.625
2778.50435	13337.425
2781.06932	13328.225
2783.6327	13316.725
2786.1945	13320.925
2788.75471	13287.625
2791.31335	13249.125
2793.87041	13271.425
2796.42589	13218.725
2798.97979	13228.125
2801.53212	13204.525
2804.08288	13182.025
2806.63206	13152.425
2809.17967	13121.125
2811.72571	13062.625
2814.27018	13062.525
2816.81308	13019.125
2819.35442	12999.425
2821.89419	12952.625
2824.43239	12935.325
2826.96904	12929.325
2829.50412	12899.325
2832.03763	12899.525
2834.56959	12885.225
2837.1	12868.125
2839.62884	12874.525
2842.15613	12857.125
2844.68186	12876.225
2847.20604	12863.225
2849.72867	12860.325
2852.24974	12823.225
2854.76927	12821.925
2857.28724	12793.925
2859.80367	12780.725
2862.31855	12765.925
2864.83189	12713.125
2867.34368	12709.325
2869.85393	12730.825
2872.36264	12692.025
2874.8698	12689.425
2877.37543	12658.825
2879.87952	12652.825
2882.38207	12645.825
2884.88308	12648.625
2887.38256	12667.225
2889.88051	12639.325
2892.37692	12628.125
2894.8718	12647.125
2897.36515	12674.125
2899.85698	12644.525
2902.34727	12676.325
2904.83604	12647.525
2907.32328	12677.425
2909.809	12713.725
2912.29319	12680.625
2914.77587	12685.425
2917.25702	12667.725
2919.73665	12637.625
2922.21476	12659.825
2924.69136	12654.925
2927.16644	12655.825
2929.64	12626.625
2932.11205	12603.025
2934.58258	12578.125
2937.05161	12563.125
2939.51912	12555.625
2941.98513	12553.525
2944.44962	12509.325
2946.91261	12498.425
2949.37409	12533.525
2951.83407	12509.025
2954.29254	12506.225
2956.74951	12486.925
2959.20498	12486.325
2961.65895	12465.725
2964.11142	12467.525
2966.56239	12426.925
2969.01186	12427.625
2971.45984	12404.525
2973.90632	12402.025
2976.35131	12363.225
2978.7948	12333.725
2981.23681	12342.025
2983.67732	12301.825
2986.11635	12252.825
2988.55388	12219.325
2990.98993	12200.625
2993.4245	12167.825
2995.85758	12135.825
2998.28917	12088.525
3000.71928	12077.025
3003.14791	12047.725
3005.57506	12027.625
3008.00073	11970.425
3010.42493	11816.325
3012.84764	11941.425
3015.26888	11891.025
3017.68865	11850.825
3020.10694	11833.825
3022.52376	11821.725
3024.9391	11807.525
3027.35298	11800.225
3029.76539	11788.525
3032.17632	11790.725
3034.5858	11780.525
3036.9938	11770.825
3039.40034	11763.825
3041.80542	11770.425
3044.20903	11730.625
3046.61118	11736.325
3049.01187	11683.325
3051.4111	11675.825
3053.80888	11625.225
3056.20519	11606.425
3058.60005	11571.525
3060.99345	11545.025
3063.3854	11518.625
3065.7759	11492.725
3068.16494	11447.625
3070.55254	11423.125
3072.93868	11372.825
3075.32338	11339.025
3077.70662	11313.025
3080.08842	11299.525
3082.46878	11266.025
3084.84769	11251.125
3087.22515	11280.425
3089.60118	11250.125
3091.97576	11250.725
3094.3489	11237.325
3096.72061	11205.925
3099.09087	11214.525
3101.4597	11187.125
3103.82709	11172.425
3106.19305	11160.425
3108.55757	11149.825
3110.92066	11110.525
3113.28232	11122.925
3115.64255	11068.325
3118.00134	11023.825
3120.35871	11017.125
3122.71466	11013.025
3125.06917	10954.425
3127.42226	10960.525
