Data from AgNP_FTO_APTES_UA_10uM_CRN_0uM_R6G_10uM_NaF_0.1M_Addition_RamanShift__34__12-48-00-484.txt Node

Date: Thu Feb 10 12:48:00 GMT 2022
User: TCL
Spectrometer: QEP01345
Trigger mode: 4
Integration Time (sec): 7.000000E0
Scans to average: 10
Electric dark correction enabled: true
Nonlinearity correction enabled: false
Boxcar width: 0
XAxis mode: Raman Shifts
Number of Pixels in Spectrum: 1044
>>>>>Begin Spectral Data<<<<<
46.04893	-1.2375
50.45542	-1.3375
54.85868	-2.5375
59.25871	-0.7375
63.6555	68.9625
68.04907	73.8625
72.43941	79.9625
76.82654	77.0625
81.21044	83.0625
85.59113	81.9625
89.96862	87.5625
94.34289	89.8625
98.71396	94.2625
103.08183	96.9625
107.4465	99.6625
111.80798	94.7625
116.16626	99.4625
120.52136	107.1625
124.87327	107.8625
129.222	112.3625
133.56755	119.2625
137.90993	127.0625
142.24913	140.5625
146.58517	152.7625
150.91804	182.4625
155.24774	210.4625
159.57429	265.0625
163.89768	329.3625
168.21792	444.1625
172.53501	590.6625
176.84895	833.8625
181.15975	1160.6625
185.46741	1632.6625
189.77193	2250.3625
194.07331	3026.5625
198.37157	3895.6625
202.6667	4817.5625
206.9587	5744.2625
211.24758	6631.5625
215.53334	7557.5625
219.81599	8525.5625
224.09553	9601.3625
228.37195	10839.1625
232.64527	12127.0625
236.91549	13448.4625
241.18261	14781.2625
245.44663	15999.4625
249.70755	17081.4625
253.96539	18032.3625
258.22014	18831.3625
262.4718	19510.6625
266.72039	20015.7625
270.96589	20248.1625
275.20832	20249.1625
279.44768	20046.5625
283.68397	19754.2625
287.91719	19490.0625
292.14735	19337.1625
296.37445	19317.1625
300.59849	19475.2625
304.81948	19687.8625
309.03742	19822.3625
313.25231	19881.8625
317.46415	19553.9625
321.67296	19189.8625
325.87872	18858.1625
330.08145	18778.8625
334.28114	18886.9625
338.47781	19010.2625
342.67145	19252.5625
346.86207	19627.2625
351.04966	20051.5625
355.23424	20559.6625
359.4158	20960.0625
363.59435	21223.1625
367.76989	21410.9625
371.94243	21614.9625
376.11196	21733.9625
380.27849	21861.6625
384.44203	22020.2625
388.60257	22092.7625
392.76012	22139.0625
396.91468	22367.0625
401.06626	22696.3625
405.21485	22940.8625
409.36047	22905.8625
413.50311	22588.7625
417.64277	22379.7625
421.77947	22336.5625
425.9132	22445.8625
430.04396	22643.5625
434.17176	22859.3625
438.2966	23160.8625
442.41849	23826.1625
446.53742	24865.5625
450.6534	25954.9625
454.76644	26646.9625
458.87653	26665.6625
462.98368	26162.3625
467.08789	25417.8625
471.18916	24694.5625
475.2875	24002.7625
479.38291	23578.2625
483.4754	23231.6625
487.56496	22965.5625
491.6516	22741.3625
495.73531	22645.4625
499.81612	22634.7625
503.89401	22744.0625
507.96899	22747.0625
512.04106	22696.5625
516.11023	22723.5625
520.1765	22719.7625
524.23987	22834.2625
528.30034	22923.1625
532.35792	22817.9625
536.41261	22478.4625
540.46441	22076.0625
544.51333	21862.3625
548.55936	21976.4625
552.60252	22373.2625
556.64279	22883.7625
560.6802	23325.5625
564.71473	23381.9625
568.7464	23562.5625
572.7752	23887.1625
576.80114	24081.7625
580.82422	24409.5625
584.84444	25170.7625
588.86181	26459.2625
592.87633	28134.8625
596.888	29121.5625
600.89682	28381.6625
604.9028	28127.0625
608.90594	30297.4625
612.90624	33015.9625
616.90371	31437.7625
620.89834	26618.1625
624.89015	24473.4625
628.87913	24148.5625
632.86528	23888.8625
636.84862	23433.2625
640.82913	22839.3625
644.80683	22251.5625
648.78172	21869.9625
652.75379	21953.1625
656.72306	22343.3625
660.68952	22926.8625
664.65319	22922.8625
668.61405	22517.8625
672.57211	22398.1625
676.52738	22409.9625
680.47986	22361.3625
684.42955	22193.8625
688.37646	22138.8625
692.32058	22392.9625
696.26192	22716.1625
700.20048	23081.4625
704.13626	23197.1625
708.06928	23013.3625
711.99952	22720.9625
715.927	22734.2625
719.85171	22938.3625
723.77365	22858.3625
727.69284	22531.7625
731.60928	22265.5625
735.52295	22318.0625
739.43388	22366.9625
743.34206	22457.7625
747.24749	22545.2625
751.15017	22729.2625
755.05012	22983.0625
758.94733	23524.7625
762.8418	24429.4625
766.73354	26032.6625
770.62254	27648.2625
774.50882	28295.0625
778.39237	27556.2625
782.27321	25954.8625
786.15132	24416.7625
790.02671	23477.5625
793.89938	23096.8625
797.76935	22978.9625
801.6366	22952.2625
805.50115	22897.2625
809.36299	22757.6625
813.22213	22620.6625
817.07857	22523.6625
820.93231	22471.6625
824.78336	22499.8625
828.63172	22544.5625
832.47738	22654.5625
836.32036	22812.5625
840.16066	23021.0625
843.99827	23135.9625
847.8332	23071.4625
851.66546	22902.9625
855.49504	22835.7625
859.32195	22802.4625
863.1462	22703.1625
866.96777	22587.0625
870.78668	22515.0625
874.60293	22544.4625
878.41652	22556.6625
882.22745	22731.7625
886.03573	22758.1625
889.84136	22760.3625
893.64433	22631.7625
897.44466	22512.7625
901.24235	22412.8625
905.0374	22356.9625
908.8298	22325.1625
912.61957	22380.4625
916.40671	22565.2625
920.19121	22840.1625
923.97308	23251.0625
927.75233	23551.3625
931.52895	23637.4625
935.30295	23468.0625
939.07433	23004.1625
942.84309	22702.3625
946.60924	22632.1625
950.37278	22618.1625
954.13371	22504.1625
957.89203	22318.9625
961.64774	22195.5625
965.40086	22089.7625
969.15137	22133.7625
972.89929	22076.2625
976.64461	22132.7625
980.38733	22305.7625
984.12747	22500.5625
987.86502	22851.9625
991.59999	23319.6625
995.33237	23933.7625
999.06217	24959.7625
1002.78939	26012.0625
1006.51404	26599.2625
1010.23611	26771.2625
1013.95561	26917.0625
1017.67255	26942.9625
1021.38692	26547.2625
1025.09872	26331.6625
1028.80796	26927.5625
1032.51465	28345.2625
1036.21877	29604.5625
1039.92035	29666.3625
1043.61937	28881.2625
1047.31584	27699.9625
1051.00976	26417.6625
1054.70114	25668.3625
1058.38998	25417.9625
1062.07627	25217.2625
1065.76003	25051.4625
1069.44126	25024.1625
1073.11995	25289.9625
1076.79611	25620.3625
1080.46974	25971.4625
1084.14085	26280.5625
1087.80943	26604.0625
1091.47549	26652.5625
1095.13903	26373.5625
1098.80005	25926.1625
1102.45857	25550.4625
1106.11456	25463.4625
1109.76805	25513.4625
1113.41903	25655.8625
1117.06751	25767.5625
1120.71348	25903.4625
1124.35696	26196.8625
1127.99793	26424.5625
1131.63641	26482.1625
1135.2724	26302.9625
1138.90589	26055.1625
1142.5369	25839.7625
1146.16542	25719.7625
1149.79145	25774.9625
1153.415	25850.4625
1157.03607	25931.7625
1160.65467	26350.9625
1164.27079	27168.1625
1167.88443	28370.0625
1171.49561	30027.7625
1175.10432	32389.8625
1178.71056	35472.4625
1182.31434	38437.2625
1185.91565	40028.8625
1189.51451	39570.2625
1193.11091	37758.9625
1196.70485	35644.1625
1200.29634	33981.5625
1203.88538	32893.4625
1207.47197	32048.5625
1211.05612	31316.7625
1214.63782	30888.1625
1218.21708	30956.9625
1221.79391	31317.6625
1225.36829	31618.8625
1228.94024	31272.3625
1232.50976	30252.3625
1236.07685	29262.1625
1239.6415	28748.2625
1243.20374	28722.1625
1246.76355	29018.0625
1250.32093	29598.3625
1253.8759	30376.5625
1257.42845	31315.9625
1260.97859	32223.1625
1264.52631	33239.1625
1268.07163	34285.7625
1271.61453	35421.7625
1275.15503	36627.0625
1278.69312	37706.6625
1282.22882	38595.5625
1285.76211	39320.6625
1289.29301	39981.8625
1292.82151	41077.2625
1296.34761	42593.0625
1299.87133	44987.3625
1303.39266	48189.4625
1306.9116	52102.4625
1310.42815	55876.4625
1313.94233	58005.1625
1317.45412	57420.1625
1320.96354	54722.0625
1324.47058	51503.0625
1327.97525	48635.8625
1331.47754	46640.5625
1334.97747	45537.3625
1338.47502	44994.1625
1341.97022	44296.6625
1345.46305	43494.7625
1348.95352	43481.2625
1352.44163	44757.0625
1355.92738	47683.3625
1359.41078	51730.6625
1362.89183	54812.3625
1366.37053	54118.6625
1369.84688	49205.6625
1373.32088	43166.4625
1376.79254	39147.7625
1380.26186	37529.0625
1383.72883	37125.4625
1387.19347	36686.2625
1390.65578	36000.9625
1394.11575	35649.4625
1397.57339	35873.4625
1401.0287	36341.3625
1404.48168	36840.4625
1407.93234	37034.2625
1411.38068	36919.6625
1414.82669	36426.0625
1418.27039	35616.9625
1421.71177	34652.2625
1425.15083	33684.4625
1428.58758	33275.1625
1432.02203	33669.3625
1435.45416	34460.9625
1438.88399	35181.3625
1442.31151	35666.6625
1445.73673	35893.5625
1449.15965	35987.7625
1452.58027	35829.1625
1455.9986	35398.1625
1459.41463	35338.7625
1462.82837	35888.1625
1466.23982	36811.9625
1469.64898	37792.5625
1473.05586	38465.6625
1476.46045	38851.1625
1479.86276	38958.3625
1483.26279	38878.6625
1486.66054	38760.3625
1490.05602	39032.9625
1493.44922	39222.1625
1496.84016	39147.8625
1500.22882	39255.9625
1503.61521	39817.1625
1506.99934	40854.8625
1510.38121	41953.4625
1513.76081	42342.8625
1517.13816	41463.7625
1520.51324	39577.2625
1523.88607	37847.0625
1527.25665	36818.1625
1530.62498	36520.4625
1533.99105	36398.7625
1537.35488	36207.9625
1540.71647	35949.2625
1544.07581	35551.0625
1547.4329	35189.6625
1550.78776	34713.7625
1554.14038	34193.4625
1557.49077	33761.0625
1560.83892	33474.7625
1564.18484	33377.2625
1567.52853	33438.5625
1570.86999	33639.5625
1574.20922	34004.4625
1577.54624	34201.7625
1580.88103	34135.1625
1584.2136	34312.1625
1587.54395	35412.6625
1590.87208	37744.0625
1594.19801	41071.7625
1597.52172	44438.9625
1600.84321	46029.4625
1604.16251	44482.4625
1607.47959	40549.0625
1610.79447	36179.2625
1614.10715	32407.7625
1617.41763	29910.6625
1620.7259	28607.0625
1624.03199	28153.7625
1627.33587	28421.9625
1630.63757	29342.1625
1633.93707	31000.6625
1637.23439	33493.9625
1640.52951	37039.4625
1643.82246	41340.0625
1647.11321	44706.6625
1650.40179	45001.9625
1653.68819	41444.7625
1656.97241	35997.1625
1660.25446	31140.8625
1663.53433	27987.1625
1666.81203	26098.4625
1670.08756	25020.7625
1673.36092	24371.7625
1676.63211	23906.8625
1679.90115	23593.2625
1683.16801	23347.4625
1686.43272	23184.9625
1689.69527	23083.0625
1692.95567	22975.4625
1696.2139	22925.5625
1699.46999	22951.9625
1702.72392	22864.1625
1705.97571	22846.8625
1709.22535	22851.6625
1712.47284	22846.6625
1715.71819	22829.4625
1718.96139	22783.2625
1722.20246	22714.2625
1725.44139	22668.2625
1728.67818	22598.7625
1731.91284	22458.2625
1735.14537	22426.1625
1738.37576	22345.7625
1741.60403	22289.1625
1744.83017	22225.5625
1748.05418	22225.1625
1751.27607	22185.7625
1754.49584	22134.1625
1757.71349	22111.0625
1760.92903	22093.9625
1764.14244	22141.1625
1767.35375	22181.1625
1770.56294	22130.5625
1773.77002	22076.9625
1776.97499	22089.8625
1780.17785	22052.6625
1783.37861	22041.8625
1786.57727	22017.0625
1789.77382	21969.5625
1792.96828	21961.5625
1796.16064	21924.5625
1799.3509	21978.1625
1802.53907	21907.1625
1805.72514	21852.2625
1808.90913	21777.1625
1812.09102	21752.0625
1815.27083	21761.3625
1818.44856	21736.1625
1821.6242	21649.5625
1824.79776	21646.2625
1827.96924	21638.4625
1831.13864	21619.6625
1834.30597	21611.1625
1837.47122	21614.7625
1840.6344	21626.7625
1843.7955	21604.0625
1846.95454	21608.0625
1850.11151	21599.0625
1853.26642	21636.1625
1856.41926	21643.9625
1859.57004	21679.2625
1862.71876	21665.5625
1865.86542	21621.4625
1869.01003	21617.3625
1872.15258	21614.0625
1875.29308	21612.3625
1878.43152	21605.8625
1881.56792	21603.5625
1884.70227	21619.0625
1887.83457	21623.1625
1890.96482	21589.3625
1894.09304	21519.1625
1897.21921	21593.2625
1900.34335	21587.5625
1903.46544	21569.8625
1906.58551	21545.0625
1909.70353	21548.1625
1912.81953	21585.1625
1915.93349	21529.5625
1919.04543	21546.4625
1922.15534	21454.2625
1925.26322	21443.0625
1928.36908	21414.9625
1931.47292	21377.5625
1934.57473	21362.6625
1937.67453	21307.3625
1940.77232	21308.7625
1943.86808	21202.1625
1946.96184	21154.4625
1950.05358	21095.0625
1953.14331	21068.4625
1956.23103	20969.4625
1959.31675	20966.6625
1962.40046	20943.6625
1965.48217	20873.9625
1968.56188	20827.2625
1971.63959	20740.7625
1974.7153	20681.3625
1977.78901	20647.5625
1980.86073	20579.8625
1983.93046	20537.3625
1986.99819	20493.9625
1990.06394	20454.4625
1993.1277	20391.2625
1996.18947	20326.7625
1999.24925	20291.0625
2002.30706	20227.0625
2005.36288	20206.7625
2008.41672	20167.9625
2011.46859	20111.7625
2014.51848	20109.2625
2017.56639	20071.4625
2020.61233	20028.9625
2023.6563	19985.4625
2026.6983	19977.2625
2029.73833	19938.6625
2032.7764	19909.1625
2035.8125	19898.8625
2038.84664	19846.9625
2041.87881	19839.2625
2044.90903	19853.7625
2047.93729	19801.3625
2050.96359	19817.7625
2053.98794	19783.1625
2057.01034	19788.3625
2060.03078	19750.7625
2063.04927	19766.3625
2066.06582	19729.7625
2069.08042	19764.2625
2072.09307	19765.3625
2075.10378	19769.3625
2078.11255	19736.7625
2081.11938	19716.6625
2084.12426	19669.9625
2087.12722	19675.8625
2090.12824	19694.3625
2093.12732	19709.0625
2096.12447	19691.2625
2099.11969	19713.4625
2102.11299	19719.5625
2105.10435	19717.0625
2108.09379	19739.0625
2111.08131	19762.3625
2114.0669	19775.9625
2117.05057	19813.3625
2120.03233	19844.0625
2123.01216	19891.6625
2125.99008	19903.6625
2128.96609	19906.9625
2131.94018	19933.5625
2134.91236	19967.4625
2137.88263	19989.7625
2140.851	19977.8625
2143.81746	20034.0625
2146.78201	19997.0625
2149.74466	20010.4625
2152.7054	20039.5625
2155.66425	20040.0625
2158.6212	20074.4625
2161.57625	20080.5625
2164.52941	20074.4625
2167.48067	20028.4625
2170.43004	20064.7625
2173.37752	20050.3625
2176.32311	20070.7625
2179.26681	20096.4625
2182.20863	20098.0625
2185.14856	20127.5625
2188.08661	20129.3625
2191.02278	20126.7625
2193.95707	20153.8625
2196.88948	20159.3625
2199.82001	20151.9625
2202.74867	20132.1625
2205.67545	20148.3625
2208.60037	20158.7625
2211.52341	20152.2625
2214.44458	20135.2625
2217.36388	20121.4625
2220.28132	20112.6625
2223.1969	20065.7625
2226.11061	20063.9625
2229.02246	20058.4625
2231.93245	20042.1625
2234.84058	19965.1625
2237.74686	19964.5625
2240.65128	19957.8625
2243.55385	19891.2625
2246.45456	19830.8625
2249.35343	19820.4625
2252.25044	19809.6625
2255.14561	19794.3625
2258.03893	19797.7625
2260.93041	19750.8625
2263.82004	19689.1625
2266.70783	19668.9625
2269.59378	19578.1625
2272.4779	19571.2625
2275.36017	19531.6625
2278.24061	19522.9625
2281.11922	19535.6625
2283.996	19540.8625
2286.87094	19474.6625
2289.74405	19483.1625
2292.61534	19498.8625
2295.4848	19510.3625
2298.35243	19547.1625
2301.21824	19561.6625
2304.08223	19579.2625
2306.94439	19613.9625
2309.80474	19617.6625
2312.66327	19626.8625
2315.51999	19632.7625
2318.37489	19646.2625
2321.22797	19609.8625
2324.07925	19636.3625
2326.92871	19601.0625
2329.77637	19558.1625
2332.62222	19576.4625
2335.46626	19565.8625
2338.3085	19571.9625
2341.14893	19612.9625
2343.98756	19670.8625
2346.8244	19665.2625
2349.65943	19614.4625
2352.49267	19606.4625
2355.32411	19622.6625
2358.15376	19577.8625
2360.98161	19599.7625
2363.80768	19561.8625
2366.63195	19517.3625
2369.45444	19497.4625
2372.27514	19436.7625
2375.09405	19401.2625
2377.91118	19364.8625
2380.72652	19336.7625
2383.54009	19318.4625
2386.35187	19306.3625
2389.16188	19296.5625
2391.97011	19222.3625
2394.77657	19213.5625
2397.58125	19228.9625
2400.38416	19174.4625
2403.18529	19167.6625
2405.98466	19104.8625
2408.78226	19088.6625
2411.57809	19054.3625
2414.37216	19036.8625
2417.16446	19025.8625
2419.955	18942.7625
2422.74378	18943.5625
2425.5308	18959.4625
2428.31606	18965.5625
2431.09956	18983.2625
2433.88131	18961.3625
2436.6613	18962.6625
2439.43954	18977.5625
2442.21603	18942.6625
2444.99077	18922.6625
2447.76377	18934.1625
2450.53501	18919.3625
2453.30451	18939.2625
2456.07226	18903.6625
2458.83827	18899.0625
2461.60254	18929.7625
2464.36507	18891.6625
2467.12586	18910.5625
2469.88492	18947.8625
2472.64224	18929.1625
2475.39782	18936.2625
2478.15167	18988.7625
2480.90379	18994.2625
2483.65417	19013.4625
2486.40283	19018.9625
2489.14976	19032.0625
2491.89497	19016.1625
2494.63845	19046.6625
2497.3802	19024.3625
2500.12024	19073.5625
2502.85855	19064.3625
2505.59514	19062.5625
2508.33002	19024.7625
2511.06318	19011.3625
2513.79462	18966.1625
2516.52435	18952.5625
2519.25237	18970.6625
2521.97867	18922.5625
2524.70327	18987.7625
2527.42616	18920.9625
2530.14734	18943.5625
2532.86681	18949.6625
2535.58458	18953.2625
2538.30065	18941.0625
2541.01501	18959.3625
2543.72768	18911.7625
2546.43864	18896.5625
2549.14791	18936.1625
2551.85548	18907.6625
2554.56136	18891.8625
2557.26554	18874.3625
2559.96803	18858.7625
2562.66883	18852.4625
2565.36794	18833.7625
2568.06536	18822.8625
2570.7611	18819.0625
2573.45514	18826.5625
2576.14751	18788.8625
2578.83819	18780.9625
2581.52719	18771.5625
2584.21451	18790.9625
2586.90015	18806.3625
2589.58411	18766.1625
2592.2664	18785.2625
2594.94701	18759.0625
2597.62594	18790.8625
2600.30321	18761.0625
2602.9788	18725.1625
2605.65273	18716.4625
2608.32498	18729.1625
2610.99557	18727.6625
2613.66449	18730.7625
2616.33175	18726.4625
2618.99734	18702.4625
2621.66128	18713.8625
2624.32355	18727.7625
2626.98416	18718.4625
2629.64311	18699.9625
2632.30041	18720.0625
2634.95605	18689.3625
2637.61004	18634.3625
2640.26238	18621.3625
2642.91306	18634.2625
2645.56209	18599.4625
2648.20948	18572.6625
2650.85521	18557.2625
2653.4993	18548.5625
2656.14175	18588.6625
2658.78255	18624.5625
2661.42171	18620.5625
2664.05923	18646.0625
2666.6951	18657.7625
2669.32934	18662.0625
2671.96194	18701.3625
2674.59291	18664.2625
2677.22224	18639.5625
2679.84993	18677.5625
2682.476	18606.7625
2685.10043	18599.1625
2687.72324	18599.8625
2690.34441	18573.0625
2692.96396	18579.5625
2695.58188	18540.8625
2698.19818	18544.1625
2700.81285	18566.4625
2703.4259	18548.2625
2706.03733	18594.2625
2708.64714	18561.9625
2711.25533	18588.1625
2713.86191	18594.1625
2716.46687	18623.7625
2719.07021	18667.1625
2721.67194	18718.1625
2724.27206	18727.4625
2726.87057	18737.5625
2729.46747	18731.8625
2732.06276	18760.3625
2734.65644	18760.0625
2737.24852	18778.3625
2739.83899	18699.4625
2742.42786	18710.7625
2745.01513	18700.5625
2747.60079	18670.4625
2750.18486	18681.4625
2752.76733	18657.4625
2755.3482	18681.9625
2757.92747	18658.2625
2760.50515	18654.6625
2763.08123	18630.2625
2765.65573	18579.4625
2768.22863	18605.3625
2770.79994	18600.5625
2773.36967	18601.4625
2775.9378	18591.5625
2778.50435	18586.1625
2781.06932	18603.7625
2783.6327	18554.6625
2786.1945	18577.8625
2788.75471	18579.1625
2791.31335	18558.7625
2793.87041	18569.5625
2796.42589	18545.0625
2798.97979	18513.9625
2801.53212	18499.3625
2804.08288	18458.4625
2806.63206	18422.7625
2809.17967	18409.8625
2811.72571	18330.7625
2814.27018	18323.3625
2816.81308	18313.4625
2819.35442	18272.5625
2821.89419	18273.2625
2824.43239	18316.6625
2826.96904	18231.2625
2829.50412	18270.8625
2832.03763	18263.3625
2834.56959	18292.1625
2837.1	18227.0625
2839.62884	18264.0625
2842.15613	18270.0625
2844.68186	18278.8625
2847.20604	18316.3625
2849.72867	18324.9625
2852.24974	18317.5625
2854.76927	18306.4625
2857.28724	18265.8625
2859.80367	18271.5625
2862.31855	18199.8625
2864.83189	18221.3625
2867.34368	18190.4625
2869.85393	18247.1625
2872.36264	18212.4625
2874.8698	18219.2625
2877.37543	18203.1625
2879.87952	18246.5625
2882.38207	18292.3625
2884.88308	18279.3625
2887.38256	18274.3625
2889.88051	18304.3625
2892.37692	18318.3625
2894.8718	18331.9625
2897.36515	18350.5625
2899.85698	18380.2625
2902.34727	18409.0625
2904.83604	18411.4625
2907.32328	18498.0625
2909.809	18465.3625
2912.29319	18444.7625
2914.77587	18425.9625
2917.25702	18439.7625
2919.73665	18444.2625
2922.21476	18499.3625
2924.69136	18419.4625
2927.16644	18415.8625
2929.64	18346.7625
2932.11205	18337.8625
2934.58258	18261.9625
2937.05161	18309.4625
2939.51912	18324.6625
2941.98513	18296.9625
2944.44962	18259.9625
2946.91261	18219.4625
2949.37409	18222.7625
2951.83407	18246.5625
2954.29254	18272.2625
2956.74951	18232.8625
2959.20498	18201.2625
2961.65895	18225.2625
2964.11142	18215.4625
2966.56239	18205.0625
2969.01186	18172.8625
2971.45984	18130.6625
2973.90632	18131.4625
2976.35131	18121.9625
2978.7948	18050.0625
2981.23681	18020.0625
2983.67732	17978.7625
2986.11635	17945.9625
2988.55388	17928.7625
2990.98993	17869.7625
2993.4245	17862.2625
2995.85758	17822.2625
2998.28917	17834.4625
3000.71928	17805.0625
3003.14791	17790.9625
3005.57506	17728.3625
3008.00073	17726.2625
3010.42493	17692.6625
3012.84764	17668.0625
3015.26888	17641.6625
3017.68865	17587.0625
3020.10694	17574.5625
3022.52376	17574.2625
3024.9391	17601.1625
