Data from AgNP_FTO_APTES_UA_10uM_CRN_50uM_R6G_10uM_NaF_0.1M_Addition_RamanShift__20__17-05-50-807.txt Node

Date: Thu Feb 10 17:05:50 GMT 2022
User: TCL
Spectrometer: QEP01345
Trigger mode: 4
Integration Time (sec): 7.000000E0
Scans to average: 10
Electric dark correction enabled: true
Nonlinearity correction enabled: false
Boxcar width: 0
XAxis mode: Raman Shifts
Number of Pixels in Spectrum: 1044
>>>>>Begin Spectral Data<<<<<
46.04893	-0.375
50.45542	-0.675
54.85868	-2.075
59.25871	-0.375
63.6555	59.925
68.04907	63.725
72.43941	68.425
76.82654	67.725
81.21044	73.825
85.59113	75.725
89.96862	77.525
94.34289	82.825
98.71396	83.825
103.08183	85.325
107.4465	89.325
111.80798	86.625
116.16626	88.925
120.52136	95.325
124.87327	100.225
129.222	101.725
133.56755	110.625
137.90993	115.425
142.24913	125.725
146.58517	137.925
150.91804	159.025
155.24774	190.225
159.57429	232.025
163.89768	298.025
168.21792	386.025
172.53501	530.625
176.84895	733.025
181.15975	1034.825
185.46741	1449.825
189.77193	2004.225
194.07331	2685.425
198.37157	3452.325
202.6667	4266.625
206.9587	5080.925
211.24758	5853.225
215.53334	6630.825
219.81599	7457.925
224.09553	8346.225
228.37195	9338.325
232.64527	10418.325
236.91549	11611.325
241.18261	12817.125
245.44663	14019.125
249.70755	15051.425
253.96539	15957.625
258.22014	16794.925
262.4718	17453.425
266.72039	17966.725
270.96589	18236.125
275.20832	18348.925
279.44768	18310.125
283.68397	18191.925
287.91719	18073.325
292.14735	18000.425
296.37445	18014.425
300.59849	17979.225
304.81948	17956.625
309.03742	17799.825
313.25231	17490.825
317.46415	17150.125
321.67296	16741.225
325.87872	16439.625
330.08145	16329.625
334.28114	16362.225
338.47781	16503.325
342.67145	16684.625
346.86207	16904.025
351.04966	17169.625
355.23424	17439.225
359.4158	17707.125
363.59435	17915.425
367.76989	18026.725
371.94243	18148.325
376.11196	18287.725
380.27849	18411.925
384.44203	18542.025
388.60257	18674.825
392.76012	18819.625
396.91468	19049.125
401.06626	19280.025
405.21485	19481.625
409.36047	19431.725
413.50311	19284.825
417.64277	19123.225
421.77947	19137.825
425.9132	19165.225
430.04396	19317.725
434.17176	19431.625
438.2966	19607.225
442.41849	19859.525
446.53742	20247.925
450.6534	20681.425
454.76644	21095.825
458.87653	21250.525
462.98368	21263.925
467.08789	21177.625
471.18916	21021.225
475.2875	20906.625
479.38291	20856.125
483.4754	20744.525
487.56496	20481.325
491.6516	20188.525
495.73531	19918.925
499.81612	19824.725
503.89401	19848.325
507.96899	19888.125
512.04106	19852.725
516.11023	19797.325
520.1765	19673.025
524.23987	19549.825
528.30034	19382.625
532.35792	19270.725
536.41261	19175.925
540.46441	19095.325
544.51333	19147.525
548.55936	19379.425
552.60252	19720.925
556.64279	20025.725
560.6802	20192.825
564.71473	20283.325
568.7464	20421.425
572.7752	20736.025
576.80114	20963.725
580.82422	21165.525
584.84444	21294.725
588.86181	21435.725
592.87633	21579.425
596.888	21697.425
600.89682	21906.025
604.9028	22449.625
608.90594	23770.725
612.90624	24960.425
616.90371	23696.625
620.89834	21044.225
624.89015	20010.725
628.87913	19973.225
632.86528	19984.925
636.84862	19889.825
640.82913	19637.325
644.80683	19316.525
648.78172	19008.525
652.75379	18949.825
656.72306	19061.925
660.68952	19297.325
664.65319	19240.825
668.61405	19072.825
672.57211	18977.125
676.52738	19020.025
680.47986	19056.225
684.42955	19029.125
688.37646	19020.525
692.32058	19081.625
696.26192	19223.725
700.20048	19370.625
704.13626	19459.025
708.06928	19435.625
711.99952	19337.725
715.927	19292.925
719.85171	19259.925
723.77365	19256.725
727.69284	19135.525
731.60928	19016.425
735.52295	18980.725
739.43388	18972.225
743.34206	19047.525
747.24749	19082.125
751.15017	19218.825
755.05012	19472.925
758.94733	19863.125
762.8418	20626.425
766.73354	21659.225
770.62254	22593.225
774.50882	22804.825
778.39237	21982.925
782.27321	20766.225
786.15132	19790.125
790.02671	19299.525
793.89938	18993.625
797.76935	18925.725
801.6366	18911.025
805.50115	18884.225
809.36299	18785.525
813.22213	18720.025
817.07857	18672.525
820.93231	18640.025
824.78336	18589.425
828.63172	18596.725
832.47738	18582.625
836.32036	18606.925
840.16066	18692.925
843.99827	18744.025
847.8332	18728.625
851.66546	18675.225
855.49504	18630.625
859.32195	18657.625
863.1462	18613.025
866.96777	18561.525
870.78668	18526.425
874.60293	18514.625
878.41652	18494.325
882.22745	18530.125
886.03573	18541.825
889.84136	18547.225
893.64433	18487.225
897.44466	18425.225
901.24235	18369.225
905.0374	18354.425
908.8298	18357.925
912.61957	18407.925
916.40671	18554.325
920.19121	18770.825
923.97308	18855.025
927.75233	18872.025
931.52895	18816.425
935.30295	18635.025
939.07433	18423.325
942.84309	18205.325
946.60924	18144.825
950.37278	18071.125
954.13371	18011.325
957.89203	17973.825
961.64774	17906.025
965.40086	17862.525
969.15137	17810.025
972.89929	17717.025
976.64461	17677.225
980.38733	17695.525
984.12747	17799.325
987.86502	17954.825
991.59999	18140.825
995.33237	18385.025
999.06217	18838.825
1002.78939	19251.325
1006.51404	19431.325
1010.23611	19499.925
1013.95561	19610.925
1017.67255	19656.725
1021.38692	19517.525
1025.09872	19460.225
1028.80796	19679.525
1032.51465	20179.625
1036.21877	20644.225
1039.92035	20703.125
1043.61937	20414.025
1047.31584	19997.625
1051.00976	19584.625
1054.70114	19374.725
1058.38998	19408.625
1062.07627	19494.225
1065.76003	19551.625
1069.44126	19583.125
1073.11995	19694.225
1076.79611	19765.325
1080.46974	19870.625
1084.14085	19958.425
1087.80943	20131.525
1091.47549	20203.725
1095.13903	20200.325
1098.80005	20047.825
1102.45857	19783.025
1106.11456	19618.325
1109.76805	19569.925
1113.41903	19650.125
1117.06751	19755.425
1120.71348	19886.725
1124.35696	20013.625
1127.99793	20173.125
1131.63641	20237.625
1135.2724	20150.325
1138.90589	20030.425
1142.5369	19966.425
1146.16542	19979.425
1149.79145	19984.725
1153.415	20121.125
1157.03607	20386.625
1160.65467	20785.025
1164.27079	21430.425
1167.88443	22265.025
1171.49561	23239.125
1175.10432	24537.225
1178.71056	26024.825
1182.31434	27550.725
1185.91565	28434.225
1189.51451	28534.125
1193.11091	27962.725
1196.70485	27032.925
1200.29634	26040.625
1203.88538	25357.525
1207.47197	24844.925
1211.05612	24322.625
1214.63782	23917.425
1218.21708	23661.225
1221.79391	23463.925
1225.36829	23318.025
1228.94024	23116.925
1232.50976	22793.525
1236.07685	22552.425
1239.6415	22508.325
1243.20374	22544.225
1246.76355	22713.325
1250.32093	22972.425
1253.8759	23413.925
1257.42845	23937.725
1260.97859	24358.325
1264.52631	24736.725
1268.07163	25180.525
1271.61453	25738.425
1275.15503	26379.525
1278.69312	27070.325
1282.22882	27661.625
1285.76211	28140.825
1289.29301	28588.525
1292.82151	29277.125
1296.34761	30271.025
1299.87133	31621.225
1303.39266	33183.525
1306.9116	34812.125
1310.42815	36451.025
1313.94233	37401.325
1317.45412	37380.625
1320.96354	36908.425
1324.47058	36303.125
1327.97525	35814.025
1331.47754	35563.925
1334.97747	35542.625
1338.47502	35737.525
1341.97022	35962.825
1345.46305	35789.725
1348.95352	35332.125
1352.44163	34766.825
1355.92738	34666.825
1359.41078	35286.725
1362.89183	35847.825
1366.37053	35032.525
1369.84688	32681.125
1373.32088	30108.825
1376.79254	28364.525
1380.26186	27627.625
1383.72883	27524.425
1387.19347	27535.825
1390.65578	27446.825
1394.11575	27504.025
1397.57339	27710.425
1401.0287	28191.325
1404.48168	28611.025
1407.93234	28754.625
1411.38068	28554.025
1414.82669	27934.125
1418.27039	26978.625
1421.71177	26026.125
1425.15083	25207.025
1428.58758	24665.525
1432.02203	24653.025
1435.45416	24951.825
1438.88399	25382.925
1442.31151	25822.725
1445.73673	26210.425
1449.15965	26543.425
1452.58027	26837.325
1455.9986	27058.225
1459.41463	27326.425
1462.82837	27635.625
1466.23982	28051.925
1469.64898	28459.825
1473.05586	28714.425
1476.46045	28742.825
1479.86276	28586.425
1483.26279	28357.425
1486.66054	28133.625
1490.05602	28095.725
1493.44922	28149.025
1496.84016	28286.125
1500.22882	28512.925
1503.61521	29072.125
1506.99934	29809.725
1510.38121	30537.625
1513.76081	30848.425
1517.13816	30503.125
1520.51324	29729.125
1523.88607	28990.125
1527.25665	28544.425
1530.62498	28353.225
1533.99105	28244.325
1537.35488	28144.225
1540.71647	27985.325
1544.07581	27649.825
1547.4329	27253.825
1550.78776	26838.925
1554.14038	26574.925
1557.49077	26462.325
1560.83892	26387.925
1564.18484	26325.025
1567.52853	26320.125
1570.86999	26349.925
1574.20922	26524.925
1577.54624	26761.225
1580.88103	26841.925
1584.2136	27049.825
1587.54395	27532.725
1590.87208	28533.625
1594.19801	29871.925
1597.52172	31263.725
1600.84321	31683.725
1604.16251	30750.125
1607.47959	28948.125
1610.79447	27023.425
1614.10715	25276.425
1617.41763	23769.225
1620.7259	22673.525
1624.03199	22098.125
1627.33587	22025.625
1630.63757	22422.725
1633.93707	23388.225
1637.23439	24864.725
1640.52951	26801.025
1643.82246	28859.425
1647.11321	30362.525
1650.40179	30573.925
1653.68819	29125.225
1656.97241	26447.825
1660.25446	23748.025
1663.53433	21645.625
1666.81203	20163.025
1670.08756	19227.025
1673.36092	18601.525
1676.63211	18208.725
1679.90115	17887.725
1683.16801	17646.325
1686.43272	17513.925
1689.69527	17412.625
1692.95567	17325.525
1696.2139	17226.725
1699.46999	17192.725
1702.72392	17157.425
1705.97571	17121.925
1709.22535	17018.625
1712.47284	17038.325
1715.71819	17000.725
1718.96139	16982.025
1722.20246	16951.025
1725.44139	16873.925
1728.67818	16825.725
1731.91284	16690.925
1735.14537	16661.225
1738.37576	16592.525
1741.60403	16556.025
1744.83017	16537.425
1748.05418	16497.725
1751.27607	16467.325
1754.49584	16451.225
1757.71349	16477.925
1760.92903	16432.925
1764.14244	16428.225
1767.35375	16423.725
1770.56294	16403.525
1773.77002	16381.925
1776.97499	16325.525
1780.17785	16326.525
1783.37861	16308.525
1786.57727	16271.725
1789.77382	16242.425
1792.96828	16215.325
1796.16064	16180.225
1799.3509	16176.025
1802.53907	16152.125
1805.72514	16102.725
1808.90913	16068.925
1812.09102	16029.425
1815.27083	16021.325
1818.44856	16003.225
1821.6242	15962.425
1824.79776	15927.025
1827.96924	15930.825
1831.13864	15946.825
1834.30597	15944.425
1837.47122	15935.625
1840.6344	15945.325
1843.7955	15937.125
1846.95454	15924.425
1850.11151	15904.525
1853.26642	15928.325
1856.41926	15906.725
1859.57004	15882.625
1862.71876	15914.425
1865.86542	15894.225
1869.01003	15845.725
1872.15258	15833.425
1875.29308	15866.125
1878.43152	15842.525
1881.56792	15836.725
1884.70227	15814.525
1887.83457	15805.325
1890.96482	15806.225
1894.09304	15761.025
1897.21921	15744.725
1900.34335	15754.625
1903.46544	15734.225
1906.58551	15715.225
1909.70353	15694.125
1912.81953	15697.225
1915.93349	15675.025
1919.04543	15631.025
1922.15534	15605.225
1925.26322	15601.525
1928.36908	15577.625
1931.47292	15568.425
1934.57473	15513.625
1937.67453	15520.725
1940.77232	15481.625
1943.86808	15398.025
1946.96184	15355.525
1950.05358	15321.925
1953.14331	15295.825
1956.23103	15253.325
1959.31675	15230.025
1962.40046	15163.525
1965.48217	15105.925
1968.56188	15075.225
1971.63959	15002.625
1974.7153	14974.825
1977.78901	14954.325
1980.86073	14909.425
1983.93046	14885.725
1986.99819	14823.325
1990.06394	14779.225
1993.1277	14778.925
1996.18947	14699.425
1999.24925	14658.425
2002.30706	14613.925
2005.36288	14586.625
2008.41672	14545.625
2011.46859	14519.925
2014.51848	14535.025
2017.56639	14475.125
2020.61233	14435.825
2023.6563	14400.525
2026.6983	14362.525
2029.73833	14332.625
2032.7764	14276.625
2035.8125	14302.925
2038.84664	14267.425
2041.87881	14229.225
2044.90903	14162.125
2047.93729	14159.225
2050.96359	14191.825
2053.98794	14156.325
2057.01034	14156.025
2060.03078	14140.325
2063.04927	14128.225
2066.06582	14130.025
2069.08042	14127.425
2072.09307	14113.125
2075.10378	14077.525
2078.11255	14050.725
2081.11938	14098.025
2084.12426	14052.525
2087.12722	14057.025
2090.12824	14014.525
2093.12732	14051.825
2096.12447	14035.025
2099.11969	14039.925
2102.11299	14016.325
2105.10435	14059.525
2108.09379	14057.725
2111.08131	14048.225
2114.0669	14095.325
2117.05057	14078.625
2120.03233	14103.125
2123.01216	14114.825
2125.99008	14132.225
2128.96609	14143.625
2131.94018	14156.325
2134.91236	14184.325
2137.88263	14172.225
2140.851	14226.725
2143.81746	14211.825
2146.78201	14211.525
2149.74466	14229.625
2152.7054	14196.925
2155.66425	14211.125
2158.6212	14212.725
2161.57625	14210.725
2164.52941	14203.925
2167.48067	14187.425
2170.43004	14198.425
2173.37752	14200.025
2176.32311	14199.025
2179.26681	14201.925
2182.20863	14191.125
2185.14856	14169.925
2188.08661	14206.025
2191.02278	14224.925
2193.95707	14197.925
2196.88948	14199.225
2199.82001	14235.625
2202.74867	14200.525
2205.67545	14179.325
2208.60037	14190.025
2211.52341	14158.625
2214.44458	14170.725
2217.36388	14164.225
2220.28132	14155.725
2223.1969	14096.325
2226.11061	14092.725
2229.02246	14033.425
2231.93245	14023.425
2234.84058	14000.225
2237.74686	13991.525
2240.65128	13957.825
2243.55385	13950.525
2246.45456	13931.425
2249.35343	13900.025
2252.25044	13874.125
2255.14561	13867.725
2258.03893	13862.625
2260.93041	13822.425
2263.82004	13779.925
2266.70783	13761.625
2269.59378	13713.425
2272.4779	13679.225
2275.36017	13642.725
2278.24061	13656.625
2281.11922	13610.025
2283.996	13611.225
2286.87094	13615.225
2289.74405	13586.325
2292.61534	13578.025
2295.4848	13589.725
2298.35243	13559.125
2301.21824	13554.025
2304.08223	13570.525
2306.94439	13585.725
2309.80474	13599.625
2312.66327	13574.225
2315.51999	13585.425
2318.37489	13603.425
2321.22797	13589.025
2324.07925	13570.025
2326.92871	13554.925
2329.77637	13528.025
2332.62222	13516.125
2335.46626	13505.225
2338.3085	13482.825
2341.14893	13504.025
2343.98756	13516.825
2346.8244	13512.625
2349.65943	13485.925
2352.49267	13502.325
2355.32411	13528.725
2358.15376	13516.225
2360.98161	13489.125
2363.80768	13498.725
2366.63195	13442.125
2369.45444	13417.525
2372.27514	13376.225
2375.09405	13394.625
2377.91118	13346.225
2380.72652	13309.525
2383.54009	13284.925
2386.35187	13269.925
2389.16188	13243.425
2391.97011	13209.025
2394.77657	13154.125
2397.58125	13172.925
2400.38416	13159.125
2403.18529	13141.925
2405.98466	13135.325
2408.78226	13090.225
2411.57809	13111.125
2414.37216	13076.925
2417.16446	13077.425
2419.955	13027.925
2422.74378	13028.725
2425.5308	13046.325
2428.31606	13026.625
2431.09956	13036.525
2433.88131	13012.225
2436.6613	13022.825
2439.43954	13003.225
2442.21603	12970.125
2444.99077	12967.125
2447.76377	12965.125
2450.53501	12945.025
2453.30451	12972.425
2456.07226	12951.625
2458.83827	12940.925
2461.60254	12940.725
2464.36507	12926.625
2467.12586	12918.425
2469.88492	12930.225
2472.64224	12925.125
2475.39782	12940.025
2478.15167	12961.325
2480.90379	12918.925
2483.65417	12929.825
2486.40283	12963.925
2489.14976	12962.725
2491.89497	12944.225
2494.63845	12977.525
2497.3802	12976.025
2500.12024	12984.025
2502.85855	12960.425
2505.59514	12939.725
2508.33002	12939.425
2511.06318	12905.125
2513.79462	12921.025
2516.52435	12873.825
2519.25237	12900.425
2521.97867	12854.125
2524.70327	12878.425
2527.42616	12895.725
2530.14734	12885.825
2532.86681	12854.425
2535.58458	12865.425
2538.30065	12860.425
2541.01501	12846.525
2543.72768	12848.325
2546.43864	12830.625
2549.14791	12840.025
2551.85548	12827.925
2554.56136	12768.225
2557.26554	12772.125
2559.96803	12730.825
2562.66883	12740.125
2565.36794	12694.825
2568.06536	12713.625
2570.7611	12702.225
2573.45514	12702.325
2576.14751	12656.325
2578.83819	12659.025
2581.52719	12652.525
2584.21451	12633.625
2586.90015	12646.125
2589.58411	12658.725
2592.2664	12647.325
2594.94701	12599.125
2597.62594	12611.025
2600.30321	12589.425
2602.9788	12581.125
2605.65273	12553.525
2608.32498	12577.725
2610.99557	12531.025
2613.66449	12559.225
2616.33175	12548.325
2618.99734	12537.225
2621.66128	12566.225
2624.32355	12569.625
2626.98416	12564.325
2629.64311	12543.925
2632.30041	12533.925
2634.95605	12537.925
2637.61004	12502.625
2640.26238	12490.825
2642.91306	12464.725
2645.56209	12472.525
2648.20948	12471.025
2650.85521	12464.225
2653.4993	12487.125
2656.14175	12469.025
2658.78255	12461.125
2661.42171	12463.425
2664.05923	12493.925
2666.6951	12491.425
2669.32934	12504.925
2671.96194	12505.425
2674.59291	12552.725
2677.22224	12510.325
2679.84993	12501.325
2682.476	12473.225
2685.10043	12479.625
2687.72324	12433.225
2690.34441	12434.325
2692.96396	12453.325
2695.58188	12439.925
2698.19818	12445.825
2700.81285	12437.525
2703.4259	12485.125
2706.03733	12471.625
2708.64714	12458.625
2711.25533	12467.825
2713.86191	12502.325
2716.46687	12518.825
2719.07021	12467.625
2721.67194	12518.125
2724.27206	12495.425
2726.87057	12536.625
2729.46747	12530.025
2732.06276	12532.025
2734.65644	12513.825
2737.24852	12503.725
2739.83899	12504.525
2742.42786	12470.925
2745.01513	12471.425
2747.60079	12455.725
2750.18486	12452.525
2752.76733	12449.225
2755.3482	12455.425
2757.92747	12431.325
2760.50515	12411.725
2763.08123	12421.925
2765.65573	12416.525
2768.22863	12414.825
2770.79994	12419.025
2773.36967	12414.425
2775.9378	12398.625
2778.50435	12435.225
2781.06932	12431.225
2783.6327	12420.125
2786.1945	12437.625
2788.75471	12402.525
2791.31335	12369.325
2793.87041	12370.425
2796.42589	12325.025
2798.97979	12337.125
2801.53212	12302.925
2804.08288	12291.125
2806.63206	12292.325
2809.17967	12250.325
2811.72571	12224.025
2814.27018	12217.225
2816.81308	12180.725
2819.35442	12144.025
2821.89419	12153.525
2824.43239	12148.725
2826.96904	12116.425
2829.50412	12125.625
2832.03763	12098.425
2834.56959	12111.025
2837.1	12086.425
2839.62884	12094.325
2842.15613	12108.225
2844.68186	12107.125
2847.20604	12122.225
2849.72867	12092.725
2852.24974	12103.525
2854.76927	12078.225
2857.28724	12066.525
2859.80367	12054.425
2862.31855	12020.025
2864.83189	12015.925
2867.34368	11983.325
2869.85393	11987.225
2872.36264	11992.525
2874.8698	11992.525
2877.37543	11998.825
2879.87952	12002.025
2882.38207	11990.825
2884.88308	11982.625
2887.38256	12019.925
2889.88051	12008.725
2892.37692	11994.025
2894.8718	12015.725
2897.36515	12052.225
2899.85698	12021.225
2902.34727	12057.825
2904.83604	12055.625
2907.32328	12076.525
2909.809	12085.325
2912.29319	12093.925
2914.77587	12104.325
2917.25702	12087.825
2919.73665	12085.825
2922.21476	12064.725
2924.69136	12073.225
2927.16644	12089.725
2929.64	12040.425
2932.11205	12037.825
2934.58258	11996.625
2937.05161	12024.725
2939.51912	12035.325
2941.98513	12027.025
2944.44962	12025.725
2946.91261	11967.125
2949.37409	11990.625
2951.83407	11966.425
2954.29254	11949.825
2956.74951	11946.825
2959.20498	11966.025
2961.65895	11939.325
2964.11142	11945.325
2966.56239	11923.025
2969.01186	11930.825
2971.45984	11910.625
2973.90632	11899.925
2976.35131	11902.925
2978.7948	11863.325
2981.23681	11852.625
2983.67732	11840.725
2986.11635	11839.825
2988.55388	11799.825
2990.98993	11780.425
2993.4245	11757.625
2995.85758	11734.925
2998.28917	11717.425
3000.71928	11691.225
3003.14791	11653.225
3005.57506	11663.625
3008.00073	11619.025
3010.42493	11610.525
3012.84764	11578.125
3015.26888	11572.225
3017.68865	11549.825
3020.10694	11557.425
3022.52376	11540.025
3024.9391	11507.125
3027.35298	11521.825
3029.76539	11501.225
3032.17632	11501.125
3034.5858	11505.325
3036.9938	11479.925
3039.40034	11492.825
3041.80542	11485.725
3044.20903	11465.925
3046.61118	11443.525
3049.01187	11447.225
3051.4111	11435.625
3053.80888	11420.125
3056.20519	11389.025
3058.60005	11366.225
3060.99345	11371.425
3063.3854	11334.725
3065.7759	11316.925
3068.16494	11297.225
3070.55254	11281.025
3072.93868	11239.325
3075.32338	11225.625
3077.70662	11222.925
3080.08842	11179.625
3082.46878	11189.025
3084.84769	11159.125
3087.22515	11143.125
3089.60118	11160.525
3091.97576	11178.425
3094.3489	11149.625
3096.72061	11150.925
3099.09087	11180.725
3101.4597	11156.025
3103.82709	11169.325
3106.19305	11151.925
3108.55757	11166.125
3110.92066	11137.125
3113.28232	11146.425
3115.64255	11098.625
3118.00134	11106.225
3120.35871	11070.125
3122.71466	11046.725
3125.06917	11029.525
3127.42226	11013.425
