Data from AgNP_FTO_APTES_UA_10uM_CRN_500uM_R6G_10uM_NaF_0.1M_Addition_RamanShift__32__19-17-40-970.txt Node

Date: Thu Feb 10 19:17:40 GMT 2022
User: TCL
Spectrometer: QEP01345
Trigger mode: 4
Integration Time (sec): 7.000000E0
Scans to average: 10
Electric dark correction enabled: true
Nonlinearity correction enabled: false
Boxcar width: 0
XAxis mode: Raman Shifts
Number of Pixels in Spectrum: 1044
>>>>>Begin Spectral Data<<<<<
46.04893	0.225
50.45542	0.125
54.85868	-2.175
59.25871	-0.075
63.6555	39.525
68.04907	43.525
72.43941	46.025
76.82654	45.425
81.21044	52.625
85.59113	48.025
89.96862	54.725
94.34289	56.525
98.71396	56.325
103.08183	58.525
107.4465	62.025
111.80798	59.225
116.16626	63.825
120.52136	64.125
124.87327	67.825
129.222	71.825
133.56755	73.425
137.90993	73.625
142.24913	76.725
146.58517	85.325
150.91804	97.425
155.24774	117.725
159.57429	142.125
163.89768	174.725
168.21792	230.825
172.53501	308.625
176.84895	424.925
181.15975	592.725
185.46741	819.025
189.77193	1144.725
194.07331	1527.925
198.37157	1973.625
202.6667	2436.325
206.9587	2885.625
211.24758	3364.725
215.53334	3861.525
219.81599	4407.025
224.09553	5007.625
228.37195	5683.025
232.64527	6456.825
236.91549	7214.925
241.18261	7878.325
245.44663	8421.525
249.70755	8858.225
253.96539	9204.325
258.22014	9483.825
262.4718	9779.825
266.72039	9990.325
270.96589	10167.425
275.20832	10147.325
279.44768	10069.825
283.68397	9922.225
287.91719	9816.325
292.14735	9857.225
296.37445	10085.025
300.59849	10554.725
304.81948	11092.025
309.03742	11460.525
313.25231	11450.725
317.46415	10881.925
321.67296	9962.625
325.87872	9170.125
330.08145	8792.525
334.28114	8761.825
338.47781	8922.925
342.67145	9239.725
346.86207	9686.725
351.04966	10375.125
355.23424	11115.525
359.4158	11668.025
363.59435	11880.225
367.76989	11979.525
371.94243	11933.425
376.11196	11901.825
380.27849	11800.025
384.44203	11640.925
388.60257	11415.525
392.76012	11303.725
396.91468	11373.925
401.06626	11698.625
405.21485	11984.225
409.36047	11743.425
413.50311	11033.425
417.64277	10353.725
421.77947	9968.325
425.9132	9814.025
430.04396	9817.325
434.17176	9855.125
438.2966	9985.225
442.41849	10222.525
446.53742	10531.025
450.6534	10855.825
454.76644	11031.525
458.87653	11040.325
462.98368	10929.525
467.08789	10774.125
471.18916	10505.425
475.2875	10259.425
479.38291	10031.025
483.4754	9837.825
487.56496	9658.825
491.6516	9544.725
495.73531	9508.225
499.81612	9552.625
503.89401	9689.125
507.96899	9870.525
512.04106	10075.825
516.11023	10302.325
520.1765	10467.125
524.23987	10477.525
528.30034	10236.625
532.35792	9990.225
536.41261	9727.125
540.46441	9478.225
544.51333	9347.025
548.55936	9374.225
552.60252	9635.825
556.64279	9929.725
560.6802	10072.725
564.71473	10260.325
568.7464	10782.725
572.7752	11127.525
576.80114	10734.025
580.82422	10151.925
584.84444	9842.525
588.86181	9800.525
592.87633	9845.025
596.888	10000.025
600.89682	10295.825
604.9028	11542.625
608.90594	15192.725
612.90624	20535.025
616.90371	20205.025
620.89834	13601.425
624.89015	10343.825
628.87913	9712.925
632.86528	9750.425
636.84862	9955.925
640.82913	9872.925
644.80683	9427.225
648.78172	9121.925
652.75379	9182.925
656.72306	9638.325
660.68952	10175.225
664.65319	10131.025
668.61405	9538.425
672.57211	9237.125
676.52738	9217.425
680.47986	9247.825
684.42955	9197.225
688.37646	9126.625
692.32058	9140.625
696.26192	9217.525
700.20048	9358.325
704.13626	9426.325
708.06928	9399.625
711.99952	9318.625
715.927	9274.725
719.85171	9320.125
723.77365	9319.825
727.69284	9205.625
731.60928	9115.225
735.52295	9091.525
739.43388	9104.925
743.34206	9157.225
747.24749	9177.125
751.15017	9228.725
755.05012	9394.925
758.94733	9888.325
762.8418	11037.025
766.73354	13084.825
770.62254	15376.525
774.50882	16742.525
778.39237	16109.025
782.27321	13798.325
786.15132	11424.025
790.02671	10086.525
793.89938	9501.225
797.76935	9263.825
801.6366	9139.625
805.50115	9077.925
809.36299	9035.425
813.22213	8991.725
817.07857	8982.125
820.93231	8976.725
824.78336	9017.825
828.63172	9087.325
832.47738	9097.425
836.32036	9048.925
840.16066	8955.325
843.99827	8933.425
847.8332	8898.825
851.66546	8911.325
855.49504	8896.225
859.32195	8883.325
863.1462	8829.325
866.96777	8797.125
870.78668	8805.225
874.60293	8820.125
878.41652	8840.025
882.22745	8899.825
886.03573	8934.125
889.84136	8923.025
893.64433	8870.825
897.44466	8843.825
901.24235	8834.325
905.0374	8810.425
908.8298	8792.725
912.61957	8746.425
916.40671	8780.325
920.19121	8828.725
923.97308	8890.625
927.75233	8974.525
931.52895	9090.825
935.30295	9037.225
939.07433	8794.625
942.84309	8528.625
946.60924	8348.425
950.37278	8283.225
954.13371	8214.225
957.89203	8216.025
961.64774	8195.325
965.40086	8152.725
969.15137	8128.325
972.89929	8117.125
976.64461	8115.325
980.38733	8104.925
984.12747	8117.825
987.86502	8143.525
991.59999	8178.025
995.33237	8251.325
999.06217	8364.325
1002.78939	8550.425
1006.51404	8711.625
1010.23611	8918.725
1013.95561	9047.525
1017.67255	8992.325
1021.38692	8895.025
1025.09872	8744.025
1028.80796	8637.625
1032.51465	8623.425
1036.21877	8676.725
1039.92035	8768.725
1043.61937	8823.625
1047.31584	8816.825
1051.00976	8832.125
1054.70114	8856.925
1058.38998	8827.025
1062.07627	8867.925
1065.76003	8900.925
1069.44126	8911.425
1073.11995	8975.925
1076.79611	9123.225
1080.46974	9301.625
1084.14085	9583.825
1087.80943	9903.725
1091.47549	10045.925
1095.13903	9864.525
1098.80005	9484.925
1102.45857	9168.725
1106.11456	9111.725
1109.76805	9173.225
1113.41903	9399.525
1117.06751	9756.725
1120.71348	10226.725
1124.35696	10717.825
1127.99793	11137.825
1131.63641	11089.625
1135.2724	10503.725
1138.90589	9896.525
1142.5369	9553.125
1146.16542	9374.125
1149.79145	9225.325
1153.415	9209.925
1157.03607	9284.125
1160.65467	9469.125
1164.27079	9820.125
1167.88443	10387.725
1171.49561	11287.325
1175.10432	12844.325
1178.71056	14901.125
1182.31434	16292.025
1185.91565	16463.725
1189.51451	15838.025
1193.11091	14738.825
1196.70485	13521.425
1200.29634	12668.625
1203.88538	12053.625
1207.47197	11269.925
1211.05612	10603.125
1214.63782	10240.425
1218.21708	10099.825
1221.79391	10100.625
1225.36829	10105.725
1228.94024	10077.525
1232.50976	10089.825
1236.07685	10098.125
1239.6415	10169.025
1243.20374	10265.125
1246.76355	10348.825
1250.32093	10474.725
1253.8759	10666.925
1257.42845	10979.425
1260.97859	11326.725
1264.52631	11677.825
1268.07163	12023.425
1271.61453	12331.625
1275.15503	12509.225
1278.69312	12522.225
1282.22882	12481.525
1285.76211	12636.525
1289.29301	13047.225
1292.82151	13507.425
1296.34761	13978.825
1299.87133	14672.125
1303.39266	15944.425
1306.9116	17941.325
1310.42815	20297.525
1313.94233	21755.225
1317.45412	21377.925
1320.96354	19732.025
1324.47058	17854.125
1327.97525	16214.725
1331.47754	15174.025
1334.97747	14843.825
1338.47502	14945.725
1341.97022	15388.925
1345.46305	16106.425
1348.95352	17195.825
1352.44163	18811.625
1355.92738	20975.425
1359.41078	24375.725
1362.89183	27648.225
1366.37053	26903.925
1369.84688	22435.525
1373.32088	18090.425
1376.79254	15292.825
1380.26186	13973.825
1383.72883	13240.325
1387.19347	12840.025
1390.65578	12314.125
1394.11575	11884.125
1397.57339	11648.125
1401.0287	11612.325
1404.48168	11718.625
1407.93234	11856.325
1411.38068	11941.825
1414.82669	11935.725
1418.27039	11795.025
1421.71177	11589.425
1425.15083	11327.725
1428.58758	11183.825
1432.02203	11189.425
1435.45416	11352.425
1438.88399	11408.825
1442.31151	11388.425
1445.73673	11421.925
1449.15965	11494.925
1452.58027	11522.025
1455.9986	11441.525
1459.41463	11385.725
1462.82837	11501.525
1466.23982	11727.625
1469.64898	12005.325
1473.05586	12195.625
1476.46045	12319.225
1479.86276	12517.125
1483.26279	12834.925
1486.66054	13208.825
1490.05602	13654.525
1493.44922	14289.025
1496.84016	15291.425
1500.22882	16950.425
1503.61521	19152.625
1506.99934	21753.925
1510.38121	24375.925
1513.76081	25797.325
1517.13816	24701.925
1520.51324	21461.225
1523.88607	18011.425
1527.25665	15704.325
1530.62498	14414.425
1533.99105	13689.125
1537.35488	13233.525
1540.71647	12987.425
1544.07581	12895.625
1547.4329	12846.825
1550.78776	12831.725
1554.14038	12816.825
1557.49077	12934.525
1560.83892	13190.125
1564.18484	13639.025
1567.52853	14118.825
1570.86999	14505.625
1574.20922	14686.425
1577.54624	14582.225
1580.88103	13839.825
1584.2136	12776.625
1587.54395	12146.625
1590.87208	12147.225
1594.19801	12732.725
1597.52172	13660.425
1600.84321	14159.525
1604.16251	13777.425
1607.47959	12961.025
1610.79447	12023.425
1614.10715	11110.525
1617.41763	10327.925
1620.7259	9857.325
1624.03199	9581.025
1627.33587	9555.025
1630.63757	9723.225
1633.93707	10092.325
1637.23439	10755.425
1640.52951	11800.425
1643.82246	13325.825
1647.11321	15310.225
1650.40179	16951.525
1653.68819	16838.925
1656.97241	14679.825
1660.25446	12111.625
1663.53433	10294.525
1666.81203	9234.425
1670.08756	8646.925
1673.36092	8275.625
1676.63211	8054.325
1679.90115	7863.225
1683.16801	7752.625
1686.43272	7674.525
1689.69527	7597.525
1692.95567	7569.825
1696.2139	7546.225
1699.46999	7535.125
1702.72392	7538.425
1705.97571	7490.825
1709.22535	7459.525
1712.47284	7457.125
1715.71819	7457.625
1718.96139	7455.925
1722.20246	7431.225
1725.44139	7406.725
1728.67818	7345.725
1731.91284	7291.325
1735.14537	7224.425
1738.37576	7185.425
1741.60403	7153.525
1744.83017	7142.825
1748.05418	7121.925
1751.27607	7100.025
1754.49584	7099.925
1757.71349	7087.025
1760.92903	7080.125
1764.14244	7078.425
1767.35375	7073.425
1770.56294	7036.425
1773.77002	6996.925
1776.97499	6969.325
1780.17785	6931.025
1783.37861	6920.125
1786.57727	6891.325
1789.77382	6866.925
1792.96828	6856.625
1796.16064	6854.825
1799.3509	6829.725
1802.53907	6817.125
1805.72514	6787.525
1808.90913	6777.925
1812.09102	6756.325
1815.27083	6733.025
1818.44856	6714.925
1821.6242	6706.125
1824.79776	6680.925
1827.96924	6681.825
1831.13864	6648.925
1834.30597	6653.825
1837.47122	6624.625
1840.6344	6635.225
1843.7955	6637.825
1846.95454	6624.025
1850.11151	6608.125
1853.26642	6593.725
1856.41926	6605.725
1859.57004	6605.025
1862.71876	6587.625
1865.86542	6602.625
1869.01003	6583.425
1872.15258	6609.725
1875.29308	6589.325
1878.43152	6589.225
1881.56792	6571.025
1884.70227	6564.325
1887.83457	6556.525
1890.96482	6547.225
1894.09304	6539.125
1897.21921	6536.425
1900.34335	6533.425
1903.46544	6549.725
1906.58551	6526.325
1909.70353	6524.625
1912.81953	6536.725
1915.93349	6527.025
1919.04543	6513.925
1922.15534	6505.225
1925.26322	6467.025
1928.36908	6447.525
1931.47292	6456.925
1934.57473	6431.925
1937.67453	6396.725
1940.77232	6385.225
1943.86808	6343.625
1946.96184	6338.425
1950.05358	6291.725
1953.14331	6290.225
1956.23103	6273.225
1959.31675	6251.625
1962.40046	6242.925
1965.48217	6230.425
1968.56188	6207.225
1971.63959	6188.525
1974.7153	6169.325
1977.78901	6145.125
1980.86073	6148.625
1983.93046	6109.225
1986.99819	6091.625
1990.06394	6052.525
1993.1277	6041.925
1996.18947	6004.325
1999.24925	6000.625
2002.30706	5982.825
2005.36288	5962.425
2008.41672	5945.825
2011.46859	5902.425
2014.51848	5896.125
2017.56639	5886.425
2020.61233	5874.725
2023.6563	5850.925
2026.6983	5836.825
2029.73833	5829.725
2032.7764	5805.425
2035.8125	5791.525
2038.84664	5783.225
2041.87881	5758.725
2044.90903	5746.425
2047.93729	5755.525
2050.96359	5733.525
2053.98794	5718.625
2057.01034	5710.725
2060.03078	5709.125
2063.04927	5685.125
2066.06582	5682.925
2069.08042	5687.425
2072.09307	5680.425
2075.10378	5691.125
2078.11255	5665.125
2081.11938	5666.225
2084.12426	5666.025
2087.12722	5667.125
2090.12824	5658.725
2093.12732	5647.925
2096.12447	5662.325
2099.11969	5643.825
2102.11299	5634.725
2105.10435	5632.025
2108.09379	5636.025
2111.08131	5657.425
2114.0669	5644.125
2117.05057	5636.525
2120.03233	5659.425
2123.01216	5665.325
2125.99008	5649.625
2128.96609	5663.425
2131.94018	5666.225
2134.91236	5677.825
2137.88263	5661.425
2140.851	5658.425
2143.81746	5655.625
2146.78201	5654.625
2149.74466	5661.825
2152.7054	5649.225
2155.66425	5643.625
2158.6212	5637.525
2161.57625	5642.925
2164.52941	5628.125
2167.48067	5623.925
2170.43004	5623.825
2173.37752	5594.925
2176.32311	5620.825
2179.26681	5605.225
2182.20863	5605.325
2185.14856	5597.725
2188.08661	5608.525
2191.02278	5616.225
2193.95707	5615.225
2196.88948	5596.825
2199.82001	5589.125
2202.74867	5534.625
2205.67545	5567.125
2208.60037	5539.425
2211.52341	5523.225
2214.44458	5540.025
2217.36388	5513.625
2220.28132	5523.825
2223.1969	5487.125
2226.11061	5489.025
2229.02246	5463.025
2231.93245	5451.025
2234.84058	5448.525
2237.74686	5406.525
2240.65128	5437.725
2243.55385	5402.625
2246.45456	5405.025
2249.35343	5386.225
2252.25044	5406.725
2255.14561	5396.525
2258.03893	5395.125
2260.93041	5396.425
2263.82004	5378.525
2266.70783	5365.525
2269.59378	5353.025
2272.4779	5328.125
2275.36017	5327.825
2278.24061	5305.825
2281.11922	5288.025
2283.996	5284.525
2286.87094	5275.725
2289.74405	5262.825
2292.61534	5249.825
2295.4848	5233.825
2298.35243	5239.125
2301.21824	5229.225
2304.08223	5216.125
2306.94439	5220.325
2309.80474	5219.625
2312.66327	5207.625
2315.51999	5192.425
2318.37489	5199.125
2321.22797	5190.825
2324.07925	5190.625
2326.92871	5174.925
2329.77637	5162.125
2332.62222	5152.425
2335.46626	5146.525
2338.3085	5132.825
2341.14893	5143.625
2343.98756	5136.925
2346.8244	5120.525
2349.65943	5139.125
2352.49267	5138.225
2355.32411	5156.325
2358.15376	5151.625
2360.98161	5167.825
2363.80768	5165.625
2366.63195	5182.025
2369.45444	5180.125
2372.27514	5164.725
2375.09405	5163.825
2377.91118	5151.725
2380.72652	5138.025
2383.54009	5100.625
2386.35187	5080.225
2389.16188	5060.525
2391.97011	5017.325
2394.77657	5008.425
2397.58125	4994.625
2400.38416	4989.025
2403.18529	4970.625
2405.98466	4961.725
2408.78226	4949.825
2411.57809	4939.125
2414.37216	4929.425
2417.16446	4937.225
2419.955	4907.025
2422.74378	4920.725
2425.5308	4913.625
2428.31606	4898.525
2431.09956	4892.325
2433.88131	4911.325
2436.6613	4898.525
2439.43954	4888.925
2442.21603	4886.025
2444.99077	4894.125
2447.76377	4896.825
2450.53501	4886.025
2453.30451	4884.525
2456.07226	4881.925
2458.83827	4893.125
2461.60254	4888.925
2464.36507	4888.325
2467.12586	4877.825
2469.88492	4867.025
2472.64224	4872.325
2475.39782	4878.625
2478.15167	4871.625
2480.90379	4876.825
2483.65417	4910.425
2486.40283	4900.625
2489.14976	4893.525
2491.89497	4917.425
2494.63845	4924.925
2497.3802	4911.125
2500.12024	4886.325
2502.85855	4877.625
2505.59514	4861.525
2508.33002	4834.725
2511.06318	4826.225
2513.79462	4810.025
2516.52435	4780.725
2519.25237	4768.925
2521.97867	4754.225
2524.70327	4737.325
2527.42616	4739.125
2530.14734	4728.925
2532.86681	4706.325
2535.58458	4724.225
2538.30065	4709.325
2541.01501	4705.825
2543.72768	4698.825
2546.43864	4705.825
2549.14791	4695.025
2551.85548	4694.825
2554.56136	4676.925
2557.26554	4671.925
2559.96803	4665.225
2562.66883	4660.225
2565.36794	4623.825
2568.06536	4632.225
2570.7611	4616.925
2573.45514	4615.725
2576.14751	4617.225
2578.83819	4596.925
2581.52719	4586.425
2584.21451	4580.325
2586.90015	4586.525
2589.58411	4563.225
2592.2664	4548.625
2594.94701	4543.325
2597.62594	4541.925
2600.30321	4529.025
2602.9788	4520.825
2605.65273	4535.125
2608.32498	4512.725
2610.99557	4509.425
2613.66449	4522.525
2616.33175	4504.925
2618.99734	4511.325
2621.66128	4511.825
2624.32355	4495.025
2626.98416	4491.725
2629.64311	4478.725
2632.30041	4467.925
2634.95605	4470.225
2637.61004	4458.125
2640.26238	4437.625
2642.91306	4441.225
2645.56209	4450.125
2648.20948	4430.725
2650.85521	4431.625
2653.4993	4430.325
2656.14175	4416.125
2658.78255	4433.025
2661.42171	4424.725
2664.05923	4437.025
2666.6951	4443.525
2669.32934	4441.125
2671.96194	4440.025
2674.59291	4439.725
2677.22224	4448.125
2679.84993	4450.525
2682.476	4453.925
2685.10043	4443.425
2687.72324	4449.625
2690.34441	4428.125
2692.96396	4420.525
2695.58188	4441.925
2698.19818	4430.225
2700.81285	4443.725
2703.4259	4441.225
2706.03733	4449.525
2708.64714	4434.625
2711.25533	4449.025
2713.86191	4450.725
2716.46687	4457.425
2719.07021	4460.025
2721.67194	4461.725
2724.27206	4459.125
2726.87057	4444.725
2729.46747	4458.325
2732.06276	4460.125
2734.65644	4434.825
2737.24852	4432.225
2739.83899	4418.225
2742.42786	4412.825
2745.01513	4409.425
2747.60079	4391.625
2750.18486	4398.425
2752.76733	4376.525
2755.3482	4368.725
2757.92747	4372.725
2760.50515	4348.625
2763.08123	4344.025
2765.65573	4329.725
2768.22863	4337.625
2770.79994	4327.125
2773.36967	4331.525
2775.9378	4311.925
2778.50435	4317.725
2781.06932	4307.725
2783.6327	4320.325
2786.1945	4302.325
2788.75471	4319.225
2791.31335	4297.225
2793.87041	4307.225
2796.42589	4295.525
2798.97979	4282.825
2801.53212	4290.425
2804.08288	4305.825
2806.63206	4285.325
2809.17967	4288.825
2811.72571	4275.225
2814.27018	4271.425
2816.81308	4280.125
2819.35442	4270.525
2821.89419	4276.825
2824.43239	4264.425
2826.96904	4256.025
2829.50412	4271.725
2832.03763	4277.225
2834.56959	4286.025
2837.1	4288.125
2839.62884	4298.725
2842.15613	4341.425
2844.68186	4383.725
2847.20604	4428.625
2849.72867	4481.525
2852.24974	4483.125
2854.76927	4488.225
2857.28724	4482.425
2859.80367	4452.825
2862.31855	4424.525
2864.83189	4428.825
2867.34368	4412.625
2869.85393	4408.625
2872.36264	4409.525
2874.8698	4399.925
2877.37543	4399.825
2879.87952	4388.525
2882.38207	4379.925
2884.88308	4368.625
2887.38256	4366.225
2889.88051	4367.025
2892.37692	4364.125
2894.8718	4370.025
2897.36515	4352.725
2899.85698	4376.225
2902.34727	4378.125
2904.83604	4361.225
2907.32328	4385.825
2909.809	4379.225
2912.29319	4373.225
2914.77587	4373.125
2917.25702	4371.325
2919.73665	4358.725
2922.21476	4372.525
2924.69136	4332.025
2927.16644	4357.025
2929.64	4340.125
2932.11205	4337.825
2934.58258	4320.125
2937.05161	4316.825
2939.51912	4294.825
2941.98513	4262.425
2944.44962	4237.325
2946.91261	4198.225
2949.37409	4177.125
2951.83407	4171.625
2954.29254	4152.025
2956.74951	4135.125
2959.20498	4126.725
2961.65895	4131.525
2964.11142	4117.325
2966.56239	4101.625
2969.01186	4091.925
2971.45984	4073.125
2973.90632	4056.125
2976.35131	4063.025
2978.7948	4047.225
2981.23681	4027.925
2983.67732	4020.025
2986.11635	4012.425
2988.55388	3992.225
2990.98993	3988.925
2993.4245	3985.525
2995.85758	3956.525
2998.28917	3948.525
3000.71928	3953.725
3003.14791	3950.725
3005.57506	3950.925
3008.00073	3923.025
3010.42493	3930.925
3012.84764	3920.625
3015.26888	3905.825
3017.68865	3903.925
3020.10694	3911.925
3022.52376	3897.325
3024.9391	3890.125
3027.35298	3878.525
3029.76539	3880.625
3032.17632	3865.125
3034.5858	3875.625
3036.9938	3878.525
3039.40034	3874.025
3041.80542	3857.225
3044.20903	3834.925
3046.61118	3850.225
3049.01187	3834.925
3051.4111	3834.525
3053.80888	3837.825
3056.20519	3829.625
3058.60005	3801.825
3060.99345	3814.625
3063.3854	3802.325
3065.7759	3787.425
3068.16494	3780.025
3070.55254	3790.725
3072.93868	3772.825
3075.32338	3755.825
3077.70662	3742.225
3080.08842	3732.925
3082.46878	3739.125
3084.84769	3737.125
3087.22515	3733.025
3089.60118	3729.725
3091.97576	3718.425
3094.3489	3718.025
3096.72061	3716.725
3099.09087	3720.925
3101.4597	3713.825
3103.82709	3712.225
3106.19305	3702.825
3108.55757	3702.825
3110.92066	3708.825
3113.28232	3686.825
3115.64255	3690.525
3118.00134	3675.225
3120.35871	3671.225
3122.71466	3679.525
3125.06917	3658.925
3127.42226	3664.725
3129.77393	3668.325
3132.12417	3670.725
3134.47299	3675.325
3136.82039	3680.525
3139.16636	3682.125
3141.51092	3667.425
3143.85406	3690.725
3146.19579	3695.225
3148.53609	3700.925
3150.87499	3695.925
3153.21246	3696.325
3155.54853	3714.025
3157.88318	3691.825
3160.21642	3710.025
3162.54826	3712.025
3164.87868	3709.225
3167.2077	3715.425
3169.5353	3722.825
3171.86151	3706.225
3174.18631	3726.025
3176.5097	3716.625
3178.83169	3718.325
3181.15228	3721.225
3183.47147	3711.025
3185.78926	3722.425
3188.10565	3710.925
3190.42065	3714.225
3192.73424	3694.925
3195.04645	3709.325
3197.35725	3704.425
3199.66667	3708.725
3201.97469	3705.225
3204.28132	3723.125
3206.58656	3720.425
3208.8904	3727.425
3211.19287	3738.225
