Data from AgNP_FTO_APTES_UA_10uM_CRN_20uM_R6G_10uM_NaF_0.1M_Addition_RamanShift__12__16-16-50-747.txt Node

Date: Thu Feb 10 16:16:50 GMT 2022
User: TCL
Spectrometer: QEP01345
Trigger mode: 4
Integration Time (sec): 7.000000E0
Scans to average: 10
Electric dark correction enabled: true
Nonlinearity correction enabled: false
Boxcar width: 0
XAxis mode: Raman Shifts
Number of Pixels in Spectrum: 1044
>>>>>Begin Spectral Data<<<<<
46.04893	-0.8875
50.45542	0.5125
54.85868	-1.6875
59.25871	-0.4875
63.6555	67.2125
68.04907	69.2125
72.43941	74.4125
76.82654	72.8125
81.21044	77.2125
85.59113	77.3125
89.96862	83.2125
94.34289	87.0125
98.71396	87.6125
103.08183	93.7125
107.4465	93.2125
111.80798	95.0125
116.16626	97.9125
120.52136	101.3125
124.87327	108.5125
129.222	110.1125
133.56755	120.7125
137.90993	126.0125
142.24913	139.0125
146.58517	155.4125
150.91804	183.0125
155.24774	216.4125
159.57429	270.8125
163.89768	342.7125
168.21792	458.8125
172.53501	626.7125
176.84895	867.3125
181.15975	1218.6125
185.46741	1699.9125
189.77193	2359.6125
194.07331	3151.7125
198.37157	4071.6125
202.6667	5038.9125
206.9587	5981.5125
211.24758	6923.9125
215.53334	7822.7125
219.81599	8783.7125
224.09553	9839.6125
228.37195	10997.1125
232.64527	12265.4125
236.91549	13632.8125
241.18261	15021.8125
245.44663	16327.1125
249.70755	17508.3125
253.96539	18600.1125
258.22014	19492.3125
262.4718	20244.3125
266.72039	20737.3125
270.96589	21010.0125
275.20832	21077.9125
279.44768	21057.8125
283.68397	20968.5125
287.91719	20819.0125
292.14735	20735.3125
296.37445	20701.3125
300.59849	20741.6125
304.81948	20778.9125
309.03742	20737.3125
313.25231	20548.3125
317.46415	20227.8125
321.67296	19776.9125
325.87872	19433.6125
330.08145	19300.8125
334.28114	19294.6125
338.47781	19425.8125
342.67145	19636.1125
346.86207	19813.2125
351.04966	20103.0125
355.23424	20338.0125
359.4158	20538.8125
363.59435	20717.9125
367.76989	20852.9125
371.94243	20958.3125
376.11196	20982.5125
380.27849	21043.3125
384.44203	21122.6125
388.60257	21293.5125
392.76012	21523.9125
396.91468	21861.7125
401.06626	22142.0125
405.21485	22347.2125
409.36047	22334.4125
413.50311	22159.5125
417.64277	21995.4125
421.77947	21999.2125
425.9132	22131.7125
430.04396	22270.5125
434.17176	22430.8125
438.2966	22516.6125
442.41849	22737.7125
446.53742	23074.0125
450.6534	23507.2125
454.76644	23815.6125
458.87653	23993.0125
462.98368	24051.9125
467.08789	24007.1125
471.18916	23865.2125
475.2875	23676.8125
479.38291	23621.3125
483.4754	23519.8125
487.56496	23352.8125
491.6516	23120.5125
495.73531	22833.1125
499.81612	22665.0125
503.89401	22661.7125
507.96899	22733.5125
512.04106	22758.9125
516.11023	22711.7125
520.1765	22566.9125
524.23987	22378.2125
528.30034	22138.4125
532.35792	21980.0125
536.41261	21811.2125
540.46441	21704.8125
544.51333	21764.8125
548.55936	22022.1125
552.60252	22351.3125
556.64279	22777.8125
560.6802	23059.5125
564.71473	23290.3125
568.7464	23731.9125
572.7752	24381.2125
576.80114	25177.3125
580.82422	25916.2125
584.84444	26338.0125
588.86181	26594.9125
592.87633	26770.7125
596.888	26649.6125
600.89682	26062.8125
604.9028	26028.1125
608.90594	26874.0125
612.90624	27666.0125
616.90371	26119.9125
620.89834	23491.2125
624.89015	22422.5125
628.87913	22365.6125
632.86528	22570.8125
636.84862	22668.8125
640.82913	22372.0125
644.80683	22001.9125
648.78172	21640.0125
652.75379	21572.5125
656.72306	21706.1125
660.68952	21911.9125
664.65319	21863.2125
668.61405	21723.3125
672.57211	21736.4125
676.52738	21760.1125
680.47986	21757.9125
684.42955	21652.6125
688.37646	21637.5125
692.32058	21698.0125
696.26192	21886.6125
700.20048	22090.9125
704.13626	22255.3125
708.06928	22381.1125
711.99952	22326.0125
715.927	22233.6125
719.85171	22140.4125
723.77365	22025.4125
727.69284	21816.2125
731.60928	21585.7125
735.52295	21433.4125
739.43388	21357.3125
743.34206	21392.4125
747.24749	21504.3125
751.15017	21696.5125
755.05012	22020.1125
758.94733	22544.7125
762.8418	23355.2125
766.73354	24533.5125
770.62254	25495.9125
774.50882	25562.1125
778.39237	24616.8125
782.27321	23457.4125
786.15132	22521.5125
790.02671	21900.6125
793.89938	21521.4125
797.76935	21379.4125
801.6366	21236.7125
805.50115	21198.7125
809.36299	21103.5125
813.22213	21013.5125
817.07857	20978.7125
820.93231	20992.6125
824.78336	20959.3125
828.63172	20854.1125
832.47738	20806.1125
836.32036	20778.7125
840.16066	20752.1125
843.99827	20758.7125
847.8332	20783.9125
851.66546	20787.4125
855.49504	20852.5125
859.32195	20854.1125
863.1462	20840.9125
866.96777	20762.3125
870.78668	20753.3125
874.60293	20753.0125
878.41652	20752.0125
882.22745	20804.7125
886.03573	20835.7125
889.84136	20835.2125
893.64433	20759.2125
897.44466	20722.1125
901.24235	20706.4125
905.0374	20705.4125
908.8298	20710.0125
912.61957	20769.9125
916.40671	20973.5125
920.19121	21203.5125
923.97308	21330.9125
927.75233	21206.5125
931.52895	20974.8125
935.30295	20726.1125
939.07433	20417.6125
942.84309	20198.2125
946.60924	20111.1125
950.37278	20072.6125
954.13371	20055.0125
957.89203	19994.1125
961.64774	19999.0125
965.40086	19999.3125
969.15137	19959.1125
972.89929	19924.1125
976.64461	19819.3125
980.38733	19790.1125
984.12747	19755.1125
987.86502	19840.8125
991.59999	19896.5125
995.33237	19965.9125
999.06217	20193.8125
1002.78939	20429.4125
1006.51404	20699.9125
1010.23611	20972.3125
1013.95561	21115.4125
1017.67255	21141.0125
1021.38692	21002.3125
1025.09872	20825.9125
1028.80796	20657.5125
1032.51465	20538.1125
1036.21877	20552.3125
1039.92035	20617.4125
1043.61937	20725.8125
1047.31584	20785.7125
1051.00976	20870.8125
1054.70114	21005.0125
1058.38998	21194.8125
1062.07627	21485.7125
1065.76003	21763.4125
1069.44126	21969.4125
1073.11995	22229.3125
1076.79611	22417.6125
1080.46974	22507.9125
1084.14085	22569.9125
1087.80943	22727.5125
1091.47549	22942.6125
1095.13903	22969.5125
1098.80005	22832.6125
1102.45857	22438.1125
1106.11456	22019.5125
1109.76805	21756.3125
1113.41903	21678.7125
1117.06751	21696.0125
1120.71348	21808.7125
1124.35696	21994.5125
1127.99793	22177.3125
1131.63641	22298.2125
1135.2724	22282.3125
1138.90589	22297.7125
1142.5369	22334.4125
1146.16542	22463.4125
1149.79145	22604.1125
1153.415	22888.4125
1157.03607	23156.9125
1160.65467	23576.0125
1164.27079	24322.5125
1167.88443	25215.7125
1171.49561	26197.6125
1175.10432	27328.0125
1178.71056	28743.0125
1182.31434	30101.7125
1185.91565	30950.6125
1189.51451	31372.9125
1193.11091	31289.5125
1196.70485	30686.7125
1200.29634	29738.0125
1203.88538	28966.2125
1207.47197	28548.6125
1211.05612	28310.4125
1214.63782	27930.6125
1218.21708	27246.8125
1221.79391	26498.1125
1225.36829	25826.3125
1228.94024	25451.6125
1232.50976	25319.9125
1236.07685	25217.1125
1239.6415	25228.3125
1243.20374	25247.1125
1246.76355	25385.1125
1250.32093	25654.0125
1253.8759	26070.8125
1257.42845	26633.4125
1260.97859	27275.7125
1264.52631	27868.4125
1268.07163	28485.3125
1271.61453	29034.3125
1275.15503	29590.6125
1278.69312	30144.5125
1282.22882	30791.9125
1285.76211	31538.9125
1289.29301	32415.0125
1292.82151	33395.7125
1296.34761	34673.1125
1299.87133	36064.7125
1303.39266	37366.2125
1306.9116	38430.8125
1310.42815	39089.8125
1313.94233	39421.1125
1317.45412	39362.1125
1320.96354	39303.1125
1324.47058	39395.7125
1327.97525	39613.4125
1331.47754	39962.2125
1334.97747	40229.5125
1338.47502	40696.9125
1341.97022	41058.8125
1345.46305	41221.7125
1348.95352	41095.3125
1352.44163	40448.1125
1355.92738	39790.8125
1359.41078	39497.3125
1362.89183	39272.7125
1366.37053	38325.2125
1369.84688	36299.1125
1373.32088	33898.8125
1376.79254	32131.1125
1380.26186	31470.2125
1383.72883	31418.2125
1387.19347	31493.3125
1390.65578	31424.4125
1394.11575	31222.4125
1397.57339	31252.6125
1401.0287	31303.2125
1404.48168	31364.1125
1407.93234	31075.9125
1411.38068	30501.2125
1414.82669	29650.3125
1418.27039	28647.8125
1421.71177	27723.6125
1425.15083	26992.5125
1428.58758	26686.0125
1432.02203	26779.6125
1435.45416	27209.4125
1438.88399	27879.5125
1442.31151	28389.7125
1445.73673	28747.3125
1449.15965	29153.0125
1452.58027	29416.5125
1455.9986	29701.5125
1459.41463	30013.0125
1462.82837	30392.4125
1466.23982	30785.9125
1469.64898	31127.4125
1473.05586	31322.5125
1476.46045	31260.7125
1479.86276	31177.9125
1483.26279	31000.4125
1486.66054	30900.0125
1490.05602	30969.2125
1493.44922	31287.1125
1496.84016	31829.1125
1500.22882	32553.6125
1503.61521	33482.3125
1506.99934	34359.7125
1510.38121	34985.8125
1513.76081	35055.3125
1517.13816	34714.0125
1520.51324	34195.4125
1523.88607	33911.8125
1527.25665	33874.8125
1530.62498	33775.8125
1533.99105	33581.5125
1537.35488	33057.6125
1540.71647	32330.4125
1544.07581	31449.0125
1547.4329	30644.9125
1550.78776	29951.2125
1554.14038	29554.1125
1557.49077	29344.6125
1560.83892	29186.1125
1564.18484	29202.0125
1567.52853	29240.3125
1570.86999	29384.7125
1574.20922	29763.7125
1577.54624	30179.0125
1580.88103	30360.7125
1584.2136	30431.9125
1587.54395	30856.2125
1590.87208	31598.8125
1594.19801	32598.7125
1597.52172	33502.8125
1600.84321	33500.9125
1604.16251	32442.0125
1607.47959	30823.0125
1610.79447	29090.5125
1614.10715	27362.4125
1617.41763	25841.0125
1620.7259	24657.8125
1624.03199	24043.3125
1627.33587	23867.2125
1630.63757	24278.6125
1633.93707	25340.6125
1637.23439	27220.8125
1640.52951	29926.5125
1643.82246	32991.7125
1647.11321	35470.0125
1650.40179	36056.9125
1653.68819	34383.6125
1656.97241	31010.7125
1660.25446	27523.1125
1663.53433	24678.6125
1666.81203	22621.3125
1670.08756	21285.6125
1673.36092	20468.7125
1676.63211	19895.0125
1679.90115	19510.3125
1683.16801	19216.1125
1686.43272	18988.1125
1689.69527	18831.7125
1692.95567	18693.5125
1696.2139	18615.9125
1699.46999	18570.7125
1702.72392	18459.7125
1705.97571	18374.5125
1709.22535	18338.8125
1712.47284	18299.9125
1715.71819	18251.3125
1718.96139	18175.4125
1722.20246	18188.9125
1725.44139	18077.8125
1728.67818	17950.7125
1731.91284	17860.7125
1735.14537	17793.5125
1738.37576	17700.4125
1741.60403	17637.4125
1744.83017	17573.7125
1748.05418	17531.7125
1751.27607	17512.7125
1754.49584	17455.9125
1757.71349	17479.3125
1760.92903	17437.5125
1764.14244	17410.5125
1767.35375	17399.3125
1770.56294	17380.8125
1773.77002	17339.4125
1776.97499	17300.1125
1780.17785	17237.8125
1783.37861	17210.0125
1786.57727	17184.9125
1789.77382	17142.8125
1792.96828	17130.3125
1796.16064	17106.9125
1799.3509	17037.5125
1802.53907	17014.7125
1805.72514	16972.7125
1808.90913	16918.3125
1812.09102	16900.8125
1815.27083	16854.1125
1818.44856	16814.4125
1821.6242	16806.3125
1824.79776	16792.1125
1827.96924	16768.5125
1831.13864	16757.8125
1834.30597	16772.3125
1837.47122	16744.9125
1840.6344	16750.3125
1843.7955	16738.2125
1846.95454	16717.6125
1850.11151	16706.4125
1853.26642	16703.1125
1856.41926	16693.4125
1859.57004	16673.5125
1862.71876	16618.0125
1865.86542	16601.9125
1869.01003	16559.0125
1872.15258	16535.9125
1875.29308	16528.7125
1878.43152	16473.6125
1881.56792	16471.4125
1884.70227	16417.4125
1887.83457	16402.9125
1890.96482	16378.8125
1894.09304	16351.1125
1897.21921	16325.8125
1900.34335	16309.9125
1903.46544	16270.1125
1906.58551	16236.5125
1909.70353	16255.7125
1912.81953	16164.6125
1915.93349	16199.6125
1919.04543	16143.5125
1922.15534	16102.9125
1925.26322	16079.8125
1928.36908	16029.3125
1931.47292	16009.9125
1934.57473	15984.5125
1937.67453	15941.7125
1940.77232	15900.0125
1943.86808	15870.4125
1946.96184	15815.9125
1950.05358	15750.6125
1953.14331	15685.1125
1956.23103	15648.7125
1959.31675	15599.7125
1962.40046	15544.4125
1965.48217	15529.8125
1968.56188	15457.7125
1971.63959	15426.2125
1974.7153	15361.3125
1977.78901	15282.3125
1980.86073	15257.4125
1983.93046	15221.5125
1986.99819	15168.3125
1990.06394	15154.2125
1993.1277	15079.6125
1996.18947	15026.7125
1999.24925	14985.3125
2002.30706	14952.3125
2005.36288	14902.6125
2008.41672	14851.8125
2011.46859	14784.5125
2014.51848	14791.8125
2017.56639	14728.6125
2020.61233	14701.6125
2023.6563	14651.3125
2026.6983	14605.2125
2029.73833	14601.2125
2032.7764	14510.1125
2035.8125	14492.8125
2038.84664	14453.0125
2041.87881	14418.5125
2044.90903	14386.8125
2047.93729	14357.4125
2050.96359	14333.0125
2053.98794	14292.2125
2057.01034	14276.5125
2060.03078	14292.2125
2063.04927	14263.7125
2066.06582	14223.4125
2069.08042	14249.9125
2072.09307	14223.7125
2075.10378	14252.0125
2078.11255	14226.2125
2081.11938	14228.4125
2084.12426	14173.9125
2087.12722	14197.1125
2090.12824	14184.4125
2093.12732	14181.2125
2096.12447	14174.9125
2099.11969	14173.2125
2102.11299	14154.5125
2105.10435	14157.0125
2108.09379	14159.8125
2111.08131	14181.5125
2114.0669	14163.1125
2117.05057	14167.3125
2120.03233	14195.1125
2123.01216	14207.1125
2125.99008	14214.2125
2128.96609	14238.8125
2131.94018	14213.3125
2134.91236	14235.3125
2137.88263	14227.1125
2140.851	14248.1125
2143.81746	14220.7125
2146.78201	14214.2125
2149.74466	14222.5125
2152.7054	14211.3125
2155.66425	14221.2125
2158.6212	14204.9125
2161.57625	14208.5125
2164.52941	14194.3125
2167.48067	14222.0125
2170.43004	14183.9125
2173.37752	14133.3125
2176.32311	14169.4125
2179.26681	14158.9125
2182.20863	14157.5125
2185.14856	14143.0125
2188.08661	14132.1125
2191.02278	14118.5125
2193.95707	14150.0125
2196.88948	14113.8125
2199.82001	14108.7125
2202.74867	14057.5125
2205.67545	14059.8125
2208.60037	14014.9125
2211.52341	14010.4125
2214.44458	13989.4125
2217.36388	13943.0125
2220.28132	13922.6125
2223.1969	13900.9125
2226.11061	13867.9125
2229.02246	13834.6125
2231.93245	13816.2125
2234.84058	13787.7125
2237.74686	13730.0125
2240.65128	13746.0125
2243.55385	13752.0125
2246.45456	13711.3125
2249.35343	13700.2125
2252.25044	13665.5125
2255.14561	13658.3125
2258.03893	13624.3125
2260.93041	13608.9125
2263.82004	13519.1125
2266.70783	13525.9125
2269.59378	13439.9125
2272.4779	13415.6125
2275.36017	13378.9125
2278.24061	13339.8125
2281.11922	13363.7125
2283.996	13317.5125
2286.87094	13309.5125
2289.74405	13262.5125
2292.61534	13243.9125
2295.4848	13236.4125
2298.35243	13225.5125
2301.21824	13214.4125
2304.08223	13210.6125
2306.94439	13209.2125
2309.80474	13193.5125
2312.66327	13206.4125
2315.51999	13154.7125
2318.37489	13141.8125
2321.22797	13105.2125
2324.07925	13094.3125
2326.92871	13059.3125
2329.77637	13048.8125
2332.62222	13022.6125
2335.46626	12995.4125
2338.3085	12979.8125
2341.14893	12979.7125
2343.98756	12961.4125
2346.8244	12956.5125
2349.65943	12942.1125
2352.49267	12969.6125
2355.32411	12947.7125
2358.15376	12927.1125
2360.98161	12951.7125
2363.80768	12957.2125
2366.63195	12945.1125
2369.45444	12918.4125
2372.27514	12900.6125
2375.09405	12906.0125
2377.91118	12837.4125
2380.72652	12812.7125
2383.54009	12804.9125
2386.35187	12765.0125
2389.16188	12715.4125
2391.97011	12706.2125
2394.77657	12661.3125
2397.58125	12647.8125
2400.38416	12643.5125
2403.18529	12625.0125
2405.98466	12598.6125
2408.78226	12593.0125
2411.57809	12559.8125
2414.37216	12555.9125
2417.16446	12551.2125
2419.955	12510.9125
2422.74378	12509.0125
2425.5308	12515.2125
2428.31606	12508.9125
2431.09956	12493.0125
2433.88131	12486.5125
2436.6613	12468.7125
2439.43954	12463.3125
2442.21603	12429.0125
2444.99077	12444.9125
2447.76377	12446.5125
2450.53501	12414.8125
2453.30451	12415.3125
2456.07226	12378.0125
2458.83827	12382.0125
2461.60254	12373.4125
2464.36507	12356.6125
2467.12586	12332.3125
2469.88492	12277.5125
2472.64224	12325.7125
2475.39782	12332.2125
2478.15167	12329.1125
2480.90379	12311.6125
2483.65417	12303.8125
2486.40283	12336.3125
2489.14976	12306.6125
2491.89497	12312.3125
2494.63845	12306.4125
2497.3802	12297.0125
2500.12024	12276.2125
2502.85855	12260.5125
2505.59514	12257.1125
2508.33002	12232.2125
2511.06318	12243.3125
2513.79462	12215.8125
2516.52435	12199.2125
2519.25237	12205.6125
2521.97867	12203.7125
2524.70327	12168.0125
2527.42616	12164.5125
2530.14734	12139.2125
2532.86681	12139.6125
2535.58458	12131.3125
2538.30065	12104.2125
2541.01501	12119.0125
2543.72768	12094.2125
2546.43864	12075.1125
2549.14791	12064.6125
2551.85548	12036.2125
2554.56136	12033.7125
2557.26554	12009.6125
2559.96803	12004.2125
2562.66883	11939.5125
2565.36794	11923.9125
2568.06536	11911.8125
2570.7611	11899.2125
2573.45514	11880.4125
2576.14751	11876.2125
2578.83819	11848.9125
2581.52719	11830.1125
2584.21451	11796.0125
2586.90015	11787.0125
2589.58411	11780.1125
2592.2664	11776.3125
2594.94701	11760.6125
2597.62594	11746.5125
2600.30321	11720.6125
2602.9788	11717.5125
2605.65273	11698.4125
2608.32498	11712.8125
2610.99557	11694.6125
2613.66449	11692.7125
2616.33175	11676.0125
2618.99734	11684.0125
2621.66128	11654.0125
2624.32355	11621.4125
2626.98416	11636.7125
2629.64311	11602.1125
2632.30041	11605.4125
2634.95605	11553.4125
2637.61004	11540.8125
2640.26238	11518.4125
2642.91306	11538.5125
2645.56209	11538.8125
2648.20948	11515.0125
2650.85521	11519.7125
2653.4993	11547.5125
2656.14175	11493.8125
2658.78255	11551.8125
2661.42171	11525.0125
2664.05923	11514.1125
2666.6951	11540.2125
2669.32934	11552.9125
2671.96194	11558.1125
2674.59291	11551.5125
2677.22224	11540.2125
2679.84993	11556.3125
2682.476	11535.6125
2685.10043	11536.1125
2687.72324	11532.6125
2690.34441	11530.8125
2692.96396	11553.8125
2695.58188	11480.8125
2698.19818	11518.3125
2700.81285	11547.3125
2703.4259	11541.0125
2706.03733	11552.7125
2708.64714	11509.3125
2711.25533	11542.4125
2713.86191	11510.8125
2716.46687	11536.4125
2719.07021	11521.0125
2721.67194	11524.8125
2724.27206	11529.0125
2726.87057	11549.3125
2729.46747	11567.4125
2732.06276	11537.8125
2734.65644	11546.9125
2737.24852	11525.3125
2739.83899	11499.1125
2742.42786	11511.2125
2745.01513	11507.5125
2747.60079	11492.9125
2750.18486	11470.1125
2752.76733	11452.2125
2755.3482	11441.3125
2757.92747	11439.5125
2760.50515	11421.9125
2763.08123	11404.3125
2765.65573	11359.6125
2768.22863	11387.1125
2770.79994	11399.5125
2773.36967	11364.8125
2775.9378	11391.2125
2778.50435	11371.8125
2781.06932	11342.8125
2783.6327	11358.6125
2786.1945	11329.3125
2788.75471	11323.5125
2791.31335	11298.4125
2793.87041	11306.3125
2796.42589	11276.1125
2798.97979	11262.0125
2801.53212	11248.5125
2804.08288	11227.6125
2806.63206	11200.9125
2809.17967	11170.5125
2811.72571	11149.9125
2814.27018	11127.5125
2816.81308	11094.4125
2819.35442	11060.3125
2821.89419	11034.6125
2824.43239	11033.8125
2826.96904	10994.2125
2829.50412	11015.6125
2832.03763	10991.2125
2834.56959	10955.5125
2837.1	10952.8125
2839.62884	10958.7125
2842.15613	10933.7125
2844.68186	10955.1125
2847.20604	10953.4125
2849.72867	10950.7125
2852.24974	10929.8125
2854.76927	10918.8125
2857.28724	10901.3125
2859.80367	10882.1125
2862.31855	10856.6125
2864.83189	10836.9125
2867.34368	10814.0125
2869.85393	10781.3125
2872.36264	10804.8125
2874.8698	10775.9125
2877.37543	10796.5125
2879.87952	10775.5125
2882.38207	10756.3125
2884.88308	10767.0125
2887.38256	10795.8125
2889.88051	10764.1125
2892.37692	10754.9125
2894.8718	10762.8125
2897.36515	10770.4125
2899.85698	10763.0125
2902.34727	10770.8125
2904.83604	10764.0125
2907.32328	10774.3125
2909.809	10775.0125
2912.29319	10789.6125
2914.77587	10776.9125
2917.25702	10773.8125
2919.73665	10765.0125
2922.21476	10758.7125
2924.69136	10752.3125
2927.16644	10732.7125
2929.64	10726.9125
2932.11205	10731.2125
2934.58258	10698.8125
2937.05161	10686.9125
2939.51912	10691.1125
2941.98513	10669.6125
2944.44962	10644.2125
2946.91261	10643.6125
2949.37409	10648.8125
2951.83407	10633.9125
2954.29254	10622.1125
2956.74951	10605.0125
2959.20498	10578.2125
2961.65895	10578.1125
2964.11142	10598.1125
2966.56239	10577.6125
2969.01186	10584.8125
2971.45984	10534.6125
2973.90632	10540.5125
2976.35131	10510.4125
2978.7948	10516.5125
2981.23681	10492.3125
2983.67732	10456.8125
2986.11635	10431.9125
2988.55388	10435.6125
2990.98993	10408.5125
2993.4245	10371.4125
2995.85758	10324.0125
2998.28917	10291.9125
3000.71928	10258.1125
3003.14791	10249.1125
3005.57506	10219.4125
3008.00073	10202.4125
3010.42493	10069.9125
3012.84764	10129.4125
3015.26888	10151.5125
3017.68865	10100.4125
3020.10694	10101.5125
3022.52376	10050.2125
3024.9391	10072.4125
