Data from AgNP_FTO_APTES_UA_10uM_CRN_500uM_R6G_10uM_NaF_0.1M_Addition_RamanShift__27__19-11-50-963.txt Node

Date: Thu Feb 10 19:11:50 GMT 2022
User: TCL
Spectrometer: QEP01345
Trigger mode: 4
Integration Time (sec): 7.000000E0
Scans to average: 10
Electric dark correction enabled: true
Nonlinearity correction enabled: false
Boxcar width: 0
XAxis mode: Raman Shifts
Number of Pixels in Spectrum: 1044
>>>>>Begin Spectral Data<<<<<
46.04893	0.775
50.45542	0.275
54.85868	-3.125
59.25871	-1.425
63.6555	69.175
68.04907	70.875
72.43941	70.775
76.82654	74.575
81.21044	81.675
85.59113	82.275
89.96862	86.575
94.34289	88.075
98.71396	90.675
103.08183	92.975
107.4465	98.675
111.80798	97.275
116.16626	101.075
120.52136	103.475
124.87327	106.475
129.222	112.775
133.56755	123.775
137.90993	134.575
142.24913	141.775
146.58517	161.975
150.91804	192.475
155.24774	227.275
159.57429	281.375
163.89768	364.075
168.21792	486.275
172.53501	662.775
176.84895	921.275
181.15975	1306.175
185.46741	1821.775
189.77193	2534.875
194.07331	3378.875
198.37157	4388.675
202.6667	5434.575
206.9587	6455.175
211.24758	7475.175
215.53334	8535.075
219.81599	9674.175
224.09553	10907.175
228.37195	12273.075
232.64527	13762.375
236.91549	15341.275
241.18261	16893.075
245.44663	18271.575
249.70755	19495.175
253.96539	20529.975
258.22014	21425.775
262.4718	22223.975
266.72039	22826.075
270.96589	23156.075
275.20832	23224.175
279.44768	23080.775
283.68397	22815.775
287.91719	22551.575
292.14735	22486.675
296.37445	22671.175
300.59849	22993.175
304.81948	23443.875
309.03742	23665.775
313.25231	23438.875
317.46415	22708.675
321.67296	21600.575
325.87872	20690.675
330.08145	20357.875
334.28114	20328.375
338.47781	20573.175
342.67145	20932.875
346.86207	21515.275
351.04966	22299.475
355.23424	23173.575
359.4158	23895.875
363.59435	24318.675
367.76989	24534.975
371.94243	24675.575
376.11196	24716.575
380.27849	24742.475
384.44203	24746.475
388.60257	24616.475
392.76012	24625.075
396.91468	24765.775
401.06626	25205.275
405.21485	25548.075
409.36047	25376.775
413.50311	24643.275
417.64277	23929.775
421.77947	23598.775
425.9132	23531.875
430.04396	23648.975
434.17176	23836.175
438.2966	24126.475
442.41849	24641.475
446.53742	25338.975
450.6534	25995.475
454.76644	26515.375
458.87653	26665.275
462.98368	26491.875
467.08789	26149.975
471.18916	25769.275
475.2875	25434.075
479.38291	25162.075
483.4754	24921.675
487.56496	24593.475
491.6516	24193.975
495.73531	23874.275
499.81612	23716.275
503.89401	23827.375
507.96899	23974.375
512.04106	24128.275
516.11023	24297.875
520.1765	24401.075
524.23987	24359.275
528.30034	24061.875
532.35792	23833.275
536.41261	23563.075
540.46441	23288.775
544.51333	23190.675
548.55936	23342.375
552.60252	23737.675
556.64279	24253.875
560.6802	24589.575
564.71473	24875.375
568.7464	25533.275
572.7752	26129.375
576.80114	25814.675
580.82422	25136.575
584.84444	24897.975
588.86181	24985.375
592.87633	25303.275
596.888	25591.075
600.89682	25818.175
604.9028	27161.175
608.90594	31287.475
612.90624	37113.475
616.90371	36032.475
620.89834	28172.275
624.89015	24440.075
628.87913	23709.675
632.86528	23726.775
636.84862	23871.975
640.82913	23630.275
644.80683	22973.475
648.78172	22502.175
652.75379	22522.475
656.72306	22943.075
660.68952	23637.675
664.65319	23594.775
668.61405	22937.075
672.57211	22621.275
676.52738	22615.375
680.47986	22629.575
684.42955	22564.175
688.37646	22527.675
692.32058	22608.475
696.26192	22715.975
700.20048	22962.875
704.13626	23055.875
708.06928	23036.375
711.99952	22837.375
715.927	22777.475
719.85171	22857.375
723.77365	22840.075
727.69284	22700.575
731.60928	22561.175
735.52295	22515.875
739.43388	22539.975
743.34206	22645.075
747.24749	22684.075
751.15017	22798.575
755.05012	23078.175
758.94733	23757.075
762.8418	25169.275
766.73354	27613.175
770.62254	30342.775
774.50882	31721.275
778.39237	30579.475
782.27321	27679.875
786.15132	25021.475
790.02671	23455.575
793.89938	22730.875
797.76935	22462.375
801.6366	22352.375
805.50115	22278.575
809.36299	22205.275
813.22213	22132.275
817.07857	22116.775
820.93231	22123.975
824.78336	22150.875
828.63172	22216.375
832.47738	22228.075
836.32036	22208.675
840.16066	22128.575
843.99827	22102.575
847.8332	22061.575
851.66546	22016.075
855.49504	22022.175
859.32195	21999.075
863.1462	21946.075
866.96777	21907.875
870.78668	21876.275
874.60293	21869.175
878.41652	21929.075
882.22745	21928.975
886.03573	22007.075
889.84136	21982.875
893.64433	21899.675
897.44466	21849.575
901.24235	21785.775
905.0374	21734.275
908.8298	21687.175
912.61957	21675.675
916.40671	21737.375
920.19121	21862.875
923.97308	21988.275
927.75233	22069.875
931.52895	22230.175
935.30295	22054.875
939.07433	21639.475
942.84309	21308.575
946.60924	21123.375
950.37278	20986.475
954.13371	20880.075
957.89203	20816.375
961.64774	20775.375
965.40086	20743.875
969.15137	20666.575
972.89929	20539.575
976.64461	20546.675
980.38733	20545.375
984.12747	20620.375
987.86502	20699.875
991.59999	20865.275
995.33237	21128.875
999.06217	21531.275
1002.78939	22089.275
1006.51404	22464.975
1010.23611	22703.075
1013.95561	22862.175
1017.67255	22894.875
1021.38692	22620.575
1025.09872	22427.975
1028.80796	22381.875
1032.51465	22570.775
1036.21877	22896.775
1039.92035	22947.575
1043.61937	22771.475
1047.31584	22478.275
1051.00976	22214.075
1054.70114	22065.375
1058.38998	22041.175
1062.07627	22098.575
1065.76003	22171.775
1069.44126	22185.375
1073.11995	22249.675
1076.79611	22423.375
1080.46974	22592.175
1084.14085	22896.275
1087.80943	23292.475
1091.47549	23508.575
1095.13903	23340.775
1098.80005	22935.675
1102.45857	22548.575
1106.11456	22423.775
1109.76805	22466.575
1113.41903	22732.175
1117.06751	23176.375
1120.71348	23691.575
1124.35696	24157.575
1127.99793	24616.575
1131.63641	24645.175
1135.2724	24054.775
1138.90589	23447.575
1142.5369	23065.475
1146.16542	22883.575
1149.79145	22767.875
1153.415	22829.175
1157.03607	22999.675
1160.65467	23345.875
1164.27079	23992.775
1167.88443	25021.275
1171.49561	26418.175
1175.10432	28660.675
1178.71056	31520.775
1182.31434	33933.875
1185.91565	34944.075
1189.51451	34546.175
1193.11091	33154.675
1196.70485	31521.875
1200.29634	30090.675
1203.88538	29049.775
1207.47197	27882.575
1211.05612	26933.475
1214.63782	26384.075
1218.21708	26220.675
1221.79391	26183.675
1225.36829	26088.575
1228.94024	25819.575
1232.50976	25500.375
1236.07685	25326.675
1239.6415	25333.575
1243.20374	25522.875
1246.76355	25689.975
1250.32093	26012.375
1253.8759	26488.575
1257.42845	27148.775
1260.97859	27723.575
1264.52631	28311.175
1268.07163	28915.675
1271.61453	29468.975
1275.15503	29957.875
1278.69312	30356.475
1282.22882	30610.675
1285.76211	31032.875
1289.29301	31696.675
1292.82151	32591.075
1296.34761	33715.375
1299.87133	35231.475
1303.39266	37432.775
1306.9116	40481.475
1310.42815	43836.875
1313.94233	46093.875
1317.45412	45941.275
1320.96354	44204.475
1324.47058	42050.075
1327.97525	40142.975
1331.47754	38934.275
1334.97747	38524.275
1338.47502	38908.075
1341.97022	39560.775
1345.46305	39982.375
1348.95352	40339.675
1352.44163	41136.175
1355.92738	42850.575
1359.41078	46161.675
1362.89183	49828.775
1366.37053	48922.675
1369.84688	43221.475
1373.32088	37332.175
1376.79254	33591.975
1380.26186	31946.375
1383.72883	31382.675
1387.19347	31109.675
1390.65578	30748.975
1394.11575	30560.875
1397.57339	30765.575
1401.0287	31304.075
1404.48168	32028.675
1407.93234	32516.275
1411.38068	32688.975
1414.82669	32330.975
1418.27039	31425.675
1421.71177	30314.075
1425.15083	29295.775
1428.58758	28655.475
1432.02203	28598.275
1435.45416	28885.075
1438.88399	29221.575
1442.31151	29439.975
1445.73673	29764.675
1449.15965	30183.775
1452.58027	30432.875
1455.9986	30509.775
1459.41463	30614.875
1462.82837	30946.375
1466.23982	31398.375
1469.64898	31982.675
1473.05586	32276.975
1476.46045	32273.175
1479.86276	32320.775
1483.26279	32438.775
1486.66054	32597.775
1490.05602	32995.175
1493.44922	33460.375
1496.84016	34031.775
1500.22882	35198.975
1503.61521	37143.575
1506.99934	39752.775
1510.38121	42528.575
1513.76081	44041.175
1517.13816	42843.075
1520.51324	39561.275
1523.88607	36024.975
1527.25665	33583.675
1530.62498	32312.475
1533.99105	31672.475
1537.35488	31356.575
1540.71647	31173.775
1544.07581	31045.775
1547.4329	30958.075
1550.78776	30720.275
1554.14038	30506.575
1557.49077	30537.075
1560.83892	30725.375
1564.18484	31009.275
1567.52853	31280.475
1570.86999	31529.575
1574.20922	31731.675
1577.54624	31712.375
1580.88103	31181.275
1584.2136	30459.975
1587.54395	30430.875
1590.87208	31324.475
1594.19801	33061.475
1597.52172	35053.175
1600.84321	36099.275
1604.16251	35229.175
1607.47959	33098.575
1610.79447	30562.275
1614.10715	28090.575
1617.41763	26185.975
1620.7259	24897.275
1624.03199	24223.775
1627.33587	24166.975
1630.63757	24608.375
1633.93707	25682.775
1637.23439	27331.175
1640.52951	29672.775
1643.82246	32516.075
1647.11321	35410.275
1650.40179	37026.275
1653.68819	35749.275
1656.97241	31843.475
1660.25446	27527.175
1663.53433	24464.875
1666.81203	22514.575
1670.08756	21313.875
1673.36092	20613.975
1676.63211	20127.275
1679.90115	19813.875
1683.16801	19543.875
1686.43272	19359.775
1689.69527	19225.075
1692.95567	19126.275
1696.2139	19047.275
1699.46999	19030.075
1702.72392	18981.675
1705.97571	18925.675
1709.22535	18909.975
1712.47284	18872.775
1715.71819	18844.075
1718.96139	18864.375
1722.20246	18778.675
1725.44139	18770.175
1728.67818	18658.875
1731.91284	18547.675
1735.14537	18442.775
1738.37576	18369.475
1741.60403	18297.575
1744.83017	18301.875
1748.05418	18280.775
1751.27607	18234.675
1754.49584	18188.875
1757.71349	18139.275
1760.92903	18143.275
1764.14244	18161.575
1767.35375	18129.675
1770.56294	18116.675
1773.77002	18057.675
1776.97499	18044.075
1780.17785	18004.175
1783.37861	17953.075
1786.57727	17920.375
1789.77382	17884.575
1792.96828	17854.775
1796.16064	17807.275
1799.3509	17806.975
1802.53907	17769.675
1805.72514	17745.175
1808.90913	17691.275
1812.09102	17658.475
1815.27083	17615.875
1818.44856	17570.375
1821.6242	17554.275
1824.79776	17514.875
1827.96924	17516.675
1831.13864	17480.475
1834.30597	17475.975
1837.47122	17453.175
1840.6344	17453.475
1843.7955	17441.475
1846.95454	17443.075
1850.11151	17409.275
1853.26642	17395.875
1856.41926	17403.875
1859.57004	17382.475
1862.71876	17382.375
1865.86542	17384.675
1869.01003	17339.075
1872.15258	17363.975
1875.29308	17366.975
1878.43152	17334.375
1881.56792	17353.575
1884.70227	17330.375
1887.83457	17320.575
1890.96482	17282.075
1894.09304	17277.575
1897.21921	17256.775
1900.34335	17268.075
1903.46544	17263.875
1906.58551	17282.475
1909.70353	17214.875
1912.81953	17207.475
1915.93349	17196.775
1919.04543	17197.375
1922.15534	17133.575
1925.26322	17103.275
1928.36908	17073.275
1931.47292	17022.675
1934.57473	17002.275
1937.67453	16950.775
1940.77232	16921.675
1943.86808	16878.575
1946.96184	16787.175
1950.05358	16781.075
1953.14331	16699.675
1956.23103	16643.075
1959.31675	16621.075
1962.40046	16560.775
1965.48217	16527.375
1968.56188	16467.775
1971.63959	16443.175
1974.7153	16369.375
1977.78901	16325.875
1980.86073	16269.675
1983.93046	16246.675
1986.99819	16181.575
1990.06394	16086.775
1993.1277	16081.875
1996.18947	16008.875
1999.24925	15972.175
2002.30706	15936.975
2005.36288	15884.875
2008.41672	15825.875
2011.46859	15804.675
2014.51848	15746.075
2017.56639	15743.775
2020.61233	15680.275
2023.6563	15627.975
2026.6983	15571.575
2029.73833	15579.475
2032.7764	15527.175
2035.8125	15507.075
2038.84664	15495.775
2041.87881	15444.875
2044.90903	15397.775
2047.93729	15369.875
2050.96359	15352.175
2053.98794	15335.675
2057.01034	15335.675
2060.03078	15318.775
2063.04927	15266.775
2066.06582	15272.075
2069.08042	15287.475
2072.09307	15271.275
2075.10378	15221.975
2078.11255	15216.175
2081.11938	15215.575
2084.12426	15207.075
2087.12722	15166.875
2090.12824	15187.075
2093.12732	15175.975
2096.12447	15161.975
2099.11969	15147.875
2102.11299	15175.575
2105.10435	15186.075
2108.09379	15169.675
2111.08131	15192.075
2114.0669	15153.875
2117.05057	15176.775
2120.03233	15182.075
2123.01216	15190.675
2125.99008	15213.375
2128.96609	15203.175
2131.94018	15241.575
2134.91236	15243.275
2137.88263	15216.875
2140.851	15237.375
2143.81746	15288.375
2146.78201	15250.175
2149.74466	15263.975
2152.7054	15280.875
2155.66425	15223.875
2158.6212	15219.675
2161.57625	15189.275
2164.52941	15199.675
2167.48067	15172.575
2170.43004	15196.975
2173.37752	15211.775
2176.32311	15203.575
2179.26681	15195.375
2182.20863	15176.275
2185.14856	15185.175
2188.08661	15200.675
2191.02278	15214.175
2193.95707	15217.375
2196.88948	15196.775
2199.82001	15173.775
2202.74867	15141.375
2205.67545	15138.875
2208.60037	15116.075
2211.52341	15090.875
2214.44458	15103.275
2217.36388	15033.075
2220.28132	15046.675
2223.1969	14988.775
2226.11061	14980.075
2229.02246	14936.675
2231.93245	14928.975
2234.84058	14855.475
2237.74686	14853.575
2240.65128	14832.775
2243.55385	14814.275
2246.45456	14761.475
2249.35343	14747.975
2252.25044	14748.175
2255.14561	14731.475
2258.03893	14705.675
2260.93041	14701.875
2263.82004	14643.375
2266.70783	14616.575
2269.59378	14553.275
2272.4779	14554.275
2275.36017	14502.475
2278.24061	14480.475
2281.11922	14458.575
2283.996	14455.275
2286.87094	14412.475
2289.74405	14392.075
2292.61534	14377.275
2295.4848	14380.075
2298.35243	14353.375
2301.21824	14344.175
2304.08223	14355.375
2306.94439	14361.675
2309.80474	14325.975
2312.66327	14320.975
2315.51999	14332.475
2318.37489	14300.975
2321.22797	14308.275
2324.07925	14298.975
2326.92871	14246.575
2329.77637	14248.375
2332.62222	14193.975
2335.46626	14205.675
2338.3085	14197.675
2341.14893	14179.275
2343.98756	14220.975
2346.8244	14187.975
2349.65943	14214.075
2352.49267	14198.375
2355.32411	14198.975
2358.15376	14189.075
2360.98161	14188.675
2363.80768	14198.175
2366.63195	14216.575
2369.45444	14176.275
2372.27514	14124.975
2375.09405	14093.675
2377.91118	14094.575
2380.72652	14028.875
2383.54009	13997.975
2386.35187	13951.075
2389.16188	13890.975
2391.97011	13835.475
2394.77657	13851.775
2397.58125	13810.775
2400.38416	13786.775
2403.18529	13755.975
2405.98466	13763.975
2408.78226	13743.875
2411.57809	13712.375
2414.37216	13687.975
2417.16446	13666.175
2419.955	13642.875
2422.74378	13644.375
2425.5308	13599.575
2428.31606	13620.975
2431.09956	13582.575
2433.88131	13558.275
2436.6613	13581.475
2439.43954	13567.675
2442.21603	13529.475
2444.99077	13519.275
2447.76377	13548.675
2450.53501	13530.575
2453.30451	13547.275
2456.07226	13522.875
2458.83827	13526.575
2461.60254	13536.675
2464.36507	13522.075
2467.12586	13493.075
2469.88492	13476.175
2472.64224	13459.975
2475.39782	13466.575
2478.15167	13497.975
2480.90379	13511.475
2483.65417	13520.975
2486.40283	13514.175
2489.14976	13531.975
2491.89497	13526.975
2494.63845	13561.275
2497.3802	13530.475
2500.12024	13495.275
2502.85855	13463.775
2505.59514	13449.975
2508.33002	13421.675
2511.06318	13414.175
2513.79462	13411.375
2516.52435	13349.275
2519.25237	13342.775
2521.97867	13311.475
2524.70327	13299.575
2527.42616	13272.675
2530.14734	13267.675
2532.86681	13259.275
2535.58458	13285.075
2538.30065	13226.775
2541.01501	13259.575
2543.72768	13228.675
2546.43864	13205.475
2549.14791	13172.875
2551.85548	13176.675
2554.56136	13147.175
2557.26554	13150.675
2559.96803	13100.475
2562.66883	13082.175
2565.36794	13062.775
2568.06536	13056.375
2570.7611	13003.475
2573.45514	13015.075
2576.14751	13013.375
2578.83819	12994.875
2581.52719	12979.975
2584.21451	12956.175
2586.90015	12970.075
2589.58411	12917.275
2592.2664	12913.575
2594.94701	12926.575
2597.62594	12877.575
2600.30321	12878.575
2602.9788	12863.875
2605.65273	12859.375
2608.32498	12864.875
2610.99557	12843.075
2613.66449	12881.475
2616.33175	12845.375
2618.99734	12825.275
2621.66128	12817.275
2624.32355	12796.675
2626.98416	12794.375
2629.64311	12799.175
2632.30041	12768.375
2634.95605	12766.475
2637.61004	12723.775
2640.26238	12708.875
2642.91306	12730.475
2645.56209	12710.975
2648.20948	12689.375
2650.85521	12658.975
2653.4993	12660.275
2656.14175	12674.775
2658.78255	12684.175
2661.42171	12679.975
2664.05923	12702.575
2666.6951	12729.675
2669.32934	12707.875
2671.96194	12695.875
2674.59291	12727.975
2677.22224	12731.075
2679.84993	12722.475
2682.476	12687.175
2685.10043	12691.075
2687.72324	12698.475
2690.34441	12700.775
2692.96396	12679.075
2695.58188	12689.375
2698.19818	12646.175
2700.81285	12655.875
2703.4259	12660.475
2706.03733	12708.075
2708.64714	12674.775
2711.25533	12688.575
2713.86191	12674.075
2716.46687	12686.075
2719.07021	12688.475
2721.67194	12695.075
2724.27206	12677.975
2726.87057	12716.575
2729.46747	12682.075
2732.06276	12699.175
2734.65644	12705.375
2737.24852	12731.575
2739.83899	12689.275
2742.42786	12683.475
2745.01513	12648.475
2747.60079	12683.675
2750.18486	12614.975
2752.76733	12614.275
2755.3482	12570.475
2757.92747	12593.475
2760.50515	12542.475
2763.08123	12551.475
2765.65573	12536.275
2768.22863	12545.975
2770.79994	12524.775
2773.36967	12509.975
2775.9378	12479.375
2778.50435	12507.975
2781.06932	12511.275
2783.6327	12513.075
2786.1945	12506.775
2788.75471	12483.775
2791.31335	12470.875
2793.87041	12487.975
2796.42589	12420.775
2798.97979	12435.475
2801.53212	12414.175
2804.08288	12394.175
2806.63206	12349.475
2809.17967	12326.075
2811.72571	12303.575
2814.27018	12301.275
2816.81308	12251.275
2819.35442	12266.575
2821.89419	12241.475
2824.43239	12237.875
2826.96904	12207.075
2829.50412	12240.275
2832.03763	12182.575
2834.56959	12192.175
2837.1	12200.075
2839.62884	12220.275
2842.15613	12180.875
2844.68186	12235.075
2847.20604	12235.575
2849.72867	12258.775
2852.24974	12238.675
2854.76927	12222.175
2857.28724	12205.975
2859.80367	12197.375
2862.31855	12172.175
2864.83189	12164.675
2867.34368	12136.475
2869.85393	12133.075
2872.36264	12124.075
2874.8698	12134.775
2877.37543	12102.575
2879.87952	12120.075
2882.38207	12094.175
2884.88308	12085.075
2887.38256	12106.775
2889.88051	12098.075
2892.37692	12071.675
2894.8718	12096.075
2897.36515	12128.475
2899.85698	12113.675
2902.34727	12137.875
2904.83604	12164.575
2907.32328	12145.575
2909.809	12147.775
2912.29319	12151.975
2914.77587	12159.075
2917.25702	12122.275
2919.73665	12114.175
2922.21476	12135.075
2924.69136	12083.675
2927.16644	12103.275
2929.64	12096.475
2932.11205	12080.375
2934.58258	12042.175
2937.05161	12045.375
2939.51912	12021.375
2941.98513	11997.075
2944.44962	11967.775
2946.91261	11927.175
2949.37409	11943.175
2951.83407	11921.075
2954.29254	11914.275
2956.74951	11873.875
2959.20498	11882.175
2961.65895	11855.875
2964.11142	11874.775
2966.56239	11855.275
2969.01186	11838.075
2971.45984	11820.275
2973.90632	11790.175
2976.35131	11757.575
2978.7948	11745.075
2981.23681	11688.875
2983.67732	11659.575
2986.11635	11640.275
2988.55388	11622.475
2990.98993	11591.975
2993.4245	11564.375
2995.85758	11537.575
2998.28917	11512.475
3000.71928	11489.375
3003.14791	11468.375
3005.57506	11472.875
3008.00073	11466.575
3010.42493	11432.175
3012.84764	11396.675
3015.26888	11396.175
3017.68865	11359.475
3020.10694	11350.575
3022.52376	11344.675
3024.9391	11322.775
3027.35298	11293.875
3029.76539	11279.375
3032.17632	11268.875
3034.5858	11264.675
3036.9938	11263.275
3039.40034	11268.275
3041.80542	11247.675
3044.20903	11196.475
3046.61118	11216.275
3049.01187	11192.675
3051.4111	11173.875
3053.80888	11172.675
3056.20519	11124.675
3058.60005	11083.575
3060.99345	11068.675
3063.3854	11059.375
3065.7759	11009.775
3068.16494	10997.875
3070.55254	10945.075
3072.93868	10927.375
3075.32338	10909.375
3077.70662	10867.675
3080.08842	10846.375
3082.46878	10808.475
3084.84769	10812.075
3087.22515	10797.975
3089.60118	10819.275
3091.97576	10791.875
3094.3489	10787.275
3096.72061	10810.175
3099.09087	10783.975
3101.4597	10781.775
3103.82709	10758.675
3106.19305	10744.975
3108.55757	10720.875
3110.92066	10678.975
3113.28232	10717.675
3115.64255	10690.375
3118.00134	10653.475
3120.35871	10633.475
3122.71466	10620.475
3125.06917	10581.075
3127.42226	10556.075
