Data from AgNP_FTO_APTES_UA_10uM_CRN_50uM_R6G_10uM_NaF_0.1M_Addition_RamanShift__0__16-42-30-779.txt Node

Date: Thu Feb 10 16:42:30 GMT 2022
User: TCL
Spectrometer: QEP01345
Trigger mode: 4
Integration Time (sec): 7.000000E0
Scans to average: 10
Electric dark correction enabled: true
Nonlinearity correction enabled: false
Boxcar width: 0
XAxis mode: Raman Shifts
Number of Pixels in Spectrum: 1044
>>>>>Begin Spectral Data<<<<<
46.04893	-0.6875
50.45542	-0.8875
54.85868	-0.5875
59.25871	-0.7875
63.6555	73.2125
68.04907	74.2125
72.43941	80.6125
76.82654	79.9125
81.21044	81.9125
85.59113	84.1125
89.96862	90.0125
94.34289	92.6125
98.71396	95.8125
103.08183	99.6125
107.4465	100.4125
111.80798	100.5125
116.16626	104.4125
120.52136	111.2125
124.87327	115.3125
129.222	119.6125
133.56755	130.4125
137.90993	135.6125
142.24913	148.4125
146.58517	167.1125
150.91804	194.2125
155.24774	232.5125
159.57429	291.5125
163.89768	367.9125
168.21792	492.6125
172.53501	664.4125
176.84895	929.7125
181.15975	1303.3125
185.46741	1834.3125
189.77193	2533.4125
194.07331	3384.2125
198.37157	4360.0125
202.6667	5371.1125
206.9587	6385.5125
211.24758	7401.1125
215.53334	8402.6125
219.81599	9474.0125
224.09553	10636.1125
228.37195	11920.1125
232.64527	13348.2125
236.91549	14787.7125
241.18261	16265.1125
245.44663	17636.8125
249.70755	18886.2125
253.96539	19996.9125
258.22014	20977.3125
262.4718	21734.3125
266.72039	22298.1125
270.96589	22605.9125
275.20832	22663.2125
279.44768	22553.9125
283.68397	22350.0125
287.91719	22110.6125
292.14735	21999.8125
296.37445	21985.0125
300.59849	22104.6125
304.81948	22225.9125
309.03742	22235.7125
313.25231	22040.5125
317.46415	21684.7125
321.67296	21226.1125
325.87872	20814.3125
330.08145	20663.1125
334.28114	20620.6125
338.47781	20796.7125
342.67145	21026.4125
346.86207	21365.1125
351.04966	21772.5125
355.23424	22190.0125
359.4158	22582.3125
363.59435	22856.0125
367.76989	23073.3125
371.94243	23231.5125
376.11196	23349.2125
380.27849	23501.1125
384.44203	23580.8125
388.60257	23737.0125
392.76012	23903.6125
396.91468	24194.0125
401.06626	24540.5125
405.21485	24810.2125
409.36047	24692.1125
413.50311	24384.2125
417.64277	24202.0125
421.77947	24142.9125
425.9132	24224.8125
430.04396	24359.7125
434.17176	24498.7125
438.2966	24703.4125
442.41849	25123.5125
446.53742	25859.0125
450.6534	26630.3125
454.76644	27212.8125
458.87653	27367.2125
462.98368	27189.3125
467.08789	26849.9125
471.18916	26511.3125
475.2875	26193.0125
479.38291	26034.2125
483.4754	25907.7125
487.56496	25722.5125
491.6516	25283.7125
495.73531	24892.2125
499.81612	24637.3125
503.89401	24626.3125
507.96899	24723.4125
512.04106	24705.4125
516.11023	24547.1125
520.1765	24387.0125
524.23987	24237.9125
528.30034	24118.2125
532.35792	23944.8125
536.41261	23715.8125
540.46441	23433.0125
544.51333	23455.8125
548.55936	23692.5125
552.60252	24102.7125
556.64279	24669.4125
560.6802	25107.6125
564.71473	25404.2125
568.7464	25876.1125
572.7752	26508.6125
576.80114	27012.9125
580.82422	27445.2125
584.84444	28054.8125
588.86181	28965.4125
592.87633	29754.6125
596.888	29624.1125
600.89682	28729.3125
604.9028	28703.4125
608.90594	30546.2125
612.90624	32605.7125
616.90371	30772.8125
620.89834	26530.7125
624.89015	24696.1125
628.87913	24486.3125
632.86528	24541.0125
636.84862	24460.5125
640.82913	24052.5125
644.80683	23580.2125
648.78172	23242.0125
652.75379	23304.0125
656.72306	23591.9125
660.68952	23960.8125
664.65319	23791.1125
668.61405	23446.1125
672.57211	23370.9125
676.52738	23456.4125
680.47986	23440.2125
684.42955	23331.0125
688.37646	23262.2125
692.32058	23389.8125
696.26192	23751.2125
700.20048	24050.4125
704.13626	24229.3125
708.06928	24229.0125
711.99952	24108.2125
715.927	24074.5125
719.85171	24173.9125
723.77365	24108.8125
727.69284	23908.4125
731.60928	23618.2125
735.52295	23507.0125
739.43388	23516.8125
743.34206	23587.3125
747.24749	23692.9125
751.15017	23942.6125
755.05012	24323.0125
758.94733	24935.2125
762.8418	25894.8125
766.73354	27344.0125
770.62254	28716.5125
774.50882	28980.6125
778.39237	27977.4125
782.27321	26303.4125
786.15132	24968.7125
790.02671	24180.2125
793.89938	23800.3125
797.76935	23636.2125
801.6366	23555.5125
805.50115	23508.1125
809.36299	23405.1125
813.22213	23306.2125
817.07857	23297.8125
820.93231	23259.8125
824.78336	23176.3125
828.63172	23130.8125
832.47738	23160.3125
836.32036	23189.3125
840.16066	23285.7125
843.99827	23352.7125
847.8332	23329.7125
851.66546	23242.0125
855.49504	23245.3125
859.32195	23272.3125
863.1462	23201.2125
866.96777	23117.7125
870.78668	23049.8125
874.60293	23046.8125
878.41652	23065.7125
882.22745	23115.1125
886.03573	23201.8125
889.84136	23151.4125
893.64433	23089.2125
897.44466	22980.1125
901.24235	22932.2125
905.0374	22927.4125
908.8298	22891.2125
912.61957	22987.1125
916.40671	23115.5125
920.19121	23454.0125
923.97308	23657.2125
927.75233	23681.9125
931.52895	23529.3125
935.30295	23248.6125
939.07433	22949.6125
942.84309	22694.9125
946.60924	22625.2125
950.37278	22640.4125
954.13371	22589.2125
957.89203	22507.6125
961.64774	22484.9125
965.40086	22473.7125
969.15137	22446.3125
972.89929	22435.7125
976.64461	22428.8125
980.38733	22474.3125
984.12747	22589.3125
987.86502	22780.5125
991.59999	22947.5125
995.33237	23229.0125
999.06217	23695.3125
1002.78939	24216.4125
1006.51404	24602.5125
1010.23611	24812.3125
1013.95561	24980.5125
1017.67255	24937.1125
1021.38692	24657.9125
1025.09872	24429.2125
1028.80796	24461.7125
1032.51465	24936.0125
1036.21877	25449.1125
1039.92035	25616.7125
1043.61937	25421.0125
1047.31584	25054.5125
1051.00976	24611.2125
1054.70114	24403.0125
1058.38998	24425.7125
1062.07627	24551.5125
1065.76003	24677.6125
1069.44126	24803.4125
1073.11995	25093.2125
1076.79611	25391.5125
1080.46974	25534.2125
1084.14085	25715.9125
1087.80943	25966.8125
1091.47549	26126.6125
1095.13903	26145.8125
1098.80005	25901.2125
1102.45857	25466.4125
1106.11456	25148.4125
1109.76805	25082.2125
1113.41903	25107.2125
1117.06751	25192.4125
1120.71348	25394.2125
1124.35696	25584.2125
1127.99793	25824.1125
1131.63641	25961.3125
1135.2724	25845.6125
1138.90589	25683.4125
1142.5369	25667.6125
1146.16542	25786.2125
1149.79145	25970.2125
1153.415	26194.5125
1157.03607	26571.3125
1160.65467	27253.2125
1164.27079	28350.6125
1167.88443	29589.2125
1171.49561	30943.2125
1175.10432	32651.8125
1178.71056	34869.9125
1182.31434	36792.7125
1185.91565	37647.3125
1189.51451	37239.8125
1193.11091	36218.7125
1196.70485	35039.2125
1200.29634	34125.5125
1203.88538	33568.4125
1207.47197	33349.0125
1211.05612	32957.6125
1214.63782	32390.9125
1218.21708	31645.1125
1221.79391	30985.3125
1225.36829	30467.4125
1228.94024	30032.1125
1232.50976	29518.9125
1236.07685	29164.1125
1239.6415	28956.5125
1243.20374	29068.5125
1246.76355	29360.4125
1250.32093	29796.1125
1253.8759	30328.8125
1257.42845	31070.1125
1260.97859	31781.6125
1264.52631	32468.6125
1268.07163	33325.9125
1271.61453	34191.6125
1275.15503	35068.7125
1278.69312	35927.5125
1282.22882	36812.6125
1285.76211	37811.7125
1289.29301	39057.3125
1292.82151	40741.2125
1296.34761	42832.3125
1299.87133	45299.1125
1303.39266	47964.3125
1306.9116	50279.1125
1310.42815	52058.3125
1313.94233	52840.7125
1317.45412	52413.7125
1320.96354	51435.5125
1324.47058	50433.6125
1327.97525	49575.2125
1331.47754	48882.5125
1334.97747	48410.1125
1338.47502	47857.9125
1341.97022	47090.7125
1345.46305	46148.7125
1348.95352	45484.1125
1352.44163	45507.8125
1355.92738	46647.5125
1359.41078	48737.4125
1362.89183	50356.3125
1366.37053	49484.6125
1369.84688	45696.5125
1373.32088	41184.8125
1376.79254	38288.8125
1380.26186	37366.5125
1383.72883	37612.4125
1387.19347	37796.2125
1390.65578	37578.2125
1394.11575	37515.0125
1397.57339	37875.2125
1401.0287	38525.7125
1404.48168	38932.9125
1407.93234	38884.9125
1411.38068	38112.7125
1414.82669	36930.5125
1418.27039	35543.4125
1421.71177	34082.0125
1425.15083	32909.9125
1428.58758	32321.5125
1432.02203	32517.5125
1435.45416	33336.1125
1438.88399	34338.5125
1442.31151	35105.7125
1445.73673	35590.9125
1449.15965	35945.6125
1452.58027	36010.8125
1455.9986	35948.6125
1459.41463	35983.4125
1462.82837	36234.4125
1466.23982	36814.3125
1469.64898	37454.4125
1473.05586	37878.4125
1476.46045	37940.3125
1479.86276	37836.2125
1483.26279	37417.2125
1486.66054	37218.1125
1490.05602	37207.5125
1493.44922	37385.1125
1496.84016	37664.8125
1500.22882	38180.0125
1503.61521	39040.8125
1506.99934	40128.1125
1510.38121	41128.7125
1513.76081	41496.6125
1517.13816	40812.5125
1520.51324	39622.4125
1523.88607	38576.7125
1527.25665	38115.8125
1530.62498	38130.4125
1533.99105	38106.6125
1537.35488	37682.5125
1540.71647	36957.0125
1544.07581	36097.7125
1547.4329	35159.7125
1550.78776	34533.1125
1554.14038	34029.1125
1557.49077	33787.1125
1560.83892	33711.0125
1564.18484	33649.1125
1567.52853	33794.1125
1570.86999	34134.7125
1574.20922	34834.3125
1577.54624	35379.7125
1580.88103	35686.2125
1584.2136	36185.0125
1587.54395	37400.8125
1590.87208	39253.6125
1594.19801	41390.4125
1597.52172	43179.7125
1600.84321	43242.0125
1604.16251	41143.6125
1607.47959	37888.3125
1610.79447	34622.4125
1614.10715	31889.1125
1617.41763	29929.7125
1620.7259	28742.9125
1624.03199	28229.4125
1627.33587	28427.4125
1630.63757	29286.2125
1633.93707	31010.2125
1637.23439	33582.7125
1640.52951	37371.8125
1643.82246	41815.9125
1647.11321	45216.6125
1650.40179	45611.8125
1653.68819	42367.3125
1656.97241	37057.0125
1660.25446	32163.4125
1663.53433	28603.4125
1666.81203	26369.7125
1670.08756	24978.6125
1673.36092	24082.6125
1676.63211	23537.8125
1679.90115	23127.2125
1683.16801	22857.8125
1686.43272	22626.7125
1689.69527	22491.5125
1692.95567	22394.9125
1696.2139	22295.9125
1699.46999	22265.9125
1702.72392	22191.3125
1705.97571	22109.2125
1709.22535	22034.5125
1712.47284	22024.6125
1715.71819	22022.1125
1718.96139	21956.7125
1722.20246	21890.2125
1725.44139	21873.5125
1728.67818	21776.2125
1731.91284	21649.2125
1735.14537	21515.8125
1738.37576	21468.3125
1741.60403	21389.7125
1744.83017	21347.1125
1748.05418	21313.5125
1751.27607	21298.1125
1754.49584	21255.3125
1757.71349	21271.0125
1760.92903	21251.7125
1764.14244	21187.6125
1767.35375	21217.5125
1770.56294	21175.9125
1773.77002	21176.1125
1776.97499	21123.5125
1780.17785	21100.7125
1783.37861	21060.8125
1786.57727	21058.2125
1789.77382	20976.9125
1792.96828	20991.7125
1796.16064	20921.1125
1799.3509	20910.9125
1802.53907	20852.6125
1805.72514	20827.7125
1808.90913	20774.7125
1812.09102	20711.9125
1815.27083	20702.3125
1818.44856	20690.9125
1821.6242	20649.9125
1824.79776	20611.1125
1827.96924	20591.4125
1831.13864	20605.8125
1834.30597	20583.6125
1837.47122	20594.4125
1840.6344	20577.7125
1843.7955	20579.5125
1846.95454	20557.1125
1850.11151	20562.8125
1853.26642	20520.0125
1856.41926	20561.9125
1859.57004	20538.7125
1862.71876	20465.0125
1865.86542	20485.0125
1869.01003	20496.4125
1872.15258	20464.8125
1875.29308	20470.6125
1878.43152	20469.0125
1881.56792	20403.5125
1884.70227	20461.6125
1887.83457	20433.6125
1890.96482	20357.3125
1894.09304	20348.6125
1897.21921	20352.4125
1900.34335	20322.2125
1903.46544	20316.0125
1906.58551	20299.9125
1909.70353	20269.3125
1912.81953	20247.7125
1915.93349	20226.8125
1919.04543	20220.3125
1922.15534	20182.0125
1925.26322	20117.9125
1928.36908	20078.5125
1931.47292	20062.3125
1934.57473	20033.5125
1937.67453	19979.0125
1940.77232	19970.6125
1943.86808	19901.2125
1946.96184	19882.8125
1950.05358	19788.6125
1953.14331	19732.1125
1956.23103	19727.7125
1959.31675	19661.9125
1962.40046	19609.1125
1965.48217	19532.4125
1968.56188	19494.2125
1971.63959	19409.4125
1974.7153	19366.0125
1977.78901	19322.4125
1980.86073	19271.5125
1983.93046	19246.3125
1986.99819	19186.7125
1990.06394	19156.0125
1993.1277	19114.4125
1996.18947	19019.4125
1999.24925	18983.5125
2002.30706	18954.7125
2005.36288	18884.1125
2008.41672	18801.1125
2011.46859	18757.1125
2014.51848	18740.4125
2017.56639	18776.9125
2020.61233	18714.5125
2023.6563	18651.5125
2026.6983	18624.0125
2029.73833	18551.4125
2032.7764	18549.7125
2035.8125	18503.3125
2038.84664	18434.6125
2041.87881	18416.5125
2044.90903	18364.7125
2047.93729	18365.1125
2050.96359	18339.2125
2053.98794	18308.8125
2057.01034	18330.8125
2060.03078	18299.5125
2063.04927	18288.5125
2066.06582	18308.2125
2069.08042	18337.4125
2072.09307	18265.8125
2075.10378	18293.3125
2078.11255	18273.2125
2081.11938	18259.7125
2084.12426	18251.6125
2087.12722	18249.4125
2090.12824	18239.8125
2093.12732	18222.5125
2096.12447	18246.4125
2099.11969	18272.0125
2102.11299	18250.6125
2105.10435	18270.4125
2108.09379	18278.2125
2111.08131	18256.1125
2114.0669	18270.4125
2117.05057	18301.3125
2120.03233	18295.6125
2123.01216	18325.1125
2125.99008	18352.0125
2128.96609	18370.3125
2131.94018	18404.0125
2134.91236	18440.7125
2137.88263	18460.4125
2140.851	18439.2125
2143.81746	18452.3125
2146.78201	18450.2125
2149.74466	18477.9125
2152.7054	18469.0125
2155.66425	18468.0125
2158.6212	18501.5125
2161.57625	18485.6125
2164.52941	18504.2125
2167.48067	18462.1125
2170.43004	18485.3125
2173.37752	18426.7125
2176.32311	18445.9125
2179.26681	18479.6125
2182.20863	18474.3125
2185.14856	18464.8125
2188.08661	18479.0125
2191.02278	18490.2125
2193.95707	18522.7125
2196.88948	18467.3125
2199.82001	18501.0125
2202.74867	18444.4125
2205.67545	18452.5125
2208.60037	18435.5125
2211.52341	18418.2125
2214.44458	18403.1125
2217.36388	18368.3125
2220.28132	18368.3125
2223.1969	18305.0125
2226.11061	18343.8125
2229.02246	18277.9125
2231.93245	18220.9125
2234.84058	18186.0125
2237.74686	18190.3125
2240.65128	18178.3125
2243.55385	18134.4125
2246.45456	18123.8125
2249.35343	18090.2125
2252.25044	18118.7125
2255.14561	18080.1125
2258.03893	18051.9125
2260.93041	17970.2125
2263.82004	17946.6125
2266.70783	17926.8125
2269.59378	17848.8125
2272.4779	17832.7125
2275.36017	17794.2125
2278.24061	17780.1125
2281.11922	17757.5125
2283.996	17734.6125
2286.87094	17732.4125
2289.74405	17728.1125
2292.61534	17701.2125
2295.4848	17746.9125
2298.35243	17717.5125
2301.21824	17719.8125
2304.08223	17729.8125
2306.94439	17725.9125
2309.80474	17702.2125
2312.66327	17738.5125
2315.51999	17677.6125
2318.37489	17672.0125
2321.22797	17676.8125
2324.07925	17632.5125
2326.92871	17613.8125
2329.77637	17612.0125
2332.62222	17599.4125
2335.46626	17575.1125
2338.3085	17575.0125
2341.14893	17588.2125
2343.98756	17578.3125
2346.8244	17591.5125
2349.65943	17581.1125
2352.49267	17572.5125
2355.32411	17587.0125
2358.15376	17553.5125
2360.98161	17548.2125
2363.80768	17572.4125
2366.63195	17514.4125
2369.45444	17499.7125
2372.27514	17471.6125
2375.09405	17461.2125
2377.91118	17408.1125
2380.72652	17408.2125
2383.54009	17381.8125
2386.35187	17332.9125
2389.16188	17280.8125
2391.97011	17260.4125
2394.77657	17256.8125
2397.58125	17215.8125
2400.38416	17220.6125
2403.18529	17190.3125
2405.98466	17187.4125
2408.78226	17145.3125
2411.57809	17122.3125
2414.37216	17109.2125
2417.16446	17126.8125
2419.955	17074.7125
2422.74378	17086.2125
2425.5308	17041.2125
2428.31606	17074.4125
2431.09956	17055.3125
2433.88131	17055.8125
2436.6613	17055.2125
2439.43954	17036.0125
2442.21603	17027.6125
2444.99077	17015.4125
2447.76377	17036.3125
2450.53501	17003.5125
2453.30451	17017.3125
2456.07226	16993.3125
2458.83827	16951.3125
2461.60254	16996.1125
2464.36507	16968.6125
2467.12586	16945.9125
2469.88492	16952.5125
2472.64224	16971.9125
2475.39782	17003.3125
2478.15167	16982.7125
2480.90379	16977.2125
2483.65417	16983.3125
2486.40283	17020.4125
2489.14976	16991.6125
2491.89497	17022.3125
2494.63845	17010.1125
2497.3802	17026.6125
2500.12024	17012.5125
2502.85855	17014.9125
2505.59514	16979.7125
2508.33002	16949.2125
2511.06318	16955.4125
2513.79462	16959.3125
2516.52435	16931.9125
2519.25237	16900.7125
2521.97867	16924.5125
2524.70327	16888.2125
2527.42616	16867.9125
2530.14734	16885.9125
2532.86681	16879.2125
2535.58458	16888.4125
2538.30065	16876.3125
2541.01501	16851.5125
2543.72768	16847.7125
2546.43864	16852.9125
2549.14791	16848.5125
2551.85548	16843.2125
2554.56136	16828.4125
2557.26554	16786.4125
2559.96803	16795.1125
2562.66883	16773.4125
2565.36794	16708.4125
2568.06536	16672.5125
2570.7611	16708.0125
2573.45514	16669.2125
2576.14751	16669.6125
2578.83819	16636.5125
2581.52719	16634.1125
2584.21451	16643.1125
2586.90015	16634.5125
2589.58411	16617.2125
2592.2664	16605.0125
2594.94701	16580.0125
2597.62594	16601.4125
2600.30321	16550.3125
2602.9788	16555.9125
2605.65273	16536.8125
2608.32498	16550.5125
2610.99557	16540.0125
2613.66449	16551.4125
2616.33175	16513.8125
2618.99734	16546.4125
2621.66128	16511.3125
2624.32355	16479.1125
2626.98416	16470.8125
2629.64311	16447.4125
2632.30041	16460.2125
2634.95605	16432.0125
2637.61004	16408.3125
2640.26238	16396.8125
2642.91306	16366.9125
2645.56209	16357.0125
2648.20948	16354.9125
2650.85521	16351.3125
2653.4993	16369.1125
2656.14175	16370.4125
2658.78255	16394.6125
2661.42171	16399.9125
2664.05923	16412.7125
2666.6951	16445.8125
2669.32934	16461.0125
2671.96194	16494.7125
2674.59291	16469.0125
2677.22224	16489.8125
2679.84993	16498.7125
2682.476	16472.6125
2685.10043	16464.4125
2687.72324	16441.0125
2690.34441	16437.6125
2692.96396	16449.0125
2695.58188	16430.8125
2698.19818	16474.7125
2700.81285	16455.3125
2703.4259	16460.9125
2706.03733	16487.3125
2708.64714	16456.4125
2711.25533	16484.5125
2713.86191	16460.5125
2716.46687	16530.6125
2719.07021	16512.3125
2721.67194	16554.8125
2724.27206	16559.7125
2726.87057	16575.4125
2729.46747	16620.5125
2732.06276	16591.6125
2734.65644	16552.8125
2737.24852	16601.7125
2739.83899	16540.3125
2742.42786	16558.9125
2745.01513	16553.0125
2747.60079	16530.3125
2750.18486	16486.4125
2752.76733	16516.6125
2755.3482	16504.8125
2757.92747	16491.5125
2760.50515	16451.2125
2763.08123	16464.7125
2765.65573	16437.0125
2768.22863	16454.6125
2770.79994	16446.8125
2773.36967	16468.7125
2775.9378	16471.8125
2778.50435	16433.8125
2781.06932	16461.9125
2783.6327	16443.5125
2786.1945	16434.2125
2788.75471	16416.1125
2791.31335	16376.6125
2793.87041	16391.5125
2796.42589	16376.4125
2798.97979	16369.9125
2801.53212	16292.7125
2804.08288	16289.1125
2806.63206	16249.9125
2809.17967	16210.3125
2811.72571	16175.0125
2814.27018	16175.1125
2816.81308	16113.6125
2819.35442	16094.7125
2821.89419	16076.7125
2824.43239	16054.8125
2826.96904	16046.5125
2829.50412	16042.3125
2832.03763	16037.5125
2834.56959	16035.8125
2837.1	16009.4125
2839.62884	16026.4125
2842.15613	16010.0125
2844.68186	16045.5125
2847.20604	16038.4125
2849.72867	16041.2125
2852.24974	16020.6125
2854.76927	16014.6125
2857.28724	15999.8125
2859.80367	15988.1125
2862.31855	15923.2125
2864.83189	15927.8125
2867.34368	15902.7125
2869.85393	15942.5125
2872.36264	15909.1125
2874.8698	15912.0125
2877.37543	15901.5125
2879.87952	15904.1125
2882.38207	15900.7125
2884.88308	15898.1125
2887.38256	15918.8125
2889.88051	15900.0125
2892.37692	15924.3125
2894.8718	15957.4125
2897.36515	15954.8125
2899.85698	15980.0125
2902.34727	15994.1125
2904.83604	15988.9125
2907.32328	16018.4125
2909.809	16009.7125
2912.29319	16011.3125
2914.77587	16018.4125
2917.25702	16020.4125
2919.73665	15999.6125
2922.21476	16028.8125
2924.69136	15983.3125
2927.16644	15986.9125
2929.64	16010.8125
2932.11205	15967.5125
2934.58258	15909.5125
2937.05161	15943.3125
2939.51912	15934.6125
2941.98513	15940.3125
2944.44962	15911.6125
2946.91261	15887.3125
2949.37409	15858.4125
2951.83407	15877.7125
2954.29254	15881.6125
2956.74951	15866.8125
2959.20498	15868.8125
2961.65895	15874.1125
2964.11142	15879.3125
2966.56239	15858.1125
2969.01186	15875.8125
2971.45984	15843.5125
2973.90632	15807.2125
2976.35131	15817.6125
2978.7948	15773.7125
2981.23681	15745.6125
2983.67732	15726.2125
2986.11635	15650.4125
2988.55388	15652.7125
2990.98993	15616.9125
2993.4245	15584.2125
2995.85758	15560.7125
2998.28917	15510.0125
3000.71928	15524.1125
3003.14791	15482.7125
3005.57506	15457.2125
3008.00073	15394.9125
3010.42493	15336.7125
3012.84764	15327.9125
3015.26888	15327.9125
3017.68865	15322.5125
3020.10694	15331.4125
3022.52376	15307.8125
3024.9391	15290.9125
