Data from AgNP_FTO_APTES_UA_10uM_CRN_2uM_R6G_10uM_NaF_0.1M_Addition_RamanShift__35__14-37-40-625.txt Node

Date: Thu Feb 10 14:37:40 GMT 2022
User: TCL
Spectrometer: QEP01345
Trigger mode: 4
Integration Time (sec): 7.000000E0
Scans to average: 10
Electric dark correction enabled: true
Nonlinearity correction enabled: false
Boxcar width: 0
XAxis mode: Raman Shifts
Number of Pixels in Spectrum: 1044
>>>>>Begin Spectral Data<<<<<
46.04893	0.325
50.45542	-1.775
54.85868	-2.475
59.25871	-1.575
63.6555	69.225
68.04907	72.625
72.43941	77.825
76.82654	77.825
81.21044	83.225
85.59113	82.225
89.96862	89.825
94.34289	90.625
98.71396	93.225
103.08183	99.325
107.4465	100.625
111.80798	96.625
116.16626	100.125
120.52136	104.925
124.87327	111.325
129.222	114.925
133.56755	122.325
137.90993	128.525
142.24913	139.125
146.58517	155.325
150.91804	183.025
155.24774	215.925
159.57429	265.125
163.89768	331.025
168.21792	439.525
172.53501	591.925
176.84895	829.925
181.15975	1160.025
185.46741	1625.525
189.77193	2261.625
194.07331	3021.725
198.37157	3901.525
202.6667	4795.125
206.9587	5713.425
211.24758	6620.025
215.53334	7525.825
219.81599	8510.725
224.09553	9580.225
228.37195	10770.525
232.64527	12047.125
236.91549	13408.925
241.18261	14714.725
245.44663	15907.425
249.70755	16974.625
253.96539	17947.125
258.22014	18776.125
262.4718	19526.325
266.72039	20006.225
270.96589	20272.225
275.20832	20307.725
279.44768	20143.125
283.68397	19944.025
287.91719	19643.625
292.14735	19500.825
296.37445	19529.925
300.59849	19704.425
304.81948	19968.025
309.03742	20048.825
313.25231	19971.425
317.46415	19580.825
321.67296	19020.225
325.87872	18590.325
330.08145	18436.425
334.28114	18465.625
338.47781	18634.525
342.67145	18921.025
346.86207	19294.525
351.04966	19777.625
355.23424	20286.625
359.4158	20721.425
363.59435	21033.525
367.76989	21248.025
371.94243	21372.225
376.11196	21510.725
380.27849	21597.425
384.44203	21644.425
388.60257	21710.625
392.76012	21830.925
396.91468	22051.525
401.06626	22395.725
405.21485	22614.725
409.36047	22541.825
413.50311	22207.025
417.64277	21824.125
421.77947	21730.725
425.9132	21775.925
430.04396	21955.425
434.17176	22161.625
438.2966	22498.825
442.41849	23106.525
446.53742	24040.025
450.6534	25010.325
454.76644	25686.925
458.87653	25751.325
462.98368	25303.225
467.08789	24729.425
471.18916	24169.825
475.2875	23647.225
479.38291	23300.525
483.4754	23060.925
487.56496	22798.625
491.6516	22421.525
495.73531	22129.025
499.81612	21982.425
503.89401	22084.625
507.96899	22120.225
512.04106	22113.625
516.11023	22120.525
520.1765	22161.825
524.23987	22218.225
528.30034	22216.425
532.35792	22100.625
536.41261	21794.925
540.46441	21447.025
544.51333	21310.725
548.55936	21426.725
552.60252	21865.925
556.64279	22336.725
560.6802	22765.625
564.71473	22933.725
568.7464	23202.225
572.7752	23601.425
576.80114	23665.325
580.82422	23753.425
584.84444	24168.525
588.86181	25022.825
592.87633	26200.825
596.888	26934.025
600.89682	26572.725
604.9028	26790.325
608.90594	29210.825
612.90624	32248.025
616.90371	30557.225
620.89834	25413.925
624.89015	23225.825
628.87913	22984.625
632.86528	22864.225
636.84862	22536.625
640.82913	22115.025
644.80683	21507.925
648.78172	21147.725
652.75379	21188.525
656.72306	21603.925
660.68952	22073.825
664.65319	21997.825
668.61405	21580.225
672.57211	21403.525
676.52738	21413.725
680.47986	21327.825
684.42955	21234.725
688.37646	21233.625
692.32058	21442.925
696.26192	21703.225
700.20048	21975.325
704.13626	22096.325
708.06928	21990.325
711.99952	21766.825
715.927	21780.325
719.85171	21927.925
723.77365	21848.425
727.69284	21643.625
731.60928	21453.925
735.52295	21462.225
739.43388	21534.525
743.34206	21608.225
747.24749	21666.225
751.15017	21838.725
755.05012	22144.925
758.94733	22676.025
762.8418	23689.325
766.73354	25360.025
770.62254	27046.625
774.50882	27722.925
778.39237	26820.225
782.27321	25071.725
786.15132	23415.625
790.02671	22409.025
793.89938	22008.025
797.76935	21881.525
801.6366	21838.225
805.50115	21762.925
809.36299	21657.025
813.22213	21574.825
817.07857	21543.325
820.93231	21490.325
824.78336	21517.325
828.63172	21558.125
832.47738	21603.725
836.32036	21727.225
840.16066	21800.925
843.99827	21839.125
847.8332	21801.325
851.66546	21673.025
855.49504	21694.325
859.32195	21712.925
863.1462	21584.625
866.96777	21456.625
870.78668	21455.125
874.60293	21420.925
878.41652	21517.325
882.22745	21588.225
886.03573	21600.125
889.84136	21587.025
893.64433	21535.425
897.44466	21409.925
901.24235	21341.525
905.0374	21313.925
908.8298	21295.625
912.61957	21309.725
916.40671	21433.525
920.19121	21683.725
923.97308	21920.425
927.75233	22108.025
931.52895	22188.425
935.30295	22028.525
939.07433	21631.625
942.84309	21323.425
946.60924	21242.825
950.37278	21252.525
954.13371	21115.625
957.89203	20995.525
961.64774	20907.425
965.40086	20895.025
969.15137	20827.925
972.89929	20860.825
976.64461	20882.925
980.38733	20978.125
984.12747	21141.525
987.86502	21444.025
991.59999	21792.725
995.33237	22240.025
999.06217	22922.325
1002.78939	23589.525
1006.51404	23946.425
1010.23611	24053.525
1013.95561	24256.025
1017.67255	24225.225
1021.38692	23906.325
1025.09872	23665.525
1028.80796	23963.025
1032.51465	24717.525
1036.21877	25396.525
1039.92035	25469.425
1043.61937	25018.825
1047.31584	24343.325
1051.00976	23621.825
1054.70114	23284.225
1058.38998	23172.025
1062.07627	23161.225
1065.76003	23142.825
1069.44126	23133.425
1073.11995	23352.725
1076.79611	23649.325
1080.46974	23883.725
1084.14085	24209.425
1087.80943	24507.625
1091.47549	24598.825
1095.13903	24454.625
1098.80005	24098.225
1102.45857	23756.425
1106.11456	23653.725
1109.76805	23693.925
1113.41903	23879.425
1117.06751	24096.725
1120.71348	24380.125
1124.35696	24628.725
1127.99793	24835.725
1131.63641	24933.625
1135.2724	24603.025
1138.90589	24303.725
1142.5369	24034.725
1146.16542	23993.025
1149.79145	23989.825
1153.415	24060.325
1157.03607	24264.725
1160.65467	24637.925
1164.27079	25424.925
1167.88443	26569.525
1171.49561	28125.625
1175.10432	30284.525
1178.71056	33106.425
1182.31434	35659.625
1185.91565	36813.825
1189.51451	36268.625
1193.11091	34653.825
1196.70485	32888.325
1200.29634	31437.225
1203.88538	30324.025
1207.47197	29472.725
1211.05612	28807.125
1214.63782	28404.725
1218.21708	28387.725
1221.79391	28632.725
1225.36829	28818.025
1228.94024	28534.225
1232.50976	27843.725
1236.07685	27135.425
1239.6415	26841.125
1243.20374	26788.925
1246.76355	26979.925
1250.32093	27473.625
1253.8759	28128.225
1257.42845	28835.525
1260.97859	29608.625
1264.52631	30322.325
1268.07163	31166.125
1271.61453	31894.925
1275.15503	32695.025
1278.69312	33462.225
1282.22882	34184.225
1285.76211	34959.325
1289.29301	35740.825
1292.82151	36771.125
1296.34761	38121.225
1299.87133	40068.125
1303.39266	42606.625
1306.9116	45786.625
1310.42815	49217.525
1313.94233	51343.525
1317.45412	51293.325
1320.96354	49437.825
1324.47058	47017.625
1327.97525	44807.225
1331.47754	43203.325
1334.97747	42505.625
1338.47502	42125.825
1341.97022	41826.525
1345.46305	41306.925
1348.95352	41268.325
1352.44163	42236.725
1355.92738	44252.125
1359.41078	47407.425
1362.89183	50012.925
1366.37053	49126.925
1369.84688	44438.025
1373.32088	39053.425
1376.79254	35629.325
1380.26186	34348.425
1383.72883	34044.925
1387.19347	33831.525
1390.65578	33273.125
1394.11575	33005.625
1397.57339	33332.625
1401.0287	33980.825
1404.48168	34649.925
1407.93234	34972.725
1411.38068	34836.725
1414.82669	34184.325
1418.27039	33231.125
1421.71177	32028.025
1425.15083	31007.625
1428.58758	30470.025
1432.02203	30655.925
1435.45416	31315.025
1438.88399	31999.025
1442.31151	32496.825
1445.73673	32907.125
1449.15965	33169.225
1452.58027	33214.525
1455.9986	33020.825
1459.41463	33018.125
1462.82837	33460.325
1466.23982	34255.925
1469.64898	35047.225
1473.05586	35499.225
1476.46045	35750.125
1479.86276	35805.625
1483.26279	35728.325
1486.66054	35635.025
1490.05602	35696.025
1493.44922	35895.425
1496.84016	36014.125
1500.22882	36483.525
1503.61521	37393.025
1506.99934	38843.225
1510.38121	40188.425
1513.76081	40622.025
1517.13816	39680.025
1520.51324	37621.625
1523.88607	35606.825
1527.25665	34377.625
1530.62498	33843.025
1533.99105	33653.325
1537.35488	33484.525
1540.71647	33248.225
1544.07581	32917.825
1547.4329	32502.725
1550.78776	32028.925
1554.14038	31607.125
1557.49077	31288.525
1560.83892	31102.825
1564.18484	31115.525
1567.52853	31318.625
1570.86999	31602.725
1574.20922	32032.425
1577.54624	32265.525
1580.88103	32105.325
1584.2136	32063.825
1587.54395	32815.425
1590.87208	34515.825
1594.19801	37004.125
1597.52172	39760.725
1600.84321	41041.825
1604.16251	39795.325
1607.47959	36692.825
1610.79447	33029.825
1614.10715	29866.425
1617.41763	27703.725
1620.7259	26462.425
1624.03199	25964.225
1627.33587	26167.625
1630.63757	26955.425
1633.93707	28433.125
1637.23439	30707.525
1640.52951	33864.925
1643.82246	37701.125
1647.11321	40821.525
1650.40179	41448.425
1653.68819	38545.825
1656.97241	33675.125
1660.25446	29097.325
1663.53433	26037.425
1666.81203	24208.325
1670.08756	23143.025
1673.36092	22444.325
1676.63211	22020.225
1679.90115	21701.625
1683.16801	21473.325
1686.43272	21305.825
1689.69527	21188.125
1692.95567	21109.225
1696.2139	21028.725
1699.46999	21016.725
1702.72392	21003.825
1705.97571	20946.825
1709.22535	20906.025
1712.47284	20925.825
1715.71819	20919.025
1718.96139	20928.225
1722.20246	20854.625
1725.44139	20790.925
1728.67818	20711.825
1731.91284	20600.025
1735.14537	20513.225
1738.37576	20455.525
1741.60403	20410.125
1744.83017	20375.325
1748.05418	20279.625
1751.27607	20285.525
1754.49584	20256.325
1757.71349	20264.325
1760.92903	20252.225
1764.14244	20259.025
1767.35375	20227.825
1770.56294	20201.125
1773.77002	20211.425
1776.97499	20159.425
1780.17785	20124.925
1783.37861	20134.625
1786.57727	20110.825
1789.77382	20106.125
1792.96828	20056.425
1796.16064	20035.925
1799.3509	20031.725
1802.53907	19977.825
1805.72514	19943.025
1808.90913	19904.825
1812.09102	19881.725
1815.27083	19845.025
1818.44856	19829.425
1821.6242	19785.525
1824.79776	19727.025
1827.96924	19731.225
1831.13864	19728.625
1834.30597	19691.725
1837.47122	19675.625
1840.6344	19690.125
1843.7955	19712.625
1846.95454	19671.725
1850.11151	19673.525
1853.26642	19657.025
1856.41926	19711.125
1859.57004	19743.525
1862.71876	19690.625
1865.86542	19685.425
1869.01003	19646.725
1872.15258	19653.525
1875.29308	19683.925
1878.43152	19662.625
1881.56792	19664.525
1884.70227	19632.125
1887.83457	19642.325
1890.96482	19598.525
1894.09304	19594.825
1897.21921	19580.525
1900.34335	19563.325
1903.46544	19595.825
1906.58551	19559.325
1909.70353	19577.825
1912.81953	19577.325
1915.93349	19592.725
1919.04543	19554.825
1922.15534	19496.425
1925.26322	19490.525
1928.36908	19457.325
1931.47292	19429.025
1934.57473	19400.825
1937.67453	19379.525
1940.77232	19321.125
1943.86808	19238.525
1946.96184	19178.925
1950.05358	19144.825
1953.14331	19081.325
1956.23103	19029.025
1959.31675	18974.025
1962.40046	18938.325
1965.48217	18902.825
1968.56188	18869.425
1971.63959	18807.225
1974.7153	18813.525
1977.78901	18720.525
1980.86073	18663.025
1983.93046	18581.025
1986.99819	18567.525
1990.06394	18522.025
1993.1277	18511.725
1996.18947	18410.125
1999.24925	18395.425
2002.30706	18339.025
2005.36288	18262.625
2008.41672	18202.425
2011.46859	18173.925
2014.51848	18168.125
2017.56639	18115.125
2020.61233	18075.225
2023.6563	18058.925
2026.6983	18057.925
2029.73833	18016.725
2032.7764	17975.925
2035.8125	17941.725
2038.84664	17908.425
2041.87881	17886.425
2044.90903	17843.825
2047.93729	17861.925
2050.96359	17878.625
2053.98794	17822.925
2057.01034	17831.225
2060.03078	17786.725
2063.04927	17783.425
2066.06582	17763.125
2069.08042	17780.025
2072.09307	17764.725
2075.10378	17746.325
2078.11255	17748.225
2081.11938	17733.125
2084.12426	17717.025
2087.12722	17729.325
2090.12824	17735.525
2093.12732	17712.225
2096.12447	17720.725
2099.11969	17699.625
2102.11299	17763.225
2105.10435	17757.925
2108.09379	17776.425
2111.08131	17729.525
2114.0669	17766.425
2117.05057	17795.625
2120.03233	17767.625
2123.01216	17837.525
2125.99008	17833.625
2128.96609	17873.025
2131.94018	17895.125
2134.91236	17915.725
2137.88263	17916.325
2140.851	17905.725
2143.81746	17965.225
2146.78201	17981.225
2149.74466	17971.925
2152.7054	17990.925
2155.66425	17946.625
2158.6212	17933.325
2161.57625	17968.625
2164.52941	17982.925
2167.48067	17938.325
2170.43004	17936.425
2173.37752	17971.325
2176.32311	17966.325
2179.26681	17954.225
2182.20863	17948.225
2185.14856	17964.425
2188.08661	17978.525
2191.02278	18025.525
2193.95707	18033.325
2196.88948	18001.325
2199.82001	17980.125
2202.74867	17979.025
2205.67545	17980.725
2208.60037	17971.725
2211.52341	17923.325
2214.44458	17970.425
2217.36388	17914.525
2220.28132	17897.825
2223.1969	17862.625
2226.11061	17845.325
2229.02246	17802.725
2231.93245	17755.825
2234.84058	17736.525
2237.74686	17717.525
2240.65128	17725.125
2243.55385	17703.025
2246.45456	17688.325
2249.35343	17655.525
2252.25044	17665.125
2255.14561	17630.525
2258.03893	17624.925
2260.93041	17551.525
2263.82004	17539.325
2266.70783	17479.725
2269.59378	17437.625
2272.4779	17403.525
2275.36017	17349.025
2278.24061	17303.325
2281.11922	17327.425
2283.996	17306.425
2286.87094	17275.025
2289.74405	17296.625
2292.61534	17267.625
2295.4848	17281.025
2298.35243	17266.125
2301.21824	17305.625
2304.08223	17287.725
2306.94439	17285.225
2309.80474	17332.025
2312.66327	17342.025
2315.51999	17307.425
2318.37489	17309.025
2321.22797	17313.625
2324.07925	17248.325
2326.92871	17259.425
2329.77637	17261.825
2332.62222	17225.325
2335.46626	17213.925
2338.3085	17246.625
2341.14893	17259.825
2343.98756	17274.525
2346.8244	17273.425
2349.65943	17232.325
2352.49267	17192.625
2355.32411	17197.425
2358.15376	17235.925
2360.98161	17203.225
2363.80768	17190.925
2366.63195	17179.425
2369.45444	17113.325
2372.27514	17095.125
2375.09405	17068.425
2377.91118	17058.025
2380.72652	17018.525
2383.54009	17010.525
2386.35187	16931.925
2389.16188	16933.725
2391.97011	16866.325
2394.77657	16849.725
2397.58125	16846.425
2400.38416	16853.625
2403.18529	16847.525
2405.98466	16766.625
2408.78226	16740.825
2411.57809	16754.625
2414.37216	16713.225
2417.16446	16718.725
2419.955	16657.625
2422.74378	16659.325
2425.5308	16653.625
2428.31606	16666.425
2431.09956	16634.025
2433.88131	16650.525
2436.6613	16641.325
2439.43954	16668.625
2442.21603	16654.725
2444.99077	16583.225
2447.76377	16596.425
2450.53501	16580.625
2453.30451	16558.525
2456.07226	16542.225
2458.83827	16547.525
2461.60254	16555.225
2464.36507	16533.225
2467.12586	16564.325
2469.88492	16563.525
2472.64224	16548.525
2475.39782	16582.725
2478.15167	16606.125
2480.90379	16643.225
2483.65417	16633.125
2486.40283	16637.325
2489.14976	16619.425
2491.89497	16621.925
2494.63845	16659.825
2497.3802	16662.325
2500.12024	16660.625
2502.85855	16615.725
2505.59514	16578.625
2508.33002	16544.225
2511.06318	16549.625
2513.79462	16532.025
2516.52435	16518.125
2519.25237	16502.125
2521.97867	16530.625
2524.70327	16485.825
2527.42616	16479.625
2530.14734	16487.625
2532.86681	16434.725
2535.58458	16427.225
2538.30065	16435.125
2541.01501	16415.625
2543.72768	16415.225
2546.43864	16419.325
2549.14791	16426.725
2551.85548	16408.425
2554.56136	16400.525
2557.26554	16372.025
2559.96803	16328.325
2562.66883	16294.525
2565.36794	16268.825
2568.06536	16263.325
2570.7611	16240.225
2573.45514	16217.925
2576.14751	16244.625
2578.83819	16212.825
2581.52719	16234.425
2584.21451	16218.525
2586.90015	16177.125
2589.58411	16184.925
2592.2664	16197.125
2594.94701	16208.725
2597.62594	16152.325
2600.30321	16157.925
2602.9788	16140.925
2605.65273	16143.025
2608.32498	16147.225
2610.99557	16081.225
2613.66449	16118.625
2616.33175	16126.425
2618.99734	16097.325
2621.66128	16109.925
2624.32355	16113.825
2626.98416	16084.825
2629.64311	16083.125
2632.30041	16062.125
2634.95605	16067.925
2637.61004	16015.025
2640.26238	16011.625
2642.91306	16021.025
2645.56209	16003.925
2648.20948	15988.625
2650.85521	15980.425
2653.4993	15972.125
2656.14175	15978.925
2658.78255	15997.025
2661.42171	16014.925
2664.05923	16029.925
2666.6951	16012.525
2669.32934	16008.625
2671.96194	16034.725
2674.59291	16037.525
2677.22224	16023.525
2679.84993	16048.125
2682.476	16011.625
2685.10043	16012.325
2687.72324	15976.625
2690.34441	16003.425
2692.96396	15992.825
2695.58188	16007.125
2698.19818	15985.225
2700.81285	16021.125
2703.4259	15997.925
2706.03733	16057.625
2708.64714	16079.825
2711.25533	16063.625
2713.86191	16031.525
2716.46687	15995.425
2719.07021	16076.925
2721.67194	16084.525
2724.27206	16077.425
2726.87057	16092.025
2729.46747	16062.325
2732.06276	16080.625
2734.65644	16079.725
2737.24852	16096.425
2739.83899	16056.025
2742.42786	16043.425
2745.01513	16018.925
2747.60079	16022.525
2750.18486	15990.425
2752.76733	15977.025
2755.3482	16000.225
2757.92747	16004.125
2760.50515	15987.325
2763.08123	15949.125
2765.65573	15933.525
2768.22863	15930.025
2770.79994	15922.525
2773.36967	15912.225
2775.9378	15942.125
2778.50435	15940.025
2781.06932	15929.925
2783.6327	15924.825
2786.1945	15962.725
2788.75471	15933.125
2791.31335	15905.225
2793.87041	15884.225
2796.42589	15840.025
2798.97979	15843.025
2801.53212	15818.725
2804.08288	15795.525
2806.63206	15791.925
2809.17967	15719.725
2811.72571	15718.225
2814.27018	15682.025
2816.81308	15669.825
2819.35442	15620.025
2821.89419	15622.725
2824.43239	15611.125
2826.96904	15562.425
2829.50412	15605.525
2832.03763	15592.425
2834.56959	15575.025
2837.1	15559.725
2839.62884	15605.425
2842.15613	15593.625
2844.68186	15600.725
2847.20604	15617.525
2849.72867	15639.025
2852.24974	15588.725
2854.76927	15569.225
2857.28724	15521.125
2859.80367	15528.125
2862.31855	15500.125
2864.83189	15497.225
2867.34368	15460.225
2869.85393	15482.525
2872.36264	15474.425
2874.8698	15495.825
2877.37543	15510.525
2879.87952	15480.725
2882.38207	15508.525
2884.88308	15515.425
2887.38256	15526.725
2889.88051	15490.225
2892.37692	15524.825
2894.8718	15514.925
2897.36515	15537.825
2899.85698	15560.225
2902.34727	15587.425
2904.83604	15573.725
2907.32328	15645.325
2909.809	15643.625
2912.29319	15623.025
2914.77587	15609.725
2917.25702	15583.425
2919.73665	15570.325
2922.21476	15612.325
2924.69136	15599.825
2927.16644	15614.825
2929.64	15547.125
2932.11205	15557.125
2934.58258	15492.225
2937.05161	15529.325
2939.51912	15518.625
2941.98513	15481.025
2944.44962	15461.225
2946.91261	15416.825
2949.37409	15485.125
2951.83407	15451.025
2954.29254	15406.325
2956.74951	15431.625
2959.20498	15440.125
2961.65895	15416.425
2964.11142	15436.825
2966.56239	15404.725
2969.01186	15408.425
2971.45984	15374.725
2973.90632	15414.625
2976.35131	15359.425
2978.7948	15299.425
2981.23681	15277.725
2983.67732	15237.625
2986.11635	15203.925
2988.55388	15177.225
2990.98993	15169.225
2993.4245	15159.025
2995.85758	15091.825
2998.28917	15091.925
3000.71928	15065.825
3003.14791	15039.125
3005.57506	15061.925
3008.00073	15023.925
3010.42493	14869.125
3012.84764	14940.825
3015.26888	14938.625
3017.68865	14907.625
3020.10694	14885.925
3022.52376	14842.225
3024.9391	14811.525
3027.35298	14824.925
3029.76539	14853.725
3032.17632	14846.325
3034.5858	14850.425
3036.9938	14833.125
3039.40034	14830.425
3041.80542	14794.925
3044.20903	14791.825
3046.61118	14794.125
3049.01187	14761.725
3051.4111	14743.425
3053.80888	14730.725
3056.20519	14712.425
3058.60005	14669.525
3060.99345	14639.125
3063.3854	14667.525
3065.7759	14568.825
3068.16494	14555.925
3070.55254	14531.425
3072.93868	14503.325
3075.32338	14456.725
3077.70662	14431.625
3080.08842	14431.925
3082.46878	14403.225
3084.84769	14421.725
3087.22515	14410.425
3089.60118	14409.925
3091.97576	14387.225
3094.3489	14396.925
3096.72061	14434.425
3099.09087	14428.725
3101.4597	14380.525
3103.82709	14372.425
3106.19305	14362.725
3108.55757	14393.225
3110.92066	14352.525
3113.28232	14319.425
3115.64255	14277.325
3118.00134	14266.025
3120.35871	14248.825
3122.71466	14222.725
3125.06917	14184.825
3127.42226	14187.125
