Data from AgNP_FTO_APTES_UA_10uM_CRN_100uM_R6G_10uM_NaF_0.1M_Addition_RamanShift__19__17-46-40-858.txt Node

Date: Thu Feb 10 17:46:40 GMT 2022
User: TCL
Spectrometer: QEP01345
Trigger mode: 4
Integration Time (sec): 7.000000E0
Scans to average: 10
Electric dark correction enabled: true
Nonlinearity correction enabled: false
Boxcar width: 0
XAxis mode: Raman Shifts
Number of Pixels in Spectrum: 1044
>>>>>Begin Spectral Data<<<<<
46.04893	0.175
50.45542	-0.625
54.85868	-2.625
59.25871	-0.425
63.6555	63.075
68.04907	66.675
72.43941	72.775
76.82654	69.875
81.21044	75.375
85.59113	76.875
89.96862	79.875
94.34289	82.375
98.71396	85.875
103.08183	89.575
107.4465	90.775
111.80798	92.075
116.16626	98.075
120.52136	99.975
124.87327	103.675
129.222	102.175
133.56755	116.675
137.90993	119.475
142.24913	132.275
146.58517	147.075
150.91804	171.075
155.24774	200.375
159.57429	248.975
163.89768	308.875
168.21792	412.875
172.53501	560.075
176.84895	778.975
181.15975	1080.375
185.46741	1535.675
189.77193	2123.475
194.07331	2844.475
198.37157	3674.775
202.6667	4563.475
206.9587	5384.675
211.24758	6233.975
215.53334	7083.675
219.81599	7934.775
224.09553	8921.175
228.37195	9979.675
232.64527	11128.175
236.91549	12394.475
241.18261	13675.375
245.44663	14934.175
249.70755	16024.875
253.96539	17051.875
258.22014	17921.275
262.4718	18643.775
266.72039	19169.475
270.96589	19495.275
275.20832	19587.775
279.44768	19532.375
283.68397	19384.075
287.91719	19214.375
292.14735	19080.375
296.37445	19074.075
300.59849	19117.675
304.81948	19078.575
309.03742	18948.375
313.25231	18688.775
317.46415	18304.575
321.67296	17885.275
325.87872	17556.875
330.08145	17438.775
334.28114	17492.275
338.47781	17649.375
342.67145	17888.275
346.86207	18128.975
351.04966	18416.375
355.23424	18747.775
359.4158	19108.375
363.59435	19331.775
367.76989	19514.275
371.94243	19671.575
376.11196	19818.575
380.27849	19931.475
384.44203	20080.075
388.60257	20192.475
392.76012	20309.675
396.91468	20525.675
401.06626	20771.875
405.21485	21004.775
409.36047	20966.175
413.50311	20791.275
417.64277	20607.575
421.77947	20573.175
425.9132	20658.275
430.04396	20783.375
434.17176	20982.075
438.2966	21123.375
442.41849	21425.475
446.53742	21858.875
450.6534	22328.375
454.76644	22743.675
458.87653	22948.175
462.98368	22931.675
467.08789	22747.075
471.18916	22624.275
475.2875	22450.075
479.38291	22379.675
483.4754	22311.675
487.56496	22081.475
491.6516	21780.675
495.73531	21527.075
499.81612	21366.075
503.89401	21403.975
507.96899	21436.975
512.04106	21426.275
516.11023	21421.875
520.1765	21296.475
524.23987	21247.675
528.30034	21111.175
532.35792	20975.775
536.41261	20842.575
540.46441	20727.975
544.51333	20803.075
548.55936	20998.275
552.60252	21293.575
556.64279	21618.375
560.6802	21779.275
564.71473	21882.575
568.7464	22090.675
572.7752	22366.175
576.80114	22556.175
580.82422	22664.975
584.84444	22774.275
588.86181	22938.375
592.87633	23124.275
596.888	23366.675
600.89682	23489.175
604.9028	24060.975
608.90594	25462.175
612.90624	27062.875
616.90371	25904.975
620.89834	22951.975
624.89015	21648.175
628.87913	21544.075
632.86528	21590.375
636.84862	21589.475
640.82913	21345.575
644.80683	21013.675
648.78172	20726.075
652.75379	20688.975
656.72306	20804.175
660.68952	21044.775
664.65319	21013.375
668.61405	20812.775
672.57211	20745.575
676.52738	20777.275
680.47986	20822.275
684.42955	20763.275
688.37646	20754.075
692.32058	20818.675
696.26192	20949.875
700.20048	21105.175
704.13626	21205.975
708.06928	21169.875
711.99952	21049.275
715.927	21011.075
719.85171	21002.075
723.77365	21007.075
727.69284	20925.275
731.60928	20814.075
735.52295	20762.875
739.43388	20788.275
743.34206	20865.775
747.24749	20905.475
751.15017	21029.975
755.05012	21306.275
758.94733	21659.775
762.8418	22376.475
766.73354	23486.775
770.62254	24545.075
774.50882	24864.075
778.39237	24100.075
782.27321	22759.475
786.15132	21712.075
790.02671	21116.875
793.89938	20811.475
797.76935	20716.075
801.6366	20697.375
805.50115	20647.775
809.36299	20585.475
813.22213	20506.175
817.07857	20486.075
820.93231	20494.175
824.78336	20454.575
828.63172	20465.775
832.47738	20452.375
836.32036	20485.975
840.16066	20523.575
843.99827	20511.375
847.8332	20555.775
851.66546	20496.775
855.49504	20478.275
859.32195	20491.175
863.1462	20435.775
866.96777	20437.775
870.78668	20379.575
874.60293	20367.675
878.41652	20376.175
882.22745	20410.775
886.03573	20402.975
889.84136	20445.975
893.64433	20338.675
897.44466	20323.775
901.24235	20257.075
905.0374	20211.175
908.8298	20221.175
912.61957	20255.175
916.40671	20361.275
920.19121	20519.575
923.97308	20645.875
927.75233	20668.075
931.52895	20601.975
935.30295	20456.175
939.07433	20217.075
942.84309	20070.475
946.60924	19933.275
950.37278	19863.975
954.13371	19838.875
957.89203	19768.375
961.64774	19698.975
965.40086	19666.075
969.15137	19620.075
972.89929	19504.575
976.64461	19506.875
980.38733	19517.075
984.12747	19591.175
987.86502	19732.975
991.59999	19892.275
995.33237	20167.675
999.06217	20542.275
1002.78939	20968.175
1006.51404	21159.575
1010.23611	21246.175
1013.95561	21354.075
1017.67255	21398.875
1021.38692	21284.175
1025.09872	21188.375
1028.80796	21321.375
1032.51465	21751.475
1036.21877	22168.075
1039.92035	22199.875
1043.61937	21935.975
1047.31584	21559.475
1051.00976	21185.975
1054.70114	21035.075
1058.38998	20999.775
1062.07627	21111.975
1065.76003	21169.775
1069.44126	21192.475
1073.11995	21274.875
1076.79611	21394.375
1080.46974	21464.375
1084.14085	21576.475
1087.80943	21694.875
1091.47549	21826.775
1095.13903	21790.375
1098.80005	21635.475
1102.45857	21412.275
1106.11456	21281.675
1109.76805	21284.175
1113.41903	21368.575
1117.06751	21526.275
1120.71348	21683.975
1124.35696	21800.375
1127.99793	21959.175
1131.63641	22054.275
1135.2724	21941.675
1138.90589	21728.475
1142.5369	21662.975
1146.16542	21569.575
1149.79145	21624.375
1153.415	21720.475
1157.03607	21933.875
1160.65467	22288.875
1164.27079	22913.575
1167.88443	23715.975
1171.49561	24635.675
1175.10432	25902.975
1178.71056	27480.375
1182.31434	28940.975
1185.91565	29856.475
1189.51451	29915.375
1193.11091	29299.475
1196.70485	28376.575
1200.29634	27479.175
1203.88538	26795.875
1207.47197	26251.975
1211.05612	25766.875
1214.63782	25360.775
1218.21708	25079.075
1221.79391	24867.875
1225.36829	24786.975
1228.94024	24593.775
1232.50976	24260.875
1236.07685	24059.075
1239.6415	24005.675
1243.20374	24089.075
1246.76355	24262.275
1250.32093	24494.775
1253.8759	24884.775
1257.42845	25416.275
1260.97859	25812.075
1264.52631	26180.675
1268.07163	26599.775
1271.61453	27112.975
1275.15503	27644.675
1278.69312	28246.675
1282.22882	28783.575
1285.76211	29197.575
1289.29301	29679.275
1292.82151	30459.375
1296.34761	31460.275
1299.87133	32800.875
1303.39266	34317.175
1306.9116	35993.575
1310.42815	37634.575
1313.94233	38645.875
1317.45412	38684.275
1320.96354	38084.375
1324.47058	37427.675
1327.97525	36840.075
1331.47754	36446.075
1334.97747	36393.575
1338.47502	36651.275
1341.97022	36927.875
1345.46305	36801.675
1348.95352	36335.175
1352.44163	35898.775
1355.92738	35897.675
1359.41078	36772.975
1362.89183	37629.075
1366.37053	36963.275
1369.84688	34413.775
1373.32088	31627.175
1376.79254	29689.575
1380.26186	28871.275
1383.72883	28771.475
1387.19347	28718.275
1390.65578	28699.675
1394.11575	28747.875
1397.57339	29084.675
1401.0287	29579.875
1404.48168	30103.975
1407.93234	30329.075
1411.38068	30201.175
1414.82669	29686.275
1418.27039	28739.075
1421.71177	27779.775
1425.15083	26867.175
1428.58758	26329.575
1432.02203	26248.875
1435.45416	26506.775
1438.88399	26916.775
1442.31151	27350.575
1445.73673	27740.675
1449.15965	28066.375
1452.58027	28338.775
1455.9986	28565.575
1459.41463	28727.375
1462.82837	29047.175
1466.23982	29462.775
1469.64898	29832.975
1473.05586	30058.175
1476.46045	30081.675
1479.86276	30017.775
1483.26279	29789.975
1486.66054	29578.675
1490.05602	29600.575
1493.44922	29665.075
1496.84016	29719.575
1500.22882	29930.075
1503.61521	30512.575
1506.99934	31323.275
1510.38121	32153.275
1513.76081	32500.175
1517.13816	32060.975
1520.51324	31103.875
1523.88607	30136.575
1527.25665	29519.775
1530.62498	29293.675
1533.99105	29202.875
1537.35488	29140.575
1540.71647	29009.775
1544.07581	28774.275
1547.4329	28438.375
1550.78776	28066.375
1554.14038	27832.275
1557.49077	27733.875
1560.83892	27698.675
1564.18484	27663.975
1567.52853	27658.175
1570.86999	27672.775
1574.20922	27905.375
1577.54624	28094.875
1580.88103	28186.975
1584.2136	28305.175
1587.54395	28827.975
1590.87208	29801.075
1594.19801	31121.275
1597.52172	32550.675
1600.84321	33042.075
1604.16251	32118.175
1607.47959	30362.975
1610.79447	28444.375
1614.10715	26637.375
1617.41763	25108.275
1620.7259	24029.575
1624.03199	23452.875
1627.33587	23362.875
1630.63757	23786.875
1633.93707	24702.475
1637.23439	26130.475
1640.52951	28001.375
1643.82246	30057.375
1647.11321	31639.575
1650.40179	31999.775
1653.68819	30577.775
1656.97241	27884.975
1660.25446	25100.475
1663.53433	23001.875
1666.81203	21554.875
1670.08756	20623.975
1673.36092	20018.775
1676.63211	19632.875
1679.90115	19316.175
1683.16801	19112.775
1686.43272	18954.175
1689.69527	18849.575
1692.95567	18756.875
1696.2139	18703.775
1699.46999	18655.275
1702.72392	18600.475
1705.97571	18589.775
1709.22535	18523.575
1712.47284	18463.175
1715.71819	18491.175
1718.96139	18485.275
1722.20246	18436.175
1725.44139	18367.075
1728.67818	18268.975
1731.91284	18217.475
1735.14537	18160.475
1738.37576	18095.175
1741.60403	18058.575
1744.83017	18012.675
1748.05418	17984.075
1751.27607	17960.475
1754.49584	17924.475
1757.71349	17954.675
1760.92903	17927.175
1764.14244	17910.875
1767.35375	17890.275
1770.56294	17870.175
1773.77002	17862.075
1776.97499	17833.375
1780.17785	17793.475
1783.37861	17772.475
1786.57727	17749.975
1789.77382	17744.875
1792.96828	17695.475
1796.16064	17667.275
1799.3509	17657.975
1802.53907	17653.275
1805.72514	17583.575
1808.90913	17561.375
1812.09102	17530.075
1815.27083	17463.375
1818.44856	17480.575
1821.6242	17447.975
1824.79776	17431.275
1827.96924	17384.575
1831.13864	17420.075
1834.30597	17368.675
1837.47122	17424.775
1840.6344	17384.675
1843.7955	17377.975
1846.95454	17358.275
1850.11151	17372.575
1853.26642	17326.375
1856.41926	17377.375
1859.57004	17364.475
1862.71876	17340.075
1865.86542	17321.675
1869.01003	17309.175
1872.15258	17303.075
1875.29308	17319.475
1878.43152	17337.275
1881.56792	17289.775
1884.70227	17301.375
1887.83457	17272.875
1890.96482	17238.575
1894.09304	17204.175
1897.21921	17204.375
1900.34335	17193.775
1903.46544	17150.075
1906.58551	17168.675
1909.70353	17137.875
1912.81953	17155.075
1915.93349	17152.475
1919.04543	17089.475
1922.15534	17065.875
1925.26322	17032.675
1928.36908	17027.475
1931.47292	16981.975
1934.57473	16948.575
1937.67453	16958.575
1940.77232	16920.075
1943.86808	16840.075
1946.96184	16756.675
1950.05358	16742.175
1953.14331	16691.575
1956.23103	16644.175
1959.31675	16613.275
1962.40046	16561.075
1965.48217	16519.075
1968.56188	16446.875
1971.63959	16408.475
1974.7153	16353.175
1977.78901	16344.875
1980.86073	16283.675
1983.93046	16241.175
1986.99819	16207.075
1990.06394	16174.075
1993.1277	16136.975
1996.18947	16070.275
1999.24925	16054.875
2002.30706	15979.475
2005.36288	15957.175
2008.41672	15896.475
2011.46859	15863.375
2014.51848	15865.575
2017.56639	15823.275
2020.61233	15765.475
2023.6563	15716.675
2026.6983	15699.375
2029.73833	15621.975
2032.7764	15639.275
2035.8125	15613.675
2038.84664	15561.075
2041.87881	15533.375
2044.90903	15486.075
2047.93729	15501.575
2050.96359	15458.175
2053.98794	15454.775
2057.01034	15460.175
2060.03078	15447.175
2063.04927	15401.875
2066.06582	15440.175
2069.08042	15393.575
2072.09307	15403.775
2075.10378	15362.875
2078.11255	15345.575
2081.11938	15374.675
2084.12426	15346.475
2087.12722	15360.875
2090.12824	15306.375
2093.12732	15291.275
2096.12447	15318.475
2099.11969	15325.375
2102.11299	15319.475
2105.10435	15305.575
2108.09379	15363.575
2111.08131	15356.075
2114.0669	15380.975
2117.05057	15375.975
2120.03233	15375.375
2123.01216	15394.775
2125.99008	15402.475
2128.96609	15440.475
2131.94018	15435.375
2134.91236	15444.575
2137.88263	15473.075
2140.851	15501.575
2143.81746	15506.375
2146.78201	15493.475
2149.74466	15503.375
2152.7054	15508.975
2155.66425	15489.175
2158.6212	15493.075
2161.57625	15504.775
2164.52941	15508.275
2167.48067	15492.075
2170.43004	15491.275
2173.37752	15467.975
2176.32311	15516.175
2179.26681	15487.475
2182.20863	15489.675
2185.14856	15487.075
2188.08661	15488.975
2191.02278	15484.275
2193.95707	15483.375
2196.88948	15513.475
2199.82001	15493.075
2202.74867	15475.675
2205.67545	15477.075
2208.60037	15434.575
2211.52341	15444.375
2214.44458	15456.275
2217.36388	15396.075
2220.28132	15391.975
2223.1969	15370.175
2226.11061	15340.075
2229.02246	15284.275
2231.93245	15273.275
2234.84058	15237.375
2237.74686	15260.175
2240.65128	15215.275
2243.55385	15185.575
2246.45456	15131.175
2249.35343	15163.875
2252.25044	15102.475
2255.14561	15120.975
2258.03893	15090.275
2260.93041	15071.775
2263.82004	15012.075
2266.70783	14980.875
2269.59378	14938.775
2272.4779	14914.975
2275.36017	14850.475
2278.24061	14851.175
2281.11922	14816.875
2283.996	14822.975
2286.87094	14789.775
2289.74405	14784.175
2292.61534	14794.775
2295.4848	14788.775
2298.35243	14757.275
2301.21824	14754.175
2304.08223	14768.575
2306.94439	14755.975
2309.80474	14767.375
2312.66327	14764.075
2315.51999	14789.675
2318.37489	14799.875
2321.22797	14757.375
2324.07925	14726.675
2326.92871	14721.675
2329.77637	14727.075
2332.62222	14688.975
2335.46626	14672.875
2338.3085	14648.575
2341.14893	14672.775
2343.98756	14658.875
2346.8244	14650.775
2349.65943	14665.575
2352.49267	14658.975
2355.32411	14630.575
2358.15376	14641.775
2360.98161	14652.075
2363.80768	14638.475
2366.63195	14603.575
2369.45444	14555.175
2372.27514	14530.675
2375.09405	14544.775
2377.91118	14506.875
2380.72652	14454.175
2383.54009	14432.775
2386.35187	14419.775
2389.16188	14338.375
2391.97011	14362.975
2394.77657	14307.775
2397.58125	14289.775
2400.38416	14269.175
2403.18529	14265.675
2405.98466	14241.375
2408.78226	14232.075
2411.57809	14197.475
2414.37216	14190.175
2417.16446	14182.775
2419.955	14136.875
2422.74378	14172.275
2425.5308	14130.975
2428.31606	14143.875
2431.09956	14141.375
2433.88131	14087.675
2436.6613	14088.775
2439.43954	14118.775
2442.21603	14096.575
2444.99077	14068.775
2447.76377	14061.375
2450.53501	14084.975
2453.30451	14051.975
2456.07226	14013.175
2458.83827	14047.175
2461.60254	14001.075
2464.36507	14002.275
2467.12586	13983.175
2469.88492	13988.675
2472.64224	13977.175
2475.39782	14018.275
2478.15167	14012.775
2480.90379	13990.075
2483.65417	14041.275
2486.40283	14024.975
2489.14976	14032.775
2491.89497	14024.275
2494.63845	14028.675
2497.3802	14035.975
2500.12024	14024.475
2502.85855	13999.675
2505.59514	13984.475
2508.33002	13998.375
2511.06318	13987.075
2513.79462	13950.475
2516.52435	13955.475
2519.25237	13920.275
2521.97867	13906.475
2524.70327	13927.075
2527.42616	13904.875
2530.14734	13910.575
2532.86681	13903.475
2535.58458	13895.875
2538.30065	13909.675
2541.01501	13868.075
2543.72768	13907.275
2546.43864	13847.975
2549.14791	13855.375
2551.85548	13851.675
2554.56136	13798.675
2557.26554	13748.675
2559.96803	13773.575
2562.66883	13726.475
2565.36794	13697.175
2568.06536	13726.675
2570.7611	13682.975
2573.45514	13668.075
2576.14751	13651.875
2578.83819	13645.575
2581.52719	13634.475
2584.21451	13622.875
2586.90015	13624.675
2589.58411	13612.275
2592.2664	13602.375
2594.94701	13575.375
2597.62594	13574.175
2600.30321	13556.475
2602.9788	13536.275
2605.65273	13516.875
2608.32498	13536.975
2610.99557	13517.875
2613.66449	13487.175
2616.33175	13516.475
2618.99734	13505.575
2621.66128	13514.375
2624.32355	13479.275
2626.98416	13516.975
2629.64311	13512.675
2632.30041	13500.475
2634.95605	13460.875
2637.61004	13439.975
2640.26238	13426.075
2642.91306	13422.375
2645.56209	13371.875
2648.20948	13392.575
2650.85521	13396.075
2653.4993	13404.075
2656.14175	13410.175
2658.78255	13391.175
2661.42171	13424.875
2664.05923	13426.375
2666.6951	13409.075
2669.32934	13423.175
2671.96194	13452.775
2674.59291	13432.275
2677.22224	13435.875
2679.84993	13452.675
2682.476	13414.075
2685.10043	13410.875
2687.72324	13348.075
2690.34441	13369.575
2692.96396	13381.775
2695.58188	13368.875
2698.19818	13379.075
2700.81285	13383.175
2703.4259	13371.475
2706.03733	13399.075
2708.64714	13378.575
2711.25533	13404.075
2713.86191	13388.975
2716.46687	13416.475
2719.07021	13429.075
2721.67194	13411.475
2724.27206	13424.075
2726.87057	13443.075
2729.46747	13439.575
2732.06276	13451.775
2734.65644	13435.075
2737.24852	13432.075
2739.83899	13421.175
2742.42786	13414.575
2745.01513	13362.475
2747.60079	13351.275
2750.18486	13366.075
2752.76733	13374.475
2755.3482	13335.575
2757.92747	13351.875
2760.50515	13308.775
2763.08123	13361.875
2765.65573	13316.275
2768.22863	13309.775
2770.79994	13302.075
2773.36967	13287.675
2775.9378	13319.775
2778.50435	13330.875
2781.06932	13308.775
2783.6327	13303.575
2786.1945	13282.875
2788.75471	13284.675
2791.31335	13232.375
2793.87041	13255.675
2796.42589	13228.975
2798.97979	13198.375
2801.53212	13200.675
2804.08288	13160.075
2806.63206	13101.275
2809.17967	13079.875
2811.72571	13063.975
2814.27018	13064.475
2816.81308	13025.375
2819.35442	13009.575
2821.89419	12975.675
2824.43239	12973.975
2826.96904	12927.775
2829.50412	12975.175
2832.03763	12952.975
2834.56959	12950.575
2837.1	12894.175
2839.62884	12913.275
2842.15613	12924.675
2844.68186	12938.875
2847.20604	12949.175
2849.72867	12939.475
2852.24974	12922.875
2854.76927	12903.175
2857.28724	12869.875
2859.80367	12856.275
2862.31855	12826.275
2864.83189	12860.975
2867.34368	12813.075
2869.85393	12818.375
2872.36264	12775.375
2874.8698	12800.675
2877.37543	12807.375
2879.87952	12804.475
2882.38207	12812.075
2884.88308	12804.775
2887.38256	12813.375
2889.88051	12811.275
2892.37692	12806.475
2894.8718	12797.875
2897.36515	12828.075
2899.85698	12822.275
2902.34727	12890.875
2904.83604	12848.775
2907.32328	12896.775
2909.809	12889.475
2912.29319	12880.675
2914.77587	12884.375
2917.25702	12879.775
2919.73665	12859.075
2922.21476	12873.675
2924.69136	12857.075
2927.16644	12847.175
2929.64	12844.175
2932.11205	12818.475
2934.58258	12775.475
2937.05161	12793.175
2939.51912	12823.275
2941.98513	12809.875
2944.44962	12785.175
2946.91261	12725.475
2949.37409	12751.375
2951.83407	12730.175
2954.29254	12747.275
2956.74951	12731.875
2959.20498	12703.975
2961.65895	12721.475
2964.11142	12714.975
2966.56239	12689.375
2969.01186	12678.875
2971.45984	12657.775
2973.90632	12648.775
2976.35131	12649.875
2978.7948	12607.575
2981.23681	12596.175
2983.67732	12580.175
2986.11635	12548.675
2988.55388	12543.475
2990.98993	12546.075
2993.4245	12471.275
2995.85758	12468.875
2998.28917	12414.375
3000.71928	12413.075
3003.14791	12379.975
3005.57506	12376.275
3008.00073	12365.075
3010.42493	12324.875
3012.84764	12315.875
3015.26888	12298.975
3017.68865	12254.575
3020.10694	12271.775
3022.52376	12269.375
3024.9391	12257.875
3027.35298	12217.675
3029.76539	12203.375
3032.17632	12208.075
3034.5858	12193.875
3036.9938	12199.675
3039.40034	12192.575
3041.80542	12197.275
3044.20903	12152.175
3046.61118	12168.875
3049.01187	12130.575
3051.4111	12144.775
3053.80888	12129.575
3056.20519	12069.875
3058.60005	12050.675
3060.99345	12034.275
3063.3854	12008.675
3065.7759	11993.775
3068.16494	11961.475
3070.55254	11948.875
3072.93868	11937.875
3075.32338	11886.575
3077.70662	11872.475
3080.08842	11847.975
3082.46878	11828.775
3084.84769	11821.775
3087.22515	11827.275
3089.60118	11830.175
3091.97576	11788.875
3094.3489	11822.775
3096.72061	11808.575
3099.09087	11812.675
3101.4597	11779.575
3103.82709	11803.175
3106.19305	11809.275
3108.55757	11793.975
3110.92066	11777.375
3113.28232	11739.975
3115.64255	11735.575
3118.00134	11733.475
3120.35871	11690.475
3122.71466	11659.675
3125.06917	11647.075
3127.42226	11619.275
