Data from AgNP_FTO_APTES_UA_10uM_CRN_50uM_R6G_10uM_NaF_0.1M_Addition_RamanShift__22__17-08-10-810.txt Node

Date: Thu Feb 10 17:08:10 GMT 2022
User: TCL
Spectrometer: QEP01345
Trigger mode: 4
Integration Time (sec): 7.000000E0
Scans to average: 10
Electric dark correction enabled: true
Nonlinearity correction enabled: false
Boxcar width: 0
XAxis mode: Raman Shifts
Number of Pixels in Spectrum: 1044
>>>>>Begin Spectral Data<<<<<
46.04893	0.375
50.45542	-0.425
54.85868	-2.525
59.25871	-1.025
63.6555	64.975
68.04907	65.375
72.43941	68.475
76.82654	72.275
81.21044	77.675
85.59113	74.875
89.96862	79.475
94.34289	83.575
98.71396	82.875
103.08183	91.775
107.4465	93.775
111.80798	90.275
116.16626	94.275
120.52136	98.175
124.87327	101.175
129.222	108.375
133.56755	113.375
137.90993	120.375
142.24913	130.175
146.58517	145.975
150.91804	164.875
155.24774	201.075
159.57429	242.475
163.89768	312.375
168.21792	407.575
172.53501	562.275
176.84895	787.475
181.15975	1100.275
185.46741	1536.875
189.77193	2145.975
194.07331	2844.275
198.37157	3671.375
202.6667	4538.575
206.9587	5398.975
211.24758	6227.475
215.53334	7044.175
219.81599	7925.275
224.09553	8878.075
228.37195	9940.875
232.64527	11148.875
236.91549	12375.375
241.18261	13683.375
245.44663	14869.275
249.70755	16005.275
253.96539	17017.675
258.22014	17856.875
262.4718	18573.775
266.72039	19117.075
270.96589	19459.275
275.20832	19525.075
279.44768	19494.375
283.68397	19391.875
287.91719	19229.675
292.14735	19146.475
296.37445	19135.575
300.59849	19156.475
304.81948	19138.375
309.03742	18965.075
313.25231	18723.175
317.46415	18293.275
321.67296	17845.575
325.87872	17478.075
330.08145	17380.375
334.28114	17396.175
338.47781	17526.075
342.67145	17727.975
346.86207	18033.775
351.04966	18333.175
355.23424	18669.375
359.4158	19012.075
363.59435	19188.875
367.76989	19387.775
371.94243	19535.975
376.11196	19629.575
380.27849	19725.575
384.44203	19885.175
388.60257	20003.075
392.76012	20133.875
396.91468	20364.675
401.06626	20661.075
405.21485	20856.275
409.36047	20825.875
413.50311	20622.875
417.64277	20422.475
421.77947	20402.975
425.9132	20469.775
430.04396	20599.675
434.17176	20744.775
438.2966	20946.175
442.41849	21277.975
446.53742	21677.675
450.6534	22178.575
454.76644	22615.675
458.87653	22820.275
462.98368	22793.175
467.08789	22615.675
471.18916	22428.775
475.2875	22272.075
479.38291	22167.875
483.4754	22051.775
487.56496	21782.675
491.6516	21476.975
495.73531	21206.975
499.81612	21079.675
503.89401	21116.475
507.96899	21189.875
512.04106	21175.275
516.11023	21107.975
520.1765	20975.875
524.23987	20858.475
528.30034	20732.575
532.35792	20566.075
536.41261	20475.275
540.46441	20378.075
544.51333	20427.875
548.55936	20668.975
552.60252	20944.075
556.64279	21307.275
560.6802	21498.275
564.71473	21577.275
568.7464	21765.575
572.7752	22052.975
576.80114	22235.375
580.82422	22380.075
584.84444	22518.275
588.86181	22655.175
592.87633	22881.675
596.888	23087.775
600.89682	23285.575
604.9028	23937.775
608.90594	25513.075
612.90624	27130.575
616.90371	25803.875
620.89834	22587.875
624.89015	21339.675
628.87913	21242.075
632.86528	21258.675
636.84862	21165.875
640.82913	20963.475
644.80683	20545.775
648.78172	20265.075
652.75379	20175.175
656.72306	20320.475
660.68952	20575.075
664.65319	20584.375
668.61405	20328.575
672.57211	20232.175
676.52738	20263.375
680.47986	20313.375
684.42955	20316.175
688.37646	20269.875
692.32058	20347.075
696.26192	20439.075
700.20048	20642.775
704.13626	20699.875
708.06928	20710.575
711.99952	20542.375
715.927	20483.375
719.85171	20506.975
723.77365	20458.275
727.69284	20410.375
731.60928	20292.375
735.52295	20234.475
739.43388	20258.875
743.34206	20310.675
747.24749	20385.975
751.15017	20516.375
755.05012	20775.175
758.94733	21243.975
762.8418	22025.675
766.73354	23240.375
770.62254	24348.475
774.50882	24575.675
778.39237	23724.475
782.27321	22321.875
786.15132	21214.375
790.02671	20583.675
793.89938	20278.475
797.76935	20144.375
801.6366	20134.375
805.50115	20110.675
809.36299	20017.075
813.22213	19952.775
817.07857	19921.575
820.93231	19903.875
824.78336	19864.675
828.63172	19899.175
832.47738	19868.575
836.32036	19898.275
840.16066	19960.075
843.99827	19994.475
847.8332	19983.575
851.66546	19935.475
855.49504	19909.875
859.32195	19919.575
863.1462	19865.375
866.96777	19807.075
870.78668	19762.675
874.60293	19756.975
878.41652	19775.675
882.22745	19801.775
886.03573	19803.675
889.84136	19809.175
893.64433	19721.275
897.44466	19691.375
901.24235	19626.575
905.0374	19599.375
908.8298	19583.975
912.61957	19631.075
916.40671	19801.275
920.19121	19987.775
923.97308	20120.175
927.75233	20149.475
931.52895	20073.675
935.30295	19904.775
939.07433	19649.575
942.84309	19450.775
946.60924	19352.575
950.37278	19290.075
954.13371	19251.875
957.89203	19170.875
961.64774	19110.075
965.40086	19050.275
969.15137	19003.375
972.89929	18909.875
976.64461	18900.575
980.38733	18905.475
984.12747	18973.875
987.86502	19139.775
991.59999	19308.975
995.33237	19629.875
999.06217	20027.375
1002.78939	20547.175
1006.51404	20783.075
1010.23611	20872.875
1013.95561	21006.575
1017.67255	21048.475
1021.38692	20907.775
1025.09872	20811.375
1028.80796	21038.775
1032.51465	21517.775
1036.21877	22010.975
1039.92035	22044.475
1043.61937	21745.975
1047.31584	21293.975
1051.00976	20857.875
1054.70114	20603.975
1058.38998	20641.375
1062.07627	20698.075
1065.76003	20793.075
1069.44126	20827.575
1073.11995	20934.375
1076.79611	21077.675
1080.46974	21140.675
1084.14085	21238.775
1087.80943	21385.675
1091.47549	21475.675
1095.13903	21433.875
1098.80005	21282.975
1102.45857	21031.975
1106.11456	20860.475
1109.76805	20812.975
1113.41903	20917.575
1117.06751	21063.975
1120.71348	21253.675
1124.35696	21443.475
1127.99793	21556.175
1131.63641	21649.675
1135.2724	21532.275
1138.90589	21330.675
1142.5369	21226.675
1146.16542	21238.175
1149.79145	21246.075
1153.415	21348.075
1157.03607	21624.775
1160.65467	22044.875
1164.27079	22674.575
1167.88443	23534.475
1171.49561	24566.675
1175.10432	25989.775
1178.71056	27648.975
1182.31434	29283.975
1185.91565	30253.675
1189.51451	30317.475
1193.11091	29618.175
1196.70485	28597.675
1200.29634	27580.575
1203.88538	26798.575
1207.47197	26201.575
1211.05612	25704.475
1214.63782	25241.875
1218.21708	24959.175
1221.79391	24819.775
1225.36829	24703.175
1228.94024	24531.375
1232.50976	24202.075
1236.07685	24015.775
1239.6415	24008.675
1243.20374	24040.775
1246.76355	24187.475
1250.32093	24475.275
1253.8759	24941.275
1257.42845	25535.375
1260.97859	25933.075
1264.52631	26345.175
1268.07163	26788.875
1271.61453	27366.375
1275.15503	27994.675
1278.69312	28692.175
1282.22882	29194.175
1285.76211	29711.875
1289.29301	30257.575
1292.82151	30934.575
1296.34761	31966.075
1299.87133	33355.975
1303.39266	34925.775
1306.9116	36761.075
1310.42815	38555.275
1313.94233	39642.775
1317.45412	39705.675
1320.96354	39157.775
1324.47058	38462.175
1327.97525	37870.675
1331.47754	37500.075
1334.97747	37468.175
1338.47502	37795.575
1341.97022	38049.175
1345.46305	38024.075
1348.95352	37498.275
1352.44163	36881.375
1355.92738	36876.375
1359.41078	37751.875
1362.89183	38689.675
1366.37053	37872.875
1369.84688	35156.875
1373.32088	32171.475
1376.79254	30178.275
1380.26186	29314.675
1383.72883	29161.075
1387.19347	29139.375
1390.65578	29059.675
1394.11575	29076.875
1397.57339	29357.275
1401.0287	29881.875
1404.48168	30409.675
1407.93234	30725.075
1411.38068	30679.775
1414.82669	30068.175
1418.27039	29119.275
1421.71177	28047.175
1425.15083	27087.175
1428.58758	26538.075
1432.02203	26438.975
1435.45416	26730.375
1438.88399	27163.275
1442.31151	27583.475
1445.73673	28045.875
1449.15965	28407.075
1452.58027	28739.175
1455.9986	28890.175
1459.41463	29150.675
1462.82837	29531.775
1466.23982	30012.475
1469.64898	30465.475
1473.05586	30726.875
1476.46045	30757.175
1479.86276	30699.375
1483.26279	30480.475
1486.66054	30332.775
1490.05602	30300.075
1493.44922	30427.375
1496.84016	30499.175
1500.22882	30802.575
1503.61521	31345.775
1506.99934	32228.775
1510.38121	33089.275
1513.76081	33448.475
1517.13816	32972.075
1520.51324	32000.875
1523.88607	30955.975
1527.25665	30353.875
1530.62498	30019.875
1533.99105	29924.375
1537.35488	29786.575
1540.71647	29587.775
1544.07581	29336.875
1547.4329	28957.575
1550.78776	28605.275
1554.14038	28387.875
1557.49077	28263.775
1560.83892	28208.075
1564.18484	28187.975
1567.52853	28137.475
1570.86999	28159.275
1574.20922	28354.275
1577.54624	28546.675
1580.88103	28576.275
1584.2136	28690.775
1587.54395	29247.075
1590.87208	30284.875
1594.19801	31662.675
1597.52172	33240.675
1600.84321	33754.375
1604.16251	32787.775
1607.47959	30865.275
1610.79447	28842.575
1614.10715	26917.375
1617.41763	25286.975
1620.7259	24172.675
1624.03199	23528.675
1627.33587	23493.675
1630.63757	23966.975
1633.93707	24964.075
1637.23439	26470.375
1640.52951	28511.875
1643.82246	30679.675
1647.11321	32251.175
1650.40179	32538.675
1653.68819	31046.875
1656.97241	28187.275
1660.25446	25265.575
1663.53433	22985.675
1666.81203	21452.675
1670.08756	20442.875
1673.36092	19817.775
1676.63211	19364.375
1679.90115	19043.475
1683.16801	18820.375
1686.43272	18667.375
1689.69527	18556.375
1692.95567	18439.275
1696.2139	18370.475
1699.46999	18349.375
1702.72392	18315.775
1705.97571	18262.975
1709.22535	18219.075
1712.47284	18140.175
1715.71819	18139.675
1718.96139	18115.875
1722.20246	18093.075
1725.44139	18003.675
1728.67818	17888.275
1731.91284	17838.775
1735.14537	17781.975
1738.37576	17754.475
1741.60403	17666.975
1744.83017	17654.775
1748.05418	17626.975
1751.27607	17614.975
1754.49584	17588.975
1757.71349	17601.975
1760.92903	17570.275
1764.14244	17541.875
1767.35375	17575.775
1770.56294	17538.175
1773.77002	17495.775
1776.97499	17446.875
1780.17785	17412.375
1783.37861	17409.075
1786.57727	17365.875
1789.77382	17351.075
1792.96828	17329.075
1796.16064	17287.275
1799.3509	17280.575
1802.53907	17248.975
1805.72514	17218.875
1808.90913	17169.675
1812.09102	17153.375
1815.27083	17118.275
1818.44856	17136.575
1821.6242	17057.775
1824.79776	17064.675
1827.96924	17073.375
1831.13864	17036.075
1834.30597	17056.175
1837.47122	17032.975
1840.6344	17045.475
1843.7955	17016.175
1846.95454	16993.175
1850.11151	17015.875
1853.26642	16972.575
1856.41926	17029.275
1859.57004	17015.475
1862.71876	16997.175
1865.86542	16984.875
1869.01003	16979.775
1872.15258	16952.475
1875.29308	16984.275
1878.43152	16965.175
1881.56792	16967.275
1884.70227	16942.875
1887.83457	16929.875
1890.96482	16902.675
1894.09304	16854.375
1897.21921	16887.475
1900.34335	16854.675
1903.46544	16850.375
1906.58551	16875.775
1909.70353	16828.175
1912.81953	16808.675
1915.93349	16812.275
1919.04543	16744.975
1922.15534	16741.575
1925.26322	16716.075
1928.36908	16710.175
1931.47292	16659.375
1934.57473	16623.875
1937.67453	16622.675
1940.77232	16562.375
1943.86808	16487.775
1946.96184	16443.875
1950.05358	16407.675
1953.14331	16365.375
1956.23103	16337.475
1959.31675	16276.375
1962.40046	16230.875
1965.48217	16168.575
1968.56188	16130.275
1971.63959	16050.175
1974.7153	16022.875
1977.78901	15999.475
1980.86073	15940.175
1983.93046	15923.575
1986.99819	15869.475
1990.06394	15823.675
1993.1277	15770.275
1996.18947	15737.775
1999.24925	15707.375
2002.30706	15632.475
2005.36288	15636.375
2008.41672	15551.275
2011.46859	15569.275
2014.51848	15490.875
2017.56639	15503.075
2020.61233	15453.275
2023.6563	15387.475
2026.6983	15384.175
2029.73833	15337.875
2032.7764	15289.375
2035.8125	15297.175
2038.84664	15230.175
2041.87881	15207.775
2044.90903	15184.675
2047.93729	15160.775
2050.96359	15178.075
2053.98794	15156.975
2057.01034	15153.275
2060.03078	15116.775
2063.04927	15100.975
2066.06582	15089.275
2069.08042	15081.675
2072.09307	15086.175
2075.10378	15079.775
2078.11255	15054.175
2081.11938	15049.375
2084.12426	15047.675
2087.12722	15050.175
2090.12824	15019.375
2093.12732	15006.375
2096.12447	14985.475
2099.11969	15015.675
2102.11299	15030.975
2105.10435	15023.275
2108.09379	15036.775
2111.08131	15057.875
2114.0669	15035.275
2117.05057	15055.275
2120.03233	15064.575
2123.01216	15072.475
2125.99008	15106.375
2128.96609	15113.775
2131.94018	15120.575
2134.91236	15151.475
2137.88263	15176.175
2140.851	15156.875
2143.81746	15171.475
2146.78201	15187.675
2149.74466	15173.475
2152.7054	15177.975
2155.66425	15181.375
2158.6212	15197.675
2161.57625	15183.575
2164.52941	15151.075
2167.48067	15138.375
2170.43004	15173.675
2173.37752	15171.175
2176.32311	15160.475
2179.26681	15163.775
2182.20863	15145.275
2185.14856	15169.975
2188.08661	15144.575
2191.02278	15166.075
2193.95707	15175.475
2196.88948	15197.275
2199.82001	15165.675
2202.74867	15172.875
2205.67545	15167.275
2208.60037	15157.275
2211.52341	15134.375
2214.44458	15122.175
2217.36388	15122.075
2220.28132	15084.675
2223.1969	15092.875
2226.11061	15065.675
2229.02246	15012.575
2231.93245	14979.675
2234.84058	14952.975
2237.74686	14927.275
2240.65128	14914.775
2243.55385	14858.875
2246.45456	14889.375
2249.35343	14842.075
2252.25044	14824.375
2255.14561	14791.575
2258.03893	14796.875
2260.93041	14744.775
2263.82004	14711.575
2266.70783	14685.175
2269.59378	14626.475
2272.4779	14598.575
2275.36017	14566.075
2278.24061	14558.275
2281.11922	14563.975
2283.996	14524.275
2286.87094	14457.775
2289.74405	14500.775
2292.61534	14482.175
2295.4848	14442.175
2298.35243	14461.275
2301.21824	14456.775
2304.08223	14486.775
2306.94439	14476.275
2309.80474	14492.575
2312.66327	14491.575
2315.51999	14475.275
2318.37489	14513.475
2321.22797	14480.075
2324.07925	14471.175
2326.92871	14427.675
2329.77637	14419.675
2332.62222	14396.175
2335.46626	14409.575
2338.3085	14383.775
2341.14893	14403.075
2343.98756	14406.775
2346.8244	14420.475
2349.65943	14385.275
2352.49267	14395.875
2355.32411	14395.775
2358.15376	14398.875
2360.98161	14387.175
2363.80768	14359.875
2366.63195	14358.575
2369.45444	14315.975
2372.27514	14276.475
2375.09405	14265.675
2377.91118	14248.775
2380.72652	14182.375
2383.54009	14146.275
2386.35187	14129.075
2389.16188	14103.775
2391.97011	14076.175
2394.77657	14058.475
2397.58125	14039.475
2400.38416	14055.475
2403.18529	13992.475
2405.98466	14006.675
2408.78226	13949.675
2411.57809	13977.375
2414.37216	13950.475
2417.16446	13935.475
2419.955	13911.575
2422.74378	13921.775
2425.5308	13902.575
2428.31606	13861.175
2431.09956	13908.675
2433.88131	13863.275
2436.6613	13860.475
2439.43954	13848.175
2442.21603	13853.875
2444.99077	13835.075
2447.76377	13817.375
2450.53501	13810.775
2453.30451	13801.875
2456.07226	13803.275
2458.83827	13780.275
2461.60254	13780.475
2464.36507	13761.975
2467.12586	13789.875
2469.88492	13775.075
2472.64224	13798.475
2475.39782	13788.875
2478.15167	13777.175
2480.90379	13785.475
2483.65417	13806.275
2486.40283	13786.575
2489.14976	13794.575
2491.89497	13805.775
2494.63845	13839.075
2497.3802	13803.175
2500.12024	13797.375
2502.85855	13799.875
2505.59514	13775.475
2508.33002	13776.975
2511.06318	13766.975
2513.79462	13748.175
2516.52435	13729.875
2519.25237	13718.875
2521.97867	13686.775
2524.70327	13706.475
2527.42616	13712.075
2530.14734	13682.375
2532.86681	13685.475
2535.58458	13680.975
2538.30065	13694.075
2541.01501	13675.575
2543.72768	13671.775
2546.43864	13671.175
2549.14791	13654.775
2551.85548	13594.375
2554.56136	13596.875
2557.26554	13575.875
2559.96803	13534.775
2562.66883	13546.775
2565.36794	13525.275
2568.06536	13523.575
2570.7611	13509.775
2573.45514	13476.475
2576.14751	13483.475
2578.83819	13437.875
2581.52719	13453.875
2584.21451	13437.175
2586.90015	13437.375
2589.58411	13429.575
2592.2664	13439.875
2594.94701	13397.375
2597.62594	13420.575
2600.30321	13377.575
2602.9788	13397.275
2605.65273	13337.275
2608.32498	13358.275
2610.99557	13359.175
2613.66449	13348.775
2616.33175	13384.375
2618.99734	13362.775
2621.66128	13380.575
2624.32355	13369.575
2626.98416	13363.075
2629.64311	13337.075
2632.30041	13338.375
2634.95605	13306.875
2637.61004	13281.475
2640.26238	13296.275
2642.91306	13274.275
2645.56209	13258.275
2648.20948	13243.275
2650.85521	13264.775
2653.4993	13270.575
2656.14175	13235.275
2658.78255	13262.675
2661.42171	13271.375
2664.05923	13297.375
2666.6951	13284.775
2669.32934	13294.275
2671.96194	13314.575
2674.59291	13306.175
2677.22224	13302.375
2679.84993	13283.775
2682.476	13288.175
2685.10043	13294.075
2687.72324	13258.975
2690.34441	13231.875
2692.96396	13240.875
2695.58188	13254.175
2698.19818	13227.175
2700.81285	13242.675
2703.4259	13272.575
2706.03733	13260.775
2708.64714	13234.375
2711.25533	13264.375
2713.86191	13258.175
2716.46687	13274.675
2719.07021	13288.675
2721.67194	13278.075
2724.27206	13273.675
2726.87057	13300.775
2729.46747	13277.475
2732.06276	13297.775
2734.65644	13290.075
2737.24852	13295.975
2739.83899	13270.775
2742.42786	13272.675
2745.01513	13242.375
2747.60079	13239.275
2750.18486	13256.075
2752.76733	13214.675
2755.3482	13239.575
2757.92747	13232.375
2760.50515	13205.275
2763.08123	13224.575
2765.65573	13193.675
2768.22863	13188.775
2770.79994	13187.475
2773.36967	13156.475
2775.9378	13198.075
2778.50435	13199.375
2781.06932	13197.975
2783.6327	13165.075
2786.1945	13191.475
2788.75471	13173.875
2791.31335	13140.075
2793.87041	13130.075
2796.42589	13092.975
2798.97979	13095.275
2801.53212	13056.375
2804.08288	13059.375
2806.63206	13012.975
2809.17967	12998.075
2811.72571	12944.475
2814.27018	12972.775
2816.81308	12906.275
2819.35442	12931.375
2821.89419	12893.575
2824.43239	12916.275
2826.96904	12875.475
2829.50412	12892.275
2832.03763	12857.775
2834.56959	12856.075
2837.1	12849.475
2839.62884	12827.175
2842.15613	12834.675
2844.68186	12837.175
2847.20604	12820.575
2849.72867	12853.475
2852.24974	12835.575
2854.76927	12831.175
2857.28724	12776.675
2859.80367	12779.675
2862.31855	12759.075
2864.83189	12723.575
2867.34368	12728.375
2869.85393	12728.875
2872.36264	12705.875
2874.8698	12710.575
2877.37543	12704.475
2879.87952	12729.575
2882.38207	12726.075
2884.88308	12725.775
2887.38256	12710.575
2889.88051	12719.875
2892.37692	12704.075
2894.8718	12717.675
2897.36515	12748.075
2899.85698	12753.175
2902.34727	12812.775
2904.83604	12778.375
2907.32328	12835.475
2909.809	12806.275
2912.29319	12812.575
2914.77587	12791.275
2917.25702	12817.575
2919.73665	12800.875
2922.21476	12808.775
2924.69136	12796.275
2927.16644	12783.775
2929.64	12748.275
2932.11205	12759.375
2934.58258	12703.575
2937.05161	12719.075
2939.51912	12738.075
2941.98513	12752.575
2944.44962	12693.575
2946.91261	12654.875
2949.37409	12678.875
2951.83407	12659.875
2954.29254	12669.475
2956.74951	12657.275
2959.20498	12642.775
2961.65895	12626.575
2964.11142	12631.075
2966.56239	12626.675
2969.01186	12638.575
2971.45984	12612.875
2973.90632	12592.375
2976.35131	12592.175
2978.7948	12567.275
2981.23681	12527.675
2983.67732	12513.375
2986.11635	12474.975
2988.55388	12492.775
2990.98993	12442.775
2993.4245	12446.075
2995.85758	12372.275
2998.28917	12366.675
3000.71928	12340.475
3003.14791	12341.575
3005.57506	12295.875
3008.00073	12288.075
3010.42493	12267.675
3012.84764	12222.075
3015.26888	12241.275
3017.68865	12183.475
3020.10694	12179.175
3022.52376	12174.075
3024.9391	12151.975
3027.35298	12117.175
3029.76539	12146.775
3032.17632	12156.775
3034.5858	12115.675
3036.9938	12122.275
3039.40034	12107.175
3041.80542	12126.475
3044.20903	12064.075
3046.61118	12060.475
3049.01187	12058.675
3051.4111	12044.575
3053.80888	12040.275
3056.20519	11986.675
3058.60005	11964.375
3060.99345	11963.575
3063.3854	11932.075
3065.7759	11891.875
3068.16494	11880.475
3070.55254	11884.775
3072.93868	11846.875
3075.32338	11811.275
3077.70662	11789.175
3080.08842	11751.875
3082.46878	11740.775
3084.84769	11745.075
3087.22515	11728.375
3089.60118	11720.275
3091.97576	11727.575
3094.3489	11703.075
3096.72061	11713.875
3099.09087	11707.075
3101.4597	11693.975
3103.82709	11715.975
3106.19305	11697.475
3108.55757	11692.975
3110.92066	11681.875
3113.28232	11668.175
3115.64255	11673.075
3118.00134	11623.775
3120.35871	11623.975
3122.71466	11554.375
3125.06917	11582.175
3127.42226	11540.675
