Data from AgNP_FTO_APTES_UA_10uM_CRN_20uM_R6G_10uM_NaF_0.1M_Addition_RamanShift__27__16-34-20-768.txt Node

Date: Thu Feb 10 16:34:20 GMT 2022
User: TCL
Spectrometer: QEP01345
Trigger mode: 4
Integration Time (sec): 7.000000E0
Scans to average: 10
Electric dark correction enabled: true
Nonlinearity correction enabled: false
Boxcar width: 0
XAxis mode: Raman Shifts
Number of Pixels in Spectrum: 1044
>>>>>Begin Spectral Data<<<<<
46.04893	-0.3875
50.45542	-0.8875
54.85868	-1.2875
59.25871	-0.9875
63.6555	64.2125
68.04907	69.1125
72.43941	71.3125
76.82654	69.7125
81.21044	77.3125
85.59113	78.5125
89.96862	81.5125
94.34289	87.9125
98.71396	88.0125
103.08183	91.9125
107.4465	96.8125
111.80798	91.8125
116.16626	100.4125
120.52136	103.3125
124.87327	107.8125
129.222	113.2125
133.56755	119.3125
137.90993	128.0125
142.24913	135.9125
146.58517	157.3125
150.91804	178.9125
155.24774	214.5125
159.57429	267.7125
163.89768	335.5125
168.21792	446.2125
172.53501	614.5125
176.84895	859.5125
181.15975	1204.9125
185.46741	1686.6125
189.77193	2316.2125
194.07331	3089.7125
198.37157	3990.1125
202.6667	4928.4125
206.9587	5854.0125
211.24758	6767.4125
215.53334	7703.6125
219.81599	8699.3125
224.09553	9791.3125
228.37195	11047.4125
232.64527	12438.1125
236.91549	13850.4125
241.18261	15213.9125
245.44663	16468.0125
249.70755	17522.3125
253.96539	18475.7125
258.22014	19318.4125
262.4718	20033.6125
266.72039	20601.1125
270.96589	20930.9125
275.20832	21135.2125
279.44768	21156.6125
283.68397	21093.5125
287.91719	20965.8125
292.14735	20985.7125
296.37445	21160.6125
300.59849	21443.1125
304.81948	21666.4125
309.03742	21689.9125
313.25231	21389.0125
317.46415	20632.8125
321.67296	19615.2125
325.87872	18753.9125
330.08145	18430.2125
334.28114	18388.7125
338.47781	18609.6125
342.67145	18953.6125
346.86207	19464.4125
351.04966	20137.2125
355.23424	20899.0125
359.4158	21461.6125
363.59435	21732.4125
367.76989	21914.7125
371.94243	21971.5125
376.11196	22007.0125
380.27849	21980.8125
384.44203	21953.2125
388.60257	21939.5125
392.76012	21972.4125
396.91468	22233.6125
401.06626	22615.5125
405.21485	22963.9125
409.36047	22770.9125
413.50311	22107.9125
417.64277	21470.5125
421.77947	21202.6125
425.9132	21159.6125
430.04396	21328.4125
434.17176	21429.1125
438.2966	21692.1125
442.41849	22095.6125
446.53742	22631.3125
450.6534	23290.2125
454.76644	23774.9125
458.87653	23965.8125
462.98368	23870.1125
467.08789	23648.8125
471.18916	23357.2125
475.2875	23003.4125
479.38291	22734.6125
483.4754	22521.6125
487.56496	22116.6125
491.6516	21747.8125
495.73531	21440.7125
499.81612	21339.7125
503.89401	21465.2125
507.96899	21568.5125
512.04106	21588.8125
516.11023	21645.9125
520.1765	21646.2125
524.23987	21502.1125
528.30034	21241.6125
532.35792	20973.7125
536.41261	20703.4125
540.46441	20438.7125
544.51333	20475.0125
548.55936	20759.2125
552.60252	21265.4125
556.64279	21828.7125
560.6802	22118.8125
564.71473	22261.1125
568.7464	22740.0125
572.7752	23256.8125
576.80114	23096.9125
580.82422	22845.2125
584.84444	22706.1125
588.86181	22764.5125
592.87633	22827.7125
596.888	23103.2125
600.89682	23530.3125
604.9028	25089.6125
608.90594	29103.9125
612.90624	33795.7125
616.90371	31887.5125
620.89834	24919.7125
624.89015	21827.8125
628.87913	21401.5125
632.86528	21410.0125
636.84862	21448.5125
640.82913	21081.2125
644.80683	20407.0125
648.78172	19912.4125
652.75379	19930.1125
656.72306	20377.6125
660.68952	20951.6125
664.65319	20908.5125
668.61405	20309.0125
672.57211	20105.5125
676.52738	20051.7125
680.47986	20073.8125
684.42955	19982.4125
688.37646	19985.3125
692.32058	20070.8125
696.26192	20257.9125
700.20048	20439.7125
704.13626	20617.3125
708.06928	20603.4125
711.99952	20442.1125
715.927	20352.2125
719.85171	20366.8125
723.77365	20315.9125
727.69284	20116.4125
731.60928	19959.9125
735.52295	19873.2125
739.43388	19895.6125
743.34206	19957.4125
747.24749	20102.5125
751.15017	20305.0125
755.05012	20701.6125
758.94733	21492.0125
762.8418	23020.5125
766.73354	25544.8125
770.62254	27987.5125
774.50882	28788.8125
778.39237	27304.1125
782.27321	24488.7125
786.15132	22208.1125
790.02671	20830.9125
793.89938	20219.2125
797.76935	19928.8125
801.6366	19815.4125
805.50115	19747.7125
809.36299	19622.6125
813.22213	19529.0125
817.07857	19517.6125
820.93231	19526.2125
824.78336	19517.9125
828.63172	19561.3125
832.47738	19546.5125
836.32036	19559.5125
840.16066	19580.1125
843.99827	19559.5125
847.8332	19534.9125
851.66546	19463.7125
855.49504	19407.6125
859.32195	19392.4125
863.1462	19289.6125
866.96777	19201.9125
870.78668	19124.8125
874.60293	19172.7125
878.41652	19177.2125
882.22745	19248.2125
886.03573	19272.0125
889.84136	19236.7125
893.64433	19131.9125
897.44466	19099.9125
901.24235	19074.7125
905.0374	19051.9125
908.8298	19076.7125
912.61957	19104.6125
916.40671	19258.0125
920.19121	19514.7125
923.97308	19680.8125
927.75233	19739.0125
931.52895	19722.7125
935.30295	19512.2125
939.07433	19052.3125
942.84309	18760.2125
946.60924	18561.6125
950.37278	18487.1125
954.13371	18355.2125
957.89203	18312.5125
961.64774	18286.0125
965.40086	18217.4125
969.15137	18149.9125
972.89929	18088.6125
976.64461	18031.8125
980.38733	18042.5125
984.12747	18079.5125
987.86502	18235.3125
991.59999	18460.6125
995.33237	18748.7125
999.06217	19341.4125
1002.78939	19979.5125
1006.51404	20382.4125
1010.23611	20677.4125
1013.95561	20866.2125
1017.67255	20832.6125
1021.38692	20622.9125
1025.09872	20454.1125
1028.80796	20552.2125
1032.51465	21069.7125
1036.21877	21529.6125
1039.92035	21612.0125
1043.61937	21361.2125
1047.31584	20906.5125
1051.00976	20393.9125
1054.70114	20185.2125
1058.38998	20191.9125
1062.07627	20313.8125
1065.76003	20432.2125
1069.44126	20507.9125
1073.11995	20617.7125
1076.79611	20743.8125
1080.46974	20928.4125
1084.14085	21179.7125
1087.80943	21534.1125
1091.47549	21712.3125
1095.13903	21514.9125
1098.80005	21084.1125
1102.45857	20635.7125
1106.11456	20404.6125
1109.76805	20442.0125
1113.41903	20655.2125
1117.06751	20964.9125
1120.71348	21400.9125
1124.35696	21819.1125
1127.99793	22191.0125
1131.63641	22280.1125
1135.2724	21821.2125
1138.90589	21343.0125
1142.5369	21089.0125
1146.16542	20945.2125
1149.79145	20923.4125
1153.415	21082.8125
1157.03607	21362.2125
1160.65467	21839.2125
1164.27079	22607.1125
1167.88443	23706.8125
1171.49561	25237.5125
1175.10432	27559.7125
1178.71056	30470.7125
1182.31434	32943.9125
1185.91565	34065.8125
1189.51451	33942.3125
1193.11091	32674.6125
1196.70485	30842.6125
1200.29634	29233.6125
1203.88538	27960.8125
1207.47197	26810.6125
1211.05612	25769.3125
1214.63782	25153.2125
1218.21708	24924.6125
1221.79391	24869.6125
1225.36829	24886.4125
1228.94024	24795.7125
1232.50976	24606.6125
1236.07685	24507.3125
1239.6415	24483.1125
1243.20374	24524.7125
1246.76355	24672.2125
1250.32093	25051.4125
1253.8759	25679.8125
1257.42845	26405.1125
1260.97859	27121.2125
1264.52631	27728.6125
1268.07163	28332.8125
1271.61453	29072.8125
1275.15503	29791.2125
1278.69312	30401.6125
1282.22882	30885.0125
1285.76211	31411.5125
1289.29301	32052.7125
1292.82151	32908.3125
1296.34761	34001.9125
1299.87133	35513.5125
1303.39266	37826.2125
1306.9116	40727.9125
1310.42815	43987.6125
1313.94233	46187.2125
1317.45412	46361.5125
1320.96354	45087.6125
1324.47058	43448.3125
1327.97525	41934.1125
1331.47754	40943.0125
1334.97747	40663.2125
1338.47502	41043.7125
1341.97022	41528.2125
1345.46305	41733.2125
1348.95352	41689.1125
1352.44163	41780.4125
1355.92738	42931.9125
1359.41078	45967.4125
1362.89183	48954.6125
1366.37053	47698.1125
1369.84688	42417.4125
1373.32088	37077.8125
1376.79254	33741.1125
1380.26186	32222.9125
1383.72883	31634.7125
1387.19347	31297.0125
1390.65578	30907.3125
1394.11575	30777.0125
1397.57339	31004.1125
1401.0287	31506.2125
1404.48168	32154.1125
1407.93234	32675.7125
1411.38068	32849.5125
1414.82669	32372.9125
1418.27039	31256.6125
1421.71177	29977.3125
1425.15083	28865.4125
1428.58758	28168.0125
1432.02203	28041.4125
1435.45416	28283.1125
1438.88399	28666.7125
1442.31151	29006.7125
1445.73673	29380.2125
1449.15965	29826.7125
1452.58027	30121.3125
1455.9986	30265.2125
1459.41463	30466.3125
1462.82837	30884.3125
1466.23982	31476.0125
1469.64898	32067.7125
1473.05586	32344.2125
1476.46045	32480.8125
1479.86276	32564.2125
1483.26279	32715.1125
1486.66054	32898.1125
1490.05602	33251.9125
1493.44922	33767.4125
1496.84016	34515.6125
1500.22882	35704.5125
1503.61521	37463.5125
1506.99934	39803.5125
1510.38121	42239.1125
1513.76081	43731.0125
1517.13816	42804.6125
1520.51324	40120.9125
1523.88607	37136.9125
1527.25665	34997.0125
1530.62498	33679.6125
1533.99105	32948.7125
1537.35488	32456.6125
1540.71647	32096.2125
1544.07581	31702.1125
1547.4329	31314.1125
1550.78776	30984.0125
1554.14038	30751.9125
1557.49077	30829.6125
1560.83892	31057.5125
1564.18484	31257.9125
1567.52853	31443.3125
1570.86999	31499.1125
1574.20922	31678.1125
1577.54624	31709.7125
1580.88103	31216.8125
1584.2136	30676.6125
1587.54395	30891.8125
1590.87208	32003.1125
1594.19801	33923.7125
1597.52172	36033.0125
1600.84321	36717.2125
1604.16251	35417.0125
1607.47959	32965.0125
1610.79447	30302.2125
1614.10715	27941.6125
1617.41763	25967.0125
1620.7259	24624.4125
1624.03199	23873.6125
1627.33587	23844.0125
1630.63757	24487.3125
1633.93707	25787.7125
1637.23439	27657.7125
1640.52951	30101.2125
1643.82246	32940.9125
1647.11321	35506.8125
1650.40179	36674.9125
1653.68819	35240.1125
1656.97241	31259.0125
1660.25446	26975.8125
1663.53433	23747.2125
1666.81203	21660.1125
1670.08756	20372.1125
1673.36092	19560.5125
1676.63211	19020.2125
1679.90115	18620.6125
1683.16801	18325.3125
1686.43272	18140.1125
1689.69527	17996.6125
1692.95567	17880.6125
1696.2139	17814.2125
1699.46999	17776.6125
1702.72392	17729.4125
1705.97571	17654.3125
1709.22535	17581.7125
1712.47284	17563.6125
1715.71819	17564.8125
1718.96139	17534.3125
1722.20246	17487.8125
1725.44139	17401.3125
1728.67818	17320.0125
1731.91284	17185.2125
1735.14537	17121.6125
1738.37576	17050.2125
1741.60403	17008.8125
1744.83017	16925.7125
1748.05418	16899.0125
1751.27607	16860.5125
1754.49584	16865.6125
1757.71349	16845.7125
1760.92903	16795.6125
1764.14244	16767.1125
1767.35375	16782.2125
1770.56294	16750.5125
1773.77002	16705.9125
1776.97499	16726.5125
1780.17785	16654.6125
1783.37861	16588.8125
1786.57727	16594.4125
1789.77382	16568.9125
1792.96828	16541.8125
1796.16064	16531.7125
1799.3509	16509.5125
1802.53907	16477.9125
1805.72514	16452.5125
1808.90913	16388.5125
1812.09102	16390.1125
1815.27083	16315.4125
1818.44856	16320.8125
1821.6242	16279.3125
1824.79776	16245.5125
1827.96924	16225.9125
1831.13864	16223.7125
1834.30597	16232.7125
1837.47122	16232.4125
1840.6344	16207.5125
1843.7955	16228.2125
1846.95454	16200.5125
1850.11151	16197.1125
1853.26642	16229.8125
1856.41926	16195.8125
1859.57004	16236.8125
1862.71876	16221.3125
1865.86542	16195.2125
1869.01003	16203.2125
1872.15258	16201.0125
1875.29308	16218.3125
1878.43152	16198.6125
1881.56792	16241.2125
1884.70227	16182.7125
1887.83457	16201.1125
1890.96482	16229.2125
1894.09304	16205.0125
1897.21921	16175.7125
1900.34335	16168.5125
1903.46544	16202.8125
1906.58551	16188.1125
1909.70353	16194.6125
1912.81953	16197.2125
1915.93349	16197.9125
1919.04543	16191.6125
1922.15534	16127.9125
1925.26322	16095.4125
1928.36908	16051.6125
1931.47292	16002.3125
1934.57473	15956.5125
1937.67453	15893.7125
1940.77232	15842.6125
1943.86808	15826.3125
1946.96184	15718.7125
1950.05358	15660.6125
1953.14331	15581.5125
1956.23103	15551.3125
1959.31675	15488.4125
1962.40046	15424.1125
1965.48217	15402.0125
1968.56188	15362.5125
1971.63959	15306.9125
1974.7153	15233.3125
1977.78901	15191.0125
1980.86073	15154.2125
1983.93046	15122.0125
1986.99819	15053.6125
1990.06394	14997.3125
1993.1277	14970.2125
1996.18947	14922.5125
1999.24925	14879.9125
2002.30706	14840.3125
2005.36288	14795.3125
2008.41672	14771.1125
2011.46859	14717.0125
2014.51848	14685.9125
2017.56639	14665.4125
2020.61233	14608.3125
2023.6563	14578.0125
2026.6983	14497.8125
2029.73833	14504.0125
2032.7764	14468.0125
2035.8125	14473.6125
2038.84664	14422.0125
2041.87881	14390.2125
2044.90903	14359.0125
2047.93729	14348.2125
2050.96359	14321.7125
2053.98794	14312.1125
2057.01034	14297.5125
2060.03078	14284.5125
2063.04927	14266.7125
2066.06582	14277.5125
2069.08042	14265.7125
2072.09307	14272.9125
2075.10378	14210.1125
2078.11255	14198.2125
2081.11938	14214.7125
2084.12426	14180.7125
2087.12722	14186.6125
2090.12824	14184.7125
2093.12732	14155.5125
2096.12447	14161.7125
2099.11969	14146.4125
2102.11299	14126.7125
2105.10435	14140.0125
2108.09379	14161.2125
2111.08131	14155.8125
2114.0669	14145.2125
2117.05057	14147.4125
2120.03233	14177.5125
2123.01216	14210.0125
2125.99008	14228.5125
2128.96609	14203.1125
2131.94018	14232.3125
2134.91236	14224.3125
2137.88263	14223.5125
2140.851	14257.4125
2143.81746	14274.2125
2146.78201	14242.7125
2149.74466	14287.5125
2152.7054	14255.3125
2155.66425	14247.9125
2158.6212	14224.2125
2161.57625	14275.1125
2164.52941	14269.4125
2167.48067	14218.4125
2170.43004	14200.1125
2173.37752	14188.9125
2176.32311	14226.6125
2179.26681	14229.2125
2182.20863	14213.9125
2185.14856	14208.1125
2188.08661	14217.0125
2191.02278	14221.5125
2193.95707	14231.9125
2196.88948	14229.8125
2199.82001	14212.2125
2202.74867	14220.9125
2205.67545	14210.0125
2208.60037	14178.5125
2211.52341	14166.7125
2214.44458	14163.8125
2217.36388	14139.4125
2220.28132	14117.4125
2223.1969	14095.0125
2226.11061	14076.6125
2229.02246	14045.6125
2231.93245	13982.6125
2234.84058	13937.4125
2237.74686	13950.2125
2240.65128	13964.9125
2243.55385	13912.3125
2246.45456	13882.4125
2249.35343	13863.6125
2252.25044	13872.8125
2255.14561	13841.4125
2258.03893	13832.5125
2260.93041	13798.6125
2263.82004	13746.8125
2266.70783	13745.0125
2269.59378	13701.2125
2272.4779	13663.9125
2275.36017	13618.3125
2278.24061	13640.1125
2281.11922	13595.1125
2283.996	13566.7125
2286.87094	13547.1125
2289.74405	13526.1125
2292.61534	13510.0125
2295.4848	13524.8125
2298.35243	13520.9125
2301.21824	13515.3125
2304.08223	13497.9125
2306.94439	13513.7125
2309.80474	13542.2125
2312.66327	13523.2125
2315.51999	13550.6125
2318.37489	13525.3125
2321.22797	13512.1125
2324.07925	13510.0125
2326.92871	13500.9125
2329.77637	13490.1125
2332.62222	13493.7125
2335.46626	13462.0125
2338.3085	13440.5125
2341.14893	13476.0125
2343.98756	13505.2125
2346.8244	13502.8125
2349.65943	13505.9125
2352.49267	13478.3125
2355.32411	13514.6125
2358.15376	13530.8125
2360.98161	13503.1125
2363.80768	13509.7125
2366.63195	13473.7125
2369.45444	13457.8125
2372.27514	13430.1125
2375.09405	13410.8125
2377.91118	13385.9125
2380.72652	13311.2125
2383.54009	13268.1125
2386.35187	13254.4125
2389.16188	13207.9125
2391.97011	13207.9125
2394.77657	13168.2125
2397.58125	13135.4125
2400.38416	13152.1125
2403.18529	13078.3125
2405.98466	13082.5125
2408.78226	13054.5125
2411.57809	13023.7125
2414.37216	12976.9125
2417.16446	13010.8125
2419.955	12949.1125
2422.74378	12967.1125
2425.5308	12927.0125
2428.31606	12948.5125
2431.09956	12939.9125
2433.88131	12928.6125
2436.6613	12930.5125
2439.43954	12930.7125
2442.21603	12930.3125
2444.99077	12893.9125
2447.76377	12908.9125
2450.53501	12880.0125
2453.30451	12893.0125
2456.07226	12860.0125
2458.83827	12864.0125
2461.60254	12872.0125
2464.36507	12862.9125
2467.12586	12835.5125
2469.88492	12829.0125
2472.64224	12851.5125
2475.39782	12868.0125
2478.15167	12865.1125
2480.90379	12898.0125
2483.65417	12940.8125
2486.40283	12933.8125
2489.14976	12945.4125
2491.89497	12974.9125
2494.63845	12966.7125
2497.3802	12972.5125
2500.12024	12964.9125
2502.85855	12962.6125
2505.59514	12926.4125
2508.33002	12898.9125
2511.06318	12908.9125
2513.79462	12870.9125
2516.52435	12823.6125
2519.25237	12805.8125
2521.97867	12806.8125
2524.70327	12772.7125
2527.42616	12762.9125
2530.14734	12778.6125
2532.86681	12762.8125
2535.58458	12783.9125
2538.30065	12756.4125
2541.01501	12750.6125
2543.72768	12761.5125
2546.43864	12761.4125
2549.14791	12710.3125
2551.85548	12749.1125
2554.56136	12717.2125
2557.26554	12675.8125
2559.96803	12653.3125
2562.66883	12655.6125
2565.36794	12612.2125
2568.06536	12648.9125
2570.7611	12615.0125
2573.45514	12605.4125
2576.14751	12582.2125
2578.83819	12578.5125
2581.52719	12604.8125
2584.21451	12586.5125
2586.90015	12588.9125
2589.58411	12583.3125
2592.2664	12595.9125
2594.94701	12565.4125
2597.62594	12534.0125
2600.30321	12539.5125
2602.9788	12539.4125
2605.65273	12529.9125
2608.32498	12544.0125
2610.99557	12548.7125
2613.66449	12556.4125
2616.33175	12559.3125
2618.99734	12564.9125
2621.66128	12567.3125
2624.32355	12549.4125
2626.98416	12526.6125
2629.64311	12563.4125
2632.30041	12559.6125
2634.95605	12534.5125
2637.61004	12515.3125
2640.26238	12499.2125
2642.91306	12474.9125
2645.56209	12436.6125
2648.20948	12424.3125
2650.85521	12420.4125
2653.4993	12458.2125
2656.14175	12413.2125
2658.78255	12437.7125
2661.42171	12454.3125
2664.05923	12443.9125
2666.6951	12479.0125
2669.32934	12508.7125
2671.96194	12520.5125
2674.59291	12517.4125
2677.22224	12539.6125
2679.84993	12531.7125
2682.476	12505.6125
2685.10043	12511.5125
2687.72324	12485.8125
2690.34441	12508.9125
2692.96396	12482.7125
2695.58188	12453.5125
2698.19818	12451.2125
2700.81285	12488.1125
2703.4259	12456.9125
2706.03733	12476.8125
2708.64714	12467.2125
2711.25533	12459.9125
2713.86191	12460.3125
2716.46687	12468.9125
2719.07021	12468.7125
2721.67194	12519.0125
2724.27206	12466.1125
2726.87057	12514.1125
2729.46747	12531.8125
2732.06276	12517.4125
2734.65644	12509.7125
2737.24852	12523.1125
2739.83899	12485.5125
2742.42786	12520.6125
2745.01513	12464.7125
2747.60079	12485.9125
2750.18486	12454.3125
2752.76733	12459.5125
2755.3482	12428.3125
2757.92747	12444.3125
2760.50515	12419.9125
2763.08123	12438.9125
2765.65573	12405.7125
2768.22863	12388.6125
2770.79994	12400.1125
2773.36967	12396.1125
2775.9378	12428.0125
2778.50435	12392.7125
2781.06932	12413.0125
2783.6327	12412.0125
2786.1945	12399.8125
2788.75471	12381.2125
2791.31335	12365.1125
2793.87041	12365.6125
2796.42589	12345.0125
2798.97979	12333.1125
2801.53212	12306.3125
2804.08288	12296.5125
2806.63206	12294.3125
2809.17967	12265.8125
2811.72571	12236.4125
2814.27018	12249.3125
2816.81308	12203.7125
2819.35442	12180.2125
2821.89419	12174.9125
2824.43239	12197.8125
2826.96904	12160.1125
2829.50412	12178.1125
2832.03763	12148.3125
2834.56959	12179.1125
2837.1	12168.7125
2839.62884	12161.8125
2842.15613	12148.2125
2844.68186	12166.3125
2847.20604	12157.8125
2849.72867	12176.8125
2852.24974	12158.5125
2854.76927	12145.0125
2857.28724	12157.0125
2859.80367	12117.6125
2862.31855	12118.7125
2864.83189	12098.5125
2867.34368	12069.2125
2869.85393	12068.2125
2872.36264	12072.4125
2874.8698	12071.1125
2877.37543	12054.8125
2879.87952	12045.7125
2882.38207	12052.3125
2884.88308	12056.6125
2887.38256	12056.7125
2889.88051	12061.6125
2892.37692	12076.9125
2894.8718	12023.9125
2897.36515	12088.7125
2899.85698	12082.9125
2902.34727	12111.3125
2904.83604	12085.1125
2907.32328	12132.9125
2909.809	12138.2125
2912.29319	12129.5125
2914.77587	12117.2125
2917.25702	12127.2125
2919.73665	12113.9125
2922.21476	12126.7125
2924.69136	12093.1125
2927.16644	12095.7125
2929.64	12081.6125
2932.11205	12068.0125
2934.58258	12005.9125
2937.05161	12007.9125
2939.51912	12004.9125
2941.98513	11992.9125
2944.44962	11974.4125
2946.91261	11915.9125
2949.37409	11955.3125
2951.83407	11922.9125
2954.29254	11927.7125
2956.74951	11896.2125
2959.20498	11886.6125
2961.65895	11870.4125
2964.11142	11914.8125
2966.56239	11847.4125
2969.01186	11856.9125
2971.45984	11826.6125
2973.90632	11798.9125
2976.35131	11772.9125
2978.7948	11772.0125
2981.23681	11733.7125
2983.67732	11714.8125
2986.11635	11659.9125
2988.55388	11653.4125
2990.98993	11640.7125
2993.4245	11621.5125
2995.85758	11604.4125
2998.28917	11546.9125
3000.71928	11532.7125
3003.14791	11535.6125
3005.57506	11495.9125
3008.00073	11472.7125
3010.42493	11417.4125
3012.84764	11409.8125
3015.26888	11399.0125
3017.68865	11364.7125
3020.10694	11380.9125
3022.52376	11355.9125
3024.9391	11339.3125
