Data from AgNP_FTO_APTES_UA_10uM_CRN_2uM_R6G_10uM_NaF_0.1M_Addition_RamanShift__3__14-00-20-578.txt Node

Date: Thu Feb 10 14:00:20 GMT 2022
User: TCL
Spectrometer: QEP01345
Trigger mode: 4
Integration Time (sec): 7.000000E0
Scans to average: 10
Electric dark correction enabled: true
Nonlinearity correction enabled: false
Boxcar width: 0
XAxis mode: Raman Shifts
Number of Pixels in Spectrum: 1044
>>>>>Begin Spectral Data<<<<<
46.04893	0.3125
50.45542	-0.4875
54.85868	-1.7875
59.25871	-0.6875
63.6555	67.0125
68.04907	68.3125
72.43941	73.7125
76.82654	71.9125
81.21044	79.9125
85.59113	77.8125
89.96862	86.4125
94.34289	86.8125
98.71396	88.5125
103.08183	94.6125
107.4465	97.1125
111.80798	94.6125
116.16626	99.3125
120.52136	105.9125
124.87327	111.4125
129.222	115.3125
133.56755	124.0125
137.90993	129.1125
142.24913	140.6125
146.58517	157.5125
150.91804	185.5125
155.24774	219.9125
159.57429	276.9125
163.89768	354.0125
168.21792	477.6125
172.53501	650.7125
176.84895	905.1125
181.15975	1269.7125
185.46741	1780.2125
189.77193	2479.1125
194.07331	3326.5125
198.37157	4289.1125
202.6667	5315.2125
206.9587	6310.8125
211.24758	7324.5125
215.53334	8350.2125
219.81599	9423.4125
224.09553	10610.5125
228.37195	11932.6125
232.64527	13378.6125
236.91549	14877.8125
241.18261	16300.1125
245.44663	17609.3125
249.70755	18704.6125
253.96539	19685.4125
258.22014	20465.4125
262.4718	21200.0125
266.72039	21685.5125
270.96589	21971.6125
275.20832	22007.9125
279.44768	21845.1125
283.68397	21597.2125
287.91719	21390.6125
292.14735	21382.4125
296.37445	21499.2125
300.59849	21809.6125
304.81948	22180.8125
309.03742	22366.0125
313.25231	22244.8125
317.46415	21645.3125
321.67296	20832.4125
325.87872	20072.5125
330.08145	19675.0125
334.28114	19634.0125
338.47781	19815.7125
342.67145	20113.6125
346.86207	20550.1125
351.04966	21141.8125
355.23424	21763.4125
359.4158	22208.5125
363.59435	22521.0125
367.76989	22628.0125
371.94243	22749.3125
376.11196	22704.1125
380.27849	22682.0125
384.44203	22698.2125
388.60257	22799.0125
392.76012	22919.7125
396.91468	23208.7125
401.06626	23606.4125
405.21485	23842.8125
409.36047	23600.1125
413.50311	22981.4125
417.64277	22441.2125
421.77947	22184.9125
425.9132	22177.2125
430.04396	22202.9125
434.17176	22239.2125
438.2966	22415.3125
442.41849	22749.6125
446.53742	23227.2125
450.6534	23754.1125
454.76644	24152.2125
458.87653	24261.0125
462.98368	24198.4125
467.08789	23974.5125
471.18916	23745.9125
475.2875	23409.5125
479.38291	23087.8125
483.4754	22854.0125
487.56496	22617.9125
491.6516	22332.2125
495.73531	22104.2125
499.81612	22065.8125
503.89401	22145.5125
507.96899	22302.3125
512.04106	22331.5125
516.11023	22394.4125
520.1765	22301.9125
524.23987	22209.7125
528.30034	22058.7125
532.35792	21768.7125
536.41261	21515.6125
540.46441	21185.4125
544.51333	21120.5125
548.55936	21369.1125
552.60252	21845.2125
556.64279	22374.8125
560.6802	22681.7125
564.71473	22858.4125
568.7464	23233.9125
572.7752	23815.6125
576.80114	24140.0125
580.82422	24434.6125
584.84444	24818.4125
588.86181	25157.4125
592.87633	25333.5125
596.888	25232.9125
600.89682	25074.3125
604.9028	25980.0125
608.90594	29331.9125
612.90624	33427.3125
616.90371	31659.8125
620.89834	25195.3125
624.89015	22268.1125
628.87913	21749.3125
632.86528	21936.8125
636.84862	22084.6125
640.82913	21802.3125
644.80683	21156.3125
648.78172	20715.1125
652.75379	20645.8125
656.72306	20987.8125
660.68952	21532.4125
664.65319	21408.1125
668.61405	20834.7125
672.57211	20671.8125
676.52738	20744.1125
680.47986	20676.4125
684.42955	20477.8125
688.37646	20404.6125
692.32058	20493.3125
696.26192	20764.7125
700.20048	21069.1125
704.13626	21229.9125
708.06928	21178.1125
711.99952	21033.7125
715.927	20976.5125
719.85171	21051.6125
723.77365	21048.3125
727.69284	20741.9125
731.60928	20486.1125
735.52295	20343.3125
739.43388	20337.3125
743.34206	20386.7125
747.24749	20459.8125
751.15017	20628.3125
755.05012	20961.7125
758.94733	21685.8125
762.8418	23098.5125
766.73354	25472.7125
770.62254	27785.7125
774.50882	28484.5125
778.39237	27124.9125
782.27321	24802.7125
786.15132	22766.8125
790.02671	21484.8125
793.89938	20835.2125
797.76935	20527.7125
801.6366	20451.6125
805.50115	20352.5125
809.36299	20189.7125
813.22213	20042.4125
817.07857	19992.1125
820.93231	19934.4125
824.78336	19891.8125
828.63172	19846.8125
832.47738	19826.3125
836.32036	19818.8125
840.16066	19820.7125
843.99827	19825.4125
847.8332	19781.8125
851.66546	19743.4125
855.49504	19766.6125
859.32195	19746.7125
863.1462	19698.7125
866.96777	19655.4125
870.78668	19627.8125
874.60293	19620.5125
878.41652	19677.2125
882.22745	19746.2125
886.03573	19856.5125
889.84136	19816.4125
893.64433	19791.4125
897.44466	19670.3125
901.24235	19661.1125
905.0374	19617.6125
908.8298	19544.6125
912.61957	19522.4125
916.40671	19610.7125
920.19121	19835.8125
923.97308	20010.0125
927.75233	20085.4125
931.52895	20078.9125
935.30295	19882.9125
939.07433	19479.6125
942.84309	19143.6125
946.60924	18976.7125
950.37278	18880.4125
954.13371	18834.6125
957.89203	18761.3125
961.64774	18747.4125
965.40086	18765.4125
969.15137	18707.8125
972.89929	18673.4125
976.64461	18627.7125
980.38733	18640.1125
984.12747	18703.5125
987.86502	18830.7125
991.59999	18981.7125
995.33237	19199.0125
999.06217	19471.3125
1002.78939	19885.0125
1006.51404	20217.7125
1010.23611	20530.2125
1013.95561	20743.5125
1017.67255	20798.4125
1021.38692	20643.1125
1025.09872	20357.3125
1028.80796	20145.1125
1032.51465	20345.3125
1036.21877	20603.0125
1039.92035	20727.8125
1043.61937	20731.7125
1047.31584	20593.2125
1051.00976	20445.2125
1054.70114	20325.9125
1058.38998	20375.6125
1062.07627	20459.8125
1065.76003	20618.8125
1069.44126	20862.9125
1073.11995	21161.0125
1076.79611	21536.9125
1080.46974	21779.6125
1084.14085	22051.9125
1087.80943	22396.4125
1091.47549	22615.3125
1095.13903	22549.7125
1098.80005	22136.4125
1102.45857	21611.2125
1106.11456	21241.2125
1109.76805	21131.5125
1113.41903	21203.2125
1117.06751	21399.4125
1120.71348	21756.0125
1124.35696	22183.4125
1127.99793	22641.5125
1131.63641	22702.5125
1135.2724	22365.9125
1138.90589	21973.6125
1142.5369	21781.5125
1146.16542	21643.4125
1149.79145	21651.7125
1153.415	21706.8125
1157.03607	21933.1125
1160.65467	22431.3125
1164.27079	23319.0125
1167.88443	24552.4125
1171.49561	26076.0125
1175.10432	28143.1125
1178.71056	30779.7125
1182.31434	33339.0125
1185.91565	34689.4125
1189.51451	34680.4125
1193.11091	33698.4125
1196.70485	32134.6125
1200.29634	30542.2125
1203.88538	29132.9125
1207.47197	28014.4125
1211.05612	27073.3125
1214.63782	26375.8125
1218.21708	25790.9125
1221.79391	25345.5125
1225.36829	25101.1125
1228.94024	24895.2125
1232.50976	24652.0125
1236.07685	24448.8125
1239.6415	24332.8125
1243.20374	24365.5125
1246.76355	24480.6125
1250.32093	24764.0125
1253.8759	25246.1125
1257.42845	25910.3125
1260.97859	26681.5125
1264.52631	27542.4125
1268.07163	28371.7125
1271.61453	29165.6125
1275.15503	29845.0125
1278.69312	30489.5125
1282.22882	30955.1125
1285.76211	31558.0125
1289.29301	32414.4125
1292.82151	33577.8125
1296.34761	34935.6125
1299.87133	36661.9125
1303.39266	39001.3125
1306.9116	41639.2125
1310.42815	44249.1125
1313.94233	45661.2125
1317.45412	45115.4125
1320.96354	43698.0125
1324.47058	42390.5125
1327.97525	41242.8125
1331.47754	40405.1125
1334.97747	40046.2125
1338.47502	40034.0125
1341.97022	40297.8125
1345.46305	40735.2125
1348.95352	41360.7125
1352.44163	42151.3125
1355.92738	43371.0125
1359.41078	45729.4125
1362.89183	48070.8125
1366.37053	46956.7125
1369.84688	42030.9125
1373.32088	36636.1125
1376.79254	33187.6125
1380.26186	31621.0125
1383.72883	31040.9125
1387.19347	30701.3125
1390.65578	30173.9125
1394.11575	29817.0125
1397.57339	29668.8125
1401.0287	29730.1125
1404.48168	29792.2125
1407.93234	29755.9125
1411.38068	29437.8125
1414.82669	28954.0125
1418.27039	28235.1125
1421.71177	27480.0125
1425.15083	26823.1125
1428.58758	26524.7125
1432.02203	26697.2125
1435.45416	27285.3125
1438.88399	27856.0125
1442.31151	28237.4125
1445.73673	28486.9125
1449.15965	28682.7125
1452.58027	28780.0125
1455.9986	28841.8125
1459.41463	29077.9125
1462.82837	29442.8125
1466.23982	29877.2125
1469.64898	30316.6125
1473.05586	30613.6125
1476.46045	30725.0125
1479.86276	30717.1125
1483.26279	30720.7125
1486.66054	30981.7125
1490.05602	31504.4125
1493.44922	32357.2125
1496.84016	33621.8125
1500.22882	35680.4125
1503.61521	38528.8125
1506.99934	41607.9125
1510.38121	43947.2125
1513.76081	44093.7125
1517.13816	41778.1125
1520.51324	38349.3125
1523.88607	35344.8125
1527.25665	33487.0125
1530.62498	32583.2125
1533.99105	32077.4125
1537.35488	31559.8125
1540.71647	30983.7125
1544.07581	30309.7125
1547.4329	29662.9125
1550.78776	29223.0125
1554.14038	28944.1125
1557.49077	28883.8125
1560.83892	29026.2125
1564.18484	29292.6125
1567.52853	29704.8125
1570.86999	30138.9125
1574.20922	30570.0125
1577.54624	30723.0125
1580.88103	30190.8125
1584.2136	29524.0125
1587.54395	29430.4125
1590.87208	30145.1125
1594.19801	31590.8125
1597.52172	33218.4125
1600.84321	33819.9125
1604.16251	32768.4125
1607.47959	30988.0125
1610.79447	29032.2125
1614.10715	26824.9125
1617.41763	24915.1125
1620.7259	23486.0125
1624.03199	22724.3125
1627.33587	22654.1125
1630.63757	23214.8125
1633.93707	24450.2125
1637.23439	26579.9125
1640.52951	29831.0125
1643.82246	33812.3125
1647.11321	37361.9125
1650.40179	38816.9125
1653.68819	36832.4125
1656.97241	32177.8125
1660.25446	27271.6125
1663.53433	23711.8125
1666.81203	21429.2125
1670.08756	20049.3125
1673.36092	19177.2125
1676.63211	18627.1125
1679.90115	18213.4125
1683.16801	17934.2125
1686.43272	17731.7125
1689.69527	17589.1125
1692.95567	17465.7125
1696.2139	17375.5125
1699.46999	17314.7125
1702.72392	17262.7125
1705.97571	17225.3125
1709.22535	17186.8125
1712.47284	17194.4125
1715.71819	17147.7125
1718.96139	17075.6125
1722.20246	17032.9125
1725.44139	16932.7125
1728.67818	16826.5125
1731.91284	16713.4125
1735.14537	16606.5125
1738.37576	16520.2125
1741.60403	16499.6125
1744.83017	16430.4125
1748.05418	16371.8125
1751.27607	16360.5125
1754.49584	16305.5125
1757.71349	16284.2125
1760.92903	16271.5125
1764.14244	16261.0125
1767.35375	16237.6125
1770.56294	16185.9125
1773.77002	16172.0125
1776.97499	16097.1125
1780.17785	16049.2125
1783.37861	16020.2125
1786.57727	16002.7125
1789.77382	15972.5125
1792.96828	15948.1125
1796.16064	15889.5125
1799.3509	15898.0125
1802.53907	15837.7125
1805.72514	15778.8125
1808.90913	15762.3125
1812.09102	15723.1125
1815.27083	15677.5125
1818.44856	15643.1125
1821.6242	15655.5125
1824.79776	15597.6125
1827.96924	15585.7125
1831.13864	15574.2125
1834.30597	15579.4125
1837.47122	15592.0125
1840.6344	15580.3125
1843.7955	15571.2125
1846.95454	15555.3125
1850.11151	15536.2125
1853.26642	15523.4125
1856.41926	15528.6125
1859.57004	15496.5125
1862.71876	15481.3125
1865.86542	15480.1125
1869.01003	15448.7125
1872.15258	15447.0125
1875.29308	15437.6125
1878.43152	15419.4125
1881.56792	15365.9125
1884.70227	15364.2125
1887.83457	15348.2125
1890.96482	15306.0125
1894.09304	15271.4125
1897.21921	15238.2125
1900.34335	15232.9125
1903.46544	15202.0125
1906.58551	15178.4125
1909.70353	15156.2125
1912.81953	15147.3125
1915.93349	15117.1125
1919.04543	15107.9125
1922.15534	15057.2125
1925.26322	15013.9125
1928.36908	14999.7125
1931.47292	14945.5125
1934.57473	14910.7125
1937.67453	14898.7125
1940.77232	14832.3125
1943.86808	14781.8125
1946.96184	14761.4125
1950.05358	14705.8125
1953.14331	14669.7125
1956.23103	14616.7125
1959.31675	14582.9125
1962.40046	14563.5125
1965.48217	14530.9125
1968.56188	14495.5125
1971.63959	14427.7125
1974.7153	14402.4125
1977.78901	14379.5125
1980.86073	14331.5125
1983.93046	14264.1125
1986.99819	14239.6125
1990.06394	14215.4125
1993.1277	14137.5125
1996.18947	14057.2125
1999.24925	14045.7125
2002.30706	13966.6125
2005.36288	13965.8125
2008.41672	13912.2125
2011.46859	13863.9125
2014.51848	13843.9125
2017.56639	13808.8125
2020.61233	13761.3125
2023.6563	13733.8125
2026.6983	13703.3125
2029.73833	13632.0125
2032.7764	13585.8125
2035.8125	13605.7125
2038.84664	13582.1125
2041.87881	13554.2125
2044.90903	13559.0125
2047.93729	13499.2125
2050.96359	13527.5125
2053.98794	13458.4125
2057.01034	13455.5125
2060.03078	13435.3125
2063.04927	13436.5125
2066.06582	13430.1125
2069.08042	13400.4125
2072.09307	13401.7125
2075.10378	13400.3125
2078.11255	13378.6125
2081.11938	13369.3125
2084.12426	13365.9125
2087.12722	13379.3125
2090.12824	13356.4125
2093.12732	13379.0125
2096.12447	13347.5125
2099.11969	13349.2125
2102.11299	13355.2125
2105.10435	13384.7125
2108.09379	13416.8125
2111.08131	13388.7125
2114.0669	13373.4125
2117.05057	13402.3125
2120.03233	13394.7125
2123.01216	13409.2125
2125.99008	13413.6125
2128.96609	13430.4125
2131.94018	13463.9125
2134.91236	13434.1125
2137.88263	13454.8125
2140.851	13503.6125
2143.81746	13517.1125
2146.78201	13479.2125
2149.74466	13469.1125
2152.7054	13459.3125
2155.66425	13471.7125
2158.6212	13444.9125
2161.57625	13438.2125
2164.52941	13432.7125
2167.48067	13422.7125
2170.43004	13419.7125
2173.37752	13416.8125
2176.32311	13439.5125
2179.26681	13435.1125
2182.20863	13431.5125
2185.14856	13433.0125
2188.08661	13410.9125
2191.02278	13397.5125
2193.95707	13403.7125
2196.88948	13378.7125
2199.82001	13370.5125
2202.74867	13367.6125
2205.67545	13383.6125
2208.60037	13349.6125
2211.52341	13351.2125
2214.44458	13301.6125
2217.36388	13282.4125
2220.28132	13232.9125
2223.1969	13222.0125
2226.11061	13226.0125
2229.02246	13173.8125
2231.93245	13160.7125
2234.84058	13120.9125
2237.74686	13090.6125
2240.65128	13103.2125
2243.55385	13061.5125
2246.45456	13045.1125
2249.35343	13029.9125
2252.25044	13016.7125
2255.14561	13036.1125
2258.03893	13008.0125
2260.93041	12969.1125
2263.82004	12961.8125
2266.70783	12910.9125
2269.59378	12882.9125
2272.4779	12849.6125
2275.36017	12813.4125
2278.24061	12805.1125
2281.11922	12783.5125
2283.996	12774.0125
2286.87094	12743.5125
2289.74405	12742.8125
2292.61534	12694.8125
2295.4848	12736.1125
2298.35243	12695.2125
2301.21824	12682.9125
2304.08223	12676.9125
2306.94439	12654.0125
2309.80474	12669.7125
2312.66327	12676.2125
2315.51999	12668.4125
2318.37489	12680.3125
2321.22797	12643.9125
2324.07925	12632.3125
2326.92871	12602.3125
2329.77637	12602.5125
2332.62222	12578.4125
2335.46626	12559.6125
2338.3085	12567.3125
2341.14893	12559.7125
2343.98756	12541.5125
2346.8244	12560.0125
2349.65943	12549.6125
2352.49267	12560.5125
2355.32411	12565.4125
2358.15376	12567.1125
2360.98161	12568.4125
2363.80768	12575.9125
2366.63195	12568.3125
2369.45444	12552.4125
2372.27514	12513.2125
2375.09405	12524.8125
2377.91118	12473.1125
2380.72652	12435.6125
2383.54009	12423.2125
2386.35187	12401.0125
2389.16188	12325.8125
2391.97011	12321.9125
2394.77657	12284.2125
2397.58125	12272.9125
2400.38416	12253.6125
2403.18529	12231.2125
2405.98466	12200.7125
2408.78226	12184.4125
2411.57809	12162.4125
2414.37216	12172.6125
2417.16446	12150.6125
2419.955	12126.1125
2422.74378	12144.0125
2425.5308	12107.2125
2428.31606	12113.0125
2431.09956	12105.8125
2433.88131	12104.6125
2436.6613	12127.1125
2439.43954	12111.7125
2442.21603	12072.8125
2444.99077	12091.3125
2447.76377	12088.7125
2450.53501	12094.8125
2453.30451	12078.1125
2456.07226	12064.7125
2458.83827	12062.5125
2461.60254	12085.0125
2464.36507	12075.6125
2467.12586	12053.4125
2469.88492	12054.1125
2472.64224	12056.2125
2475.39782	12076.6125
2478.15167	12078.1125
2480.90379	12091.9125
2483.65417	12097.3125
2486.40283	12082.2125
2489.14976	12075.7125
2491.89497	12075.1125
2494.63845	12081.0125
2497.3802	12053.9125
2500.12024	12033.1125
2502.85855	12035.5125
2505.59514	12007.5125
2508.33002	11961.7125
2511.06318	11982.9125
2513.79462	11977.2125
2516.52435	11931.3125
2519.25237	11922.4125
2521.97867	11904.7125
2524.70327	11914.6125
2527.42616	11904.1125
2530.14734	11904.1125
2532.86681	11915.5125
2535.58458	11895.6125
2538.30065	11865.6125
2541.01501	11858.5125
2543.72768	11875.1125
2546.43864	11836.6125
2549.14791	11806.9125
2551.85548	11823.0125
2554.56136	11801.5125
2557.26554	11809.6125
2559.96803	11799.5125
2562.66883	11763.5125
2565.36794	11732.4125
2568.06536	11738.6125
2570.7611	11725.9125
2573.45514	11719.9125
2576.14751	11692.4125
2578.83819	11678.9125
2581.52719	11658.5125
2584.21451	11627.2125
2586.90015	11652.0125
2589.58411	11602.3125
2592.2664	11620.8125
2594.94701	11600.3125
2597.62594	11580.6125
2600.30321	11565.6125
2602.9788	11547.3125
2605.65273	11561.8125
2608.32498	11584.4125
2610.99557	11564.1125
2613.66449	11561.1125
2616.33175	11564.4125
2618.99734	11536.6125
2621.66128	11518.5125
2624.32355	11509.7125
2626.98416	11491.5125
2629.64311	11455.9125
2632.30041	11461.2125
2634.95605	11443.4125
2637.61004	11416.0125
2640.26238	11416.0125
2642.91306	11444.4125
2645.56209	11405.5125
2648.20948	11428.9125
2650.85521	11401.5125
2653.4993	11427.7125
2656.14175	11405.7125
2658.78255	11421.2125
2661.42171	11442.0125
2664.05923	11464.8125
2666.6951	11464.4125
2669.32934	11453.8125
2671.96194	11468.7125
2674.59291	11459.8125
2677.22224	11437.8125
2679.84993	11450.8125
2682.476	11444.3125
2685.10043	11432.6125
2687.72324	11422.4125
2690.34441	11458.9125
2692.96396	11426.5125
2695.58188	11397.0125
2698.19818	11401.1125
2700.81285	11405.4125
2703.4259	11404.5125
2706.03733	11428.6125
2708.64714	11406.1125
2711.25533	11447.4125
2713.86191	11451.8125
2716.46687	11456.6125
2719.07021	11458.9125
2721.67194	11453.2125
2724.27206	11470.1125
2726.87057	11472.8125
2729.46747	11465.7125
2732.06276	11490.1125
2734.65644	11466.6125
2737.24852	11477.1125
2739.83899	11451.6125
2742.42786	11415.4125
2745.01513	11424.3125
2747.60079	11434.7125
2750.18486	11411.6125
2752.76733	11401.6125
2755.3482	11386.5125
2757.92747	11385.3125
2760.50515	11348.2125
2763.08123	11342.1125
2765.65573	11306.1125
2768.22863	11319.0125
2770.79994	11332.5125
2773.36967	11317.8125
2775.9378	11272.3125
2778.50435	11314.6125
2781.06932	11289.6125
2783.6327	11305.3125
2786.1945	11302.5125
2788.75471	11293.2125
2791.31335	11271.6125
2793.87041	11264.9125
2796.42589	11229.3125
2798.97979	11226.0125
2801.53212	11232.0125
2804.08288	11223.0125
2806.63206	11172.7125
2809.17967	11148.3125
2811.72571	11137.3125
2814.27018	11129.1125
2816.81308	11078.5125
2819.35442	11058.8125
2821.89419	11073.4125
2824.43239	11049.2125
2826.96904	11051.3125
2829.50412	11049.0125
2832.03763	11023.6125
2834.56959	11022.3125
2837.1	11004.1125
2839.62884	11037.1125
2842.15613	11047.7125
2844.68186	11030.6125
2847.20604	11041.9125
2849.72867	11065.6125
2852.24974	11054.4125
2854.76927	11062.0125
2857.28724	11002.7125
2859.80367	10976.3125
2862.31855	10963.3125
2864.83189	11017.0125
2867.34368	10990.2125
2869.85393	10979.6125
2872.36264	10947.0125
2874.8698	10972.1125
2877.37543	10947.3125
2879.87952	10931.6125
2882.38207	10932.5125
2884.88308	10947.4125
2887.38256	10929.5125
2889.88051	10934.1125
2892.37692	10931.7125
2894.8718	10914.0125
2897.36515	10956.5125
2899.85698	10956.4125
2902.34727	10951.4125
2904.83604	10961.6125
2907.32328	10992.0125
2909.809	10982.1125
2912.29319	10993.8125
2914.77587	11017.9125
2917.25702	11003.7125
2919.73665	10971.3125
2922.21476	10966.0125
2924.69136	10918.9125
2927.16644	10918.3125
2929.64	10928.7125
2932.11205	10914.9125
2934.58258	10861.3125
2937.05161	10876.8125
2939.51912	10872.0125
2941.98513	10882.8125
2944.44962	10834.3125
2946.91261	10794.5125
2949.37409	10813.0125
2951.83407	10810.2125
2954.29254	10799.7125
2956.74951	10785.2125
2959.20498	10798.7125
2961.65895	10778.0125
2964.11142	10769.0125
2966.56239	10760.2125
2969.01186	10769.2125
2971.45984	10744.0125
2973.90632	10743.8125
2976.35131	10703.1125
2978.7948	10682.7125
2981.23681	10664.7125
2983.67732	10655.4125
2986.11635	10625.4125
2988.55388	10623.6125
2990.98993	10583.1125
2993.4245	10596.4125
2995.85758	10557.1125
2998.28917	10531.5125
3000.71928	10526.8125
3003.14791	10494.4125
3005.57506	10459.0125
3008.00073	10476.0125
3010.42493	10324.7125
3012.84764	10412.8125
3015.26888	10372.4125
3017.68865	10350.0125
3020.10694	10331.8125
3022.52376	10335.1125
3024.9391	10338.8125
