Data from AgNP_FTO_APTES_UA_10uM_CRN_200uM_R6G_10uM_NaF_0.1M_Addition_RamanShift__31__18-36-50-920.txt Node

Date: Thu Feb 10 18:36:50 GMT 2022
User: TCL
Spectrometer: QEP01345
Trigger mode: 4
Integration Time (sec): 7.000000E0
Scans to average: 10
Electric dark correction enabled: true
Nonlinearity correction enabled: false
Boxcar width: 0
XAxis mode: Raman Shifts
Number of Pixels in Spectrum: 1044
>>>>>Begin Spectral Data<<<<<
46.04893	0.525
50.45542	-0.175
54.85868	-1.675
59.25871	-0.775
63.6555	42.325
68.04907	46.325
72.43941	49.125
76.82654	46.225
81.21044	51.325
85.59113	54.025
89.96862	59.125
94.34289	61.425
98.71396	59.425
103.08183	62.725
107.4465	66.925
111.80798	65.225
116.16626	67.225
120.52136	66.525
124.87327	72.925
129.222	73.425
133.56755	79.325
137.90993	81.025
142.24913	79.825
146.58517	89.625
150.91804	103.425
155.24774	118.425
159.57429	147.825
163.89768	179.825
168.21792	236.325
172.53501	318.725
176.84895	434.925
181.15975	603.525
185.46741	840.825
189.77193	1167.125
194.07331	1556.425
198.37157	1995.425
202.6667	2471.425
206.9587	2921.725
211.24758	3403.125
215.53334	3883.825
219.81599	4437.825
224.09553	5049.525
228.37195	5726.725
232.64527	6491.825
236.91549	7241.225
241.18261	7926.425
245.44663	8527.125
249.70755	8967.225
253.96539	9339.425
258.22014	9676.225
262.4718	9978.425
266.72039	10224.425
270.96589	10388.425
275.20832	10434.025
279.44768	10360.125
283.68397	10223.125
287.91719	10108.025
292.14735	10136.225
296.37445	10328.725
300.59849	10752.025
304.81948	11200.925
309.03742	11536.625
313.25231	11500.725
317.46415	10976.625
321.67296	10141.925
325.87872	9419.825
330.08145	9081.525
334.28114	9058.625
338.47781	9232.225
342.67145	9488.025
346.86207	9888.325
351.04966	10536.625
355.23424	11225.625
359.4158	11746.325
363.59435	11990.325
367.76989	12069.025
371.94243	12065.925
376.11196	12014.425
380.27849	11958.325
384.44203	11845.025
388.60257	11680.725
392.76012	11575.225
396.91468	11662.125
401.06626	11979.525
405.21485	12207.025
409.36047	11994.925
413.50311	11377.725
417.64277	10789.125
421.77947	10451.825
425.9132	10290.625
430.04396	10309.825
434.17176	10336.325
438.2966	10488.625
442.41849	10741.625
446.53742	11039.025
450.6534	11337.925
454.76644	11557.325
458.87653	11563.925
462.98368	11476.325
467.08789	11281.325
471.18916	11056.125
475.2875	10830.325
479.38291	10623.625
483.4754	10435.325
487.56496	10305.125
491.6516	10177.825
495.73531	10132.925
499.81612	10134.825
503.89401	10283.725
507.96899	10443.725
512.04106	10615.525
516.11023	10839.225
520.1765	10975.725
524.23987	10947.225
528.30034	10756.325
532.35792	10500.425
536.41261	10279.325
540.46441	10065.225
544.51333	9971.625
548.55936	10022.525
552.60252	10237.825
556.64279	10491.325
560.6802	10662.325
564.71473	10841.625
568.7464	11259.125
572.7752	11598.225
576.80114	11260.225
580.82422	10763.925
584.84444	10516.125
588.86181	10467.825
592.87633	10523.625
596.888	10617.225
600.89682	10950.025
604.9028	12111.825
608.90594	15465.725
612.90624	20318.925
616.90371	19933.525
620.89834	13882.525
624.89015	11004.025
628.87913	10387.425
632.86528	10438.625
636.84862	10592.525
640.82913	10500.625
644.80683	10085.525
648.78172	9817.425
652.75379	9870.325
656.72306	10274.325
660.68952	10830.225
664.65319	10747.025
668.61405	10221.325
672.57211	9933.425
676.52738	9926.625
680.47986	9968.025
684.42955	9902.325
688.37646	9864.225
692.32058	9891.825
696.26192	9988.525
700.20048	10087.625
704.13626	10168.525
708.06928	10166.225
711.99952	10066.425
715.927	10030.025
719.85171	10056.625
723.77365	10065.725
727.69284	9970.225
731.60928	9898.525
735.52295	9885.525
739.43388	9924.825
743.34206	9953.425
747.24749	9980.225
751.15017	10045.725
755.05012	10235.625
758.94733	10690.225
762.8418	11725.825
766.73354	13605.325
770.62254	15742.125
774.50882	16925.025
778.39237	16335.525
782.27321	14175.125
786.15132	12036.725
790.02671	10810.925
793.89938	10278.525
797.76935	10040.725
801.6366	9957.925
805.50115	9920.125
809.36299	9869.625
813.22213	9838.825
817.07857	9818.725
820.93231	9825.125
824.78336	9837.425
828.63172	9897.025
832.47738	9929.025
836.32036	9895.725
840.16066	9814.425
843.99827	9777.625
847.8332	9764.225
851.66546	9778.025
855.49504	9774.325
859.32195	9740.925
863.1462	9715.825
866.96777	9685.025
870.78668	9670.025
874.60293	9699.725
878.41652	9739.725
882.22745	9795.025
886.03573	9835.925
889.84136	9814.725
893.64433	9747.025
897.44466	9732.325
901.24235	9725.625
905.0374	9737.025
908.8298	9671.225
912.61957	9656.225
916.40671	9691.525
920.19121	9731.925
923.97308	9810.725
927.75233	9899.025
931.52895	10015.125
935.30295	9929.925
939.07433	9688.025
942.84309	9425.125
946.60924	9277.225
950.37278	9234.225
954.13371	9173.825
957.89203	9130.525
961.64774	9113.225
965.40086	9093.225
969.15137	9066.025
972.89929	9046.825
976.64461	9049.325
980.38733	9025.625
984.12747	9045.725
987.86502	9093.625
991.59999	9144.725
995.33237	9191.925
999.06217	9372.525
1002.78939	9547.425
1006.51404	9741.625
1010.23611	9900.725
1013.95561	10045.725
1017.67255	10045.325
1021.38692	9918.225
1025.09872	9767.525
1028.80796	9695.025
1032.51465	9695.225
1036.21877	9771.625
1039.92035	9843.125
1043.61937	9866.125
1047.31584	9878.325
1051.00976	9822.325
1054.70114	9843.125
1058.38998	9840.125
1062.07627	9892.025
1065.76003	9925.425
1069.44126	9965.525
1073.11995	10034.825
1076.79611	10135.425
1080.46974	10310.025
1084.14085	10540.725
1087.80943	10822.025
1091.47549	10959.925
1095.13903	10776.425
1098.80005	10448.425
1102.45857	10148.425
1106.11456	10055.725
1109.76805	10098.925
1113.41903	10334.425
1117.06751	10677.125
1120.71348	11094.725
1124.35696	11544.025
1127.99793	11933.325
1131.63641	11905.425
1135.2724	11366.825
1138.90589	10831.725
1142.5369	10523.625
1146.16542	10302.525
1149.79145	10199.425
1153.415	10195.825
1157.03607	10275.825
1160.65467	10444.825
1164.27079	10792.825
1167.88443	11293.825
1171.49561	12147.225
1175.10432	13586.925
1178.71056	15508.225
1182.31434	16843.625
1185.91565	17021.625
1189.51451	16540.625
1193.11091	15529.425
1196.70485	14343.325
1200.29634	13490.725
1203.88538	12868.925
1207.47197	12193.425
1211.05612	11554.725
1214.63782	11194.325
1218.21708	11059.025
1221.79391	11059.925
1225.36829	11105.725
1228.94024	11087.025
1232.50976	11122.025
1236.07685	11130.125
1239.6415	11214.925
1243.20374	11291.025
1246.76355	11377.025
1250.32093	11525.225
1253.8759	11739.725
1257.42845	12063.425
1260.97859	12399.625
1264.52631	12720.725
1268.07163	13005.425
1271.61453	13326.925
1275.15503	13499.325
1278.69312	13535.425
1282.22882	13520.325
1285.76211	13721.725
1289.29301	14111.825
1292.82151	14542.825
1296.34761	14961.825
1299.87133	15620.825
1303.39266	16769.125
1306.9116	18615.625
1310.42815	20830.625
1313.94233	22231.425
1317.45412	21919.525
1320.96354	20431.625
1324.47058	18734.225
1327.97525	17255.625
1331.47754	16315.325
1334.97747	16001.125
1338.47502	16125.725
1341.97022	16577.625
1345.46305	17206.525
1348.95352	18135.325
1352.44163	19527.025
1355.92738	21457.425
1359.41078	24541.125
1362.89183	27581.125
1366.37053	26928.725
1369.84688	22730.725
1373.32088	18687.825
1376.79254	16111.325
1380.26186	14820.425
1383.72883	14196.025
1387.19347	13785.525
1390.65578	13332.425
1394.11575	12904.625
1397.57339	12690.325
1401.0287	12668.125
1404.48168	12811.925
1407.93234	12996.725
1411.38068	13135.425
1414.82669	13171.125
1418.27039	12993.525
1421.71177	12761.925
1425.15083	12490.825
1428.58758	12346.725
1432.02203	12386.025
1435.45416	12487.325
1438.88399	12534.225
1442.31151	12536.225
1445.73673	12614.125
1449.15965	12671.025
1452.58027	12649.625
1455.9986	12555.325
1459.41463	12519.125
1462.82837	12642.725
1466.23982	12851.225
1469.64898	13101.825
1473.05586	13306.025
1476.46045	13451.225
1479.86276	13654.525
1483.26279	13993.225
1486.66054	14367.025
1490.05602	14823.625
1493.44922	15423.025
1496.84016	16342.725
1500.22882	17827.725
1503.61521	19861.225
1506.99934	22195.125
1510.38121	24603.225
1513.76081	25907.425
1517.13816	24892.725
1520.51324	21933.025
1523.88607	18811.925
1527.25665	16639.025
1530.62498	15400.625
1533.99105	14715.525
1537.35488	14285.025
1540.71647	14071.025
1544.07581	13970.725
1547.4329	13928.025
1550.78776	13877.625
1554.14038	13850.125
1557.49077	13979.325
1560.83892	14235.625
1564.18484	14632.525
1567.52853	15055.525
1570.86999	15373.625
1574.20922	15537.325
1577.54624	15468.725
1580.88103	14783.925
1584.2136	13831.525
1587.54395	13279.925
1590.87208	13343.725
1594.19801	13945.425
1597.52172	14873.525
1600.84321	15386.025
1604.16251	14993.925
1607.47959	14159.125
1610.79447	13236.425
1614.10715	12304.825
1617.41763	11503.625
1620.7259	11018.825
1624.03199	10792.525
1627.33587	10756.725
1630.63757	10911.025
1633.93707	11316.625
1637.23439	11993.525
1640.52951	12988.225
1643.82246	14418.925
1647.11321	16238.125
1650.40179	17729.325
1653.68819	17551.525
1656.97241	15499.425
1660.25446	13076.125
1663.53433	11349.725
1666.81203	10327.525
1670.08756	9722.225
1673.36092	9383.425
1676.63211	9148.125
1679.90115	8988.625
1683.16801	8856.825
1686.43272	8767.625
1689.69527	8715.325
1692.95567	8684.825
1696.2139	8652.925
1699.46999	8679.325
1702.72392	8646.125
1705.97571	8603.825
1709.22535	8573.725
1712.47284	8581.325
1715.71819	8599.025
1718.96139	8589.225
1722.20246	8602.525
1725.44139	8555.825
1728.67818	8490.425
1731.91284	8438.425
1735.14537	8377.925
1738.37576	8341.325
1741.60403	8281.325
1744.83017	8298.125
1748.05418	8252.125
1751.27607	8245.425
1754.49584	8251.125
1757.71349	8264.925
1760.92903	8251.925
1764.14244	8238.225
1767.35375	8206.025
1770.56294	8173.425
1773.77002	8156.825
1776.97499	8133.725
1780.17785	8098.025
1783.37861	8071.125
1786.57727	8057.325
1789.77382	8037.225
1792.96828	8040.425
1796.16064	8028.825
1799.3509	8010.825
1802.53907	7988.925
1805.72514	7943.825
1808.90913	7955.025
1812.09102	7914.525
1815.27083	7920.525
1818.44856	7868.125
1821.6242	7871.225
1824.79776	7865.625
1827.96924	7844.125
1831.13864	7813.825
1834.30597	7824.725
1837.47122	7810.825
1840.6344	7820.725
1843.7955	7786.625
1846.95454	7790.525
1850.11151	7778.425
1853.26642	7779.425
1856.41926	7768.025
1859.57004	7792.125
1862.71876	7783.125
1865.86542	7775.025
1869.01003	7756.925
1872.15258	7762.425
1875.29308	7757.225
1878.43152	7742.625
1881.56792	7756.525
1884.70227	7741.525
1887.83457	7744.325
1890.96482	7755.825
1894.09304	7712.225
1897.21921	7728.425
1900.34335	7715.325
1903.46544	7709.525
1906.58551	7712.925
1909.70353	7716.925
1912.81953	7709.725
1915.93349	7723.425
1919.04543	7696.325
1922.15534	7668.825
1925.26322	7650.725
1928.36908	7653.525
1931.47292	7633.625
1934.57473	7614.525
1937.67453	7574.625
1940.77232	7555.425
1943.86808	7515.325
1946.96184	7495.025
1950.05358	7482.825
1953.14331	7435.425
1956.23103	7401.725
1959.31675	7380.725
1962.40046	7376.125
1965.48217	7372.525
1968.56188	7343.325
1971.63959	7315.725
1974.7153	7300.325
1977.78901	7277.725
1980.86073	7271.125
1983.93046	7228.225
1986.99819	7219.425
1990.06394	7167.525
1993.1277	7169.625
1996.18947	7125.625
1999.24925	7121.925
2002.30706	7074.625
2005.36288	7081.225
2008.41672	7023.425
2011.46859	7028.525
2014.51848	7018.725
2017.56639	6975.525
2020.61233	6983.625
2023.6563	6959.625
2026.6983	6944.425
2029.73833	6913.025
2032.7764	6879.625
2035.8125	6884.425
2038.84664	6863.425
2041.87881	6836.625
2044.90903	6813.225
2047.93729	6803.625
2050.96359	6799.825
2053.98794	6782.625
2057.01034	6803.025
2060.03078	6771.125
2063.04927	6780.325
2066.06582	6757.325
2069.08042	6771.825
2072.09307	6741.725
2075.10378	6744.025
2078.11255	6752.425
2081.11938	6750.425
2084.12426	6742.425
2087.12722	6724.025
2090.12824	6715.125
2093.12732	6721.725
2096.12447	6740.425
2099.11969	6717.525
2102.11299	6723.925
2105.10435	6713.825
2108.09379	6724.025
2111.08131	6708.125
2114.0669	6726.825
2117.05057	6743.925
2120.03233	6725.925
2123.01216	6741.725
2125.99008	6753.925
2128.96609	6759.425
2131.94018	6737.825
2134.91236	6760.325
2137.88263	6735.525
2140.851	6765.325
2143.81746	6740.225
2146.78201	6744.825
2149.74466	6738.825
2152.7054	6751.925
2155.66425	6737.025
2158.6212	6741.225
2161.57625	6716.325
2164.52941	6719.125
2167.48067	6729.725
2170.43004	6740.625
2173.37752	6693.125
2176.32311	6703.725
2179.26681	6712.525
2182.20863	6705.225
2185.14856	6727.425
2188.08661	6698.725
2191.02278	6712.725
2193.95707	6713.325
2196.88948	6695.925
2199.82001	6695.225
2202.74867	6666.025
2205.67545	6658.325
2208.60037	6654.625
2211.52341	6654.925
2214.44458	6636.825
2217.36388	6607.125
2220.28132	6601.125
2223.1969	6570.225
2226.11061	6574.225
2229.02246	6560.025
2231.93245	6540.625
2234.84058	6544.125
2237.74686	6533.425
2240.65128	6515.425
2243.55385	6506.425
2246.45456	6479.625
2249.35343	6473.025
2252.25044	6488.825
2255.14561	6505.925
2258.03893	6483.425
2260.93041	6470.725
2263.82004	6458.025
2266.70783	6447.425
2269.59378	6412.525
2272.4779	6402.525
2275.36017	6379.125
2278.24061	6387.325
2281.11922	6352.425
2283.996	6355.425
2286.87094	6345.525
2289.74405	6322.325
2292.61534	6329.525
2295.4848	6311.825
2298.35243	6312.925
2301.21824	6294.025
2304.08223	6288.725
2306.94439	6289.225
2309.80474	6274.925
2312.66327	6268.225
2315.51999	6248.325
2318.37489	6270.825
2321.22797	6248.025
2324.07925	6236.525
2326.92871	6230.325
2329.77637	6221.625
2332.62222	6216.125
2335.46626	6207.425
2338.3085	6194.225
2341.14893	6192.425
2343.98756	6215.325
2346.8244	6172.125
2349.65943	6195.725
2352.49267	6200.225
2355.32411	6194.825
2358.15376	6211.025
2360.98161	6213.525
2363.80768	6241.625
2366.63195	6238.025
2369.45444	6215.625
2372.27514	6210.725
2375.09405	6185.825
2377.91118	6199.225
2380.72652	6171.525
2383.54009	6150.525
2386.35187	6112.725
2389.16188	6080.025
2391.97011	6074.725
2394.77657	6028.625
2397.58125	6024.525
2400.38416	5991.925
2403.18529	5993.625
2405.98466	5995.225
2408.78226	5963.325
2411.57809	5973.725
2414.37216	5946.525
2417.16446	5947.425
2419.955	5929.125
2422.74378	5932.425
2425.5308	5939.225
2428.31606	5940.225
2431.09956	5940.225
2433.88131	5921.525
2436.6613	5919.125
2439.43954	5917.425
2442.21603	5919.125
2444.99077	5907.825
2447.76377	5911.925
2450.53501	5913.725
2453.30451	5915.825
2456.07226	5911.725
2458.83827	5909.025
2461.60254	5901.225
2464.36507	5902.025
2467.12586	5856.825
2469.88492	5850.525
2472.64224	5880.225
2475.39782	5872.925
2478.15167	5865.625
2480.90379	5875.525
2483.65417	5888.825
2486.40283	5902.825
2489.14976	5911.725
2491.89497	5912.925
2494.63845	5925.625
2497.3802	5898.525
2500.12024	5899.025
2502.85855	5882.525
2505.59514	5874.925
2508.33002	5847.325
2511.06318	5810.825
2513.79462	5792.825
2516.52435	5759.725
2519.25237	5770.525
2521.97867	5749.025
2524.70327	5726.025
2527.42616	5725.325
2530.14734	5731.825
2532.86681	5729.925
2535.58458	5715.825
2538.30065	5730.325
2541.01501	5719.525
2543.72768	5721.825
2546.43864	5707.725
2549.14791	5700.325
2551.85548	5688.425
2554.56136	5695.425
2557.26554	5680.525
2559.96803	5658.825
2562.66883	5646.125
2565.36794	5637.125
2568.06536	5625.325
2570.7611	5599.025
2573.45514	5603.925
2576.14751	5587.725
2578.83819	5580.225
2581.52719	5563.825
2584.21451	5559.425
2586.90015	5548.925
2589.58411	5547.825
2592.2664	5526.425
2594.94701	5523.025
2597.62594	5508.725
2600.30321	5504.625
2602.9788	5520.425
2605.65273	5499.525
2608.32498	5490.725
2610.99557	5482.225
2613.66449	5483.425
2616.33175	5472.425
2618.99734	5475.025
2621.66128	5485.825
2624.32355	5472.525
2626.98416	5472.925
2629.64311	5436.125
2632.30041	5431.325
2634.95605	5432.525
2637.61004	5390.025
2640.26238	5393.025
2642.91306	5387.625
2645.56209	5382.725
2648.20948	5399.625
2650.85521	5382.925
2653.4993	5391.925
2656.14175	5381.525
2658.78255	5388.925
2661.42171	5383.025
2664.05923	5402.725
2666.6951	5404.125
2669.32934	5415.125
2671.96194	5413.025
2674.59291	5409.725
2677.22224	5406.825
2679.84993	5413.825
2682.476	5410.325
2685.10043	5394.025
2687.72324	5390.825
2690.34441	5390.625
2692.96396	5409.825
2695.58188	5388.625
2698.19818	5375.025
2700.81285	5393.725
2703.4259	5402.025
2706.03733	5405.625
2708.64714	5390.225
2711.25533	5391.325
2713.86191	5399.125
2716.46687	5408.825
2719.07021	5396.225
2721.67194	5409.225
2724.27206	5403.225
2726.87057	5405.825
2729.46747	5408.825
2732.06276	5386.225
2734.65644	5391.025
2737.24852	5398.625
2739.83899	5369.525
2742.42786	5367.825
2745.01513	5354.225
2747.60079	5350.925
2750.18486	5338.325
2752.76733	5349.425
2755.3482	5318.425
2757.92747	5323.125
2760.50515	5317.925
2763.08123	5311.325
2765.65573	5300.525
2768.22863	5270.625
2770.79994	5290.525
2773.36967	5277.625
2775.9378	5274.725
2778.50435	5275.425
2781.06932	5258.325
2783.6327	5258.525
2786.1945	5271.625
2788.75471	5260.825
2791.31335	5255.625
2793.87041	5259.125
2796.42589	5226.425
2798.97979	5236.825
2801.53212	5232.525
2804.08288	5221.225
2806.63206	5209.925
2809.17967	5201.625
2811.72571	5186.225
2814.27018	5185.025
2816.81308	5177.925
2819.35442	5184.025
2821.89419	5168.725
2824.43239	5194.625
2826.96904	5187.625
2829.50412	5176.025
2832.03763	5165.025
2834.56959	5188.625
2837.1	5195.825
2839.62884	5198.825
2842.15613	5216.625
2844.68186	5261.725
2847.20604	5309.125
2849.72867	5347.925
2852.24974	5358.825
2854.76927	5354.825
2857.28724	5344.125
2859.80367	5326.225
2862.31855	5316.525
2864.83189	5290.125
2867.34368	5287.425
2869.85393	5284.025
2872.36264	5286.725
2874.8698	5278.225
2877.37543	5273.425
2879.87952	5269.325
2882.38207	5259.925
2884.88308	5249.825
2887.38256	5243.225
2889.88051	5243.425
2892.37692	5227.625
2894.8718	5238.325
2897.36515	5242.925
2899.85698	5229.325
2902.34727	5250.725
2904.83604	5252.025
2907.32328	5272.825
2909.809	5241.225
2912.29319	5232.325
2914.77587	5243.825
2917.25702	5252.325
2919.73665	5239.525
2922.21476	5241.825
2924.69136	5229.625
2927.16644	5250.125
2929.64	5204.925
2932.11205	5185.725
2934.58258	5193.725
2937.05161	5176.925
2939.51912	5164.925
2941.98513	5158.525
2944.44962	5120.425
2946.91261	5070.625
2949.37409	5069.425
2951.83407	5041.825
2954.29254	5029.725
2956.74951	5030.525
2959.20498	5021.425
2961.65895	4995.225
2964.11142	4996.225
2966.56239	4992.525
2969.01186	4979.825
2971.45984	4955.425
2973.90632	4953.425
2976.35131	4936.325
2978.7948	4927.625
2981.23681	4918.325
2983.67732	4918.825
2986.11635	4892.925
2988.55388	4870.825
2990.98993	4851.025
2993.4245	4840.925
2995.85758	4845.025
2998.28917	4830.725
3000.71928	4824.025
3003.14791	4811.725
3005.57506	4818.825
3008.00073	4810.025
3010.42493	4799.425
3012.84764	4785.425
3015.26888	4780.225
3017.68865	4778.925
3020.10694	4757.425
3022.52376	4763.425
3024.9391	4747.425
3027.35298	4747.225
3029.76539	4730.625
3032.17632	4742.625
3034.5858	4738.925
3036.9938	4727.325
3039.40034	4730.925
3041.80542	4715.825
3044.20903	4697.325
3046.61118	4694.725
3049.01187	4696.525
3051.4111	4695.925
3053.80888	4683.625
3056.20519	4658.625
3058.60005	4658.725
3060.99345	4645.825
3063.3854	4644.425
3065.7759	4640.725
3068.16494	4629.325
3070.55254	4609.325
3072.93868	4612.325
3075.32338	4606.525
3077.70662	4579.125
3080.08842	4578.125
3082.46878	4564.825
3084.84769	4541.625
3087.22515	4551.925
3089.60118	4555.025
3091.97576	4535.125
3094.3489	4545.725
3096.72061	4552.825
3099.09087	4537.725
3101.4597	4547.725
3103.82709	4544.125
3106.19305	4525.025
3108.55757	4526.825
3110.92066	4507.425
3113.28232	4510.225
3115.64255	4503.725
3118.00134	4490.725
3120.35871	4502.525
3122.71466	4488.225
3125.06917	4490.925
3127.42226	4456.425
3129.77393	4476.425
3132.12417	4477.225
3134.47299	4479.225
3136.82039	4491.425
3139.16636	4483.425
3141.51092	4496.625
3143.85406	4482.825
3146.19579	4485.425
3148.53609	4478.225
3150.87499	4499.225
3153.21246	4482.525
3155.54853	4507.825
3157.88318	4499.325
3160.21642	4487.725
3162.54826	4506.425
3164.87868	4499.125
3167.2077	4515.325
3169.5353	4512.625
3171.86151	4527.125
3174.18631	4525.825
3176.5097	4513.225
3178.83169	4515.125
3181.15228	4516.225
3183.47147	4513.425
3185.78926	4495.625
3188.10565	4513.925
3190.42065	4515.825
3192.73424	4499.625
3195.04645	4497.825
3197.35725	4506.925
3199.66667	4499.925
3201.97469	4527.125
