Data from AgNP_FTO_APTES_UA_10uM_CRN_20uM_R6G_10uM_NaF_0.1M_Addition_RamanShift__15__16-20-20-751.txt Node

Date: Thu Feb 10 16:20:20 GMT 2022
User: TCL
Spectrometer: QEP01345
Trigger mode: 4
Integration Time (sec): 7.000000E0
Scans to average: 10
Electric dark correction enabled: true
Nonlinearity correction enabled: false
Boxcar width: 0
XAxis mode: Raman Shifts
Number of Pixels in Spectrum: 1044
>>>>>Begin Spectral Data<<<<<
46.04893	-0.125
50.45542	-0.525
54.85868	-1.425
59.25871	-0.125
63.6555	67.275
68.04907	65.975
72.43941	74.675
76.82654	75.675
81.21044	81.075
85.59113	82.175
89.96862	83.275
94.34289	88.575
98.71396	90.675
103.08183	96.475
107.4465	99.075
111.80798	97.375
116.16626	99.775
120.52136	104.975
124.87327	108.575
129.222	115.875
133.56755	121.575
137.90993	131.575
142.24913	144.275
146.58517	157.075
150.91804	189.475
155.24774	223.375
159.57429	280.875
163.89768	355.775
168.21792	473.375
172.53501	641.675
176.84895	902.275
181.15975	1263.675
185.46741	1785.075
189.77193	2459.475
194.07331	3291.275
198.37157	4235.975
202.6667	5247.775
206.9587	6234.175
211.24758	7203.775
215.53334	8176.775
219.81599	9213.475
224.09553	10292.875
228.37195	11506.675
232.64527	12827.575
236.91549	14264.075
241.18261	15724.075
245.44663	17082.475
249.70755	18304.775
253.96539	19465.075
258.22014	20389.875
262.4718	21179.575
266.72039	21742.275
270.96589	22053.075
275.20832	22208.375
279.44768	22213.775
283.68397	22068.975
287.91719	21919.475
292.14735	21855.475
296.37445	21813.775
300.59849	21853.375
304.81948	21855.475
309.03742	21748.475
313.25231	21483.775
317.46415	21054.675
321.67296	20490.275
325.87872	20125.375
330.08145	19925.475
334.28114	19908.675
338.47781	20041.475
342.67145	20255.975
346.86207	20548.575
351.04966	20883.375
355.23424	21154.175
359.4158	21438.775
363.59435	21664.175
367.76989	21823.075
371.94243	21944.675
376.11196	22034.875
380.27849	22124.075
384.44203	22257.875
388.60257	22396.475
392.76012	22627.675
396.91468	22923.775
401.06626	23191.775
405.21485	23429.375
409.36047	23348.475
413.50311	23062.175
417.64277	22813.475
421.77947	22790.975
425.9132	22840.875
430.04396	22986.375
434.17176	23077.675
438.2966	23224.275
442.41849	23515.875
446.53742	23935.175
450.6534	24385.175
454.76644	24821.675
458.87653	25037.975
462.98368	25064.975
467.08789	25009.575
471.18916	24883.375
475.2875	24725.775
479.38291	24705.875
483.4754	24596.775
487.56496	24299.775
491.6516	23970.975
495.73531	23599.675
499.81612	23432.075
503.89401	23486.675
507.96899	23640.175
512.04106	23627.675
516.11023	23541.075
520.1765	23348.775
524.23987	23151.375
528.30034	22956.275
532.35792	22768.775
536.41261	22606.175
540.46441	22474.075
544.51333	22533.675
548.55936	22821.275
552.60252	23219.075
556.64279	23678.775
560.6802	23992.975
564.71473	24204.575
568.7464	24506.475
572.7752	25108.675
576.80114	25614.775
580.82422	26036.075
584.84444	26301.475
588.86181	26420.575
592.87633	26362.275
596.888	26148.075
600.89682	25958.775
604.9028	26464.875
608.90594	27964.775
612.90624	29351.375
616.90371	27725.175
620.89834	24395.675
624.89015	22963.175
628.87913	22796.075
632.86528	22991.075
636.84862	23110.275
640.82913	22899.975
644.80683	22498.275
648.78172	22184.175
652.75379	22097.975
656.72306	22253.175
660.68952	22515.775
664.65319	22441.575
668.61405	22211.875
672.57211	22213.175
676.52738	22252.475
680.47986	22247.475
684.42955	22176.875
688.37646	22103.075
692.32058	22219.075
696.26192	22341.375
700.20048	22618.075
704.13626	22741.775
708.06928	22791.175
711.99952	22687.275
715.927	22623.075
719.85171	22630.175
723.77365	22561.975
727.69284	22412.275
731.60928	22203.275
735.52295	22030.075
739.43388	21984.675
743.34206	22013.175
747.24749	22150.375
751.15017	22284.675
755.05012	22566.575
758.94733	23138.675
762.8418	24086.475
766.73354	25430.075
770.62254	26632.675
774.50882	26789.675
778.39237	25815.075
782.27321	24425.175
786.15132	23279.175
790.02671	22555.875
793.89938	22148.775
797.76935	21962.675
801.6366	21880.275
805.50115	21816.475
809.36299	21711.975
813.22213	21627.375
817.07857	21610.075
820.93231	21602.575
824.78336	21508.275
828.63172	21444.475
832.47738	21384.575
836.32036	21345.575
840.16066	21351.875
843.99827	21372.175
847.8332	21338.575
851.66546	21346.075
855.49504	21358.775
859.32195	21379.775
863.1462	21329.375
866.96777	21297.575
870.78668	21265.775
874.60293	21271.975
878.41652	21273.775
882.22745	21334.275
886.03573	21361.475
889.84136	21339.375
893.64433	21279.375
897.44466	21234.175
901.24235	21178.875
905.0374	21140.175
908.8298	21137.175
912.61957	21217.175
916.40671	21347.975
920.19121	21547.675
923.97308	21671.675
927.75233	21550.275
931.52895	21380.575
935.30295	21135.775
939.07433	20859.275
942.84309	20675.775
946.60924	20558.875
950.37278	20526.575
954.13371	20535.175
957.89203	20484.375
961.64774	20461.075
965.40086	20475.675
969.15137	20441.175
972.89929	20385.575
976.64461	20295.375
980.38733	20258.775
984.12747	20270.375
987.86502	20382.675
991.59999	20473.475
995.33237	20586.575
999.06217	20827.775
1002.78939	21124.075
1006.51404	21305.875
1010.23611	21569.675
1013.95561	21721.675
1017.67255	21742.775
1021.38692	21651.375
1025.09872	21430.875
1028.80796	21286.775
1032.51465	21312.175
1036.21877	21393.775
1039.92035	21499.575
1043.61937	21515.875
1047.31584	21522.075
1051.00976	21483.675
1054.70114	21569.875
1058.38998	21708.375
1062.07627	21948.775
1065.76003	22177.475
1069.44126	22371.475
1073.11995	22588.475
1076.79611	22806.575
1080.46974	22873.875
1084.14085	23032.575
1087.80943	23173.075
1091.47549	23321.675
1095.13903	23410.875
1098.80005	23288.775
1102.45857	22901.175
1106.11456	22558.575
1109.76805	22324.775
1113.41903	22267.775
1117.06751	22381.475
1120.71348	22527.175
1124.35696	22683.875
1127.99793	22897.075
1131.63641	22988.175
1135.2724	22971.675
1138.90589	22885.475
1142.5369	22891.475
1146.16542	22981.275
1149.79145	23114.475
1153.415	23311.475
1157.03607	23692.775
1160.65467	24171.375
1164.27079	24996.775
1167.88443	25976.775
1171.49561	27148.075
1175.10432	28579.275
1178.71056	30306.475
1182.31434	31921.775
1185.91565	32937.275
1189.51451	33267.675
1193.11091	32948.275
1196.70485	32158.175
1200.29634	31070.575
1203.88538	30147.375
1207.47197	29571.675
1211.05612	29102.875
1214.63782	28575.075
1218.21708	27931.375
1221.79391	27271.275
1225.36829	26742.475
1228.94024	26413.275
1232.50976	26168.975
1236.07685	26007.475
1239.6415	25971.775
1243.20374	26020.875
1246.76355	26174.575
1250.32093	26458.475
1253.8759	26813.575
1257.42845	27412.775
1260.97859	28029.675
1264.52631	28614.775
1268.07163	29240.175
1271.61453	29794.175
1275.15503	30420.875
1278.69312	31040.575
1282.22882	31592.775
1285.76211	32340.075
1289.29301	33265.175
1292.82151	34383.275
1296.34761	35759.875
1299.87133	37342.375
1303.39266	38944.675
1306.9116	40320.975
1310.42815	41517.675
1313.94233	42149.275
1317.45412	42208.875
1320.96354	42118.975
1324.47058	42162.375
1327.97525	42254.175
1331.47754	42351.875
1334.97747	42557.575
1338.47502	42757.175
1341.97022	43010.075
1345.46305	42959.775
1348.95352	42548.675
1352.44163	41899.375
1355.92738	41335.575
1359.41078	41360.975
1362.89183	41526.475
1366.37053	40529.475
1369.84688	38001.875
1373.32088	35269.275
1376.79254	33341.275
1380.26186	32590.875
1383.72883	32581.775
1387.19347	32694.875
1390.65578	32631.475
1394.11575	32565.775
1397.57339	32673.875
1401.0287	32858.575
1404.48168	33070.075
1407.93234	32867.675
1411.38068	32332.375
1414.82669	31390.775
1418.27039	30210.175
1421.71177	29133.775
1425.15083	28262.675
1428.58758	27828.075
1432.02203	27893.675
1435.45416	28365.775
1438.88399	29056.675
1442.31151	29686.875
1445.73673	30109.875
1449.15965	30567.675
1452.58027	30862.975
1455.9986	31099.575
1459.41463	31374.975
1462.82837	31703.275
1466.23982	32105.975
1469.64898	32386.775
1473.05586	32530.875
1476.46045	32466.575
1479.86276	32186.875
1483.26279	31931.475
1486.66054	31834.275
1490.05602	31882.075
1493.44922	32105.275
1496.84016	32657.075
1500.22882	33441.675
1503.61521	34493.875
1506.99934	35641.575
1510.38121	36560.175
1513.76081	36709.675
1517.13816	36118.775
1520.51324	35195.475
1523.88607	34400.475
1527.25665	34014.675
1530.62498	33899.075
1533.99105	33834.075
1537.35488	33515.575
1540.71647	32917.475
1544.07581	32228.975
1547.4329	31488.475
1550.78776	30896.775
1554.14038	30484.675
1557.49077	30344.075
1560.83892	30256.775
1564.18484	30257.075
1567.52853	30337.475
1570.86999	30505.875
1574.20922	31008.475
1577.54624	31398.275
1580.88103	31618.875
1584.2136	31641.775
1587.54395	32053.875
1590.87208	32876.375
1594.19801	33939.575
1597.52172	35047.975
1600.84321	35263.275
1604.16251	34102.475
1607.47959	32428.775
1610.79447	30439.575
1614.10715	28520.975
1617.41763	26818.375
1620.7259	25490.675
1624.03199	24701.975
1627.33587	24567.275
1630.63757	24937.975
1633.93707	26140.475
1637.23439	28018.975
1640.52951	30724.075
1643.82246	33811.475
1647.11321	36145.175
1650.40179	36715.275
1653.68819	34930.475
1656.97241	31513.175
1660.25446	27884.275
1663.53433	25014.175
1666.81203	22997.075
1670.08756	21605.775
1673.36092	20758.475
1676.63211	20150.875
1679.90115	19767.875
1683.16801	19468.375
1686.43272	19229.775
1689.69527	19065.375
1692.95567	18908.775
1696.2139	18858.475
1699.46999	18793.775
1702.72392	18722.475
1705.97571	18662.575
1709.22535	18558.975
1712.47284	18520.875
1715.71819	18485.075
1718.96139	18414.275
1722.20246	18384.775
1725.44139	18331.675
1728.67818	18169.475
1731.91284	18111.375
1735.14537	17999.575
1738.37576	17930.775
1741.60403	17886.575
1744.83017	17802.875
1748.05418	17746.775
1751.27607	17744.975
1754.49584	17732.175
1757.71349	17738.175
1760.92903	17641.975
1764.14244	17614.775
1767.35375	17589.575
1770.56294	17575.975
1773.77002	17562.375
1776.97499	17501.375
1780.17785	17461.275
1783.37861	17436.775
1786.57727	17401.775
1789.77382	17387.675
1792.96828	17356.375
1796.16064	17301.475
1799.3509	17282.875
1802.53907	17222.475
1805.72514	17180.775
1808.90913	17117.275
1812.09102	17111.175
1815.27083	17063.875
1818.44856	17066.075
1821.6242	17014.375
1824.79776	16960.475
1827.96924	16977.675
1831.13864	16960.975
1834.30597	16942.075
1837.47122	16968.575
1840.6344	16933.775
1843.7955	16937.575
1846.95454	16916.375
1850.11151	16912.375
1853.26642	16910.875
1856.41926	16860.375
1859.57004	16847.075
1862.71876	16795.775
1865.86542	16790.875
1869.01003	16776.275
1872.15258	16745.475
1875.29308	16726.175
1878.43152	16725.675
1881.56792	16731.575
1884.70227	16673.375
1887.83457	16623.175
1890.96482	16610.375
1894.09304	16574.175
1897.21921	16559.575
1900.34335	16547.575
1903.46544	16502.975
1906.58551	16454.875
1909.70353	16461.775
1912.81953	16434.875
1915.93349	16387.875
1919.04543	16371.275
1922.15534	16319.775
1925.26322	16282.175
1928.36908	16244.075
1931.47292	16235.075
1934.57473	16202.375
1937.67453	16168.475
1940.77232	16110.575
1943.86808	16058.075
1946.96184	16005.175
1950.05358	15937.775
1953.14331	15923.675
1956.23103	15849.275
1959.31675	15848.575
1962.40046	15754.775
1965.48217	15718.475
1968.56188	15669.475
1971.63959	15623.675
1974.7153	15553.875
1977.78901	15529.675
1980.86073	15486.275
1983.93046	15458.575
1986.99819	15409.275
1990.06394	15354.775
1993.1277	15304.775
1996.18947	15229.475
1999.24925	15193.775
2002.30706	15164.975
2005.36288	15107.975
2008.41672	15063.275
2011.46859	14987.875
2014.51848	14984.075
2017.56639	14952.175
2020.61233	14906.875
2023.6563	14854.475
2026.6983	14810.875
2029.73833	14766.875
2032.7764	14753.275
2035.8125	14732.975
2038.84664	14666.675
2041.87881	14617.375
2044.90903	14564.975
2047.93729	14564.675
2050.96359	14560.975
2053.98794	14516.575
2057.01034	14533.975
2060.03078	14515.575
2063.04927	14491.875
2066.06582	14467.475
2069.08042	14477.075
2072.09307	14455.075
2075.10378	14444.275
2078.11255	14453.575
2081.11938	14446.875
2084.12426	14420.675
2087.12722	14408.575
2090.12824	14419.975
2093.12732	14376.375
2096.12447	14379.575
2099.11969	14375.475
2102.11299	14359.075
2105.10435	14377.675
2108.09379	14424.175
2111.08131	14381.875
2114.0669	14371.275
2117.05057	14385.375
2120.03233	14413.075
2123.01216	14438.175
2125.99008	14441.975
2128.96609	14442.575
2131.94018	14474.975
2134.91236	14483.675
2137.88263	14473.175
2140.851	14485.875
2143.81746	14481.075
2146.78201	14462.375
2149.74466	14459.575
2152.7054	14466.075
2155.66425	14466.375
2158.6212	14461.975
2161.57625	14443.175
2164.52941	14444.675
2167.48067	14435.275
2170.43004	14424.275
2173.37752	14381.575
2176.32311	14378.475
2179.26681	14394.575
2182.20863	14425.075
2185.14856	14376.475
2188.08661	14366.275
2191.02278	14358.875
2193.95707	14376.675
2196.88948	14364.475
2199.82001	14349.375
2202.74867	14322.375
2205.67545	14331.375
2208.60037	14268.175
2211.52341	14264.675
2214.44458	14223.675
2217.36388	14191.975
2220.28132	14189.075
2223.1969	14136.375
2226.11061	14129.675
2229.02246	14079.775
2231.93245	14043.675
2234.84058	14023.075
2237.74686	14016.575
2240.65128	14017.675
2243.55385	13958.675
2246.45456	13935.575
2249.35343	13936.175
2252.25044	13900.775
2255.14561	13870.975
2258.03893	13864.775
2260.93041	13868.475
2263.82004	13772.775
2266.70783	13759.975
2269.59378	13715.575
2272.4779	13670.475
2275.36017	13642.575
2278.24061	13591.475
2281.11922	13608.475
2283.996	13592.075
2286.87094	13568.675
2289.74405	13546.775
2292.61534	13533.975
2295.4848	13512.275
2298.35243	13508.175
2301.21824	13483.075
2304.08223	13473.475
2306.94439	13478.675
2309.80474	13467.275
2312.66327	13457.975
2315.51999	13421.975
2318.37489	13392.375
2321.22797	13365.475
2324.07925	13385.375
2326.92871	13336.875
2329.77637	13306.875
2332.62222	13314.175
2335.46626	13273.875
2338.3085	13271.675
2341.14893	13252.175
2343.98756	13236.275
2346.8244	13269.175
2349.65943	13243.175
2352.49267	13243.375
2355.32411	13225.375
2358.15376	13221.775
2360.98161	13251.775
2363.80768	13227.275
2366.63195	13211.775
2369.45444	13179.375
2372.27514	13180.975
2375.09405	13144.375
2377.91118	13114.075
2380.72652	13096.975
2383.54009	13065.975
2386.35187	13046.075
2389.16188	12999.375
2391.97011	12974.175
2394.77657	12946.375
2397.58125	12927.575
2400.38416	12933.575
2403.18529	12881.575
2405.98466	12854.475
2408.78226	12861.175
2411.57809	12810.575
2414.37216	12819.675
2417.16446	12812.475
2419.955	12783.675
2422.74378	12781.975
2425.5308	12773.875
2428.31606	12749.075
2431.09956	12764.275
2433.88131	12739.875
2436.6613	12718.675
2439.43954	12730.175
2442.21603	12706.975
2444.99077	12707.175
2447.76377	12709.475
2450.53501	12692.175
2453.30451	12639.875
2456.07226	12658.075
2458.83827	12672.375
2461.60254	12650.575
2464.36507	12593.375
2467.12586	12570.775
2469.88492	12570.675
2472.64224	12585.075
2475.39782	12598.175
2478.15167	12606.375
2480.90379	12592.475
2483.65417	12600.575
2486.40283	12588.775
2489.14976	12582.975
2491.89497	12593.375
2494.63845	12601.275
2497.3802	12558.375
2500.12024	12549.175
2502.85855	12556.975
2505.59514	12516.675
2508.33002	12512.775
2511.06318	12492.275
2513.79462	12500.275
2516.52435	12492.775
2519.25237	12449.875
2521.97867	12449.175
2524.70327	12443.175
2527.42616	12406.575
2530.14734	12423.575
2532.86681	12438.475
2535.58458	12400.375
2538.30065	12379.775
2541.01501	12401.275
2543.72768	12359.075
2546.43864	12339.675
2549.14791	12332.175
2551.85548	12329.075
2554.56136	12294.075
2557.26554	12278.275
2559.96803	12248.575
2562.66883	12226.575
2565.36794	12215.975
2568.06536	12177.575
2570.7611	12174.475
2573.45514	12158.575
2576.14751	12133.375
2578.83819	12110.875
2581.52719	12125.575
2584.21451	12101.475
2586.90015	12097.475
2589.58411	12052.475
2592.2664	12041.375
2594.94701	12044.475
2597.62594	12039.675
2600.30321	12008.475
2602.9788	11981.875
2605.65273	11984.575
2608.32498	12001.775
2610.99557	11975.675
2613.66449	11969.775
2616.33175	11962.975
2618.99734	11943.075
2621.66128	11925.575
2624.32355	11904.075
2626.98416	11886.075
2629.64311	11878.675
2632.30041	11883.775
2634.95605	11819.875
2637.61004	11846.275
2640.26238	11852.475
2642.91306	11818.575
2645.56209	11803.775
2648.20948	11830.975
2650.85521	11819.575
2653.4993	11810.875
2656.14175	11814.175
2658.78255	11817.875
2661.42171	11815.075
2664.05923	11841.675
2666.6951	11819.775
2669.32934	11822.375
2671.96194	11835.275
2674.59291	11845.875
2677.22224	11844.875
2679.84993	11848.275
2682.476	11816.075
2685.10043	11830.675
2687.72324	11802.475
2690.34441	11824.375
2692.96396	11826.775
2695.58188	11824.675
2698.19818	11776.675
2700.81285	11800.875
2703.4259	11831.275
2706.03733	11822.975
2708.64714	11811.875
2711.25533	11790.675
2713.86191	11803.975
2716.46687	11826.475
2719.07021	11809.075
2721.67194	11810.375
2724.27206	11819.575
2726.87057	11787.275
2729.46747	11819.275
2732.06276	11833.875
2734.65644	11829.975
2737.24852	11796.975
2739.83899	11794.575
2742.42786	11832.775
2745.01513	11757.675
2747.60079	11768.375
2750.18486	11773.375
2752.76733	11725.875
2755.3482	11726.875
2757.92747	11731.975
2760.50515	11686.475
2763.08123	11722.675
2765.65573	11699.375
2768.22863	11703.075
2770.79994	11672.475
2773.36967	11656.175
2775.9378	11663.175
2778.50435	11674.975
2781.06932	11648.975
2783.6327	11670.575
2786.1945	11657.275
2788.75471	11611.475
2791.31335	11597.575
2793.87041	11574.975
2796.42589	11555.275
2798.97979	11547.375
2801.53212	11540.675
2804.08288	11536.375
2806.63206	11492.275
2809.17967	11457.575
2811.72571	11436.775
2814.27018	11438.775
2816.81308	11401.375
2819.35442	11369.275
2821.89419	11338.275
2824.43239	11315.875
2826.96904	11316.175
2829.50412	11303.475
2832.03763	11274.875
2834.56959	11276.175
2837.1	11259.475
2839.62884	11291.875
2842.15613	11243.675
2844.68186	11259.975
2847.20604	11221.975
2849.72867	11277.075
2852.24974	11238.075
2854.76927	11204.575
2857.28724	11203.275
2859.80367	11179.475
2862.31855	11165.675
2864.83189	11158.275
2867.34368	11117.475
2869.85393	11124.875
2872.36264	11122.875
2874.8698	11132.275
2877.37543	11084.475
2879.87952	11115.175
2882.38207	11111.775
2884.88308	11082.275
2887.38256	11106.875
2889.88051	11077.575
2892.37692	11079.675
2894.8718	11077.875
2897.36515	11104.775
2899.85698	11111.975
2902.34727	11121.775
2904.83604	11094.575
2907.32328	11122.975
2909.809	11133.675
2912.29319	11124.575
2914.77587	11122.375
2917.25702	11107.075
2919.73665	11074.075
2922.21476	11102.075
2924.69136	11080.575
2927.16644	11079.675
2929.64	11090.675
2932.11205	11050.775
2934.58258	11028.675
2937.05161	11041.575
2939.51912	11041.775
2941.98513	11018.175
2944.44962	10976.875
2946.91261	10952.775
2949.37409	10991.475
2951.83407	10960.975
2954.29254	10966.275
2956.74951	10950.375
2959.20498	10955.075
2961.65895	10933.375
2964.11142	10931.675
2966.56239	10929.775
2969.01186	10906.675
2971.45984	10901.075
2973.90632	10875.575
2976.35131	10850.275
2978.7948	10838.375
2981.23681	10817.075
2983.67732	10790.775
2986.11635	10790.875
2988.55388	10731.975
2990.98993	10718.375
2993.4245	10700.275
2995.85758	10662.775
2998.28917	10619.375
3000.71928	10603.075
3003.14791	10571.875
3005.57506	10582.275
3008.00073	10533.075
3010.42493	10498.075
3012.84764	10487.175
3015.26888	10487.075
3017.68865	10460.875
3020.10694	10462.475
3022.52376	10438.275
3024.9391	10417.975
3027.35298	10411.175
3029.76539	10420.175
3032.17632	10443.275
3034.5858	10400.275
3036.9938	10396.075
3039.40034	10375.675
3041.80542	10388.875
3044.20903	10384.375
3046.61118	10354.575
3049.01187	10323.275
3051.4111	10313.275
3053.80888	10262.775
3056.20519	10244.975
3058.60005	10211.775
3060.99345	10202.075
3063.3854	10199.275
3065.7759	10159.575
3068.16494	10159.175
3070.55254	10109.775
3072.93868	10101.075
3075.32338	10053.175
3077.70662	10050.875
3080.08842	10036.275
3082.46878	10002.375
3084.84769	10018.575
3087.22515	9992.975
3089.60118	9995.075
3091.97576	9971.075
3094.3489	9968.775
3096.72061	9986.475
3099.09087	9986.175
3101.4597	9974.975
3103.82709	9967.475
3106.19305	9925.675
3108.55757	9938.875
3110.92066	9921.775
3113.28232	9904.275
3115.64255	9865.875
3118.00134	9861.675
3120.35871	9827.075
3122.71466	9809.875
3125.06917	9798.275
3127.42226	9784.975
3129.77393	9755.375
