Data from AgNP_FTO_APTES_UA_10uM_CRN_1000uM_R6G_10uM_NaF_0.1M_Addition_RamanShift__29__19-55-01-015.txt Node

Date: Thu Feb 10 19:55:01 GMT 2022
User: TCL
Spectrometer: QEP01345
Trigger mode: 4
Integration Time (sec): 7.000000E0
Scans to average: 10
Electric dark correction enabled: true
Nonlinearity correction enabled: false
Boxcar width: 0
XAxis mode: Raman Shifts
Number of Pixels in Spectrum: 1044
>>>>>Begin Spectral Data<<<<<
46.04893	0.8125
50.45542	-0.0875
54.85868	0.2125
59.25871	-0.1875
63.6555	41.4125
68.04907	46.6125
72.43941	49.5125
76.82654	48.6125
81.21044	55.1125
85.59113	51.3125
89.96862	56.7125
94.34289	58.9125
98.71396	58.4125
103.08183	63.3125
107.4465	63.0125
111.80798	60.6125
116.16626	65.6125
120.52136	71.5125
124.87327	71.6125
129.222	71.1125
133.56755	74.4125
137.90993	79.0125
142.24913	86.5125
146.58517	93.1125
150.91804	107.4125
155.24774	125.7125
159.57429	155.7125
163.89768	190.7125
168.21792	251.1125
172.53501	347.1125
176.84895	474.6125
181.15975	664.6125
185.46741	920.1125
189.77193	1284.4125
194.07331	1717.3125
198.37157	2205.8125
202.6667	2738.6125
206.9587	3246.0125
211.24758	3768.4125
215.53334	4311.2125
219.81599	4922.3125
224.09553	5597.4125
228.37195	6341.9125
232.64527	7138.8125
236.91549	7994.9125
241.18261	8757.4125
245.44663	9390.5125
249.70755	9931.8125
253.96539	10341.4125
258.22014	10723.6125
262.4718	11010.8125
266.72039	11298.1125
270.96589	11473.4125
275.20832	11472.5125
279.44768	11412.3125
283.68397	11257.8125
287.91719	11109.5125
292.14735	11142.6125
296.37445	11385.9125
300.59849	11781.0125
304.81948	12264.8125
309.03742	12594.5125
313.25231	12583.7125
317.46415	12018.7125
321.67296	11086.9125
325.87872	10356.7125
330.08145	9988.7125
334.28114	9979.4125
338.47781	10148.9125
342.67145	10466.6125
346.86207	10925.1125
351.04966	11585.7125
355.23424	12338.6125
359.4158	12875.5125
363.59435	13097.1125
367.76989	13198.8125
371.94243	13177.5125
376.11196	13142.8125
380.27849	13061.6125
384.44203	12951.8125
388.60257	12766.4125
392.76012	12639.1125
396.91468	12745.5125
401.06626	13081.5125
405.21485	13357.0125
409.36047	13130.3125
413.50311	12469.2125
417.64277	11848.2125
421.77947	11479.6125
425.9132	11377.4125
430.04396	11381.6125
434.17176	11427.2125
438.2966	11587.7125
442.41849	11842.7125
446.53742	12196.8125
450.6534	12537.6125
454.76644	12732.7125
458.87653	12759.1125
462.98368	12655.5125
467.08789	12466.0125
471.18916	12234.7125
475.2875	11965.0125
479.38291	11756.4125
483.4754	11547.4125
487.56496	11360.0125
491.6516	11244.5125
495.73531	11198.5125
499.81612	11211.6125
503.89401	11357.2125
507.96899	11506.7125
512.04106	11712.6125
516.11023	11900.3125
520.1765	12071.0125
524.23987	12053.5125
528.30034	11804.6125
532.35792	11589.9125
536.41261	11317.1125
540.46441	11095.8125
544.51333	11000.4125
548.55936	11045.0125
552.60252	11291.9125
556.64279	11590.3125
560.6802	11779.2125
564.71473	12007.2125
568.7464	12496.5125
572.7752	12847.0125
576.80114	12484.3125
580.82422	11910.2125
584.84444	11628.9125
588.86181	11583.3125
592.87633	11668.4125
596.888	11775.0125
600.89682	12080.3125
604.9028	13297.7125
608.90594	16874.7125
612.90624	21968.0125
616.90371	21525.8125
620.89834	15171.7125
624.89015	12038.4125
628.87913	11415.8125
632.86528	11465.1125
636.84862	11643.6125
640.82913	11521.0125
644.80683	11101.5125
648.78172	10830.7125
652.75379	10875.2125
656.72306	11318.7125
660.68952	11864.7125
664.65319	11807.4125
668.61405	11237.6125
672.57211	10960.9125
676.52738	10957.1125
680.47986	11000.1125
684.42955	10942.8125
688.37646	10867.4125
692.32058	10903.7125
696.26192	11002.7125
700.20048	11174.0125
704.13626	11247.7125
708.06928	11210.0125
711.99952	11117.2125
715.927	11031.0125
719.85171	11055.8125
723.77365	11064.9125
727.69284	10918.5125
731.60928	10833.7125
735.52295	10796.1125
739.43388	10826.5125
743.34206	10870.1125
747.24749	10902.8125
751.15017	11002.6125
755.05012	11175.9125
758.94733	11674.0125
762.8418	12835.2125
766.73354	14836.9125
770.62254	17084.1125
774.50882	18375.7125
778.39237	17701.0125
782.27321	15393.8125
786.15132	13093.0125
790.02671	11753.6125
793.89938	11212.5125
797.76935	10955.7125
801.6366	10848.8125
805.50115	10799.7125
809.36299	10735.4125
813.22213	10671.8125
817.07857	10684.7125
820.93231	10688.5125
824.78336	10732.8125
828.63172	10777.2125
832.47738	10807.2125
836.32036	10772.4125
840.16066	10712.0125
843.99827	10660.4125
847.8332	10631.4125
851.66546	10614.9125
855.49504	10654.2125
859.32195	10591.3125
863.1462	10559.2125
866.96777	10522.8125
870.78668	10529.5125
874.60293	10546.3125
878.41652	10586.2125
882.22745	10609.2125
886.03573	10688.4125
889.84136	10688.2125
893.64433	10587.6125
897.44466	10577.9125
901.24235	10551.6125
905.0374	10543.2125
908.8298	10506.0125
912.61957	10484.5125
916.40671	10500.6125
920.19121	10572.6125
923.97308	10657.7125
927.75233	10732.7125
931.52895	10843.3125
935.30295	10738.2125
939.07433	10496.8125
942.84309	10227.5125
946.60924	10046.7125
950.37278	9954.0125
954.13371	9931.3125
957.89203	9894.1125
961.64774	9886.3125
965.40086	9852.1125
969.15137	9826.8125
972.89929	9796.3125
976.64461	9802.3125
980.38733	9791.0125
984.12747	9785.9125
987.86502	9821.5125
991.59999	9857.6125
995.33237	9948.3125
999.06217	10124.2125
1002.78939	10311.6125
1006.51404	10522.4125
1010.23611	10710.5125
1013.95561	10842.0125
1017.67255	10830.2125
1021.38692	10684.0125
1025.09872	10517.1125
1028.80796	10462.0125
1032.51465	10433.1125
1036.21877	10522.0125
1039.92035	10609.3125
1043.61937	10676.8125
1047.31584	10679.1125
1051.00976	10640.7125
1054.70114	10653.6125
1058.38998	10644.0125
1062.07627	10694.2125
1065.76003	10744.0125
1069.44126	10788.5125
1073.11995	10851.6125
1076.79611	10997.4125
1080.46974	11176.2125
1084.14085	11386.6125
1087.80943	11702.0125
1091.47549	11835.7125
1095.13903	11645.0125
1098.80005	11301.7125
1102.45857	10985.5125
1106.11456	10897.8125
1109.76805	10934.5125
1113.41903	11189.5125
1117.06751	11527.9125
1120.71348	12007.1125
1124.35696	12500.7125
1127.99793	12885.0125
1131.63641	12836.6125
1135.2724	12252.2125
1138.90589	11700.9125
1142.5369	11359.5125
1146.16542	11139.7125
1149.79145	11079.0125
1153.415	11026.0125
1157.03607	11120.8125
1160.65467	11314.0125
1164.27079	11685.6125
1167.88443	12250.8125
1171.49561	13142.2125
1175.10432	14725.6125
1178.71056	16794.8125
1182.31434	18190.4125
1185.91565	18404.7125
1189.51451	17869.9125
1193.11091	16842.1125
1196.70485	15652.0125
1200.29634	14814.9125
1203.88538	14183.3125
1207.47197	13360.1125
1211.05612	12678.1125
1214.63782	12278.8125
1218.21708	12193.8125
1221.79391	12167.4125
1225.36829	12182.2125
1228.94024	12167.9125
1232.50976	12141.2125
1236.07685	12163.6125
1239.6415	12234.0125
1243.20374	12309.3125
1246.76355	12403.9125
1250.32093	12539.3125
1253.8759	12758.3125
1257.42845	13114.6125
1260.97859	13449.3125
1264.52631	13813.4125
1268.07163	14156.3125
1271.61453	14438.7125
1275.15503	14646.8125
1278.69312	14711.8125
1282.22882	14705.5125
1285.76211	14937.8125
1289.29301	15338.3125
1292.82151	15823.2125
1296.34761	16305.9125
1299.87133	17111.3125
1303.39266	18417.6125
1306.9116	20422.1125
1310.42815	22731.4125
1313.94233	24137.9125
1317.45412	23678.7125
1320.96354	22096.7125
1324.47058	20336.9125
1327.97525	18841.7125
1331.47754	17971.0125
1334.97747	17653.7125
1338.47502	17845.8125
1341.97022	18349.7125
1345.46305	18998.9125
1348.95352	19974.7125
1352.44163	21299.2125
1355.92738	23383.8125
1359.41078	26517.1125
1362.89183	29480.9125
1366.37053	28579.7125
1369.84688	24326.3125
1373.32088	20186.8125
1376.79254	17559.5125
1380.26186	16220.0125
1383.72883	15547.7125
1387.19347	15119.9125
1390.65578	14631.8125
1394.11575	14225.7125
1397.57339	14020.1125
1401.0287	14058.5125
1404.48168	14184.3125
1407.93234	14384.9125
1411.38068	14493.2125
1414.82669	14463.3125
1418.27039	14227.4125
1421.71177	13909.7125
1425.15083	13578.6125
1428.58758	13424.2125
1432.02203	13422.2125
1435.45416	13526.7125
1438.88399	13594.2125
1442.31151	13630.4125
1445.73673	13688.3125
1449.15965	13746.6125
1452.58027	13745.3125
1455.9986	13661.4125
1459.41463	13673.8125
1462.82837	13829.5125
1466.23982	14085.4125
1469.64898	14362.8125
1473.05586	14584.8125
1476.46045	14683.6125
1479.86276	14886.6125
1483.26279	15191.3125
1486.66054	15570.7125
1490.05602	16019.7125
1493.44922	16674.9125
1496.84016	17647.0125
1500.22882	19261.1125
1503.61521	21398.1125
1506.99934	23855.8125
1510.38121	26271.7125
1513.76081	27454.7125
1517.13816	26232.0125
1520.51324	23170.7125
1523.88607	20002.8125
1527.25665	17911.9125
1530.62498	16718.6125
1533.99105	16047.6125
1537.35488	15704.0125
1540.71647	15439.3125
1544.07581	15344.9125
1547.4329	15294.5125
1550.78776	15229.0125
1554.14038	15176.2125
1557.49077	15309.0125
1560.83892	15543.9125
1564.18484	15906.7125
1567.52853	16355.0125
1570.86999	16690.5125
1574.20922	16883.6125
1577.54624	16774.8125
1580.88103	15992.7125
1584.2136	14994.6125
1587.54395	14433.8125
1590.87208	14573.1125
1594.19801	15256.1125
1597.52172	16252.3125
1600.84321	16783.6125
1604.16251	16388.7125
1607.47959	15476.9125
1610.79447	14407.2125
1614.10715	13318.9125
1617.41763	12464.2125
1620.7259	11909.7125
1624.03199	11627.0125
1627.33587	11599.5125
1630.63757	11792.8125
1633.93707	12220.8125
1637.23439	12929.7125
1640.52951	14031.4125
1643.82246	15587.0125
1647.11321	17507.3125
1650.40179	18991.0125
1653.68819	18716.7125
1656.97241	16530.0125
1660.25446	13948.5125
1663.53433	12160.7125
1666.81203	11070.4125
1670.08756	10439.8125
1673.36092	10078.2125
1676.63211	9822.5125
1679.90115	9659.9125
1683.16801	9505.4125
1686.43272	9410.0125
1689.69527	9316.2125
1692.95567	9285.1125
1696.2139	9291.3125
1699.46999	9299.3125
1702.72392	9224.3125
1705.97571	9207.0125
1709.22535	9189.7125
1712.47284	9189.8125
1715.71819	9171.7125
1718.96139	9170.9125
1722.20246	9166.3125
1725.44139	9113.6125
1728.67818	9068.3125
1731.91284	9006.7125
1735.14537	8940.0125
1738.37576	8873.1125
1741.60403	8854.7125
1744.83017	8798.9125
1748.05418	8801.6125
1751.27607	8777.5125
1754.49584	8772.7125
1757.71349	8761.7125
1760.92903	8753.9125
1764.14244	8745.9125
1767.35375	8737.6125
1770.56294	8702.0125
1773.77002	8678.0125
1776.97499	8662.0125
1780.17785	8602.5125
1783.37861	8601.1125
1786.57727	8556.3125
1789.77382	8507.4125
1792.96828	8531.1125
1796.16064	8550.0125
1799.3509	8506.3125
1802.53907	8494.6125
1805.72514	8462.0125
1808.90913	8448.3125
1812.09102	8431.7125
1815.27083	8388.7125
1818.44856	8362.0125
1821.6242	8349.2125
1824.79776	8332.2125
1827.96924	8307.9125
1831.13864	8295.9125
1834.30597	8301.5125
1837.47122	8310.6125
1840.6344	8274.8125
1843.7955	8287.3125
1846.95454	8280.2125
1850.11151	8267.0125
1853.26642	8252.5125
1856.41926	8252.4125
1859.57004	8257.8125
1862.71876	8229.7125
1865.86542	8244.0125
1869.01003	8211.6125
1872.15258	8215.8125
1875.29308	8250.7125
1878.43152	8206.8125
1881.56792	8224.1125
1884.70227	8208.2125
1887.83457	8216.3125
1890.96482	8190.6125
1894.09304	8169.2125
1897.21921	8154.4125
1900.34335	8161.7125
1903.46544	8173.9125
1906.58551	8187.5125
1909.70353	8157.3125
1912.81953	8158.7125
1915.93349	8142.7125
1919.04543	8138.8125
1922.15534	8121.1125
1925.26322	8084.8125
1928.36908	8094.4125
1931.47292	8062.5125
1934.57473	8045.0125
1937.67453	8019.4125
1940.77232	8011.7125
1943.86808	7964.9125
1946.96184	7942.5125
1950.05358	7911.1125
1953.14331	7867.8125
1956.23103	7834.8125
1959.31675	7844.3125
1962.40046	7816.0125
1965.48217	7795.4125
1968.56188	7765.4125
1971.63959	7755.7125
1974.7153	7718.2125
1977.78901	7701.1125
1980.86073	7659.9125
1983.93046	7644.5125
1986.99819	7630.7125
1990.06394	7579.1125
1993.1277	7562.8125
1996.18947	7527.6125
1999.24925	7512.7125
2002.30706	7490.0125
2005.36288	7468.6125
2008.41672	7469.3125
2011.46859	7428.8125
2014.51848	7395.9125
2017.56639	7396.1125
2020.61233	7359.7125
2023.6563	7349.9125
2026.6983	7331.1125
2029.73833	7300.0125
2032.7764	7300.5125
2035.8125	7279.2125
2038.84664	7270.7125
2041.87881	7218.6125
2044.90903	7228.5125
2047.93729	7189.8125
2050.96359	7191.5125
2053.98794	7171.2125
2057.01034	7171.7125
2060.03078	7155.8125
2063.04927	7145.4125
2066.06582	7149.0125
2069.08042	7144.0125
2072.09307	7128.5125
2075.10378	7133.3125
2078.11255	7126.5125
2081.11938	7142.4125
2084.12426	7108.0125
2087.12722	7093.9125
2090.12824	7093.9125
2093.12732	7073.6125
2096.12447	7108.0125
2099.11969	7097.3125
2102.11299	7086.3125
2105.10435	7097.5125
2108.09379	7082.3125
2111.08131	7084.2125
2114.0669	7077.5125
2117.05057	7084.4125
2120.03233	7100.5125
2123.01216	7114.7125
2125.99008	7119.4125
2128.96609	7125.8125
2131.94018	7124.9125
2134.91236	7148.2125
2137.88263	7097.3125
2140.851	7124.0125
2143.81746	7143.9125
2146.78201	7107.9125
2149.74466	7128.3125
2152.7054	7116.1125
2155.66425	7110.6125
2158.6212	7093.2125
2161.57625	7080.4125
2164.52941	7083.0125
2167.48067	7072.0125
2170.43004	7082.7125
2173.37752	7065.3125
2176.32311	7065.7125
2179.26681	7069.5125
2182.20863	7078.2125
2185.14856	7050.9125
2188.08661	7046.1125
2191.02278	7051.4125
2193.95707	7052.8125
2196.88948	7048.5125
2199.82001	7039.0125
2202.74867	7008.5125
2205.67545	7004.9125
2208.60037	6988.2125
2211.52341	7006.8125
2214.44458	6977.6125
2217.36388	6960.7125
2220.28132	6942.7125
2223.1969	6922.2125
2226.11061	6906.8125
2229.02246	6883.9125
2231.93245	6871.8125
2234.84058	6856.9125
2237.74686	6835.6125
2240.65128	6834.6125
2243.55385	6818.1125
2246.45456	6815.8125
2249.35343	6801.5125
2252.25044	6809.1125
2255.14561	6803.1125
2258.03893	6809.3125
2260.93041	6806.4125
2263.82004	6784.7125
2266.70783	6760.5125
2269.59378	6739.6125
2272.4779	6707.7125
2275.36017	6682.2125
2278.24061	6688.4125
2281.11922	6678.6125
2283.996	6665.2125
2286.87094	6647.8125
2289.74405	6622.0125
2292.61534	6605.2125
2295.4848	6615.6125
2298.35243	6592.2125
2301.21824	6582.9125
2304.08223	6601.9125
2306.94439	6578.4125
2309.80474	6566.1125
2312.66327	6576.6125
2315.51999	6576.7125
2318.37489	6552.1125
2321.22797	6546.0125
2324.07925	6532.4125
2326.92871	6534.1125
2329.77637	6515.1125
2332.62222	6496.1125
2335.46626	6496.1125
2338.3085	6463.4125
2341.14893	6483.8125
2343.98756	6464.7125
2346.8244	6472.6125
2349.65943	6474.6125
2352.49267	6490.0125
2355.32411	6489.9125
2358.15376	6478.0125
2360.98161	6483.5125
2363.80768	6512.6125
2366.63195	6498.1125
2369.45444	6484.4125
2372.27514	6489.4125
2375.09405	6494.8125
2377.91118	6458.9125
2380.72652	6418.7125
2383.54009	6401.6125
2386.35187	6379.8125
2389.16188	6333.4125
2391.97011	6330.7125
2394.77657	6308.5125
2397.58125	6287.5125
2400.38416	6281.5125
2403.18529	6286.8125
2405.98466	6251.1125
2408.78226	6238.2125
2411.57809	6230.0125
2414.37216	6215.9125
2417.16446	6204.1125
2419.955	6195.9125
2422.74378	6179.8125
2425.5308	6202.9125
2428.31606	6190.1125
2431.09956	6192.6125
2433.88131	6159.8125
2436.6613	6157.4125
2439.43954	6165.1125
2442.21603	6158.0125
2444.99077	6161.5125
2447.76377	6155.2125
2450.53501	6156.4125
2453.30451	6161.3125
2456.07226	6128.0125
2458.83827	6127.5125
2461.60254	6131.5125
2464.36507	6111.6125
2467.12586	6112.3125
2469.88492	6107.5125
2472.64224	6091.3125
2475.39782	6112.7125
2478.15167	6117.2125
2480.90379	6128.9125
2483.65417	6119.1125
2486.40283	6151.1125
2489.14976	6146.9125
2491.89497	6154.5125
2494.63845	6160.2125
2497.3802	6145.3125
2500.12024	6113.6125
2502.85855	6112.2125
2505.59514	6089.5125
2508.33002	6076.3125
2511.06318	6071.8125
2513.79462	6053.2125
2516.52435	6012.0125
2519.25237	5987.8125
2521.97867	5980.5125
2524.70327	5982.4125
2527.42616	5966.6125
2530.14734	5940.8125
2532.86681	5936.6125
2535.58458	5935.1125
2538.30065	5951.9125
2541.01501	5935.0125
2543.72768	5930.5125
2546.43864	5932.8125
2549.14791	5918.2125
2551.85548	5905.4125
2554.56136	5890.0125
2557.26554	5885.4125
2559.96803	5866.5125
2562.66883	5871.7125
2565.36794	5839.8125
2568.06536	5832.0125
2570.7611	5833.9125
2573.45514	5808.3125
2576.14751	5780.8125
2578.83819	5787.6125
2581.52719	5774.3125
2584.21451	5762.2125
2586.90015	5761.2125
2589.58411	5742.6125
2592.2664	5743.2125
2594.94701	5715.1125
2597.62594	5730.0125
2600.30321	5719.1125
2602.9788	5717.7125
2605.65273	5684.7125
2608.32498	5696.1125
2610.99557	5677.3125
2613.66449	5710.3125
2616.33175	5689.5125
2618.99734	5666.3125
2621.66128	5672.2125
2624.32355	5658.1125
2626.98416	5669.1125
2629.64311	5658.7125
2632.30041	5632.0125
2634.95605	5602.6125
2637.61004	5613.3125
2640.26238	5595.9125
2642.91306	5602.4125
2645.56209	5571.5125
2648.20948	5568.6125
2650.85521	5574.9125
2653.4993	5576.1125
2656.14175	5566.1125
2658.78255	5590.0125
2661.42171	5588.4125
2664.05923	5570.8125
2666.6951	5604.1125
2669.32934	5586.9125
2671.96194	5580.9125
2674.59291	5592.8125
2677.22224	5594.7125
2679.84993	5600.7125
2682.476	5580.7125
2685.10043	5583.9125
2687.72324	5585.3125
2690.34441	5583.6125
2692.96396	5587.8125
2695.58188	5590.6125
2698.19818	5570.7125
2700.81285	5566.2125
2703.4259	5587.1125
2706.03733	5592.8125
2708.64714	5587.0125
2711.25533	5587.7125
2713.86191	5591.0125
2716.46687	5601.3125
2719.07021	5591.2125
2721.67194	5591.7125
2724.27206	5596.2125
2726.87057	5584.3125
2729.46747	5584.3125
2732.06276	5597.6125
2734.65644	5567.6125
2737.24852	5588.1125
2739.83899	5571.0125
2742.42786	5576.0125
2745.01513	5537.1125
2747.60079	5530.5125
2750.18486	5535.5125
2752.76733	5513.3125
2755.3482	5517.3125
2757.92747	5504.1125
2760.50515	5501.0125
2763.08123	5487.1125
2765.65573	5472.9125
2768.22863	5473.0125
2770.79994	5448.9125
2773.36967	5464.2125
2775.9378	5442.5125
2778.50435	5448.2125
2781.06932	5448.6125
2783.6327	5431.4125
2786.1945	5444.0125
2788.75471	5435.4125
2791.31335	5429.1125
2793.87041	5424.8125
2796.42589	5413.7125
2798.97979	5418.8125
2801.53212	5399.7125
2804.08288	5414.7125
2806.63206	5395.9125
2809.17967	5380.9125
2811.72571	5377.4125
2814.27018	5389.9125
2816.81308	5380.0125
2819.35442	5371.8125
2821.89419	5374.7125
2824.43239	5354.7125
2826.96904	5375.8125
2829.50412	5380.4125
2832.03763	5370.2125
2834.56959	5375.2125
2837.1	5394.1125
2839.62884	5403.8125
2842.15613	5428.5125
2844.68186	5503.5125
2847.20604	5547.7125
2849.72867	5596.9125
2852.24974	5603.0125
2854.76927	5578.4125
2857.28724	5569.0125
2859.80367	5559.9125
2862.31855	5543.8125
2864.83189	5535.7125
2867.34368	5503.9125
2869.85393	5486.6125
2872.36264	5485.4125
2874.8698	5491.7125
2877.37543	5501.4125
2879.87952	5489.0125
2882.38207	5491.9125
2884.88308	5467.7125
2887.38256	5468.5125
2889.88051	5466.5125
2892.37692	5460.0125
2894.8718	5455.0125
2897.36515	5477.8125
2899.85698	5457.0125
2902.34727	5468.7125
2904.83604	5478.9125
2907.32328	5463.3125
2909.809	5460.5125
2912.29319	5466.9125
2914.77587	5462.2125
2917.25702	5457.5125
2919.73665	5430.4125
2922.21476	5453.7125
2924.69136	5455.5125
2927.16644	5434.2125
2929.64	5433.6125
2932.11205	5418.0125
2934.58258	5398.4125
2937.05161	5393.5125
2939.51912	5383.3125
2941.98513	5342.4125
2944.44962	5314.9125
2946.91261	5258.4125
2949.37409	5253.0125
2951.83407	5232.6125
2954.29254	5206.1125
2956.74951	5198.7125
2959.20498	5183.3125
2961.65895	5171.2125
2964.11142	5167.8125
2966.56239	5153.1125
2969.01186	5145.2125
2971.45984	5118.5125
2973.90632	5107.9125
2976.35131	5096.0125
2978.7948	5086.5125
2981.23681	5070.1125
2983.67732	5038.8125
2986.11635	5041.8125
2988.55388	5018.4125
2990.98993	5010.2125
2993.4245	4991.8125
2995.85758	4987.9125
2998.28917	4960.7125
3000.71928	4961.2125
3003.14791	4941.6125
3005.57506	4949.1125
3008.00073	4943.2125
3010.42493	4942.0125
3012.84764	4912.4125
3015.26888	4897.1125
3017.68865	4893.7125
3020.10694	4892.7125
3022.52376	4873.9125
3024.9391	4885.0125
3027.35298	4849.0125
3029.76539	4847.1125
3032.17632	4862.0125
3034.5858	4853.8125
3036.9938	4855.4125
3039.40034	4830.5125
3041.80542	4837.6125
3044.20903	4824.8125
3046.61118	4819.2125
3049.01187	4812.5125
3051.4111	4793.5125
3053.80888	4791.4125
3056.20519	4783.2125
3058.60005	4776.8125
3060.99345	4766.5125
3063.3854	4744.2125
3065.7759	4729.1125
3068.16494	4739.5125
3070.55254	4723.2125
3072.93868	4710.6125
3075.32338	4689.3125
3077.70662	4693.1125
3080.08842	4677.1125
3082.46878	4662.7125
