Data from AgNP_FTO_APTES_UA_10uM_CRN_100uM_R6G_10uM_NaF_0.1M_Addition_RamanShift__11__17-37-20-847.txt Node

Date: Thu Feb 10 17:37:20 GMT 2022
User: TCL
Spectrometer: QEP01345
Trigger mode: 4
Integration Time (sec): 7.000000E0
Scans to average: 10
Electric dark correction enabled: true
Nonlinearity correction enabled: false
Boxcar width: 0
XAxis mode: Raman Shifts
Number of Pixels in Spectrum: 1044
>>>>>Begin Spectral Data<<<<<
46.04893	-0.1375
50.45542	-0.8375
54.85868	-2.2375
59.25871	0.6625
63.6555	49.4625
68.04907	53.7625
72.43941	58.7625
76.82654	58.9625
81.21044	62.0625
85.59113	61.6625
89.96862	67.9625
94.34289	70.0625
98.71396	68.2625
103.08183	74.0625
107.4465	73.9625
111.80798	74.5625
116.16626	80.5625
120.52136	78.5625
124.87327	83.6625
129.222	86.1625
133.56755	91.7625
137.90993	94.9625
142.24913	104.7625
146.58517	110.7625
150.91804	129.0625
155.24774	151.4625
159.57429	188.1625
163.89768	232.3625
168.21792	301.2625
172.53501	412.2625
176.84895	569.4625
181.15975	807.3625
185.46741	1134.6625
189.77193	1568.3625
194.07331	2096.3625
198.37157	2710.4625
202.6667	3364.3625
206.9587	3994.6625
211.24758	4628.4625
215.53334	5229.7625
219.81599	5888.4625
224.09553	6576.2625
228.37195	7338.1625
232.64527	8191.8625
236.91549	9104.6625
241.18261	10036.1625
245.44663	10978.5625
249.70755	11823.5625
253.96539	12596.1625
258.22014	13232.2625
262.4718	13764.7625
266.72039	14127.7625
270.96589	14314.4625
275.20832	14363.0625
279.44768	14355.9625
283.68397	14249.1625
287.91719	14111.5625
292.14735	14039.0625
296.37445	13977.2625
300.59849	13955.6625
304.81948	13916.9625
309.03742	13824.5625
313.25231	13708.3625
317.46415	13516.9625
321.67296	13314.9625
325.87872	13136.6625
330.08145	13103.5625
334.28114	13147.5625
338.47781	13255.0625
342.67145	13404.5625
346.86207	13559.3625
351.04966	13711.5625
355.23424	13844.9625
359.4158	14031.0625
363.59435	14171.5625
367.76989	14267.7625
371.94243	14381.1625
376.11196	14458.9625
380.27849	14543.6625
384.44203	14625.8625
388.60257	14722.8625
392.76012	14860.9625
396.91468	15003.5625
401.06626	15192.7625
405.21485	15350.2625
409.36047	15358.4625
413.50311	15279.2625
417.64277	15217.6625
421.77947	15191.1625
425.9132	15271.7625
430.04396	15366.2625
434.17176	15465.7625
438.2966	15544.1625
442.41849	15669.6625
446.53742	15851.8625
450.6534	16073.9625
454.76644	16192.5625
458.87653	16318.0625
462.98368	16372.9625
467.08789	16364.8625
471.18916	16325.3625
475.2875	16298.3625
479.38291	16232.8625
483.4754	16198.7625
487.56496	16114.3625
491.6516	16005.0625
495.73531	15933.2625
499.81612	15890.8625
503.89401	15903.4625
507.96899	15978.1625
512.04106	16001.3625
516.11023	16014.8625
520.1765	16008.5625
524.23987	15910.2625
528.30034	15820.6625
532.35792	15767.0625
536.41261	15747.7625
540.46441	15655.8625
544.51333	15758.6625
548.55936	15841.5625
552.60252	16038.5625
556.64279	16222.7625
560.6802	16299.6625
564.71473	16345.3625
568.7464	16467.2625
572.7752	16669.8625
576.80114	16909.6625
580.82422	17172.9625
584.84444	17321.5625
588.86181	17352.7625
592.87633	17296.8625
596.888	17296.5625
600.89682	17329.4625
604.9028	17542.8625
608.90594	18134.9625
612.90624	18807.2625
616.90371	18179.7625
620.89834	16780.3625
624.89015	16173.5625
628.87913	16120.5625
632.86528	16236.8625
636.84862	16337.3625
640.82913	16266.5625
644.80683	16080.7625
648.78172	15980.9625
652.75379	15947.5625
656.72306	15997.0625
660.68952	16124.0625
664.65319	16137.0625
668.61405	16063.9625
672.57211	16061.2625
676.52738	16096.4625
680.47986	16130.8625
684.42955	16096.6625
688.37646	16079.4625
692.32058	16128.8625
696.26192	16191.9625
700.20048	16266.1625
704.13626	16406.8625
708.06928	16415.0625
711.99952	16384.1625
715.927	16342.9625
719.85171	16318.5625
723.77365	16271.8625
727.69284	16240.3625
731.60928	16127.1625
735.52295	16061.0625
739.43388	16052.5625
743.34206	16072.7625
747.24749	16107.3625
751.15017	16174.5625
755.05012	16310.1625
758.94733	16506.5625
762.8418	16916.5625
766.73354	17502.0625
770.62254	18038.6625
774.50882	18192.6625
778.39237	17832.4625
782.27321	17230.8625
786.15132	16694.4625
790.02671	16338.1625
793.89938	16145.1625
797.76935	16048.0625
801.6366	16028.3625
805.50115	15968.8625
809.36299	15917.2625
813.22213	15882.2625
817.07857	15872.8625
820.93231	15883.5625
824.78336	15887.6625
828.63172	15911.1625
832.47738	15875.9625
836.32036	15853.2625
840.16066	15860.3625
843.99827	15839.1625
847.8332	15848.5625
851.66546	15842.5625
855.49504	15894.1625
859.32195	15935.4625
863.1462	15895.0625
866.96777	15874.3625
870.78668	15900.6625
874.60293	15919.6625
878.41652	15949.4625
882.22745	15953.1625
886.03573	15940.1625
889.84136	15965.1625
893.64433	15947.0625
897.44466	15953.7625
901.24235	15885.9625
905.0374	15903.9625
908.8298	15900.6625
912.61957	15935.5625
916.40671	16007.6625
920.19121	16073.9625
923.97308	16102.9625
927.75233	16065.9625
931.52895	15962.2625
935.30295	15901.9625
939.07433	15733.2625
942.84309	15655.4625
946.60924	15607.0625
950.37278	15540.9625
954.13371	15511.1625
957.89203	15511.0625
961.64774	15475.8625
965.40086	15464.6625
969.15137	15408.2625
972.89929	15392.8625
976.64461	15385.4625
980.38733	15372.0625
984.12747	15386.4625
987.86502	15412.9625
991.59999	15404.9625
995.33237	15448.6625
999.06217	15536.4625
1002.78939	15606.4625
1006.51404	15704.8625
1010.23611	15804.1625
1013.95561	15909.4625
1017.67255	15936.6625
1021.38692	15904.5625
1025.09872	15818.1625
1028.80796	15770.2625
1032.51465	15716.5625
1036.21877	15719.0625
1039.92035	15772.1625
1043.61937	15770.0625
1047.31584	15828.6625
1051.00976	15876.8625
1054.70114	15959.1625
1058.38998	16030.3625
1062.07627	16161.0625
1065.76003	16277.1625
1069.44126	16354.9625
1073.11995	16470.6625
1076.79611	16605.6625
1080.46974	16599.5625
1084.14085	16634.0625
1087.80943	16630.8625
1091.47549	16720.4625
1095.13903	16753.1625
1098.80005	16686.1625
1102.45857	16607.9625
1106.11456	16425.1625
1109.76805	16311.7625
1113.41903	16254.2625
1117.06751	16248.1625
1120.71348	16288.7625
1124.35696	16376.1625
1127.99793	16492.7625
1131.63641	16560.6625
1135.2724	16511.4625
1138.90589	16493.4625
1142.5369	16429.9625
1146.16542	16432.2625
1149.79145	16457.2625
1153.415	16501.4625
1157.03607	16587.0625
1160.65467	16731.9625
1164.27079	17030.9625
1167.88443	17349.7625
1171.49561	17740.1625
1175.10432	18222.3625
1178.71056	18871.7625
1182.31434	19469.3625
1185.91565	19935.6625
1189.51451	20195.6625
1193.11091	20184.1625
1196.70485	19936.2625
1200.29634	19536.2625
1203.88538	19141.3625
1207.47197	18795.7625
1211.05612	18493.6625
1214.63782	18209.8625
1218.21708	17976.3625
1221.79391	17718.5625
1225.36829	17533.7625
1228.94024	17406.8625
1232.50976	17387.3625
1236.07685	17361.6625
1239.6415	17425.6625
1243.20374	17469.4625
1246.76355	17570.3625
1250.32093	17651.2625
1253.8759	17775.5625
1257.42845	18012.6625
1260.97859	18232.6625
1264.52631	18468.3625
1268.07163	18652.7625
1271.61453	18869.2625
1275.15503	19025.2625
1278.69312	19155.4625
1282.22882	19367.2625
1285.76211	19526.3625
1289.29301	19780.9625
1292.82151	20081.7625
1296.34761	20459.3625
1299.87133	20885.2625
1303.39266	21338.4625
1306.9116	21769.8625
1310.42815	22195.3625
1313.94233	22423.5625
1317.45412	22447.1625
1320.96354	22376.5625
1324.47058	22327.2625
1327.97525	22308.1625
1331.47754	22383.4625
1334.97747	22459.1625
1338.47502	22726.0625
1341.97022	23088.3625
1345.46305	23398.6625
1348.95352	23584.0625
1352.44163	23567.6625
1355.92738	23456.2625
1359.41078	23436.7625
1362.89183	23360.3625
1366.37053	22917.9625
1369.84688	21897.0625
1373.32088	20756.6625
1376.79254	19882.3625
1380.26186	19396.1625
1383.72883	19194.7625
1387.19347	19158.1625
1390.65578	18959.9625
1394.11575	18811.5625
1397.57339	18712.4625
1401.0287	18683.2625
1404.48168	18661.1625
1407.93234	18572.4625
1411.38068	18461.9625
1414.82669	18225.0625
1418.27039	17880.3625
1421.71177	17554.5625
1425.15083	17268.4625
1428.58758	17080.9625
1432.02203	17062.0625
1435.45416	17145.8625
1438.88399	17258.5625
1442.31151	17382.8625
1445.73673	17521.1625
1449.15965	17631.0625
1452.58027	17719.5625
1455.9986	17823.3625
1459.41463	17950.4625
1462.82837	18166.4625
1466.23982	18351.2625
1469.64898	18569.1625
1473.05586	18724.8625
1476.46045	18818.9625
1479.86276	18858.2625
1483.26279	18823.9625
1486.66054	18879.9625
1490.05602	18993.9625
1493.44922	19181.5625
1496.84016	19443.6625
1500.22882	19933.5625
1503.61521	20536.1625
1506.99934	21172.1625
1510.38121	21605.0625
1513.76081	21602.5625
1517.13816	21255.8625
1520.51324	20832.8625
1523.88607	20445.6625
1527.25665	20189.8625
1530.62498	20039.5625
1533.99105	19884.4625
1537.35488	19710.8625
1540.71647	19451.9625
1544.07581	19158.3625
1547.4329	18978.8625
1550.78776	18703.8625
1554.14038	18561.3625
1557.49077	18494.8625
1560.83892	18458.1625
1564.18484	18514.0625
1567.52853	18620.6625
1570.86999	18624.3625
1574.20922	18714.8625
1577.54624	18755.2625
1580.88103	18676.8625
1584.2136	18532.8625
1587.54395	18497.2625
1590.87208	18661.0625
1594.19801	18997.8625
1597.52172	19381.5625
1600.84321	19516.8625
1604.16251	19247.4625
1607.47959	18822.0625
1610.79447	18268.2625
1614.10715	17688.9625
1617.41763	17096.2625
1620.7259	16602.6625
1624.03199	16254.9625
1627.33587	16088.2625
1630.63757	16131.5625
1633.93707	16383.6625
1637.23439	16896.3625
1640.52951	17666.7625
1643.82246	18641.3625
1647.11321	19568.5625
1650.40179	20047.6625
1653.68819	19799.7625
1656.97241	18796.2625
1660.25446	17594.3625
1663.53433	16545.1625
1666.81203	15732.5625
1670.08756	15149.9625
1673.36092	14779.0625
1676.63211	14499.5625
1679.90115	14356.6625
1683.16801	14212.2625
1686.43272	14098.4625
1689.69527	14046.6625
1692.95567	14003.3625
1696.2139	13907.9625
1699.46999	13912.5625
1702.72392	13858.0625
1705.97571	13845.2625
1709.22535	13803.8625
1712.47284	13781.5625
1715.71819	13759.8625
1718.96139	13754.6625
1722.20246	13743.9625
1725.44139	13669.8625
1728.67818	13639.0625
1731.91284	13554.0625
1735.14537	13541.8625
1738.37576	13457.0625
1741.60403	13457.8625
1744.83017	13446.3625
1748.05418	13402.5625
1751.27607	13380.2625
1754.49584	13357.9625
1757.71349	13387.9625
1760.92903	13363.1625
1764.14244	13348.9625
1767.35375	13347.6625
1770.56294	13301.1625
1773.77002	13278.0625
1776.97499	13271.5625
1780.17785	13241.7625
1783.37861	13209.2625
1786.57727	13174.4625
1789.77382	13150.8625
1792.96828	13121.0625
1796.16064	13089.6625
1799.3509	13063.0625
1802.53907	13053.4625
1805.72514	13015.5625
1808.90913	12977.7625
1812.09102	12952.8625
1815.27083	12920.5625
1818.44856	12936.9625
1821.6242	12899.9625
1824.79776	12885.4625
1827.96924	12890.4625
1831.13864	12866.7625
1834.30597	12868.6625
1837.47122	12854.6625
1840.6344	12823.1625
1843.7955	12808.1625
1846.95454	12773.4625
1850.11151	12777.2625
1853.26642	12778.0625
1856.41926	12767.5625
1859.57004	12756.4625
1862.71876	12755.7625
1865.86542	12712.2625
1869.01003	12712.2625
1872.15258	12688.4625
1875.29308	12694.3625
1878.43152	12680.2625
1881.56792	12637.8625
1884.70227	12589.1625
1887.83457	12583.4625
1890.96482	12556.4625
1894.09304	12544.2625
1897.21921	12487.0625
1900.34335	12483.3625
1903.46544	12481.3625
1906.58551	12465.0625
1909.70353	12440.5625
1912.81953	12416.3625
1915.93349	12386.0625
1919.04543	12367.6625
1922.15534	12350.0625
1925.26322	12324.1625
1928.36908	12321.2625
1931.47292	12307.7625
1934.57473	12274.9625
1937.67453	12252.5625
1940.77232	12212.3625
1943.86808	12193.4625
1946.96184	12115.0625
1950.05358	12104.8625
1953.14331	12083.0625
1956.23103	12060.3625
1959.31675	11995.0625
1962.40046	11978.5625
1965.48217	11906.5625
1968.56188	11897.1625
1971.63959	11840.1625
1974.7153	11802.3625
1977.78901	11771.2625
1980.86073	11738.3625
1983.93046	11728.7625
1986.99819	11677.9625
1990.06394	11691.5625
1993.1277	11630.3625
1996.18947	11579.6625
1999.24925	11542.7625
2002.30706	11511.9625
2005.36288	11459.0625
2008.41672	11446.8625
2011.46859	11406.1625
2014.51848	11417.0625
2017.56639	11350.9625
2020.61233	11342.4625
2023.6563	11268.5625
2026.6983	11258.3625
2029.73833	11206.6625
2032.7764	11184.9625
2035.8125	11150.4625
2038.84664	11122.9625
2041.87881	11083.5625
2044.90903	11048.6625
2047.93729	11031.5625
2050.96359	11016.4625
2053.98794	10990.7625
2057.01034	10989.0625
2060.03078	11024.3625
2063.04927	10976.1625
2066.06582	10999.6625
2069.08042	10944.5625
2072.09307	10965.6625
2075.10378	10919.2625
2078.11255	10936.4625
2081.11938	10907.2625
2084.12426	10919.0625
2087.12722	10898.5625
2090.12824	10872.3625
2093.12732	10879.7625
2096.12447	10865.2625
2099.11969	10875.6625
2102.11299	10863.8625
2105.10435	10892.6625
2108.09379	10899.5625
2111.08131	10909.1625
2114.0669	10900.7625
2117.05057	10906.0625
2120.03233	10925.4625
2123.01216	10921.9625
2125.99008	10930.4625
2128.96609	10922.9625
2131.94018	10930.9625
2134.91236	10954.4625
2137.88263	10943.8625
2140.851	10951.1625
2143.81746	10964.9625
2146.78201	10963.8625
2149.74466	10952.9625
2152.7054	10941.9625
2155.66425	10946.1625
2158.6212	10949.5625
2161.57625	10941.9625
2164.52941	10922.1625
2167.48067	10928.4625
2170.43004	10908.8625
2173.37752	10896.2625
2176.32311	10892.2625
2179.26681	10906.0625
2182.20863	10892.3625
2185.14856	10879.7625
2188.08661	10856.3625
2191.02278	10872.0625
2193.95707	10885.3625
2196.88948	10858.3625
2199.82001	10867.0625
2202.74867	10826.3625
2205.67545	10818.1625
2208.60037	10785.0625
2211.52341	10764.9625
2214.44458	10768.9625
2217.36388	10763.9625
2220.28132	10723.0625
2223.1969	10688.8625
2226.11061	10695.8625
2229.02246	10639.5625
2231.93245	10613.7625
2234.84058	10595.1625
2237.74686	10585.2625
2240.65128	10573.2625
2243.55385	10573.3625
2246.45456	10528.7625
2249.35343	10527.6625
2252.25044	10512.2625
2255.14561	10515.1625
2258.03893	10492.2625
2260.93041	10438.0625
2263.82004	10406.3625
2266.70783	10378.9625
2269.59378	10340.7625
2272.4779	10331.7625
2275.36017	10296.0625
2278.24061	10279.7625
2281.11922	10280.6625
2283.996	10257.5625
2286.87094	10226.3625
2289.74405	10208.9625
2292.61534	10196.6625
2295.4848	10188.5625
2298.35243	10170.8625
2301.21824	10122.3625
2304.08223	10157.5625
2306.94439	10147.8625
2309.80474	10110.4625
2312.66327	10127.6625
2315.51999	10100.7625
2318.37489	10091.8625
2321.22797	10074.1625
2324.07925	10034.1625
2326.92871	10018.5625
2329.77637	10000.6625
2332.62222	10002.5625
2335.46626	9984.6625
2338.3085	9973.9625
2341.14893	9980.2625
2343.98756	9937.1625
2346.8244	9935.8625
2349.65943	9916.2625
2352.49267	9892.3625
2355.32411	9899.8625
2358.15376	9908.3625
2360.98161	9905.6625
2363.80768	9886.1625
2366.63195	9884.2625
2369.45444	9850.9625
2372.27514	9850.1625
2375.09405	9837.5625
2377.91118	9820.1625
2380.72652	9785.4625
2383.54009	9773.6625
2386.35187	9744.6625
2389.16188	9713.5625
2391.97011	9691.8625
2394.77657	9677.8625
2397.58125	9625.0625
2400.38416	9610.8625
2403.18529	9646.1625
2405.98466	9603.4625
2408.78226	9580.6625
2411.57809	9585.1625
2414.37216	9573.8625
2417.16446	9567.2625
2419.955	9556.6625
2422.74378	9529.9625
2425.5308	9507.8625
2428.31606	9523.6625
2431.09956	9510.6625
2433.88131	9503.8625
2436.6613	9468.2625
2439.43954	9469.0625
2442.21603	9457.6625
2444.99077	9435.1625
2447.76377	9432.5625
2450.53501	9455.9625
2453.30451	9401.3625
2456.07226	9369.8625
2458.83827	9391.6625
2461.60254	9379.9625
2464.36507	9362.4625
2467.12586	9341.6625
2469.88492	9339.9625
2472.64224	9324.0625
2475.39782	9361.7625
2478.15167	9343.8625
2480.90379	9300.1625
2483.65417	9309.3625
2486.40283	9296.3625
2489.14976	9307.1625
2491.89497	9278.5625
2494.63845	9279.8625
2497.3802	9264.1625
2500.12024	9257.3625
2502.85855	9238.1625
2505.59514	9242.9625
2508.33002	9215.8625
2511.06318	9215.9625
2513.79462	9196.4625
2516.52435	9183.1625
2519.25237	9168.4625
2521.97867	9169.2625
2524.70327	9161.5625
2527.42616	9140.5625
2530.14734	9121.6625
2532.86681	9135.9625
2535.58458	9111.0625
2538.30065	9104.0625
2541.01501	9090.7625
2543.72768	9059.5625
2546.43864	9052.6625
2549.14791	9072.9625
2551.85548	9044.5625
2554.56136	9009.1625
2557.26554	8978.2625
2559.96803	8958.2625
2562.66883	8939.6625
2565.36794	8921.1625
2568.06536	8894.5625
2570.7611	8861.5625
2573.45514	8850.5625
2576.14751	8830.7625
2578.83819	8835.9625
2581.52719	8808.4625
2584.21451	8791.6625
2586.90015	8787.1625
2589.58411	8779.5625
2592.2664	8756.7625
2594.94701	8730.6625
2597.62594	8726.0625
2600.30321	8694.1625
2602.9788	8683.9625
2605.65273	8666.9625
2608.32498	8665.7625
2610.99557	8630.7625
2613.66449	8618.1625
2616.33175	8603.5625
2618.99734	8613.7625
2621.66128	8577.9625
2624.32355	8580.0625
2626.98416	8552.3625
2629.64311	8564.3625
2632.30041	8546.7625
2634.95605	8524.5625
2637.61004	8502.3625
2640.26238	8491.5625
2642.91306	8496.5625
2645.56209	8479.6625
2648.20948	8478.8625
2650.85521	8463.8625
2653.4993	8462.3625
2656.14175	8451.4625
2658.78255	8447.6625
2661.42171	8459.3625
2664.05923	8472.1625
2666.6951	8463.4625
2669.32934	8451.4625
2671.96194	8448.6625
2674.59291	8458.6625
2677.22224	8443.4625
2679.84993	8460.0625
2682.476	8452.1625
2685.10043	8441.1625
2687.72324	8400.2625
2690.34441	8395.8625
2692.96396	8422.5625
2695.58188	8408.7625
2698.19818	8380.3625
2700.81285	8418.9625
2703.4259	8399.8625
2706.03733	8424.9625
2708.64714	8386.5625
2711.25533	8394.8625
2713.86191	8379.3625
2716.46687	8413.2625
2719.07021	8404.6625
2721.67194	8409.7625
2724.27206	8372.6625
2726.87057	8398.7625
2729.46747	8383.2625
2732.06276	8387.9625
2734.65644	8375.0625
2737.24852	8400.7625
2739.83899	8369.0625
2742.42786	8360.5625
2745.01513	8309.3625
2747.60079	8293.3625
2750.18486	8274.4625
2752.76733	8293.2625
2755.3482	8269.5625
2757.92747	8267.0625
2760.50515	8245.1625
2763.08123	8241.0625
2765.65573	8221.8625
2768.22863	8208.9625
2770.79994	8189.5625
2773.36967	8191.7625
2775.9378	8200.4625
2778.50435	8203.3625
2781.06932	8183.3625
2783.6327	8164.1625
2786.1945	8167.5625
2788.75471	8138.0625
2791.31335	8119.6625
2793.87041	8087.7625
2796.42589	8075.7625
2798.97979	8084.2625
2801.53212	8047.3625
2804.08288	8040.7625
2806.63206	8002.0625
2809.17967	7992.2625
2811.72571	7965.0625
2814.27018	7964.7625
2816.81308	7931.2625
2819.35442	7912.4625
2821.89419	7909.1625
2824.43239	7885.4625
2826.96904	7873.1625
2829.50412	7864.6625
2832.03763	7867.8625
2834.56959	7867.8625
2837.1	7830.3625
2839.62884	7831.0625
2842.15613	7841.6625
2844.68186	7844.9625
2847.20604	7833.5625
2849.72867	7857.0625
2852.24974	7840.3625
2854.76927	7828.6625
2857.28724	7825.6625
2859.80367	7779.4625
2862.31855	7793.2625
2864.83189	7776.7625
2867.34368	7737.6625
2869.85393	7748.9625
2872.36264	7696.2625
2874.8698	7742.8625
2877.37543	7701.0625
2879.87952	7710.6625
2882.38207	7713.3625
2884.88308	7700.1625
2887.38256	7691.1625
2889.88051	7686.6625
2892.37692	7673.6625
2894.8718	7693.2625
2897.36515	7689.6625
2899.85698	7691.2625
2902.34727	7676.5625
2904.83604	7670.7625
2907.32328	7712.1625
2909.809	7671.2625
2912.29319	7690.4625
2914.77587	7669.2625
2917.25702	7690.6625
2919.73665	7656.7625
2922.21476	7667.2625
2924.69136	7667.6625
2927.16644	7661.1625
2929.64	7656.2625
2932.11205	7648.9625
2934.58258	7615.0625
2937.05161	7618.9625
2939.51912	7633.7625
2941.98513	7629.8625
2944.44962	7600.5625
2946.91261	7564.1625
2949.37409	7572.6625
2951.83407	7530.1625
2954.29254	7545.4625
2956.74951	7531.8625
2959.20498	7540.7625
2961.65895	7548.0625
2964.11142	7524.7625
2966.56239	7525.3625
2969.01186	7525.8625
2971.45984	7508.7625
2973.90632	7492.8625
2976.35131	7480.8625
2978.7948	7478.6625
2981.23681	7451.9625
2983.67732	7448.5625
2986.11635	7429.4625
2988.55388	7437.0625
2990.98993	7402.5625
2993.4245	7388.8625
2995.85758	7378.1625
2998.28917	7348.5625
3000.71928	7333.9625
3003.14791	7317.2625
3005.57506	7319.9625
3008.00073	7295.7625
3010.42493	7272.9625
3012.84764	7276.0625
3015.26888	7261.9625
3017.68865	7232.5625
3020.10694	7240.0625
3022.52376	7232.8625
3024.9391	7229.5625
3027.35298	7187.2625
3029.76539	7195.6625
3032.17632	7189.3625
3034.5858	7193.4625
3036.9938	7190.2625
3039.40034	7171.6625
3041.80542	7169.5625
3044.20903	7133.7625
3046.61118	7142.3625
3049.01187	7131.2625
3051.4111	7124.7625
3053.80888	7095.8625
3056.20519	7078.2625
