Data from AgNP_FTO_APTES_UA_10uM_CRN_0uM_R6G_10uM_NaF_0.1M_Addition_RamanShift__5__12-14-10-438.txt Node

Date: Thu Feb 10 12:14:10 GMT 2022
User: TCL
Spectrometer: QEP01345
Trigger mode: 4
Integration Time (sec): 7.000000E0
Scans to average: 10
Electric dark correction enabled: true
Nonlinearity correction enabled: false
Boxcar width: 0
XAxis mode: Raman Shifts
Number of Pixels in Spectrum: 1044
>>>>>Begin Spectral Data<<<<<
46.04893	-0.025
50.45542	-1.825
54.85868	-2.125
59.25871	-0.925
63.6555	57.175
68.04907	61.075
72.43941	63.675
76.82654	63.975
81.21044	69.375
85.59113	68.775
89.96862	72.875
94.34289	73.175
98.71396	74.575
103.08183	79.775
107.4465	83.575
111.80798	80.675
116.16626	86.475
120.52136	90.775
124.87327	94.475
129.222	96.275
133.56755	101.675
137.90993	110.875
142.24913	119.475
146.58517	134.675
150.91804	156.775
155.24774	191.175
159.57429	239.475
163.89768	306.175
168.21792	408.175
172.53501	553.775
176.84895	772.975
181.15975	1095.975
185.46741	1525.775
189.77193	2127.775
194.07331	2833.675
198.37157	3655.575
202.6667	4531.375
206.9587	5382.675
211.24758	6253.675
215.53334	7125.875
219.81599	8062.175
224.09553	9107.075
228.37195	10242.975
232.64527	11505.875
236.91549	12834.775
241.18261	14057.675
245.44663	15193.875
249.70755	16104.075
253.96539	16849.175
258.22014	17511.275
262.4718	18068.275
266.72039	18454.275
270.96589	18603.975
275.20832	18526.775
279.44768	18288.975
283.68397	17960.475
287.91719	17748.275
292.14735	17659.375
296.37445	17741.175
300.59849	18010.975
304.81948	18288.175
309.03742	18570.275
313.25231	18608.075
317.46415	18202.375
321.67296	17609.875
325.87872	17026.175
330.08145	16691.575
334.28114	16647.475
338.47781	16773.875
342.67145	17005.575
346.86207	17408.975
351.04966	17911.975
355.23424	18510.275
359.4158	18982.775
363.59435	19242.375
367.76989	19318.275
371.94243	19323.875
376.11196	19258.375
380.27849	19219.175
384.44203	19246.775
388.60257	19300.475
392.76012	19467.575
396.91468	19724.675
401.06626	20079.975
405.21485	20236.875
409.36047	20067.475
413.50311	19525.575
417.64277	19175.075
421.77947	19100.175
425.9132	19147.875
430.04396	19175.375
434.17176	19210.175
438.2966	19198.875
442.41849	19488.575
446.53742	19972.075
450.6534	20512.875
454.76644	20787.175
458.87653	20735.075
462.98368	20550.775
467.08789	20248.475
471.18916	19858.575
475.2875	19395.375
479.38291	19084.675
483.4754	18894.575
487.56496	18778.075
491.6516	18655.875
495.73531	18523.875
499.81612	18567.275
503.89401	18733.375
507.96899	18829.175
512.04106	18895.475
516.11023	18861.875
520.1765	18764.475
524.23987	18668.275
528.30034	18553.875
532.35792	18365.075
536.41261	18056.075
540.46441	17720.275
544.51333	17553.775
548.55936	17656.875
552.60252	18069.275
556.64279	18566.175
560.6802	18928.775
564.71473	19067.575
568.7464	19359.275
572.7752	19866.075
576.80114	20270.775
580.82422	20788.275
584.84444	21647.375
588.86181	22868.175
592.87633	23980.175
596.888	24060.775
600.89682	22859.775
604.9028	22697.375
608.90594	25323.375
612.90624	29055.575
616.90371	27657.575
620.89834	21701.475
624.89015	18761.275
628.87913	18282.975
632.86528	18406.675
636.84862	18523.175
640.82913	18223.275
644.80683	17615.075
648.78172	17187.475
652.75379	17204.775
656.72306	17550.575
660.68952	17959.875
664.65319	17827.675
668.61405	17286.875
672.57211	17095.875
676.52738	17164.375
680.47986	17158.875
684.42955	16918.975
688.37646	16778.475
692.32058	16896.075
696.26192	17152.675
700.20048	17509.275
704.13626	17700.875
708.06928	17641.275
711.99952	17557.675
715.927	17510.775
719.85171	17634.575
723.77365	17563.775
727.69284	17267.075
731.60928	16969.275
735.52295	16858.075
739.43388	16888.275
743.34206	16977.675
747.24749	17095.575
751.15017	17259.575
755.05012	17522.475
758.94733	18118.675
762.8418	19364.375
766.73354	21470.275
770.62254	23514.975
774.50882	24079.475
778.39237	22926.275
782.27321	20993.375
786.15132	19231.675
790.02671	18064.075
793.89938	17444.975
797.76935	17171.575
801.6366	17052.875
805.50115	16994.575
809.36299	16816.075
813.22213	16679.475
817.07857	16514.975
820.93231	16413.675
824.78336	16344.275
828.63172	16348.575
832.47738	16309.175
836.32036	16300.675
840.16066	16331.875
843.99827	16320.475
847.8332	16319.775
851.66546	16303.275
855.49504	16316.675
859.32195	16328.275
863.1462	16294.375
866.96777	16223.975
870.78668	16177.975
874.60293	16186.275
878.41652	16234.175
882.22745	16358.375
886.03573	16417.975
889.84136	16464.375
893.64433	16441.975
897.44466	16427.275
901.24235	16416.875
905.0374	16320.475
908.8298	16236.075
912.61957	16191.675
916.40671	16296.275
920.19121	16454.675
923.97308	16752.275
927.75233	16970.275
931.52895	16967.475
935.30295	16721.675
939.07433	16200.775
942.84309	15852.075
946.60924	15667.575
950.37278	15602.975
954.13371	15549.775
957.89203	15512.375
961.64774	15487.375
965.40086	15466.375
969.15137	15390.875
972.89929	15358.875
976.64461	15326.075
980.38733	15375.075
984.12747	15383.275
987.86502	15456.075
991.59999	15586.875
995.33237	15771.075
999.06217	16125.975
1002.78939	16618.175
1006.51404	17032.575
1010.23611	17424.475
1013.95561	17667.275
1017.67255	17702.475
1021.38692	17493.075
1025.09872	17119.875
1028.80796	16914.175
1032.51465	17015.175
1036.21877	17270.375
1039.92035	17382.475
1043.61937	17291.875
1047.31584	17112.375
1051.00976	16930.675
1054.70114	16798.775
1058.38998	16801.875
1062.07627	16858.075
1065.76003	16995.175
1069.44126	17190.775
1073.11995	17538.775
1076.79611	18017.075
1080.46974	18314.575
1084.14085	18579.775
1087.80943	18947.375
1091.47549	19156.275
1095.13903	18983.375
1098.80005	18531.575
1102.45857	17949.375
1106.11456	17571.275
1109.76805	17380.175
1113.41903	17456.575
1117.06751	17652.875
1120.71348	17917.475
1124.35696	18324.375
1127.99793	18742.575
1131.63641	18919.975
1135.2724	18651.975
1138.90589	18281.075
1142.5369	18134.375
1146.16542	18058.375
1149.79145	18049.675
1153.415	18117.175
1157.03607	18314.175
1160.65467	18860.775
1164.27079	19885.875
1167.88443	21102.275
1171.49561	22655.475
1175.10432	24813.875
1178.71056	27527.175
1182.31434	29988.675
1185.91565	31132.475
1189.51451	30781.075
1193.11091	29460.275
1196.70485	27673.375
1200.29634	25924.075
1203.88538	24695.175
1207.47197	23800.775
1211.05612	23148.075
1214.63782	22503.575
1218.21708	21935.375
1221.79391	21601.875
1225.36829	21451.575
1228.94024	21439.275
1232.50976	21168.175
1236.07685	20818.375
1239.6415	20544.375
1243.20374	20405.175
1246.76355	20450.475
1250.32093	20714.475
1253.8759	21197.575
1257.42845	21946.975
1260.97859	22852.575
1264.52631	23875.775
1268.07163	24854.975
1271.61453	25773.975
1275.15503	26546.575
1278.69312	27195.675
1282.22882	27837.175
1285.76211	28673.475
1289.29301	29675.075
1292.82151	30882.175
1296.34761	32324.775
1299.87133	34281.275
1303.39266	36676.475
1306.9116	39429.175
1310.42815	42107.375
1313.94233	43530.375
1317.45412	42927.375
1320.96354	41121.075
1324.47058	39368.875
1327.97525	38016.575
1331.47754	37091.175
1334.97747	36301.675
1338.47502	35625.075
1341.97022	35128.275
1345.46305	34930.775
1348.95352	35320.175
1352.44163	36355.975
1355.92738	38201.975
1359.41078	41185.075
1362.89183	44215.575
1366.37053	44115.675
1369.84688	39706.075
1373.32088	33791.575
1376.79254	29716.675
1380.26186	27938.475
1383.72883	27334.975
1387.19347	26740.075
1390.65578	26060.675
1394.11575	25748.675
1397.57339	25888.875
1401.0287	26279.975
1404.48168	26657.375
1407.93234	26683.175
1411.38068	26230.875
1414.82669	25642.175
1418.27039	24884.575
1421.71177	24213.475
1425.15083	23554.975
1428.58758	23308.375
1432.02203	23650.275
1435.45416	24378.775
1438.88399	24997.575
1442.31151	25278.675
1445.73673	25348.575
1449.15965	25388.175
1452.58027	25344.775
1455.9986	25158.475
1459.41463	25274.975
1462.82837	25744.175
1466.23982	26361.375
1469.64898	26888.175
1473.05586	27195.975
1476.46045	27259.275
1479.86276	27220.375
1483.26279	27202.075
1486.66054	27481.275
1490.05602	27991.575
1493.44922	28794.775
1496.84016	29846.575
1500.22882	31251.075
1503.61521	33184.175
1506.99934	35485.475
1510.38121	37434.075
1513.76081	37888.075
1517.13816	36377.675
1520.51324	33536.275
1523.88607	31042.475
1527.25665	29405.275
1530.62498	28500.675
1533.99105	27841.275
1537.35488	27159.175
1540.71647	26452.675
1544.07581	25652.375
1547.4329	25010.075
1550.78776	24470.375
1554.14038	24208.175
1557.49077	24126.875
1560.83892	24215.875
1564.18484	24474.975
1567.52853	24868.175
1570.86999	25265.375
1574.20922	25731.875
1577.54624	25971.475
1580.88103	25606.075
1584.2136	25196.975
1587.54395	25545.775
1590.87208	26793.775
1594.19801	28752.975
1597.52172	30709.275
1600.84321	31146.975
1604.16251	29629.275
1607.47959	27069.475
1610.79447	24510.175
1614.10715	22131.975
1617.41763	20268.175
1620.7259	19110.975
1624.03199	18564.175
1627.33587	18630.075
1630.63757	19346.475
1633.93707	20851.075
1637.23439	23393.575
1640.52951	27248.675
1643.82246	31933.475
1647.11321	35938.875
1650.40179	37105.575
1653.68819	34254.975
1656.97241	28837.575
1660.25446	23526.075
1663.53433	19838.675
1666.81203	17631.275
1670.08756	16358.075
1673.36092	15631.275
1676.63211	15151.775
1679.90115	14808.175
1683.16801	14541.675
1686.43272	14362.775
1689.69527	14252.075
1692.95567	14117.075
1696.2139	14041.875
1699.46999	13974.675
1702.72392	13948.375
1705.97571	13926.675
1709.22535	13896.775
1712.47284	13861.175
1715.71819	13823.075
1718.96139	13791.475
1722.20246	13744.375
1725.44139	13656.375
1728.67818	13557.575
1731.91284	13457.375
1735.14537	13375.775
1738.37576	13277.375
1741.60403	13273.075
1744.83017	13218.775
1748.05418	13119.375
1751.27607	13105.275
1754.49584	13063.975
1757.71349	13053.575
1760.92903	13033.075
1764.14244	12999.875
1767.35375	13026.975
1770.56294	13001.175
1773.77002	12935.375
1776.97499	12905.775
1780.17785	12863.175
1783.37861	12883.175
1786.57727	12856.575
1789.77382	12821.075
1792.96828	12778.675
1796.16064	12747.975
1799.3509	12722.775
1802.53907	12702.575
1805.72514	12664.975
1808.90913	12628.475
1812.09102	12613.075
1815.27083	12604.375
1818.44856	12587.475
1821.6242	12539.475
1824.79776	12541.975
1827.96924	12555.075
1831.13864	12551.675
1834.30597	12546.775
1837.47122	12573.075
1840.6344	12590.875
1843.7955	12589.175
1846.95454	12586.175
1850.11151	12589.375
1853.26642	12564.575
1856.41926	12577.075
1859.57004	12588.275
1862.71876	12551.075
1865.86542	12521.675
1869.01003	12514.175
1872.15258	12499.475
1875.29308	12462.175
1878.43152	12444.075
1881.56792	12424.875
1884.70227	12404.475
1887.83457	12381.575
1890.96482	12392.275
1894.09304	12301.375
1897.21921	12297.075
1900.34335	12290.575
1903.46544	12231.775
1906.58551	12216.975
1909.70353	12197.675
1912.81953	12178.575
1915.93349	12157.075
1919.04543	12119.475
1922.15534	12060.075
1925.26322	12022.075
1928.36908	11991.175
1931.47292	11967.975
1934.57473	11933.775
1937.67453	11886.275
1940.77232	11864.575
1943.86808	11816.275
1946.96184	11792.475
1950.05358	11717.475
1953.14331	11672.375
1956.23103	11679.275
1959.31675	11647.575
1962.40046	11635.775
1965.48217	11565.275
1968.56188	11504.575
1971.63959	11470.575
1974.7153	11463.075
1977.78901	11400.975
1980.86073	11345.875
1983.93046	11327.775
1986.99819	11317.675
1990.06394	11309.075
1993.1277	11269.875
1996.18947	11221.075
1999.24925	11165.775
2002.30706	11111.475
2005.36288	11123.575
2008.41672	11083.975
2011.46859	11054.075
2014.51848	11033.675
2017.56639	10985.375
2020.61233	10964.975
2023.6563	10928.975
2026.6983	10898.375
2029.73833	10877.875
2032.7764	10853.675
2035.8125	10830.175
2038.84664	10823.675
2041.87881	10808.675
2044.90903	10791.075
2047.93729	10746.175
2050.96359	10726.375
2053.98794	10730.075
2057.01034	10696.375
2060.03078	10703.775
2063.04927	10680.075
2066.06582	10687.175
2069.08042	10675.775
2072.09307	10660.575
2075.10378	10654.775
2078.11255	10653.975
2081.11938	10654.175
2084.12426	10616.975
2087.12722	10630.075
2090.12824	10641.475
2093.12732	10643.475
2096.12447	10623.575
2099.11969	10648.575
2102.11299	10634.775
2105.10435	10655.775
2108.09379	10639.775
2111.08131	10655.175
2114.0669	10658.075
2117.05057	10644.975
2120.03233	10659.675
2123.01216	10663.675
2125.99008	10690.975
2128.96609	10675.375
2131.94018	10677.075
2134.91236	10699.675
2137.88263	10666.375
2140.851	10679.375
2143.81746	10703.275
2146.78201	10665.775
2149.74466	10687.175
2152.7054	10666.175
2155.66425	10623.675
2158.6212	10638.675
2161.57625	10653.175
2164.52941	10615.575
2167.48067	10648.575
2170.43004	10623.375
2173.37752	10626.275
2176.32311	10607.175
2179.26681	10620.475
2182.20863	10612.175
2185.14856	10634.675
2188.08661	10613.675
2191.02278	10584.875
2193.95707	10590.075
2196.88948	10595.375
2199.82001	10591.775
2202.74867	10572.375
2205.67545	10564.175
2208.60037	10546.475
2211.52341	10556.575
2214.44458	10537.275
2217.36388	10502.775
2220.28132	10486.075
2223.1969	10433.575
2226.11061	10437.375
2229.02246	10422.475
2231.93245	10440.675
2234.84058	10401.275
2237.74686	10403.575
2240.65128	10397.975
2243.55385	10328.375
2246.45456	10317.875
2249.35343	10304.775
2252.25044	10303.775
2255.14561	10288.875
2258.03893	10298.975
2260.93041	10259.275
2263.82004	10233.375
2266.70783	10220.875
2269.59378	10168.675
2272.4779	10165.675
2275.36017	10123.975
2278.24061	10129.975
2281.11922	10120.075
2283.996	10063.275
2286.87094	10095.975
2289.74405	10059.675
2292.61534	10047.775
2295.4848	10045.075
2298.35243	10042.275
2301.21824	10019.875
2304.08223	10047.275
2306.94439	10032.875
2309.80474	10031.075
2312.66327	10014.475
2315.51999	10034.075
2318.37489	9984.475
2321.22797	9995.575
2324.07925	9973.675
2326.92871	9955.275
2329.77637	9966.975
2332.62222	9941.275
2335.46626	9930.075
2338.3085	9926.375
2341.14893	9928.175
2343.98756	9945.575
2346.8244	9961.575
2349.65943	9951.775
2352.49267	9959.175
2355.32411	9951.675
2358.15376	9952.375
2360.98161	9965.675
2363.80768	9955.675
2366.63195	9930.375
2369.45444	9921.275
2372.27514	9891.775
2375.09405	9891.375
2377.91118	9884.175
2380.72652	9837.175
2383.54009	9804.975
2386.35187	9787.975
2389.16188	9770.975
2391.97011	9725.275
2394.77657	9705.575
2397.58125	9698.775
2400.38416	9700.975
2403.18529	9658.875
2405.98466	9653.975
2408.78226	9637.575
2411.57809	9604.875
2414.37216	9591.975
2417.16446	9591.775
2419.955	9597.075
2422.74378	9607.075
2425.5308	9562.875
2428.31606	9602.575
2431.09956	9587.675
2433.88131	9575.175
2436.6613	9581.175
2439.43954	9600.275
2442.21603	9576.875
2444.99077	9562.075
2447.76377	9573.275
2450.53501	9569.975
2453.30451	9570.575
2456.07226	9555.675
2458.83827	9585.175
2461.60254	9571.575
2464.36507	9563.075
2467.12586	9559.175
2469.88492	9535.675
2472.64224	9578.075
2475.39782	9585.075
2478.15167	9590.275
2480.90379	9585.075
2483.65417	9598.275
2486.40283	9568.075
2489.14976	9584.575
2491.89497	9574.275
2494.63845	9572.575
2497.3802	9570.875
2500.12024	9578.175
2502.85855	9566.675
2505.59514	9555.275
2508.33002	9525.475
2511.06318	9506.375
2513.79462	9482.275
2516.52435	9492.075
2519.25237	9471.475
2521.97867	9450.775
2524.70327	9449.775
2527.42616	9431.675
2530.14734	9449.575
2532.86681	9423.575
2535.58458	9434.375
2538.30065	9443.475
2541.01501	9432.775
2543.72768	9415.775
2546.43864	9431.475
2549.14791	9401.775
2551.85548	9393.875
2554.56136	9416.275
2557.26554	9377.575
2559.96803	9364.775
2562.66883	9374.275
2565.36794	9358.175
2568.06536	9336.875
2570.7611	9329.475
2573.45514	9320.175
2576.14751	9301.275
2578.83819	9309.475
2581.52719	9301.075
2584.21451	9294.575
2586.90015	9266.975
2589.58411	9251.775
2592.2664	9265.775
2594.94701	9245.475
2597.62594	9253.475
2600.30321	9227.175
2602.9788	9225.375
2605.65273	9228.075
2608.32498	9224.875
2610.99557	9210.975
2613.66449	9224.175
2616.33175	9219.975
2618.99734	9220.375
2621.66128	9184.175
2624.32355	9197.775
2626.98416	9195.375
2629.64311	9158.175
2632.30041	9152.275
2634.95605	9132.575
2637.61004	9122.675
2640.26238	9133.375
2642.91306	9118.875
2645.56209	9110.975
2648.20948	9104.375
2650.85521	9108.275
2653.4993	9098.875
2656.14175	9116.575
2658.78255	9123.675
2661.42171	9135.375
2664.05923	9137.875
2666.6951	9192.675
2669.32934	9173.975
2671.96194	9153.575
2674.59291	9161.875
2677.22224	9146.975
2679.84993	9147.875
2682.476	9128.875
2685.10043	9138.775
2687.72324	9135.875
2690.34441	9126.375
2692.96396	9119.375
2695.58188	9114.975
2698.19818	9093.975
2700.81285	9091.875
2703.4259	9109.475
2706.03733	9116.875
2708.64714	9097.575
2711.25533	9127.775
2713.86191	9102.375
2716.46687	9125.175
2719.07021	9144.475
2721.67194	9178.275
2724.27206	9180.375
2726.87057	9177.175
2729.46747	9197.675
2732.06276	9173.675
2734.65644	9194.675
2737.24852	9174.775
2739.83899	9164.175
2742.42786	9185.875
2745.01513	9147.875
2747.60079	9161.575
2750.18486	9129.575
2752.76733	9113.175
2755.3482	9109.075
2757.92747	9122.375
2760.50515	9092.675
2763.08123	9097.675
2765.65573	9082.375
2768.22863	9082.375
2770.79994	9108.075
2773.36967	9072.075
2775.9378	9055.075
2778.50435	9056.975
2781.06932	9060.575
2783.6327	9051.375
2786.1945	9056.975
2788.75471	9071.875
2791.31335	9059.075
2793.87041	9040.775
2796.42589	9020.575
2798.97979	9014.575
2801.53212	9015.875
2804.08288	8994.675
2806.63206	8979.575
2809.17967	8951.575
2811.72571	8968.475
2814.27018	8936.475
2816.81308	8920.275
2819.35442	8917.475
2821.89419	8900.375
2824.43239	8911.275
2826.96904	8905.775
2829.50412	8911.875
2832.03763	8886.075
2834.56959	8878.775
2837.1	8857.575
2839.62884	8879.475
2842.15613	8908.775
2844.68186	8899.775
2847.20604	8911.275
2849.72867	8927.675
2852.24974	8903.975
2854.76927	8905.975
2857.28724	8875.975
2859.80367	8911.775
2862.31855	8879.875
2864.83189	8890.075
2867.34368	8882.475
2869.85393	8900.575
2872.36264	8872.575
2874.8698	8874.975
2877.37543	8871.175
2879.87952	8877.175
2882.38207	8897.575
2884.88308	8895.675
2887.38256	8898.075
2889.88051	8904.075
2892.37692	8888.675
2894.8718	8904.775
2897.36515	8909.975
2899.85698	8916.975
2902.34727	8913.075
2904.83604	8936.475
2907.32328	8948.375
2909.809	8945.175
2912.29319	8951.675
2914.77587	8933.275
2917.25702	8931.375
2919.73665	8919.875
2922.21476	8945.175
2924.69136	8912.475
2927.16644	8904.175
2929.64	8920.675
2932.11205	8887.775
2934.58258	8865.475
2937.05161	8871.875
2939.51912	8849.075
2941.98513	8844.475
2944.44962	8820.475
2946.91261	8773.075
2949.37409	8780.075
2951.83407	8766.175
2954.29254	8787.575
2956.74951	8778.775
2959.20498	8768.475
2961.65895	8779.275
2964.11142	8752.775
2966.56239	8733.175
2969.01186	8704.275
2971.45984	8695.875
2973.90632	8693.775
2976.35131	8632.875
2978.7948	8640.675
2981.23681	8584.975
2983.67732	8581.375
2986.11635	8568.575
2988.55388	8538.375
2990.98993	8540.775
2993.4245	8518.575
2995.85758	8510.275
2998.28917	8495.975
3000.71928	8474.675
3003.14791	8439.975
3005.57506	8463.175
3008.00073	8440.475
3010.42493	8423.675
3012.84764	8377.875
3015.26888	8384.875
3017.68865	8356.175
3020.10694	8359.075
3022.52376	8335.475
3024.9391	8335.875
3027.35298	8322.475
3029.76539	8299.975
3032.17632	8303.275
3034.5858	8316.575
3036.9938	8310.875
3039.40034	8308.575
3041.80542	8291.975
3044.20903	8255.075
3046.61118	8273.875
3049.01187	8221.575
3051.4111	8222.675
3053.80888	8207.675
3056.20519	8197.275
3058.60005	8194.775
3060.99345	8178.875
3063.3854	8167.775
3065.7759	8120.275
3068.16494	8129.675
3070.55254	8106.075
3072.93868	8095.375
3075.32338	8068.775
3077.70662	8053.375
3080.08842	8050.275
3082.46878	8018.775
3084.84769	8011.275
3087.22515	8001.975
3089.60118	8012.875
3091.97576	8012.175
3094.3489	8001.775
3096.72061	8011.775
3099.09087	7993.675
3101.4597	7992.375
3103.82709	7991.075
3106.19305	7964.775
3108.55757	7970.775
3110.92066	7960.075
3113.28232	7948.175
3115.64255	7940.075
3118.00134	7913.475
3120.35871	7918.075
3122.71466	7906.075
3125.06917	7870.375
3127.42226	7883.675
3129.77393	7874.975
3132.12417	7866.575
3134.47299	7860.375
3136.82039	7864.575
3139.16636	7866.275
3141.51092	7883.775
3143.85406	7859.275
3146.19579	7872.775
3148.53609	7848.275
3150.87499	7865.275
3153.21246	7865.175
3155.54853	7880.775
3157.88318	7875.375
3160.21642	7880.175
3162.54826	7897.675
3164.87868	7895.175
