Data from AgNP_FTO_APTES_UA_10uM_CRN_0uM_R6G_10uM_NaF_0.1M_Addition_RamanShift__4__11-13-30-356.txt Node

Date: Thu Feb 10 11:13:30 GMT 2022
User: TCL
Spectrometer: QEP01345
Trigger mode: 4
Integration Time (sec): 7.000000E0
Scans to average: 10
Electric dark correction enabled: true
Nonlinearity correction enabled: false
Boxcar width: 0
XAxis mode: Raman Shifts
Number of Pixels in Spectrum: 1044
>>>>>Begin Spectral Data<<<<<
46.04893	0.025
50.45542	-1.175
54.85868	-0.575
59.25871	-0.475
63.6555	72.925
68.04907	73.325
72.43941	81.025
76.82654	78.725
81.21044	86.525
85.59113	83.025
89.96862	91.325
94.34289	93.425
98.71396	92.525
103.08183	101.325
107.4465	104.225
111.80798	101.825
116.16626	110.225
120.52136	114.625
124.87327	123.725
129.222	126.925
133.56755	142.625
137.90993	154.525
142.24913	164.025
146.58517	193.525
150.91804	232.925
155.24774	285.125
159.57429	356.425
163.89768	467.125
168.21792	632.025
172.53501	864.225
176.84895	1212.325
181.15975	1722.125
185.46741	2404.525
189.77193	3338.125
194.07331	4487.225
198.37157	5792.025
202.6667	7171.025
206.9587	8561.525
211.24758	9905.025
215.53334	11249.625
219.81599	12735.525
224.09553	14343.225
228.37195	16133.925
232.64527	18117.025
236.91549	20177.425
241.18261	22329.825
245.44663	24271.825
249.70755	25945.425
253.96539	27398.925
258.22014	28579.625
262.4718	29504.225
266.72039	30063.825
270.96589	30196.425
275.20832	30002.725
279.44768	29508.325
283.68397	28861.225
287.91719	28311.425
292.14735	27942.825
296.37445	27747.625
300.59849	27710.525
304.81948	27777.725
309.03742	27627.525
313.25231	27281.025
317.46415	26564.025
321.67296	25752.125
325.87872	25102.725
330.08145	24753.625
334.28114	24719.725
338.47781	24850.325
342.67145	25171.125
346.86207	25526.025
351.04966	26014.325
355.23424	26653.725
359.4158	27187.125
363.59435	27575.525
367.76989	27767.025
371.94243	27838.225
376.11196	27893.825
380.27849	27875.025
384.44203	27882.025
388.60257	27877.325
392.76012	28023.425
396.91468	28296.125
401.06626	28673.425
405.21485	28836.125
409.36047	28492.325
413.50311	27843.125
417.64277	27296.225
421.77947	27162.725
425.9132	27200.025
430.04396	27301.025
434.17176	27336.325
438.2966	27475.025
442.41849	27799.425
446.53742	28220.425
450.6534	28648.525
454.76644	28989.625
458.87653	29099.425
462.98368	29114.725
467.08789	29025.925
471.18916	28768.325
475.2875	28469.825
479.38291	28368.325
483.4754	28371.425
487.56496	28288.625
491.6516	28088.825
495.73531	27798.025
499.81612	27607.825
503.89401	27708.125
507.96899	27953.325
512.04106	28186.025
516.11023	28323.225
520.1765	28288.825
524.23987	28174.225
528.30034	27828.825
532.35792	27615.125
536.41261	27312.425
540.46441	27057.525
544.51333	27022.425
548.55936	27189.425
552.60252	27661.625
556.64279	28142.925
560.6802	28538.125
564.71473	28857.225
568.7464	29395.525
572.7752	30003.425
576.80114	30376.625
580.82422	30490.725
584.84444	30777.925
588.86181	31197.525
592.87633	31622.725
596.888	31500.625
600.89682	31130.325
604.9028	32147.825
608.90594	35702.125
612.90624	39983.825
616.90371	38621.025
620.89834	32151.825
624.89015	28680.625
628.87913	27788.325
632.86528	27750.725
636.84862	27871.425
640.82913	27575.125
644.80683	27001.325
648.78172	26547.325
652.75379	26492.825
656.72306	26852.225
660.68952	27350.125
664.65319	27175.625
668.61405	26603.725
672.57211	26438.525
676.52738	26546.025
680.47986	26711.425
684.42955	26722.925
688.37646	26690.825
692.32058	26697.225
696.26192	26816.625
700.20048	26994.325
704.13626	27163.225
708.06928	27204.925
711.99952	27150.525
715.927	27047.725
719.85171	27027.225
723.77365	26941.025
727.69284	26734.225
731.60928	26479.725
735.52295	26349.625
739.43388	26324.425
743.34206	26413.125
747.24749	26473.625
751.15017	26627.825
755.05012	26934.725
758.94733	27590.225
762.8418	28918.125
766.73354	31186.025
770.62254	33580.225
774.50882	34642.925
778.39237	33503.225
782.27321	31154.225
786.15132	28952.125
790.02671	27608.925
793.89938	26903.525
797.76935	26551.225
801.6366	26376.625
805.50115	26365.225
809.36299	26290.925
813.22213	26145.125
817.07857	26092.425
820.93231	26080.925
824.78336	25948.325
828.63172	25804.225
832.47738	25670.825
836.32036	25634.325
840.16066	25560.425
843.99827	25579.125
847.8332	25580.925
851.66546	25645.025
855.49504	25693.825
859.32195	25780.425
863.1462	25740.925
866.96777	25742.225
870.78668	25833.025
874.60293	25940.025
878.41652	26001.825
882.22745	26105.025
886.03573	26253.825
889.84136	26351.725
893.64433	26453.125
897.44466	26592.525
901.24235	26705.325
905.0374	26768.325
908.8298	26808.925
912.61957	27036.925
916.40671	27337.325
920.19121	27679.625
923.97308	28060.225
927.75233	28253.225
931.52895	28153.025
935.30295	27705.225
939.07433	27098.925
942.84309	26589.525
946.60924	26127.025
950.37278	25784.125
954.13371	25560.825
957.89203	25348.325
961.64774	25168.925
965.40086	25010.725
969.15137	24817.825
972.89929	24637.125
976.64461	24457.625
980.38733	24376.725
984.12747	24333.725
987.86502	24332.025
991.59999	24396.625
995.33237	24574.825
999.06217	24824.125
1002.78939	25165.925
1006.51404	25418.525
1010.23611	25823.225
1013.95561	26163.825
1017.67255	26186.925
1021.38692	26083.625
1025.09872	25748.825
1028.80796	25475.725
1032.51465	25355.025
1036.21877	25306.025
1039.92035	25417.825
1043.61937	25544.325
1047.31584	25585.025
1051.00976	25752.425
1054.70114	25873.825
1058.38998	25962.925
1062.07627	26122.825
1065.76003	26320.725
1069.44126	26438.525
1073.11995	26633.325
1076.79611	26876.025
1080.46974	27120.525
1084.14085	27439.625
1087.80943	27781.525
1091.47549	28025.525
1095.13903	27993.925
1098.80005	27599.025
1102.45857	27102.925
1106.11456	26660.325
1109.76805	26485.725
1113.41903	26482.225
1117.06751	26704.225
1120.71348	27012.225
1124.35696	27414.325
1127.99793	27871.825
1131.63641	28156.025
1135.2724	27873.825
1138.90589	27436.825
1142.5369	27205.025
1146.16542	27152.125
1149.79145	27235.325
1153.415	27412.025
1157.03607	27779.425
1160.65467	28425.925
1164.27079	29541.125
1167.88443	30924.725
1171.49561	32639.625
1175.10432	34896.725
1178.71056	37860.525
1182.31434	40634.225
1185.91565	42090.225
1189.51451	42152.825
1193.11091	41042.825
1196.70485	39279.925
1200.29634	37385.925
1203.88538	36077.325
1207.47197	35338.425
1211.05612	34736.825
1214.63782	33973.625
1218.21708	33071.325
1221.79391	32141.925
1225.36829	31614.225
1228.94024	31311.025
1232.50976	31172.425
1236.07685	30985.725
1239.6415	30863.225
1243.20374	30838.825
1246.76355	30899.225
1250.32093	31092.525
1253.8759	31567.425
1257.42845	32342.325
1260.97859	33324.625
1264.52631	34419.425
1268.07163	35462.625
1271.61453	36414.425
1275.15503	37266.225
1278.69312	38037.925
1282.22882	38661.125
1285.76211	39559.425
1289.29301	40914.925
1292.82151	42665.025
1296.34761	44705.125
1299.87133	47058.925
1303.39266	49574.725
1306.9116	52105.025
1310.42815	54191.525
1313.94233	55216.525
1317.45412	54501.125
1320.96354	53156.725
1324.47058	51968.625
1327.97525	51035.225
1331.47754	50538.625
1334.97747	50128.625
1338.47502	49901.425
1341.97022	49805.625
1345.46305	50085.125
1348.95352	50443.925
1352.44163	51026.925
1355.92738	52143.025
1359.41078	54368.325
1362.89183	57073.925
1366.37053	57023.225
1369.84688	52414.925
1373.32088	46368.525
1376.79254	42159.325
1380.26186	40285.225
1383.72883	39957.725
1387.19347	39962.025
1390.65578	39716.625
1394.11575	39617.825
1397.57339	39804.925
1401.0287	40172.125
1404.48168	40250.525
1407.93234	39677.525
1411.38068	38523.625
1414.82669	37261.425
1418.27039	35912.825
1421.71177	34763.225
1425.15083	33850.625
1428.58758	33284.225
1432.02203	33415.225
1435.45416	34026.525
1438.88399	34835.325
1442.31151	35346.125
1445.73673	35750.525
1449.15965	36102.125
1452.58027	36252.225
1455.9986	36261.325
1459.41463	36381.225
1462.82837	36454.725
1466.23982	36639.025
1469.64898	36672.925
1473.05586	36649.025
1476.46045	36477.525
1479.86276	36234.825
1483.26279	36058.825
1486.66054	36158.425
1490.05602	36561.925
1493.44922	37436.025
1496.84016	38717.725
1500.22882	40695.525
1503.61521	43233.425
1506.99934	46036.125
1510.38121	48622.825
1513.76081	49579.325
1517.13816	48333.425
1520.51324	45479.525
1523.88607	42794.125
1527.25665	41057.925
1530.62498	40156.525
1533.99105	39549.025
1537.35488	38838.025
1540.71647	37867.425
1544.07581	36860.525
1547.4329	36073.025
1550.78776	35571.125
1554.14038	35382.725
1557.49077	35373.625
1560.83892	35597.225
1564.18484	35821.525
1567.52853	36184.325
1570.86999	36777.225
1574.20922	37630.325
1577.54624	38285.225
1580.88103	38399.325
1584.2136	38336.725
1587.54395	38585.325
1590.87208	39430.625
1594.19801	40444.425
1597.52172	41157.025
1600.84321	40680.825
1604.16251	38621.925
1607.47959	36126.025
1610.79447	33831.725
1614.10715	31645.225
1617.41763	29660.225
1620.7259	28242.025
1624.03199	27621.225
1627.33587	27733.925
1630.63757	28642.025
1633.93707	30392.625
1637.23439	33198.325
1640.52951	37085.225
1643.82246	41450.625
1647.11321	44885.425
1650.40179	45652.825
1653.68819	42875.025
1656.97241	37367.425
1660.25446	31768.825
1663.53433	27583.225
1666.81203	24934.725
1670.08756	23430.925
1673.36092	22514.825
1676.63211	21829.425
1679.90115	21381.725
1683.16801	20992.425
1686.43272	20771.725
1689.69527	20552.125
1692.95567	20362.825
1696.2139	20252.025
1699.46999	20146.625
1702.72392	20091.825
1705.97571	20009.225
1709.22535	19963.925
1712.47284	19870.625
1715.71819	19854.025
1718.96139	19802.325
1722.20246	19742.225
1725.44139	19657.125
1728.67818	19532.325
1731.91284	19412.725
1735.14537	19335.025
1738.37576	19257.025
1741.60403	19178.425
1744.83017	19133.425
1748.05418	19080.925
1751.27607	19053.325
1754.49584	19039.525
1757.71349	19061.925
1760.92903	19058.425
1764.14244	19088.825
1767.35375	19112.725
1770.56294	19097.125
1773.77002	19022.925
1776.97499	18977.425
1780.17785	18940.425
1783.37861	18919.325
1786.57727	18939.425
1789.77382	18826.725
1792.96828	18803.725
1796.16064	18726.725
1799.3509	18669.325
1802.53907	18632.725
1805.72514	18507.225
1808.90913	18436.525
1812.09102	18344.525
1815.27083	18257.025
1818.44856	18244.425
1821.6242	18222.025
1824.79776	18139.325
1827.96924	18127.925
1831.13864	18146.325
1834.30597	18141.725
1837.47122	18156.725
1840.6344	18170.925
1843.7955	18153.225
1846.95454	18084.025
1850.11151	18028.125
1853.26642	17965.125
1856.41926	17904.525
1859.57004	17866.225
1862.71876	17791.125
1865.86542	17711.125
1869.01003	17697.825
1872.15258	17653.125
1875.29308	17631.325
1878.43152	17568.325
1881.56792	17541.325
1884.70227	17450.625
1887.83457	17410.925
1890.96482	17340.725
1894.09304	17294.725
1897.21921	17252.225
1900.34335	17200.125
1903.46544	17145.625
1906.58551	17163.825
1909.70353	17128.125
1912.81953	17058.825
1915.93349	17012.325
1919.04543	17001.325
1922.15534	16959.125
1925.26322	16898.925
1928.36908	16863.925
1931.47292	16864.425
1934.57473	16818.025
1937.67453	16780.625
1940.77232	16715.725
1943.86808	16688.625
1946.96184	16674.225
1950.05358	16599.325
1953.14331	16562.725
1956.23103	16514.825
1959.31675	16495.525
1962.40046	16472.825
1965.48217	16404.325
1968.56188	16378.925
1971.63959	16318.025
1974.7153	16310.125
1977.78901	16257.325
1980.86073	16164.925
1983.93046	16137.125
1986.99819	16032.425
1990.06394	15998.425
1993.1277	15929.525
1996.18947	15831.525
1999.24925	15758.625
2002.30706	15722.125
2005.36288	15627.025
2008.41672	15618.325
2011.46859	15506.025
2014.51848	15440.425
2017.56639	15341.825
2020.61233	15342.425
2023.6563	15281.025
2026.6983	15229.925
2029.73833	15177.125
2032.7764	15110.325
2035.8125	15050.425
2038.84664	14969.725
2041.87881	14965.725
2044.90903	14919.225
2047.93729	14875.725
2050.96359	14854.425
2053.98794	14816.525
2057.01034	14843.225
2060.03078	14818.225
2063.04927	14787.125
2066.06582	14802.325
2069.08042	14832.225
2072.09307	14804.625
2075.10378	14804.925
2078.11255	14795.925
2081.11938	14837.325
2084.12426	14857.025
2087.12722	14879.825
2090.12824	14862.425
2093.12732	14857.125
2096.12447	14920.125
2099.11969	14910.025
2102.11299	14938.725
2105.10435	14988.125
2108.09379	14979.825
2111.08131	14973.125
2114.0669	14995.425
2117.05057	14960.225
2120.03233	15033.725
2123.01216	15040.425
2125.99008	15024.325
2128.96609	15077.925
2131.94018	15050.025
2134.91236	15089.125
2137.88263	15056.325
2140.851	15009.625
2143.81746	14955.725
2146.78201	14911.925
2149.74466	14849.725
2152.7054	14819.925
2155.66425	14738.425
2158.6212	14720.025
2161.57625	14681.325
2164.52941	14621.425
2167.48067	14560.625
2170.43004	14563.125
2173.37752	14522.025
2176.32311	14468.525
2179.26681	14445.225
2182.20863	14450.125
2185.14856	14442.525
2188.08661	14396.225
2191.02278	14391.825
2193.95707	14408.925
2196.88948	14349.625
2199.82001	14379.325
2202.74867	14335.125
2205.67545	14305.325
2208.60037	14267.925
2211.52341	14240.225
2214.44458	14219.125
2217.36388	14184.225
2220.28132	14116.425
2223.1969	14084.325
2226.11061	14048.525
2229.02246	14030.525
2231.93245	13998.125
2234.84058	13929.725
2237.74686	13899.925
2240.65128	13867.125
2243.55385	13872.725
2246.45456	13792.525
2249.35343	13782.925
2252.25044	13767.525
2255.14561	13747.625
2258.03893	13724.325
2260.93041	13715.525
2263.82004	13656.525
2266.70783	13604.025
2269.59378	13584.225
2272.4779	13552.725
2275.36017	13513.625
2278.24061	13473.925
2281.11922	13436.825
2283.996	13403.525
2286.87094	13368.725
2289.74405	13370.725
2292.61534	13337.925
2295.4848	13324.425
2298.35243	13309.425
2301.21824	13273.825
2304.08223	13251.725
2306.94439	13274.825
2309.80474	13240.725
2312.66327	13218.125
2315.51999	13200.725
2318.37489	13191.125
2321.22797	13100.125
2324.07925	13115.325
2326.92871	13092.325
2329.77637	12997.125
2332.62222	13043.925
2335.46626	13007.525
2338.3085	13015.925
2341.14893	13013.225
2343.98756	12992.925
2346.8244	12952.725
2349.65943	12978.925
2352.49267	12973.325
2355.32411	12957.725
2358.15376	12963.625
2360.98161	12966.025
2363.80768	12970.725
2366.63195	12963.825
2369.45444	12948.525
2372.27514	12930.825
2375.09405	12899.825
2377.91118	12907.225
2380.72652	12853.025
2383.54009	12802.225
2386.35187	12773.825
2389.16188	12746.025
2391.97011	12687.025
2394.77657	12666.925
2397.58125	12629.125
2400.38416	12614.225
2403.18529	12564.425
2405.98466	12529.225
2408.78226	12506.225
2411.57809	12516.125
2414.37216	12513.025
2417.16446	12508.025
2419.955	12439.425
2422.74378	12422.925
2425.5308	12418.125
2428.31606	12389.025
2431.09956	12413.725
2433.88131	12427.025
2436.6613	12427.425
2439.43954	12413.725
2442.21603	12337.225
2444.99077	12353.025
2447.76377	12359.925
2450.53501	12344.925
2453.30451	12345.225
2456.07226	12331.225
2458.83827	12301.725
2461.60254	12276.325
2464.36507	12281.325
2467.12586	12269.825
2469.88492	12251.325
2472.64224	12226.125
2475.39782	12218.325
2478.15167	12252.625
2480.90379	12239.725
2483.65417	12261.325
2486.40283	12228.425
2489.14976	12231.325
2491.89497	12217.825
2494.63845	12223.125
2497.3802	12238.625
2500.12024	12239.325
2502.85855	12236.625
2505.59514	12179.825
2508.33002	12137.925
2511.06318	12090.025
2513.79462	12061.725
2516.52435	12019.525
2519.25237	12051.625
2521.97867	12038.125
2524.70327	12010.425
2527.42616	11974.625
2530.14734	11927.525
2532.86681	11930.125
2535.58458	11914.725
2538.30065	11894.925
2541.01501	11907.925
2543.72768	11871.825
2546.43864	11892.525
2549.14791	11899.225
2551.85548	11891.725
2554.56136	11876.325
2557.26554	11827.225
2559.96803	11808.625
2562.66883	11781.425
2565.36794	11739.025
2568.06536	11723.725
2570.7611	11695.825
2573.45514	11663.125
2576.14751	11687.625
2578.83819	11672.625
2581.52719	11648.525
2584.21451	11619.425
2586.90015	11577.225
2589.58411	11562.025
2592.2664	11550.925
2594.94701	11518.225
2597.62594	11547.025
2600.30321	11534.125
2602.9788	11548.225
2605.65273	11523.225
2608.32498	11475.025
2610.99557	11496.425
2613.66449	11509.125
2616.33175	11451.825
2618.99734	11460.325
2621.66128	11434.725
2624.32355	11395.025
2626.98416	11405.225
2629.64311	11373.525
2632.30041	11375.525
2634.95605	11323.225
2637.61004	11321.825
2640.26238	11326.125
2642.91306	11274.525
2645.56209	11262.325
2648.20948	11278.625
2650.85521	11264.525
2653.4993	11276.525
2656.14175	11286.925
2658.78255	11275.225
2661.42171	11254.325
2664.05923	11294.025
2666.6951	11296.625
2669.32934	11318.225
2671.96194	11297.025
2674.59291	11325.625
2677.22224	11290.925
2679.84993	11311.325
2682.476	11310.425
2685.10043	11311.025
2687.72324	11300.325
2690.34441	11278.425
2692.96396	11285.425
2695.58188	11278.625
2698.19818	11257.825
2700.81285	11266.225
2703.4259	11261.225
2706.03733	11208.325
2708.64714	11194.525
2711.25533	11243.725
2713.86191	11227.625
2716.46687	11327.025
2719.07021	11333.025
2721.67194	11336.525
2724.27206	11314.025
2726.87057	11331.225
2729.46747	11325.425
2732.06276	11316.325
2734.65644	11309.525
2737.24852	11308.725
2739.83899	11305.525
2742.42786	11308.825
2745.01513	11291.325
2747.60079	11282.725
2750.18486	11270.325
2752.76733	11266.725
2755.3482	11234.625
2757.92747	11237.325
2760.50515	11193.025
2763.08123	11207.325
2765.65573	11171.025
2768.22863	11177.625
2770.79994	11179.225
2773.36967	11176.725
2775.9378	11121.325
2778.50435	11123.725
2781.06932	11101.725
2783.6327	11101.025
2786.1945	11098.125
2788.75471	11067.025
2791.31335	11064.625
2793.87041	11073.025
2796.42589	11036.325
2798.97979	11026.125
2801.53212	11011.625
2804.08288	11003.525
2806.63206	10963.625
2809.17967	10935.025
2811.72571	10945.325
2814.27018	10908.325
2816.81308	10862.025
2819.35442	10854.825
2821.89419	10829.925
2824.43239	10823.525
2826.96904	10796.925
2829.50412	10837.625
2832.03763	10821.125
2834.56959	10849.725
2837.1	10863.525
2839.62884	10914.425
2842.15613	10981.725
2844.68186	11063.325
2847.20604	11202.625
2849.72867	11280.525
2852.24974	11348.125
2854.76927	11358.125
2857.28724	11346.325
2859.80367	11371.325
2862.31855	11372.425
2864.83189	11374.325
2867.34368	11345.825
2869.85393	11363.625
2872.36264	11358.425
2874.8698	11359.725
2877.37543	11389.425
2879.87952	11371.025
2882.38207	11372.925
2884.88308	11398.425
2887.38256	11468.725
2889.88051	11455.025
2892.37692	11484.925
2894.8718	11551.025
2897.36515	11602.825
2899.85698	11596.825
2902.34727	11620.725
2904.83604	11671.525
2907.32328	11747.425
2909.809	11723.625
2912.29319	11763.325
2914.77587	11774.025
2917.25702	11827.325
2919.73665	11783.725
2922.21476	11814.625
2924.69136	11769.025
2927.16644	11773.925
2929.64	11717.225
2932.11205	11682.625
2934.58258	11614.025
2937.05161	11577.625
2939.51912	11486.225
2941.98513	11412.425
2944.44962	11330.925
2946.91261	11225.225
2949.37409	11156.525
2951.83407	11114.725
2954.29254	11056.725
2956.74951	10973.825
2959.20498	10936.625
2961.65895	10863.025
2964.11142	10849.925
2966.56239	10800.425
2969.01186	10789.025
2971.45984	10705.925
2973.90632	10680.125
2976.35131	10608.325
2978.7948	10564.125
2981.23681	10549.825
2983.67732	10495.925
2986.11635	10449.325
2988.55388	10395.625
2990.98993	10382.625
2993.4245	10335.725
2995.85758	10300.025
2998.28917	10247.925
3000.71928	10234.425
3003.14791	10182.925
3005.57506	10183.825
3008.00073	10174.425
3010.42493	10128.625
3012.84764	10137.925
3015.26888	10110.525
3017.68865	10056.325
3020.10694	10067.825
3022.52376	10077.625
3024.9391	10010.025
3027.35298	10011.225
3029.76539	10022.925
3032.17632	9973.925
3034.5858	9964.625
3036.9938	9963.625
3039.40034	9957.725
3041.80542	9993.925
3044.20903	9943.225
3046.61118	9962.025
3049.01187	9927.025
3051.4111	9914.125
3053.80888	9895.825
3056.20519	9882.225
3058.60005	9858.725
3060.99345	9853.625
3063.3854	9847.125
3065.7759	9816.425
3068.16494	9826.525
3070.55254	9792.025
3072.93868	9802.925
3075.32338	9754.825
3077.70662	9747.525
3080.08842	9704.225
3082.46878	9727.725
3084.84769	9721.825
3087.22515	9733.525
3089.60118	9712.525
3091.97576	9710.525
3094.3489	9725.225
3096.72061	9747.425
3099.09087	9725.125
3101.4597	9736.325
3103.82709	9753.525
3106.19305	9758.125
3108.55757	9787.125
3110.92066	9789.825
3113.28232	9790.425
3115.64255	9787.425
3118.00134	9752.825
3120.35871	9765.625
3122.71466	9730.725
3125.06917	9735.325
3127.42226	9706.425
3129.77393	9728.625
3132.12417	9747.625
