Data from AgNP_FTO_APTES_UA_10uM_CRN_10uM_R6G_10uM_NaF_0.1M_Addition_RamanShift__6__15-31-20-691.txt Node

Date: Thu Feb 10 15:31:20 GMT 2022
User: TCL
Spectrometer: QEP01345
Trigger mode: 4
Integration Time (sec): 7.000000E0
Scans to average: 10
Electric dark correction enabled: true
Nonlinearity correction enabled: false
Boxcar width: 0
XAxis mode: Raman Shifts
Number of Pixels in Spectrum: 1044
>>>>>Begin Spectral Data<<<<<
46.04893	-1.625
50.45542	-1.025
54.85868	-0.825
59.25871	-0.525
63.6555	76.475
68.04907	83.675
72.43941	86.075
76.82654	83.375
81.21044	91.775
85.59113	90.275
89.96862	98.075
94.34289	101.975
98.71396	104.075
103.08183	111.075
107.4465	111.875
111.80798	112.675
116.16626	119.775
120.52136	122.875
124.87327	129.275
129.222	129.175
133.56755	142.875
137.90993	152.775
142.24913	166.175
146.58517	190.375
150.91804	222.975
155.24774	266.775
159.57429	332.175
163.89768	426.675
168.21792	568.275
172.53501	778.375
176.84895	1082.775
181.15975	1521.875
185.46741	2125.575
189.77193	2934.475
194.07331	3907.275
198.37157	5033.875
202.6667	6211.775
206.9587	7399.775
211.24758	8526.175
215.53334	9650.275
219.81599	10868.975
224.09553	12208.475
228.37195	13672.975
232.64527	15285.175
236.91549	16983.175
241.18261	18636.975
245.44663	20216.275
249.70755	21637.975
253.96539	22872.475
258.22014	23907.175
262.4718	24774.975
266.72039	25376.775
270.96589	25715.275
275.20832	25689.875
279.44768	25599.575
283.68397	25424.075
287.91719	25147.275
292.14735	24995.975
296.37445	24965.075
300.59849	25074.875
304.81948	25211.375
309.03742	25158.475
313.25231	25076.875
317.46415	24779.075
321.67296	24333.675
325.87872	23936.575
330.08145	23779.275
334.28114	23747.575
338.47781	23850.975
342.67145	24148.175
346.86207	24525.775
351.04966	24911.375
355.23424	25315.075
359.4158	25689.575
363.59435	25938.075
367.76989	26151.475
371.94243	26286.375
376.11196	26384.275
380.27849	26496.875
384.44203	26553.375
388.60257	26790.575
392.76012	27103.275
396.91468	27522.275
401.06626	27972.675
405.21485	28209.875
409.36047	28144.575
413.50311	27893.575
417.64277	27959.975
421.77947	28215.575
425.9132	28487.975
430.04396	28699.175
434.17176	28764.775
438.2966	28833.775
442.41849	29206.175
446.53742	29972.875
450.6534	30820.175
454.76644	31443.475
458.87653	31631.275
462.98368	31401.275
467.08789	30969.975
471.18916	30373.375
475.2875	29787.075
479.38291	29511.575
483.4754	29193.775
487.56496	28899.875
491.6516	28494.375
495.73531	28110.275
499.81612	27905.475
503.89401	28076.775
507.96899	28265.075
512.04106	28340.075
516.11023	28137.775
520.1765	27741.375
524.23987	27448.575
528.30034	27146.375
532.35792	26827.275
536.41261	26521.475
540.46441	26280.675
544.51333	26254.875
548.55936	26594.575
552.60252	27072.175
556.64279	27754.875
560.6802	28348.875
564.71473	28702.575
568.7464	29260.075
572.7752	30336.575
576.80114	31652.675
580.82422	33028.975
584.84444	34692.275
588.86181	36955.475
592.87633	38731.775
596.888	38134.275
600.89682	35482.775
604.9028	34038.975
608.90594	34836.175
612.90624	35794.575
616.90371	33337.175
620.89834	29153.975
624.89015	27470.475
628.87913	27398.475
632.86528	27516.675
636.84862	27379.775
640.82913	26783.875
644.80683	26157.575
648.78172	25818.175
652.75379	25839.475
656.72306	26108.275
660.68952	26430.675
664.65319	26235.675
668.61405	25834.275
672.57211	25819.275
676.52738	25996.975
680.47986	25982.675
684.42955	25757.275
688.37646	25646.075
692.32058	25855.875
696.26192	26329.775
700.20048	26776.975
704.13626	26985.575
708.06928	26969.475
711.99952	26884.475
715.927	26937.275
719.85171	26933.375
723.77365	26792.175
727.69284	26306.175
731.60928	25882.075
735.52295	25704.875
739.43388	25666.875
743.34206	25807.175
747.24749	26072.175
751.15017	26383.875
755.05012	26906.175
758.94733	27725.375
762.8418	28849.175
766.73354	30517.475
770.62254	31762.875
774.50882	31640.275
778.39237	30233.875
782.27321	28517.775
786.15132	27181.575
790.02671	26394.275
793.89938	25968.975
797.76935	25789.875
801.6366	25690.575
805.50115	25632.875
809.36299	25498.775
813.22213	25323.575
817.07857	25206.175
820.93231	25085.175
824.78336	24946.475
828.63172	24784.575
832.47738	24695.275
836.32036	24689.875
840.16066	24732.775
843.99827	24831.075
847.8332	24782.375
851.66546	24830.775
855.49504	24897.875
859.32195	24907.475
863.1462	24768.175
866.96777	24715.175
870.78668	24707.875
874.60293	24686.175
878.41652	24698.375
882.22745	24746.275
886.03573	24776.575
889.84136	24738.775
893.64433	24666.175
897.44466	24559.975
901.24235	24499.575
905.0374	24483.975
908.8298	24457.175
912.61957	24564.675
916.40671	24834.875
920.19121	25280.075
923.97308	25618.575
927.75233	25547.675
931.52895	25214.975
935.30295	24698.275
939.07433	24290.575
942.84309	23942.475
946.60924	23850.575
950.37278	23883.275
954.13371	23934.075
957.89203	23859.975
961.64774	23881.975
965.40086	23913.975
969.15137	23826.875
972.89929	23738.875
976.64461	23688.475
980.38733	23626.975
984.12747	23673.375
987.86502	23801.075
991.59999	23951.675
995.33237	24247.875
999.06217	24686.775
1002.78939	25322.275
1006.51404	25920.975
1010.23611	26479.175
1013.95561	26795.275
1017.67255	26815.775
1021.38692	26441.775
1025.09872	25939.975
1028.80796	25658.175
1032.51465	25729.775
1036.21877	26002.275
1039.92035	26088.675
1043.61937	26094.375
1047.31584	25944.875
1051.00976	25732.975
1054.70114	25749.975
1058.38998	25881.575
1062.07627	26133.975
1065.76003	26444.075
1069.44126	26743.875
1073.11995	27241.875
1076.79611	27655.675
1080.46974	27799.375
1084.14085	28029.075
1087.80943	28366.175
1091.47549	28653.175
1095.13903	28650.275
1098.80005	28249.275
1102.45857	27561.875
1106.11456	27015.375
1109.76805	26763.675
1113.41903	26743.675
1117.06751	26834.875
1120.71348	27059.075
1124.35696	27302.675
1127.99793	27539.775
1131.63641	27753.975
1135.2724	27779.275
1138.90589	27877.275
1142.5369	28071.875
1146.16542	28409.975
1149.79145	28730.875
1153.415	29103.775
1157.03607	29638.375
1160.65467	30684.275
1164.27079	32367.975
1167.88443	34155.775
1171.49561	35871.575
1175.10432	37797.275
1178.71056	40283.575
1182.31434	42659.375
1185.91565	43765.775
1189.51451	43494.775
1193.11091	42554.475
1196.70485	41273.775
1200.29634	40053.175
1203.88538	39357.075
1207.47197	39252.075
1211.05612	39289.975
1214.63782	38694.375
1218.21708	37456.575
1221.79391	36125.575
1225.36829	35132.175
1228.94024	34478.875
1232.50976	33947.875
1236.07685	33379.875
1239.6415	33015.275
1243.20374	32943.275
1246.76355	33225.275
1250.32093	33786.375
1253.8759	34577.975
1257.42845	35521.975
1260.97859	36609.975
1264.52631	37748.175
1268.07163	38966.675
1271.61453	40222.375
1275.15503	41470.375
1278.69312	42749.975
1282.22882	44078.075
1285.76211	45816.475
1289.29301	47759.575
1292.82151	50247.075
1296.34761	53218.675
1299.87133	56749.675
1303.39266	60308.575
1306.9116	63111.175
1310.42815	64913.775
1313.94233	65432.975
1317.45412	64806.275
1320.96354	63758.275
1324.47058	63007.775
1327.97525	62791.075
1331.47754	62724.375
1334.97747	62473.475
1338.47502	61894.175
1341.97022	60845.975
1345.46305	59486.875
1348.95352	58123.775
1352.44163	57418.375
1355.92738	57961.375
1359.41078	59709.875
1362.89183	60992.675
1366.37053	59845.075
1369.84688	55813.775
1373.32088	50136.375
1376.79254	46288.275
1380.26186	45219.375
1383.72883	45731.975
1387.19347	46118.575
1390.65578	45888.575
1394.11575	45946.875
1397.57339	46692.675
1401.0287	47844.275
1404.48168	48713.275
1407.93234	48734.875
1411.38068	47707.175
1414.82669	45852.275
1418.27039	43734.175
1421.71177	41569.875
1425.15083	39970.775
1428.58758	39274.375
1432.02203	39966.775
1435.45416	41397.975
1438.88399	43048.075
1442.31151	44227.575
1445.73673	44729.475
1449.15965	44883.475
1452.58027	44759.775
1455.9986	44547.375
1459.41463	44760.275
1462.82837	45379.775
1466.23982	46258.775
1469.64898	47070.575
1473.05586	47451.175
1476.46045	47383.675
1479.86276	46790.875
1483.26279	46113.075
1486.66054	45708.475
1490.05602	45708.975
1493.44922	45923.875
1496.84016	46080.875
1500.22882	46319.275
1503.61521	46790.975
1506.99934	47408.575
1510.38121	47834.375
1513.76081	47807.675
1517.13816	47305.475
1520.51324	46809.375
1523.88607	46870.775
1527.25665	47318.575
1530.62498	47968.875
1533.99105	48093.975
1537.35488	47487.675
1540.71647	46234.275
1544.07581	44743.775
1547.4329	43189.375
1550.78776	41853.875
1554.14038	40952.075
1557.49077	40396.375
1560.83892	39867.975
1564.18484	39541.475
1567.52853	39517.175
1570.86999	39870.775
1574.20922	40728.075
1577.54624	41731.175
1580.88103	42436.475
1584.2136	43515.075
1587.54395	45598.075
1590.87208	48695.675
1594.19801	52143.475
1597.52172	54963.375
1600.84321	55320.375
1604.16251	52231.575
1607.47959	47271.375
1610.79447	42404.775
1614.10715	38258.175
1617.41763	35144.675
1620.7259	33105.875
1624.03199	32178.675
1627.33587	32282.475
1630.63757	33641.175
1633.93707	36281.175
1637.23439	40771.775
1640.52951	47229.575
1643.82246	54471.875
1647.11321	59704.375
1650.40179	59430.775
1653.68819	53589.475
1656.97241	45272.575
1660.25446	37842.675
1663.53433	32623.575
1666.81203	29360.175
1670.08756	27323.475
1673.36092	26016.075
1676.63211	25195.075
1679.90115	24632.575
1683.16801	24156.075
1686.43272	23859.775
1689.69527	23600.075
1692.95567	23407.975
1696.2139	23333.875
1699.46999	23264.275
1702.72392	23136.775
1705.97571	23028.075
1709.22535	22937.275
1712.47284	22897.375
1715.71819	22819.975
1718.96139	22755.175
1722.20246	22650.475
1725.44139	22551.675
1728.67818	22409.375
1731.91284	22223.775
1735.14537	22093.475
1738.37576	22023.375
1741.60403	21964.675
1744.83017	21844.675
1748.05418	21766.575
1751.27607	21745.675
1754.49584	21714.075
1757.71349	21697.175
1760.92903	21627.475
1764.14244	21629.375
1767.35375	21619.475
1770.56294	21572.275
1773.77002	21547.275
1776.97499	21480.275
1780.17785	21397.375
1783.37861	21371.775
1786.57727	21335.675
1789.77382	21280.375
1792.96828	21241.775
1796.16064	21206.475
1799.3509	21197.775
1802.53907	21117.675
1805.72514	21064.375
1808.90913	20985.775
1812.09102	20953.575
1815.27083	20920.775
1818.44856	20897.475
1821.6242	20895.675
1824.79776	20842.875
1827.96924	20851.275
1831.13864	20831.275
1834.30597	20849.875
1837.47122	20818.975
1840.6344	20838.575
1843.7955	20816.575
1846.95454	20796.975
1850.11151	20813.875
1853.26642	20763.775
1856.41926	20777.075
1859.57004	20790.275
1862.71876	20713.575
1865.86542	20671.575
1869.01003	20649.875
1872.15258	20636.475
1875.29308	20616.475
1878.43152	20580.275
1881.56792	20569.375
1884.70227	20545.475
1887.83457	20491.075
1890.96482	20530.575
1894.09304	20499.275
1897.21921	20461.975
1900.34335	20413.475
1903.46544	20372.875
1906.58551	20383.175
1909.70353	20354.775
1912.81953	20337.175
1915.93349	20288.075
1919.04543	20231.475
1922.15534	20189.975
1925.26322	20150.375
1928.36908	20122.575
1931.47292	20038.375
1934.57473	19973.575
1937.67453	19957.275
1940.77232	19940.175
1943.86808	19840.075
1946.96184	19837.775
1950.05358	19741.375
1953.14331	19698.975
1956.23103	19627.675
1959.31675	19583.475
1962.40046	19506.275
1965.48217	19457.975
1968.56188	19435.075
1971.63959	19368.975
1974.7153	19305.275
1977.78901	19184.675
1980.86073	19157.475
1983.93046	19149.475
1986.99819	19070.975
1990.06394	19027.775
1993.1277	18984.975
1996.18947	18912.575
1999.24925	18832.375
2002.30706	18805.775
2005.36288	18772.475
2008.41672	18691.875
2011.46859	18613.175
2014.51848	18593.375
2017.56639	18557.375
2020.61233	18542.475
2023.6563	18433.875
2026.6983	18416.575
2029.73833	18410.375
2032.7764	18383.075
2035.8125	18352.975
2038.84664	18296.575
2041.87881	18219.275
2044.90903	18198.075
2047.93729	18176.375
2050.96359	18171.375
2053.98794	18146.175
2057.01034	18110.575
2060.03078	18093.475
2063.04927	18100.975
2066.06582	18082.275
2069.08042	18094.775
2072.09307	18043.675
2075.10378	18036.775
2078.11255	18022.175
2081.11938	18038.975
2084.12426	18031.075
2087.12722	17997.775
2090.12824	17995.675
2093.12732	17997.575
2096.12447	18005.175
2099.11969	17974.575
2102.11299	17979.975
2105.10435	17994.675
2108.09379	18009.675
2111.08131	17982.975
2114.0669	18003.475
2117.05057	18008.475
2120.03233	18009.175
2123.01216	18064.575
2125.99008	18065.675
2128.96609	18076.875
2131.94018	18122.875
2134.91236	18075.375
2137.88263	18075.575
2140.851	18100.375
2143.81746	18085.175
2146.78201	18091.775
2149.74466	18092.475
2152.7054	18083.275
2155.66425	18079.475
2158.6212	18096.075
2161.57625	18043.975
2164.52941	18096.675
2167.48067	18086.075
2170.43004	18032.275
2173.37752	18028.775
2176.32311	18033.075
2179.26681	18058.475
2182.20863	18068.075
2185.14856	18031.575
2188.08661	18045.475
2191.02278	18051.475
2193.95707	18059.075
2196.88948	18076.875
2199.82001	17986.075
2202.74867	17968.075
2205.67545	17987.375
2208.60037	17948.475
2211.52341	17906.875
2214.44458	17899.475
2217.36388	17875.875
2220.28132	17849.975
2223.1969	17781.575
2226.11061	17807.775
2229.02246	17762.575
2231.93245	17735.575
2234.84058	17677.775
2237.74686	17712.575
2240.65128	17706.875
2243.55385	17657.975
2246.45456	17621.775
2249.35343	17561.275
2252.25044	17549.375
2255.14561	17497.775
2258.03893	17473.975
2260.93041	17441.275
2263.82004	17401.375
2266.70783	17341.775
2269.59378	17264.975
2272.4779	17234.475
2275.36017	17190.375
2278.24061	17166.375
2281.11922	17129.375
2283.996	17140.875
2286.87094	17112.975
2289.74405	17078.675
2292.61534	17098.475
2295.4848	17101.675
2298.35243	17073.175
2301.21824	17085.775
2304.08223	17074.375
2306.94439	17085.575
2309.80474	17060.275
2312.66327	17044.475
2315.51999	17045.975
2318.37489	17069.775
2321.22797	17037.875
2324.07925	17031.575
2326.92871	16943.575
2329.77637	16963.175
2332.62222	16958.775
2335.46626	16897.575
2338.3085	16910.175
2341.14893	16901.375
2343.98756	16916.175
2346.8244	16911.775
2349.65943	16898.775
2352.49267	16875.375
2355.32411	16905.075
2358.15376	16895.275
2360.98161	16876.375
2363.80768	16897.175
2366.63195	16888.875
2369.45444	16823.275
2372.27514	16833.375
2375.09405	16799.975
2377.91118	16769.175
2380.72652	16708.375
2383.54009	16687.975
2386.35187	16675.075
2389.16188	16616.975
2391.97011	16567.375
2394.77657	16587.575
2397.58125	16528.775
2400.38416	16563.675
2403.18529	16511.675
2405.98466	16488.875
2408.78226	16503.475
2411.57809	16509.075
2414.37216	16442.075
2417.16446	16457.175
2419.955	16420.575
2422.74378	16411.975
2425.5308	16400.375
2428.31606	16414.275
2431.09956	16410.475
2433.88131	16364.675
2436.6613	16384.075
2439.43954	16398.575
2442.21603	16380.475
2444.99077	16363.975
2447.76377	16334.275
2450.53501	16337.875
2453.30451	16367.475
2456.07226	16332.175
2458.83827	16303.975
2461.60254	16350.275
2464.36507	16301.775
2467.12586	16315.875
2469.88492	16272.675
2472.64224	16274.475
2475.39782	16328.275
2478.15167	16317.775
2480.90379	16324.075
2483.65417	16344.275
2486.40283	16327.075
2489.14976	16347.975
2491.89497	16339.375
2494.63845	16356.475
2497.3802	16353.475
2500.12024	16364.175
2502.85855	16339.375
2505.59514	16352.575
2508.33002	16303.175
2511.06318	16312.475
2513.79462	16300.775
2516.52435	16259.275
2519.25237	16277.775
2521.97867	16241.375
2524.70327	16276.575
2527.42616	16239.275
2530.14734	16237.575
2532.86681	16236.975
2535.58458	16251.775
2538.30065	16226.875
2541.01501	16231.775
2543.72768	16232.675
2546.43864	16231.875
2549.14791	16196.575
2551.85548	16215.775
2554.56136	16216.475
2557.26554	16173.175
2559.96803	16157.075
2562.66883	16143.975
2565.36794	16125.475
2568.06536	16085.575
2570.7611	16116.075
2573.45514	16081.275
2576.14751	16091.175
2578.83819	16048.775
2581.52719	16062.075
2584.21451	16064.475
2586.90015	16049.975
2589.58411	16049.875
2592.2664	16051.175
2594.94701	16028.575
2597.62594	15995.675
2600.30321	15983.875
2602.9788	15976.375
2605.65273	15970.175
2608.32498	16053.175
2610.99557	16036.175
2613.66449	15991.475
2616.33175	16000.975
2618.99734	16010.975
2621.66128	15983.075
2624.32355	15985.275
2626.98416	15965.275
2629.64311	15970.575
2632.30041	15923.075
2634.95605	15930.775
2637.61004	15884.275
2640.26238	15890.775
2642.91306	15911.975
2645.56209	15903.175
2648.20948	15914.675
2650.85521	15906.075
2653.4993	15908.475
2656.14175	15927.775
2658.78255	15954.475
2661.42171	15957.575
2664.05923	15992.075
2666.6951	16019.075
2669.32934	16014.175
2671.96194	16014.675
2674.59291	16040.075
2677.22224	16001.275
2679.84993	16012.675
2682.476	15985.475
2685.10043	16003.475
2687.72324	15972.475
2690.34441	15988.775
2692.96396	15978.375
2695.58188	15967.975
2698.19818	15967.775
2700.81285	16001.675
2703.4259	16002.175
2706.03733	16024.675
2708.64714	15993.675
2711.25533	16000.975
2713.86191	16001.075
2716.46687	16017.875
2719.07021	16039.475
2721.67194	16079.075
2724.27206	16104.875
2726.87057	16102.875
2729.46747	16143.175
2732.06276	16140.475
2734.65644	16144.375
2737.24852	16117.075
2739.83899	16103.275
2742.42786	16139.275
2745.01513	16129.275
2747.60079	16096.275
2750.18486	16089.075
2752.76733	16073.375
2755.3482	16070.775
2757.92747	16054.375
2760.50515	16061.575
2763.08123	16029.775
2765.65573	16033.775
2768.22863	16061.375
2770.79994	16025.575
2773.36967	16028.375
2775.9378	16060.775
2778.50435	16045.275
2781.06932	16051.175
2783.6327	16034.175
2786.1945	16027.075
2788.75471	16014.675
2791.31335	15994.475
2793.87041	15976.675
2796.42589	15964.375
2798.97979	15982.475
2801.53212	15963.775
2804.08288	15926.775
2806.63206	15906.475
2809.17967	15840.975
2811.72571	15823.775
2814.27018	15792.775
2816.81308	15763.275
2819.35442	15725.175
2821.89419	15687.675
2824.43239	15690.075
2826.96904	15640.275
2829.50412	15643.375
2832.03763	15601.475
2834.56959	15604.575
2837.1	15596.075
2839.62884	15626.975
2842.15613	15585.275
2844.68186	15609.175
2847.20604	15599.475
2849.72867	15581.175
2852.24974	15561.875
2854.76927	15541.875
2857.28724	15528.975
2859.80367	15520.575
2862.31855	15494.175
2864.83189	15440.075
2867.34368	15425.675
2869.85393	15422.175
2872.36264	15421.275
2874.8698	15434.575
2877.37543	15424.875
2879.87952	15406.675
2882.38207	15387.275
2884.88308	15399.575
2887.38256	15449.075
2889.88051	15434.275
2892.37692	15457.175
2894.8718	15416.675
2897.36515	15475.575
2899.85698	15483.475
2902.34727	15493.775
2904.83604	15505.475
2907.32328	15538.075
2909.809	15500.075
2912.29319	15523.275
2914.77587	15492.675
2917.25702	15494.075
2919.73665	15472.075
2922.21476	15505.275
2924.69136	15493.675
2927.16644	15508.575
2929.64	15488.975
2932.11205	15453.875
2934.58258	15390.575
2937.05161	15395.275
2939.51912	15425.675
2941.98513	15389.475
2944.44962	15339.375
2946.91261	15325.275
2949.37409	15340.275
2951.83407	15362.875
2954.29254	15328.275
2956.74951	15326.475
2959.20498	15316.475
2961.65895	15323.075
2964.11142	15305.075
2966.56239	15316.375
2969.01186	15290.075
2971.45984	15210.175
2973.90632	15216.175
2976.35131	15189.775
2978.7948	15157.475
2981.23681	15111.975
2983.67732	15116.875
2986.11635	15058.575
2988.55388	15030.775
2990.98993	14968.875
2993.4245	14941.175
2995.85758	14892.275
2998.28917	14861.775
3000.71928	14817.575
3003.14791	14784.275
3005.57506	14772.975
3008.00073	14719.675
3010.42493	14555.375
3012.84764	14633.375
3015.26888	14623.075
3017.68865	14594.975
3020.10694	14551.775
3022.52376	14552.975
3024.9391	14525.675
3027.35298	14536.275
3029.76539	14534.375
3032.17632	14517.975
3034.5858	14537.675
3036.9938	14535.875
3039.40034	14523.275
3041.80542	14533.475
3044.20903	14471.175
3046.61118	14465.375
3049.01187	14436.175
3051.4111	14397.875
3053.80888	14362.175
3056.20519	14323.875
3058.60005	14298.075
3060.99345	14273.175
3063.3854	14235.675
3065.7759	14165.775
3068.16494	14128.375
3070.55254	14103.075
3072.93868	14092.275
3075.32338	14018.675
3077.70662	13992.275
3080.08842	13937.175
3082.46878	13926.775
3084.84769	13935.875
3087.22515	13903.075
3089.60118	13932.175
3091.97576	13894.675
3094.3489	13855.775
3096.72061	13857.875
3099.09087	13847.075
3101.4597	13869.175
3103.82709	13832.975
3106.19305	13796.075
3108.55757	13779.475
3110.92066	13741.575
3113.28232	13738.975
3115.64255	13700.075
3118.00134	13673.075
3120.35871	13616.475
3122.71466	13592.775
3125.06917	13588.575
3127.42226	13549.075
