Data from AgNP_FTO_APTES_UA_10uM_CRN_1uM_R6G_10uM_NaF_0.1M_Addition_RamanShift__26__13-23-00-530.txt Node

Date: Thu Feb 10 13:23:00 GMT 2022
User: TCL
Spectrometer: QEP01345
Trigger mode: 4
Integration Time (sec): 7.000000E0
Scans to average: 10
Electric dark correction enabled: true
Nonlinearity correction enabled: false
Boxcar width: 0
XAxis mode: Raman Shifts
Number of Pixels in Spectrum: 1044
>>>>>Begin Spectral Data<<<<<
46.04893	-0.225
50.45542	-0.025
54.85868	-1.225
59.25871	-0.325
63.6555	66.575
68.04907	69.075
72.43941	78.875
76.82654	76.275
81.21044	84.475
85.59113	79.375
89.96862	88.875
94.34289	90.175
98.71396	87.275
103.08183	96.175
107.4465	99.375
111.80798	98.175
116.16626	100.475
120.52136	108.175
124.87327	114.275
129.222	109.275
133.56755	123.575
137.90993	128.875
142.24913	140.275
146.58517	153.575
150.91804	178.375
155.24774	211.175
159.57429	265.775
163.89768	338.275
168.21792	442.275
172.53501	602.575
176.84895	837.775
181.15975	1166.475
185.46741	1627.575
189.77193	2253.375
194.07331	3012.575
198.37157	3883.775
202.6667	4783.675
206.9587	5703.775
211.24758	6615.775
215.53334	7535.775
219.81599	8540.075
224.09553	9715.075
228.37195	10980.875
232.64527	12343.675
236.91549	13720.575
241.18261	15082.575
245.44663	16257.975
249.70755	17208.275
253.96539	18059.675
258.22014	18849.975
262.4718	19524.475
266.72039	20028.375
270.96589	20354.775
275.20832	20381.575
279.44768	20308.975
283.68397	20134.075
287.91719	20006.775
292.14735	20041.175
296.37445	20184.375
300.59849	20588.775
304.81948	21078.575
309.03742	21430.375
313.25231	21265.775
317.46415	20468.475
321.67296	19238.875
325.87872	18273.575
330.08145	17852.375
334.28114	17820.875
338.47781	18069.375
342.67145	18496.575
346.86207	19081.675
351.04966	19989.175
355.23424	21007.975
359.4158	21776.775
363.59435	22181.575
367.76989	22329.375
371.94243	22275.275
376.11196	22238.875
380.27849	22178.675
384.44203	22087.075
388.60257	21939.175
392.76012	21970.375
396.91468	22212.775
401.06626	22803.675
405.21485	23237.575
409.36047	23026.875
413.50311	22275.675
417.64277	21508.075
421.77947	21211.975
425.9132	21131.575
430.04396	21172.675
434.17176	21319.175
438.2966	21558.875
442.41849	22079.975
446.53742	22796.075
450.6534	23542.975
454.76644	24107.175
458.87653	24277.875
462.98368	24111.975
467.08789	23710.075
471.18916	23136.575
475.2875	22614.075
479.38291	22191.575
483.4754	21934.975
487.56496	21640.875
491.6516	21286.875
495.73531	21049.175
499.81612	21025.575
503.89401	21168.475
507.96899	21305.975
512.04106	21403.375
516.11023	21524.875
520.1765	21581.975
524.23987	21520.875
528.30034	21215.775
532.35792	20839.475
536.41261	20442.575
540.46441	20031.475
544.51333	19965.675
548.55936	20187.075
552.60252	20683.475
556.64279	21175.375
560.6802	21488.375
564.71473	21760.675
568.7464	22544.075
572.7752	23174.175
576.80114	23029.775
580.82422	22727.775
584.84444	22659.175
588.86181	22763.175
592.87633	22980.175
596.888	23260.075
600.89682	23802.575
604.9028	25676.075
608.90594	30640.375
612.90624	36789.175
616.90371	35008.275
620.89834	26281.175
624.89015	22415.175
628.87913	21784.675
632.86528	21711.275
636.84862	21696.575
640.82913	21188.175
644.80683	20368.175
648.78172	19819.175
652.75379	19817.675
656.72306	20430.675
660.68952	21249.975
664.65319	21184.075
668.61405	20439.675
672.57211	20048.875
676.52738	20025.575
680.47986	20039.875
684.42955	19923.375
688.37646	19942.475
692.32058	20045.575
696.26192	20243.775
700.20048	20487.575
704.13626	20670.375
708.06928	20624.875
711.99952	20423.675
715.927	20309.375
719.85171	20326.575
723.77365	20236.375
727.69284	20007.975
731.60928	19815.675
735.52295	19816.775
739.43388	19872.275
743.34206	20029.475
747.24749	20186.575
751.15017	20397.675
755.05012	20855.475
758.94733	21725.075
762.8418	23454.175
766.73354	26414.375
770.62254	29415.175
774.50882	30596.575
778.39237	29104.875
782.27321	25917.675
786.15132	23033.375
790.02671	21311.175
793.89938	20504.375
797.76935	20231.075
801.6366	20086.575
805.50115	19986.475
809.36299	19852.175
813.22213	19728.375
817.07857	19724.075
820.93231	19734.875
824.78336	19741.275
828.63172	19824.675
832.47738	19900.375
836.32036	19932.175
840.16066	19952.975
843.99827	19993.275
847.8332	19883.575
851.66546	19839.275
855.49504	19760.075
859.32195	19705.275
863.1462	19595.875
866.96777	19473.575
870.78668	19408.675
874.60293	19436.375
878.41652	19484.875
882.22745	19642.275
886.03573	19711.175
889.84136	19640.075
893.64433	19531.075
897.44466	19472.675
901.24235	19445.875
905.0374	19428.675
908.8298	19383.975
912.61957	19399.275
916.40671	19603.975
920.19121	19860.175
923.97308	20162.275
927.75233	20376.475
931.52895	20505.675
935.30295	20245.775
939.07433	19684.075
942.84309	19292.975
946.60924	19073.375
950.37278	18971.775
954.13371	18820.075
957.89203	18709.475
961.64774	18629.275
965.40086	18603.075
969.15137	18505.975
972.89929	18446.375
976.64461	18453.075
980.38733	18474.975
984.12747	18604.075
987.86502	18780.375
991.59999	19082.575
995.33237	19571.175
999.06217	20336.475
1002.78939	21258.175
1006.51404	21890.575
1010.23611	22312.875
1013.95561	22632.075
1017.67255	22593.075
1021.38692	22257.275
1025.09872	22026.975
1028.80796	22280.675
1032.51465	23065.975
1036.21877	23764.275
1039.92035	23787.975
1043.61937	23357.775
1047.31584	22555.975
1051.00976	21738.375
1054.70114	21310.575
1058.38998	21185.775
1062.07627	21206.075
1065.76003	21283.475
1069.44126	21382.175
1073.11995	21628.075
1076.79611	21875.675
1080.46974	22124.775
1084.14085	22439.675
1087.80943	22931.975
1091.47549	23100.775
1095.13903	22769.375
1098.80005	22169.375
1102.45857	21590.075
1106.11456	21330.975
1109.76805	21333.275
1113.41903	21587.175
1117.06751	22031.275
1120.71348	22593.275
1124.35696	23184.975
1127.99793	23737.375
1131.63641	23811.775
1135.2724	23219.775
1138.90589	22555.175
1142.5369	22199.675
1146.16542	21877.375
1149.79145	21807.975
1153.415	21918.475
1157.03607	22128.275
1160.65467	22641.575
1164.27079	23418.175
1167.88443	24629.475
1171.49561	26472.975
1175.10432	29314.175
1178.71056	32923.675
1182.31434	35996.775
1185.91565	37485.975
1189.51451	37288.075
1193.11091	35575.175
1196.70485	33099.275
1200.29634	30969.675
1203.88538	29382.275
1207.47197	27860.375
1211.05612	26754.975
1214.63782	26167.675
1218.21708	26095.975
1221.79391	26320.775
1225.36829	26594.175
1228.94024	26647.375
1232.50976	26497.375
1236.07685	26337.875
1239.6415	26131.275
1243.20374	26001.075
1246.76355	26090.975
1250.32093	26453.975
1253.8759	27114.375
1257.42845	28111.975
1260.97859	28993.875
1264.52631	29787.375
1268.07163	30595.575
1271.61453	31467.475
1275.15503	32425.975
1278.69312	33336.175
1282.22882	34037.975
1285.76211	34770.775
1289.29301	35564.675
1292.82151	36451.975
1296.34761	37558.775
1299.87133	39212.075
1303.39266	41826.075
1306.9116	45701.975
1310.42815	50053.075
1313.94233	53170.475
1317.45412	53179.875
1320.96354	51015.575
1324.47058	48425.375
1327.97525	46114.375
1331.47754	44505.875
1334.97747	43949.775
1338.47502	44118.675
1341.97022	44571.975
1345.46305	44777.575
1348.95352	45041.975
1352.44163	45690.375
1355.92738	47758.275
1359.41078	51896.675
1362.89183	56091.375
1366.37053	54956.075
1369.84688	48469.375
1373.32088	41759.575
1376.79254	37455.975
1380.26186	35381.175
1383.72883	34390.275
1387.19347	33639.675
1390.65578	32927.875
1394.11575	32583.575
1397.57339	32821.975
1401.0287	33466.875
1404.48168	34320.975
1407.93234	35148.775
1411.38068	35542.075
1414.82669	35281.475
1418.27039	34296.375
1421.71177	32939.175
1425.15083	31900.275
1428.58758	31270.575
1432.02203	31147.675
1435.45416	31435.475
1438.88399	31657.175
1442.31151	31845.675
1445.73673	32133.275
1449.15965	32415.075
1452.58027	32549.675
1455.9986	32438.575
1459.41463	32538.575
1462.82837	32914.275
1466.23982	33490.375
1469.64898	34107.375
1473.05586	34553.875
1476.46045	34740.975
1479.86276	35018.575
1483.26279	35427.475
1486.66054	35896.175
1490.05602	36617.175
1493.44922	37464.975
1496.84016	38601.875
1500.22882	40032.775
1503.61521	42239.775
1506.99934	45066.175
1510.38121	47988.875
1513.76081	49631.375
1517.13816	48396.975
1520.51324	44824.375
1523.88607	40903.975
1527.25665	38047.275
1530.62498	36275.075
1533.99105	35205.775
1537.35488	34544.175
1540.71647	34154.975
1544.07581	33929.575
1547.4329	33617.975
1550.78776	33244.075
1554.14038	33064.375
1557.49077	33070.375
1560.83892	33364.675
1564.18484	33636.775
1567.52853	33804.875
1570.86999	33940.275
1574.20922	34000.075
1577.54624	33924.475
1580.88103	33262.075
1584.2136	32526.675
1587.54395	32818.575
1590.87208	34401.875
1594.19801	37016.275
1597.52172	39862.975
1600.84321	41131.275
1604.16251	39642.175
1607.47959	36523.775
1610.79447	33136.975
1614.10715	30048.775
1617.41763	27710.175
1620.7259	26271.875
1624.03199	25605.675
1627.33587	25705.375
1630.63757	26579.075
1633.93707	28253.575
1637.23439	30555.075
1640.52951	33484.375
1643.82246	36634.375
1647.11321	39352.575
1650.40179	40555.375
1653.68819	38735.075
1656.97241	34109.575
1660.25446	29082.275
1663.53433	25396.075
1666.81203	23133.675
1670.08756	21768.175
1673.36092	20903.375
1676.63211	20336.675
1679.90115	19941.575
1683.16801	19669.675
1686.43272	19499.475
1689.69527	19297.775
1692.95567	19240.475
1696.2139	19157.975
1699.46999	19119.775
1702.72392	19109.575
1705.97571	19037.475
1709.22535	19038.175
1712.47284	19028.975
1715.71819	19036.775
1718.96139	18998.975
1722.20246	18933.775
1725.44139	18890.675
1728.67818	18759.675
1731.91284	18636.175
1735.14537	18540.375
1738.37576	18487.775
1741.60403	18401.475
1744.83017	18356.675
1748.05418	18319.575
1751.27607	18277.675
1754.49584	18268.075
1757.71349	18269.175
1760.92903	18254.475
1764.14244	18261.175
1767.35375	18249.275
1770.56294	18206.375
1773.77002	18145.575
1776.97499	18131.475
1780.17785	18076.075
1783.37861	18061.375
1786.57727	18073.375
1789.77382	18061.675
1792.96828	18008.275
1796.16064	17976.375
1799.3509	17988.475
1802.53907	17986.475
1805.72514	17913.675
1808.90913	17899.775
1812.09102	17868.475
1815.27083	17817.775
1818.44856	17804.075
1821.6242	17781.175
1824.79776	17755.275
1827.96924	17740.775
1831.13864	17745.275
1834.30597	17758.375
1837.47122	17751.275
1840.6344	17754.575
1843.7955	17728.475
1846.95454	17762.775
1850.11151	17751.475
1853.26642	17730.575
1856.41926	17762.275
1859.57004	17829.675
1862.71876	17830.875
1865.86542	17854.075
1869.01003	17865.275
1872.15258	17889.475
1875.29308	17932.775
1878.43152	17909.075
1881.56792	17933.175
1884.70227	17960.175
1887.83457	17976.975
1890.96482	17994.475
1894.09304	17967.275
1897.21921	17985.275
1900.34335	17991.675
1903.46544	17992.975
1906.58551	17987.575
1909.70353	18001.375
1912.81953	18026.675
1915.93349	18052.975
1919.04543	18002.775
1922.15534	17971.175
1925.26322	17911.775
1928.36908	17888.275
1931.47292	17822.075
1934.57473	17746.675
1937.67453	17672.175
1940.77232	17592.375
1943.86808	17494.175
1946.96184	17416.475
1950.05358	17323.375
1953.14331	17260.675
1956.23103	17142.775
1959.31675	17122.675
1962.40046	17068.775
1965.48217	17030.775
1968.56188	16964.075
1971.63959	16902.175
1974.7153	16856.275
1977.78901	16836.575
1980.86073	16778.475
1983.93046	16728.675
1986.99819	16638.475
1990.06394	16599.275
1993.1277	16520.075
1996.18947	16500.275
1999.24925	16465.175
2002.30706	16434.775
2005.36288	16376.175
2008.41672	16333.675
2011.46859	16276.775
2014.51848	16251.875
2017.56639	16229.375
2020.61233	16183.775
2023.6563	16150.375
2026.6983	16119.375
2029.73833	16084.575
2032.7764	16032.075
2035.8125	16030.975
2038.84664	15981.475
2041.87881	15995.175
2044.90903	15979.775
2047.93729	15958.975
2050.96359	15917.775
2053.98794	15905.475
2057.01034	15902.975
2060.03078	15862.075
2063.04927	15806.675
2066.06582	15840.275
2069.08042	15787.775
2072.09307	15808.775
2075.10378	15774.275
2078.11255	15756.275
2081.11938	15774.975
2084.12426	15754.075
2087.12722	15746.575
2090.12824	15705.475
2093.12732	15700.175
2096.12447	15683.875
2099.11969	15703.575
2102.11299	15705.475
2105.10435	15724.575
2108.09379	15739.775
2111.08131	15740.975
2114.0669	15706.875
2117.05057	15746.975
2120.03233	15767.275
2123.01216	15782.575
2125.99008	15784.575
2128.96609	15813.275
2131.94018	15828.875
2134.91236	15846.975
2137.88263	15860.175
2140.851	15835.275
2143.81746	15874.575
2146.78201	15858.875
2149.74466	15845.075
2152.7054	15849.875
2155.66425	15832.575
2158.6212	15812.275
2161.57625	15795.075
2164.52941	15804.175
2167.48067	15792.975
2170.43004	15795.275
2173.37752	15802.675
2176.32311	15833.575
2179.26681	15822.075
2182.20863	15813.675
2185.14856	15835.175
2188.08661	15803.675
2191.02278	15819.575
2193.95707	15843.775
2196.88948	15844.875
2199.82001	15837.575
2202.74867	15824.075
2205.67545	15839.975
2208.60037	15829.975
2211.52341	15848.975
2214.44458	15777.475
2217.36388	15815.075
2220.28132	15749.875
2223.1969	15737.875
2226.11061	15703.375
2229.02246	15692.175
2231.93245	15645.975
2234.84058	15618.775
2237.74686	15564.875
2240.65128	15542.575
2243.55385	15583.175
2246.45456	15508.875
2249.35343	15503.275
2252.25044	15499.875
2255.14561	15472.075
2258.03893	15477.975
2260.93041	15459.775
2263.82004	15406.775
2266.70783	15383.575
2269.59378	15351.775
2272.4779	15305.075
2275.36017	15270.375
2278.24061	15237.075
2281.11922	15238.275
2283.996	15210.375
2286.87094	15166.875
2289.74405	15137.275
2292.61534	15186.975
2295.4848	15150.175
2298.35243	15148.075
2301.21824	15145.575
2304.08223	15193.175
2306.94439	15181.475
2309.80474	15193.675
2312.66327	15218.275
2315.51999	15233.675
2318.37489	15246.875
2321.22797	15233.275
2324.07925	15211.775
2326.92871	15173.975
2329.77637	15202.575
2332.62222	15185.075
2335.46626	15186.075
2338.3085	15165.075
2341.14893	15181.675
2343.98756	15217.175
2346.8244	15246.975
2349.65943	15261.775
2352.49267	15246.375
2355.32411	15224.975
2358.15376	15235.575
2360.98161	15222.475
2363.80768	15249.775
2366.63195	15237.575
2369.45444	15147.875
2372.27514	15164.375
2375.09405	15116.175
2377.91118	15068.575
2380.72652	15023.275
2383.54009	14964.875
2386.35187	14935.475
2389.16188	14877.275
2391.97011	14894.975
2394.77657	14842.175
2397.58125	14809.975
2400.38416	14807.575
2403.18529	14805.775
2405.98466	14743.075
2408.78226	14700.175
2411.57809	14710.075
2414.37216	14647.075
2417.16446	14658.575
2419.955	14562.975
2422.74378	14584.775
2425.5308	14569.775
2428.31606	14575.675
2431.09956	14577.575
2433.88131	14571.775
2436.6613	14614.475
2439.43954	14590.475
2442.21603	14585.875
2444.99077	14558.575
2447.76377	14576.275
2450.53501	14532.975
2453.30451	14544.375
2456.07226	14527.575
2458.83827	14515.875
2461.60254	14546.975
2464.36507	14562.975
2467.12586	14540.375
2469.88492	14530.575
2472.64224	14533.175
2475.39782	14540.975
2478.15167	14579.075
2480.90379	14580.575
2483.65417	14609.175
2486.40283	14646.175
2489.14976	14643.275
2491.89497	14665.475
2494.63845	14682.175
2497.3802	14676.675
2500.12024	14642.975
2502.85855	14673.875
2505.59514	14633.075
2508.33002	14584.975
2511.06318	14600.675
2513.79462	14601.575
2516.52435	14535.675
2519.25237	14510.575
2521.97867	14487.975
2524.70327	14465.175
2527.42616	14467.975
2530.14734	14496.575
2532.86681	14473.375
2535.58458	14482.975
2538.30065	14491.575
2541.01501	14481.075
2543.72768	14483.275
2546.43864	14465.275
2549.14791	14443.775
2551.85548	14456.275
2554.56136	14434.475
2557.26554	14389.175
2559.96803	14373.375
2562.66883	14347.775
2565.36794	14339.875
2568.06536	14341.675
2570.7611	14328.575
2573.45514	14304.775
2576.14751	14301.275
2578.83819	14271.975
2581.52719	14306.375
2584.21451	14294.075
2586.90015	14333.375
2589.58411	14290.875
2592.2664	14328.975
2594.94701	14302.775
2597.62594	14305.975
2600.30321	14303.175
2602.9788	14267.775
2605.65273	14266.375
2608.32498	14300.475
2610.99557	14283.075
2613.66449	14288.175
2616.33175	14288.475
2618.99734	14311.475
2621.66128	14316.875
2624.32355	14324.275
2626.98416	14300.375
2629.64311	14299.075
2632.30041	14302.675
2634.95605	14291.975
2637.61004	14252.975
2640.26238	14264.675
2642.91306	14239.275
2645.56209	14211.075
2648.20948	14184.775
2650.85521	14159.875
2653.4993	14159.275
2656.14175	14141.175
2658.78255	14177.675
2661.42171	14187.875
2664.05923	14202.075
2666.6951	14220.675
2669.32934	14245.275
2671.96194	14271.775
2674.59291	14266.475
2677.22224	14273.675
2679.84993	14282.375
2682.476	14283.675
2685.10043	14242.275
2687.72324	14227.275
2690.34441	14228.275
2692.96396	14204.775
2695.58188	14211.175
2698.19818	14183.275
2700.81285	14183.275
2703.4259	14155.575
2706.03733	14171.575
2708.64714	14183.975
2711.25533	14190.675
2713.86191	14195.675
2716.46687	14203.175
2719.07021	14231.875
2721.67194	14235.875
2724.27206	14238.675
2726.87057	14261.475
2729.46747	14218.575
2732.06276	14299.975
2734.65644	14273.775
2737.24852	14259.875
2739.83899	14239.475
2742.42786	14204.075
2745.01513	14225.275
2747.60079	14218.275
2750.18486	14201.775
2752.76733	14204.575
2755.3482	14178.375
2757.92747	14200.375
2760.50515	14157.875
2763.08123	14156.975
2765.65573	14146.875
2768.22863	14142.575
2770.79994	14137.475
2773.36967	14129.175
2775.9378	14112.275
2778.50435	14148.675
2781.06932	14139.275
2783.6327	14128.075
2786.1945	14121.075
2788.75471	14162.075
2791.31335	14097.575
2793.87041	14109.975
2796.42589	14074.475
2798.97979	14056.775
2801.53212	14044.075
2804.08288	14010.575
2806.63206	13964.575
2809.17967	13942.175
2811.72571	13947.175
2814.27018	13923.375
2816.81308	13923.375
2819.35442	13903.775
2821.89419	13894.275
2824.43239	13935.975
2826.96904	13919.175
2829.50412	13919.475
2832.03763	13910.475
2834.56959	13907.575
2837.1	13883.275
2839.62884	13888.675
2842.15613	13918.775
2844.68186	13938.775
2847.20604	13944.775
2849.72867	14004.875
2852.24974	13998.275
2854.76927	13990.275
2857.28724	13935.775
2859.80367	13930.475
2862.31855	13891.475
2864.83189	13910.875
2867.34368	13884.975
2869.85393	13894.575
2872.36264	13861.575
2874.8698	13860.575
2877.37543	13835.975
2879.87952	13881.975
2882.38207	13860.475
2884.88308	13825.775
2887.38256	13834.075
2889.88051	13862.175
2892.37692	13829.575
2894.8718	13852.575
2897.36515	13873.075
2899.85698	13874.975
2902.34727	13886.675
2904.83604	13893.175
2907.32328	13960.075
2909.809	13928.375
2912.29319	13951.075
2914.77587	13932.475
2917.25702	13928.775
2919.73665	13914.975
2922.21476	13918.675
2924.69136	13848.075
2927.16644	13870.875
2929.64	13837.975
2932.11205	13811.075
2934.58258	13784.175
2937.05161	13767.875
2939.51912	13776.175
2941.98513	13744.375
2944.44962	13706.375
2946.91261	13656.275
2949.37409	13684.675
2951.83407	13665.975
2954.29254	13656.675
2956.74951	13635.275
2959.20498	13615.975
2961.65895	13599.175
2964.11142	13583.075
2966.56239	13530.775
2969.01186	13566.575
2971.45984	13499.275
2973.90632	13503.075
2976.35131	13440.275
2978.7948	13432.275
2981.23681	13377.675
2983.67732	13363.475
2986.11635	13325.475
2988.55388	13312.075
2990.98993	13262.475
2993.4245	13242.575
2995.85758	13220.775
2998.28917	13190.875
3000.71928	13175.475
3003.14791	13125.675
3005.57506	13140.875
3008.00073	13128.775
3010.42493	12981.075
3012.84764	13047.275
3015.26888	13019.175
3017.68865	12947.075
3020.10694	12947.075
3022.52376	12931.775
3024.9391	12943.175
3027.35298	12891.175
3029.76539	12883.775
3032.17632	12883.475
3034.5858	12858.575
3036.9938	12856.275
3039.40034	12860.875
3041.80542	12846.975
3044.20903	12822.475
3046.61118	12817.175
3049.01187	12784.575
3051.4111	12756.875
3053.80888	12742.275
3056.20519	12687.875
3058.60005	12671.875
3060.99345	12658.075
3063.3854	12625.175
3065.7759	12551.175
3068.16494	12517.875
3070.55254	12490.975
3072.93868	12483.175
3075.32338	12441.075
3077.70662	12401.475
3080.08842	12375.675
3082.46878	12353.375
3084.84769	12353.475
3087.22515	12336.975
3089.60118	12335.375
3091.97576	12327.275
3094.3489	12309.375
3096.72061	12305.675
3099.09087	12295.975
3101.4597	12269.275
3103.82709	12242.975
3106.19305	12270.475
3108.55757	12263.475
3110.92066	12221.875
3113.28232	12198.975
3115.64255	12165.675
3118.00134	12134.875
3120.35871	12136.675
3122.71466	12119.475
3125.06917	12056.475
3127.42226	12050.875
