Data from AgNP_FTO_APTES_UA_10uM_CRN_2uM_R6G_10uM_NaF_0.1M_Addition_RamanShift__11__14-09-40-590.txt Node

Date: Thu Feb 10 14:09:40 GMT 2022
User: TCL
Spectrometer: QEP01345
Trigger mode: 4
Integration Time (sec): 7.000000E0
Scans to average: 10
Electric dark correction enabled: true
Nonlinearity correction enabled: false
Boxcar width: 0
XAxis mode: Raman Shifts
Number of Pixels in Spectrum: 1044
>>>>>Begin Spectral Data<<<<<
46.04893	-0.3375
50.45542	-1.2375
54.85868	-0.9375
59.25871	-0.8375
63.6555	65.4625
68.04907	71.4625
72.43941	75.2625
76.82654	75.7625
81.21044	78.7625
85.59113	82.4625
89.96862	83.4625
94.34289	86.3625
98.71396	87.1625
103.08183	91.3625
107.4465	96.7625
111.80798	92.8625
116.16626	99.1625
120.52136	103.1625
124.87327	106.9625
129.222	115.1625
133.56755	120.6625
137.90993	127.7625
142.24913	139.5625
146.58517	157.7625
150.91804	184.6625
155.24774	220.1625
159.57429	277.8625
163.89768	350.6625
168.21792	472.3625
172.53501	642.8625
176.84895	895.3625
181.15975	1261.7625
185.46741	1766.1625
189.77193	2451.6625
194.07331	3279.6625
198.37157	4243.4625
202.6667	5234.4625
206.9587	6244.6625
211.24758	7218.5625
215.53334	8206.4625
219.81599	9262.5625
224.09553	10426.3625
228.37195	11714.9625
232.64527	13117.2625
236.91549	14581.1625
241.18261	16018.2625
245.44663	17330.2625
249.70755	18468.5625
253.96539	19488.5625
258.22014	20324.3625
262.4718	21050.1625
266.72039	21516.3625
270.96589	21773.7625
275.20832	21832.8625
279.44768	21714.3625
283.68397	21528.2625
287.91719	21327.6625
292.14735	21296.2625
296.37445	21363.1625
300.59849	21542.8625
304.81948	21792.8625
309.03742	21883.0625
313.25231	21735.1625
317.46415	21283.0625
321.67296	20569.2625
325.87872	19979.6625
330.08145	19685.6625
334.28114	19674.2625
338.47781	19823.5625
342.67145	20111.6625
346.86207	20454.2625
351.04966	20902.1625
355.23424	21296.3625
359.4158	21709.7625
363.59435	21925.8625
367.76989	22097.9625
371.94243	22156.1625
376.11196	22154.5625
380.27849	22147.8625
384.44203	22202.3625
388.60257	22321.9625
392.76012	22545.2625
396.91468	22831.6625
401.06626	23236.6625
405.21485	23421.4625
409.36047	23259.7625
413.50311	22781.6625
417.64277	22402.7625
421.77947	22343.2625
425.9132	22417.2625
430.04396	22422.0625
434.17176	22494.0625
438.2966	22536.1625
442.41849	22777.9625
446.53742	23258.7625
450.6534	23733.7625
454.76644	24114.0625
458.87653	24243.0625
462.98368	24253.6625
467.08789	24152.0625
471.18916	23898.1625
475.2875	23650.1625
479.38291	23428.6625
483.4754	23295.7625
487.56496	23069.5625
491.6516	22774.4625
495.73531	22471.3625
499.81612	22335.2625
503.89401	22395.8625
507.96899	22537.1625
512.04106	22601.9625
516.11023	22612.5625
520.1765	22479.0625
524.23987	22347.3625
528.30034	22116.6625
532.35792	21923.3625
536.41261	21667.3625
540.46441	21420.3625
544.51333	21376.0625
548.55936	21602.5625
552.60252	22062.6625
556.64279	22571.1625
560.6802	22953.5625
564.71473	23123.0625
568.7464	23560.2625
572.7752	24216.0625
576.80114	24917.7625
580.82422	25479.1625
584.84444	25985.6625
588.86181	26494.2625
592.87633	26772.1625
596.888	26580.0625
600.89682	25989.5625
604.9028	26366.4625
608.90594	28622.0625
612.90624	31438.5625
616.90371	29606.0625
620.89834	24528.2625
624.89015	22264.9625
628.87913	21980.7625
632.86528	22186.5625
636.84862	22358.5625
640.82913	22084.4625
644.80683	21469.9625
648.78172	21023.3625
652.75379	20970.8625
656.72306	21285.0625
660.68952	21664.2625
664.65319	21596.6625
668.61405	21172.4625
672.57211	21029.8625
676.52738	21104.4625
680.47986	21061.6625
684.42955	20896.9625
688.37646	20810.0625
692.32058	20922.2625
696.26192	21162.5625
700.20048	21417.4625
704.13626	21614.7625
708.06928	21666.3625
711.99952	21578.5625
715.927	21450.3625
719.85171	21462.4625
723.77365	21365.1625
727.69284	21100.5625
731.60928	20823.4625
735.52295	20681.4625
739.43388	20672.9625
743.34206	20709.4625
747.24749	20865.9625
751.15017	21018.8625
755.05012	21385.2625
758.94733	22048.9625
762.8418	23308.7625
766.73354	25305.5625
770.62254	27088.8625
774.50882	27507.5625
778.39237	26297.7625
782.27321	24384.7625
786.15132	22765.3625
790.02671	21687.1625
793.89938	21078.8625
797.76935	20829.0625
801.6366	20726.0625
805.50115	20617.9625
809.36299	20439.0625
813.22213	20349.1625
817.07857	20300.3625
820.93231	20284.5625
824.78336	20240.6625
828.63172	20101.5625
832.47738	20082.4625
836.32036	20042.7625
840.16066	20028.3625
843.99827	20003.0625
847.8332	19998.6625
851.66546	20000.1625
855.49504	20070.2625
859.32195	20051.3625
863.1462	20009.4625
866.96777	19993.2625
870.78668	19928.8625
874.60293	19987.0625
878.41652	19992.3625
882.22745	20068.6625
886.03573	20140.5625
889.84136	20114.1625
893.64433	20103.8625
897.44466	20024.8625
901.24235	19989.2625
905.0374	19955.8625
908.8298	19852.2625
912.61957	19906.3625
916.40671	20032.7625
920.19121	20270.4625
923.97308	20456.4625
927.75233	20492.1625
931.52895	20327.6625
935.30295	20053.1625
939.07433	19716.6625
942.84309	19413.5625
946.60924	19244.3625
950.37278	19176.9625
954.13371	19141.5625
957.89203	19096.2625
961.64774	19118.7625
965.40086	19125.9625
969.15137	19077.5625
972.89929	19032.3625
976.64461	18964.2625
980.38733	18924.5625
984.12747	18947.5625
987.86502	19015.5625
991.59999	19112.5625
995.33237	19262.5625
999.06217	19433.6625
1002.78939	19766.9625
1006.51404	20089.5625
1010.23611	20448.9625
1013.95561	20663.6625
1017.67255	20720.8625
1021.38692	20540.3625
1025.09872	20307.1625
1028.80796	20024.7625
1032.51465	19959.5625
1036.21877	20013.1625
1039.92035	20120.3625
1043.61937	20187.8625
1047.31584	20189.5625
1051.00976	20228.2625
1054.70114	20321.0625
1058.38998	20456.2625
1062.07627	20654.9625
1065.76003	20889.5625
1069.44126	21172.7625
1073.11995	21550.5625
1076.79611	21878.8625
1080.46974	22081.0625
1084.14085	22253.7625
1087.80943	22520.3625
1091.47549	22717.4625
1095.13903	22730.1625
1098.80005	22378.9625
1102.45857	21853.1625
1106.11456	21467.7625
1109.76805	21209.2625
1113.41903	21160.9625
1117.06751	21341.7625
1120.71348	21640.1625
1124.35696	21966.5625
1127.99793	22320.6625
1131.63641	22466.8625
1135.2724	22228.7625
1138.90589	21991.9625
1142.5369	21922.4625
1146.16542	21934.3625
1149.79145	21965.9625
1153.415	22102.5625
1157.03607	22392.6625
1160.65467	22869.8625
1164.27079	23714.2625
1167.88443	24873.0625
1171.49561	26255.7625
1175.10432	28084.6625
1178.71056	30367.8625
1182.31434	32472.1625
1185.91565	33584.5625
1189.51451	33748.8625
1193.11091	33127.2625
1196.70485	31926.1625
1200.29634	30553.9625
1203.88538	29371.7625
1207.47197	28499.8625
1211.05612	27810.1625
1214.63782	27184.3625
1218.21708	26478.3625
1221.79391	25823.8625
1225.36829	25334.9625
1228.94024	25084.3625
1232.50976	24924.9625
1236.07685	24739.7625
1239.6415	24591.2625
1243.20374	24556.1625
1246.76355	24739.1625
1250.32093	24983.0625
1253.8759	25375.9625
1257.42845	26004.0625
1260.97859	26786.9625
1264.52631	27636.7625
1268.07163	28407.3625
1271.61453	29117.2625
1275.15503	29739.5625
1278.69312	30355.0625
1282.22882	30972.1625
1285.76211	31834.3625
1289.29301	32830.4625
1292.82151	34095.2625
1296.34761	35576.5625
1299.87133	37334.2625
1303.39266	39303.1625
1306.9116	41337.2625
1310.42815	43202.3625
1313.94233	44095.8625
1317.45412	43723.2625
1320.96354	42800.1625
1324.47058	42110.7625
1327.97525	41582.6625
1331.47754	41243.9625
1334.97747	41114.2625
1338.47502	41157.2625
1341.97022	41341.7625
1345.46305	41709.5625
1348.95352	42075.1625
1352.44163	42230.9625
1355.92738	42689.5625
1359.41078	43993.7625
1362.89183	45309.7625
1366.37053	44321.3625
1369.84688	40524.9625
1373.32088	36098.8625
1376.79254	33151.1625
1380.26186	31890.6625
1383.72883	31508.8625
1387.19347	31329.3625
1390.65578	30990.1625
1394.11575	30747.7625
1397.57339	30641.3625
1401.0287	30721.8625
1404.48168	30772.6625
1407.93234	30569.2625
1411.38068	30065.4625
1414.82669	29352.3625
1418.27039	28395.5625
1421.71177	27528.0625
1425.15083	26845.8625
1428.58758	26503.7625
1432.02203	26716.5625
1435.45416	27296.1625
1438.88399	27943.1625
1442.31151	28365.0625
1445.73673	28686.2625
1449.15965	28917.8625
1452.58027	29149.8625
1455.9986	29238.8625
1459.41463	29516.5625
1462.82837	29866.8625
1466.23982	30359.0625
1469.64898	30775.1625
1473.05586	30971.7625
1476.46045	30948.1625
1479.86276	30894.7625
1483.26279	30844.7625
1486.66054	31003.9625
1490.05602	31406.5625
1493.44922	32086.3625
1496.84016	33181.3625
1500.22882	34857.7625
1503.61521	36955.7625
1506.99934	39183.2625
1510.38121	40830.6625
1513.76081	40867.7625
1517.13816	39357.7625
1520.51324	37101.6625
1523.88607	35216.5625
1527.25665	34124.7625
1530.62498	33613.2625
1533.99105	33211.2625
1537.35488	32656.7625
1540.71647	31866.7625
1544.07581	31009.8625
1547.4329	30199.4625
1550.78776	29619.4625
1554.14038	29236.0625
1557.49077	29040.0625
1560.83892	29059.2625
1564.18484	29185.2625
1567.52853	29439.0625
1570.86999	29772.9625
1574.20922	30281.9625
1577.54624	30598.8625
1580.88103	30364.6625
1584.2136	29970.1625
1587.54395	30095.7625
1590.87208	30819.9625
1594.19801	32125.1625
1597.52172	33539.1625
1600.84321	33861.2625
1604.16251	32755.0625
1607.47959	30942.5625
1610.79447	28961.4625
1614.10715	26878.8625
1617.41763	25055.5625
1620.7259	23626.3625
1624.03199	22829.7625
1627.33587	22728.8625
1630.63757	23292.3625
1633.93707	24607.0625
1637.23439	26839.9625
1640.52951	30176.8625
1643.82246	34219.1625
1647.11321	37676.7625
1650.40179	38814.8625
1653.68819	36609.1625
1656.97241	32070.9625
1660.25446	27347.8625
1663.53433	23809.6625
1666.81203	21529.1625
1670.08756	20159.2625
1673.36092	19275.7625
1676.63211	18701.7625
1679.90115	18299.0625
1683.16801	17980.0625
1686.43272	17758.6625
1689.69527	17562.8625
1692.95567	17449.5625
1696.2139	17373.3625
1699.46999	17334.1625
1702.72392	17247.6625
1705.97571	17187.0625
1709.22535	17135.4625
1712.47284	17080.7625
1715.71819	17062.8625
1718.96139	16990.3625
1722.20246	16959.4625
1725.44139	16848.5625
1728.67818	16746.4625
1731.91284	16660.0625
1735.14537	16556.0625
1738.37576	16457.4625
1741.60403	16418.5625
1744.83017	16319.6625
1748.05418	16299.9625
1751.27607	16270.2625
1754.49584	16221.4625
1757.71349	16209.2625
1760.92903	16165.4625
1764.14244	16184.8625
1767.35375	16167.0625
1770.56294	16095.6625
1773.77002	16094.1625
1776.97499	16040.1625
1780.17785	15991.0625
1783.37861	15957.0625
1786.57727	15939.9625
1789.77382	15867.7625
1792.96828	15858.2625
1796.16064	15795.6625
1799.3509	15791.3625
1802.53907	15738.1625
1805.72514	15690.4625
1808.90913	15652.7625
1812.09102	15668.4625
1815.27083	15591.8625
1818.44856	15552.8625
1821.6242	15527.8625
1824.79776	15509.9625
1827.96924	15477.8625
1831.13864	15492.1625
1834.30597	15502.3625
1837.47122	15447.3625
1840.6344	15456.4625
1843.7955	15479.4625
1846.95454	15415.4625
1850.11151	15419.7625
1853.26642	15414.0625
1856.41926	15431.0625
1859.57004	15410.3625
1862.71876	15378.4625
1865.86542	15311.6625
1869.01003	15325.1625
1872.15258	15285.9625
1875.29308	15282.6625
1878.43152	15223.7625
1881.56792	15204.9625
1884.70227	15180.8625
1887.83457	15139.8625
1890.96482	15112.7625
1894.09304	15089.8625
1897.21921	15059.1625
1900.34335	15044.3625
1903.46544	15024.5625
1906.58551	15025.7625
1909.70353	14984.0625
1912.81953	14955.7625
1915.93349	14942.7625
1919.04543	14899.9625
1922.15534	14867.0625
1925.26322	14818.0625
1928.36908	14802.8625
1931.47292	14792.2625
1934.57473	14751.9625
1937.67453	14712.6625
1940.77232	14686.1625
1943.86808	14616.8625
1946.96184	14583.5625
1950.05358	14516.1625
1953.14331	14483.7625
1956.23103	14455.5625
1959.31675	14394.8625
1962.40046	14330.1625
1965.48217	14300.0625
1968.56188	14281.0625
1971.63959	14214.2625
1974.7153	14197.7625
1977.78901	14111.3625
1980.86073	14081.9625
1983.93046	14024.3625
1986.99819	14005.8625
1990.06394	13961.6625
1993.1277	13919.6625
1996.18947	13862.3625
1999.24925	13828.5625
2002.30706	13742.8625
2005.36288	13695.9625
2008.41672	13667.8625
2011.46859	13631.8625
2014.51848	13638.3625
2017.56639	13584.3625
2020.61233	13529.8625
2023.6563	13520.2625
2026.6983	13493.2625
2029.73833	13432.1625
2032.7764	13385.1625
2035.8125	13391.3625
2038.84664	13338.2625
2041.87881	13301.3625
2044.90903	13253.0625
2047.93729	13245.2625
2050.96359	13249.4625
2053.98794	13193.9625
2057.01034	13177.9625
2060.03078	13151.7625
2063.04927	13148.5625
2066.06582	13155.3625
2069.08042	13146.4625
2072.09307	13155.3625
2075.10378	13138.0625
2078.11255	13107.4625
2081.11938	13096.9625
2084.12426	13089.6625
2087.12722	13079.1625
2090.12824	13091.5625
2093.12732	13069.4625
2096.12447	13079.6625
2099.11969	13062.8625
2102.11299	13080.5625
2105.10435	13078.7625
2108.09379	13071.7625
2111.08131	13083.0625
2114.0669	13085.0625
2117.05057	13105.6625
2120.03233	13092.7625
2123.01216	13115.8625
2125.99008	13108.9625
2128.96609	13140.3625
2131.94018	13150.4625
2134.91236	13163.2625
2137.88263	13126.4625
2140.851	13163.5625
2143.81746	13169.3625
2146.78201	13149.4625
2149.74466	13165.5625
2152.7054	13144.7625
2155.66425	13109.5625
2158.6212	13124.4625
2161.57625	13094.5625
2164.52941	13088.5625
2167.48067	13073.3625
2170.43004	13077.7625
2173.37752	13058.8625
2176.32311	13043.7625
2179.26681	13043.5625
2182.20863	13032.9625
2185.14856	13050.3625
2188.08661	13043.7625
2191.02278	13079.5625
2193.95707	13059.7625
2196.88948	13010.0625
2199.82001	13021.2625
2202.74867	13006.1625
2205.67545	12984.4625
2208.60037	12922.4625
2211.52341	12964.6625
2214.44458	12914.0625
2217.36388	12893.3625
2220.28132	12868.5625
2223.1969	12816.9625
2226.11061	12809.2625
2229.02246	12816.7625
2231.93245	12759.9625
2234.84058	12762.2625
2237.74686	12721.6625
2240.65128	12749.8625
2243.55385	12685.5625
2246.45456	12691.7625
2249.35343	12642.9625
2252.25044	12614.6625
2255.14561	12612.8625
2258.03893	12616.8625
2260.93041	12580.5625
2263.82004	12521.0625
2266.70783	12490.1625
2269.59378	12452.7625
2272.4779	12417.8625
2275.36017	12376.0625
2278.24061	12378.1625
2281.11922	12357.4625
2283.996	12330.2625
2286.87094	12343.2625
2289.74405	12318.9625
2292.61534	12303.5625
2295.4848	12291.8625
2298.35243	12284.0625
2301.21824	12238.3625
2304.08223	12233.3625
2306.94439	12222.6625
2309.80474	12240.2625
2312.66327	12231.0625
2315.51999	12195.2625
2318.37489	12194.9625
2321.22797	12174.8625
2324.07925	12149.1625
2326.92871	12134.4625
2329.77637	12126.8625
2332.62222	12102.9625
2335.46626	12113.0625
2338.3085	12048.9625
2341.14893	12078.4625
2343.98756	12071.4625
2346.8244	12036.2625
2349.65943	12046.1625
2352.49267	12028.2625
2355.32411	12027.8625
2358.15376	12049.4625
2360.98161	12057.3625
2363.80768	12048.8625
2366.63195	12036.9625
2369.45444	12040.0625
2372.27514	12030.8625
2375.09405	12004.9625
2377.91118	11960.0625
2380.72652	11934.2625
2383.54009	11899.7625
2386.35187	11890.1625
2389.16188	11864.4625
2391.97011	11818.1625
2394.77657	11792.0625
2397.58125	11752.5625
2400.38416	11746.2625
2403.18529	11733.9625
2405.98466	11728.6625
2408.78226	11687.3625
2411.57809	11689.4625
2414.37216	11660.0625
2417.16446	11672.3625
2419.955	11648.7625
2422.74378	11639.8625
2425.5308	11641.7625
2428.31606	11635.4625
2431.09956	11627.4625
2433.88131	11612.0625
2436.6613	11605.9625
2439.43954	11595.6625
2442.21603	11577.4625
2444.99077	11596.8625
2447.76377	11576.8625
2450.53501	11557.4625
2453.30451	11572.5625
2456.07226	11558.6625
2458.83827	11566.7625
2461.60254	11537.8625
2464.36507	11539.7625
2467.12586	11529.2625
2469.88492	11519.9625
2472.64224	11533.1625
2475.39782	11533.3625
2478.15167	11506.7625
2480.90379	11556.0625
2483.65417	11548.3625
2486.40283	11538.3625
2489.14976	11529.4625
2491.89497	11518.0625
2494.63845	11500.4625
2497.3802	11504.3625
2500.12024	11513.3625
2502.85855	11484.7625
2505.59514	11459.4625
2508.33002	11453.6625
2511.06318	11444.1625
2513.79462	11423.6625
2516.52435	11411.7625
2519.25237	11390.4625
2521.97867	11397.6625
2524.70327	11394.0625
2527.42616	11358.0625
2530.14734	11340.2625
2532.86681	11326.8625
2535.58458	11311.9625
2538.30065	11307.4625
2541.01501	11305.6625
2543.72768	11275.2625
2546.43864	11257.3625
2549.14791	11275.0625
2551.85548	11270.0625
2554.56136	11213.2625
2557.26554	11223.0625
2559.96803	11191.3625
2562.66883	11188.1625
2565.36794	11144.9625
2568.06536	11171.6625
2570.7611	11146.5625
2573.45514	11110.6625
2576.14751	11110.7625
2578.83819	11082.6625
2581.52719	11065.8625
2584.21451	11034.8625
2586.90015	11052.4625
2589.58411	11032.3625
2592.2664	11021.3625
2594.94701	10988.9625
2597.62594	10971.4625
2600.30321	10968.4625
2602.9788	10955.9625
2605.65273	10970.2625
2608.32498	10971.0625
2610.99557	10945.1625
2613.66449	10949.3625
2616.33175	10934.7625
2618.99734	10954.2625
2621.66128	10911.6625
2624.32355	10894.3625
2626.98416	10909.4625
2629.64311	10877.7625
2632.30041	10847.4625
2634.95605	10825.0625
2637.61004	10837.6625
2640.26238	10808.4625
2642.91306	10833.0625
2645.56209	10830.6625
2648.20948	10819.9625
2650.85521	10816.9625
2653.4993	10818.7625
2656.14175	10788.0625
2658.78255	10812.3625
2661.42171	10809.1625
2664.05923	10825.2625
2666.6951	10844.7625
2669.32934	10842.8625
2671.96194	10826.1625
2674.59291	10849.2625
2677.22224	10825.3625
2679.84993	10836.5625
2682.476	10839.9625
2685.10043	10852.5625
2687.72324	10828.6625
2690.34441	10816.3625
2692.96396	10816.4625
2695.58188	10847.0625
2698.19818	10793.3625
2700.81285	10828.3625
2703.4259	10816.7625
2706.03733	10829.9625
2708.64714	10806.1625
2711.25533	10829.9625
2713.86191	10862.7625
2716.46687	10860.3625
2719.07021	10835.1625
2721.67194	10875.6625
2724.27206	10869.2625
2726.87057	10858.5625
2729.46747	10860.5625
2732.06276	10859.1625
2734.65644	10852.7625
2737.24852	10844.3625
2739.83899	10824.7625
2742.42786	10844.8625
2745.01513	10781.9625
2747.60079	10783.0625
2750.18486	10763.2625
2752.76733	10771.2625
2755.3482	10784.0625
2757.92747	10753.7625
2760.50515	10731.7625
2763.08123	10724.5625
2765.65573	10738.6625
2768.22863	10725.6625
2770.79994	10708.5625
2773.36967	10686.5625
2775.9378	10668.3625
2778.50435	10683.5625
2781.06932	10663.1625
2783.6327	10657.5625
2786.1945	10657.8625
2788.75471	10674.2625
2791.31335	10602.2625
2793.87041	10622.1625
2796.42589	10572.0625
2798.97979	10585.0625
2801.53212	10575.4625
2804.08288	10569.2625
2806.63206	10539.8625
2809.17967	10533.0625
2811.72571	10512.5625
2814.27018	10476.5625
2816.81308	10435.8625
2819.35442	10429.3625
2821.89419	10424.0625
2824.43239	10402.3625
2826.96904	10406.4625
2829.50412	10390.2625
2832.03763	10376.0625
2834.56959	10384.8625
2837.1	10381.4625
2839.62884	10364.5625
2842.15613	10338.2625
2844.68186	10403.0625
2847.20604	10352.5625
2849.72867	10367.5625
2852.24974	10365.5625
2854.76927	10349.3625
2857.28724	10324.9625
2859.80367	10306.0625
2862.31855	10306.0625
2864.83189	10320.8625
2867.34368	10275.7625
2869.85393	10280.2625
2872.36264	10283.4625
2874.8698	10250.8625
2877.37543	10251.2625
2879.87952	10243.4625
2882.38207	10231.4625
2884.88308	10228.9625
2887.38256	10234.1625
2889.88051	10231.4625
2892.37692	10226.6625
2894.8718	10224.4625
2897.36515	10243.0625
2899.85698	10257.0625
2902.34727	10287.7625
2904.83604	10255.9625
2907.32328	10283.4625
2909.809	10260.8625
2912.29319	10262.9625
2914.77587	10243.6625
2917.25702	10228.6625
2919.73665	10247.4625
2922.21476	10261.6625
2924.69136	10250.4625
2927.16644	10219.9625
2929.64	10208.8625
2932.11205	10196.3625
2934.58258	10178.7625
2937.05161	10164.7625
2939.51912	10164.6625
2941.98513	10154.0625
2944.44962	10142.7625
2946.91261	10116.6625
2949.37409	10133.9625
2951.83407	10107.5625
2954.29254	10065.5625
2956.74951	10064.3625
2959.20498	10052.2625
2961.65895	10047.2625
2964.11142	10047.3625
2966.56239	10043.1625
2969.01186	10057.1625
2971.45984	10012.0625
2973.90632	10020.8625
2976.35131	9993.6625
2978.7948	9976.9625
2981.23681	9972.7625
2983.67732	9959.6625
2986.11635	9902.8625
2988.55388	9852.5625
2990.98993	9871.3625
2993.4245	9865.6625
2995.85758	9818.7625
2998.28917	9804.6625
3000.71928	9793.6625
3003.14791	9778.9625
3005.57506	9755.3625
3008.00073	9724.2625
3010.42493	9550.3625
3012.84764	9655.7625
3015.26888	9643.3625
3017.68865	9635.9625
3020.10694	9602.2625
3022.52376	9592.3625
3024.9391	9585.2625
3027.35298	9582.2625
