Data from AgNP_FTO_APTES_UA_10uM_CRN_1000uM_R6G_10uM_NaF_0.1M_Addition_RamanShift__11__19-34-00-990.txt Node

Date: Thu Feb 10 19:34:00 GMT 2022
User: TCL
Spectrometer: QEP01345
Trigger mode: 4
Integration Time (sec): 7.000000E0
Scans to average: 10
Electric dark correction enabled: true
Nonlinearity correction enabled: false
Boxcar width: 0
XAxis mode: Raman Shifts
Number of Pixels in Spectrum: 1044
>>>>>Begin Spectral Data<<<<<
46.04893	0.675
50.45542	-0.325
54.85868	-1.825
59.25871	-0.625
63.6555	52.275
68.04907	50.875
72.43941	57.275
76.82654	52.775
81.21044	61.375
85.59113	60.375
89.96862	61.675
94.34289	61.875
98.71396	66.675
103.08183	72.775
107.4465	70.775
111.80798	70.975
116.16626	74.175
120.52136	77.175
124.87327	77.975
129.222	80.275
133.56755	88.275
137.90993	93.575
142.24913	97.975
146.58517	109.475
150.91804	129.575
155.24774	150.675
159.57429	187.075
163.89768	232.475
168.21792	308.675
172.53501	419.175
176.84895	586.975
181.15975	822.275
185.46741	1152.475
189.77193	1608.075
194.07331	2148.075
198.37157	2770.875
202.6667	3449.275
206.9587	4092.175
211.24758	4743.375
215.53334	5370.975
219.81599	6023.375
224.09553	6731.075
228.37195	7512.375
232.64527	8408.775
236.91549	9332.575
241.18261	10305.975
245.44663	11225.375
249.70755	12064.075
253.96539	12796.375
258.22014	13429.275
262.4718	13925.275
266.72039	14279.175
270.96589	14472.975
275.20832	14513.575
279.44768	14478.075
283.68397	14339.975
287.91719	14211.475
292.14735	14146.975
296.37445	14108.475
300.59849	14078.475
304.81948	14095.975
309.03742	14021.675
313.25231	13921.675
317.46415	13702.275
321.67296	13451.675
325.87872	13244.675
330.08145	13166.375
334.28114	13122.375
338.47781	13245.475
342.67145	13356.875
346.86207	13502.875
351.04966	13653.475
355.23424	13833.675
359.4158	14020.075
363.59435	14176.975
367.76989	14281.075
371.94243	14365.475
376.11196	14432.675
380.27849	14479.375
384.44203	14559.575
388.60257	14663.275
392.76012	14754.175
396.91468	14940.475
401.06626	15142.575
405.21485	15268.275
409.36047	15235.275
413.50311	15114.775
417.64277	15041.675
421.77947	15080.175
425.9132	15175.075
430.04396	15321.475
434.17176	15377.975
438.2966	15474.475
442.41849	15641.575
446.53742	15908.675
450.6534	16194.975
454.76644	16440.775
458.87653	16486.875
462.98368	16560.675
467.08789	16511.475
471.18916	16435.575
475.2875	16306.375
479.38291	16312.875
483.4754	16261.675
487.56496	16163.775
491.6516	16029.975
495.73531	15867.175
499.81612	15759.675
503.89401	15711.475
507.96899	15704.375
512.04106	15703.275
516.11023	15699.375
520.1765	15624.275
524.23987	15503.575
528.30034	15423.275
532.35792	15289.875
536.41261	15222.375
540.46441	15175.675
544.51333	15195.875
548.55936	15321.675
552.60252	15536.475
556.64279	15814.075
560.6802	16006.675
564.71473	16194.775
568.7464	16392.875
572.7752	16766.375
576.80114	17235.675
580.82422	17538.375
584.84444	17742.075
588.86181	17975.575
592.87633	18260.775
596.888	18193.875
600.89682	17815.075
604.9028	17672.575
608.90594	18216.575
612.90624	18853.775
616.90371	18105.175
620.89834	16372.075
624.89015	15623.175
628.87913	15577.975
632.86528	15689.275
636.84862	15773.975
640.82913	15666.975
644.80683	15432.475
648.78172	15210.675
652.75379	15173.475
656.72306	15281.475
660.68952	15370.075
664.65319	15388.075
668.61405	15238.875
672.57211	15230.075
676.52738	15310.375
680.47986	15328.175
684.42955	15299.975
688.37646	15264.475
692.32058	15299.375
696.26192	15407.075
700.20048	15508.475
704.13626	15601.675
708.06928	15634.675
711.99952	15695.075
715.927	15613.675
719.85171	15580.075
723.77365	15504.475
727.69284	15363.775
731.60928	15214.075
735.52295	15166.175
739.43388	15119.775
743.34206	15159.375
747.24749	15238.075
751.15017	15333.075
755.05012	15529.875
758.94733	15783.375
762.8418	16284.875
766.73354	16960.975
770.62254	17645.975
774.50882	17766.975
778.39237	17277.775
782.27321	16497.275
786.15132	15905.875
790.02671	15449.375
793.89938	15245.575
797.76935	15123.575
801.6366	15058.675
805.50115	15013.775
809.36299	14984.175
813.22213	14928.275
817.07857	14932.675
820.93231	14913.075
824.78336	14893.975
828.63172	14828.475
832.47738	14779.475
836.32036	14748.075
840.16066	14752.775
843.99827	14730.175
847.8332	14751.075
851.66546	14742.475
855.49504	14789.075
859.32195	14801.175
863.1462	14750.875
866.96777	14737.775
870.78668	14735.975
874.60293	14757.675
878.41652	14762.975
882.22745	14777.975
886.03573	14808.675
889.84136	14823.375
893.64433	14778.175
897.44466	14783.875
901.24235	14749.375
905.0374	14739.675
908.8298	14701.175
912.61957	14704.475
916.40671	14808.075
920.19121	14952.475
923.97308	15020.975
927.75233	14991.675
931.52895	14874.675
935.30295	14703.875
939.07433	14507.575
942.84309	14372.975
946.60924	14290.075
950.37278	14205.575
954.13371	14162.175
957.89203	14192.175
961.64774	14188.375
965.40086	14162.975
969.15137	14108.875
972.89929	14058.475
976.64461	14008.575
980.38733	13944.275
984.12747	13955.675
987.86502	13950.475
991.59999	14007.775
995.33237	14055.275
999.06217	14128.875
1002.78939	14211.875
1006.51404	14355.875
1010.23611	14511.275
1013.95561	14641.575
1017.67255	14685.275
1021.38692	14679.475
1025.09872	14568.575
1028.80796	14460.475
1032.51465	14398.975
1036.21877	14339.075
1039.92035	14366.275
1043.61937	14436.275
1047.31584	14482.375
1051.00976	14502.475
1054.70114	14601.175
1058.38998	14666.775
1062.07627	14785.275
1065.76003	14899.175
1069.44126	15010.575
1073.11995	15120.375
1076.79611	15239.175
1080.46974	15328.375
1084.14085	15346.575
1087.80943	15436.275
1091.47549	15512.175
1095.13903	15577.575
1098.80005	15520.075
1102.45857	15290.975
1106.11456	15080.675
1109.76805	14941.775
1113.41903	14930.375
1117.06751	14937.975
1120.71348	15059.375
1124.35696	15161.575
1127.99793	15332.575
1131.63641	15446.175
1135.2724	15409.775
1138.90589	15321.075
1142.5369	15273.375
1146.16542	15363.975
1149.79145	15442.375
1153.415	15567.975
1157.03607	15697.375
1160.65467	15976.675
1164.27079	16419.875
1167.88443	16957.175
1171.49561	17494.275
1175.10432	18193.475
1178.71056	19030.675
1182.31434	19916.675
1185.91565	20513.775
1189.51451	20722.075
1193.11091	20710.575
1196.70485	20439.275
1200.29634	19913.375
1203.88538	19473.675
1207.47197	19148.675
1211.05612	18910.275
1214.63782	18582.575
1218.21708	18239.775
1221.79391	17785.875
1225.36829	17474.575
1228.94024	17201.275
1232.50976	17106.375
1236.07685	16942.475
1239.6415	16914.375
1243.20374	16936.075
1246.76355	16954.075
1250.32093	17061.775
1253.8759	17245.675
1257.42845	17542.575
1260.97859	17898.975
1264.52631	18238.875
1268.07163	18555.375
1271.61453	18854.075
1275.15503	19165.175
1278.69312	19539.075
1282.22882	19929.375
1285.76211	20380.875
1289.29301	20919.475
1292.82151	21580.375
1296.34761	22392.875
1299.87133	23316.075
1303.39266	24225.975
1306.9116	24931.775
1310.42815	25498.175
1313.94233	25758.975
1317.45412	25666.375
1320.96354	25438.375
1324.47058	25279.775
1327.97525	25191.075
1331.47754	25138.075
1334.97747	25178.275
1338.47502	25239.375
1341.97022	25364.875
1345.46305	25446.675
1348.95352	25445.475
1352.44163	25403.175
1355.92738	25365.375
1359.41078	25452.375
1362.89183	25496.475
1366.37053	24994.775
1369.84688	23649.475
1373.32088	21975.175
1376.79254	20811.875
1380.26186	20296.275
1383.72883	20256.875
1387.19347	20283.175
1390.65578	20203.575
1394.11575	20203.375
1397.57339	20255.475
1401.0287	20362.975
1404.48168	20361.475
1407.93234	20218.375
1411.38068	19805.675
1414.82669	19275.975
1418.27039	18629.875
1421.71177	18048.975
1425.15083	17520.675
1428.58758	17247.375
1432.02203	17247.375
1435.45416	17469.075
1438.88399	17768.375
1442.31151	18004.275
1445.73673	18193.075
1449.15965	18322.775
1452.58027	18494.075
1455.9986	18597.375
1459.41463	18792.775
1462.82837	18995.075
1466.23982	19132.375
1469.64898	19305.775
1473.05586	19404.475
1476.46045	19396.475
1479.86276	19330.575
1483.26279	19215.275
1486.66054	19154.975
1490.05602	19237.675
1493.44922	19449.075
1496.84016	19750.475
1500.22882	20264.775
1503.61521	20834.875
1506.99934	21476.375
1510.38121	21938.175
1513.76081	22040.175
1517.13816	21777.775
1520.51324	21415.875
1523.88607	21109.575
1527.25665	20990.575
1530.62498	20989.975
1533.99105	20921.075
1537.35488	20756.475
1540.71647	20410.575
1544.07581	19940.775
1547.4329	19496.375
1550.78776	19068.775
1554.14038	18781.975
1557.49077	18574.475
1560.83892	18508.875
1564.18484	18469.675
1567.52853	18509.975
1570.86999	18633.975
1574.20922	18842.975
1577.54624	19072.575
1580.88103	19142.875
1584.2136	19155.875
1587.54395	19321.375
1590.87208	19739.375
1594.19801	20299.575
1597.52172	20927.775
1600.84321	21157.175
1604.16251	20654.575
1607.47959	19794.875
1610.79447	18717.375
1614.10715	17705.075
1617.41763	16731.675
1620.7259	15988.875
1624.03199	15501.675
1627.33587	15325.075
1630.63757	15458.775
1633.93707	15952.475
1637.23439	16894.175
1640.52951	18257.275
1643.82246	19958.675
1647.11321	21558.275
1650.40179	22243.375
1653.68819	21571.875
1656.97241	19861.375
1660.25446	17831.775
1663.53433	16151.375
1666.81203	14891.275
1670.08756	14014.575
1673.36092	13508.575
1676.63211	13137.375
1679.90115	12891.275
1683.16801	12712.475
1686.43272	12567.075
1689.69527	12488.775
1692.95567	12415.575
1696.2139	12347.075
1699.46999	12305.575
1702.72392	12320.275
1705.97571	12203.275
1709.22535	12166.075
1712.47284	12131.175
1715.71819	12111.375
1718.96139	12087.875
1722.20246	12033.875
1725.44139	11988.675
1728.67818	11927.975
1731.91284	11870.175
1735.14537	11787.575
1738.37576	11756.675
1741.60403	11711.975
1744.83017	11692.875
1748.05418	11645.375
1751.27607	11637.875
1754.49584	11647.175
1757.71349	11632.075
1760.92903	11603.875
1764.14244	11588.475
1767.35375	11570.475
1770.56294	11553.075
1773.77002	11531.175
1776.97499	11523.175
1780.17785	11462.375
1783.37861	11447.075
1786.57727	11381.075
1789.77382	11387.175
1792.96828	11364.375
1796.16064	11316.075
1799.3509	11287.275
1802.53907	11255.175
1805.72514	11221.275
1808.90913	11169.975
1812.09102	11159.475
1815.27083	11120.075
1818.44856	11118.675
1821.6242	11073.675
1824.79776	11067.375
1827.96924	11053.475
1831.13864	11011.275
1834.30597	11021.575
1837.47122	10979.575
1840.6344	10973.175
1843.7955	10991.675
1846.95454	10963.475
1850.11151	10935.875
1853.26642	10938.075
1856.41926	10913.575
1859.57004	10923.975
1862.71876	10905.875
1865.86542	10918.175
1869.01003	10829.575
1872.15258	10850.975
1875.29308	10830.875
1878.43152	10809.575
1881.56792	10795.675
1884.70227	10778.475
1887.83457	10725.475
1890.96482	10734.875
1894.09304	10674.175
1897.21921	10678.275
1900.34335	10704.175
1903.46544	10669.075
1906.58551	10655.075
1909.70353	10623.775
1912.81953	10597.175
1915.93349	10615.675
1919.04543	10551.075
1922.15534	10505.675
1925.26322	10499.675
1928.36908	10484.475
1931.47292	10464.175
1934.57473	10445.575
1937.67453	10394.675
1940.77232	10379.875
1943.86808	10345.375
1946.96184	10306.275
1950.05358	10302.375
1953.14331	10269.375
1956.23103	10215.575
1959.31675	10179.375
1962.40046	10152.375
1965.48217	10130.275
1968.56188	10075.275
1971.63959	10036.675
1974.7153	9993.475
1977.78901	9992.475
1980.86073	9958.175
1983.93046	9924.175
1986.99819	9893.075
1990.06394	9867.675
1993.1277	9838.175
1996.18947	9780.875
1999.24925	9777.475
2002.30706	9740.575
2005.36288	9683.775
2008.41672	9663.275
2011.46859	9636.775
2014.51848	9566.475
2017.56639	9576.475
2020.61233	9544.675
2023.6563	9529.875
2026.6983	9487.375
2029.73833	9457.275
2032.7764	9439.175
2035.8125	9410.275
2038.84664	9354.975
2041.87881	9328.675
2044.90903	9314.175
2047.93729	9289.275
2050.96359	9289.475
2053.98794	9255.475
2057.01034	9243.075
2060.03078	9239.375
2063.04927	9209.575
2066.06582	9223.575
2069.08042	9240.775
2072.09307	9228.175
2075.10378	9192.575
2078.11255	9191.275
2081.11938	9189.075
2084.12426	9156.975
2087.12722	9180.075
2090.12824	9154.075
2093.12732	9156.175
2096.12447	9139.275
2099.11969	9136.175
2102.11299	9124.475
2105.10435	9144.675
2108.09379	9132.375
2111.08131	9137.575
2114.0669	9133.675
2117.05057	9122.875
2120.03233	9142.475
2123.01216	9125.375
2125.99008	9139.875
2128.96609	9159.075
2131.94018	9190.175
2134.91236	9155.775
2137.88263	9136.675
2140.851	9146.275
2143.81746	9179.475
2146.78201	9166.575
2149.74466	9146.975
2152.7054	9135.575
2155.66425	9122.875
2158.6212	9123.175
2161.57625	9118.675
2164.52941	9117.275
2167.48067	9087.875
2170.43004	9101.975
2173.37752	9110.075
2176.32311	9078.075
2179.26681	9083.175
2182.20863	9047.175
2185.14856	9053.475
2188.08661	9036.375
2191.02278	9057.575
2193.95707	9040.175
2196.88948	9024.575
2199.82001	9024.375
2202.74867	8992.275
2205.67545	9007.175
2208.60037	8967.575
2211.52341	8959.775
2214.44458	8951.575
2217.36388	8918.475
2220.28132	8898.675
2223.1969	8859.575
2226.11061	8830.375
2229.02246	8819.275
2231.93245	8815.575
2234.84058	8786.875
2237.74686	8766.775
2240.65128	8757.275
2243.55385	8728.675
2246.45456	8710.675
2249.35343	8700.275
2252.25044	8691.775
2255.14561	8690.275
2258.03893	8671.975
2260.93041	8641.075
2263.82004	8594.075
2266.70783	8584.675
2269.59378	8553.075
2272.4779	8534.275
2275.36017	8480.175
2278.24061	8482.775
2281.11922	8473.175
2283.996	8443.275
2286.87094	8465.075
2289.74405	8413.175
2292.61534	8421.475
2295.4848	8387.875
2298.35243	8362.975
2301.21824	8381.275
2304.08223	8357.975
2306.94439	8385.675
2309.80474	8328.975
2312.66327	8338.875
2315.51999	8305.775
2318.37489	8317.175
2321.22797	8292.575
2324.07925	8267.075
2326.92871	8229.475
2329.77637	8225.475
2332.62222	8222.775
2335.46626	8198.875
2338.3085	8177.775
2341.14893	8174.375
2343.98756	8168.475
2346.8244	8126.175
2349.65943	8129.275
2352.49267	8125.775
2355.32411	8118.975
2358.15376	8118.075
2360.98161	8119.375
2363.80768	8128.275
2366.63195	8109.975
2369.45444	8069.675
2372.27514	8063.875
2375.09405	8071.275
2377.91118	8077.075
2380.72652	8036.675
2383.54009	8001.475
2386.35187	7995.675
2389.16188	7977.875
2391.97011	7957.475
2394.77657	7934.375
2397.58125	7917.575
2400.38416	7909.675
2403.18529	7897.675
2405.98466	7874.075
2408.78226	7857.575
2411.57809	7848.875
2414.37216	7838.275
2417.16446	7828.475
2419.955	7821.775
2422.74378	7794.975
2425.5308	7780.075
2428.31606	7761.475
2431.09956	7768.775
2433.88131	7746.675
2436.6613	7745.875
2439.43954	7727.475
2442.21603	7718.975
2444.99077	7691.475
2447.76377	7701.275
2450.53501	7686.775
2453.30451	7679.275
2456.07226	7665.875
2458.83827	7661.175
2461.60254	7657.275
2464.36507	7640.675
2467.12586	7616.575
2469.88492	7607.475
2472.64224	7613.175
2475.39782	7609.275
2478.15167	7624.175
2480.90379	7577.375
2483.65417	7609.175
2486.40283	7607.175
2489.14976	7576.175
2491.89497	7577.875
2494.63845	7582.475
2497.3802	7553.975
2500.12024	7527.575
2502.85855	7520.675
2505.59514	7535.875
2508.33002	7514.375
2511.06318	7513.775
2513.79462	7499.075
2516.52435	7475.475
2519.25237	7453.375
2521.97867	7436.875
2524.70327	7450.975
2527.42616	7457.075
2530.14734	7408.975
2532.86681	7409.375
2535.58458	7414.675
2538.30065	7404.475
2541.01501	7413.075
2543.72768	7369.375
2546.43864	7361.975
2549.14791	7358.075
2551.85548	7343.175
2554.56136	7330.675
2557.26554	7306.575
2559.96803	7287.075
2562.66883	7283.475
2565.36794	7245.775
2568.06536	7250.575
2570.7611	7224.175
2573.45514	7180.375
2576.14751	7189.175
2578.83819	7174.475
2581.52719	7147.775
2584.21451	7165.475
2586.90015	7149.475
2589.58411	7104.475
2592.2664	7118.275
2594.94701	7111.875
2597.62594	7096.975
2600.30321	7087.875
2602.9788	7055.975
2605.65273	7033.175
2608.32498	7030.075
2610.99557	7050.775
2613.66449	7046.575
2616.33175	7039.775
2618.99734	7006.475
2621.66128	7005.875
2624.32355	6995.475
2626.98416	6959.275
2629.64311	6971.875
2632.30041	6972.775
2634.95605	6960.875
2637.61004	6918.675
2640.26238	6921.575
2642.91306	6915.675
2645.56209	6908.375
2648.20948	6895.475
2650.85521	6900.575
2653.4993	6891.475
2656.14175	6914.575
2658.78255	6900.275
2661.42171	6889.275
2664.05923	6883.375
2666.6951	6894.275
2669.32934	6891.475
2671.96194	6869.575
2674.59291	6875.175
2677.22224	6855.675
2679.84993	6870.075
2682.476	6846.875
2685.10043	6865.775
2687.72324	6846.875
2690.34441	6861.975
2692.96396	6858.775
2695.58188	6850.675
2698.19818	6836.875
2700.81285	6854.175
2703.4259	6834.675
2706.03733	6846.975
2708.64714	6826.575
2711.25533	6836.575
2713.86191	6815.575
2716.46687	6842.775
2719.07021	6843.075
2721.67194	6843.475
2724.27206	6811.475
2726.87057	6822.775
2729.46747	6827.675
2732.06276	6829.075
2734.65644	6825.675
2737.24852	6814.975
2739.83899	6811.375
2742.42786	6823.075
2745.01513	6786.875
2747.60079	6774.975
2750.18486	6760.375
2752.76733	6747.175
2755.3482	6737.175
2757.92747	6744.175
2760.50515	6740.475
2763.08123	6703.475
2765.65573	6710.775
2768.22863	6691.075
2770.79994	6669.175
2773.36967	6664.775
2775.9378	6680.075
2778.50435	6666.975
2781.06932	6643.875
2783.6327	6651.575
2786.1945	6642.075
2788.75471	6628.975
2791.31335	6614.575
2793.87041	6608.375
2796.42589	6581.275
2798.97979	6571.975
2801.53212	6586.875
2804.08288	6561.775
2806.63206	6524.575
2809.17967	6496.175
2811.72571	6489.475
2814.27018	6478.375
2816.81308	6452.575
2819.35442	6454.775
2821.89419	6439.575
2824.43239	6435.575
2826.96904	6412.675
2829.50412	6428.875
2832.03763	6400.675
2834.56959	6396.175
2837.1	6398.275
2839.62884	6389.175
2842.15613	6405.375
2844.68186	6427.175
2847.20604	6436.075
2849.72867	6471.775
2852.24974	6452.675
2854.76927	6443.075
2857.28724	6421.575
2859.80367	6395.575
2862.31855	6386.175
2864.83189	6378.275
2867.34368	6364.275
2869.85393	6346.375
2872.36264	6339.975
2874.8698	6350.675
2877.37543	6346.675
2879.87952	6329.375
2882.38207	6336.575
2884.88308	6305.475
2887.38256	6312.275
2889.88051	6305.375
2892.37692	6325.275
2894.8718	6294.375
2897.36515	6306.975
2899.85698	6315.075
2902.34727	6326.475
2904.83604	6309.575
2907.32328	6334.375
2909.809	6313.175
2912.29319	6306.575
2914.77587	6304.475
2917.25702	6291.175
2919.73665	6277.875
2922.21476	6290.375
2924.69136	6290.375
2927.16644	6269.475
2929.64	6272.375
2932.11205	6286.475
2934.58258	6253.475
2937.05161	6282.675
2939.51912	6268.675
2941.98513	6245.175
2944.44962	6230.975
2946.91261	6210.275
2949.37409	6211.475
2951.83407	6191.775
2954.29254	6176.375
2956.74951	6178.375
2959.20498	6156.575
2961.65895	6155.475
2964.11142	6157.775
2966.56239	6140.875
2969.01186	6158.375
2971.45984	6115.575
2973.90632	6114.575
2976.35131	6080.175
2978.7948	6055.775
2981.23681	6069.175
2983.67732	6032.975
2986.11635	6023.075
2988.55388	5996.975
2990.98993	5977.875
2993.4245	5938.775
2995.85758	5946.375
2998.28917	5935.075
3000.71928	5908.075
3003.14791	5899.175
3005.57506	5897.875
3008.00073	5870.675
3010.42493	5870.675
3012.84764	5845.975
3015.26888	5829.175
3017.68865	5819.175
3020.10694	5824.575
3022.52376	5823.075
3024.9391	5799.875
3027.35298	5790.975
3029.76539	5775.075
3032.17632	5778.375
3034.5858	5797.075
3036.9938	5782.675
3039.40034	5780.075
3041.80542	5758.975
3044.20903	5760.275
3046.61118	5749.275
3049.01187	5755.175
3051.4111	5738.075
3053.80888	5710.975
3056.20519	5691.275
3058.60005	5678.475
3060.99345	5671.875
3063.3854	5661.075
3065.7759	5640.575
3068.16494	5629.375
3070.55254	5619.375
3072.93868	5619.875
3075.32338	5616.075
3077.70662	5583.775
3080.08842	5586.375
3082.46878	5561.275
3084.84769	5562.975
3087.22515	5552.775
3089.60118	5539.175
3091.97576	5536.175
3094.3489	5533.375
3096.72061	5530.375
3099.09087	5553.975
3101.4597	5539.575
3103.82709	5513.175
3106.19305	5520.275
3108.55757	5542.275
3110.92066	5524.675
3113.28232	5500.475
3115.64255	5503.975
3118.00134	5468.775
3120.35871	5475.975
3122.71466	5496.375
3125.06917	5453.675
3127.42226	5431.175
3129.77393	5451.175
3132.12417	5453.975
3134.47299	5440.775
3136.82039	5424.775
3139.16636	5446.375
3141.51092	5442.075
3143.85406	5429.575
3146.19579	5439.475
3148.53609	5435.375
3150.87499	5448.875
3153.21246	5444.375
3155.54853	5455.775
3157.88318	5459.875
3160.21642	5451.175
3162.54826	5433.875
3164.87868	5443.375
3167.2077	5451.075
3169.5353	5452.675
3171.86151	5461.375
3174.18631	5451.575
3176.5097	5460.575
3178.83169	5450.775
