Data from AgNP_FTO_APTES_UA_10uM_CRN_2uM_R6G_10uM_NaF_0.1M_Addition_RamanShift__4__14-01-30-580.txt Node

Date: Thu Feb 10 14:01:30 GMT 2022
User: TCL
Spectrometer: QEP01345
Trigger mode: 4
Integration Time (sec): 7.000000E0
Scans to average: 10
Electric dark correction enabled: true
Nonlinearity correction enabled: false
Boxcar width: 0
XAxis mode: Raman Shifts
Number of Pixels in Spectrum: 1044
>>>>>Begin Spectral Data<<<<<
46.04893	-1.125
50.45542	-0.625
54.85868	-1.825
59.25871	-0.625
63.6555	66.475
68.04907	72.075
72.43941	73.075
76.82654	77.875
81.21044	82.975
85.59113	77.075
89.96862	83.175
94.34289	90.975
98.71396	89.375
103.08183	92.675
107.4465	95.575
111.80798	98.675
116.16626	103.075
120.52136	107.075
124.87327	110.475
129.222	118.475
133.56755	124.975
137.90993	130.675
142.24913	141.775
146.58517	159.275
150.91804	190.875
155.24774	223.275
159.57429	281.975
163.89768	361.275
168.21792	484.175
172.53501	655.675
176.84895	922.075
181.15975	1295.975
185.46741	1819.675
189.77193	2520.375
194.07331	3372.575
198.37157	4356.775
202.6667	5378.375
206.9587	6400.375
211.24758	7412.275
215.53334	8434.975
219.81599	9525.375
224.09553	10734.475
228.37195	12053.075
232.64527	13497.075
236.91549	15014.875
241.18261	16458.275
245.44663	17794.775
249.70755	18930.675
253.96539	19931.275
258.22014	20771.275
262.4718	21453.075
266.72039	21976.275
270.96589	22270.175
275.20832	22307.175
279.44768	22091.075
283.68397	21855.475
287.91719	21650.775
292.14735	21655.575
296.37445	21743.775
300.59849	22026.975
304.81948	22358.775
309.03742	22543.275
313.25231	22429.475
317.46415	21881.975
321.67296	21064.375
325.87872	20318.275
330.08145	19949.375
334.28114	19935.875
338.47781	20057.175
342.67145	20402.375
346.86207	20852.775
351.04966	21383.375
355.23424	22005.375
359.4158	22450.975
363.59435	22717.975
367.76989	22884.075
371.94243	22931.575
376.11196	22948.375
380.27849	22975.475
384.44203	22990.775
388.60257	23067.575
392.76012	23234.375
396.91468	23523.475
401.06626	23930.875
405.21485	24174.575
409.36047	23916.975
413.50311	23322.275
417.64277	22862.175
421.77947	22638.675
425.9132	22598.175
430.04396	22724.475
434.17176	22748.075
438.2966	22915.275
442.41849	23262.575
446.53742	23862.075
450.6534	24453.375
454.76644	24901.575
458.87653	25064.975
462.98368	24906.875
467.08789	24690.875
471.18916	24347.375
475.2875	23910.075
479.38291	23654.275
483.4754	23403.175
487.56496	23167.475
491.6516	22859.975
495.73531	22587.675
499.81612	22502.075
503.89401	22615.275
507.96899	22717.975
512.04106	22769.675
516.11023	22794.275
520.1765	22701.175
524.23987	22582.175
528.30034	22403.775
532.35792	22161.475
536.41261	21844.975
540.46441	21540.375
544.51333	21467.475
548.55936	21712.975
552.60252	22231.775
556.64279	22790.375
560.6802	23175.875
564.71473	23314.275
568.7464	23763.675
572.7752	24340.275
576.80114	24812.775
580.82422	25174.475
584.84444	25703.075
588.86181	26229.275
592.87633	26594.175
596.888	26477.575
600.89682	26016.975
604.9028	26742.475
608.90594	29897.875
612.90624	33727.875
616.90371	31830.875
620.89834	25547.175
624.89015	22638.375
628.87913	22203.275
632.86528	22306.575
636.84862	22416.275
640.82913	22098.975
644.80683	21405.575
648.78172	20953.075
652.75379	20891.275
656.72306	21261.375
660.68952	21789.975
664.65319	21624.375
668.61405	21065.875
672.57211	20906.875
676.52738	20980.675
680.47986	20930.875
684.42955	20778.675
688.37646	20662.075
692.32058	20793.575
696.26192	21072.275
700.20048	21401.875
704.13626	21581.275
708.06928	21543.275
711.99952	21367.875
715.927	21301.875
719.85171	21439.175
723.77365	21377.575
727.69284	21051.175
731.60928	20756.075
735.52295	20620.975
739.43388	20630.975
743.34206	20714.975
747.24749	20807.275
751.15017	20987.775
755.05012	21322.775
758.94733	22117.075
762.8418	23528.475
766.73354	25829.675
770.62254	28101.075
774.50882	28734.775
778.39237	27362.475
782.27321	25091.575
786.15132	23060.475
790.02671	21758.675
793.89938	21153.175
797.76935	20835.975
801.6366	20741.775
805.50115	20670.775
809.36299	20513.575
813.22213	20364.375
817.07857	20284.275
820.93231	20212.275
824.78336	20137.475
828.63172	20126.675
832.47738	20089.775
836.32036	20097.275
840.16066	20113.175
843.99827	20142.975
847.8332	20101.175
851.66546	20068.375
855.49504	20045.475
859.32195	20079.075
863.1462	19997.775
866.96777	19942.175
870.78668	19905.875
874.60293	19925.875
878.41652	19910.275
882.22745	20028.675
886.03573	20092.875
889.84136	20085.675
893.64433	20015.975
897.44466	19960.575
901.24235	19899.775
905.0374	19833.175
908.8298	19764.175
912.61957	19751.975
916.40671	19889.175
920.19121	20107.975
923.97308	20339.675
927.75233	20429.075
931.52895	20406.475
935.30295	20161.675
939.07433	19786.675
942.84309	19425.075
946.60924	19261.775
950.37278	19146.975
954.13371	19086.875
957.89203	19071.975
961.64774	19031.975
965.40086	19004.975
969.15137	18973.975
972.89929	18958.175
976.64461	18942.475
980.38733	18959.875
984.12747	18998.475
987.86502	19139.575
991.59999	19296.875
995.33237	19585.475
999.06217	19929.875
1002.78939	20431.375
1006.51404	20820.075
1010.23611	21127.375
1013.95561	21377.075
1017.67255	21436.075
1021.38692	21190.475
1025.09872	20879.475
1028.80796	20771.175
1032.51465	21061.975
1036.21877	21436.675
1039.92035	21616.275
1043.61937	21574.475
1047.31584	21322.275
1051.00976	20965.875
1054.70114	20796.575
1058.38998	20819.775
1062.07627	20872.075
1065.76003	21044.175
1069.44126	21298.475
1073.11995	21598.875
1076.79611	21933.275
1080.46974	22249.875
1084.14085	22493.875
1087.80943	22850.275
1091.47549	23122.075
1095.13903	22961.075
1098.80005	22561.075
1102.45857	22034.275
1106.11456	21676.175
1109.76805	21546.475
1113.41903	21580.275
1117.06751	21808.675
1120.71348	22155.375
1124.35696	22569.775
1127.99793	22974.675
1131.63641	23086.175
1135.2724	22746.675
1138.90589	22381.875
1142.5369	22253.475
1146.16542	22136.675
1149.79145	22146.975
1153.415	22311.575
1157.03607	22562.575
1160.65467	23138.775
1164.27079	24132.375
1167.88443	25446.175
1171.49561	27101.475
1175.10432	29277.975
1178.71056	32112.675
1182.31434	34761.675
1185.91565	36144.475
1189.51451	36107.675
1193.11091	34951.275
1196.70485	33280.175
1200.29634	31638.375
1203.88538	30250.375
1207.47197	29165.775
1211.05612	28322.975
1214.63782	27619.075
1218.21708	27008.475
1221.79391	26517.275
1225.36829	26248.375
1228.94024	25974.075
1232.50976	25697.775
1236.07685	25341.175
1239.6415	25117.675
1243.20374	25104.275
1246.76355	25284.075
1250.32093	25634.375
1253.8759	26161.775
1257.42845	26946.875
1260.97859	27798.675
1264.52631	28674.075
1268.07163	29623.575
1271.61453	30528.475
1275.15503	31345.475
1278.69312	32069.675
1282.22882	32697.175
1285.76211	33373.175
1289.29301	34338.875
1292.82151	35587.275
1296.34761	37253.175
1299.87133	39378.475
1303.39266	42064.875
1306.9116	44963.675
1310.42815	47744.375
1313.94233	49162.775
1317.45412	48541.075
1320.96354	46919.875
1324.47058	45460.075
1327.97525	44227.675
1331.47754	43343.675
1334.97747	42979.475
1338.47502	42766.775
1341.97022	42879.875
1345.46305	43115.975
1348.95352	43535.175
1352.44163	44094.475
1355.92738	45343.975
1359.41078	47787.475
1362.89183	50164.975
1366.37053	48979.675
1369.84688	43943.675
1373.32088	38304.975
1376.79254	34733.975
1380.26186	33238.375
1383.72883	32814.175
1387.19347	32493.675
1390.65578	32046.275
1394.11575	31738.875
1397.57339	31725.975
1401.0287	31921.075
1404.48168	32088.975
1407.93234	32001.775
1411.38068	31627.875
1414.82669	30922.575
1418.27039	30075.675
1421.71177	29119.175
1425.15083	28327.975
1428.58758	28008.975
1432.02203	28274.075
1435.45416	28989.375
1438.88399	29726.575
1442.31151	30143.875
1445.73673	30423.275
1449.15965	30648.775
1452.58027	30779.975
1455.9986	30800.375
1459.41463	30989.275
1462.82837	31396.975
1466.23982	31876.575
1469.64898	32339.875
1473.05586	32664.675
1476.46045	32729.175
1479.86276	32639.675
1483.26279	32502.275
1486.66054	32689.275
1490.05602	33192.575
1493.44922	33938.975
1496.84016	35098.975
1500.22882	36952.775
1503.61521	39549.875
1506.99934	42336.475
1510.38121	44531.575
1513.76081	44740.475
1517.13816	42583.675
1520.51324	39292.975
1523.88607	36588.975
1527.25665	34990.575
1530.62498	34190.675
1533.99105	33807.975
1537.35488	33332.275
1540.71647	32671.275
1544.07581	31976.075
1547.4329	31204.575
1550.78776	30691.075
1554.14038	30352.675
1557.49077	30220.975
1560.83892	30267.575
1564.18484	30535.375
1567.52853	30851.775
1570.86999	31285.275
1574.20922	31756.275
1577.54624	31968.675
1580.88103	31594.975
1584.2136	31047.375
1587.54395	31205.075
1590.87208	32279.375
1594.19801	34052.975
1597.52172	36005.975
1600.84321	36637.775
1604.16251	35318.875
1607.47959	33090.075
1610.79447	30671.675
1614.10715	28120.675
1617.41763	25947.075
1620.7259	24375.875
1624.03199	23600.175
1627.33587	23616.575
1630.63757	24260.275
1633.93707	25691.875
1637.23439	28190.875
1640.52951	31905.275
1643.82246	36292.075
1647.11321	40132.475
1650.40179	41355.475
1653.68819	38848.175
1656.97241	33627.375
1660.25446	28327.575
1663.53433	24502.675
1666.81203	22071.075
1670.08756	20609.375
1673.36092	19686.775
1676.63211	19094.075
1679.90115	18649.675
1683.16801	18375.575
1686.43272	18160.575
1689.69527	17983.875
1692.95567	17848.775
1696.2139	17764.375
1699.46999	17718.175
1702.72392	17648.775
1705.97571	17612.675
1709.22535	17524.475
1712.47284	17551.575
1715.71819	17514.575
1718.96139	17427.675
1722.20246	17404.275
1725.44139	17297.775
1728.67818	17176.475
1731.91284	17069.475
1735.14537	16962.575
1738.37576	16907.275
1741.60403	16832.475
1744.83017	16738.675
1748.05418	16714.975
1751.27607	16670.675
1754.49584	16641.775
1757.71349	16632.475
1760.92903	16609.875
1764.14244	16607.975
1767.35375	16586.375
1770.56294	16516.075
1773.77002	16529.075
1776.97499	16417.275
1780.17785	16400.375
1783.37861	16347.275
1786.57727	16330.075
1789.77382	16306.975
1792.96828	16277.475
1796.16064	16264.875
1799.3509	16249.375
1802.53907	16203.175
1805.72514	16154.175
1808.90913	16119.075
1812.09102	16050.975
1815.27083	16011.575
1818.44856	16007.775
1821.6242	15967.175
1824.79776	15943.075
1827.96924	15926.375
1831.13864	15922.375
1834.30597	15926.375
1837.47122	15940.975
1840.6344	15898.875
1843.7955	15883.075
1846.95454	15902.475
1850.11151	15918.775
1853.26642	15856.375
1856.41926	15867.375
1859.57004	15872.275
1862.71876	15836.575
1865.86542	15774.575
1869.01003	15777.775
1872.15258	15771.275
1875.29308	15770.475
1878.43152	15740.375
1881.56792	15690.275
1884.70227	15717.575
1887.83457	15679.775
1890.96482	15673.975
1894.09304	15638.675
1897.21921	15601.975
1900.34335	15584.675
1903.46544	15567.975
1906.58551	15539.475
1909.70353	15528.475
1912.81953	15502.775
1915.93349	15486.375
1919.04543	15427.275
1922.15534	15391.175
1925.26322	15354.875
1928.36908	15342.175
1931.47292	15291.575
1934.57473	15293.175
1937.67453	15234.975
1940.77232	15203.075
1943.86808	15119.675
1946.96184	15101.375
1950.05358	15058.675
1953.14331	15034.775
1956.23103	14993.875
1959.31675	14939.675
1962.40046	14908.275
1965.48217	14890.975
1968.56188	14818.675
1971.63959	14783.475
1974.7153	14743.775
1977.78901	14722.675
1980.86073	14658.575
1983.93046	14627.475
1986.99819	14560.175
1990.06394	14532.775
1993.1277	14470.375
1996.18947	14408.675
1999.24925	14360.975
2002.30706	14331.775
2005.36288	14299.175
2008.41672	14224.775
2011.46859	14215.275
2014.51848	14161.475
2017.56639	14117.875
2020.61233	14103.375
2023.6563	14062.275
2026.6983	14024.975
2029.73833	14015.475
2032.7764	13936.375
2035.8125	13912.675
2038.84664	13885.175
2041.87881	13889.475
2044.90903	13873.075
2047.93729	13844.075
2050.96359	13841.075
2053.98794	13808.575
2057.01034	13786.575
2060.03078	13774.075
2063.04927	13766.075
2066.06582	13753.175
2069.08042	13750.175
2072.09307	13766.175
2075.10378	13722.475
2078.11255	13719.575
2081.11938	13695.075
2084.12426	13709.575
2087.12722	13718.475
2090.12824	13701.075
2093.12732	13697.175
2096.12447	13672.575
2099.11969	13691.875
2102.11299	13698.075
2105.10435	13692.575
2108.09379	13720.975
2111.08131	13714.475
2114.0669	13719.675
2117.05057	13727.475
2120.03233	13746.975
2123.01216	13762.375
2125.99008	13761.375
2128.96609	13783.975
2131.94018	13800.075
2134.91236	13806.275
2137.88263	13832.775
2140.851	13832.375
2143.81746	13834.075
2146.78201	13800.075
2149.74466	13806.375
2152.7054	13796.275
2155.66425	13820.975
2158.6212	13784.275
2161.57625	13790.675
2164.52941	13776.775
2167.48067	13751.075
2170.43004	13759.475
2173.37752	13762.375
2176.32311	13764.975
2179.26681	13776.275
2182.20863	13775.175
2185.14856	13774.675
2188.08661	13746.875
2191.02278	13761.975
2193.95707	13777.575
2196.88948	13759.175
2199.82001	13740.775
2202.74867	13713.275
2205.67545	13697.775
2208.60037	13699.075
2211.52341	13688.575
2214.44458	13671.475
2217.36388	13650.875
2220.28132	13587.375
2223.1969	13564.775
2226.11061	13564.475
2229.02246	13523.975
2231.93245	13545.775
2234.84058	13484.675
2237.74686	13468.775
2240.65128	13426.275
2243.55385	13416.175
2246.45456	13396.375
2249.35343	13375.475
2252.25044	13378.775
2255.14561	13405.575
2258.03893	13354.375
2260.93041	13304.075
2263.82004	13294.275
2266.70783	13283.775
2269.59378	13228.275
2272.4779	13215.075
2275.36017	13151.175
2278.24061	13140.575
2281.11922	13124.675
2283.996	13084.375
2286.87094	13088.675
2289.74405	13067.075
2292.61534	13079.175
2295.4848	13051.075
2298.35243	13042.475
2301.21824	13039.375
2304.08223	13021.875
2306.94439	13030.275
2309.80474	13007.475
2312.66327	13050.175
2315.51999	13073.675
2318.37489	13075.075
2321.22797	13040.675
2324.07925	13015.675
2326.92871	12972.975
2329.77637	13005.775
2332.62222	12991.575
2335.46626	12946.275
2338.3085	12939.975
2341.14893	12906.375
2343.98756	12960.675
2346.8244	12931.675
2349.65943	12946.975
2352.49267	12945.475
2355.32411	12947.175
2358.15376	12936.575
2360.98161	12929.375
2363.80768	12948.075
2366.63195	12954.375
2369.45444	12906.275
2372.27514	12873.775
2375.09405	12896.375
2377.91118	12863.075
2380.72652	12809.175
2383.54009	12792.575
2386.35187	12754.675
2389.16188	12726.975
2391.97011	12687.975
2394.77657	12663.375
2397.58125	12618.575
2400.38416	12630.675
2403.18529	12597.375
2405.98466	12571.775
2408.78226	12529.175
2411.57809	12537.275
2414.37216	12538.475
2417.16446	12538.875
2419.955	12479.275
2422.74378	12506.475
2425.5308	12493.875
2428.31606	12486.575
2431.09956	12508.975
2433.88131	12482.175
2436.6613	12488.675
2439.43954	12479.075
2442.21603	12485.575
2444.99077	12445.075
2447.76377	12464.675
2450.53501	12495.375
2453.30451	12481.775
2456.07226	12467.175
2458.83827	12467.575
2461.60254	12429.675
2464.36507	12479.475
2467.12586	12455.375
2469.88492	12445.875
2472.64224	12434.575
2475.39782	12469.875
2478.15167	12477.175
2480.90379	12486.675
2483.65417	12487.175
2486.40283	12492.775
2489.14976	12505.475
2491.89497	12476.575
2494.63845	12503.675
2497.3802	12486.575
2500.12024	12463.475
2502.85855	12427.975
2505.59514	12422.875
2508.33002	12381.775
2511.06318	12381.575
2513.79462	12379.975
2516.52435	12356.275
2519.25237	12340.075
2521.97867	12322.875
2524.70327	12339.075
2527.42616	12330.775
2530.14734	12320.875
2532.86681	12346.475
2535.58458	12343.775
2538.30065	12337.575
2541.01501	12307.275
2543.72768	12275.575
2546.43864	12257.575
2549.14791	12274.975
2551.85548	12281.075
2554.56136	12288.975
2557.26554	12248.775
2559.96803	12214.975
2562.66883	12214.075
2565.36794	12163.275
2568.06536	12172.775
2570.7611	12171.875
2573.45514	12143.275
2576.14751	12150.375
2578.83819	12117.675
2581.52719	12136.575
2584.21451	12124.175
2586.90015	12125.775
2589.58411	12110.375
2592.2664	12097.475
2594.94701	12062.675
2597.62594	12072.775
2600.30321	12036.075
2602.9788	12033.175
2605.65273	12038.975
2608.32498	12058.575
2610.99557	12045.075
2613.66449	12045.675
2616.33175	12028.475
2618.99734	12033.575
2621.66128	12019.875
2624.32355	12016.675
2626.98416	11986.175
2629.64311	11962.775
2632.30041	11932.075
2634.95605	11935.875
2637.61004	11929.375
2640.26238	11921.975
2642.91306	11917.975
2645.56209	11908.575
2648.20948	11904.175
2650.85521	11891.375
2653.4993	11886.775
2656.14175	11919.275
2658.78255	11915.475
2661.42171	11931.575
2664.05923	11955.475
2666.6951	11961.875
2669.32934	11962.175
2671.96194	11960.775
2674.59291	11971.475
2677.22224	11931.975
2679.84993	11987.575
2682.476	11970.475
2685.10043	11942.275
2687.72324	11928.375
2690.34441	11916.475
2692.96396	11919.575
2695.58188	11919.375
2698.19818	11925.875
2700.81285	11897.475
2703.4259	11919.075
2706.03733	11943.175
2708.64714	11911.275
2711.25533	11955.775
2713.86191	11937.675
2716.46687	11977.875
2719.07021	11967.975
2721.67194	11991.575
2724.27206	11964.975
2726.87057	11975.875
2729.46747	11969.575
2732.06276	12004.975
2734.65644	11999.175
2737.24852	12013.775
2739.83899	11971.075
2742.42786	11971.875
2745.01513	11931.675
2747.60079	11954.675
2750.18486	11932.575
2752.76733	11931.975
2755.3482	11908.475
2757.92747	11928.575
2760.50515	11889.075
2763.08123	11890.575
2765.65573	11875.775
2768.22863	11864.375
2770.79994	11878.375
2773.36967	11857.875
2775.9378	11854.975
2778.50435	11851.975
2781.06932	11842.175
2783.6327	11845.875
2786.1945	11845.975
2788.75471	11847.575
2791.31335	11822.775
2793.87041	11818.975
2796.42589	11798.775
2798.97979	11784.875
2801.53212	11777.175
2804.08288	11754.975
2806.63206	11726.575
2809.17967	11700.775
2811.72571	11684.775
2814.27018	11688.975
2816.81308	11630.675
2819.35442	11630.375
2821.89419	11609.775
2824.43239	11595.675
2826.96904	11593.675
2829.50412	11600.075
2832.03763	11589.075
2834.56959	11570.975
2837.1	11586.075
2839.62884	11576.575
2842.15613	11586.975
2844.68186	11589.075
2847.20604	11589.575
2849.72867	11613.575
2852.24974	11581.175
2854.76927	11591.175
2857.28724	11543.575
2859.80367	11521.475
2862.31855	11544.175
2864.83189	11537.375
2867.34368	11537.575
2869.85393	11557.275
2872.36264	11534.675
2874.8698	11521.075
2877.37543	11500.275
2879.87952	11504.875
2882.38207	11506.075
2884.88308	11512.875
2887.38256	11489.675
2889.88051	11500.275
2892.37692	11481.075
2894.8718	11484.975
2897.36515	11518.975
2899.85698	11511.775
2902.34727	11550.875
2904.83604	11554.475
2907.32328	11566.975
2909.809	11590.175
2912.29319	11549.975
2914.77587	11579.875
2917.25702	11589.175
2919.73665	11535.775
2922.21476	11570.875
2924.69136	11538.675
2927.16644	11493.575
2929.64	11495.075
2932.11205	11497.975
2934.58258	11440.775
2937.05161	11450.375
2939.51912	11441.075
2941.98513	11438.875
2944.44962	11435.375
2946.91261	11373.075
2949.37409	11391.175
2951.83407	11385.675
2954.29254	11386.875
2956.74951	11378.475
2959.20498	11377.175
2961.65895	11358.275
2964.11142	11383.875
2966.56239	11353.775
2969.01186	11339.375
2971.45984	11312.075
2973.90632	11303.975
2976.35131	11284.975
2978.7948	11279.275
2981.23681	11249.275
2983.67732	11221.675
2986.11635	11210.075
2988.55388	11179.875
2990.98993	11156.175
2993.4245	11143.375
2995.85758	11098.375
2998.28917	11088.875
3000.71928	11067.975
3003.14791	11053.275
3005.57506	11037.675
3008.00073	10997.975
3010.42493	10889.975
3012.84764	10956.875
3015.26888	10954.775
3017.68865	10913.075
3020.10694	10907.275
3022.52376	10909.475
3024.9391	10903.075
3027.35298	10874.375
3029.76539	10875.175
3032.17632	10857.175
3034.5858	10834.175
3036.9938	10829.475
3039.40034	10834.975
3041.80542	10806.475
3044.20903	10796.875
3046.61118	10814.175
3049.01187	10759.575
3051.4111	10757.475
3053.80888	10732.775
3056.20519	10731.575
3058.60005	10675.375
3060.99345	10693.975
3063.3854	10647.475
3065.7759	10616.775
3068.16494	10626.275
3070.55254	10555.075
3072.93868	10568.275
3075.32338	10566.675
3077.70662	10541.075
3080.08842	10504.775
3082.46878	10479.875
3084.84769	10460.875
3087.22515	10455.075
3089.60118	10470.175
3091.97576	10436.775
3094.3489	10419.475
3096.72061	10457.875
3099.09087	10438.275
3101.4597	10439.875
3103.82709	10426.875
3106.19305	10434.575
3108.55757	10450.375
3110.92066	10432.775
3113.28232	10387.375
3115.64255	10357.275
3118.00134	10334.275
3120.35871	10325.375
3122.71466	10336.175
3125.06917	10307.375
3127.42226	10260.375
