Data from AgNP_FTO_APTES_UA_10uM_CRN_200uM_R6G_10uM_NaF_0.1M_Addition_RamanShift__10__18-12-20-890.txt Node

Date: Thu Feb 10 18:12:20 GMT 2022
User: TCL
Spectrometer: QEP01345
Trigger mode: 4
Integration Time (sec): 7.000000E0
Scans to average: 10
Electric dark correction enabled: true
Nonlinearity correction enabled: false
Boxcar width: 0
XAxis mode: Raman Shifts
Number of Pixels in Spectrum: 1044
>>>>>Begin Spectral Data<<<<<
46.04893	-0.125
50.45542	-0.425
54.85868	-1.925
59.25871	-1.725
63.6555	55.675
68.04907	56.875
72.43941	62.475
76.82654	62.775
81.21044	67.975
85.59113	69.175
89.96862	72.575
94.34289	76.875
98.71396	76.075
103.08183	77.875
107.4465	82.875
111.80798	79.275
116.16626	84.875
120.52136	87.975
124.87327	93.175
129.222	91.975
133.56755	101.275
137.90993	104.775
142.24913	110.875
146.58517	122.075
150.91804	143.875
155.24774	170.975
159.57429	208.475
163.89768	263.475
168.21792	345.675
172.53501	474.875
176.84895	651.075
181.15975	913.775
185.46741	1288.975
189.77193	1790.275
194.07331	2383.275
198.37157	3070.175
202.6667	3801.975
206.9587	4514.575
211.24758	5215.175
215.53334	5926.775
219.81599	6644.175
224.09553	7434.575
228.37195	8310.175
232.64527	9254.075
236.91549	10320.975
241.18261	11339.775
245.44663	12387.175
249.70755	13297.575
253.96539	14153.575
258.22014	14883.975
262.4718	15427.675
266.72039	15824.275
270.96589	16032.475
275.20832	16064.575
279.44768	16022.175
283.68397	15898.175
287.91719	15753.875
292.14735	15650.075
296.37445	15606.375
300.59849	15662.775
304.81948	15623.275
309.03742	15577.675
313.25231	15417.675
317.46415	15235.775
321.67296	14931.575
325.87872	14711.675
330.08145	14625.775
334.28114	14639.675
338.47781	14742.075
342.67145	14898.475
346.86207	15100.075
351.04966	15270.975
355.23424	15451.375
359.4158	15665.475
363.59435	15851.675
367.76989	15978.575
371.94243	16121.175
376.11196	16221.175
380.27849	16273.075
384.44203	16401.075
388.60257	16511.975
392.76012	16658.275
396.91468	16839.875
401.06626	17031.875
405.21485	17189.375
409.36047	17175.775
413.50311	17068.775
417.64277	17002.075
421.77947	17020.675
425.9132	17080.775
430.04396	17227.375
434.17176	17315.175
438.2966	17379.375
442.41849	17522.975
446.53742	17810.775
450.6534	18120.075
454.76644	18319.275
458.87653	18435.575
462.98368	18438.175
467.08789	18373.575
471.18916	18264.275
475.2875	18181.275
479.38291	18126.275
483.4754	18073.375
487.56496	17981.275
491.6516	17751.875
495.73531	17553.275
499.81612	17434.675
503.89401	17495.075
507.96899	17594.175
512.04106	17585.175
516.11023	17559.475
520.1765	17444.975
524.23987	17341.175
528.30034	17223.375
532.35792	17143.575
536.41261	17047.275
540.46441	16936.775
544.51333	16973.675
548.55936	17098.575
552.60252	17387.475
556.64279	17631.775
560.6802	17854.775
564.71473	17951.675
568.7464	18156.675
572.7752	18517.775
576.80114	18888.775
580.82422	19259.075
584.84444	19631.775
588.86181	20055.275
592.87633	20372.875
596.888	20210.575
600.89682	19698.075
604.9028	19610.175
608.90594	20284.775
612.90624	21172.675
616.90371	20265.275
620.89834	18261.375
624.89015	17415.075
628.87913	17322.075
632.86528	17477.475
636.84862	17535.675
640.82913	17404.575
644.80683	17157.275
648.78172	17000.675
652.75379	16981.775
656.72306	17097.275
660.68952	17268.975
664.65319	17179.475
668.61405	17046.675
672.57211	17029.375
676.52738	17076.075
680.47986	17114.875
684.42955	17050.475
688.37646	16997.575
692.32058	17054.175
696.26192	17172.075
700.20048	17287.575
704.13626	17403.175
708.06928	17451.875
711.99952	17421.575
715.927	17396.975
719.85171	17378.875
723.77365	17357.775
727.69284	17226.975
731.60928	17093.075
735.52295	17017.975
739.43388	16989.775
743.34206	17013.975
747.24749	17066.075
751.15017	17180.775
755.05012	17375.475
758.94733	17667.775
762.8418	18166.075
766.73354	18963.575
770.62254	19694.075
774.50882	19823.475
778.39237	19268.975
782.27321	18443.475
786.15132	17710.275
790.02671	17309.475
793.89938	17089.475
797.76935	16953.975
801.6366	16909.875
805.50115	16888.175
809.36299	16825.875
813.22213	16812.875
817.07857	16775.875
820.93231	16779.475
824.78336	16680.075
828.63172	16642.775
832.47738	16643.475
836.32036	16621.375
840.16066	16610.275
843.99827	16631.775
847.8332	16614.375
851.66546	16619.575
855.49504	16643.175
859.32195	16669.275
863.1462	16616.275
866.96777	16624.775
870.78668	16601.575
874.60293	16583.875
878.41652	16610.875
882.22745	16640.775
886.03573	16685.275
889.84136	16708.475
893.64433	16655.775
897.44466	16631.175
901.24235	16612.975
905.0374	16569.475
908.8298	16543.475
912.61957	16550.775
916.40671	16663.775
920.19121	16757.575
923.97308	16869.875
927.75233	16829.075
931.52895	16700.975
935.30295	16543.275
939.07433	16386.975
942.84309	16229.975
946.60924	16133.275
950.37278	16054.375
954.13371	16062.275
957.89203	16054.975
961.64774	16035.275
965.40086	16001.175
969.15137	15974.675
972.89929	15904.375
976.64461	15864.675
980.38733	15866.675
984.12747	15873.475
987.86502	15909.275
991.59999	15913.875
995.33237	15983.475
999.06217	16080.975
1002.78939	16254.775
1006.51404	16426.175
1010.23611	16549.775
1013.95561	16681.775
1017.67255	16719.675
1021.38692	16678.675
1025.09872	16535.975
1028.80796	16416.575
1032.51465	16349.575
1036.21877	16366.675
1039.92035	16401.275
1043.61937	16437.275
1047.31584	16490.975
1051.00976	16524.175
1054.70114	16620.175
1058.38998	16700.675
1062.07627	16812.975
1065.76003	16999.275
1069.44126	17090.475
1073.11995	17261.775
1076.79611	17387.375
1080.46974	17432.175
1084.14085	17444.075
1087.80943	17509.775
1091.47549	17644.075
1095.13903	17690.675
1098.80005	17566.975
1102.45857	17334.375
1106.11456	17097.975
1109.76805	16959.075
1113.41903	16935.475
1117.06751	16979.575
1120.71348	17099.675
1124.35696	17243.075
1127.99793	17435.575
1131.63641	17568.975
1135.2724	17479.575
1138.90589	17382.175
1142.5369	17360.575
1146.16542	17392.075
1149.79145	17514.175
1153.415	17633.675
1157.03607	17715.975
1160.65467	18045.475
1164.27079	18548.575
1167.88443	19182.675
1171.49561	19841.275
1175.10432	20634.775
1178.71056	21584.575
1182.31434	22519.375
1185.91565	23063.775
1189.51451	23142.475
1193.11091	22892.475
1196.70485	22377.475
1200.29634	21832.875
1203.88538	21394.775
1207.47197	21146.975
1211.05612	20889.375
1214.63782	20563.975
1218.21708	20155.175
1221.79391	19698.675
1225.36829	19310.475
1228.94024	19093.775
1232.50976	19014.675
1236.07685	18913.275
1239.6415	18855.375
1243.20374	18895.175
1246.76355	19039.475
1250.32093	19209.375
1253.8759	19395.975
1257.42845	19749.675
1260.97859	20109.575
1264.52631	20506.775
1268.07163	20759.675
1271.61453	21146.375
1275.15503	21514.875
1278.69312	21863.975
1282.22882	22251.775
1285.76211	22805.775
1289.29301	23431.175
1292.82151	24264.075
1296.34761	25158.175
1299.87133	26241.175
1303.39266	27254.375
1306.9116	28096.275
1310.42815	28699.475
1313.94233	28974.875
1317.45412	28879.975
1320.96354	28561.375
1324.47058	28319.975
1327.97525	28196.475
1331.47754	28127.475
1334.97747	27975.975
1338.47502	27928.175
1341.97022	27840.375
1345.46305	27712.275
1348.95352	27636.975
1352.44163	27626.475
1355.92738	27829.375
1359.41078	28362.075
1362.89183	28805.075
1366.37053	28255.375
1369.84688	26583.075
1373.32088	24535.875
1376.79254	23121.775
1380.26186	22650.775
1383.72883	22599.875
1387.19347	22576.075
1390.65578	22420.975
1394.11575	22387.875
1397.57339	22485.475
1401.0287	22578.475
1404.48168	22664.675
1407.93234	22518.375
1411.38068	22108.675
1414.82669	21470.175
1418.27039	20832.075
1421.71177	20186.775
1425.15083	19718.075
1428.58758	19445.475
1432.02203	19578.275
1435.45416	19887.575
1438.88399	20233.275
1442.31151	20571.575
1445.73673	20755.775
1449.15965	20921.675
1452.58027	21015.075
1455.9986	21031.375
1459.41463	21182.275
1462.82837	21339.775
1466.23982	21583.375
1469.64898	21810.375
1473.05586	21957.075
1476.46045	21965.275
1479.86276	21847.375
1483.26279	21709.075
1486.66054	21634.575
1490.05602	21724.175
1493.44922	21917.775
1496.84016	22256.875
1500.22882	22734.375
1503.61521	23418.175
1506.99934	24133.275
1510.38121	24662.175
1513.76081	24733.675
1517.13816	24397.975
1520.51324	23917.075
1523.88607	23512.675
1527.25665	23349.375
1530.62498	23335.575
1533.99105	23190.375
1537.35488	22946.875
1540.71647	22534.975
1544.07581	22010.275
1547.4329	21569.075
1550.78776	21131.475
1554.14038	20869.275
1557.49077	20667.775
1560.83892	20596.175
1564.18484	20618.975
1567.52853	20650.175
1570.86999	20834.975
1574.20922	21129.175
1577.54624	21414.475
1580.88103	21521.475
1584.2136	21616.275
1587.54395	21873.675
1590.87208	22406.475
1594.19801	23126.075
1597.52172	23854.175
1600.84321	23983.575
1604.16251	23249.675
1607.47959	22060.275
1610.79447	20839.275
1614.10715	19683.975
1617.41763	18685.475
1620.7259	17930.875
1624.03199	17545.875
1627.33587	17470.975
1630.63757	17773.075
1633.93707	18460.675
1637.23439	19626.975
1640.52951	21438.375
1643.82246	23446.375
1647.11321	25137.775
1650.40179	25510.875
1653.68819	24205.675
1656.97241	21843.275
1660.25446	19525.975
1663.53433	17799.675
1666.81203	16617.075
1670.08756	15826.575
1673.36092	15379.175
1676.63211	15070.175
1679.90115	14793.475
1683.16801	14631.575
1686.43272	14508.675
1689.69527	14406.575
1692.95567	14342.375
1696.2139	14305.775
1699.46999	14272.775
1702.72392	14240.475
1705.97571	14180.775
1709.22535	14134.575
1712.47284	14096.075
1715.71819	14077.575
1718.96139	14074.675
1722.20246	14044.275
1725.44139	14009.475
1728.67818	13922.775
1731.91284	13865.375
1735.14537	13772.975
1738.37576	13772.375
1741.60403	13708.275
1744.83017	13696.375
1748.05418	13644.075
1751.27607	13631.575
1754.49584	13623.975
1757.71349	13626.875
1760.92903	13602.175
1764.14244	13592.375
1767.35375	13532.975
1770.56294	13536.675
1773.77002	13516.075
1776.97499	13488.775
1780.17785	13470.075
1783.37861	13413.975
1786.57727	13392.875
1789.77382	13366.075
1792.96828	13317.275
1796.16064	13289.175
1799.3509	13266.975
1802.53907	13257.175
1805.72514	13222.475
1808.90913	13174.375
1812.09102	13153.275
1815.27083	13105.975
1818.44856	13089.075
1821.6242	13101.175
1824.79776	13061.975
1827.96924	13059.575
1831.13864	13034.975
1834.30597	13028.275
1837.47122	13005.175
1840.6344	13023.075
1843.7955	13029.875
1846.95454	12962.075
1850.11151	12962.675
1853.26642	12975.075
1856.41926	12977.075
1859.57004	12963.975
1862.71876	12932.975
1865.86542	12915.075
1869.01003	12868.375
1872.15258	12882.075
1875.29308	12870.475
1878.43152	12854.675
1881.56792	12821.775
1884.70227	12796.075
1887.83457	12780.275
1890.96482	12753.975
1894.09304	12708.475
1897.21921	12711.475
1900.34335	12675.575
1903.46544	12681.975
1906.58551	12652.475
1909.70353	12633.475
1912.81953	12627.675
1915.93349	12606.875
1919.04543	12559.075
1922.15534	12515.575
1925.26322	12479.475
1928.36908	12487.275
1931.47292	12470.975
1934.57473	12416.275
1937.67453	12401.075
1940.77232	12383.575
1943.86808	12348.575
1946.96184	12298.775
1950.05358	12279.875
1953.14331	12247.775
1956.23103	12175.475
1959.31675	12152.975
1962.40046	12102.575
1965.48217	12101.475
1968.56188	12056.875
1971.63959	11998.375
1974.7153	11979.275
1977.78901	11907.475
1980.86073	11888.675
1983.93046	11861.775
1986.99819	11825.275
1990.06394	11802.175
1993.1277	11786.675
1996.18947	11720.475
1999.24925	11700.375
2002.30706	11657.775
2005.36288	11616.475
2008.41672	11561.675
2011.46859	11546.975
2014.51848	11536.075
2017.56639	11514.575
2020.61233	11455.175
2023.6563	11441.775
2026.6983	11385.275
2029.73833	11369.775
2032.7764	11321.575
2035.8125	11302.075
2038.84664	11267.675
2041.87881	11235.175
2044.90903	11220.275
2047.93729	11173.475
2050.96359	11180.675
2053.98794	11167.775
2057.01034	11161.975
2060.03078	11147.075
2063.04927	11117.475
2066.06582	11107.975
2069.08042	11127.575
2072.09307	11089.475
2075.10378	11101.675
2078.11255	11089.275
2081.11938	11095.675
2084.12426	11078.575
2087.12722	11091.175
2090.12824	11052.375
2093.12732	11051.675
2096.12447	11070.675
2099.11969	11059.175
2102.11299	11029.775
2105.10435	11034.275
2108.09379	11039.475
2111.08131	11053.275
2114.0669	11039.575
2117.05057	11046.075
2120.03233	11063.175
2123.01216	11076.575
2125.99008	11077.875
2128.96609	11082.275
2131.94018	11072.075
2134.91236	11079.275
2137.88263	11079.075
2140.851	11107.675
2143.81746	11099.875
2146.78201	11085.075
2149.74466	11106.075
2152.7054	11087.375
2155.66425	11078.275
2158.6212	11048.775
2161.57625	11079.375
2164.52941	11069.675
2167.48067	11071.475
2170.43004	11051.575
2173.37752	11025.375
2176.32311	11042.175
2179.26681	11082.275
2182.20863	11034.575
2185.14856	11047.175
2188.08661	11029.775
2191.02278	11005.675
2193.95707	11028.375
2196.88948	11017.475
2199.82001	11027.075
2202.74867	10981.475
2205.67545	10943.075
2208.60037	10920.875
2211.52341	10916.775
2214.44458	10893.775
2217.36388	10865.875
2220.28132	10836.675
2223.1969	10817.475
2226.11061	10811.475
2229.02246	10777.675
2231.93245	10779.675
2234.84058	10744.675
2237.74686	10735.275
2240.65128	10719.175
2243.55385	10654.475
2246.45456	10639.875
2249.35343	10648.275
2252.25044	10638.875
2255.14561	10612.175
2258.03893	10614.675
2260.93041	10573.375
2263.82004	10542.075
2266.70783	10542.575
2269.59378	10463.475
2272.4779	10438.275
2275.36017	10412.375
2278.24061	10408.375
2281.11922	10389.475
2283.996	10372.075
2286.87094	10387.075
2289.74405	10345.075
2292.61534	10359.575
2295.4848	10331.475
2298.35243	10340.275
2301.21824	10300.875
2304.08223	10293.475
2306.94439	10298.075
2309.80474	10276.375
2312.66327	10285.175
2315.51999	10261.275
2318.37489	10233.375
2321.22797	10209.775
2324.07925	10218.975
2326.92871	10209.575
2329.77637	10172.675
2332.62222	10146.175
2335.46626	10121.075
2338.3085	10119.975
2341.14893	10100.275
2343.98756	10118.475
2346.8244	10085.675
2349.65943	10071.875
2352.49267	10085.375
2355.32411	10090.375
2358.15376	10064.675
2360.98161	10082.775
2363.80768	10067.675
2366.63195	10057.275
2369.45444	10023.575
2372.27514	10032.175
2375.09405	10006.375
2377.91118	9999.275
2380.72652	9976.075
2383.54009	9945.975
2386.35187	9919.075
2389.16188	9873.975
2391.97011	9850.875
2394.77657	9853.775
2397.58125	9790.375
2400.38416	9821.275
2403.18529	9798.675
2405.98466	9781.275
2408.78226	9749.375
2411.57809	9722.175
2414.37216	9717.275
2417.16446	9716.875
2419.955	9705.975
2422.74378	9716.575
2425.5308	9674.075
2428.31606	9687.375
2431.09956	9661.375
2433.88131	9658.575
2436.6613	9647.675
2439.43954	9657.475
2442.21603	9623.675
2444.99077	9608.175
2447.76377	9642.675
2450.53501	9623.075
2453.30451	9579.975
2456.07226	9559.275
2458.83827	9557.275
2461.60254	9554.175
2464.36507	9568.475
2467.12586	9557.075
2469.88492	9526.875
2472.64224	9537.275
2475.39782	9532.275
2478.15167	9520.175
2480.90379	9534.875
2483.65417	9512.075
2486.40283	9516.675
2489.14976	9502.375
2491.89497	9481.275
2494.63845	9494.975
2497.3802	9484.975
2500.12024	9451.675
2502.85855	9465.575
2505.59514	9458.675
2508.33002	9426.475
2511.06318	9422.075
2513.79462	9395.875
2516.52435	9382.175
2519.25237	9381.775
2521.97867	9382.575
2524.70327	9359.175
2527.42616	9352.675
2530.14734	9350.475
2532.86681	9338.975
2535.58458	9328.475
2538.30065	9308.875
2541.01501	9320.175
2543.72768	9295.075
2546.43864	9277.675
2549.14791	9280.575
2551.85548	9281.575
2554.56136	9252.275
2557.26554	9212.375
2559.96803	9202.475
2562.66883	9159.375
2565.36794	9144.375
2568.06536	9132.875
2570.7611	9121.375
2573.45514	9122.375
2576.14751	9075.275
2578.83819	9085.575
2581.52719	9073.375
2584.21451	9065.275
2586.90015	9037.775
2589.58411	9025.875
2592.2664	9022.075
2594.94701	8991.875
2597.62594	9002.175
2600.30321	8970.375
2602.9788	8949.875
2605.65273	8948.075
2608.32498	8916.675
2610.99557	8912.475
2613.66449	8910.475
2616.33175	8887.575
2618.99734	8894.575
2621.66128	8864.775
2624.32355	8856.475
2626.98416	8856.975
2629.64311	8841.275
2632.30041	8811.475
2634.95605	8788.875
2637.61004	8787.775
2640.26238	8760.775
2642.91306	8774.275
2645.56209	8775.575
2648.20948	8772.075
2650.85521	8772.975
2653.4993	8749.075
2656.14175	8761.975
2658.78255	8766.675
2661.42171	8753.075
2664.05923	8759.775
2666.6951	8790.375
2669.32934	8778.775
2671.96194	8760.475
2674.59291	8744.175
2677.22224	8762.675
2679.84993	8765.375
2682.476	8755.375
2685.10043	8730.675
2687.72324	8725.975
2690.34441	8734.775
2692.96396	8722.975
2695.58188	8733.075
2698.19818	8692.675
2700.81285	8734.575
2703.4259	8738.375
2706.03733	8708.775
2708.64714	8719.675
2711.25533	8723.975
2713.86191	8710.575
2716.46687	8709.475
2719.07021	8732.875
2721.67194	8742.875
2724.27206	8711.375
2726.87057	8692.375
2729.46747	8725.775
2732.06276	8722.575
2734.65644	8708.175
2737.24852	8722.975
2739.83899	8678.575
2742.42786	8682.875
2745.01513	8663.975
2747.60079	8644.175
2750.18486	8640.475
2752.76733	8630.875
2755.3482	8588.575
2757.92747	8596.375
2760.50515	8582.175
2763.08123	8570.675
2765.65573	8562.075
2768.22863	8567.975
2770.79994	8545.175
2773.36967	8550.675
2775.9378	8545.575
2778.50435	8535.975
2781.06932	8516.475
2783.6327	8502.975
2786.1945	8516.875
2788.75471	8499.575
2791.31335	8511.675
2793.87041	8474.175
2796.42589	8443.575
2798.97979	8431.175
2801.53212	8420.375
2804.08288	8408.875
2806.63206	8372.775
2809.17967	8344.275
2811.72571	8325.975
2814.27018	8318.375
2816.81308	8301.275
2819.35442	8267.175
2821.89419	8254.675
2824.43239	8252.675
2826.96904	8223.875
2829.50412	8238.275
2832.03763	8221.075
2834.56959	8204.975
2837.1	8209.575
2839.62884	8217.975
2842.15613	8206.875
2844.68186	8216.875
2847.20604	8239.275
2849.72867	8272.475
2852.24974	8248.775
2854.76927	8255.975
2857.28724	8233.275
2859.80367	8190.675
2862.31855	8175.675
2864.83189	8168.075
2867.34368	8140.975
2869.85393	8144.075
2872.36264	8146.275
2874.8698	8158.075
2877.37543	8140.575
2879.87952	8107.775
2882.38207	8118.075
2884.88308	8092.275
2887.38256	8092.175
2889.88051	8115.375
2892.37692	8101.175
2894.8718	8099.475
2897.36515	8111.175
2899.85698	8102.675
2902.34727	8115.875
2904.83604	8096.275
2907.32328	8135.275
2909.809	8116.375
2912.29319	8099.575
2914.77587	8109.275
2917.25702	8104.075
2919.73665	8093.575
2922.21476	8107.875
2924.69136	8099.075
2927.16644	8097.075
2929.64	8070.275
2932.11205	8085.875
2934.58258	8041.975
2937.05161	8061.475
2939.51912	8046.075
2941.98513	8019.475
2944.44962	8015.275
2946.91261	7976.375
2949.37409	7993.275
2951.83407	7985.975
2954.29254	7960.275
2956.74951	7978.675
2959.20498	7978.275
2961.65895	7971.675
2964.11142	7935.175
2966.56239	7923.575
2969.01186	7920.375
2971.45984	7911.775
2973.90632	7885.275
2976.35131	7879.075
2978.7948	7863.175
2981.23681	7855.375
2983.67732	7829.275
2986.11635	7829.075
2988.55388	7802.375
2990.98993	7759.775
2993.4245	7722.975
2995.85758	7713.775
2998.28917	7707.775
3000.71928	7671.075
3003.14791	7678.375
3005.57506	7689.675
3008.00073	7659.475
3010.42493	7647.775
3012.84764	7638.575
3015.26888	7605.675
3017.68865	7617.475
3020.10694	7574.275
3022.52376	7587.275
3024.9391	7561.875
3027.35298	7556.475
3029.76539	7537.775
3032.17632	7568.375
3034.5858	7554.875
3036.9938	7538.675
3039.40034	7516.875
3041.80542	7506.775
3044.20903	7515.475
3046.61118	7502.975
3049.01187	7484.275
3051.4111	7477.975
3053.80888	7450.275
3056.20519	7448.575
3058.60005	7431.275
3060.99345	7399.375
3063.3854	7385.275
3065.7759	7379.775
3068.16494	7363.475
3070.55254	7340.375
3072.93868	7318.675
3075.32338	7323.375
3077.70662	7288.575
3080.08842	7290.275
3082.46878	7302.075
3084.84769	7258.975
3087.22515	7278.275
3089.60118	7278.275
3091.97576	7255.275
3094.3489	7250.375
3096.72061	7251.875
3099.09087	7245.775
3101.4597	7254.275
3103.82709	7259.475
3106.19305	7237.875
3108.55757	7231.075
3110.92066	7232.075
3113.28232	7219.575
3115.64255	7189.075
3118.00134	7178.975
3120.35871	7152.875
3122.71466	7157.375
3125.06917	7154.175
3127.42226	7115.275
3129.77393	7143.075
3132.12417	7108.175
3134.47299	7104.875
3136.82039	7121.475
3139.16636	7103.875
3141.51092	7108.275
3143.85406	7103.075
3146.19579	7095.475
3148.53609	7095.175
3150.87499	7119.675
3153.21246	7131.275
3155.54853	7135.275
3157.88318	7138.475
3160.21642	7125.275
3162.54826	7124.075
