Data from AgNP_FTO_APTES_UA_10uM_CRN_1uM_R6G_10uM_NaF_0.1M_Addition_RamanShift__18__13-13-40-517.txt Node

Date: Thu Feb 10 13:13:40 GMT 2022
User: TCL
Spectrometer: QEP01345
Trigger mode: 4
Integration Time (sec): 7.000000E0
Scans to average: 10
Electric dark correction enabled: true
Nonlinearity correction enabled: false
Boxcar width: 0
XAxis mode: Raman Shifts
Number of Pixels in Spectrum: 1044
>>>>>Begin Spectral Data<<<<<
46.04893	-0.7
50.45542	-1.1
54.85868	-1.7
59.25871	-0.3
63.6555	72.5
68.04907	73.1
72.43941	78
76.82654	78.3
81.21044	88
85.59113	83.5
89.96862	90.6
94.34289	92.1
98.71396	95.6
103.08183	97.1
107.4465	101
111.80798	101.7
116.16626	105.1
120.52136	112.8
124.87327	120.2
129.222	123.8
133.56755	131.9
137.90993	139.6
142.24913	154
146.58517	174.2
150.91804	202
155.24774	240.3
159.57429	300.5
163.89768	390.4
168.21792	523.8
172.53501	710.5
176.84895	991.4
181.15975	1400.2
185.46741	1956.1
189.77193	2707.4
194.07331	3612.1
198.37157	4647.2
202.6667	5729.3
206.9587	6807.9
211.24758	7890.8
215.53334	8962.6
219.81599	10132.2
224.09553	11420.1
228.37195	12854.4
232.64527	14410.9
236.91549	16064.5
241.18261	17651.9
245.44663	19126
249.70755	20379.8
253.96539	21444.6
258.22014	22412.4
262.4718	23225.6
266.72039	23795.2
270.96589	24144.7
275.20832	24152.3
279.44768	23972
283.68397	23737.3
287.91719	23624.9
292.14735	23487.4
296.37445	23533.1
300.59849	23703.6
304.81948	23890.5
309.03742	23945.3
313.25231	23717.3
317.46415	23087.9
321.67296	22282.5
325.87872	21608
330.08145	21244.1
334.28114	21184.1
338.47781	21377.7
342.67145	21679.1
346.86207	22076.8
351.04966	22640.4
355.23424	23225.8
359.4158	23678.2
363.59435	24053.4
367.76989	24268.8
371.94243	24430.5
376.11196	24517.3
380.27849	24607.1
384.44203	24662.7
388.60257	24766.5
392.76012	24951.9
396.91468	25246.7
401.06626	25687.9
405.21485	25957.2
409.36047	25784.2
413.50311	25311.8
417.64277	24909.1
421.77947	24752.5
425.9132	24821.4
430.04396	24967.9
434.17176	25020.7
438.2966	25287.8
442.41849	25704.4
446.53742	26425
450.6534	27273.8
454.76644	27869.9
458.87653	28054.6
462.98368	27861.7
467.08789	27504.9
471.18916	27001.3
475.2875	26534.1
479.38291	26297.8
483.4754	26123.1
487.56496	25840.8
491.6516	25442.7
495.73531	25074.8
499.81612	24935.6
503.89401	25064.9
507.96899	25152.4
512.04106	25114.4
516.11023	24986.7
520.1765	24831.4
524.23987	24657.4
528.30034	24375.4
532.35792	24069.4
536.41261	23658.9
540.46441	23332.6
544.51333	23274.4
548.55936	23605.3
552.60252	24174
556.64279	24822.6
560.6802	25205.1
564.71473	25460.9
568.7464	25940.5
572.7752	26632
576.80114	27148.3
580.82422	27643.3
584.84444	28085.1
588.86181	28592
592.87633	29031.7
596.888	29075.1
600.89682	28840.5
604.9028	29795.1
608.90594	33025
612.90624	36572.6
616.90371	34316.5
620.89834	27874.2
624.89015	25084.8
628.87913	24752.1
632.86528	24759.7
636.84862	24492.6
640.82913	23963.6
644.80683	23243.1
648.78172	22684.5
652.75379	22575.6
656.72306	22903.7
660.68952	23474.4
664.65319	23357
668.61405	22792.5
672.57211	22604.1
676.52738	22633.3
680.47986	22637.8
684.42955	22507.5
688.37646	22419.7
692.32058	22580.5
696.26192	22873.9
700.20048	23255.8
704.13626	23377
708.06928	23301.9
711.99952	23099
715.927	23002.1
719.85171	23080.8
723.77365	23059.5
727.69284	22713.6
731.60928	22404.4
735.52295	22304.3
739.43388	22352.9
743.34206	22461
747.24749	22575.1
751.15017	22780.7
755.05012	23222.1
758.94733	24005
762.8418	25449.6
766.73354	27768.1
770.62254	30078.4
774.50882	30679.6
778.39237	29166.2
782.27321	26688.1
786.15132	24618.1
790.02671	23384.1
793.89938	22777.9
797.76935	22550.2
801.6366	22525.5
805.50115	22445.6
809.36299	22260.5
813.22213	22054.3
817.07857	21910.6
820.93231	21801.2
824.78336	21695.7
828.63172	21638.4
832.47738	21636.9
836.32036	21671
840.16066	21771.1
843.99827	21906.8
847.8332	21855.3
851.66546	21707.6
855.49504	21648.3
859.32195	21631.3
863.1462	21581.1
866.96777	21448.8
870.78668	21362.3
874.60293	21382.2
878.41652	21371.8
882.22745	21491.8
886.03573	21567.7
889.84136	21553.1
893.64433	21473.1
897.44466	21361
901.24235	21289.1
905.0374	21186.4
908.8298	21128.9
912.61957	21108.6
916.40671	21350.3
920.19121	21653.9
923.97308	22011.7
927.75233	22209.4
931.52895	22153.5
935.30295	21816.3
939.07433	21347
942.84309	20876.4
946.60924	20734.1
950.37278	20680.2
954.13371	20617
957.89203	20508.8
961.64774	20401.6
965.40086	20356.7
969.15137	20317.2
972.89929	20217.4
976.64461	20161.5
980.38733	20180.5
984.12747	20324.1
987.86502	20547.2
991.59999	20879.2
995.33237	21440.6
999.06217	22307.6
1002.78939	23223.9
1006.51404	23803.9
1010.23611	24052.5
1013.95561	24255
1017.67255	24238.3
1021.38692	23828
1025.09872	23564.2
1028.80796	23764.6
1032.51465	24649.6
1036.21877	25426.8
1039.92035	25559.8
1043.61937	25084.1
1047.31584	24308.6
1051.00976	23506
1054.70114	23063.3
1058.38998	23031
1062.07627	23128.2
1065.76003	23183.1
1069.44126	23350.2
1073.11995	23690.7
1076.79611	24077.1
1080.46974	24357.7
1084.14085	24647.3
1087.80943	25075.1
1091.47549	25334.2
1095.13903	25247.4
1098.80005	24799.1
1102.45857	24177.9
1106.11456	23742.2
1109.76805	23619.6
1113.41903	23653.9
1117.06751	23822
1120.71348	24145.7
1124.35696	24462.8
1127.99793	24821.4
1131.63641	25036.5
1135.2724	24856.1
1138.90589	24604.7
1142.5369	24441.3
1146.16542	24411.3
1149.79145	24484.1
1153.415	24685.6
1157.03607	24967
1160.65467	25667.1
1164.27079	26876.7
1167.88443	28489.9
1171.49561	30627.1
1175.10432	33445.9
1178.71056	36969.2
1182.31434	40302
1185.91565	42140.1
1189.51451	41981.3
1193.11091	40317
1196.70485	38060.4
1200.29634	35985.1
1203.88538	34390.4
1207.47197	33254.2
1211.05612	32452.6
1214.63782	31727.7
1218.21708	31301.7
1221.79391	31106.3
1225.36829	31100.1
1228.94024	30797.7
1232.50976	30090.1
1236.07685	29505.3
1239.6415	29113.9
1243.20374	28943.5
1246.76355	29090.6
1250.32093	29588.6
1253.8759	30451.5
1257.42845	31497.5
1260.97859	32538.8
1264.52631	33708.3
1268.07163	34918.6
1271.61453	36171.7
1275.15503	37520.6
1278.69312	38819
1282.22882	39809.7
1285.76211	40714.2
1289.29301	41594.5
1292.82151	42733.9
1296.34761	44492.8
1299.87133	47007.6
1303.39266	50276.8
1306.9116	54229
1310.42815	58205.9
1313.94233	60764.5
1317.45412	60874.5
1320.96354	59425.6
1324.47058	57651.1
1327.97525	56142.6
1331.47754	54990.2
1334.97747	54396.6
1338.47502	54062.6
1341.97022	53678.7
1345.46305	52910.6
1348.95352	52050.8
1352.44163	51561.9
1355.92738	52561.1
1359.41078	55141.8
1362.89183	57798.3
1366.37053	56788
1369.84688	51591.4
1373.32088	45546.6
1376.79254	41400.3
1380.26186	39637.7
1383.72883	39244.8
1387.19347	38999.6
1390.65578	38547.2
1394.11575	38361.7
1397.57339	38815
1401.0287	39687.7
1404.48168	40553.8
1407.93234	40846.2
1411.38068	40509.6
1414.82669	39379.4
1418.27039	37739.5
1421.71177	36097.1
1425.15083	34776.9
1428.58758	34094.1
1432.02203	34242.5
1435.45416	35115.2
1438.88399	36156.6
1442.31151	36960.7
1445.73673	37627.9
1449.15965	38068.9
1452.58027	38366.6
1455.9986	38512.8
1459.41463	38835.5
1462.82837	39545.8
1466.23982	40489.6
1469.64898	41346.7
1473.05586	41757.1
1476.46045	41690.3
1479.86276	41300.1
1483.26279	40818.3
1486.66054	40493.3
1490.05602	40567.3
1493.44922	40794.3
1496.84016	41213.2
1500.22882	42073.5
1503.61521	43574.7
1506.99934	45655.2
1510.38121	47455.4
1513.76081	47941
1517.13816	46563.6
1520.51324	44035.7
1523.88607	41744.9
1527.25665	40341
1530.62498	39563.4
1533.99105	39222.3
1537.35488	38969.5
1540.71647	38555.9
1544.07581	37980.2
1547.4329	37259.9
1550.78776	36644.9
1554.14038	36209
1557.49077	35932.1
1560.83892	35785.1
1564.18484	35769.5
1567.52853	35874.3
1570.86999	36178.5
1574.20922	36646.8
1577.54624	36944.1
1580.88103	36788.7
1584.2136	36825.6
1587.54395	37839.5
1590.87208	39956.4
1594.19801	43019.6
1597.52172	46117
1600.84321	47236.5
1604.16251	45041.4
1607.47959	41142
1610.79447	37043.3
1614.10715	33376.4
1617.41763	30406.4
1620.7259	28444
1624.03199	27479.8
1627.33587	27501.2
1630.63757	28463.8
1633.93707	30630.2
1637.23439	34070.7
1640.52951	38790.6
1643.82246	43895.2
1647.11321	47665.3
1650.40179	48082.2
1653.68819	44428.6
1656.97241	38143
1660.25446	32021.3
1663.53433	27565.1
1666.81203	24665.7
1670.08756	22895.9
1673.36092	21822.9
1676.63211	21103.4
1679.90115	20572.2
1683.16801	20195.3
1686.43272	19947.2
1689.69527	19693.6
1692.95567	19566.5
1696.2139	19469.1
1699.46999	19403
1702.72392	19309.7
1705.97571	19272.4
1709.22535	19222.3
1712.47284	19165.1
1715.71819	19150.7
1718.96139	19071.3
1722.20246	18974
1725.44139	18866
1728.67818	18732.2
1731.91284	18570.1
1735.14537	18491.3
1738.37576	18410.5
1741.60403	18350.1
1744.83017	18259.9
1748.05418	18222.7
1751.27607	18168.7
1754.49584	18139.7
1757.71349	18131.6
1760.92903	18090.4
1764.14244	18086.9
1767.35375	18083
1770.56294	18022
1773.77002	17955
1776.97499	17931.8
1780.17785	17923.6
1783.37861	17861.6
1786.57727	17832.6
1789.77382	17778.8
1792.96828	17748.6
1796.16064	17707.9
1799.3509	17686.6
1802.53907	17659.5
1805.72514	17605.5
1808.90913	17601.8
1812.09102	17527.3
1815.27083	17488.8
1818.44856	17470
1821.6242	17434.9
1824.79776	17441.2
1827.96924	17402.8
1831.13864	17422.7
1834.30597	17479.8
1837.47122	17466.6
1840.6344	17503.1
1843.7955	17482.8
1846.95454	17479.7
1850.11151	17492.8
1853.26642	17471.7
1856.41926	17459.1
1859.57004	17513.7
1862.71876	17489.9
1865.86542	17470.2
1869.01003	17457.2
1872.15258	17431.3
1875.29308	17451.2
1878.43152	17435.2
1881.56792	17413.8
1884.70227	17431.8
1887.83457	17389.8
1890.96482	17419.6
1894.09304	17366.2
1897.21921	17325.6
1900.34335	17319.5
1903.46544	17337
1906.58551	17300.6
1909.70353	17316.5
1912.81953	17237.9
1915.93349	17197.7
1919.04543	17164.8
1922.15534	17150.3
1925.26322	17056.5
1928.36908	17015.4
1931.47292	16948.5
1934.57473	16916.5
1937.67453	16865.5
1940.77232	16801.7
1943.86808	16719.7
1946.96184	16683.7
1950.05358	16568.9
1953.14331	16531.2
1956.23103	16493.8
1959.31675	16419.6
1962.40046	16346.8
1965.48217	16333.1
1968.56188	16273.4
1971.63959	16210.7
1974.7153	16180
1977.78901	16178.1
1980.86073	16093.2
1983.93046	16065.4
1986.99819	16005.2
1990.06394	15942.8
1993.1277	15920.5
1996.18947	15851.3
1999.24925	15800.1
2002.30706	15774.6
2005.36288	15735.8
2008.41672	15698.3
2011.46859	15616.5
2014.51848	15599.7
2017.56639	15562.7
2020.61233	15562.8
2023.6563	15524.5
2026.6983	15470.1
2029.73833	15468.8
2032.7764	15457.5
2035.8125	15414.9
2038.84664	15374.5
2041.87881	15353.2
2044.90903	15351.9
2047.93729	15331.9
2050.96359	15297.9
2053.98794	15290.2
2057.01034	15259.8
2060.03078	15272.4
2063.04927	15238.7
2066.06582	15238.1
2069.08042	15240.4
2072.09307	15172.9
2075.10378	15184
2078.11255	15184.3
2081.11938	15145.5
2084.12426	15110.8
2087.12722	15151.1
2090.12824	15117.3
2093.12732	15118.8
2096.12447	15103.4
2099.11969	15105.7
2102.11299	15118.7
2105.10435	15123.3
2108.09379	15148.2
2111.08131	15158.4
2114.0669	15144.2
2117.05057	15170.1
2120.03233	15164.2
2123.01216	15191.4
2125.99008	15183.5
2128.96609	15200.4
2131.94018	15222.5
2134.91236	15227.5
2137.88263	15238.6
2140.851	15265.2
2143.81746	15235.5
2146.78201	15239.1
2149.74466	15249.7
2152.7054	15283.1
2155.66425	15235.7
2158.6212	15246.6
2161.57625	15239.8
2164.52941	15207.5
2167.48067	15178.7
2170.43004	15196.1
2173.37752	15186.5
2176.32311	15218.6
2179.26681	15217.6
2182.20863	15212.8
2185.14856	15200.2
2188.08661	15183.8
2191.02278	15229.7
2193.95707	15237.1
2196.88948	15234.8
2199.82001	15242.4
2202.74867	15206.8
2205.67545	15239
2208.60037	15231.5
2211.52341	15184.8
2214.44458	15198.1
2217.36388	15176.6
2220.28132	15143.4
2223.1969	15119.6
2226.11061	15101.8
2229.02246	15100.1
2231.93245	15069.9
2234.84058	15039.5
2237.74686	14976.9
2240.65128	14946.9
2243.55385	14933.2
2246.45456	14891.1
2249.35343	14901.7
2252.25044	14869.3
2255.14561	14844
2258.03893	14881.6
2260.93041	14801.8
2263.82004	14762
2266.70783	14752.1
2269.59378	14716.8
2272.4779	14689.1
2275.36017	14621
2278.24061	14608.5
2281.11922	14632.5
2283.996	14573.6
2286.87094	14573.1
2289.74405	14542
2292.61534	14513.6
2295.4848	14536.4
2298.35243	14544.9
2301.21824	14540.4
2304.08223	14603
2306.94439	14557.5
2309.80474	14617.2
2312.66327	14629.8
2315.51999	14596.6
2318.37489	14609.7
2321.22797	14609.3
2324.07925	14615
2326.92871	14584.5
2329.77637	14596.8
2332.62222	14579
2335.46626	14568.6
2338.3085	14590.4
2341.14893	14600.1
2343.98756	14607.2
2346.8244	14633.8
2349.65943	14628.1
2352.49267	14644.7
2355.32411	14630.1
2358.15376	14628.9
2360.98161	14626.7
2363.80768	14625
2366.63195	14580.6
2369.45444	14560.4
2372.27514	14489.7
2375.09405	14518.1
2377.91118	14463
2380.72652	14403.1
2383.54009	14384.6
2386.35187	14370.6
2389.16188	14322.4
2391.97011	14295.8
2394.77657	14292.6
2397.58125	14254.8
2400.38416	14239.9
2403.18529	14202.8
2405.98466	14175.9
2408.78226	14129.9
2411.57809	14132.6
2414.37216	14121.1
2417.16446	14104.2
2419.955	14067.3
2422.74378	14048.1
2425.5308	14048.2
2428.31606	14051.2
2431.09956	14033.2
2433.88131	14047.3
2436.6613	14069
2439.43954	14059.5
2442.21603	14069.4
2444.99077	14021.3
2447.76377	14052.4
2450.53501	14033.9
2453.30451	14051.1
2456.07226	14031.8
2458.83827	14042.8
2461.60254	14072.2
2464.36507	14047.1
2467.12586	14064.1
2469.88492	14041
2472.64224	14078.2
2475.39782	14067.9
2478.15167	14088.8
2480.90379	14074.8
2483.65417	14120.7
2486.40283	14130.3
2489.14976	14161.7
2491.89497	14155.9
2494.63845	14150.3
2497.3802	14122.5
2500.12024	14151.3
2502.85855	14125.8
2505.59514	14121.2
2508.33002	14118.6
2511.06318	14094.8
2513.79462	14073.4
2516.52435	14059.3
2519.25237	14027.4
2521.97867	14006.9
2524.70327	14055.9
2527.42616	14026.7
2530.14734	14031.8
2532.86681	14039.1
2535.58458	14032.3
2538.30065	14062.9
2541.01501	14061.1
2543.72768	14031.6
2546.43864	14038.3
2549.14791	14041.4
2551.85548	14021.1
2554.56136	14018.1
2557.26554	13995.1
2559.96803	13951.8
2562.66883	13943.9
2565.36794	13920.8
2568.06536	13925.4
2570.7611	13911.1
2573.45514	13895.8
2576.14751	13924.1
2578.83819	13917.2
2581.52719	13899.6
2584.21451	13895
2586.90015	13908
2589.58411	13900.2
2592.2664	13928.2
2594.94701	13916.9
2597.62594	13914.8
2600.30321	13897.9
2602.9788	13849.8
2605.65273	13862.8
2608.32498	13894.8
2610.99557	13885.2
2613.66449	13886.1
2616.33175	13870.5
2618.99734	13871.7
2621.66128	13872.6
2624.32355	13885.5
2626.98416	13873.4
2629.64311	13907.3
2632.30041	13913.9
2634.95605	13891.3
2637.61004	13891.7
2640.26238	13852.1
2642.91306	13873.5
2645.56209	13843.3
2648.20948	13827.9
2650.85521	13829.3
2653.4993	13845.8
2656.14175	13803.2
2658.78255	13815.6
2661.42171	13838.6
2664.05923	13845.2
2666.6951	13854
2669.32934	13877.8
2671.96194	13899.3
2674.59291	13929.1
2677.22224	13882.1
2679.84993	13873.5
2682.476	13860.9
2685.10043	13846
2687.72324	13822.3
2690.34441	13819.9
2692.96396	13788.4
2695.58188	13790.1
2698.19818	13746.7
2700.81285	13768.1
2703.4259	13768.1
2706.03733	13785.2
2708.64714	13769.6
2711.25533	13798.7
2713.86191	13796.7
2716.46687	13807.5
2719.07021	13845.9
2721.67194	13866.4
2724.27206	13855.1
2726.87057	13857.6
2729.46747	13855.1
2732.06276	13913.9
2734.65644	13894.8
2737.24852	13879.7
2739.83899	13849.7
2742.42786	13856.6
2745.01513	13849.5
2747.60079	13854.2
2750.18486	13839.7
2752.76733	13820
2755.3482	13807.5
2757.92747	13831.4
2760.50515	13791.1
2763.08123	13806.3
2765.65573	13798.7
2768.22863	13794.9
2770.79994	13781.3
2773.36967	13767.6
2775.9378	13803.1
2778.50435	13798.3
2781.06932	13791.8
2783.6327	13800.9
2786.1945	13793.9
2788.75471	13799.7
2791.31335	13744.2
2793.87041	13785.2
2796.42589	13726.7
2798.97979	13709.6
2801.53212	13679.4
2804.08288	13682.1
2806.63206	13643.7
2809.17967	13624.8
2811.72571	13603.3
2814.27018	13583.9
2816.81308	13546.6
2819.35442	13513.3
2821.89419	13515.6
2824.43239	13528.4
2826.96904	13522.1
2829.50412	13487.6
2832.03763	13452.6
2834.56959	13466.3
2837.1	13433.4
2839.62884	13451.6
2842.15613	13459.5
2844.68186	13471.9
2847.20604	13435.2
2849.72867	13484.9
2852.24974	13529.9
2854.76927	13461.7
2857.28724	13433.2
2859.80367	13412.5
2862.31855	13412.8
2864.83189	13445.9
2867.34368	13431.2
2869.85393	13409.3
2872.36264	13403.1
2874.8698	13396.2
2877.37543	13403.6
2879.87952	13408.1
2882.38207	13399.4
2884.88308	13375.4
2887.38256	13396.6
2889.88051	13396.4
2892.37692	13405.4
2894.8718	13409.5
2897.36515	13428.8
2899.85698	13460.7
2902.34727	13501.4
2904.83604	13526
2907.32328	13530
2909.809	13531.4
2912.29319	13530.2
2914.77587	13512.3
2917.25702	13530.7
2919.73665	13518.6
2922.21476	13496.6
2924.69136	13482.6
2927.16644	13464.4
2929.64	13433.2
2932.11205	13445.3
2934.58258	13434.8
2937.05161	13391.9
2939.51912	13385.7
2941.98513	13365.1
2944.44962	13352.2
2946.91261	13306.4
2949.37409	13313.7
2951.83407	13330.6
2954.29254	13327.3
2956.74951	13289.1
2959.20498	13308.5
2961.65895	13253
2964.11142	13258.4
2966.56239	13242.9
2969.01186	13222.9
2971.45984	13175.4
2973.90632	13162.3
2976.35131	13151.1
2978.7948	13124.3
2981.23681	13056.2
2983.67732	13027.2
2986.11635	13023.1
2988.55388	12995.8
2990.98993	12967.1
2993.4245	12935.5
2995.85758	12908.9
2998.28917	12856.7
3000.71928	12855.7
3003.14791	12814.6
3005.57506	12803.3
3008.00073	12791.7
3010.42493	12665.9
3012.84764	12739.2
3015.26888	12725.1
3017.68865	12641.3
3020.10694	12664.8
3022.52376	12619.3
3024.9391	12596
3027.35298	12591.7
3029.76539	12610.5
3032.17632	12598.7
3034.5858	12532.1
3036.9938	12558
3039.40034	12555
3041.80542	12550.2
3044.20903	12519.6
3046.61118	12515.2
3049.01187	12509.5
3051.4111	12500
3053.80888	12482.3
3056.20519	12433.6
3058.60005	12397.6
3060.99345	12388.8
3063.3854	12367
3065.7759	12310.1
3068.16494	12312.7
3070.55254	12304
3072.93868	12242.4
3075.32338	12244.2
3077.70662	12205.9
3080.08842	12158.8
3082.46878	12165.7
3084.84769	12147.7
3087.22515	12122.4
3089.60118	12103.1
3091.97576	12105.6
3094.3489	12080.6
3096.72061	12128.8
3099.09087	12122.6
3101.4597	12100.2
3103.82709	12088.4
3106.19305	12087.3
3108.55757	12089.8
3110.92066	12043.9
3113.28232	12045.4
3115.64255	12012.9
3118.00134	11982.7
3120.35871	11946.9
3122.71466	11931.7
3125.06917	11911.8
3127.42226	11883
3129.77393	11878.6
3132.12417	11868.2
3134.47299	11873.2
3136.82039	11847.4
3139.16636	11864.8
3141.51092	11879.4
3143.85406	11856
3146.19579	11820.8
3148.53609	11827.9
3150.87499	11856.6
3153.21246	11843.6
3155.54853	11878.1
3157.88318	11833
3160.21642	11879.1
3162.54826	11864.1
3164.87868	11872.8
3167.2077	11879.6
3169.5353	11869.1
3171.86151	11898.3
3174.18631	11858.9
3176.5097	11836.6
3178.83169	11816.7
3181.15228	11833.3
3183.47147	11806.2
3185.78926	11830.9
3188.10565	11813.6
3190.42065	11801.9
3192.73424	11783.5
3195.04645	11787.6
3197.35725	11751.5
3199.66667	11753.7
3201.97469	11789.7
3204.28132	11771
3206.58656	11788.3
3208.8904	11800.9
3211.19287	11807.1
3213.49394	11799.8
3215.79363	11803.5
3218.09193	11780.2
3220.38884	11769.9
3222.68438	11811.8
3224.97853	11792.8
3227.2713	11820.9
3229.56269	11801.5
3231.8527	11798.3
3234.14133	11761
3236.42858	11735
3238.71446	11714.2
3240.99896	11695.3
3243.28209	11664.2
3245.56384	11648.1
3247.84423	11663.9
3250.12324	11668.6
3252.40088	11642.1
3254.67715	11640.2
3256.95205	11621.2
3259.22558	11615.6
3261.49775	11613.9
3263.76855	11572.8
3266.03799	11571.2
3268.30606	11567.2
3270.57277	11548.9
3272.83812	11534.3
3275.10211	11503.5
3277.36474	11486.5
3279.62601	11490.6
3281.88593	11471.8
3284.14448	11483.3
3286.40168	11497.7
3288.65753	11496.9
3290.91202	11487.2
3293.16516	11434.8
3295.41695	11426
3297.66738	11378.4
3299.91647	11322
3302.16421	11236.1
3304.4106	11191.3
3306.65564	11124.8
3308.89933	11035.5
3311.14169	10973.1
3313.38269	10881.8
3315.62236	10795.8
3317.86068	10698.1
3320.09766	10633.6
3322.3333	10570.7
3324.5676	10500.7
3326.80056	10331.9
3329.03219	10293.3
3331.26248	3.5
3333.49143	0.3
3335.71905	-0.5
