Data from AgNP_FTO_APTES_UA_10uM_CRN_20uM_R6G_10uM_NaF_0.1M_Addition_RamanShift__28__16-35-30-770.txt Node

Date: Thu Feb 10 16:35:30 GMT 2022
User: TCL
Spectrometer: QEP01345
Trigger mode: 4
Integration Time (sec): 7.000000E0
Scans to average: 10
Electric dark correction enabled: true
Nonlinearity correction enabled: false
Boxcar width: 0
XAxis mode: Raman Shifts
Number of Pixels in Spectrum: 1044
>>>>>Begin Spectral Data<<<<<
46.04893	0.2
50.45542	0.1
54.85868	-2.3
59.25871	-1.1
63.6555	62.2
68.04907	65.3
72.43941	71.6
76.82654	72.8
81.21044	76.2
85.59113	77.9
89.96862	79.8
94.34289	81.8
98.71396	83.4
103.08183	92.3
107.4465	93.7
111.80798	91.7
116.16626	96.3
120.52136	98.4
124.87327	105.6
129.222	106.6
133.56755	118
137.90993	119.4
142.24913	132.4
146.58517	150.2
150.91804	173.7
155.24774	205.8
159.57429	259.2
163.89768	330.8
168.21792	436.9
172.53501	599.8
176.84895	828.1
181.15975	1153.2
185.46741	1621.7
189.77193	2236.9
194.07331	2989.9
198.37157	3854.8
202.6667	4748.5
206.9587	5651.9
211.24758	6528.8
215.53334	7435.2
219.81599	8407.9
224.09553	9461.9
228.37195	10659.9
232.64527	11991.4
236.91549	13367.2
241.18261	14693.4
245.44663	15862.7
249.70755	16887.4
253.96539	17808.4
258.22014	18616
262.4718	19314.8
266.72039	19878
270.96589	20237.3
275.20832	20371.3
279.44768	20365.1
283.68397	20254
287.91719	20188.9
292.14735	20234.1
296.37445	20389.8
300.59849	20695.2
304.81948	20922.5
309.03742	20981.3
313.25231	20693.8
317.46415	19924.6
321.67296	18923.5
325.87872	18103.3
330.08145	17738.5
334.28114	17701
338.47781	17888.3
342.67145	18223.9
346.86207	18753.7
351.04966	19438.3
355.23424	20176.4
359.4158	20747.7
363.59435	21030.3
367.76989	21185.1
371.94243	21222.6
376.11196	21267.2
380.27849	21239.5
384.44203	21192.9
388.60257	21121
392.76012	21151.8
396.91468	21395.5
401.06626	21804.9
405.21485	22116.8
409.36047	21947.9
413.50311	21271.7
417.64277	20654.8
421.77947	20367.1
425.9132	20332.1
430.04396	20436.3
434.17176	20591.4
438.2966	20827.4
442.41849	21212.3
446.53742	21778.6
450.6534	22354.5
454.76644	22858
458.87653	23008.3
462.98368	22926
467.08789	22712
471.18916	22378.1
475.2875	22070.8
479.38291	21833.7
483.4754	21533.2
487.56496	21251.2
491.6516	20845.7
495.73531	20576.3
499.81612	20469.4
503.89401	20578.5
507.96899	20659
512.04106	20717
516.11023	20772.4
520.1765	20782.8
524.23987	20632.3
528.30034	20386
532.35792	20114.2
536.41261	19888.3
540.46441	19627.3
544.51333	19605.6
548.55936	19877.1
552.60252	20412.7
556.64279	20903.7
560.6802	21212.2
564.71473	21373.3
568.7464	21862.6
572.7752	22322.6
576.80114	22167.9
580.82422	21867.6
584.84444	21762.6
588.86181	21774.9
592.87633	21868
596.888	22141.7
600.89682	22587.7
604.9028	24105.2
608.90594	28095.1
612.90624	32901.9
616.90371	31073.2
620.89834	24010.5
624.89015	20978.4
628.87913	20524.6
632.86528	20518.4
636.84862	20541.8
640.82913	20227.2
644.80683	19538.5
648.78172	19069.6
652.75379	19080.7
656.72306	19551
660.68952	20133.2
664.65319	20051
668.61405	19489
672.57211	19261.8
676.52738	19224.9
680.47986	19217.9
684.42955	19168.1
688.37646	19129.3
692.32058	19204.5
696.26192	19394.7
700.20048	19633.3
704.13626	19773.3
708.06928	19745.2
711.99952	19583.5
715.927	19516.1
719.85171	19496
723.77365	19469.7
727.69284	19285.7
731.60928	19128.7
735.52295	19059.7
739.43388	19094.9
743.34206	19152.7
747.24749	19271.1
751.15017	19463.9
755.05012	19844
758.94733	20613.4
762.8418	22128.6
766.73354	24645.9
770.62254	27071.4
774.50882	27893.5
778.39237	26423.1
782.27321	23656.4
786.15132	21334
790.02671	20022.9
793.89938	19369.7
797.76935	19138.5
801.6366	19002.6
805.50115	18912.1
809.36299	18822
813.22213	18723.4
817.07857	18715.3
820.93231	18740.5
824.78336	18691.1
828.63172	18727.4
832.47738	18764.9
836.32036	18754.2
840.16066	18758
843.99827	18794.1
847.8332	18699.6
851.66546	18630.9
855.49504	18600.3
859.32195	18548
863.1462	18480
866.96777	18381.4
870.78668	18339.9
874.60293	18371.5
878.41652	18380.6
882.22745	18459.2
886.03573	18460.6
889.84136	18467.2
893.64433	18359.7
897.44466	18293.5
901.24235	18307.6
905.0374	18246.8
908.8298	18245.8
912.61957	18332.7
916.40671	18463.4
920.19121	18698.7
923.97308	18874.8
927.75233	18926.8
931.52895	18898.3
935.30295	18690.8
939.07433	18287.9
942.84309	17956.9
946.60924	17787.5
950.37278	17682.7
954.13371	17611.8
957.89203	17537.6
961.64774	17481.4
965.40086	17459.8
969.15137	17367.8
972.89929	17294.4
976.64461	17286.6
980.38733	17290.1
984.12747	17362.4
987.86502	17481
991.59999	17664
995.33237	17954.6
999.06217	18517.1
1002.78939	19136.6
1006.51404	19539.8
1010.23611	19789.2
1013.95561	19976.9
1017.67255	19973
1021.38692	19772.8
1025.09872	19604.7
1028.80796	19709.9
1032.51465	20165.4
1036.21877	20600.4
1039.92035	20704.6
1043.61937	20458
1047.31584	20017.6
1051.00976	19582.3
1054.70114	19326.7
1058.38998	19359.4
1062.07627	19464.6
1065.76003	19569.2
1069.44126	19632.8
1073.11995	19730.4
1076.79611	19912.1
1080.46974	20037.2
1084.14085	20331.8
1087.80943	20677.3
1091.47549	20822.2
1095.13903	20621.2
1098.80005	20206.5
1102.45857	19782.9
1106.11456	19515.8
1109.76805	19537.4
1113.41903	19781.8
1117.06751	20152.9
1120.71348	20563.6
1124.35696	20970.5
1127.99793	21363.5
1131.63641	21374.9
1135.2724	20960.1
1138.90589	20464.6
1142.5369	20224.5
1146.16542	20061.1
1149.79145	20009.9
1153.415	20193.3
1157.03607	20426
1160.65467	20916.9
1164.27079	21675.8
1167.88443	22703.6
1171.49561	24180.1
1175.10432	26507.9
1178.71056	29384.7
1182.31434	31697.4
1185.91565	32813.2
1189.51451	32658.7
1193.11091	31358.6
1196.70485	29557.4
1200.29634	28014.4
1203.88538	26761.9
1207.47197	25631.7
1211.05612	24630.9
1214.63782	24057.3
1218.21708	23784.7
1221.79391	23787.3
1225.36829	23785.1
1228.94024	23676.3
1232.50976	23546.8
1236.07685	23450
1239.6415	23416
1243.20374	23477
1246.76355	23617.5
1250.32093	23979.9
1253.8759	24575.5
1257.42845	25323.3
1260.97859	25986.7
1264.52631	26598.2
1268.07163	27211.9
1271.61453	27883.3
1275.15503	28549.9
1278.69312	29106.5
1282.22882	29597.6
1285.76211	30089.1
1289.29301	30722.3
1292.82151	31553.2
1296.34761	32642.2
1299.87133	34147.2
1303.39266	36269.4
1306.9116	39180
1310.42815	42421.2
1313.94233	44559.5
1317.45412	44696
1320.96354	43415.5
1324.47058	41803.1
1327.97525	40264.3
1331.47754	39177.6
1334.97747	38931.2
1338.47502	39235.3
1341.97022	39757.3
1345.46305	39990
1348.95352	39932.9
1352.44163	40193
1355.92738	41436.8
1359.41078	44483
1362.89183	47524.1
1366.37053	46362.3
1369.84688	41064.9
1373.32088	35793.8
1376.79254	32408.2
1380.26186	30924.9
1383.72883	30385.3
1387.19347	30049.5
1390.65578	29610.8
1394.11575	29453.9
1397.57339	29618.9
1401.0287	30116.8
1404.48168	30733.2
1407.93234	31213.4
1411.38068	31387.7
1414.82669	30947.8
1418.27039	29955.5
1421.71177	28723.9
1425.15083	27637.1
1428.58758	26996.7
1432.02203	26858.7
1435.45416	27089.3
1438.88399	27465.9
1442.31151	27780.1
1445.73673	28190.7
1449.15965	28495.6
1452.58027	28833.9
1455.9986	28928.1
1459.41463	29091.1
1462.82837	29485.5
1466.23982	30048.4
1469.64898	30644.2
1473.05586	30939.7
1476.46045	31065.4
1479.86276	31190
1483.26279	31308
1486.66054	31559.8
1490.05602	31906.6
1493.44922	32485.4
1496.84016	33209.9
1500.22882	34396.3
1503.61521	36176.5
1506.99934	38586.6
1510.38121	41056.9
1513.76081	42523.3
1517.13816	41658
1520.51324	38910.8
1523.88607	35907.3
1527.25665	33708.8
1530.62498	32466.2
1533.99105	31613.7
1537.35488	31154.8
1540.71647	30775.6
1544.07581	30417.9
1547.4329	29977.4
1550.78776	29665.8
1554.14038	29526.7
1557.49077	29543.3
1560.83892	29791.6
1564.18484	30109.7
1567.52853	30273.3
1570.86999	30316.2
1574.20922	30475.9
1577.54624	30465.1
1580.88103	29914.3
1584.2136	29394.6
1587.54395	29582.5
1590.87208	30680.9
1594.19801	32479.6
1597.52172	34489.2
1600.84321	35239.5
1604.16251	33922.7
1607.47959	31524.4
1610.79447	29013.9
1614.10715	26692.1
1617.41763	24800.8
1620.7259	23526.5
1624.03199	22917
1627.33587	22888.8
1630.63757	23474.2
1633.93707	24671.5
1637.23439	26476.6
1640.52951	28888.5
1643.82246	31618.6
1647.11321	34134.1
1650.40179	35351.5
1653.68819	34051
1656.97241	30132.3
1660.25446	25937
1663.53433	22836.4
1666.81203	20764.5
1670.08756	19543.2
1673.36092	18726.8
1676.63211	18210.3
1679.90115	17853.8
1683.16801	17561.4
1686.43272	17397.9
1689.69527	17244.4
1692.95567	17142.3
1696.2139	17070.7
1699.46999	17017.8
1702.72392	16955.9
1705.97571	16917.4
1709.22535	16883.1
1712.47284	16838.7
1715.71819	16833
1718.96139	16807.2
1722.20246	16768
1725.44139	16687.7
1728.67818	16588
1731.91284	16465.5
1735.14537	16384.2
1738.37576	16328.6
1741.60403	16265.8
1744.83017	16232.3
1748.05418	16162.9
1751.27607	16168.3
1754.49584	16153.9
1757.71349	16149.3
1760.92903	16104
1764.14244	16080.7
1767.35375	16081.9
1770.56294	16085.7
1773.77002	16018.2
1776.97499	16009
1780.17785	15945
1783.37861	15911.2
1786.57727	15906.1
1789.77382	15893.3
1792.96828	15864.8
1796.16064	15839.1
1799.3509	15832
1802.53907	15818.9
1805.72514	15756.4
1808.90913	15719.3
1812.09102	15673.4
1815.27083	15623.7
1818.44856	15613.8
1821.6242	15627
1824.79776	15576.6
1827.96924	15549.9
1831.13864	15557.2
1834.30597	15525.7
1837.47122	15547.5
1840.6344	15544.1
1843.7955	15555.9
1846.95454	15515.4
1850.11151	15540.3
1853.26642	15511.2
1856.41926	15552.4
1859.57004	15540.3
1862.71876	15522.5
1865.86542	15525.7
1869.01003	15530.3
1872.15258	15513.7
1875.29308	15558.5
1878.43152	15535
1881.56792	15555.9
1884.70227	15550.7
1887.83457	15543.2
1890.96482	15538.7
1894.09304	15523.5
1897.21921	15536.1
1900.34335	15530.9
1903.46544	15548
1906.58551	15544.4
1909.70353	15561.4
1912.81953	15529.1
1915.93349	15503.2
1919.04543	15476
1922.15534	15503.5
1925.26322	15417.5
1928.36908	15377.6
1931.47292	15358.8
1934.57473	15279.7
1937.67453	15267.1
1940.77232	15218.7
1943.86808	15142.5
1946.96184	15069
1950.05358	15004.2
1953.14331	14928.8
1956.23103	14883.2
1959.31675	14819.3
1962.40046	14832.5
1965.48217	14746.1
1968.56188	14729.1
1971.63959	14676.8
1974.7153	14623.3
1977.78901	14579.2
1980.86073	14529.9
1983.93046	14503.2
1986.99819	14448.5
1990.06394	14416.1
1993.1277	14364.6
1996.18947	14306.2
1999.24925	14252
2002.30706	14195.7
2005.36288	14190.5
2008.41672	14149.5
2011.46859	14097.4
2014.51848	14103.2
2017.56639	14067.3
2020.61233	14006.8
2023.6563	13997.2
2026.6983	13941.6
2029.73833	13916.7
2032.7764	13889.9
2035.8125	13856.4
2038.84664	13831.3
2041.87881	13820.9
2044.90903	13775.6
2047.93729	13758.1
2050.96359	13762.1
2053.98794	13731.9
2057.01034	13721.8
2060.03078	13697.7
2063.04927	13665.8
2066.06582	13702.9
2069.08042	13680.4
2072.09307	13661.3
2075.10378	13597.7
2078.11255	13615.5
2081.11938	13622.9
2084.12426	13625.4
2087.12722	13624.7
2090.12824	13585.8
2093.12732	13548.1
2096.12447	13610.5
2099.11969	13574.5
2102.11299	13539.5
2105.10435	13546.8
2108.09379	13568.8
2111.08131	13580.7
2114.0669	13565.7
2117.05057	13594.4
2120.03233	13608.2
2123.01216	13628.2
2125.99008	13615.4
2128.96609	13650.2
2131.94018	13670.2
2134.91236	13656
2137.88263	13647.6
2140.851	13689.9
2143.81746	13653.4
2146.78201	13669.6
2149.74466	13659.2
2152.7054	13691.2
2155.66425	13650.5
2158.6212	13693.4
2161.57625	13685.3
2164.52941	13658.9
2167.48067	13663.8
2170.43004	13635
2173.37752	13626.8
2176.32311	13621.1
2179.26681	13655
2182.20863	13634.3
2185.14856	13635.1
2188.08661	13649.5
2191.02278	13647.5
2193.95707	13647.2
2196.88948	13620.4
2199.82001	13660
2202.74867	13604.1
2205.67545	13618.9
2208.60037	13590.8
2211.52341	13571.5
2214.44458	13569
2217.36388	13558.7
2220.28132	13563.3
2223.1969	13516.6
2226.11061	13502.4
2229.02246	13500.5
2231.93245	13411.5
2234.84058	13395.3
2237.74686	13382.6
2240.65128	13373.7
2243.55385	13324.1
2246.45456	13335.4
2249.35343	13330.4
2252.25044	13307.6
2255.14561	13291.4
2258.03893	13279.5
2260.93041	13269.8
2263.82004	13236.8
2266.70783	13206.1
2269.59378	13153.4
2272.4779	13101
2275.36017	13074.3
2278.24061	13083.2
2281.11922	13018.9
2283.996	13017.8
2286.87094	13031.7
2289.74405	13005.2
2292.61534	12980.5
2295.4848	12997.5
2298.35243	12977.2
2301.21824	12954.5
2304.08223	12982.6
2306.94439	12988.3
2309.80474	12992.8
2312.66327	13027
2315.51999	12993
2318.37489	12966.3
2321.22797	12993.9
2324.07925	12971.3
2326.92871	12956.9
2329.77637	12927.7
2332.62222	12905.7
2335.46626	12935.4
2338.3085	12945.2
2341.14893	12937.9
2343.98756	12945.8
2346.8244	12961.4
2349.65943	12973.3
2352.49267	12979.2
2355.32411	12978.9
2358.15376	12970.4
2360.98161	12971.5
2363.80768	12959.7
2366.63195	12924.5
2369.45444	12926
2372.27514	12889.8
2375.09405	12872.2
2377.91118	12823.6
2380.72652	12775.6
2383.54009	12721
2386.35187	12720.2
2389.16188	12691.7
2391.97011	12637.2
2394.77657	12632.9
2397.58125	12619.1
2400.38416	12598
2403.18529	12585.5
2405.98466	12544.3
2408.78226	12530.9
2411.57809	12488.8
2414.37216	12467.6
2417.16446	12451.7
2419.955	12416.3
2422.74378	12428.6
2425.5308	12431.3
2428.31606	12422.1
2431.09956	12397.9
2433.88131	12391.9
2436.6613	12408.5
2439.43954	12397.5
2442.21603	12395.7
2444.99077	12388.8
2447.76377	12378.2
2450.53501	12369.7
2453.30451	12386.4
2456.07226	12372.3
2458.83827	12374.2
2461.60254	12361.3
2464.36507	12352.9
2467.12586	12329.2
2469.88492	12295.8
2472.64224	12332.9
2475.39782	12356.3
2478.15167	12368.9
2480.90379	12361.7
2483.65417	12389.7
2486.40283	12433.9
2489.14976	12419.6
2491.89497	12410.4
2494.63845	12471.8
2497.3802	12428.7
2500.12024	12446.8
2502.85855	12435.8
2505.59514	12390.3
2508.33002	12384.5
2511.06318	12372.7
2513.79462	12329.1
2516.52435	12339.6
2519.25237	12318.6
2521.97867	12288
2524.70327	12290
2527.42616	12271.1
2530.14734	12290.7
2532.86681	12249.2
2535.58458	12288.8
2538.30065	12249.7
2541.01501	12241.4
2543.72768	12232.7
2546.43864	12228.9
2549.14791	12225.2
2551.85548	12232.9
2554.56136	12199.1
2557.26554	12196.7
2559.96803	12179
2562.66883	12121.8
2565.36794	12128
2568.06536	12110.5
2570.7611	12084.4
2573.45514	12089.6
2576.14751	12097.6
2578.83819	12055.3
2581.52719	12072.7
2584.21451	12080.9
2586.90015	12073.5
2589.58411	12052.5
2592.2664	12086.4
2594.94701	12047.2
2597.62594	12046.5
2600.30321	12029.6
2602.9788	12026.2
2605.65273	12033.4
2608.32498	12053.4
2610.99557	12030.4
2613.66449	12060.8
2616.33175	12039.3
2618.99734	12062.5
2621.66128	12048.2
2624.32355	12056.4
2626.98416	12046.7
2629.64311	12016.7
2632.30041	11999
2634.95605	12017.8
2637.61004	11992.7
2640.26238	11970.8
2642.91306	11968.8
2645.56209	11950.9
2648.20948	11958.8
2650.85521	11911.2
2653.4993	11928.1
2656.14175	11904.1
2658.78255	11938.8
2661.42171	11935.1
2664.05923	11957.8
2666.6951	11975.3
2669.32934	11992.5
2671.96194	12010.2
2674.59291	12015.4
2677.22224	11999.3
2679.84993	12013
2682.476	11990.6
2685.10043	11994.1
2687.72324	11954.5
2690.34441	11974.4
2692.96396	11958.3
2695.58188	11950.7
2698.19818	11952.7
2700.81285	11942.8
2703.4259	11940.7
2706.03733	11954.9
2708.64714	11925.9
2711.25533	11957.1
2713.86191	11936.6
2716.46687	11982.4
2719.07021	11963.8
2721.67194	11990.3
2724.27206	11982.1
2726.87057	11981.7
2729.46747	11981.1
2732.06276	12002.3
2734.65644	11986.6
2737.24852	12007.5
2739.83899	11964.1
2742.42786	11984
2745.01513	11962.5
2747.60079	11941.1
2750.18486	11926.9
2752.76733	11923.5
2755.3482	11930.9
2757.92747	11926.5
2760.50515	11879.9
2763.08123	11921.7
2765.65573	11901.9
2768.22863	11886.7
2770.79994	11890.1
2773.36967	11876.5
2775.9378	11889.9
2778.50435	11887.3
2781.06932	11910.8
2783.6327	11902.6
2786.1945	11899.1
2788.75471	11898.7
2791.31335	11860.2
2793.87041	11845
2796.42589	11821.4
2798.97979	11815.7
2801.53212	11776.6
2804.08288	11774.9
2806.63206	11766.3
2809.17967	11756.4
2811.72571	11728.7
2814.27018	11722
2816.81308	11698.7
2819.35442	11659.3
2821.89419	11671.9
2824.43239	11666
2826.96904	11667.4
2829.50412	11652.8
2832.03763	11669.8
2834.56959	11630.3
2837.1	11630
2839.62884	11635
2842.15613	11635.3
2844.68186	11644.2
2847.20604	11645.8
2849.72867	11680.9
2852.24974	11675.5
2854.76927	11641.5
2857.28724	11642
2859.80367	11629
2862.31855	11594.1
2864.83189	11601.9
2867.34368	11557.2
2869.85393	11547.6
2872.36264	11581.5
2874.8698	11585.4
2877.37543	11563.7
2879.87952	11565.1
2882.38207	11574.6
2884.88308	11564.6
2887.38256	11543.3
2889.88051	11555.9
2892.37692	11559.5
2894.8718	11557.8
2897.36515	11572.3
2899.85698	11563.5
2902.34727	11606.8
2904.83604	11607.2
2907.32328	11605.8
2909.809	11625.1
2912.29319	11622
2914.77587	11622.2
2917.25702	11602.7
2919.73665	11608.9
2922.21476	11595.2
2924.69136	11600.8
2927.16644	11584.6
2929.64	11562.8
2932.11205	11546.9
2934.58258	11502.8
2937.05161	11526.7
2939.51912	11527.4
2941.98513	11470.7
2944.44962	11446.6
2946.91261	11425.8
2949.37409	11431
2951.83407	11429
2954.29254	11414
2956.74951	11375.3
2959.20498	11421.3
2961.65895	11373.1
2964.11142	11376.2
2966.56239	11371.7
2969.01186	11349
2971.45984	11352.7
2973.90632	11307.3
2976.35131	11303.3
2978.7948	11289
2981.23681	11237.7
2983.67732	11218
2986.11635	11169.9
2988.55388	11182.2
2990.98993	11147.8
2993.4245	11128.2
2995.85758	11106.5
2998.28917	11046
3000.71928	11048.8
3003.14791	11040.6
3005.57506	10997.8
3008.00073	10955.9
3010.42493	10960
3012.84764	10934.6
3015.26888	10901.1
3017.68865	10895.8
3020.10694	10912
3022.52376	10883.4
3024.9391	10870.5
3027.35298	10845.6
3029.76539	10862.6
3032.17632	10844.6
3034.5858	10814.5
3036.9938	10814.9
3039.40034	10833.3
3041.80542	10807.9
3044.20903	10807
3046.61118	10774.8
3049.01187	10761.3
3051.4111	10730.4
3053.80888	10685.8
3056.20519	10672.7
3058.60005	10648.9
3060.99345	10638.1
3063.3854	10626.9
3065.7759	10586.7
3068.16494	10553.8
3070.55254	10513.4
3072.93868	10483.6
3075.32338	10451.7
3077.70662	10454.9
3080.08842	10397
3082.46878	10411.3
3084.84769	10385.8
3087.22515	10390.9
3089.60118	10392.3
3091.97576	10367.1
3094.3489	10354.4
3096.72061	10384.3
3099.09087	10380.6
3101.4597	10369.5
3103.82709	10355.8
3106.19305	10333.6
3108.55757	10300
3110.92066	10277.8
3113.28232	10299.2
3115.64255	10266.4
3118.00134	10259.9
3120.35871	10233.6
3122.71466	10227.5
3125.06917	10170.7
3127.42226	10178.6
3129.77393	10167.2
3132.12417	10166.9
3134.47299	10130
3136.82039	10168.1
3139.16636	10173.4
3141.51092	10146.5
3143.85406	10126.6
3146.19579	10128.3
3148.53609	10118.1
3150.87499	10135.9
3153.21246	10130
3155.54853	10157.8
3157.88318	10143
3160.21642	10161
3162.54826	10153.5
3164.87868	10177.2
3167.2077	10159.4
3169.5353	10172.3
3171.86151	10193.6
3174.18631	10123.7
3176.5097	10152.9
3178.83169	10117.6
3181.15228	10120.5
3183.47147	10095.7
3185.78926	10089.9
3188.10565	10114.1
3190.42065	10067.5
3192.73424	10063.9
3195.04645	10078.2
3197.35725	10061.3
3199.66667	10058.6
3201.97469	10085.1
3204.28132	10084.5
3206.58656	10106
3208.8904	10089.7
3211.19287	10104.9
3213.49394	10107
3215.79363	10103.7
3218.09193	10097.5
3220.38884	10103.8
3222.68438	10121.3
3224.97853	10091.6
3227.2713	10104.2
3229.56269	10071
3231.8527	10076.3
3234.14133	10060.8
3236.42858	10030.9
3238.71446	10020.7
3240.99896	9976.3
3243.28209	9974.5
3245.56384	9998.7
3247.84423	9988.9
3250.12324	9983.4
3252.40088	9952.3
3254.67715	9915.1
3256.95205	9936.3
3259.22558	9955.6
3261.49775	9945.6
3263.76855	9918.5
3266.03799	9908.1
3268.30606	9891.9
3270.57277	9899.4
3272.83812	9858.2
3275.10211	9819.3
3277.36474	9802.9
3279.62601	9829.2
3281.88593	9790.6
3284.14448	9787.4
3286.40168	9796.7
3288.65753	9788.2
3290.91202	9802.9
3293.16516	9752.3
3295.41695	9749.2
3297.66738	9678.3
3299.91647	9647.5
3302.16421	9604.4
3304.4106	9528.9
3306.65564	9494.5
3308.89933	9418.6
3311.14169	9350.7
3313.38269	9248.4
3315.62236	9229
3317.86068	9128.4
3320.09766	9086
3322.3333	8982.3
3324.5676	8940.2
3326.80056	8831.4
3329.03219	8740.9
3331.26248	4.1
3333.49143	-0.5
3335.71905	-0.2
