Data from AgNP_FTO_APTES_UA_10uM_CRN_20uM_R6G_10uM_NaF_0.1M_Addition_RamanShift__2__16-05-10-733.txt Node

Date: Thu Feb 10 16:05:10 GMT 2022
User: TCL
Spectrometer: QEP01345
Trigger mode: 4
Integration Time (sec): 7.000000E0
Scans to average: 10
Electric dark correction enabled: true
Nonlinearity correction enabled: false
Boxcar width: 0
XAxis mode: Raman Shifts
Number of Pixels in Spectrum: 1044
>>>>>Begin Spectral Data<<<<<
46.04893	-1.275
50.45542	-0.775
54.85868	-2.475
59.25871	-1.775
63.6555	75.325
68.04907	79.925
72.43941	84.025
76.82654	85.225
81.21044	89.525
85.59113	88.625
89.96862	98.225
94.34289	98.525
98.71396	103.325
103.08183	103.725
107.4465	108.325
111.80798	105.225
116.16626	113.225
120.52136	119.825
124.87327	125.625
129.222	132.025
133.56755	138.425
137.90993	145.425
142.24913	157.125
146.58517	177.125
150.91804	208.925
155.24774	249.525
159.57429	306.525
163.89768	399.125
168.21792	521.025
172.53501	712.925
176.84895	998.325
181.15975	1409.025
185.46741	1970.125
189.77193	2720.025
194.07331	3610.925
198.37157	4655.425
202.6667	5758.125
206.9587	6833.425
211.24758	7901.025
215.53334	8982.325
219.81599	10095.625
224.09553	11350.825
228.37195	12694.025
232.64527	14224.925
236.91549	15763.225
241.18261	17365.325
245.44663	18806.125
249.70755	20108.725
253.96539	21326.325
258.22014	22315.125
262.4718	23152.425
266.72039	23715.625
270.96589	24062.625
275.20832	24073.425
279.44768	23987.425
283.68397	23780.425
287.91719	23544.725
292.14735	23376.925
296.37445	23368.025
300.59849	23438.625
304.81948	23532.525
309.03742	23563.925
313.25231	23379.825
317.46415	23054.025
321.67296	22580.925
325.87872	22204.525
330.08145	21997.025
334.28114	22018.525
338.47781	22130.825
342.67145	22361.725
346.86207	22754.525
351.04966	23174.425
355.23424	23569.025
359.4158	24008.425
363.59435	24342.525
367.76989	24563.625
371.94243	24757.525
376.11196	24892.725
380.27849	24988.525
384.44203	25126.425
388.60257	25337.825
392.76012	25554.025
396.91468	25897.525
401.06626	26302.725
405.21485	26567.025
409.36047	26497.525
413.50311	26241.225
417.64277	26170.625
421.77947	26178.025
425.9132	26319.725
430.04396	26507.225
434.17176	26636.825
438.2966	26843.525
442.41849	27274.525
446.53742	28107.525
450.6534	28944.825
454.76644	29636.625
458.87653	29794.725
462.98368	29573.125
467.08789	29106.025
471.18916	28604.625
475.2875	28054.625
479.38291	27847.825
483.4754	27626.425
487.56496	27367.225
491.6516	27001.525
495.73531	26631.325
499.81612	26467.125
503.89401	26552.525
507.96899	26634.425
512.04106	26599.125
516.11023	26438.125
520.1765	26149.425
524.23987	25991.225
528.30034	25794.725
532.35792	25612.125
536.41261	25308.025
540.46441	25048.825
544.51333	25057.025
548.55936	25316.025
552.60252	25798.825
556.64279	26410.325
560.6802	26934.425
564.71473	27180.025
568.7464	27624.225
572.7752	28339.725
576.80114	29058.925
580.82422	29797.425
584.84444	30861.925
588.86181	32119.625
592.87633	33058.025
596.888	32813.225
600.89682	31523.525
604.9028	31247.225
608.90594	32946.825
612.90624	34800.525
616.90371	32625.125
620.89834	28237.925
624.89015	26419.025
628.87913	26126.925
632.86528	26122.725
636.84862	25965.625
640.82913	25535.625
644.80683	25000.725
648.78172	24658.125
652.75379	24704.525
656.72306	25036.925
660.68952	25312.825
664.65319	25151.325
668.61405	24788.525
672.57211	24786.825
676.52738	24890.325
680.47986	24830.925
684.42955	24662.425
688.37646	24615.525
692.32058	24795.125
696.26192	25193.925
700.20048	25583.725
704.13626	25784.525
708.06928	25741.925
711.99952	25548.225
715.927	25584.025
719.85171	25701.325
723.77365	25658.825
727.69284	25325.025
731.60928	24996.125
735.52295	24882.525
739.43388	24857.025
743.34206	24924.625
747.24749	25112.725
751.15017	25333.925
755.05012	25805.525
758.94733	26456.525
762.8418	27529.225
766.73354	29094.525
770.62254	30384.525
774.50882	30519.725
778.39237	29372.325
782.27321	27688.225
786.15132	26371.725
790.02671	25558.525
793.89938	25171.725
797.76935	25024.225
801.6366	24991.125
805.50115	24924.325
809.36299	24792.525
813.22213	24607.425
817.07857	24527.625
820.93231	24460.125
824.78336	24362.425
828.63172	24245.925
832.47738	24276.425
836.32036	24333.425
840.16066	24465.925
843.99827	24563.225
847.8332	24508.025
851.66546	24421.125
855.49504	24402.525
859.32195	24433.125
863.1462	24335.125
866.96777	24241.725
870.78668	24173.025
874.60293	24179.625
878.41652	24203.425
882.22745	24284.625
886.03573	24352.725
889.84136	24307.925
893.64433	24165.525
897.44466	24114.825
901.24235	24014.925
905.0374	23965.725
908.8298	23990.925
912.61957	24082.825
916.40671	24306.325
920.19121	24636.125
923.97308	24920.425
927.75233	24971.725
931.52895	24780.625
935.30295	24449.025
939.07433	24065.025
942.84309	23820.725
946.60924	23755.325
950.37278	23726.725
954.13371	23705.325
957.89203	23619.025
961.64774	23568.925
965.40086	23591.925
969.15137	23507.325
972.89929	23490.725
976.64461	23457.225
980.38733	23518.825
984.12747	23596.025
987.86502	23798.425
991.59999	24069.225
995.33237	24481.325
999.06217	25125.225
1002.78939	25796.425
1006.51404	26352.725
1010.23611	26709.025
1013.95561	26912.525
1017.67255	26851.525
1021.38692	26531.725
1025.09872	26216.625
1028.80796	26312.225
1032.51465	26893.125
1036.21877	27570.625
1039.92035	27728.525
1043.61937	27484.925
1047.31584	26898.825
1051.00976	26272.025
1054.70114	26005.325
1058.38998	25914.725
1062.07627	25990.025
1065.76003	26128.525
1069.44126	26308.525
1073.11995	26650.725
1076.79611	26965.125
1080.46974	27202.525
1084.14085	27445.425
1087.80943	27714.325
1091.47549	27891.225
1095.13903	27862.625
1098.80005	27555.825
1102.45857	27025.825
1106.11456	26675.625
1109.76805	26518.725
1113.41903	26564.125
1117.06751	26680.725
1120.71348	26869.525
1124.35696	27015.325
1127.99793	27291.125
1131.63641	27410.825
1135.2724	27392.725
1138.90589	27367.025
1142.5369	27390.225
1146.16542	27605.125
1149.79145	27807.925
1153.415	28092.925
1157.03607	28529.225
1160.65467	29411.125
1164.27079	30877.525
1167.88443	32437.925
1171.49561	34071.925
1175.10432	36067.025
1178.71056	38695.525
1182.31434	41107.125
1185.91565	42233.425
1189.51451	41870.725
1193.11091	40691.525
1196.70485	39313.625
1200.29634	38120.725
1203.88538	37413.925
1207.47197	37046.325
1211.05612	36711.725
1214.63782	36010.525
1218.21708	35102.225
1221.79391	34346.225
1225.36829	33767.425
1228.94024	33164.425
1232.50976	32565.725
1236.07685	32017.525
1239.6415	31767.825
1243.20374	31808.625
1246.76355	32066.125
1250.32093	32674.625
1253.8759	33405.925
1257.42845	34303.725
1260.97859	35205.525
1264.52631	36206.825
1268.07163	37282.725
1271.61453	38472.725
1275.15503	39641.725
1278.69312	40806.125
1282.22882	41839.325
1285.76211	43073.925
1289.29301	44511.525
1292.82151	46464.425
1296.34761	48924.525
1299.87133	51966.925
1303.39266	55356.425
1306.9116	58328.025
1310.42815	60431.625
1313.94233	61356.625
1317.45412	60771.425
1320.96354	59485.325
1324.47058	58417.425
1327.97525	57580.425
1331.47754	56954.625
1334.97747	56632.225
1338.47502	56046.525
1341.97022	55104.725
1345.46305	53713.425
1348.95352	52662.925
1352.44163	52492.825
1355.92738	53684.425
1359.41078	55945.325
1362.89183	57583.625
1366.37053	56327.225
1369.84688	51923.225
1373.32088	46717.225
1376.79254	43231.725
1380.26186	42183.725
1383.72883	42433.525
1387.19347	42652.125
1390.65578	42340.725
1394.11575	42281.325
1397.57339	42878.025
1401.0287	43806.225
1404.48168	44558.225
1407.93234	44648.225
1411.38068	44047.125
1414.82669	42693.825
1418.27039	40983.625
1421.71177	39200.525
1425.15083	37699.225
1428.58758	37030.225
1432.02203	37451.025
1435.45416	38502.025
1438.88399	39870.825
1442.31151	40865.125
1445.73673	41498.225
1449.15965	41712.625
1452.58027	41634.425
1455.9986	41448.925
1459.41463	41493.025
1462.82837	41948.625
1466.23982	42753.325
1469.64898	43568.725
1473.05586	44129.725
1476.46045	44284.425
1479.86276	43939.425
1483.26279	43385.925
1486.66054	43049.725
1490.05602	42987.725
1493.44922	43121.325
1496.84016	43181.225
1500.22882	43444.625
1503.61521	44031.425
1506.99934	44875.925
1510.38121	45617.525
1513.76081	45694.925
1517.13816	45006.325
1520.51324	43820.225
1523.88607	43022.425
1527.25665	42866.625
1530.62498	43096.125
1533.99105	43234.625
1537.35488	42930.225
1540.71647	42220.325
1544.07581	41176.125
1547.4329	40117.025
1550.78776	39134.225
1554.14038	38513.825
1557.49077	38047.125
1560.83892	37757.825
1564.18484	37583.025
1567.52853	37637.925
1570.86999	37932.325
1574.20922	38598.425
1577.54624	39374.325
1580.88103	39958.925
1584.2136	40725.525
1587.54395	42509.925
1590.87208	45107.025
1594.19801	48133.825
1597.52172	50706.425
1600.84321	51161.425
1604.16251	48572.225
1607.47959	44246.125
1610.79447	39833.225
1614.10715	36038.225
1617.41763	33427.925
1620.7259	31785.425
1624.03199	31160.825
1627.33587	31378.325
1630.63757	32518.525
1633.93707	34710.725
1637.23439	38181.425
1640.52951	43024.425
1643.82246	48636.025
1647.11321	52540.625
1650.40179	52426.025
1653.68819	47914.125
1656.97241	41243.325
1660.25446	35269.225
1663.53433	31028.725
1666.81203	28382.525
1670.08756	26734.525
1673.36092	25729.525
1676.63211	25072.225
1679.90115	24585.025
1683.16801	24226.625
1686.43272	23981.025
1689.69527	23788.625
1692.95567	23659.425
1696.2139	23549.025
1699.46999	23533.425
1702.72392	23463.025
1705.97571	23393.825
1709.22535	23302.325
1712.47284	23246.925
1715.71819	23198.425
1718.96139	23215.125
1722.20246	23113.925
1725.44139	23012.225
1728.67818	22905.825
1731.91284	22760.625
1735.14537	22658.125
1738.37576	22574.525
1741.60403	22481.525
1744.83017	22422.925
1748.05418	22358.825
1751.27607	22330.125
1754.49584	22297.125
1757.71349	22313.025
1760.92903	22268.425
1764.14244	22246.425
1767.35375	22254.525
1770.56294	22228.925
1773.77002	22203.025
1776.97499	22181.825
1780.17785	22096.225
1783.37861	22086.325
1786.57727	22035.325
1789.77382	22037.625
1792.96828	22009.325
1796.16064	21952.425
1799.3509	21928.725
1802.53907	21929.125
1805.72514	21873.825
1808.90913	21810.825
1812.09102	21744.725
1815.27083	21708.925
1818.44856	21706.825
1821.6242	21637.325
1824.79776	21621.325
1827.96924	21631.825
1831.13864	21615.325
1834.30597	21628.125
1837.47122	21618.325
1840.6344	21629.025
1843.7955	21635.225
1846.95454	21656.525
1850.11151	21645.225
1853.26642	21598.225
1856.41926	21596.525
1859.57004	21581.325
1862.71876	21585.325
1865.86542	21520.325
1869.01003	21518.825
1872.15258	21514.925
1875.29308	21534.425
1878.43152	21500.225
1881.56792	21523.225
1884.70227	21494.525
1887.83457	21445.425
1890.96482	21424.425
1894.09304	21387.325
1897.21921	21358.225
1900.34335	21380.425
1903.46544	21337.825
1906.58551	21319.925
1909.70353	21327.025
1912.81953	21255.925
1915.93349	21252.025
1919.04543	21215.325
1922.15534	21164.125
1925.26322	21149.525
1928.36908	21081.225
1931.47292	21071.425
1934.57473	21028.125
1937.67453	20999.225
1940.77232	20965.425
1943.86808	20891.425
1946.96184	20819.625
1950.05358	20765.825
1953.14331	20688.225
1956.23103	20666.525
1959.31675	20605.225
1962.40046	20555.725
1965.48217	20487.225
1968.56188	20436.225
1971.63959	20381.825
1974.7153	20333.325
1977.78901	20262.725
1980.86073	20237.725
1983.93046	20153.925
1986.99819	20111.725
1990.06394	20081.325
1993.1277	20025.325
1996.18947	19939.425
1999.24925	19905.225
2002.30706	19858.425
2005.36288	19841.325
2008.41672	19772.525
2011.46859	19702.325
2014.51848	19684.725
2017.56639	19662.625
2020.61233	19622.525
2023.6563	19551.025
2026.6983	19533.025
2029.73833	19504.625
2032.7764	19458.025
2035.8125	19483.625
2038.84664	19369.925
2041.87881	19356.525
2044.90903	19293.825
2047.93729	19272.725
2050.96359	19306.325
2053.98794	19270.325
2057.01034	19272.925
2060.03078	19225.825
2063.04927	19236.325
2066.06582	19236.825
2069.08042	19231.125
2072.09307	19232.625
2075.10378	19202.525
2078.11255	19178.125
2081.11938	19178.925
2084.12426	19187.525
2087.12722	19179.425
2090.12824	19157.925
2093.12732	19155.525
2096.12447	19160.925
2099.11969	19171.525
2102.11299	19164.825
2105.10435	19172.025
2108.09379	19181.025
2111.08131	19196.525
2114.0669	19196.825
2117.05057	19189.425
2120.03233	19226.425
2123.01216	19305.125
2125.99008	19285.825
2128.96609	19321.525
2131.94018	19335.125
2134.91236	19345.625
2137.88263	19361.625
2140.851	19389.625
2143.81746	19395.125
2146.78201	19383.525
2149.74466	19390.925
2152.7054	19396.625
2155.66425	19411.125
2158.6212	19412.125
2161.57625	19409.525
2164.52941	19411.725
2167.48067	19397.525
2170.43004	19386.825
2173.37752	19366.125
2176.32311	19423.625
2179.26681	19426.625
2182.20863	19405.125
2185.14856	19425.325
2188.08661	19409.825
2191.02278	19425.825
2193.95707	19466.825
2196.88948	19450.125
2199.82001	19458.825
2202.74867	19422.725
2205.67545	19416.025
2208.60037	19373.925
2211.52341	19391.325
2214.44458	19376.725
2217.36388	19300.725
2220.28132	19330.325
2223.1969	19273.225
2226.11061	19243.025
2229.02246	19264.825
2231.93245	19179.525
2234.84058	19122.825
2237.74686	19122.025
2240.65128	19112.825
2243.55385	19104.625
2246.45456	19038.425
2249.35343	19028.925
2252.25044	19018.525
2255.14561	18958.725
2258.03893	18984.725
2260.93041	18943.425
2263.82004	18896.025
2266.70783	18831.325
2269.59378	18764.125
2272.4779	18677.725
2275.36017	18691.425
2278.24061	18683.925
2281.11922	18631.825
2283.996	18671.025
2286.87094	18629.525
2289.74405	18637.625
2292.61534	18594.525
2295.4848	18589.625
2298.35243	18637.425
2301.21824	18607.925
2304.08223	18646.025
2306.94439	18653.325
2309.80474	18669.425
2312.66327	18677.625
2315.51999	18658.625
2318.37489	18650.425
2321.22797	18639.625
2324.07925	18650.825
2326.92871	18608.425
2329.77637	18576.925
2332.62222	18570.525
2335.46626	18532.425
2338.3085	18532.325
2341.14893	18565.025
2343.98756	18565.025
2346.8244	18551.525
2349.65943	18559.725
2352.49267	18513.425
2355.32411	18550.425
2358.15376	18515.225
2360.98161	18550.525
2363.80768	18513.525
2366.63195	18507.525
2369.45444	18474.025
2372.27514	18440.025
2375.09405	18415.025
2377.91118	18389.625
2380.72652	18322.925
2383.54009	18323.625
2386.35187	18293.225
2389.16188	18250.525
2391.97011	18230.825
2394.77657	18224.725
2397.58125	18218.325
2400.38416	18152.625
2403.18529	18160.525
2405.98466	18128.325
2408.78226	18107.925
2411.57809	18054.825
2414.37216	18087.325
2417.16446	18079.625
2419.955	18008.125
2422.74378	18047.125
2425.5308	18011.025
2428.31606	17967.425
2431.09956	17994.125
2433.88131	17977.125
2436.6613	18008.825
2439.43954	18013.025
2442.21603	18009.425
2444.99077	17995.525
2447.76377	17986.725
2450.53501	17997.525
2453.30451	17961.125
2456.07226	17953.725
2458.83827	17965.325
2461.60254	17973.725
2464.36507	17925.025
2467.12586	17940.825
2469.88492	17936.025
2472.64224	17953.525
2475.39782	17968.525
2478.15167	17986.325
2480.90379	17969.925
2483.65417	18045.825
2486.40283	18032.025
2489.14976	18032.425
2491.89497	18023.225
2494.63845	18050.325
2497.3802	18044.725
2500.12024	18055.525
2502.85855	18023.525
2505.59514	18008.125
2508.33002	18037.125
2511.06318	18013.725
2513.79462	18003.325
2516.52435	17973.825
2519.25237	17965.725
2521.97867	17940.525
2524.70327	17954.625
2527.42616	17929.025
2530.14734	17940.625
2532.86681	17924.425
2535.58458	17943.725
2538.30065	17925.725
2541.01501	17928.625
2543.72768	17907.725
2546.43864	17939.525
2549.14791	17879.425
2551.85548	17915.625
2554.56136	17904.825
2557.26554	17865.625
2559.96803	17838.825
2562.66883	17838.225
2565.36794	17800.225
2568.06536	17783.625
2570.7611	17810.525
2573.45514	17790.425
2576.14751	17783.725
2578.83819	17761.725
2581.52719	17774.425
2584.21451	17754.225
2586.90015	17767.525
2589.58411	17729.725
2592.2664	17731.425
2594.94701	17737.125
2597.62594	17735.225
2600.30321	17699.425
2602.9788	17687.125
2605.65273	17704.325
2608.32498	17749.725
2610.99557	17711.925
2613.66449	17728.025
2616.33175	17721.325
2618.99734	17720.225
2621.66128	17678.225
2624.32355	17649.825
2626.98416	17677.925
2629.64311	17692.125
2632.30041	17647.825
2634.95605	17650.625
2637.61004	17616.425
2640.26238	17595.025
2642.91306	17604.025
2645.56209	17571.825
2648.20948	17598.825
2650.85521	17571.125
2653.4993	17601.525
2656.14175	17600.525
2658.78255	17612.125
2661.42171	17622.625
2664.05923	17666.925
2666.6951	17689.125
2669.32934	17708.725
2671.96194	17676.025
2674.59291	17745.425
2677.22224	17711.025
2679.84993	17709.325
2682.476	17704.725
2685.10043	17696.525
2687.72324	17672.825
2690.34441	17667.425
2692.96396	17662.225
2695.58188	17678.825
2698.19818	17657.025
2700.81285	17678.425
2703.4259	17706.725
2706.03733	17718.425
2708.64714	17690.925
2711.25533	17729.625
2713.86191	17704.625
2716.46687	17735.625
2719.07021	17737.625
2721.67194	17800.425
2724.27206	17799.325
2726.87057	17826.825
2729.46747	17837.325
2732.06276	17881.825
2734.65644	17828.225
2737.24852	17860.025
2739.83899	17813.525
2742.42786	17873.325
2745.01513	17826.925
2747.60079	17811.025
2750.18486	17814.525
2752.76733	17786.125
2755.3482	17784.325
2757.92747	17763.925
2760.50515	17742.625
2763.08123	17763.625
2765.65573	17731.625
2768.22863	17732.325
2770.79994	17761.425
2773.36967	17798.425
2775.9378	17783.425
2778.50435	17788.125
2781.06932	17775.325
2783.6327	17804.325
2786.1945	17774.725
2788.75471	17758.425
2791.31335	17728.525
2793.87041	17730.025
2796.42589	17707.125
2798.97979	17716.125
2801.53212	17647.625
2804.08288	17647.425
2806.63206	17605.925
2809.17967	17563.025
2811.72571	17541.725
2814.27018	17534.225
2816.81308	17462.325
2819.35442	17465.225
2821.89419	17407.325
2824.43239	17394.325
2826.96904	17366.225
2829.50412	17383.725
2832.03763	17345.825
2834.56959	17378.725
2837.1	17345.925
2839.62884	17323.825
2842.15613	17319.925
2844.68186	17372.025
2847.20604	17359.625
2849.72867	17339.325
2852.24974	17347.125
2854.76927	17307.125
2857.28724	17283.625
2859.80367	17262.925
2862.31855	17253.025
2864.83189	17227.025
2867.34368	17217.425
2869.85393	17217.925
2872.36264	17221.525
2874.8698	17222.725
2877.37543	17232.625
2879.87952	17215.325
2882.38207	17227.025
2884.88308	17234.625
2887.38256	17251.125
2889.88051	17248.025
2892.37692	17262.425
2894.8718	17271.625
2897.36515	17312.225
2899.85698	17333.425
2902.34727	17328.125
2904.83604	17363.725
2907.32328	17368.425
2909.809	17372.125
2912.29319	17385.925
2914.77587	17375.825
2917.25702	17397.325
2919.73665	17353.125
2922.21476	17374.025
2924.69136	17367.025
2927.16644	17369.225
2929.64	17312.125
2932.11205	17312.425
2934.58258	17265.125
2937.05161	17311.425
2939.51912	17275.125
2941.98513	17290.425
2944.44962	17265.325
2946.91261	17193.025
2949.37409	17280.225
2951.83407	17246.025
2954.29254	17246.025
2956.74951	17247.025
2959.20498	17258.325
2961.65895	17222.525
2964.11142	17266.225
2966.56239	17226.225
2969.01186	17236.025
2971.45984	17160.525
2973.90632	17200.925
2976.35131	17163.325
2978.7948	17115.625
2981.23681	17099.025
2983.67732	17059.925
2986.11635	17022.025
2988.55388	17006.425
2990.98993	16978.225
2993.4245	16912.425
2995.85758	16863.325
2998.28917	16844.525
3000.71928	16816.425
3003.14791	16777.225
3005.57506	16770.825
3008.00073	16698.425
3010.42493	16593.425
3012.84764	16670.425
3015.26888	16653.925
3017.68865	16600.725
3020.10694	16598.925
3022.52376	16561.225
3024.9391	16581.325
3027.35298	16584.825
3029.76539	16567.725
3032.17632	16598.925
3034.5858	16560.825
3036.9938	16559.325
3039.40034	16575.125
3041.80542	16583.225
3044.20903	16520.625
3046.61118	16525.125
3049.01187	16472.625
3051.4111	16451.525
3053.80888	16426.225
3056.20519	16352.925
3058.60005	16351.525
3060.99345	16345.125
3063.3854	16301.725
3065.7759	16237.925
3068.16494	16223.925
3070.55254	16185.825
3072.93868	16146.025
3075.32338	16109.025
3077.70662	16083.525
3080.08842	16043.725
3082.46878	16035.425
3084.84769	16065.025
3087.22515	16045.825
3089.60118	16044.125
3091.97576	16018.625
3094.3489	16024.525
3096.72061	16042.125
3099.09087	16031.125
3101.4597	16023.025
3103.82709	16003.625
3106.19305	15976.525
3108.55757	15958.025
3110.92066	15972.925
3113.28232	15926.825
3115.64255	15886.025
3118.00134	15871.725
3120.35871	15841.325
3122.71466	15805.825
3125.06917	15786.425
3127.42226	15752.125
