Data from AgNP_FTO_APTES_UA_10uM_CRN_500uM_R6G_10uM_NaF_0.1M_Addition_RamanShift__21__19-04-50-954.txt Node

Date: Thu Feb 10 19:04:50 GMT 2022
User: TCL
Spectrometer: QEP01345
Trigger mode: 4
Integration Time (sec): 7.000000E0
Scans to average: 10
Electric dark correction enabled: true
Nonlinearity correction enabled: false
Boxcar width: 0
XAxis mode: Raman Shifts
Number of Pixels in Spectrum: 1044
>>>>>Begin Spectral Data<<<<<
46.04893	-0.7375
50.45542	-0.4375
54.85868	-1.0375
59.25871	-1.3375
63.6555	62.1625
68.04907	65.9625
72.43941	69.9625
76.82654	65.7625
81.21044	76.0625
85.59113	77.1625
89.96862	79.4625
94.34289	79.5625
98.71396	85.4625
103.08183	90.1625
107.4465	92.8625
111.80798	89.9625
116.16626	92.6625
120.52136	97.9625
124.87327	100.9625
129.222	104.0625
133.56755	115.4625
137.90993	118.1625
142.24913	129.0625
146.58517	146.8625
150.91804	171.0625
155.24774	204.7625
159.57429	248.7625
163.89768	323.3625
168.21792	422.2625
172.53501	585.4625
176.84895	807.7625
181.15975	1150.8625
185.46741	1605.8625
189.77193	2220.7625
194.07331	2992.1625
198.37157	3849.2625
202.6667	4775.2625
206.9587	5663.8625
211.24758	6559.9625
215.53334	7451.6625
219.81599	8393.6625
224.09553	9398.7625
228.37195	10516.9625
232.64527	11771.2625
236.91549	13066.0625
241.18261	14379.0625
245.44663	15664.1625
249.70755	16868.4625
253.96539	17874.2625
258.22014	18788.1625
262.4718	19488.1625
266.72039	19983.8625
270.96589	20336.5625
275.20832	20405.6625
279.44768	20356.0625
283.68397	20135.8625
287.91719	19989.9625
292.14735	19855.7625
296.37445	19828.5625
300.59849	19855.4625
304.81948	19858.2625
309.03742	19728.6625
313.25231	19495.6625
317.46415	19101.2625
321.67296	18643.3625
325.87872	18314.5625
330.08145	18212.4625
334.28114	18203.8625
338.47781	18323.8625
342.67145	18547.5625
346.86207	18828.3625
351.04966	19159.3625
355.23424	19521.9625
359.4158	19885.8625
363.59435	20090.9625
367.76989	20306.4625
371.94243	20455.5625
376.11196	20650.1625
380.27849	20772.3625
384.44203	20911.4625
388.60257	21033.5625
392.76012	21186.6625
396.91468	21345.3625
401.06626	21618.6625
405.21485	21773.9625
409.36047	21748.0625
413.50311	21582.9625
417.64277	21406.4625
421.77947	21385.5625
425.9132	21466.8625
430.04396	21634.5625
434.17176	21821.7625
438.2966	22038.7625
442.41849	22453.1625
446.53742	22956.2625
450.6534	23519.8625
454.76644	23962.6625
458.87653	24150.7625
462.98368	24097.5625
467.08789	23881.9625
471.18916	23633.8625
475.2875	23502.9625
479.38291	23446.7625
483.4754	23349.7625
487.56496	23152.0625
491.6516	22804.4625
495.73531	22429.8625
499.81612	22243.1625
503.89401	22227.9625
507.96899	22253.2625
512.04106	22248.0625
516.11023	22170.0625
520.1765	22078.9625
524.23987	21983.5625
528.30034	21823.2625
532.35792	21740.0625
536.41261	21585.7625
540.46441	21418.3625
544.51333	21480.1625
548.55936	21644.1625
552.60252	21972.9625
556.64279	22412.8625
560.6802	22696.5625
564.71473	22942.9625
568.7464	23227.3625
572.7752	23628.6625
576.80114	23845.8625
580.82422	23855.9625
584.84444	23966.2625
588.86181	24178.0625
592.87633	24559.2625
596.888	24717.3625
600.89682	24581.6625
604.9028	24861.7625
608.90594	26248.8625
612.90624	27930.3625
616.90371	26870.5625
620.89834	23592.7625
624.89015	22132.0625
628.87913	21920.8625
632.86528	21980.9625
636.84862	21981.8625
640.82913	21858.3625
644.80683	21508.8625
648.78172	21258.4625
652.75379	21152.1625
656.72306	21290.1625
660.68952	21526.4625
664.65319	21449.3625
668.61405	21255.6625
672.57211	21175.1625
676.52738	21214.2625
680.47986	21240.6625
684.42955	21237.0625
688.37646	21150.7625
692.32058	21195.9625
696.26192	21334.9625
700.20048	21484.9625
704.13626	21595.9625
708.06928	21619.6625
711.99952	21476.8625
715.927	21425.5625
719.85171	21455.6625
723.77365	21463.6625
727.69284	21372.3625
731.60928	21219.8625
735.52295	21167.7625
739.43388	21201.1625
743.34206	21255.8625
747.24749	21278.7625
751.15017	21372.5625
755.05012	21612.7625
758.94733	22003.0625
762.8418	22726.6625
766.73354	23873.4625
770.62254	25074.7625
774.50882	25444.4625
778.39237	24715.1625
782.27321	23291.3625
786.15132	22134.4625
790.02671	21415.0625
793.89938	21098.5625
797.76935	20992.5625
801.6366	20963.3625
805.50115	20927.2625
809.36299	20906.4625
813.22213	20785.4625
817.07857	20780.4625
820.93231	20786.4625
824.78336	20712.9625
828.63172	20704.5625
832.47738	20724.4625
836.32036	20656.6625
840.16066	20690.4625
843.99827	20671.3625
847.8332	20689.5625
851.66546	20640.1625
855.49504	20648.8625
859.32195	20675.6625
863.1462	20647.2625
866.96777	20630.5625
870.78668	20597.9625
874.60293	20582.3625
878.41652	20587.6625
882.22745	20595.6625
886.03573	20643.0625
889.84136	20619.4625
893.64433	20561.5625
897.44466	20556.0625
901.24235	20480.1625
905.0374	20415.5625
908.8298	20328.2625
912.61957	20303.6625
916.40671	20409.4625
920.19121	20569.9625
923.97308	20692.7625
927.75233	20694.1625
931.52895	20623.4625
935.30295	20488.2625
939.07433	20249.5625
942.84309	20038.5625
946.60924	19889.9625
950.37278	19842.0625
954.13371	19799.1625
957.89203	19775.1625
961.64774	19738.6625
965.40086	19709.7625
969.15137	19629.1625
972.89929	19531.6625
976.64461	19469.4625
980.38733	19496.7625
984.12747	19517.0625
987.86502	19639.5625
991.59999	19754.6625
995.33237	19991.2625
999.06217	20327.3625
1002.78939	20682.0625
1006.51404	20936.7625
1010.23611	21077.7625
1013.95561	21161.2625
1017.67255	21223.3625
1021.38692	21072.3625
1025.09872	20861.2625
1028.80796	20826.1625
1032.51465	21020.5625
1036.21877	21261.8625
1039.92035	21305.6625
1043.61937	21208.7625
1047.31584	20947.5625
1051.00976	20731.5625
1054.70114	20658.0625
1058.38998	20655.5625
1062.07627	20766.6625
1065.76003	20892.9625
1069.44126	20926.3625
1073.11995	20970.8625
1076.79611	21136.9625
1080.46974	21190.8625
1084.14085	21287.4625
1087.80943	21458.4625
1091.47549	21596.8625
1095.13903	21627.8625
1098.80005	21486.9625
1102.45857	21261.9625
1106.11456	21092.3625
1109.76805	21089.1625
1113.41903	21174.1625
1117.06751	21326.8625
1120.71348	21528.1625
1124.35696	21691.7625
1127.99793	21894.1625
1131.63641	21992.6625
1135.2724	21889.4625
1138.90589	21663.2625
1142.5369	21568.5625
1146.16542	21539.6625
1149.79145	21608.6625
1153.415	21748.9625
1157.03607	21919.8625
1160.65467	22358.9625
1164.27079	23060.0625
1167.88443	23947.0625
1171.49561	25029.2625
1175.10432	26342.0625
1178.71056	28008.4625
1182.31434	29671.4625
1185.91565	30544.3625
1189.51451	30572.2625
1193.11091	29994.0625
1196.70485	29135.7625
1200.29634	28258.2625
1203.88538	27533.2625
1207.47197	26968.8625
1211.05612	26462.8625
1214.63782	26026.2625
1218.21708	25733.3625
1221.79391	25492.2625
1225.36829	25271.4625
1228.94024	24943.8625
1232.50976	24529.2625
1236.07685	24234.4625
1239.6415	24133.4625
1243.20374	24131.0625
1246.76355	24274.9625
1250.32093	24552.9625
1253.8759	24859.1625
1257.42845	25359.8625
1260.97859	25800.1625
1264.52631	26259.1625
1268.07163	26762.0625
1271.61453	27280.7625
1275.15503	27789.4625
1278.69312	28407.2625
1282.22882	28910.5625
1285.76211	29422.5625
1289.29301	30066.3625
1292.82151	31045.6625
1296.34761	32329.2625
1299.87133	33867.5625
1303.39266	35544.4625
1306.9116	37376.2625
1310.42815	39115.2625
1313.94233	40306.7625
1317.45412	40459.0625
1320.96354	39900.3625
1324.47058	39188.3625
1327.97525	38554.5625
1331.47754	38124.7625
1334.97747	38048.0625
1338.47502	38200.2625
1341.97022	38365.2625
1345.46305	38076.8625
1348.95352	37554.5625
1352.44163	37117.9625
1355.92738	37130.5625
1359.41078	37882.8625
1362.89183	38761.5625
1366.37053	38134.2625
1369.84688	35510.6625
1373.32088	32371.4625
1376.79254	30260.7625
1380.26186	29431.7625
1383.72883	29399.2625
1387.19347	29561.9625
1390.65578	29602.3625
1394.11575	29759.6625
1397.57339	30216.5625
1401.0287	30904.4625
1404.48168	31605.9625
1407.93234	31892.4625
1411.38068	31652.3625
1414.82669	30912.3625
1418.27039	29831.5625
1421.71177	28563.1625
1425.15083	27458.1625
1428.58758	26789.4625
1432.02203	26692.5625
1435.45416	27041.4625
1438.88399	27605.9625
1442.31151	28168.2625
1445.73673	28604.5625
1449.15965	29146.4625
1452.58027	29530.3625
1455.9986	29753.0625
1459.41463	29973.6625
1462.82837	30186.0625
1466.23982	30570.2625
1469.64898	30939.2625
1473.05586	31106.1625
1476.46045	31029.8625
1479.86276	30783.5625
1483.26279	30462.1625
1486.66054	30194.5625
1490.05602	30051.4625
1493.44922	30002.8625
1496.84016	29942.2625
1500.22882	30050.6625
1503.61521	30444.3625
1506.99934	31256.6625
1510.38121	32098.8625
1513.76081	32439.0625
1517.13816	31959.1625
1520.51324	30927.5625
1523.88607	29964.4625
1527.25665	29450.7625
1530.62498	29273.0625
1533.99105	29305.0625
1537.35488	29333.1625
1540.71647	29205.6625
1544.07581	29015.7625
1547.4329	28685.9625
1550.78776	28263.7625
1554.14038	27934.5625
1557.49077	27727.1625
1560.83892	27687.9625
1564.18484	27630.0625
1567.52853	27618.4625
1570.86999	27718.9625
1574.20922	28002.5625
1577.54624	28297.6625
1580.88103	28439.0625
1584.2136	28598.9625
1587.54395	29227.1625
1590.87208	30280.2625
1594.19801	31715.3625
1597.52172	33252.8625
1600.84321	33907.7625
1604.16251	33040.9625
1607.47959	31147.2625
1610.79447	28903.5625
1614.10715	26734.0625
1617.41763	24975.9625
1620.7259	23722.4625
1624.03199	23021.9625
1627.33587	22898.2625
1630.63757	23273.5625
1633.93707	24286.4625
1637.23439	25929.4625
1640.52951	28259.9625
1643.82246	30905.7625
1647.11321	32993.8625
1650.40179	33494.9625
1653.68819	31799.8625
1656.97241	28631.0625
1660.25446	25301.6625
1663.53433	22857.8625
1666.81203	21184.2625
1670.08756	20137.1625
1673.36092	19466.6625
1676.63211	18995.7625
1679.90115	18696.4625
1683.16801	18447.8625
1686.43272	18296.2625
1689.69527	18113.3625
1692.95567	18030.3625
1696.2139	17982.1625
1699.46999	17938.5625
1702.72392	17886.8625
1705.97571	17829.8625
1709.22535	17750.8625
1712.47284	17719.7625
1715.71819	17714.7625
1718.96139	17679.6625
1722.20246	17616.5625
1725.44139	17552.4625
1728.67818	17469.1625
1731.91284	17391.6625
1735.14537	17333.1625
1738.37576	17248.2625
1741.60403	17209.1625
1744.83017	17161.5625
1748.05418	17167.3625
1751.27607	17139.2625
1754.49584	17141.5625
1757.71349	17112.6625
1760.92903	17093.3625
1764.14244	17067.2625
1767.35375	17067.5625
1770.56294	17017.5625
1773.77002	16988.4625
1776.97499	16945.3625
1780.17785	16936.8625
1783.37861	16906.8625
1786.57727	16851.4625
1789.77382	16823.4625
1792.96828	16803.1625
1796.16064	16758.3625
1799.3509	16734.9625
1802.53907	16690.3625
1805.72514	16666.0625
1808.90913	16639.6625
1812.09102	16617.8625
1815.27083	16575.0625
1818.44856	16530.6625
1821.6242	16517.4625
1824.79776	16479.4625
1827.96924	16461.1625
1831.13864	16413.3625
1834.30597	16431.9625
1837.47122	16423.5625
1840.6344	16409.6625
1843.7955	16399.9625
1846.95454	16371.3625
1850.11151	16376.1625
1853.26642	16399.0625
1856.41926	16375.6625
1859.57004	16378.4625
1862.71876	16356.7625
1865.86542	16329.9625
1869.01003	16324.5625
1872.15258	16318.4625
1875.29308	16305.5625
1878.43152	16319.4625
1881.56792	16297.2625
1884.70227	16284.3625
1887.83457	16263.0625
1890.96482	16249.8625
1894.09304	16191.5625
1897.21921	16208.8625
1900.34335	16189.3625
1903.46544	16202.4625
1906.58551	16157.0625
1909.70353	16149.2625
1912.81953	16116.7625
1915.93349	16123.3625
1919.04543	16050.1625
1922.15534	16026.6625
1925.26322	15979.5625
1928.36908	15988.7625
1931.47292	15966.8625
1934.57473	15914.9625
1937.67453	15888.6625
1940.77232	15837.5625
1943.86808	15790.7625
1946.96184	15744.5625
1950.05358	15716.4625
1953.14331	15666.4625
1956.23103	15619.5625
1959.31675	15583.1625
1962.40046	15568.5625
1965.48217	15495.8625
1968.56188	15462.0625
1971.63959	15382.8625
1974.7153	15362.6625
1977.78901	15320.9625
1980.86073	15271.1625
1983.93046	15220.1625
1986.99819	15186.2625
1990.06394	15144.9625
1993.1277	15071.6625
1996.18947	15045.0625
1999.24925	14986.8625
2002.30706	14962.2625
2005.36288	14926.1625
2008.41672	14866.9625
2011.46859	14849.4625
2014.51848	14812.9625
2017.56639	14775.5625
2020.61233	14760.5625
2023.6563	14717.6625
2026.6983	14672.8625
2029.73833	14668.8625
2032.7764	14619.0625
2035.8125	14574.7625
2038.84664	14517.4625
2041.87881	14503.3625
2044.90903	14463.8625
2047.93729	14469.5625
2050.96359	14451.6625
2053.98794	14437.7625
2057.01034	14407.6625
2060.03078	14403.7625
2063.04927	14382.1625
2066.06582	14395.7625
2069.08042	14371.2625
2072.09307	14364.7625
2075.10378	14349.0625
2078.11255	14331.0625
2081.11938	14350.7625
2084.12426	14330.3625
2087.12722	14333.4625
2090.12824	14288.9625
2093.12732	14306.8625
2096.12447	14303.8625
2099.11969	14272.0625
2102.11299	14293.4625
2105.10435	14300.2625
2108.09379	14303.3625
2111.08131	14283.8625
2114.0669	14300.5625
2117.05057	14319.6625
2120.03233	14332.0625
2123.01216	14346.7625
2125.99008	14319.7625
2128.96609	14370.4625
2131.94018	14378.6625
2134.91236	14357.1625
2137.88263	14369.0625
2140.851	14368.1625
2143.81746	14380.3625
2146.78201	14392.3625
2149.74466	14409.5625
2152.7054	14377.3625
2155.66425	14397.4625
2158.6212	14351.2625
2161.57625	14368.1625
2164.52941	14370.0625
2167.48067	14356.5625
2170.43004	14365.8625
2173.37752	14345.6625
2176.32311	14334.1625
2179.26681	14378.2625
2182.20863	14354.9625
2185.14856	14318.3625
2188.08661	14327.9625
2191.02278	14366.6625
2193.95707	14355.0625
2196.88948	14348.8625
2199.82001	14345.4625
2202.74867	14290.3625
2205.67545	14298.9625
2208.60037	14279.0625
2211.52341	14268.5625
2214.44458	14274.9625
2217.36388	14234.7625
2220.28132	14203.3625
2223.1969	14172.7625
2226.11061	14146.3625
2229.02246	14131.5625
2231.93245	14088.7625
2234.84058	14043.4625
2237.74686	14045.2625
2240.65128	14023.7625
2243.55385	13984.7625
2246.45456	13982.8625
2249.35343	13923.5625
2252.25044	13934.4625
2255.14561	13921.5625
2258.03893	13925.4625
2260.93041	13886.2625
2263.82004	13827.9625
2266.70783	13798.2625
2269.59378	13759.4625
2272.4779	13719.7625
2275.36017	13665.0625
2278.24061	13660.1625
2281.11922	13636.2625
2283.996	13619.1625
2286.87094	13638.7625
2289.74405	13609.6625
2292.61534	13583.6625
2295.4848	13592.0625
2298.35243	13602.9625
2301.21824	13565.3625
2304.08223	13574.5625
2306.94439	13588.5625
2309.80474	13557.9625
2312.66327	13525.0625
2315.51999	13558.6625
2318.37489	13535.1625
2321.22797	13528.4625
2324.07925	13511.2625
2326.92871	13500.2625
2329.77637	13444.2625
2332.62222	13436.8625
2335.46626	13430.9625
2338.3085	13422.3625
2341.14893	13370.7625
2343.98756	13404.2625
2346.8244	13412.6625
2349.65943	13400.8625
2352.49267	13370.5625
2355.32411	13369.9625
2358.15376	13375.4625
2360.98161	13387.9625
2363.80768	13378.8625
2366.63195	13340.1625
2369.45444	13333.6625
2372.27514	13315.1625
2375.09405	13277.1625
2377.91118	13250.5625
2380.72652	13227.7625
2383.54009	13206.8625
2386.35187	13176.1625
2389.16188	13112.9625
2391.97011	13114.0625
2394.77657	13058.0625
2397.58125	13079.6625
2400.38416	13049.8625
2403.18529	13023.8625
2405.98466	13031.3625
2408.78226	12989.8625
2411.57809	12969.8625
2414.37216	12955.6625
2417.16446	12960.6625
2419.955	12908.5625
2422.74378	12911.8625
2425.5308	12891.8625
2428.31606	12889.6625
2431.09956	12902.1625
2433.88131	12859.6625
2436.6613	12867.1625
2439.43954	12856.3625
2442.21603	12808.1625
2444.99077	12830.9625
2447.76377	12807.1625
2450.53501	12814.9625
2453.30451	12790.7625
2456.07226	12804.8625
2458.83827	12792.8625
2461.60254	12770.9625
2464.36507	12801.6625
2467.12586	12763.0625
2469.88492	12738.8625
2472.64224	12739.5625
2475.39782	12718.0625
2478.15167	12765.7625
2480.90379	12749.9625
2483.65417	12756.5625
2486.40283	12757.1625
2489.14976	12746.4625
2491.89497	12759.6625
2494.63845	12764.7625
2497.3802	12752.6625
2500.12024	12727.5625
2502.85855	12738.7625
2505.59514	12717.1625
2508.33002	12692.6625
2511.06318	12722.6625
2513.79462	12677.6625
2516.52435	12659.3625
2519.25237	12626.6625
2521.97867	12605.3625
2524.70327	12643.6625
2527.42616	12594.8625
2530.14734	12589.6625
2532.86681	12585.1625
2535.58458	12581.6625
2538.30065	12584.1625
2541.01501	12564.8625
2543.72768	12540.6625
2546.43864	12530.4625
2549.14791	12512.5625
2551.85548	12498.1625
2554.56136	12492.2625
2557.26554	12443.9625
2559.96803	12424.3625
2562.66883	12420.0625
2565.36794	12381.5625
2568.06536	12378.9625
2570.7611	12350.7625
2573.45514	12326.8625
2576.14751	12318.0625
2578.83819	12313.2625
2581.52719	12308.5625
2584.21451	12297.3625
2586.90015	12312.7625
2589.58411	12268.3625
2592.2664	12258.0625
2594.94701	12257.0625
2597.62594	12252.5625
2600.30321	12217.8625
2602.9788	12203.2625
2605.65273	12179.9625
2608.32498	12221.2625
2610.99557	12192.8625
2613.66449	12201.9625
2616.33175	12179.0625
2618.99734	12189.5625
2621.66128	12171.2625
2624.32355	12144.8625
2626.98416	12175.5625
2629.64311	12145.6625
2632.30041	12147.7625
2634.95605	12131.1625
2637.61004	12089.9625
2640.26238	12097.1625
2642.91306	12073.6625
2645.56209	12092.6625
2648.20948	12048.2625
2650.85521	12043.9625
2653.4993	12041.8625
2656.14175	12057.5625
2658.78255	12073.9625
2661.42171	12076.5625
2664.05923	12069.6625
2666.6951	12071.3625
2669.32934	12061.4625
2671.96194	12075.2625
2674.59291	12059.6625
2677.22224	12063.1625
2679.84993	12108.5625
2682.476	12046.4625
2685.10043	12036.7625
2687.72324	12017.2625
2690.34441	12067.7625
2692.96396	12049.2625
2695.58188	12052.5625
2698.19818	12013.6625
2700.81285	12040.1625
2703.4259	11982.0625
2706.03733	12046.6625
2708.64714	12046.2625
2711.25533	12032.9625
2713.86191	12036.0625
2716.46687	12059.8625
2719.07021	12060.0625
2721.67194	12067.0625
2724.27206	12051.3625
2726.87057	12078.4625
2729.46747	12094.5625
2732.06276	12085.3625
2734.65644	12063.5625
2737.24852	12083.0625
2739.83899	12062.4625
2742.42786	12057.0625
2745.01513	11999.5625
2747.60079	12028.5625
2750.18486	12024.3625
2752.76733	11998.7625
2755.3482	11953.7625
2757.92747	12008.1625
2760.50515	11961.4625
2763.08123	11950.5625
2765.65573	11950.0625
2768.22863	11949.0625
2770.79994	11946.6625
2773.36967	11935.9625
2775.9378	11928.7625
2778.50435	11921.4625
2781.06932	11927.1625
2783.6327	11928.4625
2786.1945	11908.3625
2788.75471	11898.2625
2791.31335	11877.5625
2793.87041	11866.8625
2796.42589	11833.0625
2798.97979	11839.4625
2801.53212	11801.1625
2804.08288	11816.8625
2806.63206	11773.6625
2809.17967	11731.4625
2811.72571	11712.2625
2814.27018	11706.9625
2816.81308	11664.2625
2819.35442	11661.2625
2821.89419	11616.0625
2824.43239	11615.1625
2826.96904	11567.0625
2829.50412	11596.4625
2832.03763	11569.7625
2834.56959	11591.7625
2837.1	11565.3625
2839.62884	11562.7625
2842.15613	11571.3625
2844.68186	11595.4625
2847.20604	11572.6625
2849.72867	11619.7625
2852.24974	11606.5625
2854.76927	11586.7625
2857.28724	11559.6625
2859.80367	11544.5625
2862.31855	11497.3625
2864.83189	11504.3625
2867.34368	11487.2625
2869.85393	11479.8625
2872.36264	11478.7625
2874.8698	11449.1625
2877.37543	11443.4625
2879.87952	11468.4625
2882.38207	11456.2625
2884.88308	11442.6625
2887.38256	11455.8625
2889.88051	11463.5625
2892.37692	11456.7625
2894.8718	11465.7625
2897.36515	11490.8625
2899.85698	11490.4625
2902.34727	11515.1625
2904.83604	11511.6625
2907.32328	11526.2625
2909.809	11540.7625
2912.29319	11549.8625
2914.77587	11534.1625
2917.25702	11513.4625
2919.73665	11522.8625
2922.21476	11531.6625
2924.69136	11509.3625
2927.16644	11484.1625
2929.64	11505.8625
2932.11205	11490.6625
2934.58258	11471.3625
2937.05161	11463.4625
2939.51912	11488.6625
2941.98513	11452.0625
2944.44962	11427.1625
2946.91261	11365.8625
2949.37409	11420.3625
2951.83407	11387.3625
2954.29254	11362.4625
2956.74951	11370.8625
2959.20498	11370.0625
2961.65895	11353.6625
2964.11142	11351.7625
2966.56239	11320.4625
2969.01186	11309.9625
2971.45984	11288.6625
2973.90632	11272.3625
2976.35131	11243.6625
2978.7948	11226.3625
2981.23681	11210.6625
2983.67732	11161.1625
2986.11635	11126.0625
2988.55388	11118.3625
2990.98993	11112.2625
2993.4245	11091.7625
2995.85758	11041.4625
2998.28917	11026.7625
3000.71928	11022.8625
3003.14791	10977.8625
3005.57506	10970.0625
3008.00073	10962.9625
3010.42493	10948.2625
3012.84764	10909.0625
3015.26888	10896.2625
3017.68865	10870.3625
3020.10694	10858.7625
3022.52376	10825.5625
3024.9391	10845.5625
