Data from AgNP_FTO_APTES_UA_10uM_CRN_2uM_R6G_10uM_NaF_0.1M_Addition_RamanShift__6__14-03-50-583.txt Node

Date: Thu Feb 10 14:03:50 GMT 2022
User: TCL
Spectrometer: QEP01345
Trigger mode: 4
Integration Time (sec): 7.000000E0
Scans to average: 10
Electric dark correction enabled: true
Nonlinearity correction enabled: false
Boxcar width: 0
XAxis mode: Raman Shifts
Number of Pixels in Spectrum: 1044
>>>>>Begin Spectral Data<<<<<
46.04893	-1.0875
50.45542	-0.1875
54.85868	-1.4875
59.25871	-0.7875
63.6555	68.4125
68.04907	69.5125
72.43941	74.7125
76.82654	75.6125
81.21044	76.9125
85.59113	78.1125
89.96862	82.8125
94.34289	87.5125
98.71396	88.4125
103.08183	94.7125
107.4465	98.2125
111.80798	95.7125
116.16626	102.8125
120.52136	104.8125
124.87327	112.2125
129.222	115.4125
133.56755	124.6125
137.90993	131.1125
142.24913	143.8125
146.58517	160.8125
150.91804	186.2125
155.24774	222.6125
159.57429	277.6125
163.89768	358.9125
168.21792	477.3125
172.53501	659.3125
176.84895	915.9125
181.15975	1281.3125
185.46741	1804.0125
189.77193	2495.7125
194.07331	3327.3125
198.37157	4297.9125
202.6667	5314.4125
206.9587	6305.1125
211.24758	7276.9125
215.53334	8296.9125
219.81599	9348.1125
224.09553	10579.4125
228.37195	11876.0125
232.64527	13264.9125
236.91549	14742.7125
241.18261	16208.8125
245.44663	17499.7125
249.70755	18648.0125
253.96539	19642.7125
258.22014	20472.6125
262.4718	21205.6125
266.72039	21699.3125
270.96589	21968.7125
275.20832	21977.3125
279.44768	21837.1125
283.68397	21604.5125
287.91719	21484.1125
292.14735	21375.8125
296.37445	21497.0125
300.59849	21776.1125
304.81948	22046.3125
309.03742	22161.9125
313.25231	21989.8125
317.46415	21470.8125
321.67296	20738.7125
325.87872	20067.7125
330.08145	19723.9125
334.28114	19666.8125
338.47781	19843.6125
342.67145	20169.2125
346.86207	20549.8125
351.04966	21107.1125
355.23424	21578.7125
359.4158	22041.4125
363.59435	22190.1125
367.76989	22434.9125
371.94243	22461.2125
376.11196	22551.0125
380.27849	22538.1125
384.44203	22572.7125
388.60257	22722.4125
392.76012	22880.9125
396.91468	23172.5125
401.06626	23538.9125
405.21485	23782.4125
409.36047	23588.3125
413.50311	23021.8125
417.64277	22617.1125
421.77947	22485.7125
425.9132	22468.1125
430.04396	22564.6125
434.17176	22656.8125
438.2966	22805.9125
442.41849	23179.2125
446.53742	23756.4125
450.6534	24415.2125
454.76644	24899.3125
458.87653	24990.7125
462.98368	24885.7125
467.08789	24629.8125
471.18916	24243.4125
475.2875	23852.2125
479.38291	23553.5125
483.4754	23356.8125
487.56496	23095.1125
491.6516	22734.5125
495.73531	22454.4125
499.81612	22353.2125
503.89401	22454.2125
507.96899	22597.5125
512.04106	22602.9125
516.11023	22571.0125
520.1765	22406.9125
524.23987	22280.2125
528.30034	22090.5125
532.35792	21866.4125
536.41261	21491.7125
540.46441	21198.3125
544.51333	21152.2125
548.55936	21423.8125
552.60252	21974.4125
556.64279	22561.9125
560.6802	22976.0125
564.71473	23159.5125
568.7464	23556.5125
572.7752	24222.9125
576.80114	24798.9125
580.82422	25259.7125
584.84444	25880.3125
588.86181	26547.8125
592.87633	27047.3125
596.888	26840.8125
600.89682	26212.1125
604.9028	26703.2125
608.90594	29480.3125
612.90624	32832.4125
616.90371	30834.3125
620.89834	24928.0125
624.89015	22269.5125
628.87913	21892.3125
632.86528	22023.0125
636.84862	22057.6125
640.82913	21665.0125
644.80683	21059.7125
648.78172	20589.1125
652.75379	20545.5125
656.72306	20890.1125
660.68952	21360.1125
664.65319	21185.3125
668.61405	20655.6125
672.57211	20505.2125
676.52738	20578.6125
680.47986	20566.0125
684.42955	20363.3125
688.37646	20261.4125
692.32058	20403.1125
696.26192	20719.3125
700.20048	21054.5125
704.13626	21259.8125
708.06928	21181.7125
711.99952	21031.8125
715.927	20999.7125
719.85171	21073.0125
723.77365	20993.1125
727.69284	20669.6125
731.60928	20402.2125
735.52295	20260.2125
739.43388	20287.8125
743.34206	20370.4125
747.24749	20426.7125
751.15017	20643.4125
755.05012	21052.4125
758.94733	21788.1125
762.8418	23138.0125
766.73354	25355.7125
770.62254	27455.3125
774.50882	27996.5125
778.39237	26573.1125
782.27321	24399.3125
786.15132	22507.8125
790.02671	21310.8125
793.89938	20717.4125
797.76935	20497.3125
801.6366	20390.3125
805.50115	20293.7125
809.36299	20185.2125
813.22213	19967.7125
817.07857	19875.4125
820.93231	19808.4125
824.78336	19758.8125
828.63172	19707.9125
832.47738	19682.2125
836.32036	19697.4125
840.16066	19721.8125
843.99827	19776.5125
847.8332	19753.7125
851.66546	19683.5125
855.49504	19677.6125
859.32195	19680.1125
863.1462	19556.8125
866.96777	19511.7125
870.78668	19461.5125
874.60293	19449.1125
878.41652	19492.9125
882.22745	19558.9125
886.03573	19657.4125
889.84136	19643.4125
893.64433	19556.4125
897.44466	19504.0125
901.24235	19440.7125
905.0374	19406.0125
908.8298	19313.3125
912.61957	19340.6125
916.40671	19492.2125
920.19121	19720.2125
923.97308	19975.1125
927.75233	20092.6125
931.52895	19990.9125
935.30295	19719.0125
939.07433	19312.6125
942.84309	18969.5125
946.60924	18779.2125
950.37278	18717.2125
954.13371	18678.2125
957.89203	18663.7125
961.64774	18589.0125
965.40086	18581.4125
969.15137	18582.4125
972.89929	18511.9125
976.64461	18453.9125
980.38733	18478.8125
984.12747	18573.1125
987.86502	18686.1125
991.59999	18854.1125
995.33237	19151.9125
999.06217	19613.5125
1002.78939	20162.1125
1006.51404	20565.7125
1010.23611	20881.3125
1013.95561	21136.4125
1017.67255	21170.1125
1021.38692	20953.4125
1025.09872	20610.6125
1028.80796	20506.9125
1032.51465	20853.6125
1036.21877	21327.0125
1039.92035	21554.1125
1043.61937	21487.0125
1047.31584	21109.4125
1051.00976	20653.7125
1054.70114	20469.9125
1058.38998	20431.7125
1062.07627	20552.9125
1065.76003	20698.1125
1069.44126	20898.9125
1073.11995	21234.4125
1076.79611	21568.4125
1080.46974	21847.4125
1084.14085	22111.2125
1087.80943	22428.4125
1091.47549	22657.6125
1095.13903	22599.3125
1098.80005	22167.0125
1102.45857	21615.4125
1106.11456	21292.6125
1109.76805	21154.1125
1113.41903	21169.8125
1117.06751	21335.5125
1120.71348	21709.0125
1124.35696	22081.1125
1127.99793	22446.6125
1131.63641	22551.9125
1135.2724	22246.0125
1138.90589	22004.0125
1142.5369	21883.8125
1146.16542	21908.8125
1149.79145	21935.9125
1153.415	22097.1125
1157.03607	22409.4125
1160.65467	23087.9125
1164.27079	24090.4125
1167.88443	25552.2125
1171.49561	27269.4125
1175.10432	29513.0125
1178.71056	32371.9125
1182.31434	35102.1125
1185.91565	36525.5125
1189.51451	36405.8125
1193.11091	35180.1125
1196.70485	33515.9125
1200.29634	31833.2125
1203.88538	30505.1125
1207.47197	29541.0125
1211.05612	28790.8125
1214.63782	28086.3125
1218.21708	27431.4125
1221.79391	26888.3125
1225.36829	26554.0125
1228.94024	26234.1125
1232.50976	25807.8125
1236.07685	25386.0125
1239.6415	25134.9125
1243.20374	25151.1125
1246.76355	25373.0125
1250.32093	25749.0125
1253.8759	26343.2125
1257.42845	27133.0125
1260.97859	28003.4125
1264.52631	28969.8125
1268.07163	29967.9125
1271.61453	30924.5125
1275.15503	31847.5125
1278.69312	32682.7125
1282.22882	33345.5125
1285.76211	34210.2125
1289.29301	35219.2125
1292.82151	36667.1125
1296.34761	38581.1125
1299.87133	40948.1125
1303.39266	43828.8125
1306.9116	46911.6125
1310.42815	49654.5125
1313.94233	50946.5125
1317.45412	50339.2125
1320.96354	48783.2125
1324.47058	47343.2125
1327.97525	46239.5125
1331.47754	45476.6125
1334.97747	44902.8125
1338.47502	44688.2125
1341.97022	44577.4125
1345.46305	44597.8125
1348.95352	44606.1125
1352.44163	44932.2125
1355.92738	46011.8125
1359.41078	48309.6125
1362.89183	50505.4125
1366.37053	49332.3125
1369.84688	44436.5125
1373.32088	38902.3125
1376.79254	35275.5125
1380.26186	33900.5125
1383.72883	33555.0125
1387.19347	33409.0125
1390.65578	33042.7125
1394.11575	32779.9125
1397.57339	32943.8125
1401.0287	33335.5125
1404.48168	33587.0125
1407.93234	33524.1125
1411.38068	33063.5125
1414.82669	32115.5125
1418.27039	31004.0125
1421.71177	29850.3125
1425.15083	28955.9125
1428.58758	28582.9125
1432.02203	28887.7125
1435.45416	29690.7125
1438.88399	30562.3125
1442.31151	31141.5125
1445.73673	31465.3125
1449.15965	31674.7125
1452.58027	31811.4125
1455.9986	31814.7125
1459.41463	32102.2125
1462.82837	32523.4125
1466.23982	33097.1125
1469.64898	33514.2125
1473.05586	33840.5125
1476.46045	33820.3125
1479.86276	33555.0125
1483.26279	33365.3125
1486.66054	33392.2125
1490.05602	33797.3125
1493.44922	34490.8125
1496.84016	35399.1125
1500.22882	36992.0125
1503.61521	39146.1125
1506.99934	41690.4125
1510.38121	43594.6125
1513.76081	43736.5125
1517.13816	41835.7125
1520.51324	39090.1125
1523.88607	36727.7125
1527.25665	35454.1125
1530.62498	34901.0125
1533.99105	34605.8125
1537.35488	34216.3125
1540.71647	33537.7125
1544.07581	32729.9125
1547.4329	31895.3125
1550.78776	31263.5125
1554.14038	30851.5125
1557.49077	30649.6125
1560.83892	30609.9125
1564.18484	30773.8125
1567.52853	31018.3125
1570.86999	31453.1125
1574.20922	31910.0125
1577.54624	32303.4125
1580.88103	32080.1125
1584.2136	31784.8125
1587.54395	32270.0125
1590.87208	33624.1125
1594.19801	35642.1125
1597.52172	37764.5125
1600.84321	38344.4125
1604.16251	36853.9125
1607.47959	34154.9125
1610.79447	31370.9125
1614.10715	28537.2125
1617.41763	26180.9125
1620.7259	24559.0125
1624.03199	23746.8125
1627.33587	23734.3125
1630.63757	24490.8125
1633.93707	26151.7125
1637.23439	28917.8125
1640.52951	32975.3125
1643.82246	37759.1125
1647.11321	41623.8125
1650.40179	42595.6125
1653.68819	39543.3125
1656.97241	33955.8125
1660.25446	28454.3125
1663.53433	24457.9125
1666.81203	21911.6125
1670.08756	20371.9125
1673.36092	19464.9125
1676.63211	18842.9125
1679.90115	18367.4125
1683.16801	18050.9125
1686.43272	17831.8125
1689.69527	17658.5125
1692.95567	17469.3125
1696.2139	17431.1125
1699.46999	17394.4125
1702.72392	17295.1125
1705.97571	17239.7125
1709.22535	17208.6125
1712.47284	17186.4125
1715.71819	17134.6125
1718.96139	17092.1125
1722.20246	17018.5125
1725.44139	16911.6125
1728.67818	16762.5125
1731.91284	16674.4125
1735.14537	16568.5125
1738.37576	16489.5125
1741.60403	16398.6125
1744.83017	16366.2125
1748.05418	16307.8125
1751.27607	16284.0125
1754.49584	16236.1125
1757.71349	16236.5125
1760.92903	16205.8125
1764.14244	16208.2125
1767.35375	16164.1125
1770.56294	16133.7125
1773.77002	16127.5125
1776.97499	16058.5125
1780.17785	16027.3125
1783.37861	15946.4125
1786.57727	15922.2125
1789.77382	15923.4125
1792.96828	15876.4125
1796.16064	15852.4125
1799.3509	15828.9125
1802.53907	15806.0125
1805.72514	15733.0125
1808.90913	15697.7125
1812.09102	15662.8125
1815.27083	15608.0125
1818.44856	15592.1125
1821.6242	15566.7125
1824.79776	15519.1125
1827.96924	15520.6125
1831.13864	15547.2125
1834.30597	15542.6125
1837.47122	15511.9125
1840.6344	15523.5125
1843.7955	15543.5125
1846.95454	15549.0125
1850.11151	15507.1125
1853.26642	15495.5125
1856.41926	15494.9125
1859.57004	15480.4125
1862.71876	15444.8125
1865.86542	15430.4125
1869.01003	15408.4125
1872.15258	15407.9125
1875.29308	15391.5125
1878.43152	15353.2125
1881.56792	15342.1125
1884.70227	15304.9125
1887.83457	15309.8125
1890.96482	15284.0125
1894.09304	15266.9125
1897.21921	15225.1125
1900.34335	15197.1125
1903.46544	15184.4125
1906.58551	15177.1125
1909.70353	15158.7125
1912.81953	15112.6125
1915.93349	15094.3125
1919.04543	15069.9125
1922.15534	15027.1125
1925.26322	14974.5125
1928.36908	14958.4125
1931.47292	14934.7125
1934.57473	14883.0125
1937.67453	14863.8125
1940.77232	14815.3125
1943.86808	14760.1125
1946.96184	14703.7125
1950.05358	14693.3125
1953.14331	14635.7125
1956.23103	14622.9125
1959.31675	14561.0125
1962.40046	14514.4125
1965.48217	14480.4125
1968.56188	14459.3125
1971.63959	14373.0125
1974.7153	14357.9125
1977.78901	14338.6125
1980.86073	14265.4125
1983.93046	14243.4125
1986.99819	14171.8125
1990.06394	14131.8125
1993.1277	14084.9125
1996.18947	14056.1125
1999.24925	14037.0125
2002.30706	13964.0125
2005.36288	13909.5125
2008.41672	13890.9125
2011.46859	13867.8125
2014.51848	13807.3125
2017.56639	13771.1125
2020.61233	13736.1125
2023.6563	13717.2125
2026.6983	13695.5125
2029.73833	13623.9125
2032.7764	13623.0125
2035.8125	13580.0125
2038.84664	13567.6125
2041.87881	13545.7125
2044.90903	13531.6125
2047.93729	13516.6125
2050.96359	13481.6125
2053.98794	13470.5125
2057.01034	13451.9125
2060.03078	13397.8125
2063.04927	13425.5125
2066.06582	13421.8125
2069.08042	13406.8125
2072.09307	13385.7125
2075.10378	13376.4125
2078.11255	13380.1125
2081.11938	13354.7125
2084.12426	13332.2125
2087.12722	13371.6125
2090.12824	13374.3125
2093.12732	13356.7125
2096.12447	13349.3125
2099.11969	13352.7125
2102.11299	13324.1125
2105.10435	13363.4125
2108.09379	13375.4125
2111.08131	13365.6125
2114.0669	13354.1125
2117.05057	13357.1125
2120.03233	13395.4125
2123.01216	13398.6125
2125.99008	13401.0125
2128.96609	13380.6125
2131.94018	13435.7125
2134.91236	13463.2125
2137.88263	13448.1125
2140.851	13459.4125
2143.81746	13444.2125
2146.78201	13455.4125
2149.74466	13420.8125
2152.7054	13459.6125
2155.66425	13438.7125
2158.6212	13409.2125
2161.57625	13420.3125
2164.52941	13399.6125
2167.48067	13402.0125
2170.43004	13390.4125
2173.37752	13409.9125
2176.32311	13424.9125
2179.26681	13394.6125
2182.20863	13407.8125
2185.14856	13409.0125
2188.08661	13422.2125
2191.02278	13370.8125
2193.95707	13408.7125
2196.88948	13380.0125
2199.82001	13377.5125
2202.74867	13383.9125
2205.67545	13355.5125
2208.60037	13359.4125
2211.52341	13315.5125
2214.44458	13303.1125
2217.36388	13295.3125
2220.28132	13264.4125
2223.1969	13236.2125
2226.11061	13243.5125
2229.02246	13207.7125
2231.93245	13150.7125
2234.84058	13131.3125
2237.74686	13133.8125
2240.65128	13111.1125
2243.55385	13085.4125
2246.45456	13072.0125
2249.35343	13049.5125
2252.25044	13051.1125
2255.14561	13024.5125
2258.03893	13018.3125
2260.93041	12960.9125
2263.82004	12955.9125
2266.70783	12941.8125
2269.59378	12899.3125
2272.4779	12842.4125
2275.36017	12797.0125
2278.24061	12794.0125
2281.11922	12799.9125
2283.996	12773.7125
2286.87094	12762.7125
2289.74405	12751.8125
2292.61534	12729.5125
2295.4848	12724.4125
2298.35243	12729.5125
2301.21824	12716.8125
2304.08223	12736.4125
2306.94439	12716.3125
2309.80474	12734.7125
2312.66327	12742.5125
2315.51999	12715.6125
2318.37489	12757.0125
2321.22797	12709.7125
2324.07925	12682.7125
2326.92871	12690.3125
2329.77637	12655.9125
2332.62222	12643.0125
2335.46626	12660.9125
2338.3085	12641.4125
2341.14893	12624.7125
2343.98756	12638.7125
2346.8244	12660.2125
2349.65943	12642.1125
2352.49267	12637.0125
2355.32411	12628.7125
2358.15376	12658.0125
2360.98161	12657.8125
2363.80768	12632.1125
2366.63195	12629.7125
2369.45444	12603.0125
2372.27514	12576.3125
2375.09405	12560.3125
2377.91118	12555.9125
2380.72652	12495.6125
2383.54009	12457.6125
2386.35187	12412.6125
2389.16188	12410.9125
2391.97011	12388.4125
2394.77657	12378.1125
2397.58125	12321.0125
2400.38416	12331.2125
2403.18529	12299.4125
2405.98466	12281.4125
2408.78226	12248.5125
2411.57809	12240.8125
2414.37216	12254.8125
2417.16446	12221.8125
2419.955	12198.8125
2422.74378	12203.6125
2425.5308	12203.1125
2428.31606	12204.8125
2431.09956	12190.0125
2433.88131	12187.1125
2436.6613	12188.9125
2439.43954	12183.6125
2442.21603	12177.9125
2444.99077	12179.7125
2447.76377	12192.2125
2450.53501	12159.1125
2453.30451	12156.2125
2456.07226	12180.1125
2458.83827	12177.8125
2461.60254	12189.2125
2464.36507	12183.9125
2467.12586	12173.4125
2469.88492	12163.8125
2472.64224	12163.5125
2475.39782	12174.6125
2478.15167	12202.4125
2480.90379	12215.3125
2483.65417	12226.8125
2486.40283	12242.9125
2489.14976	12217.1125
2491.89497	12236.3125
2494.63845	12239.4125
2497.3802	12201.0125
2500.12024	12190.5125
2502.85855	12170.1125
2505.59514	12140.7125
2508.33002	12144.5125
2511.06318	12130.8125
2513.79462	12151.2125
2516.52435	12115.1125
2519.25237	12109.0125
2521.97867	12089.3125
2524.70327	12086.3125
2527.42616	12087.7125
2530.14734	12105.8125
2532.86681	12084.0125
2535.58458	12110.4125
2538.30065	12077.8125
2541.01501	12074.5125
2543.72768	12044.6125
2546.43864	12038.9125
2549.14791	12033.5125
2551.85548	12042.5125
2554.56136	12060.7125
2557.26554	12010.1125
2559.96803	11994.6125
2562.66883	11987.8125
2565.36794	11937.7125
2568.06536	11966.5125
2570.7611	11973.2125
2573.45514	11939.8125
2576.14751	11959.1125
2578.83819	11925.5125
2581.52719	11905.6125
2584.21451	11914.0125
2586.90015	11916.4125
2589.58411	11899.3125
2592.2664	11873.4125
2594.94701	11875.5125
2597.62594	11893.5125
2600.30321	11870.2125
2602.9788	11834.9125
2605.65273	11869.7125
2608.32498	11881.4125
2610.99557	11902.8125
2613.66449	11854.8125
2616.33175	11857.3125
2618.99734	11882.7125
2621.66128	11854.5125
2624.32355	11823.8125
2626.98416	11827.1125
2629.64311	11798.5125
2632.30041	11818.9125
2634.95605	11795.8125
2637.61004	11782.9125
2640.26238	11778.9125
2642.91306	11778.0125
2645.56209	11778.9125
2648.20948	11741.8125
2650.85521	11784.8125
2653.4993	11775.6125
2656.14175	11759.5125
2658.78255	11794.1125
2661.42171	11783.6125
2664.05923	11813.4125
2666.6951	11824.4125
2669.32934	11823.9125
2671.96194	11826.1125
2674.59291	11819.2125
2677.22224	11821.5125
2679.84993	11803.8125
2682.476	11796.7125
2685.10043	11801.3125
2687.72324	11751.1125
2690.34441	11773.5125
2692.96396	11775.4125
2695.58188	11790.3125
2698.19818	11780.8125
2700.81285	11745.6125
2703.4259	11758.8125
2706.03733	11799.5125
2708.64714	11764.7125
2711.25533	11803.2125
2713.86191	11801.7125
2716.46687	11829.9125
2719.07021	11832.8125
2721.67194	11869.0125
2724.27206	11846.0125
2726.87057	11833.7125
2729.46747	11852.4125
2732.06276	11857.5125
2734.65644	11857.1125
2737.24852	11879.0125
2739.83899	11856.0125
2742.42786	11841.4125
2745.01513	11815.8125
2747.60079	11820.3125
2750.18486	11821.8125
2752.76733	11828.4125
2755.3482	11821.8125
2757.92747	11823.6125
2760.50515	11763.6125
2763.08123	11760.5125
2765.65573	11761.0125
2768.22863	11780.3125
2770.79994	11754.0125
2773.36967	11755.7125
2775.9378	11736.9125
2778.50435	11741.5125
2781.06932	11742.1125
2783.6327	11771.6125
2786.1945	11754.6125
2788.75471	11768.2125
2791.31335	11723.1125
2793.87041	11710.1125
2796.42589	11716.7125
2798.97979	11729.7125
2801.53212	11714.7125
2804.08288	11667.8125
2806.63206	11633.0125
2809.17967	11623.2125
2811.72571	11612.9125
2814.27018	11601.1125
2816.81308	11571.9125
2819.35442	11541.3125
2821.89419	11514.2125
2824.43239	11530.4125
2826.96904	11493.3125
2829.50412	11512.6125
2832.03763	11484.2125
2834.56959	11500.6125
2837.1	11482.9125
2839.62884	11472.6125
2842.15613	11485.7125
2844.68186	11521.2125
2847.20604	11524.0125
2849.72867	11540.9125
2852.24974	11512.3125
2854.76927	11516.8125
2857.28724	11472.8125
2859.80367	11457.3125
2862.31855	11485.0125
2864.83189	11461.2125
2867.34368	11467.6125
2869.85393	11450.1125
2872.36264	11440.6125
2874.8698	11442.2125
2877.37543	11436.7125
2879.87952	11426.5125
2882.38207	11427.1125
2884.88308	11440.0125
2887.38256	11442.0125
2889.88051	11429.1125
2892.37692	11407.4125
2894.8718	11439.4125
2897.36515	11451.9125
2899.85698	11449.7125
2902.34727	11479.3125
2904.83604	11492.1125
2907.32328	11534.7125
2909.809	11505.1125
2912.29319	11523.3125
2914.77587	11527.2125
2917.25702	11514.0125
2919.73665	11517.5125
2922.21476	11489.9125
2924.69136	11477.6125
2927.16644	11449.0125
2929.64	11430.0125
2932.11205	11434.3125
2934.58258	11392.0125
2937.05161	11394.2125
2939.51912	11400.5125
2941.98513	11379.4125
2944.44962	11365.9125
2946.91261	11329.0125
2949.37409	11320.4125
2951.83407	11326.0125
2954.29254	11324.8125
2956.74951	11314.5125
2959.20498	11317.9125
2961.65895	11314.1125
2964.11142	11332.1125
2966.56239	11294.0125
2969.01186	11291.5125
2971.45984	11254.2125
2973.90632	11266.0125
2976.35131	11243.9125
2978.7948	11238.1125
2981.23681	11178.7125
2983.67732	11156.3125
2986.11635	11140.4125
2988.55388	11135.0125
2990.98993	11107.5125
2993.4245	11071.0125
2995.85758	11045.2125
2998.28917	11045.0125
3000.71928	11026.5125
3003.14791	11011.8125
3005.57506	10977.3125
3008.00073	10940.6125
3010.42493	10821.6125
3012.84764	10906.3125
3015.26888	10904.3125
3017.68865	10844.4125
3020.10694	10843.5125
3022.52376	10836.7125
3024.9391	10811.2125
