Data from AgNP_FTO_APTES_UA_10uM_CRN_10uM_R6G_10uM_NaF_0.1M_Addition_RamanShift__31__16-00-30-727.txt Node

Date: Thu Feb 10 16:00:30 GMT 2022
User: TCL
Spectrometer: QEP01345
Trigger mode: 4
Integration Time (sec): 7.000000E0
Scans to average: 10
Electric dark correction enabled: true
Nonlinearity correction enabled: false
Boxcar width: 0
XAxis mode: Raman Shifts
Number of Pixels in Spectrum: 1044
>>>>>Begin Spectral Data<<<<<
46.04893	0.075
50.45542	-0.225
54.85868	-2.225
59.25871	0.075
63.6555	44.975
68.04907	45.975
72.43941	52.475
76.82654	47.375
81.21044	55.875
85.59113	52.575
89.96862	61.475
94.34289	63.475
98.71396	63.775
103.08183	68.675
107.4465	69.775
111.80798	67.875
116.16626	71.875
120.52136	76.575
124.87327	74.775
129.222	76.775
133.56755	80.975
137.90993	85.875
142.24913	86.675
146.58517	97.575
150.91804	113.875
155.24774	128.175
159.57429	158.575
163.89768	195.675
168.21792	257.975
172.53501	347.975
176.84895	480.175
181.15975	666.775
185.46741	917.775
189.77193	1274.175
194.07331	1685.975
198.37157	2168.675
202.6667	2667.175
206.9587	3166.375
211.24758	3674.475
215.53334	4201.575
219.81599	4811.275
224.09553	5507.775
228.37195	6284.875
232.64527	7108.675
236.91549	7940.375
241.18261	8667.375
245.44663	9238.575
249.70755	9666.575
253.96539	10046.375
258.22014	10393.575
262.4718	10752.875
266.72039	11048.875
270.96589	11249.175
275.20832	11299.775
279.44768	11219.375
283.68397	11125.975
287.91719	11055.475
292.14735	11113.675
296.37445	11413.175
300.59849	11904.375
304.81948	12429.675
309.03742	12783.375
313.25231	12687.275
317.46415	11940.675
321.67296	10880.675
325.87872	10034.275
330.08145	9597.275
334.28114	9571.975
338.47781	9741.675
342.67145	10040.475
346.86207	10535.775
351.04966	11271.675
355.23424	12044.475
359.4158	12667.175
363.59435	12912.275
367.76989	12991.275
371.94243	12940.375
376.11196	12856.875
380.27849	12756.475
384.44203	12562.175
388.60257	12342.575
392.76012	12240.175
396.91468	12352.775
401.06626	12722.575
405.21485	12999.875
409.36047	12674.075
413.50311	11876.775
417.64277	11124.075
421.77947	10735.575
425.9132	10565.475
430.04396	10571.775
434.17176	10584.775
438.2966	10721.475
442.41849	10956.575
446.53742	11267.675
450.6534	11598.475
454.76644	11804.075
458.87653	11815.975
462.98368	11696.475
467.08789	11514.775
471.18916	11216.775
475.2875	10930.375
479.38291	10655.075
483.4754	10465.875
487.56496	10324.675
491.6516	10182.175
495.73531	10151.775
499.81612	10196.675
503.89401	10366.075
507.96899	10536.875
512.04106	10707.375
516.11023	10931.775
520.1765	11059.875
524.23987	10997.875
528.30034	10719.375
532.35792	10440.175
536.41261	10150.675
540.46441	9886.375
544.51333	9775.875
548.55936	9879.575
552.60252	10186.775
556.64279	10530.075
560.6802	10688.375
564.71473	10855.775
568.7464	11358.675
572.7752	11725.875
576.80114	11368.775
580.82422	10889.475
584.84444	10685.775
588.86181	10528.075
592.87633	10488.975
596.888	10605.875
600.89682	11082.575
604.9028	12691.175
608.90594	17049.675
612.90624	22846.775
616.90371	21612.675
620.89834	14234.075
624.89015	10865.475
628.87913	10269.575
632.86528	10358.475
636.84862	10599.675
640.82913	10423.775
644.80683	9868.675
648.78172	9493.775
652.75379	9549.875
656.72306	10100.575
660.68952	10727.375
664.65319	10573.975
668.61405	9898.275
672.57211	9563.175
676.52738	9564.575
680.47986	9542.075
684.42955	9451.775
688.37646	9425.075
692.32058	9428.275
696.26192	9564.775
700.20048	9720.475
704.13626	9860.375
708.06928	9865.775
711.99952	9758.275
715.927	9714.675
719.85171	9719.675
723.77365	9719.975
727.69284	9616.175
731.60928	9485.275
735.52295	9445.775
739.43388	9474.875
743.34206	9551.375
747.24749	9598.275
751.15017	9702.675
755.05012	9965.275
758.94733	10595.575
762.8418	11978.775
766.73354	14445.775
770.62254	17019.175
774.50882	18273.475
778.39237	17189.375
782.27321	14505.575
786.15132	11984.475
790.02671	10587.875
793.89938	9948.375
797.76935	9698.975
801.6366	9533.575
805.50115	9427.675
809.36299	9386.275
813.22213	9342.675
817.07857	9321.575
820.93231	9343.075
824.78336	9356.375
828.63172	9400.075
832.47738	9451.275
836.32036	9400.775
840.16066	9328.475
843.99827	9261.175
847.8332	9228.675
851.66546	9228.775
855.49504	9250.775
859.32195	9197.375
863.1462	9160.575
866.96777	9125.175
870.78668	9071.275
874.60293	9108.775
878.41652	9121.775
882.22745	9218.775
886.03573	9274.675
889.84136	9225.875
893.64433	9178.575
897.44466	9149.575
901.24235	9134.775
905.0374	9133.675
908.8298	9134.475
912.61957	9102.075
916.40671	9184.575
920.19121	9260.675
923.97308	9382.075
927.75233	9456.775
931.52895	9531.575
935.30295	9422.275
939.07433	9070.875
942.84309	8818.775
946.60924	8660.875
950.37278	8561.775
954.13371	8517.775
957.89203	8479.275
961.64774	8455.475
965.40086	8414.275
969.15137	8405.375
972.89929	8384.475
976.64461	8374.275
980.38733	8370.075
984.12747	8374.375
987.86502	8405.975
991.59999	8477.675
995.33237	8589.575
999.06217	8783.075
1002.78939	9050.075
1006.51404	9291.175
1010.23611	9555.875
1013.95561	9723.675
1017.67255	9668.675
1021.38692	9520.575
1025.09872	9343.075
1028.80796	9280.875
1032.51465	9325.875
1036.21877	9494.475
1039.92035	9609.175
1043.61937	9609.375
1047.31584	9522.575
1051.00976	9482.575
1054.70114	9439.375
1058.38998	9449.875
1062.07627	9524.375
1065.76003	9614.275
1069.44126	9638.775
1073.11995	9735.775
1076.79611	9881.275
1080.46974	10070.875
1084.14085	10362.575
1087.80943	10773.175
1091.47549	10902.675
1095.13903	10668.375
1098.80005	10239.575
1102.45857	9849.375
1106.11456	9699.475
1109.76805	9746.075
1113.41903	10001.775
1117.06751	10387.375
1120.71348	10879.775
1124.35696	11394.975
1127.99793	11857.375
1131.63641	11813.875
1135.2724	11192.775
1138.90589	10569.975
1142.5369	10232.075
1146.16542	9982.375
1149.79145	9855.975
1153.415	9875.175
1157.03607	9985.475
1160.65467	10233.775
1164.27079	10692.475
1167.88443	11352.875
1171.49561	12434.475
1175.10432	14316.775
1178.71056	16723.475
1182.31434	18435.275
1185.91565	18719.175
1189.51451	18094.475
1193.11091	16683.175
1196.70485	15120.875
1200.29634	14009.675
1203.88538	13256.175
1207.47197	12336.375
1211.05612	11561.675
1214.63782	11113.275
1218.21708	10965.475
1221.79391	10969.375
1225.36829	11050.575
1228.94024	11124.775
1232.50976	11192.975
1236.07685	11243.975
1239.6415	11285.375
1243.20374	11288.875
1246.76355	11403.475
1250.32093	11570.775
1253.8759	11884.875
1257.42845	12308.475
1260.97859	12789.175
1264.52631	13208.875
1268.07163	13633.475
1271.61453	14056.275
1275.15503	14327.675
1278.69312	14411.275
1282.22882	14413.575
1285.76211	14694.675
1289.29301	15130.675
1292.82151	15652.875
1296.34761	16196.075
1299.87133	17034.475
1303.39266	18555.475
1306.9116	20932.275
1310.42815	23681.575
1313.94233	25453.475
1317.45412	25068.975
1320.96354	23330.875
1324.47058	21246.575
1327.97525	19429.375
1331.47754	18318.275
1334.97747	17881.075
1338.47502	17975.275
1341.97022	18411.775
1345.46305	19138.575
1348.95352	20214.975
1352.44163	21797.575
1355.92738	24145.375
1359.41078	28066.975
1362.89183	32010.875
1366.37053	31187.475
1369.84688	25988.875
1373.32088	20834.675
1376.79254	17702.675
1380.26186	16122.075
1383.72883	15328.575
1387.19347	14777.275
1390.65578	14169.975
1394.11575	13616.975
1397.57339	13339.075
1401.0287	13361.875
1404.48168	13507.575
1407.93234	13742.775
1411.38068	13973.475
1414.82669	13974.375
1418.27039	13776.575
1421.71177	13405.875
1425.15083	13012.775
1428.58758	12775.675
1432.02203	12758.175
1435.45416	12857.175
1438.88399	12945.075
1442.31151	12961.275
1445.73673	13059.275
1449.15965	13185.775
1452.58027	13169.675
1455.9986	13083.675
1459.41463	13015.575
1462.82837	13125.375
1466.23982	13418.075
1469.64898	13792.275
1473.05586	14078.675
1476.46045	14253.475
1479.86276	14573.775
1483.26279	15035.175
1486.66054	15499.775
1490.05602	16093.975
1493.44922	16930.375
1496.84016	18160.275
1500.22882	20124.075
1503.61521	22837.175
1506.99934	25979.275
1510.38121	29059.675
1513.76081	30614.475
1517.13816	29305.275
1520.51324	25620.575
1523.88607	21749.475
1527.25665	18988.575
1530.62498	17343.775
1533.99105	16380.375
1537.35488	15686.775
1540.71647	15286.175
1544.07581	15057.175
1547.4329	14905.275
1550.78776	14797.275
1554.14038	14821.175
1557.49077	14951.775
1560.83892	15353.775
1564.18484	15929.275
1567.52853	16487.675
1570.86999	16837.075
1574.20922	17102.275
1577.54624	16936.375
1580.88103	15990.575
1584.2136	14799.275
1587.54395	14153.875
1590.87208	14359.275
1594.19801	15223.975
1597.52172	16364.275
1600.84321	16796.775
1604.16251	16094.775
1607.47959	14924.775
1610.79447	13719.675
1614.10715	12584.975
1617.41763	11687.675
1620.7259	11120.375
1624.03199	10871.175
1627.33587	10874.575
1630.63757	11158.975
1633.93707	11764.175
1637.23439	12709.875
1640.52951	14039.075
1643.82246	15877.075
1647.11321	18193.375
1650.40179	20121.675
1653.68819	19827.275
1656.97241	17144.075
1660.25446	13997.875
1663.53433	11741.975
1666.81203	10336.375
1670.08756	9555.975
1673.36092	9087.375
1676.63211	8798.175
1679.90115	8584.575
1683.16801	8422.975
1686.43272	8320.875
1689.69527	8244.575
1692.95567	8187.475
1696.2139	8176.975
1699.46999	8190.675
1702.72392	8174.375
1705.97571	8110.775
1709.22535	8082.075
1712.47284	8077.575
1715.71819	8078.375
1718.96139	8074.675
1722.20246	8047.575
1725.44139	7999.875
1728.67818	7934.875
1731.91284	7867.775
1735.14537	7765.375
1738.37576	7737.775
1741.60403	7707.075
1744.83017	7669.375
1748.05418	7639.775
1751.27607	7638.175
1754.49584	7634.275
1757.71349	7623.975
1760.92903	7638.075
1764.14244	7603.675
1767.35375	7604.275
1770.56294	7577.675
1773.77002	7545.975
1776.97499	7497.375
1780.17785	7462.575
1783.37861	7443.575
1786.57727	7427.375
1789.77382	7407.275
1792.96828	7413.975
1796.16064	7386.375
1799.3509	7371.375
1802.53907	7364.775
1805.72514	7341.575
1808.90913	7318.775
1812.09102	7282.575
1815.27083	7258.675
1818.44856	7232.075
1821.6242	7240.575
1824.79776	7220.175
1827.96924	7219.575
1831.13864	7179.875
1834.30597	7184.275
1837.47122	7201.375
1840.6344	7178.675
1843.7955	7198.775
1846.95454	7190.375
1850.11151	7180.275
1853.26642	7171.375
1856.41926	7178.275
1859.57004	7166.975
1862.71876	7178.775
1865.86542	7161.775
1869.01003	7195.675
1872.15258	7195.275
1875.29308	7195.675
1878.43152	7196.475
1881.56792	7198.275
1884.70227	7218.475
1887.83457	7196.775
1890.96482	7185.375
1894.09304	7204.575
1897.21921	7195.375
1900.34335	7204.475
1903.46544	7205.875
1906.58551	7202.575
1909.70353	7216.875
1912.81953	7207.275
1915.93349	7249.475
1919.04543	7216.475
1922.15534	7200.975
1925.26322	7185.475
1928.36908	7162.275
1931.47292	7135.275
1934.57473	7077.775
1937.67453	7067.075
1940.77232	7029.175
1943.86808	6979.375
1946.96184	6932.675
1950.05358	6900.675
1953.14331	6861.875
1956.23103	6852.175
1959.31675	6804.375
1962.40046	6789.275
1965.48217	6777.475
1968.56188	6747.975
1971.63959	6735.375
1974.7153	6720.075
1977.78901	6705.375
1980.86073	6700.575
1983.93046	6647.975
1986.99819	6640.275
1990.06394	6608.075
1993.1277	6580.975
1996.18947	6548.575
1999.24925	6537.275
2002.30706	6533.575
2005.36288	6499.975
2008.41672	6484.875
2011.46859	6431.175
2014.51848	6445.475
2017.56639	6420.875
2020.61233	6396.475
2023.6563	6397.575
2026.6983	6355.075
2029.73833	6341.675
2032.7764	6324.775
2035.8125	6311.175
2038.84664	6306.075
2041.87881	6275.275
2044.90903	6274.875
2047.93729	6251.375
2050.96359	6248.275
2053.98794	6217.175
2057.01034	6232.075
2060.03078	6209.775
2063.04927	6211.675
2066.06582	6222.975
2069.08042	6207.675
2072.09307	6172.175
2075.10378	6198.475
2078.11255	6179.275
2081.11938	6167.875
2084.12426	6167.875
2087.12722	6172.175
2090.12824	6134.175
2093.12732	6142.475
2096.12447	6140.375
2099.11969	6137.575
2102.11299	6153.775
2105.10435	6145.375
2108.09379	6143.875
2111.08131	6141.875
2114.0669	6134.475
2117.05057	6134.475
2120.03233	6149.475
2123.01216	6166.675
2125.99008	6161.375
2128.96609	6185.075
2131.94018	6162.275
2134.91236	6181.075
2137.88263	6164.475
2140.851	6173.275
2143.81746	6164.775
2146.78201	6169.775
2149.74466	6169.775
2152.7054	6160.775
2155.66425	6156.275
2158.6212	6126.975
2161.57625	6142.375
2164.52941	6146.975
2167.48067	6132.875
2170.43004	6128.475
2173.37752	6124.275
2176.32311	6125.275
2179.26681	6132.675
2182.20863	6135.575
2185.14856	6125.375
2188.08661	6113.875
2191.02278	6130.575
2193.95707	6117.775
2196.88948	6087.475
2199.82001	6090.175
2202.74867	6092.675
2205.67545	6074.475
2208.60037	6090.775
2211.52341	6063.175
2214.44458	6065.875
2217.36388	6041.275
2220.28132	6038.475
2223.1969	6026.175
2226.11061	6009.875
2229.02246	6006.175
2231.93245	5980.175
2234.84058	5957.575
2237.74686	5952.975
2240.65128	5945.575
2243.55385	5945.675
2246.45456	5929.975
2249.35343	5928.775
2252.25044	5930.675
2255.14561	5912.375
2258.03893	5928.775
2260.93041	5934.575
2263.82004	5922.175
2266.70783	5886.375
2269.59378	5871.575
2272.4779	5861.575
2275.36017	5838.275
2278.24061	5845.675
2281.11922	5817.675
2283.996	5790.275
2286.87094	5773.075
2289.74405	5780.175
2292.61534	5760.275
2295.4848	5756.775
2298.35243	5767.075
2301.21824	5756.075
2304.08223	5731.875
2306.94439	5748.775
2309.80474	5733.975
2312.66327	5730.875
2315.51999	5724.775
2318.37489	5731.075
2321.22797	5723.075
2324.07925	5722.375
2326.92871	5721.275
2329.77637	5704.875
2332.62222	5695.575
2335.46626	5707.775
2338.3085	5683.875
2341.14893	5698.975
2343.98756	5691.575
2346.8244	5713.475
2349.65943	5702.675
2352.49267	5714.175
2355.32411	5736.875
2358.15376	5742.875
2360.98161	5749.975
2363.80768	5754.675
2366.63195	5756.475
2369.45444	5770.975
2372.27514	5753.175
2375.09405	5742.475
2377.91118	5721.175
2380.72652	5678.975
2383.54009	5649.675
2386.35187	5631.375
2389.16188	5593.575
2391.97011	5580.975
2394.77657	5564.775
2397.58125	5529.475
2400.38416	5516.575
2403.18529	5509.675
2405.98466	5506.275
2408.78226	5488.975
2411.57809	5477.875
2414.37216	5464.775
2417.16446	5469.675
2419.955	5457.175
2422.74378	5449.775
2425.5308	5444.775
2428.31606	5468.275
2431.09956	5456.675
2433.88131	5448.375
2436.6613	5465.175
2439.43954	5458.775
2442.21603	5446.975
2444.99077	5458.075
2447.76377	5447.875
2450.53501	5457.275
2453.30451	5442.675
2456.07226	5456.675
2458.83827	5440.275
2461.60254	5443.275
2464.36507	5437.775
2467.12586	5426.375
2469.88492	5409.975
2472.64224	5419.075
2475.39782	5441.075
2478.15167	5437.875
2480.90379	5441.675
2483.65417	5471.275
2486.40283	5487.475
2489.14976	5488.175
2491.89497	5500.675
2494.63845	5508.875
2497.3802	5498.475
2500.12024	5487.375
2502.85855	5475.975
2505.59514	5450.175
2508.33002	5445.675
2511.06318	5416.475
2513.79462	5389.575
2516.52435	5362.475
2519.25237	5348.175
2521.97867	5316.275
2524.70327	5326.075
2527.42616	5306.575
2530.14734	5295.875
2532.86681	5309.475
2535.58458	5301.875
2538.30065	5290.575
2541.01501	5308.175
2543.72768	5283.675
2546.43864	5305.675
2549.14791	5282.575
2551.85548	5307.175
2554.56136	5295.475
2557.26554	5283.075
2559.96803	5255.275
2562.66883	5242.275
2565.36794	5244.175
2568.06536	5215.375
2570.7611	5221.675
2573.45514	5229.575
2576.14751	5212.475
2578.83819	5213.275
2581.52719	5204.175
2584.21451	5182.475
2586.90015	5189.175
2589.58411	5173.675
2592.2664	5167.575
2594.94701	5173.475
2597.62594	5168.675
2600.30321	5148.575
2602.9788	5160.375
2605.65273	5156.475
2608.32498	5159.675
2610.99557	5160.175
2613.66449	5147.575
2616.33175	5142.675
2618.99734	5152.475
2621.66128	5157.575
2624.32355	5135.675
2626.98416	5142.175
2629.64311	5134.975
2632.30041	5124.575
2634.95605	5108.275
2637.61004	5102.575
2640.26238	5091.175
2642.91306	5078.175
2645.56209	5073.375
2648.20948	5078.675
2650.85521	5061.675
2653.4993	5068.875
2656.14175	5058.375
2658.78255	5081.275
2661.42171	5077.675
2664.05923	5074.675
2666.6951	5095.475
2669.32934	5102.675
2671.96194	5106.275
2674.59291	5100.975
2677.22224	5114.175
2679.84993	5119.575
2682.476	5107.575
2685.10043	5121.375
2687.72324	5108.775
2690.34441	5107.875
2692.96396	5094.075
2695.58188	5098.775
2698.19818	5072.375
2700.81285	5099.575
2703.4259	5102.175
2706.03733	5104.975
2708.64714	5105.175
2711.25533	5095.275
2713.86191	5099.975
2716.46687	5089.775
2719.07021	5106.875
2721.67194	5103.575
2724.27206	5123.775
2726.87057	5104.375
2729.46747	5089.275
2732.06276	5116.075
2734.65644	5109.975
2737.24852	5097.875
2739.83899	5081.275
2742.42786	5081.975
2745.01513	5078.975
2747.60079	5075.775
2750.18486	5054.375
2752.76733	5063.475
2755.3482	5037.675
2757.92747	5044.875
2760.50515	5034.175
2763.08123	5012.975
2765.65573	5015.675
2768.22863	4998.875
2770.79994	5014.975
2773.36967	5004.475
2775.9378	4998.575
2778.50435	5008.175
2781.06932	5006.975
2783.6327	5000.275
2786.1945	4997.075
2788.75471	4993.775
2791.31335	4976.175
2793.87041	4982.175
2796.42589	4972.875
2798.97979	4971.875
2801.53212	4966.475
2804.08288	4964.675
2806.63206	4956.775
2809.17967	4952.675
2811.72571	4956.475
2814.27018	4960.575
2816.81308	4963.875
2819.35442	4948.175
2821.89419	4958.375
2824.43239	4959.075
2826.96904	4963.175
2829.50412	4972.575
2832.03763	4956.575
2834.56959	4958.775
2837.1	4956.175
2839.62884	4982.175
2842.15613	4987.575
2844.68186	4996.475
2847.20604	5010.075
2849.72867	5033.275
2852.24974	5044.075
2854.76927	5034.975
2857.28724	5025.875
2859.80367	5007.575
2862.31855	5015.675
2864.83189	5007.575
2867.34368	4996.675
2869.85393	5000.275
2872.36264	4997.075
2874.8698	5015.575
2877.37543	5000.775
2879.87952	5003.975
2882.38207	4988.275
2884.88308	4973.875
2887.38256	4973.875
2889.88051	4967.475
2892.37692	4976.775
2894.8718	4968.975
2897.36515	4970.275
2899.85698	4965.275
2902.34727	4986.175
2904.83604	4986.375
2907.32328	5012.475
2909.809	4994.975
2912.29319	4996.775
2914.77587	4985.775
2917.25702	5001.675
2919.73665	4987.475
2922.21476	4991.975
2924.69136	4980.975
2927.16644	4964.675
2929.64	4956.575
2932.11205	4945.975
2934.58258	4915.975
2937.05161	4916.375
2939.51912	4912.375
2941.98513	4896.475
2944.44962	4881.475
2946.91261	4853.475
2949.37409	4850.675
2951.83407	4822.275
2954.29254	4815.275
2956.74951	4814.475
2959.20498	4806.575
2961.65895	4798.275
2964.11142	4794.475
2966.56239	4784.275
2969.01186	4780.775
2971.45984	4778.475
2973.90632	4742.475
2976.35131	4751.775
2978.7948	4717.775
2981.23681	4733.375
2983.67732	4704.875
2986.11635	4702.275
2988.55388	4686.275
2990.98993	4676.175
2993.4245	4663.175
2995.85758	4645.675
2998.28917	4643.675
3000.71928	4635.475
3003.14791	4631.875
3005.57506	4631.275
3008.00073	4591.875
3010.42493	4499.075
3012.84764	4592.875
3015.26888	4594.775
3017.68865	4564.575
3020.10694	4568.475
3022.52376	4570.075
3024.9391	4558.575
3027.35298	4560.675
3029.76539	4544.275
3032.17632	4541.075
3034.5858	4533.275
3036.9938	4533.175
3039.40034	4527.375
3041.80542	4528.575
3044.20903	4511.575
3046.61118	4503.475
3049.01187	4499.975
3051.4111	4471.675
3053.80888	4490.975
3056.20519	4466.075
3058.60005	4463.775
3060.99345	4442.175
3063.3854	4447.775
3065.7759	4431.575
3068.16494	4405.375
3070.55254	4394.175
3072.93868	4391.475
3075.32338	4384.775
3077.70662	4373.575
3080.08842	4348.275
3082.46878	4346.175
3084.84769	4325.075
3087.22515	4336.175
3089.60118	4330.275
3091.97576	4316.075
3094.3489	4324.075
3096.72061	4322.775
3099.09087	4324.475
3101.4597	4312.175
3103.82709	4319.375
3106.19305	4313.775
3108.55757	4317.575
3110.92066	4294.975
3113.28232	4303.675
3115.64255	4283.975
3118.00134	4269.575
3120.35871	4269.875
3122.71466	4265.375
3125.06917	4267.675
3127.42226	4246.475
3129.77393	4258.475
3132.12417	4237.675
3134.47299	4245.575
3136.82039	4258.675
3139.16636	4261.275
3141.51092	4249.675
3143.85406	4255.475
3146.19579	4261.075
3148.53609	4248.175
3150.87499	4259.075
3153.21246	4270.975
3155.54853	4264.675
3157.88318	4270.175
3160.21642	4296.175
3162.54826	4292.975
3164.87868	4299.875
3167.2077	4300.175
3169.5353	4290.175
3171.86151	4298.675
3174.18631	4299.375
3176.5097	4295.875
3178.83169	4283.175
3181.15228	4288.475
3183.47147	4280.075
3185.78926	4278.175
3188.10565	4282.075
3190.42065	4285.275
3192.73424	4275.475
3195.04645	4271.175
3197.35725	4287.575
3199.66667	4270.875
3201.97469	4291.575
3204.28132	4301.175
