Data from AgNP_FTO_APTES_UA_10uM_CRN_20uM_R6G_10uM_NaF_0.1M_Addition_RamanShift__7__16-11-00-740.txt Node

Date: Thu Feb 10 16:11:00 GMT 2022
User: TCL
Spectrometer: QEP01345
Trigger mode: 4
Integration Time (sec): 7.000000E0
Scans to average: 10
Electric dark correction enabled: true
Nonlinearity correction enabled: false
Boxcar width: 0
XAxis mode: Raman Shifts
Number of Pixels in Spectrum: 1044
>>>>>Begin Spectral Data<<<<<
46.04893	-0.075
50.45542	-0.975
54.85868	-2.275
59.25871	-2.275
63.6555	71.525
68.04907	73.625
72.43941	79.025
76.82654	77.125
81.21044	84.925
85.59113	85.925
89.96862	88.925
94.34289	95.325
98.71396	92.525
103.08183	99.925
107.4465	104.325
111.80798	103.525
116.16626	111.025
120.52136	112.225
124.87327	114.925
129.222	121.625
133.56755	131.725
137.90993	137.825
142.24913	154.825
146.58517	174.425
150.91804	203.225
155.24774	248.825
159.57429	302.725
163.89768	388.625
168.21792	511.725
172.53501	698.725
176.84895	982.625
181.15975	1364.325
185.46741	1921.025
189.77193	2641.125
194.07331	3527.125
198.37157	4542.925
202.6667	5610.625
206.9587	6659.425
211.24758	7669.725
215.53334	8709.825
219.81599	9813.325
224.09553	10982.525
228.37195	12291.325
232.64527	13722.325
236.91549	15200.425
241.18261	16770.025
245.44663	18157.925
249.70755	19456.825
253.96539	20586.225
258.22014	21563.125
262.4718	22345.225
266.72039	22858.325
270.96589	23182.625
275.20832	23244.625
279.44768	23173.325
283.68397	22971.825
287.91719	22815.325
292.14735	22704.525
296.37445	22708.325
300.59849	22781.125
304.81948	22845.225
309.03742	22840.325
313.25231	22722.525
317.46415	22377.225
321.67296	21917.525
325.87872	21524.625
330.08145	21358.225
334.28114	21311.025
338.47781	21448.025
342.67145	21676.225
346.86207	22003.725
351.04966	22347.525
355.23424	22623.025
359.4158	22926.525
363.59435	23178.325
367.76989	23385.325
371.94243	23521.725
376.11196	23614.925
380.27849	23685.625
384.44203	23729.225
388.60257	23944.325
392.76012	24255.225
396.91468	24596.425
401.06626	24986.525
405.21485	25209.625
409.36047	25114.525
413.50311	24883.325
417.64277	24839.125
421.77947	24959.525
425.9132	25163.025
430.04396	25324.925
434.17176	25445.525
438.2966	25505.725
442.41849	25847.125
446.53742	26418.925
450.6534	27100.525
454.76644	27605.525
458.87653	27778.325
462.98368	27702.925
467.08789	27427.325
471.18916	27058.925
475.2875	26717.625
479.38291	26565.025
483.4754	26435.525
487.56496	26175.425
491.6516	25728.725
495.73531	25264.925
499.81612	25069.325
503.89401	25138.925
507.96899	25325.125
512.04106	25326.725
516.11023	25198.625
520.1765	24893.325
524.23987	24595.025
528.30034	24362.625
532.35792	24125.025
536.41261	23877.625
540.46441	23670.025
544.51333	23721.425
548.55936	23975.425
552.60252	24424.025
556.64279	24995.225
560.6802	25445.525
564.71473	25788.025
568.7464	26335.825
572.7752	27269.525
576.80114	28294.525
580.82422	29304.225
584.84444	30346.025
588.86181	31744.125
592.87633	32742.225
596.888	32254.325
600.89682	30583.025
604.9028	29882.025
608.90594	30771.325
612.90624	31856.925
616.90371	29704.725
620.89834	26042.925
624.89015	24597.325
628.87913	24529.625
632.86528	24728.325
636.84862	24657.125
640.82913	24206.625
644.80683	23684.625
648.78172	23332.925
652.75379	23328.225
656.72306	23563.825
660.68952	23817.125
664.65319	23649.925
668.61405	23348.825
672.57211	23332.625
676.52738	23454.425
680.47986	23409.525
684.42955	23277.825
688.37646	23205.925
692.32058	23379.125
696.26192	23683.025
700.20048	24007.125
704.13626	24210.625
708.06928	24266.325
711.99952	24233.525
715.927	24175.925
719.85171	24212.925
723.77365	24064.425
727.69284	23706.325
731.60928	23383.425
735.52295	23222.825
739.43388	23176.825
743.34206	23257.225
747.24749	23403.025
751.15017	23707.725
755.05012	24158.825
758.94733	24851.025
762.8418	25911.925
766.73354	27349.325
770.62254	28497.325
774.50882	28482.125
778.39237	27278.625
782.27321	25704.425
786.15132	24531.825
790.02671	23796.825
793.89938	23435.025
797.76935	23237.725
801.6366	23146.025
805.50115	23101.225
809.36299	22988.125
813.22213	22853.925
817.07857	22749.425
820.93231	22712.825
824.78336	22568.525
828.63172	22452.725
832.47738	22380.725
836.32036	22385.625
840.16066	22407.425
843.99827	22452.225
847.8332	22441.225
851.66546	22444.425
855.49504	22494.025
859.32195	22525.425
863.1462	22452.525
866.96777	22373.925
870.78668	22309.825
874.60293	22312.525
878.41652	22317.925
882.22745	22393.025
886.03573	22406.825
889.84136	22382.725
893.64433	22283.625
897.44466	22269.325
901.24235	22207.125
905.0374	22156.625
908.8298	22175.525
912.61957	22273.525
916.40671	22530.125
920.19121	22863.825
923.97308	23132.625
927.75233	23019.725
931.52895	22692.125
935.30295	22329.125
939.07433	21936.825
942.84309	21693.525
946.60924	21571.925
950.37278	21547.825
954.13371	21583.925
957.89203	21537.825
961.64774	21509.325
965.40086	21529.025
969.15137	21515.325
972.89929	21432.225
976.64461	21328.825
980.38733	21294.525
984.12747	21323.825
987.86502	21420.825
991.59999	21537.825
995.33237	21751.625
999.06217	22084.025
1002.78939	22535.825
1006.51404	22986.925
1010.23611	23395.425
1013.95561	23637.125
1017.67255	23629.725
1021.38692	23427.925
1025.09872	23082.225
1028.80796	22856.925
1032.51465	22868.925
1036.21877	23055.825
1039.92035	23171.825
1043.61937	23179.525
1047.31584	23108.725
1051.00976	22999.925
1054.70114	23036.625
1058.38998	23177.525
1062.07627	23421.725
1065.76003	23746.025
1069.44126	23974.925
1073.11995	24372.925
1076.79611	24663.225
1080.46974	24797.525
1084.14085	24949.425
1087.80943	25197.625
1091.47549	25452.225
1095.13903	25513.325
1098.80005	25227.025
1102.45857	24601.725
1106.11456	24128.125
1109.76805	23894.525
1113.41903	23860.125
1117.06751	23923.425
1120.71348	24131.525
1124.35696	24332.225
1127.99793	24609.925
1131.63641	24743.025
1135.2724	24781.825
1138.90589	24794.825
1142.5369	24939.425
1146.16542	25171.125
1149.79145	25479.325
1153.415	25794.525
1157.03607	26254.325
1160.65467	27085.225
1164.27079	28413.025
1167.88443	29921.025
1171.49561	31311.125
1175.10432	32948.425
1178.71056	34993.525
1182.31434	36937.125
1185.91565	37900.325
1189.51451	37863.125
1193.11091	37230.125
1196.70485	36236.925
1200.29634	35139.325
1203.88538	34504.125
1207.47197	34302.725
1211.05612	34235.925
1214.63782	33683.425
1218.21708	32641.525
1221.79391	31444.125
1225.36829	30517.025
1228.94024	29976.925
1232.50976	29605.125
1236.07685	29219.425
1239.6415	29035.025
1243.20374	29080.725
1246.76355	29306.325
1250.32093	29802.925
1253.8759	30402.525
1257.42845	31192.325
1260.97859	32017.025
1264.52631	32927.025
1268.07163	33911.525
1271.61453	34864.725
1275.15503	35760.225
1278.69312	36797.525
1282.22882	37906.425
1285.76211	39324.525
1289.29301	40872.325
1292.82151	42925.125
1296.34761	45371.025
1299.87133	48143.225
1303.39266	50764.225
1306.9116	52804.225
1310.42815	54056.925
1313.94233	54484.725
1317.45412	54044.725
1320.96354	53406.825
1324.47058	53220.625
1327.97525	53125.025
1331.47754	53166.425
1334.97747	53039.825
1338.47502	52688.525
1341.97022	52100.525
1345.46305	51251.425
1348.95352	50244.125
1352.44163	49558.025
1355.92738	49667.425
1359.41078	50595.625
1362.89183	51365.125
1366.37053	50292.425
1369.84688	46972.325
1373.32088	42712.325
1376.79254	39806.725
1380.26186	38983.225
1383.72883	39422.025
1387.19347	39778.425
1390.65578	39655.125
1394.11575	39628.625
1397.57339	40054.825
1401.0287	40773.025
1404.48168	41304.025
1407.93234	41150.325
1411.38068	40084.425
1414.82669	38561.425
1418.27039	36703.925
1421.71177	35090.425
1425.15083	33837.325
1428.58758	33315.025
1432.02203	33749.425
1435.45416	34773.525
1438.88399	36040.825
1442.31151	37041.825
1445.73673	37491.925
1449.15965	37859.725
1452.58027	37848.525
1455.9986	37846.425
1459.41463	38067.525
1462.82837	38507.625
1466.23982	39137.225
1469.64898	39640.625
1473.05586	39965.825
1476.46045	39881.825
1479.86276	39402.025
1483.26279	38936.625
1486.66054	38639.625
1490.05602	38657.925
1493.44922	38901.825
1496.84016	39285.625
1500.22882	39752.225
1503.61521	40419.725
1506.99934	41186.825
1510.38121	41780.225
1513.76081	41900.625
1517.13816	41503.125
1520.51324	41016.125
1523.88607	40900.825
1527.25665	41151.325
1530.62498	41458.325
1533.99105	41416.125
1537.35488	40898.325
1540.71647	39846.525
1544.07581	38520.725
1547.4329	37235.125
1550.78776	36215.525
1554.14038	35521.025
1557.49077	35036.125
1560.83892	34780.525
1564.18484	34610.625
1567.52853	34637.525
1570.86999	34940.925
1574.20922	35743.825
1577.54624	36550.325
1580.88103	37112.725
1584.2136	37913.725
1587.54395	39362.325
1590.87208	41427.725
1594.19801	43684.925
1597.52172	45579.825
1600.84321	45572.125
1604.16251	43192.425
1607.47959	39626.325
1610.79447	36069.125
1614.10715	32963.725
1617.41763	30562.425
1620.7259	28939.125
1624.03199	28188.625
1627.33587	28296.025
1630.63757	29241.825
1633.93707	31311.625
1637.23439	34736.025
1640.52951	39617.625
1643.82246	45159.825
1647.11321	49061.425
1650.40179	49167.825
1653.68819	44962.225
1656.97241	38711.325
1660.25446	32910.125
1663.53433	28686.725
1666.81203	25898.225
1670.08756	24158.525
1673.36092	23088.225
1676.63211	22351.425
1679.90115	21877.025
1683.16801	21502.125
1686.43272	21221.125
1689.69527	21046.525
1692.95567	20877.725
1696.2139	20764.225
1699.46999	20717.925
1702.72392	20613.225
1705.97571	20516.425
1709.22535	20429.225
1712.47284	20382.125
1715.71819	20358.125
1718.96139	20290.325
1722.20246	20242.425
1725.44139	20124.925
1728.67818	19975.425
1731.91284	19849.025
1735.14537	19743.525
1738.37576	19663.925
1741.60403	19625.425
1744.83017	19531.125
1748.05418	19452.425
1751.27607	19450.025
1754.49584	19404.025
1757.71349	19434.325
1760.92903	19385.825
1764.14244	19334.925
1767.35375	19333.025
1770.56294	19289.125
1773.77002	19233.125
1776.97499	19206.525
1780.17785	19148.125
1783.37861	19127.625
1786.57727	19110.125
1789.77382	19072.825
1792.96828	19026.025
1796.16064	18973.525
1799.3509	18953.725
1802.53907	18912.125
1805.72514	18817.225
1808.90913	18811.725
1812.09102	18776.425
1815.27083	18729.025
1818.44856	18742.825
1821.6242	18683.725
1824.79776	18662.325
1827.96924	18643.725
1831.13864	18629.725
1834.30597	18620.825
1837.47122	18640.225
1840.6344	18639.825
1843.7955	18632.825
1846.95454	18591.525
1850.11151	18598.825
1853.26642	18580.825
1856.41926	18569.925
1859.57004	18561.425
1862.71876	18494.525
1865.86542	18498.525
1869.01003	18500.425
1872.15258	18433.225
1875.29308	18471.925
1878.43152	18407.325
1881.56792	18399.225
1884.70227	18380.225
1887.83457	18364.125
1890.96482	18332.225
1894.09304	18289.625
1897.21921	18273.025
1900.34335	18278.025
1903.46544	18212.225
1906.58551	18208.925
1909.70353	18190.125
1912.81953	18135.425
1915.93349	18119.125
1919.04543	18093.925
1922.15534	18049.725
1925.26322	18003.025
1928.36908	17992.325
1931.47292	17915.625
1934.57473	17871.425
1937.67453	17846.925
1940.77232	17828.925
1943.86808	17773.625
1946.96184	17701.625
1950.05358	17655.325
1953.14331	17606.125
1956.23103	17543.525
1959.31675	17522.725
1962.40046	17451.125
1965.48217	17403.325
1968.56188	17319.925
1971.63959	17277.325
1974.7153	17233.625
1977.78901	17181.025
1980.86073	17156.525
1983.93046	17096.725
1986.99819	17048.425
1990.06394	16984.725
1993.1277	16958.425
1996.18947	16893.125
1999.24925	16873.425
2002.30706	16806.825
2005.36288	16766.225
2008.41672	16693.725
2011.46859	16639.925
2014.51848	16605.925
2017.56639	16627.025
2020.61233	16560.825
2023.6563	16505.625
2026.6983	16453.325
2029.73833	16423.925
2032.7764	16446.825
2035.8125	16361.525
2038.84664	16336.225
2041.87881	16262.125
2044.90903	16244.725
2047.93729	16212.425
2050.96359	16204.125
2053.98794	16176.325
2057.01034	16180.125
2060.03078	16137.525
2063.04927	16137.925
2066.06582	16118.825
2069.08042	16149.025
2072.09307	16136.525
2075.10378	16118.825
2078.11255	16107.625
2081.11938	16092.525
2084.12426	16072.725
2087.12722	16064.325
2090.12824	16051.325
2093.12732	16045.625
2096.12447	16049.725
2099.11969	16026.625
2102.11299	16041.725
2105.10435	16036.125
2108.09379	16033.125
2111.08131	16053.325
2114.0669	16064.825
2117.05057	16081.225
2120.03233	16069.625
2123.01216	16101.225
2125.99008	16122.525
2128.96609	16139.125
2131.94018	16138.525
2134.91236	16157.025
2137.88263	16129.825
2140.851	16152.725
2143.81746	16155.325
2146.78201	16142.525
2149.74466	16137.925
2152.7054	16137.225
2155.66425	16122.825
2158.6212	16126.625
2161.57625	16164.425
2164.52941	16129.225
2167.48067	16090.325
2170.43004	16100.425
2173.37752	16085.825
2176.32311	16098.925
2179.26681	16118.425
2182.20863	16131.125
2185.14856	16095.025
2188.08661	16070.625
2191.02278	16107.125
2193.95707	16113.225
2196.88948	16089.725
2199.82001	16074.825
2202.74867	16030.225
2205.67545	16045.625
2208.60037	15987.825
2211.52341	16010.225
2214.44458	15953.425
2217.36388	15949.425
2220.28132	15923.825
2223.1969	15877.825
2226.11061	15873.625
2229.02246	15817.025
2231.93245	15810.425
2234.84058	15768.325
2237.74686	15769.325
2240.65128	15763.525
2243.55385	15737.825
2246.45456	15689.025
2249.35343	15683.625
2252.25044	15669.525
2255.14561	15616.225
2258.03893	15568.625
2260.93041	15549.725
2263.82004	15475.425
2266.70783	15460.625
2269.59378	15374.625
2272.4779	15342.125
2275.36017	15318.825
2278.24061	15331.925
2281.11922	15298.725
2283.996	15278.725
2286.87094	15255.625
2289.74405	15246.625
2292.61534	15228.025
2295.4848	15200.725
2298.35243	15229.725
2301.21824	15182.425
2304.08223	15180.225
2306.94439	15183.925
2309.80474	15196.325
2312.66327	15177.325
2315.51999	15159.225
2318.37489	15149.725
2321.22797	15114.625
2324.07925	15104.125
2326.92871	15088.325
2329.77637	15062.125
2332.62222	15065.325
2335.46626	15035.225
2338.3085	14999.525
2341.14893	14989.725
2343.98756	15008.325
2346.8244	15018.825
2349.65943	15021.525
2352.49267	14989.625
2355.32411	14990.625
2358.15376	15019.625
2360.98161	15015.425
2363.80768	15000.525
2366.63195	15011.125
2369.45444	14952.425
2372.27514	14922.825
2375.09405	14920.225
2377.91118	14891.625
2380.72652	14815.825
2383.54009	14832.925
2386.35187	14782.425
2389.16188	14761.025
2391.97011	14743.325
2394.77657	14699.925
2397.58125	14679.025
2400.38416	14700.025
2403.18529	14628.225
2405.98466	14635.625
2408.78226	14613.125
2411.57809	14613.325
2414.37216	14603.425
2417.16446	14592.025
2419.955	14552.325
2422.74378	14544.325
2425.5308	14524.325
2428.31606	14545.325
2431.09956	14546.525
2433.88131	14534.325
2436.6613	14529.625
2439.43954	14521.925
2442.21603	14507.425
2444.99077	14512.125
2447.76377	14491.325
2450.53501	14494.525
2453.30451	14464.225
2456.07226	14481.825
2458.83827	14459.925
2461.60254	14461.425
2464.36507	14450.225
2467.12586	14421.325
2469.88492	14414.425
2472.64224	14414.025
2475.39782	14450.725
2478.15167	14454.525
2480.90379	14450.525
2483.65417	14439.825
2486.40283	14486.625
2489.14976	14450.225
2491.89497	14449.425
2494.63845	14470.725
2497.3802	14469.525
2500.12024	14451.125
2502.85855	14464.825
2505.59514	14433.625
2508.33002	14401.625
2511.06318	14419.625
2513.79462	14395.725
2516.52435	14389.325
2519.25237	14377.125
2521.97867	14366.825
2524.70327	14368.325
2527.42616	14332.825
2530.14734	14356.025
2532.86681	14320.825
2535.58458	14323.125
2538.30065	14321.825
2541.01501	14300.425
2543.72768	14309.125
2546.43864	14338.725
2549.14791	14265.125
2551.85548	14290.325
2554.56136	14266.725
2557.26554	14228.925
2559.96803	14216.625
2562.66883	14210.525
2565.36794	14171.425
2568.06536	14193.925
2570.7611	14185.425
2573.45514	14145.325
2576.14751	14142.025
2578.83819	14140.125
2581.52719	14118.325
2584.21451	14103.025
2586.90015	14086.525
2589.58411	14082.725
2592.2664	14101.625
2594.94701	14084.925
2597.62594	14065.825
2600.30321	14050.225
2602.9788	14058.225
2605.65273	14061.425
2608.32498	14071.325
2610.99557	14051.625
2613.66449	14049.225
2616.33175	14047.425
2618.99734	14055.125
2621.66128	14024.325
2624.32355	14000.025
2626.98416	14004.725
2629.64311	13994.425
2632.30041	13965.725
2634.95605	13939.925
2637.61004	13942.825
2640.26238	13937.025
2642.91306	13922.625
2645.56209	13951.925
2648.20948	13922.225
2650.85521	13954.825
2653.4993	13940.225
2656.14175	13916.825
2658.78255	13945.525
2661.42171	13942.125
2664.05923	13990.725
2666.6951	13983.925
2669.32934	14044.225
2671.96194	14031.725
2674.59291	14004.725
2677.22224	14021.425
2679.84993	14028.525
2682.476	14019.325
2685.10043	13991.925
2687.72324	13985.725
2690.34441	13982.525
2692.96396	14018.925
2695.58188	14011.325
2698.19818	13972.625
2700.81285	14001.325
2703.4259	14024.125
2706.03733	14050.925
2708.64714	13999.325
2711.25533	14022.425
2713.86191	14002.325
2716.46687	14036.825
2719.07021	14061.225
2721.67194	14076.525
2724.27206	14083.625
2726.87057	14065.625
2729.46747	14100.125
2732.06276	14091.225
2734.65644	14089.125
2737.24852	14111.925
2739.83899	14090.725
2742.42786	14082.825
2745.01513	14077.525
2747.60079	14081.125
2750.18486	14053.625
2752.76733	14032.825
2755.3482	14036.625
2757.92747	14064.425
2760.50515	13986.525
2763.08123	14025.125
2765.65573	13990.925
2768.22863	13983.625
2770.79994	14010.325
2773.36967	13992.625
2775.9378	13998.725
2778.50435	13998.125
2781.06932	14005.025
2783.6327	14007.025
2786.1945	14000.225
2788.75471	13993.325
2791.31335	13948.825
2793.87041	13957.425
2796.42589	13907.425
2798.97979	13902.825
2801.53212	13903.125
2804.08288	13890.925
2806.63206	13885.925
2809.17967	13829.125
2811.72571	13793.725
2814.27018	13786.825
2816.81308	13748.525
2819.35442	13702.825
2821.89419	13654.725
2824.43239	13634.325
2826.96904	13620.125
2829.50412	13632.525
2832.03763	13643.625
2834.56959	13601.825
2837.1	13581.725
2839.62884	13615.225
2842.15613	13615.925
2844.68186	13612.625
2847.20604	13595.925
2849.72867	13564.825
2852.24974	13596.425
2854.76927	13572.925
2857.28724	13524.525
2859.80367	13526.925
2862.31855	13507.425
2864.83189	13493.425
2867.34368	13441.725
2869.85393	13465.025
2872.36264	13437.125
2874.8698	13435.825
2877.37543	13445.125
2879.87952	13437.725
2882.38207	13439.125
2884.88308	13444.325
2887.38256	13450.025
2889.88051	13418.125
2892.37692	13433.325
2894.8718	13459.525
2897.36515	13482.625
2899.85698	13483.525
2902.34727	13492.025
2904.83604	13469.425
2907.32328	13527.125
2909.809	13492.525
2912.29319	13542.625
2914.77587	13515.525
2917.25702	13514.225
2919.73665	13478.125
2922.21476	13500.825
2924.69136	13461.025
2927.16644	13501.025
2929.64	13490.025
2932.11205	13453.125
2934.58258	13423.825
2937.05161	13416.425
2939.51912	13436.725
2941.98513	13431.325
2944.44962	13399.625
2946.91261	13344.625
2949.37409	13382.525
2951.83407	13371.925
2954.29254	13354.725
2956.74951	13342.125
2959.20498	13344.525
2961.65895	13317.625
2964.11142	13321.825
2966.56239	13269.225
2969.01186	13307.425
2971.45984	13302.425
2973.90632	13255.925
2976.35131	13225.125
2978.7948	13216.925
2981.23681	13191.925
2983.67732	13196.825
2986.11635	13143.525
2988.55388	13110.725
2990.98993	13081.925
2993.4245	13047.225
2995.85758	13002.925
2998.28917	12950.725
3000.71928	12905.825
3003.14791	12913.025
3005.57506	12906.225
3008.00073	12838.925
3010.42493	12675.325
3012.84764	12743.125
3015.26888	12779.025
3017.68865	12698.325
3020.10694	12724.225
3022.52376	12718.525
3024.9391	12702.925
3027.35298	12677.925
3029.76539	12696.625
3032.17632	12689.225
3034.5858	12674.825
3036.9938	12666.325
3039.40034	12689.525
3041.80542	12689.325
3044.20903	12638.325
3046.61118	12621.725
3049.01187	12601.625
3051.4111	12572.425
3053.80888	12524.525
3056.20519	12512.525
3058.60005	12471.425
3060.99345	12497.025
3063.3854	12413.625
3065.7759	12397.725
3068.16494	12368.225
3070.55254	12311.525
3072.93868	12273.625
3075.32338	12244.725
3077.70662	12229.025
3080.08842	12194.025
3082.46878	12175.525
3084.84769	12187.125
3087.22515	12162.225
3089.60118	12151.125
3091.97576	12150.425
3094.3489	12152.425
3096.72061	12159.625
3099.09087	12144.525
3101.4597	12104.325
3103.82709	12131.725
3106.19305	12105.125
3108.55757	12086.825
3110.92066	12054.825
3113.28232	12048.525
3115.64255	12016.425
3118.00134	11973.925
3120.35871	11961.325
3122.71466	11927.825
3125.06917	11936.325
3127.42226	11890.725
