Data from AgNP_FTO_APTES_UA_10uM_CRN_1000uM_R6G_10uM_NaF_0.1M_Addition_RamanShift__19__19-43-21-001.txt Node

Date: Thu Feb 10 19:43:21 GMT 2022
User: TCL
Spectrometer: QEP01345
Trigger mode: 4
Integration Time (sec): 7.000000E0
Scans to average: 10
Electric dark correction enabled: true
Nonlinearity correction enabled: false
Boxcar width: 0
XAxis mode: Raman Shifts
Number of Pixels in Spectrum: 1044
>>>>>Begin Spectral Data<<<<<
46.04893	-0.8125
50.45542	-1.0125
54.85868	-1.5125
59.25871	-0.6125
63.6555	57.1875
68.04907	61.8875
72.43941	65.5875
76.82654	65.4875
81.21044	72.3875
85.59113	70.0875
89.96862	74.6875
94.34289	78.0875
98.71396	76.8875
103.08183	83.6875
107.4465	86.2875
111.80798	85.7875
116.16626	90.9875
120.52136	93.2875
124.87327	96.9875
129.222	102.6875
133.56755	111.3875
137.90993	112.8875
142.24913	125.4875
146.58517	143.3875
150.91804	169.6875
155.24774	196.3875
159.57429	244.5875
163.89768	308.3875
168.21792	410.7875
172.53501	567.6875
176.84895	790.7875
181.15975	1117.0875
185.46741	1561.0875
189.77193	2172.1875
194.07331	2908.8875
198.37157	3761.8875
202.6667	4654.0875
206.9587	5531.3875
211.24758	6417.1875
215.53334	7266.9875
219.81599	8157.9875
224.09553	9162.8875
228.37195	10240.9875
232.64527	11410.3875
236.91549	12676.8875
241.18261	13979.2875
245.44663	15193.2875
249.70755	16298.6875
253.96539	17318.8875
258.22014	18135.3875
262.4718	18826.5875
266.72039	19355.0875
270.96589	19638.1875
275.20832	19732.0875
279.44768	19641.5875
283.68397	19467.0875
287.91719	19325.1875
292.14735	19169.7875
296.37445	19162.2875
300.59849	19164.8875
304.81948	19188.6875
309.03742	19058.3875
313.25231	18799.9875
317.46415	18439.5875
321.67296	17971.8875
325.87872	17700.7875
330.08145	17556.9875
334.28114	17544.6875
338.47781	17661.2875
342.67145	17856.5875
346.86207	18076.6875
351.04966	18403.7875
355.23424	18743.5875
359.4158	19056.8875
363.59435	19299.3875
367.76989	19483.6875
371.94243	19624.3875
376.11196	19764.4875
380.27849	19925.7875
384.44203	20025.1875
388.60257	20161.5875
392.76012	20310.3875
396.91468	20500.6875
401.06626	20729.5875
405.21485	20869.7875
409.36047	20829.9875
413.50311	20612.5875
417.64277	20460.8875
421.77947	20421.5875
425.9132	20559.7875
430.04396	20732.4875
434.17176	20889.9875
438.2966	21076.0875
442.41849	21433.9875
446.53742	21953.4875
450.6534	22518.3875
454.76644	22922.5875
458.87653	23058.3875
462.98368	22976.8875
467.08789	22817.4875
471.18916	22633.3875
475.2875	22478.8875
479.38291	22510.7875
483.4754	22466.1875
487.56496	22294.8875
491.6516	21933.9875
495.73531	21571.5875
499.81612	21293.9875
503.89401	21307.0875
507.96899	21275.2875
512.04106	21225.5875
516.11023	21170.2875
520.1765	20995.3875
524.23987	20883.8875
528.30034	20773.8875
532.35792	20626.4875
536.41261	20510.8875
540.46441	20370.2875
544.51333	20399.6875
548.55936	20581.6875
552.60252	20950.7875
556.64279	21338.6875
560.6802	21719.7875
564.71473	21980.7875
568.7464	22324.8875
572.7752	22790.6875
576.80114	23077.9875
580.82422	23132.3875
584.84444	23173.4875
588.86181	23362.7875
592.87633	23652.7875
596.888	23713.3875
600.89682	23441.4875
604.9028	23580.1875
608.90594	24940.2875
612.90624	26440.3875
616.90371	25329.6875
620.89834	22257.0875
624.89015	20808.7875
628.87913	20660.5875
632.86528	20678.7875
636.84862	20775.7875
640.82913	20647.9875
644.80683	20349.6875
648.78172	20080.3875
652.75379	20009.2875
656.72306	20105.9875
660.68952	20351.0875
664.65319	20278.0875
668.61405	20028.3875
672.57211	19976.3875
676.52738	20060.3875
680.47986	20131.4875
684.42955	20097.1875
688.37646	20041.6875
692.32058	20047.5875
696.26192	20162.1875
700.20048	20327.4875
704.13626	20413.2875
708.06928	20418.8875
711.99952	20344.2875
715.927	20279.8875
719.85171	20241.9875
723.77365	20242.4875
727.69284	20127.7875
731.60928	20014.8875
735.52295	19957.5875
739.43388	19963.5875
743.34206	19977.9875
747.24749	20026.3875
751.15017	20099.1875
755.05012	20333.8875
758.94733	20725.9875
762.8418	21490.3875
766.73354	22534.3875
770.62254	23621.9875
774.50882	23946.0875
778.39237	23162.1875
782.27321	21873.6875
786.15132	20785.0875
790.02671	20156.7875
793.89938	19848.1875
797.76935	19716.9875
801.6366	19692.7875
805.50115	19667.2875
809.36299	19583.2875
813.22213	19508.9875
817.07857	19464.7875
820.93231	19474.7875
824.78336	19373.6875
828.63172	19315.8875
832.47738	19264.8875
836.32036	19218.2875
840.16066	19248.9875
843.99827	19252.8875
847.8332	19254.0875
851.66546	19191.4875
855.49504	19239.0875
859.32195	19271.8875
863.1462	19245.9875
866.96777	19230.1875
870.78668	19190.5875
874.60293	19176.2875
878.41652	19176.6875
882.22745	19192.5875
886.03573	19234.0875
889.84136	19237.1875
893.64433	19160.9875
897.44466	19140.4875
901.24235	19092.1875
905.0374	18993.0875
908.8298	18949.9875
912.61957	18899.7875
916.40671	18945.6875
920.19121	19121.7875
923.97308	19245.9875
927.75233	19231.0875
931.52895	19130.1875
935.30295	18995.7875
939.07433	18745.9875
942.84309	18563.1875
946.60924	18447.7875
950.37278	18387.4875
954.13371	18350.7875
957.89203	18326.1875
961.64774	18282.0875
965.40086	18276.9875
969.15137	18195.2875
972.89929	18102.1875
976.64461	18021.9875
980.38733	17975.0875
984.12747	17995.9875
987.86502	18094.9875
991.59999	18211.8875
995.33237	18400.3875
999.06217	18672.2875
1002.78939	19031.2875
1006.51404	19212.5875
1010.23611	19327.6875
1013.95561	19445.8875
1017.67255	19512.7875
1021.38692	19419.4875
1025.09872	19203.2875
1028.80796	19147.7875
1032.51465	19235.6875
1036.21877	19406.2875
1039.92035	19395.9875
1043.61937	19335.7875
1047.31584	19168.7875
1051.00976	19048.2875
1054.70114	18966.4875
1058.38998	19033.7875
1062.07627	19119.3875
1065.76003	19238.8875
1069.44126	19312.3875
1073.11995	19394.6875
1076.79611	19505.6875
1080.46974	19581.1875
1084.14085	19688.4875
1087.80943	19829.5875
1091.47549	20008.4875
1095.13903	20019.3875
1098.80005	19873.1875
1102.45857	19635.6875
1106.11456	19457.2875
1109.76805	19383.5875
1113.41903	19441.9875
1117.06751	19582.1875
1120.71348	19754.6875
1124.35696	19930.3875
1127.99793	20127.7875
1131.63641	20275.5875
1135.2724	20187.7875
1138.90589	19999.9875
1142.5369	19924.9875
1146.16542	20011.3875
1149.79145	20075.2875
1153.415	20217.2875
1157.03607	20457.0875
1160.65467	20860.8875
1164.27079	21581.0875
1167.88443	22407.2875
1171.49561	23497.0875
1175.10432	24829.9875
1178.71056	26441.9875
1182.31434	28048.9875
1185.91565	28921.6875
1189.51451	28899.2875
1193.11091	28371.0875
1196.70485	27586.0875
1200.29634	26707.2875
1203.88538	26054.2875
1207.47197	25558.6875
1211.05612	25086.8875
1214.63782	24655.0875
1218.21708	24256.8875
1221.79391	23991.3875
1225.36829	23731.0875
1228.94024	23446.0875
1232.50976	22951.2875
1236.07685	22603.2875
1239.6415	22439.5875
1243.20374	22517.8875
1246.76355	22559.7875
1250.32093	22778.5875
1253.8759	23120.5875
1257.42845	23602.6875
1260.97859	24068.1875
1264.52631	24565.5875
1268.07163	25089.1875
1271.61453	25582.9875
1275.15503	26096.1875
1278.69312	26712.0875
1282.22882	27167.6875
1285.76211	27777.3875
1289.29301	28571.0875
1292.82151	29588.4875
1296.34761	30969.2875
1299.87133	32548.0875
1303.39266	34184.8875
1306.9116	35821.5875
1310.42815	37337.6875
1313.94233	38372.7875
1317.45412	38490.6875
1320.96354	38022.0875
1324.47058	37487.7875
1327.97525	36955.2875
1331.47754	36614.9875
1334.97747	36494.6875
1338.47502	36616.1875
1341.97022	36588.2875
1345.46305	36248.2875
1348.95352	35656.8875
1352.44163	35180.7875
1355.92738	35140.5875
1359.41078	35728.7875
1362.89183	36456.8875
1366.37053	35887.5875
1369.84688	33441.7875
1373.32088	30460.8875
1376.79254	28508.7875
1380.26186	27830.2875
1383.72883	27819.1875
1387.19347	28063.6875
1390.65578	28194.6875
1394.11575	28407.3875
1397.57339	28794.7875
1401.0287	29393.9875
1404.48168	29951.1875
1407.93234	30012.2875
1411.38068	29580.4875
1414.82669	28720.2875
1418.27039	27518.9875
1421.71177	26321.6875
1425.15083	25318.6875
1428.58758	24711.2875
1432.02203	24653.2875
1435.45416	25080.8875
1438.88399	25656.1875
1442.31151	26266.6875
1445.73673	26730.8875
1449.15965	27167.9875
1452.58027	27585.2875
1455.9986	27759.6875
1459.41463	27940.1875
1462.82837	28160.0875
1466.23982	28534.4875
1469.64898	28763.7875
1473.05586	28818.6875
1476.46045	28698.7875
1479.86276	28394.7875
1483.26279	28015.7875
1486.66054	27696.2875
1490.05602	27641.2875
1493.44922	27635.9875
1496.84016	27626.3875
1500.22882	27837.0875
1503.61521	28323.1875
1506.99934	29150.5875
1510.38121	29918.3875
1513.76081	30229.9875
1517.13816	29826.8875
1520.51324	28888.1875
1523.88607	28041.1875
1527.25665	27626.4875
1530.62498	27567.8875
1533.99105	27655.9875
1537.35488	27641.7875
1540.71647	27458.2875
1544.07581	27075.2875
1547.4329	26624.5875
1550.78776	26184.9875
1554.14038	25903.2875
1557.49077	25691.0875
1560.83892	25586.6875
1564.18484	25532.6875
1567.52853	25537.9875
1570.86999	25686.8875
1574.20922	26093.3875
1577.54624	26453.0875
1580.88103	26630.6875
1584.2136	26917.9875
1587.54395	27457.9875
1590.87208	28453.0875
1594.19801	29746.2875
1597.52172	31016.1875
1600.84321	31527.4875
1604.16251	30576.2875
1607.47959	28710.5875
1610.79447	26623.4875
1614.10715	24560.5875
1617.41763	22890.3875
1620.7259	21670.3875
1624.03199	20990.2875
1627.33587	20880.0875
1630.63757	21268.9875
1633.93707	22278.4875
1637.23439	23936.1875
1640.52951	26306.6875
1643.82246	29023.4875
1647.11321	31183.6875
1650.40179	31704.2875
1653.68819	30044.3875
1656.97241	26819.1875
1660.25446	23544.0875
1663.53433	21030.7875
1666.81203	19379.1875
1670.08756	18310.2875
1673.36092	17631.7875
1676.63211	17232.0875
1679.90115	16893.8875
1683.16801	16690.5875
1686.43272	16501.0875
1689.69527	16350.6875
1692.95567	16251.6875
1696.2139	16190.4875
1699.46999	16140.2875
1702.72392	16106.8875
1705.97571	16002.4875
1709.22535	15994.7875
1712.47284	15944.4875
1715.71819	15868.9875
1718.96139	15865.6875
1722.20246	15796.1875
1725.44139	15739.1875
1728.67818	15646.0875
1731.91284	15570.0875
1735.14537	15493.4875
1738.37576	15466.9875
1741.60403	15407.5875
1744.83017	15375.9875
1748.05418	15347.1875
1751.27607	15322.9875
1754.49584	15320.3875
1757.71349	15317.2875
1760.92903	15286.8875
1764.14244	15261.3875
1767.35375	15232.1875
1770.56294	15178.3875
1773.77002	15198.8875
1776.97499	15142.4875
1780.17785	15105.0875
1783.37861	15070.0875
1786.57727	15011.7875
1789.77382	14981.7875
1792.96828	14964.6875
1796.16064	14925.2875
1799.3509	14918.8875
1802.53907	14892.9875
1805.72514	14797.7875
1808.90913	14774.1875
1812.09102	14734.7875
1815.27083	14724.6875
1818.44856	14711.6875
1821.6242	14662.0875
1824.79776	14648.3875
1827.96924	14612.1875
1831.13864	14586.4875
1834.30597	14596.4875
1837.47122	14560.7875
1840.6344	14552.0875
1843.7955	14533.9875
1846.95454	14542.0875
1850.11151	14527.2875
1853.26642	14524.4875
1856.41926	14503.1875
1859.57004	14493.9875
1862.71876	14466.2875
1865.86542	14486.5875
1869.01003	14434.6875
1872.15258	14417.4875
1875.29308	14403.6875
1878.43152	14431.0875
1881.56792	14414.1875
1884.70227	14395.1875
1887.83457	14381.8875
1890.96482	14337.6875
1894.09304	14300.0875
1897.21921	14286.3875
1900.34335	14290.6875
1903.46544	14281.5875
1906.58551	14282.8875
1909.70353	14235.0875
1912.81953	14229.5875
1915.93349	14227.6875
1919.04543	14188.4875
1922.15534	14137.2875
1925.26322	14086.5875
1928.36908	14066.1875
1931.47292	14065.9875
1934.57473	14029.7875
1937.67453	14007.9875
1940.77232	13992.3875
1943.86808	13931.0875
1946.96184	13866.6875
1950.05358	13864.9875
1953.14331	13800.7875
1956.23103	13750.2875
1959.31675	13689.4875
1962.40046	13661.0875
1965.48217	13623.2875
1968.56188	13585.9875
1971.63959	13546.7875
1974.7153	13510.0875
1977.78901	13450.1875
1980.86073	13426.1875
1983.93046	13381.8875
1986.99819	13341.3875
1990.06394	13321.8875
1993.1277	13277.9875
1996.18947	13213.5875
1999.24925	13174.7875
2002.30706	13139.8875
2005.36288	13090.3875
2008.41672	13049.0875
2011.46859	13024.6875
2014.51848	13016.5875
2017.56639	12960.9875
2020.61233	12949.6875
2023.6563	12916.5875
2026.6983	12872.3875
2029.73833	12829.4875
2032.7764	12813.3875
2035.8125	12786.7875
2038.84664	12726.4875
2041.87881	12704.7875
2044.90903	12651.5875
2047.93729	12653.1875
2050.96359	12671.3875
2053.98794	12618.4875
2057.01034	12622.1875
2060.03078	12595.6875
2063.04927	12587.3875
2066.06582	12598.7875
2069.08042	12596.7875
2072.09307	12597.8875
2075.10378	12575.8875
2078.11255	12551.6875
2081.11938	12549.3875
2084.12426	12542.9875
2087.12722	12546.0875
2090.12824	12527.1875
2093.12732	12507.3875
2096.12447	12506.1875
2099.11969	12492.1875
2102.11299	12482.8875
2105.10435	12517.2875
2108.09379	12505.9875
2111.08131	12506.8875
2114.0669	12493.6875
2117.05057	12530.2875
2120.03233	12503.3875
2123.01216	12528.0875
2125.99008	12531.9875
2128.96609	12557.3875
2131.94018	12610.1875
2134.91236	12567.4875
2137.88263	12565.3875
2140.851	12565.7875
2143.81746	12587.6875
2146.78201	12579.2875
2149.74466	12575.9875
2152.7054	12611.9875
2155.66425	12584.7875
2158.6212	12568.1875
2161.57625	12557.0875
2164.52941	12546.8875
2167.48067	12527.0875
2170.43004	12537.6875
2173.37752	12525.6875
2176.32311	12510.8875
2179.26681	12533.0875
2182.20863	12527.2875
2185.14856	12515.5875
2188.08661	12528.6875
2191.02278	12531.3875
2193.95707	12514.0875
2196.88948	12540.8875
2199.82001	12485.3875
2202.74867	12487.4875
2205.67545	12453.3875
2208.60037	12442.0875
2211.52341	12420.7875
2214.44458	12413.0875
2217.36388	12394.5875
2220.28132	12400.0875
2223.1969	12327.0875
2226.11061	12291.0875
2229.02246	12282.2875
2231.93245	12253.7875
2234.84058	12239.7875
2237.74686	12187.5875
2240.65128	12203.1875
2243.55385	12147.3875
2246.45456	12139.9875
2249.35343	12133.2875
2252.25044	12138.8875
2255.14561	12108.4875
2258.03893	12082.6875
2260.93041	12061.3875
2263.82004	12034.6875
2266.70783	11993.3875
2269.59378	11953.4875
2272.4779	11942.1875
2275.36017	11883.9875
2278.24061	11869.7875
2281.11922	11833.0875
2283.996	11848.1875
2286.87094	11835.3875
2289.74405	11833.0875
2292.61534	11814.5875
2295.4848	11782.7875
2298.35243	11793.9875
2301.21824	11746.0875
2304.08223	11770.4875
2306.94439	11733.7875
2309.80474	11774.1875
2312.66327	11729.6875
2315.51999	11752.3875
2318.37489	11721.3875
2321.22797	11718.4875
2324.07925	11686.1875
2326.92871	11662.5875
2329.77637	11669.6875
2332.62222	11643.4875
2335.46626	11618.5875
2338.3085	11609.7875
2341.14893	11602.9875
2343.98756	11587.0875
2346.8244	11594.8875
2349.65943	11589.4875
2352.49267	11566.7875
2355.32411	11570.7875
2358.15376	11552.3875
2360.98161	11575.8875
2363.80768	11535.3875
2366.63195	11550.3875
2369.45444	11539.6875
2372.27514	11512.6875
2375.09405	11497.7875
2377.91118	11472.0875
2380.72652	11443.9875
2383.54009	11392.0875
2386.35187	11394.1875
2389.16188	11348.0875
2391.97011	11345.0875
2394.77657	11309.6875
2397.58125	11306.8875
2400.38416	11290.2875
2403.18529	11287.1875
2405.98466	11237.2875
2408.78226	11214.9875
2411.57809	11234.4875
2414.37216	11186.4875
2417.16446	11187.4875
2419.955	11137.1875
2422.74378	11146.5875
2425.5308	11120.0875
2428.31606	11150.4875
2431.09956	11124.7875
2433.88131	11105.0875
2436.6613	11087.8875
2439.43954	11103.8875
2442.21603	11063.4875
2444.99077	11059.5875
2447.76377	11073.7875
2450.53501	11041.1875
2453.30451	11053.1875
2456.07226	11022.3875
2458.83827	11010.3875
2461.60254	11024.9875
2464.36507	11014.2875
2467.12586	10984.1875
2469.88492	10989.5875
2472.64224	10985.8875
2475.39782	10989.0875
2478.15167	10995.6875
2480.90379	11007.7875
2483.65417	10985.5875
2486.40283	10996.0875
2489.14976	10993.9875
2491.89497	10972.6875
2494.63845	10974.1875
2497.3802	10978.6875
2500.12024	10959.7875
2502.85855	10940.8875
2505.59514	10949.4875
2508.33002	10988.8875
2511.06318	10912.1875
2513.79462	10921.5875
2516.52435	10896.6875
2519.25237	10878.6875
2521.97867	10876.5875
2524.70327	10897.0875
2527.42616	10853.4875
2530.14734	10845.3875
2532.86681	10831.5875
2535.58458	10846.9875
2538.30065	10854.8875
2541.01501	10843.3875
2543.72768	10812.0875
2546.43864	10809.9875
2549.14791	10780.8875
2551.85548	10778.7875
2554.56136	10743.7875
2557.26554	10723.2875
2559.96803	10704.2875
2562.66883	10691.0875
2565.36794	10652.7875
2568.06536	10634.8875
2570.7611	10622.9875
2573.45514	10591.1875
2576.14751	10607.0875
2578.83819	10576.4875
2581.52719	10569.3875
2584.21451	10571.8875
2586.90015	10579.0875
2589.58411	10544.7875
2592.2664	10565.7875
2594.94701	10535.7875
2597.62594	10541.7875
2600.30321	10500.3875
2602.9788	10494.1875
2605.65273	10452.9875
2608.32498	10471.9875
2610.99557	10453.2875
2613.66449	10451.7875
2616.33175	10457.9875
2618.99734	10449.7875
2621.66128	10433.6875
2624.32355	10457.7875
2626.98416	10430.1875
2629.64311	10431.4875
2632.30041	10401.7875
2634.95605	10397.9875
2637.61004	10357.0875
2640.26238	10379.7875
2642.91306	10362.3875
2645.56209	10371.6875
2648.20948	10355.1875
2650.85521	10315.5875
2653.4993	10339.0875
2656.14175	10359.8875
2658.78255	10350.6875
2661.42171	10374.0875
2664.05923	10374.7875
2666.6951	10358.9875
2669.32934	10349.6875
2671.96194	10357.3875
2674.59291	10366.6875
2677.22224	10358.7875
2679.84993	10331.9875
2682.476	10337.6875
2685.10043	10335.2875
2687.72324	10349.0875
2690.34441	10340.5875
2692.96396	10331.7875
2695.58188	10332.9875
2698.19818	10295.6875
2700.81285	10305.1875
2703.4259	10316.9875
2706.03733	10313.0875
2708.64714	10327.7875
2711.25533	10325.0875
2713.86191	10331.6875
2716.46687	10355.6875
2719.07021	10337.5875
2721.67194	10358.5875
2724.27206	10349.1875
2726.87057	10343.4875
2729.46747	10367.8875
2732.06276	10327.1875
2734.65644	10328.5875
2737.24852	10337.7875
2739.83899	10337.2875
2742.42786	10337.0875
2745.01513	10322.4875
2747.60079	10318.6875
2750.18486	10299.5875
2752.76733	10264.3875
2755.3482	10273.4875
2757.92747	10276.1875
2760.50515	10252.1875
2763.08123	10259.3875
2765.65573	10237.3875
2768.22863	10249.1875
2770.79994	10256.2875
2773.36967	10222.0875
2775.9378	10202.8875
2778.50435	10190.0875
2781.06932	10201.1875
2783.6327	10201.9875
2786.1945	10188.1875
2788.75471	10196.0875
2791.31335	10151.7875
2793.87041	10176.8875
2796.42589	10146.1875
2798.97979	10127.6875
2801.53212	10118.9875
2804.08288	10112.3875
2806.63206	10071.2875
2809.17967	10043.7875
2811.72571	9991.3875
2814.27018	9998.2875
2816.81308	9976.1875
2819.35442	9988.5875
2821.89419	9940.2875
2824.43239	9943.1875
2826.96904	9928.8875
2829.50412	9941.4875
2832.03763	9919.5875
2834.56959	9929.5875
2837.1	9899.3875
2839.62884	9886.1875
2842.15613	9903.1875
2844.68186	9932.4875
2847.20604	9925.6875
2849.72867	9949.3875
2852.24974	9960.2875
2854.76927	9937.8875
2857.28724	9911.3875
2859.80367	9907.2875
2862.31855	9882.5875
2864.83189	9860.9875
2867.34368	9829.9875
2869.85393	9828.9875
2872.36264	9827.0875
2874.8698	9845.3875
2877.37543	9846.9875
2879.87952	9820.7875
2882.38207	9841.4875
2884.88308	9811.1875
2887.38256	9841.4875
2889.88051	9854.4875
2892.37692	9842.6875
2894.8718	9830.3875
2897.36515	9847.5875
2899.85698	9864.8875
2902.34727	9852.5875
2904.83604	9894.5875
2907.32328	9890.5875
2909.809	9894.3875
2912.29319	9896.7875
2914.77587	9871.3875
2917.25702	9887.3875
2919.73665	9860.4875
2922.21476	9878.0875
2924.69136	9857.2875
2927.16644	9859.2875
2929.64	9848.8875
2932.11205	9839.9875
2934.58258	9837.6875
2937.05161	9834.7875
2939.51912	9857.5875
2941.98513	9835.7875
2944.44962	9801.1875
2946.91261	9775.5875
2949.37409	9787.9875
2951.83407	9761.1875
2954.29254	9744.8875
2956.74951	9749.6875
2959.20498	9740.9875
2961.65895	9695.1875
2964.11142	9738.8875
2966.56239	9709.2875
2969.01186	9703.2875
2971.45984	9660.8875
2973.90632	9619.1875
2976.35131	9627.5875
2978.7948	9600.2875
2981.23681	9577.9875
2983.67732	9535.2875
2986.11635	9539.0875
2988.55388	9504.4875
2990.98993	9476.0875
2993.4245	9463.2875
2995.85758	9426.1875
2998.28917	9403.1875
3000.71928	9377.2875
3003.14791	9372.2875
3005.57506	9364.1875
3008.00073	9327.7875
3010.42493	9330.9875
3012.84764	9321.3875
3015.26888	9271.0875
3017.68865	9284.2875
3020.10694	9256.6875
3022.52376	9231.5875
3024.9391	9226.5875
3027.35298	9209.2875
3029.76539	9216.9875
3032.17632	9219.5875
3034.5858	9222.1875
