Data from AgNP_FTO_APTES_UA_10uM_CRN_50uM_R6G_10uM_NaF_0.1M_Addition_RamanShift__3__16-46-00-783.txt Node

Date: Thu Feb 10 16:46:00 GMT 2022
User: TCL
Spectrometer: QEP01345
Trigger mode: 4
Integration Time (sec): 7.000000E0
Scans to average: 10
Electric dark correction enabled: true
Nonlinearity correction enabled: false
Boxcar width: 0
XAxis mode: Raman Shifts
Number of Pixels in Spectrum: 1044
>>>>>Begin Spectral Data<<<<<
46.04893	-0.475
50.45542	-0.975
54.85868	-1.675
59.25871	-0.475
63.6555	70.225
68.04907	69.225
72.43941	74.025
76.82654	75.425
81.21044	79.125
85.59113	81.525
89.96862	86.525
94.34289	93.025
98.71396	89.825
103.08183	94.925
107.4465	101.525
111.80798	99.325
116.16626	101.925
120.52136	109.625
124.87327	113.025
129.222	118.325
133.56755	125.225
137.90993	131.725
142.24913	142.425
146.58517	165.025
150.91804	192.025
155.24774	226.925
159.57429	279.725
163.89768	361.525
168.21792	480.025
172.53501	649.925
176.84895	903.225
181.15975	1272.025
185.46741	1777.025
189.77193	2468.525
194.07331	3283.425
198.37157	4216.125
202.6667	5217.125
206.9587	6181.825
211.24758	7162.725
215.53334	8122.325
219.81599	9122.125
224.09553	10246.025
228.37195	11464.825
232.64527	12805.025
236.91549	14234.925
241.18261	15614.225
245.44663	16954.325
249.70755	18157.025
253.96539	19212.325
258.22014	20137.425
262.4718	20890.825
266.72039	21432.825
270.96589	21758.725
275.20832	21818.325
279.44768	21782.525
283.68397	21634.025
287.91719	21444.125
292.14735	21335.425
296.37445	21360.825
300.59849	21448.425
304.81948	21516.725
309.03742	21494.425
313.25231	21274.525
317.46415	20873.925
321.67296	20362.825
325.87872	19955.125
330.08145	19751.925
334.28114	19742.925
338.47781	19827.025
342.67145	20063.325
346.86207	20318.225
351.04966	20675.725
355.23424	21032.925
359.4158	21354.425
363.59435	21622.425
367.76989	21809.925
371.94243	21888.825
376.11196	22024.025
380.27849	22125.125
384.44203	22253.425
388.60257	22442.625
392.76012	22655.325
396.91468	22943.425
401.06626	23277.825
405.21485	23488.725
409.36047	23381.525
413.50311	23149.225
417.64277	23053.825
421.77947	23091.125
425.9132	23138.725
430.04396	23288.825
434.17176	23399.525
438.2966	23525.525
442.41849	23907.325
446.53742	24500.125
450.6534	25204.225
454.76644	25730.825
458.87653	25919.025
462.98368	25770.625
467.08789	25510.325
471.18916	25214.225
475.2875	24944.925
479.38291	24886.125
483.4754	24796.325
487.56496	24572.025
491.6516	24088.025
495.73531	23635.125
499.81612	23415.825
503.89401	23469.325
507.96899	23538.425
512.04106	23468.925
516.11023	23328.025
520.1765	23075.025
524.23987	22827.525
528.30034	22622.725
532.35792	22413.025
536.41261	22155.725
540.46441	22000.525
544.51333	22062.925
548.55936	22335.925
552.60252	22827.225
556.64279	23371.125
560.6802	23737.525
564.71473	24044.725
568.7464	24517.325
572.7752	25228.725
576.80114	25979.425
580.82422	26598.225
584.84444	27266.925
588.86181	28132.225
592.87633	28667.925
596.888	28278.725
600.89682	27300.525
604.9028	27256.225
608.90594	28689.925
612.90624	30090.025
616.90371	28147.825
620.89834	24429.325
624.89015	22835.325
628.87913	22740.825
632.86528	22779.625
636.84862	22703.125
640.82913	22314.525
644.80683	21864.225
648.78172	21598.125
652.75379	21591.025
656.72306	21779.425
660.68952	22035.325
664.65319	21917.625
668.61405	21590.325
672.57211	21550.425
676.52738	21642.225
680.47986	21619.025
684.42955	21489.625
688.37646	21481.425
692.32058	21593.125
696.26192	21913.525
700.20048	22171.325
704.13626	22356.425
708.06928	22349.425
711.99952	22298.625
715.927	22248.625
719.85171	22288.825
723.77365	22261.125
727.69284	21999.325
731.60928	21699.625
735.52295	21573.925
739.43388	21535.225
743.34206	21609.325
747.24749	21735.425
751.15017	21951.225
755.05012	22365.625
758.94733	23008.925
762.8418	23996.825
766.73354	25380.125
770.62254	26485.725
774.50882	26586.125
778.39237	25449.825
782.27321	23932.125
786.15132	22736.525
790.02671	22033.825
793.89938	21676.225
797.76935	21529.325
801.6366	21545.625
805.50115	21462.725
809.36299	21360.525
813.22213	21249.125
817.07857	21179.625
820.93231	21099.425
824.78336	20986.525
828.63172	20920.725
832.47738	20884.625
836.32036	20888.325
840.16066	20967.825
843.99827	21048.825
847.8332	21005.125
851.66546	20939.725
855.49504	20953.425
859.32195	20947.925
863.1462	20878.525
866.96777	20809.425
870.78668	20770.425
874.60293	20765.125
878.41652	20757.225
882.22745	20794.225
886.03573	20854.425
889.84136	20820.525
893.64433	20772.625
897.44466	20682.525
901.24235	20641.025
905.0374	20563.625
908.8298	20598.225
912.61957	20649.125
916.40671	20868.625
920.19121	21193.025
923.97308	21396.625
927.75233	21338.825
931.52895	21129.025
935.30295	20824.625
939.07433	20510.425
942.84309	20285.425
946.60924	20230.825
950.37278	20130.825
954.13371	20130.125
957.89203	20074.425
961.64774	20045.925
965.40086	20047.525
969.15137	19992.125
972.89929	19941.625
976.64461	19863.725
980.38733	19854.925
984.12747	19921.225
987.86502	20052.125
991.59999	20231.225
995.33237	20496.125
999.06217	20934.925
1002.78939	21442.225
1006.51404	21786.525
1010.23611	22080.825
1013.95561	22249.225
1017.67255	22228.525
1021.38692	21992.225
1025.09872	21797.125
1028.80796	21769.025
1032.51465	22174.925
1036.21877	22642.825
1039.92035	22783.325
1043.61937	22591.125
1047.31584	22255.725
1051.00976	21931.025
1054.70114	21771.125
1058.38998	21783.425
1062.07627	21910.425
1065.76003	22073.425
1069.44126	22277.525
1073.11995	22540.025
1076.79611	22779.225
1080.46974	22920.125
1084.14085	23089.425
1087.80943	23296.625
1091.47549	23480.425
1095.13903	23502.525
1098.80005	23266.525
1102.45857	22807.925
1106.11456	22451.725
1109.76805	22292.525
1113.41903	22317.525
1117.06751	22397.325
1120.71348	22534.225
1124.35696	22669.325
1127.99793	22942.725
1131.63641	23075.625
1135.2724	23032.725
1138.90589	23009.825
1142.5369	23131.725
1146.16542	23274.225
1149.79145	23479.725
1153.415	23773.825
1157.03607	24209.625
1160.65467	25005.525
1164.27079	26256.625
1167.88443	27628.225
1171.49561	29051.525
1175.10432	30688.825
1178.71056	32745.325
1182.31434	34716.225
1185.91565	35622.425
1189.51451	35400.725
1193.11091	34532.025
1196.70485	33402.525
1200.29634	32381.525
1203.88538	31780.225
1207.47197	31568.725
1211.05612	31293.225
1214.63782	30709.025
1218.21708	29777.225
1221.79391	28905.025
1225.36829	28212.925
1228.94024	27673.725
1232.50976	27228.825
1236.07685	26876.025
1239.6415	26742.725
1243.20374	26833.825
1246.76355	27074.325
1250.32093	27569.125
1253.8759	28146.325
1257.42845	28875.025
1260.97859	29607.725
1264.52631	30381.025
1268.07163	31210.325
1271.61453	32107.825
1275.15503	33032.425
1278.69312	34059.225
1282.22882	35014.425
1285.76211	36064.325
1289.29301	37477.425
1292.82151	39288.525
1296.34761	41637.625
1299.87133	44237.925
1303.39266	46925.925
1306.9116	49145.325
1310.42815	50668.725
1313.94233	51141.925
1317.45412	50747.825
1320.96354	49935.325
1324.47058	49431.425
1327.97525	49077.425
1331.47754	48764.225
1334.97747	48440.525
1338.47502	47948.525
1341.97022	47106.225
1345.46305	46072.025
1348.95352	45127.425
1352.44163	44770.725
1355.92738	45335.325
1359.41078	46694.225
1362.89183	47720.225
1366.37053	46666.125
1369.84688	43310.025
1373.32088	39162.125
1376.79254	36437.225
1380.26186	35641.125
1383.72883	36023.325
1387.19347	36260.725
1390.65578	36201.225
1394.11575	36209.525
1397.57339	36639.925
1401.0287	37309.425
1404.48168	37785.225
1407.93234	37636.225
1411.38068	36802.725
1414.82669	35374.125
1418.27039	33740.925
1421.71177	32168.425
1425.15083	30960.625
1428.58758	30349.625
1432.02203	30657.725
1435.45416	31536.325
1438.88399	32594.125
1442.31151	33452.325
1445.73673	34026.825
1449.15965	34334.625
1452.58027	34541.025
1455.9986	34465.925
1459.41463	34569.225
1462.82837	34956.225
1466.23982	35507.425
1469.64898	36021.525
1473.05586	36383.225
1476.46045	36361.425
1479.86276	36068.625
1483.26279	35539.525
1486.66054	35290.125
1490.05602	35206.225
1493.44922	35404.825
1496.84016	35607.225
1500.22882	36021.825
1503.61521	36722.525
1506.99934	37635.725
1510.38121	38461.025
1513.76081	38577.525
1517.13816	38088.225
1520.51324	37282.825
1523.88607	36744.825
1527.25665	36707.725
1530.62498	36850.825
1533.99105	36892.025
1537.35488	36508.925
1540.71647	35704.925
1544.07581	34735.125
1547.4329	33729.925
1550.78776	32859.525
1554.14038	32259.825
1557.49077	31921.825
1560.83892	31687.425
1564.18484	31589.025
1567.52853	31669.925
1570.86999	32019.925
1574.20922	32660.325
1577.54624	33383.225
1580.88103	33947.725
1584.2136	34622.925
1587.54395	35973.225
1590.87208	37874.825
1594.19801	40043.425
1597.52172	41731.825
1600.84321	41731.525
1604.16251	39513.825
1607.47959	36159.525
1610.79447	32848.425
1614.10715	30011.725
1617.41763	27830.325
1620.7259	26462.625
1624.03199	25804.325
1627.33587	25971.225
1630.63757	26811.825
1633.93707	28632.025
1637.23439	31512.825
1640.52951	35567.225
1643.82246	40233.125
1647.11321	43561.425
1650.40179	43754.625
1653.68819	40284.525
1656.97241	34889.925
1660.25446	29878.925
1663.53433	26180.725
1666.81203	23713.625
1670.08756	22255.725
1673.36092	21292.725
1676.63211	20674.925
1679.90115	20248.625
1683.16801	19908.225
1686.43272	19676.925
1689.69527	19511.725
1692.95567	19379.025
1696.2139	19289.625
1699.46999	19207.325
1702.72392	19178.225
1705.97571	19073.425
1709.22535	19050.325
1712.47284	18991.325
1715.71819	18963.125
1718.96139	18910.125
1722.20246	18848.925
1725.44139	18742.225
1728.67818	18627.325
1731.91284	18523.725
1735.14537	18455.325
1738.37576	18390.425
1741.60403	18339.425
1744.83017	18290.025
1748.05418	18190.725
1751.27607	18181.825
1754.49584	18172.825
1757.71349	18178.325
1760.92903	18130.525
1764.14244	18107.425
1767.35375	18127.925
1770.56294	18092.825
1773.77002	18041.525
1776.97499	18006.525
1780.17785	17947.825
1783.37861	17931.225
1786.57727	17862.225
1789.77382	17838.825
1792.96828	17826.625
1796.16064	17807.025
1799.3509	17754.225
1802.53907	17749.025
1805.72514	17697.825
1808.90913	17677.025
1812.09102	17617.625
1815.27083	17583.625
1818.44856	17541.725
1821.6242	17527.225
1824.79776	17515.125
1827.96924	17518.325
1831.13864	17475.325
1834.30597	17507.125
1837.47122	17479.925
1840.6344	17462.425
1843.7955	17494.325
1846.95454	17470.925
1850.11151	17477.425
1853.26642	17411.925
1856.41926	17458.325
1859.57004	17448.425
1862.71876	17392.225
1865.86542	17359.925
1869.01003	17319.525
1872.15258	17355.625
1875.29308	17363.525
1878.43152	17324.825
1881.56792	17309.225
1884.70227	17279.025
1887.83457	17245.525
1890.96482	17234.625
1894.09304	17174.725
1897.21921	17188.325
1900.34335	17167.725
1903.46544	17138.825
1906.58551	17120.025
1909.70353	17084.425
1912.81953	17066.025
1915.93349	17069.925
1919.04543	17011.725
1922.15534	16981.025
1925.26322	16971.525
1928.36908	16911.525
1931.47292	16916.825
1934.57473	16869.825
1937.67453	16839.525
1940.77232	16789.125
1943.86808	16717.025
1946.96184	16673.125
1950.05358	16637.325
1953.14331	16620.125
1956.23103	16565.525
1959.31675	16513.525
1962.40046	16461.925
1965.48217	16402.725
1968.56188	16356.525
1971.63959	16318.225
1974.7153	16265.525
1977.78901	16227.625
1980.86073	16185.925
1983.93046	16148.225
1986.99819	16094.625
1990.06394	16043.325
1993.1277	16044.525
1996.18947	15981.425
1999.24925	15926.925
2002.30706	15868.225
2005.36288	15840.525
2008.41672	15790.225
2011.46859	15757.025
2014.51848	15723.225
2017.56639	15670.425
2020.61233	15660.025
2023.6563	15594.225
2026.6983	15558.825
2029.73833	15563.725
2032.7764	15489.625
2035.8125	15491.725
2038.84664	15444.125
2041.87881	15425.025
2044.90903	15362.725
2047.93729	15348.925
2050.96359	15364.025
2053.98794	15360.125
2057.01034	15334.925
2060.03078	15328.925
2063.04927	15316.625
2066.06582	15319.225
2069.08042	15340.625
2072.09307	15295.225
2075.10378	15291.525
2078.11255	15259.525
2081.11938	15284.725
2084.12426	15256.125
2087.12722	15216.925
2090.12824	15198.825
2093.12732	15220.925
2096.12447	15192.725
2099.11969	15219.525
2102.11299	15231.925
2105.10435	15229.025
2108.09379	15243.325
2111.08131	15270.125
2114.0669	15227.725
2117.05057	15264.125
2120.03233	15262.125
2123.01216	15271.225
2125.99008	15312.625
2128.96609	15336.625
2131.94018	15344.225
2134.91236	15336.425
2137.88263	15372.525
2140.851	15362.025
2143.81746	15401.225
2146.78201	15362.825
2149.74466	15386.625
2152.7054	15378.525
2155.66425	15349.425
2158.6212	15390.825
2161.57625	15382.225
2164.52941	15383.925
2167.48067	15366.125
2170.43004	15361.925
2173.37752	15352.225
2176.32311	15370.025
2179.26681	15333.325
2182.20863	15337.325
2185.14856	15357.525
2188.08661	15329.325
2191.02278	15362.625
2193.95707	15373.625
2196.88948	15359.825
2199.82001	15361.625
2202.74867	15319.525
2205.67545	15341.725
2208.60037	15303.025
2211.52341	15280.425
2214.44458	15265.325
2217.36388	15223.225
2220.28132	15246.725
2223.1969	15181.525
2226.11061	15181.625
2229.02246	15164.525
2231.93245	15120.125
2234.84058	15107.725
2237.74686	15082.825
2240.65128	15076.525
2243.55385	15044.525
2246.45456	15018.125
2249.35343	14995.825
2252.25044	14954.725
2255.14561	14967.425
2258.03893	14931.125
2260.93041	14887.425
2263.82004	14836.125
2266.70783	14822.025
2269.59378	14790.325
2272.4779	14744.125
2275.36017	14689.225
2278.24061	14678.425
2281.11922	14660.525
2283.996	14687.125
2286.87094	14650.525
2289.74405	14643.025
2292.61534	14616.225
2295.4848	14623.525
2298.35243	14623.525
2301.21824	14598.325
2304.08223	14639.325
2306.94439	14602.025
2309.80474	14635.425
2312.66327	14661.025
2315.51999	14654.125
2318.37489	14628.125
2321.22797	14608.525
2324.07925	14618.625
2326.92871	14533.625
2329.77637	14535.825
2332.62222	14551.425
2335.46626	14541.125
2338.3085	14547.725
2341.14893	14539.525
2343.98756	14533.125
2346.8244	14527.325
2349.65943	14546.325
2352.49267	14497.625
2355.32411	14512.525
2358.15376	14499.925
2360.98161	14508.825
2363.80768	14492.725
2366.63195	14440.925
2369.45444	14452.025
2372.27514	14427.125
2375.09405	14442.325
2377.91118	14398.625
2380.72652	14328.825
2383.54009	14292.825
2386.35187	14294.125
2389.16188	14259.925
2391.97011	14225.625
2394.77657	14189.325
2397.58125	14230.025
2400.38416	14192.125
2403.18529	14167.525
2405.98466	14146.025
2408.78226	14134.625
2411.57809	14099.625
2414.37216	14108.325
2417.16446	14106.725
2419.955	14066.025
2422.74378	14103.925
2425.5308	14080.925
2428.31606	14091.525
2431.09956	14092.025
2433.88131	14062.825
2436.6613	14054.325
2439.43954	14053.325
2442.21603	14052.925
2444.99077	14020.025
2447.76377	14001.125
2450.53501	14008.325
2453.30451	14021.125
2456.07226	13995.125
2458.83827	14020.325
2461.60254	14004.425
2464.36507	13991.225
2467.12586	14001.325
2469.88492	14005.425
2472.64224	14006.225
2475.39782	14027.425
2478.15167	14045.125
2480.90379	14025.525
2483.65417	14038.625
2486.40283	14037.525
2489.14976	14044.525
2491.89497	14017.725
2494.63845	14056.425
2497.3802	14028.025
2500.12024	14060.225
2502.85855	14027.725
2505.59514	14026.725
2508.33002	13999.625
2511.06318	14003.925
2513.79462	14024.525
2516.52435	13973.525
2519.25237	13984.025
2521.97867	13971.525
2524.70327	13972.425
2527.42616	13947.625
2530.14734	13945.625
2532.86681	13944.525
2535.58458	13971.825
2538.30065	13934.325
2541.01501	13949.225
2543.72768	13940.025
2546.43864	13934.225
2549.14791	13927.825
2551.85548	13924.325
2554.56136	13896.225
2557.26554	13867.425
2559.96803	13858.125
2562.66883	13866.125
2565.36794	13822.425
2568.06536	13809.625
2570.7611	13811.425
2573.45514	13803.625
2576.14751	13801.925
2578.83819	13805.425
2581.52719	13778.225
2584.21451	13771.725
2586.90015	13783.025
2589.58411	13761.925
2592.2664	13763.125
2594.94701	13739.725
2597.62594	13746.925
2600.30321	13698.425
2602.9788	13720.825
2605.65273	13682.125
2608.32498	13715.525
2610.99557	13717.725
2613.66449	13694.925
2616.33175	13712.225
2618.99734	13717.425
2621.66128	13725.225
2624.32355	13720.025
2626.98416	13699.125
2629.64311	13672.525
2632.30041	13720.625
2634.95605	13672.025
2637.61004	13651.925
2640.26238	13624.825
2642.91306	13639.325
2645.56209	13615.725
2648.20948	13621.725
2650.85521	13628.025
2653.4993	13644.725
2656.14175	13638.525
2658.78255	13652.725
2661.42171	13679.425
2664.05923	13701.925
2666.6951	13691.325
2669.32934	13672.925
2671.96194	13698.725
2674.59291	13708.625
2677.22224	13670.825
2679.84993	13689.525
2682.476	13680.925
2685.10043	13671.625
2687.72324	13645.325
2690.34441	13664.225
2692.96396	13655.025
2695.58188	13648.725
2698.19818	13630.725
2700.81285	13679.125
2703.4259	13692.225
2706.03733	13713.525
2708.64714	13716.125
2711.25533	13717.325
2713.86191	13719.225
2716.46687	13747.625
2719.07021	13719.625
2721.67194	13751.325
2724.27206	13743.925
2726.87057	13768.425
2729.46747	13775.525
2732.06276	13782.825
2734.65644	13779.225
2737.24852	13784.925
2739.83899	13765.525
2742.42786	13774.925
2745.01513	13755.925
2747.60079	13730.325
2750.18486	13728.425
2752.76733	13755.925
2755.3482	13712.225
2757.92747	13724.825
2760.50515	13724.625
2763.08123	13718.725
2765.65573	13699.525
2768.22863	13707.925
2770.79994	13697.725
2773.36967	13697.125
2775.9378	13699.325
2778.50435	13732.625
2781.06932	13726.725
2783.6327	13704.425
2786.1945	13726.325
2788.75471	13711.925
2791.31335	13670.525
2793.87041	13679.525
2796.42589	13670.625
2798.97979	13671.525
2801.53212	13615.325
2804.08288	13619.925
2806.63206	13577.425
2809.17967	13567.625
2811.72571	13515.925
2814.27018	13497.825
2816.81308	13476.025
2819.35442	13465.025
2821.89419	13444.425
2824.43239	13413.125
2826.96904	13397.925
2829.50412	13432.825
2832.03763	13397.325
2834.56959	13411.225
2837.1	13400.425
2839.62884	13391.225
2842.15613	13377.625
2844.68186	13427.025
2847.20604	13380.025
2849.72867	13416.125
2852.24974	13389.225
2854.76927	13372.425
2857.28724	13390.325
2859.80367	13332.725
2862.31855	13317.325
2864.83189	13310.525
2867.34368	13304.825
2869.85393	13290.025
2872.36264	13304.025
2874.8698	13293.125
2877.37543	13251.025
2879.87952	13287.925
2882.38207	13259.825
2884.88308	13293.725
2887.38256	13316.825
2889.88051	13305.025
2892.37692	13299.425
2894.8718	13286.425
2897.36515	13343.525
2899.85698	13335.825
2902.34727	13364.125
2904.83604	13395.125
2907.32328	13404.325
2909.809	13410.025
2912.29319	13419.625
2914.77587	13402.925
2917.25702	13416.925
2919.73665	13386.325
2922.21476	13393.825
2924.69136	13406.125
2927.16644	13377.725
2929.64	13357.225
2932.11205	13334.025
2934.58258	13303.025
2937.05161	13354.125
2939.51912	13360.425
2941.98513	13330.225
2944.44962	13341.625
2946.91261	13264.025
2949.37409	13293.025
2951.83407	13282.525
2954.29254	13251.025
2956.74951	13247.325
2959.20498	13249.625
2961.65895	13247.625
2964.11142	13291.025
2966.56239	13248.125
2969.01186	13249.425
2971.45984	13217.025
2973.90632	13235.525
2976.35131	13200.825
2978.7948	13185.325
2981.23681	13157.025
2983.67732	13099.125
2986.11635	13089.725
2988.55388	13047.125
2990.98993	13051.425
2993.4245	13019.525
2995.85758	12975.625
2998.28917	12955.425
3000.71928	12957.625
3003.14791	12912.625
3005.57506	12917.025
3008.00073	12849.325
3010.42493	12846.525
3012.84764	12813.625
3015.26888	12814.425
3017.68865	12749.525
3020.10694	12771.425
3022.52376	12763.225
3024.9391	12760.325
3027.35298	12718.825
3029.76539	12704.225
3032.17632	12702.125
3034.5858	12730.525
3036.9938	12720.925
3039.40034	12708.325
3041.80542	12718.125
3044.20903	12676.125
3046.61118	12678.725
3049.01187	12632.725
3051.4111	12660.925
3053.80888	12634.425
3056.20519	12610.025
3058.60005	12542.725
3060.99345	12554.225
3063.3854	12539.125
3065.7759	12505.725
3068.16494	12514.525
3070.55254	12468.725
3072.93868	12421.525
3075.32338	12354.125
3077.70662	12361.825
3080.08842	12326.225
3082.46878	12334.425
3084.84769	12325.125
3087.22515	12300.525
3089.60118	12306.825
3091.97576	12313.225
3094.3489	12284.325
3096.72061	12302.425
3099.09087	12287.525
3101.4597	12283.325
3103.82709	12288.425
3106.19305	12266.725
3108.55757	12287.625
3110.92066	12261.325
3113.28232	12275.825
3115.64255	12243.325
3118.00134	12188.725
3120.35871	12178.225
3122.71466	12138.125
3125.06917	12109.325
3127.42226	12116.525
