Data from AgNP_FTO_APTES_UA_10uM_CRN_1uM_R6G_10uM_NaF_0.1M_Addition_RamanShift__0__12-52-40-490.txt Node

Date: Thu Feb 10 12:52:40 GMT 2022
User: TCL
Spectrometer: QEP01345
Trigger mode: 4
Integration Time (sec): 7.000000E0
Scans to average: 10
Electric dark correction enabled: true
Nonlinearity correction enabled: false
Boxcar width: 0
XAxis mode: Raman Shifts
Number of Pixels in Spectrum: 1044
>>>>>Begin Spectral Data<<<<<
46.04893	0.9125
50.45542	-0.2875
54.85868	-0.7875
59.25871	-0.1875
63.6555	24.3125
68.04907	25.0125
72.43941	27.2125
76.82654	21.8125
81.21044	26.5125
85.59113	25.8125
89.96862	29.8125
94.34289	28.9125
98.71396	33.0125
103.08183	31.5125
107.4465	32.0125
111.80798	27.9125
116.16626	33.3125
120.52136	32.7125
124.87327	40.9125
129.222	33.6125
133.56755	43.1125
137.90993	43.7125
142.24913	47.0125
146.58517	52.1125
150.91804	67.9125
155.24774	77.9125
159.57429	96.5125
163.89768	121.4125
168.21792	167.3125
172.53501	227.2125
176.84895	317.6125
181.15975	446.1125
185.46741	620.8125
189.77193	872.0125
194.07331	1169.6125
198.37157	1507.3125
202.6667	1857.6125
206.9587	2206.9125
211.24758	2573.1125
215.53334	2915.6125
219.81599	3289.0125
224.09553	3688.0125
228.37195	4134.4125
232.64527	4651.8125
236.91549	5178.7125
241.18261	5699.0125
245.44663	6158.7125
249.70755	6573.4125
253.96539	6920.5125
258.22014	7224.3125
262.4718	7489.1125
266.72039	7645.3125
270.96589	7720.7125
275.20832	7718.5125
279.44768	7623.4125
283.68397	7526.8125
287.91719	7419.4125
292.14735	7372.1125
296.37445	7346.5125
300.59849	7366.6125
304.81948	7440.1125
309.03742	7492.3125
313.25231	7492.8125
317.46415	7444.2125
321.67296	7352.6125
325.87872	7285.5125
330.08145	7210.1125
334.28114	7225.7125
338.47781	7266.8125
342.67145	7372.1125
346.86207	7504.1125
351.04966	7698.8125
355.23424	7831.4125
359.4158	7971.2125
363.59435	8072.6125
367.76989	8126.9125
371.94243	8139.5125
376.11196	8181.4125
380.27849	8198.4125
384.44203	8250.5125
388.60257	8313.9125
392.76012	8404.1125
396.91468	8467.0125
401.06626	8578.2125
405.21485	8692.4125
409.36047	8647.3125
413.50311	8579.0125
417.64277	8540.4125
421.77947	8590.0125
425.9132	8624.3125
430.04396	8687.9125
434.17176	8722.9125
438.2966	8785.1125
442.41849	8950.6125
446.53742	9214.9125
450.6534	9550.1125
454.76644	9706.0125
458.87653	9654.6125
462.98368	9537.1125
467.08789	9345.2125
471.18916	9128.8125
475.2875	8904.0125
479.38291	8725.3125
483.4754	8607.5125
487.56496	8509.9125
491.6516	8436.0125
495.73531	8389.5125
499.81612	8412.5125
503.89401	8481.2125
507.96899	8547.3125
512.04106	8528.2125
516.11023	8491.3125
520.1765	8440.5125
524.23987	8428.5125
528.30034	8426.9125
532.35792	8380.4125
536.41261	8233.0125
540.46441	8098.9125
544.51333	8042.9125
548.55936	8088.7125
552.60252	8238.8125
556.64279	8449.2125
560.6802	8604.6125
564.71473	8657.0125
568.7464	8718.8125
572.7752	8901.7125
576.80114	9138.1125
580.82422	9437.1125
584.84444	10021.8125
588.86181	10819.9125
592.87633	11646.8125
596.888	11795.7125
600.89682	11047.0125
604.9028	10480.0125
608.90594	10873.4125
612.90624	11658.3125
616.90371	11047.2125
620.89834	9412.1125
624.89015	8691.3125
628.87913	8551.0125
632.86528	8557.5125
636.84862	8502.6125
640.82913	8311.8125
644.80683	8125.8125
648.78172	8010.5125
652.75379	8022.2125
656.72306	8138.4125
660.68952	8298.2125
664.65319	8263.5125
668.61405	8142.3125
672.57211	8099.8125
676.52738	8166.7125
680.47986	8147.8125
684.42955	8056.9125
688.37646	8019.1125
692.32058	8112.9125
696.26192	8268.5125
700.20048	8423.0125
704.13626	8480.7125
708.06928	8447.1125
711.99952	8375.1125
715.927	8389.0125
719.85171	8409.8125
723.77365	8414.3125
727.69284	8236.7125
731.60928	8124.8125
735.52295	8070.3125
739.43388	8084.6125
743.34206	8133.4125
747.24749	8192.5125
751.15017	8273.4125
755.05012	8392.1125
758.94733	8588.7125
762.8418	8951.0125
766.73354	9478.3125
770.62254	10000.1125
774.50882	10156.3125
778.39237	9841.9125
782.27321	9287.8125
786.15132	8765.0125
790.02671	8461.5125
793.89938	8297.7125
797.76935	8249.5125
801.6366	8200.1125
805.50115	8190.5125
809.36299	8140.6125
813.22213	8080.8125
817.07857	8060.1125
820.93231	8009.4125
824.78336	7986.2125
828.63172	7974.6125
832.47738	7965.9125
836.32036	7985.7125
840.16066	8008.7125
843.99827	8055.1125
847.8332	8044.2125
851.66546	8019.0125
855.49504	8040.2125
859.32195	8041.4125
863.1462	8012.3125
866.96777	7983.9125
870.78668	7960.9125
874.60293	7987.3125
878.41652	8002.5125
882.22745	8016.2125
886.03573	8065.6125
889.84136	8035.7125
893.64433	8006.6125
897.44466	7950.8125
901.24235	7962.3125
905.0374	7937.0125
908.8298	7924.6125
912.61957	7920.5125
916.40671	7961.2125
920.19121	8030.5125
923.97308	8165.3125
927.75233	8224.5125
931.52895	8252.2125
935.30295	8129.9125
939.07433	7973.6125
942.84309	7887.9125
946.60924	7854.1125
950.37278	7859.1125
954.13371	7853.0125
957.89203	7846.5125
961.64774	7827.3125
965.40086	7858.7125
969.15137	7870.0125
972.89929	7847.7125
976.64461	7867.5125
980.38733	7930.3125
984.12747	7986.4125
987.86502	8043.7125
991.59999	8091.6125
995.33237	8200.7125
999.06217	8383.7125
1002.78939	8616.6125
1006.51404	8835.0125
1010.23611	9008.7125
1013.95561	9137.6125
1017.67255	9110.0125
1021.38692	8993.5125
1025.09872	8796.5125
1028.80796	8765.3125
1032.51465	8884.9125
1036.21877	9058.3125
1039.92035	9118.4125
1043.61937	9071.4125
1047.31584	8931.9125
1051.00976	8762.0125
1054.70114	8690.6125
1058.38998	8697.0125
1062.07627	8704.5125
1065.76003	8749.1125
1069.44126	8838.8125
1073.11995	9013.2125
1076.79611	9197.4125
1080.46974	9287.8125
1084.14085	9376.4125
1087.80943	9452.3125
1091.47549	9519.1125
1095.13903	9504.5125
1098.80005	9322.5125
1102.45857	9143.1125
1106.11456	8974.2125
1109.76805	8929.2125
1113.41903	8914.7125
1117.06751	8922.6125
1120.71348	9003.5125
1124.35696	9082.3125
1127.99793	9181.4125
1131.63641	9214.0125
1135.2724	9206.7125
1138.90589	9127.0125
1142.5369	9145.4125
1146.16542	9183.3125
1149.79145	9264.7125
1153.415	9300.1125
1157.03607	9343.4125
1160.65467	9527.9125
1164.27079	9872.9125
1167.88443	10323.4125
1171.49561	10845.3125
1175.10432	11538.3125
1178.71056	12471.1125
1182.31434	13321.9125
1185.91565	13714.9125
1189.51451	13532.6125
1193.11091	13104.5125
1196.70485	12615.0125
1200.29634	12214.1125
1203.88538	11918.9125
1207.47197	11765.5125
1211.05612	11641.4125
1214.63782	11431.4125
1218.21708	11166.5125
1221.79391	10945.2125
1225.36829	10888.5125
1228.94024	10800.6125
1232.50976	10644.9125
1236.07685	10457.0125
1239.6415	10254.3125
1243.20374	10197.5125
1246.76355	10269.2125
1250.32093	10486.9125
1253.8759	10715.6125
1257.42845	11034.7125
1260.97859	11365.1125
1264.52631	11751.6125
1268.07163	12119.8125
1271.61453	12523.9125
1275.15503	12849.4125
1278.69312	13187.4125
1282.22882	13485.0125
1285.76211	13907.2125
1289.29301	14380.3125
1292.82151	14937.4125
1296.34761	15646.4125
1299.87133	16538.4125
1303.39266	17609.5125
1306.9116	18628.4125
1310.42815	19451.3125
1313.94233	19897.3125
1317.45412	19567.2125
1320.96354	18786.0125
1324.47058	18036.8125
1327.97525	17509.2125
1331.47754	17140.0125
1334.97747	16921.2125
1338.47502	16679.3125
1341.97022	16322.4125
1345.46305	15938.9125
1348.95352	15869.7125
1352.44163	16160.9125
1355.92738	17025.9125
1359.41078	18253.1125
1362.89183	19227.0125
1366.37053	19034.9125
1369.84688	17539.9125
1373.32088	15452.2125
1376.79254	14007.5125
1380.26186	13473.2125
1383.72883	13419.3125
1387.19347	13292.2125
1390.65578	13066.6125
1394.11575	13014.4125
1397.57339	13074.2125
1401.0287	13245.5125
1404.48168	13386.9125
1407.93234	13414.9125
1411.38068	13303.4125
1414.82669	13050.5125
1418.27039	12658.6125
1421.71177	12256.7125
1425.15083	11941.5125
1428.58758	11879.5125
1432.02203	12077.5125
1435.45416	12467.6125
1438.88399	12831.7125
1442.31151	13016.4125
1445.73673	13027.6125
1449.15965	12962.7125
1452.58027	12846.3125
1455.9986	12689.3125
1459.41463	12717.4125
1462.82837	12947.3125
1466.23982	13284.3125
1469.64898	13567.6125
1473.05586	13758.0125
1476.46045	13811.6125
1479.86276	13769.0125
1483.26279	13663.7125
1486.66054	13631.1125
1490.05602	13741.1125
1493.44922	13888.5125
1496.84016	13999.3125
1500.22882	14123.8125
1503.61521	14379.5125
1506.99934	14768.0125
1510.38121	15078.7125
1513.76081	15047.2125
1517.13816	14718.8125
1520.51324	14188.1125
1523.88607	13757.4125
1527.25665	13605.9125
1530.62498	13584.5125
1533.99105	13502.1125
1537.35488	13351.8125
1540.71647	13085.3125
1544.07581	12793.7125
1547.4329	12516.3125
1550.78776	12284.8125
1554.14038	12078.4125
1557.49077	11922.8125
1560.83892	11870.8125
1564.18484	11868.4125
1567.52853	11919.6125
1570.86999	12002.6125
1574.20922	12184.5125
1577.54624	12313.4125
1580.88103	12340.3125
1584.2136	12428.9125
1587.54395	12862.0125
1590.87208	13699.7125
1594.19801	14808.5125
1597.52172	15855.8125
1600.84321	16197.8125
1604.16251	15464.4125
1607.47959	14039.4125
1610.79447	12565.2125
1614.10715	11312.1125
1617.41763	10445.7125
1620.7259	9983.5125
1624.03199	9800.1125
1627.33587	9867.1125
1630.63757	10195.7125
1633.93707	10837.8125
1637.23439	11920.8125
1640.52951	13555.8125
1643.82246	15587.5125
1647.11321	17213.5125
1650.40179	17389.2125
1653.68819	15819.7125
1656.97241	13473.0125
1660.25446	11411.8125
1663.53433	10033.8125
1666.81203	9215.6125
1670.08756	8729.8125
1673.36092	8445.7125
1676.63211	8243.5125
1679.90115	8115.4125
1683.16801	8012.5125
1686.43272	7934.3125
1689.69527	7870.0125
1692.95567	7843.3125
1696.2139	7836.5125
1699.46999	7815.1125
1702.72392	7783.4125
1705.97571	7783.3125
1709.22535	7739.4125
1712.47284	7763.2125
1715.71819	7749.2125
1718.96139	7748.3125
1722.20246	7712.9125
1725.44139	7686.1125
1728.67818	7644.6125
1731.91284	7602.6125
1735.14537	7544.6125
1738.37576	7535.7125
1741.60403	7510.7125
1744.83017	7490.4125
1748.05418	7469.9125
1751.27607	7461.8125
1754.49584	7459.3125
1757.71349	7449.0125
1760.92903	7432.6125
1764.14244	7437.2125
1767.35375	7440.1125
1770.56294	7426.1125
1773.77002	7429.1125
1776.97499	7421.1125
1780.17785	7405.3125
1783.37861	7388.8125
1786.57727	7389.5125
1789.77382	7366.0125
1792.96828	7353.3125
1796.16064	7335.1125
1799.3509	7334.6125
1802.53907	7330.4125
1805.72514	7328.9125
1808.90913	7290.7125
1812.09102	7290.4125
1815.27083	7275.9125
1818.44856	7260.0125
1821.6242	7253.6125
1824.79776	7240.8125
1827.96924	7235.1125
1831.13864	7229.0125
1834.30597	7228.3125
1837.47122	7239.2125
1840.6344	7237.8125
1843.7955	7232.9125
1846.95454	7222.1125
1850.11151	7221.7125
1853.26642	7201.2125
1856.41926	7216.2125
1859.57004	7221.0125
1862.71876	7223.5125
1865.86542	7211.3125
1869.01003	7214.9125
1872.15258	7212.8125
1875.29308	7201.5125
1878.43152	7198.6125
1881.56792	7184.8125
1884.70227	7181.4125
1887.83457	7178.9125
1890.96482	7171.1125
1894.09304	7157.0125
1897.21921	7144.3125
1900.34335	7151.9125
1903.46544	7162.7125
1906.58551	7133.5125
1909.70353	7137.5125
1912.81953	7141.9125
1915.93349	7117.8125
1919.04543	7108.1125
1922.15534	7088.1125
1925.26322	7082.1125
1928.36908	7086.6125
1931.47292	7053.7125
1934.57473	7061.1125
1937.67453	7049.9125
1940.77232	7027.1125
1943.86808	6990.5125
1946.96184	6983.1125
1950.05358	6978.0125
1953.14331	6951.4125
1956.23103	6925.5125
1959.31675	6922.2125
1962.40046	6903.1125
1965.48217	6884.1125
1968.56188	6866.6125
1971.63959	6841.9125
1974.7153	6833.5125
1977.78901	6820.9125
1980.86073	6809.0125
1983.93046	6776.7125
1986.99819	6744.5125
1990.06394	6746.6125
1993.1277	6720.0125
1996.18947	6681.6125
1999.24925	6695.9125
2002.30706	6678.2125
2005.36288	6654.3125
2008.41672	6648.9125
2011.46859	6612.4125
2014.51848	6614.6125
2017.56639	6591.2125
2020.61233	6590.5125
2023.6563	6584.2125
2026.6983	6565.8125
2029.73833	6543.8125
2032.7764	6526.1125
2035.8125	6514.9125
2038.84664	6496.1125
2041.87881	6504.8125
2044.90903	6492.0125
2047.93729	6501.7125
2050.96359	6494.3125
2053.98794	6489.6125
2057.01034	6492.7125
2060.03078	6467.7125
2063.04927	6472.1125
2066.06582	6470.4125
2069.08042	6453.0125
2072.09307	6439.6125
2075.10378	6437.1125
2078.11255	6448.1125
2081.11938	6472.1125
2084.12426	6441.7125
2087.12722	6451.0125
2090.12824	6461.8125
2093.12732	6438.4125
2096.12447	6428.5125
2099.11969	6450.8125
2102.11299	6460.7125
2105.10435	6465.6125
2108.09379	6467.2125
2111.08131	6465.1125
2114.0669	6457.4125
2117.05057	6469.8125
2120.03233	6482.5125
2123.01216	6494.0125
2125.99008	6503.4125
2128.96609	6514.3125
2131.94018	6520.4125
2134.91236	6532.1125
2137.88263	6528.6125
2140.851	6549.2125
2143.81746	6531.2125
2146.78201	6546.7125
2149.74466	6536.6125
2152.7054	6529.7125
2155.66425	6554.1125
2158.6212	6522.4125
2161.57625	6544.7125
2164.52941	6530.6125
2167.48067	6529.8125
2170.43004	6523.7125
2173.37752	6537.1125
2176.32311	6544.3125
2179.26681	6557.5125
2182.20863	6560.4125
2185.14856	6532.2125
2188.08661	6547.0125
2191.02278	6549.6125
2193.95707	6552.9125
2196.88948	6553.4125
2199.82001	6557.2125
2202.74867	6550.8125
2205.67545	6543.2125
2208.60037	6546.2125
2211.52341	6546.3125
2214.44458	6520.7125
2217.36388	6521.1125
2220.28132	6517.9125
2223.1969	6490.3125
2226.11061	6479.7125
2229.02246	6478.8125
2231.93245	6473.9125
2234.84058	6463.1125
2237.74686	6441.1125
2240.65128	6455.5125
2243.55385	6471.9125
2246.45456	6440.9125
2249.35343	6422.7125
2252.25044	6423.4125
2255.14561	6430.0125
2258.03893	6409.4125
2260.93041	6379.8125
2263.82004	6373.2125
2266.70783	6371.4125
2269.59378	6353.7125
2272.4779	6356.4125
2275.36017	6330.3125
2278.24061	6333.6125
2281.11922	6319.5125
2283.996	6322.6125
2286.87094	6318.8125
2289.74405	6303.4125
2292.61534	6304.2125
2295.4848	6298.4125
2298.35243	6303.0125
2301.21824	6300.3125
2304.08223	6315.5125
2306.94439	6310.0125
2309.80474	6308.1125
2312.66327	6315.1125
2315.51999	6322.7125
2318.37489	6320.9125
2321.22797	6317.0125
2324.07925	6297.8125
2326.92871	6304.2125
2329.77637	6306.8125
2332.62222	6288.0125
2335.46626	6287.0125
2338.3085	6279.3125
2341.14893	6290.5125
2343.98756	6281.2125
2346.8244	6285.2125
2349.65943	6283.3125
2352.49267	6273.9125
2355.32411	6289.5125
2358.15376	6263.2125
2360.98161	6278.4125
2363.80768	6282.8125
2366.63195	6281.6125
2369.45444	6265.2125
2372.27514	6246.8125
2375.09405	6266.0125
2377.91118	6254.6125
2380.72652	6229.4125
2383.54009	6216.4125
2386.35187	6221.6125
2389.16188	6200.8125
2391.97011	6207.7125
2394.77657	6185.7125
2397.58125	6173.0125
2400.38416	6164.1125
2403.18529	6176.5125
2405.98466	6133.4125
2408.78226	6147.1125
2411.57809	6142.1125
2414.37216	6126.9125
2417.16446	6129.1125
2419.955	6117.3125
2422.74378	6135.5125
2425.5308	6120.6125
2428.31606	6124.4125
2431.09956	6109.6125
2433.88131	6110.4125
2436.6613	6125.0125
2439.43954	6110.1125
2442.21603	6124.4125
2444.99077	6116.8125
2447.76377	6111.4125
2450.53501	6122.5125
2453.30451	6117.0125
2456.07226	6123.5125
2458.83827	6091.5125
2461.60254	6104.0125
2464.36507	6095.2125
2467.12586	6089.7125
2469.88492	6094.2125
2472.64224	6119.3125
2475.39782	6108.3125
2478.15167	6103.0125
2480.90379	6087.7125
2483.65417	6113.9125
2486.40283	6116.2125
2489.14976	6113.9125
2491.89497	6121.8125
2494.63845	6115.0125
2497.3802	6122.7125
2500.12024	6110.6125
2502.85855	6128.2125
2505.59514	6114.6125
2508.33002	6105.4125
2511.06318	6095.5125
2513.79462	6099.0125
2516.52435	6091.8125
2519.25237	6085.1125
2521.97867	6091.4125
2524.70327	6092.2125
2527.42616	6091.1125
2530.14734	6084.1125
2532.86681	6069.9125
2535.58458	6082.1125
2538.30065	6088.8125
2541.01501	6081.3125
2543.72768	6084.7125
2546.43864	6079.0125
2549.14791	6064.1125
2551.85548	6088.4125
2554.56136	6067.6125
2557.26554	6065.0125
2559.96803	6039.1125
2562.66883	6043.0125
2565.36794	6028.1125
2568.06536	6042.3125
2570.7611	6034.8125
2573.45514	6032.6125
2576.14751	6034.1125
2578.83819	6029.6125
2581.52719	6014.3125
2584.21451	6018.1125
2586.90015	6008.2125
2589.58411	6030.0125
2592.2664	6017.2125
2594.94701	6004.2125
2597.62594	5991.1125
2600.30321	5994.9125
2602.9788	5987.2125
2605.65273	5980.6125
2608.32498	5992.9125
2610.99557	5981.2125
2613.66449	5980.2125
2616.33175	5980.3125
2618.99734	5983.7125
2621.66128	5979.6125
2624.32355	5965.8125
2626.98416	5952.7125
2629.64311	5952.3125
2632.30041	5945.3125
2634.95605	5935.5125
2637.61004	5940.1125
2640.26238	5938.5125
2642.91306	5934.7125
2645.56209	5930.3125
2648.20948	5948.6125
2650.85521	5924.3125
2653.4993	5949.9125
2656.14175	5934.7125
2658.78255	5946.8125
2661.42171	5955.1125
2664.05923	5950.8125
2666.6951	5953.2125
2669.32934	5963.1125
2671.96194	5953.3125
2674.59291	5977.0125
2677.22224	5975.4125
2679.84993	5964.6125
2682.476	5951.7125
2685.10043	5974.9125
2687.72324	5960.2125
2690.34441	5979.9125
2692.96396	5963.5125
2695.58188	5978.6125
2698.19818	5927.9125
2700.81285	5966.3125
2703.4259	5944.1125
2706.03733	5944.1125
2708.64714	5950.9125
2711.25533	5957.8125
2713.86191	5969.4125
2716.46687	5960.0125
2719.07021	5996.2125
2721.67194	6000.7125
2724.27206	6004.7125
2726.87057	6021.4125
2729.46747	6013.9125
2732.06276	6016.5125
2734.65644	6010.9125
2737.24852	6002.7125
2739.83899	5981.1125
2742.42786	5994.4125
2745.01513	5994.4125
2747.60079	6004.0125
2750.18486	5987.7125
2752.76733	5991.9125
2755.3482	5977.3125
2757.92747	5993.8125
2760.50515	5988.8125
2763.08123	5994.9125
2765.65573	5974.4125
2768.22863	5969.8125
2770.79994	5976.5125
2773.36967	5957.0125
2775.9378	5956.3125
2778.50435	5977.5125
2781.06932	5976.3125
2783.6327	5960.7125
2786.1945	5960.4125
2788.75471	5964.2125
2791.31335	5947.1125
2793.87041	5942.6125
2796.42589	5930.3125
2798.97979	5916.2125
2801.53212	5928.3125
2804.08288	5925.5125
2806.63206	5893.4125
2809.17967	5881.1125
2811.72571	5878.2125
2814.27018	5879.7125
2816.81308	5869.8125
2819.35442	5845.0125
2821.89419	5842.6125
2824.43239	5858.2125
2826.96904	5847.8125
2829.50412	5831.1125
2832.03763	5814.0125
2834.56959	5806.3125
2837.1	5816.4125
2839.62884	5805.9125
2842.15613	5817.1125
2844.68186	5813.5125
2847.20604	5826.7125
2849.72867	5822.1125
2852.24974	5823.1125
2854.76927	5818.4125
2857.28724	5797.9125
2859.80367	5780.9125
2862.31855	5779.1125
2864.83189	5803.1125
2867.34368	5772.4125
2869.85393	5791.9125
2872.36264	5773.6125
2874.8698	5779.3125
2877.37543	5778.1125
2879.87952	5786.1125
2882.38207	5803.1125
2884.88308	5782.1125
2887.38256	5791.4125
2889.88051	5778.8125
2892.37692	5787.0125
2894.8718	5803.3125
2897.36515	5781.5125
2899.85698	5795.6125
2902.34727	5809.4125
2904.83604	5835.1125
2907.32328	5827.5125
2909.809	5818.3125
2912.29319	5824.2125
2914.77587	5815.0125
2917.25702	5808.6125
2919.73665	5806.1125
2922.21476	5801.6125
2924.69136	5786.2125
2927.16644	5813.5125
2929.64	5795.8125
2932.11205	5794.2125
2934.58258	5778.3125
2937.05161	5787.7125
2939.51912	5789.0125
2941.98513	5782.0125
2944.44962	5769.5125
2946.91261	5750.0125
2949.37409	5755.9125
2951.83407	5768.9125
2954.29254	5763.4125
2956.74951	5772.1125
2959.20498	5750.7125
2961.65895	5740.2125
2964.11142	5756.0125
2966.56239	5740.8125
2969.01186	5753.9125
2971.45984	5744.9125
2973.90632	5719.2125
2976.35131	5720.3125
2978.7948	5718.4125
2981.23681	5687.9125
2983.67732	5689.6125
2986.11635	5680.3125
2988.55388	5664.6125
2990.98993	5658.5125
2993.4245	5655.5125
2995.85758	5631.1125
2998.28917	5616.9125
3000.71928	5612.0125
3003.14791	5603.4125
3005.57506	5609.0125
3008.00073	5605.5125
3010.42493	5596.2125
3012.84764	5585.7125
3015.26888	5562.5125
3017.68865	5546.1125
3020.10694	5531.3125
3022.52376	5537.5125
3024.9391	5535.6125
3027.35298	5507.2125
3029.76539	5518.2125
3032.17632	5499.1125
3034.5858	5508.0125
3036.9938	5503.0125
3039.40034	5511.2125
3041.80542	5492.0125
3044.20903	5481.3125
3046.61118	5498.6125
3049.01187	5481.2125
3051.4111	5467.0125
3053.80888	5459.0125
3056.20519	5463.0125
3058.60005	5438.4125
3060.99345	5421.2125
3063.3854	5423.2125
3065.7759	5414.6125
3068.16494	5403.0125
3070.55254	5386.4125
3072.93868	5375.3125
3075.32338	5380.6125
3077.70662	5357.2125
3080.08842	5350.2125
3082.46878	5339.1125
3084.84769	5335.9125
3087.22515	5325.4125
3089.60118	5327.0125
3091.97576	5320.9125
3094.3489	5329.6125
3096.72061	5310.2125
3099.09087	5314.4125
3101.4597	5334.7125
3103.82709	5323.9125
3106.19305	5318.9125
3108.55757	5310.8125
