Data from AgNP_FTO_APTES_UA_10uM_CRN_200uM_R6G_10uM_NaF_0.1M_Addition_RamanShift__0__18-00-40-876.txt Node

Date: Thu Feb 10 18:00:40 GMT 2022
User: TCL
Spectrometer: QEP01345
Trigger mode: 4
Integration Time (sec): 7.000000E0
Scans to average: 10
Electric dark correction enabled: true
Nonlinearity correction enabled: false
Boxcar width: 0
XAxis mode: Raman Shifts
Number of Pixels in Spectrum: 1044
>>>>>Begin Spectral Data<<<<<
46.04893	0.925
50.45542	-0.775
54.85868	-1.375
59.25871	0.125
63.6555	17.625
68.04907	21.625
72.43941	26.025
76.82654	20.425
81.21044	25.125
85.59113	23.925
89.96862	23.225
94.34289	26.825
98.71396	24.925
103.08183	30.025
107.4465	30.125
111.80798	26.625
116.16626	33.925
120.52136	30.225
124.87327	34.125
129.222	32.325
133.56755	37.625
137.90993	39.725
142.24913	35.425
146.58517	47.025
150.91804	54.925
155.24774	63.625
159.57429	79.925
163.89768	96.325
168.21792	131.325
172.53501	179.625
176.84895	252.425
181.15975	355.825
185.46741	497.025
189.77193	701.225
194.07331	932.425
198.37157	1198.525
202.6667	1485.925
206.9587	1762.825
211.24758	2048.925
215.53334	2337.025
219.81599	2612.725
224.09553	2930.125
228.37195	3283.425
232.64527	3671.725
236.91549	4098.125
241.18261	4515.425
245.44663	4916.725
249.70755	5271.625
253.96539	5598.225
258.22014	5896.025
262.4718	6121.925
266.72039	6284.325
270.96589	6375.925
275.20832	6378.225
279.44768	6341.825
283.68397	6251.425
287.91719	6189.425
292.14735	6118.825
296.37445	6102.325
300.59849	6142.325
304.81948	6150.125
309.03742	6148.025
313.25231	6130.925
317.46415	6028.225
321.67296	5899.625
325.87872	5833.425
330.08145	5786.525
334.28114	5804.925
338.47781	5867.525
342.67145	5936.625
346.86207	6044.425
351.04966	6146.225
355.23424	6277.025
359.4158	6400.225
363.59435	6469.125
367.76989	6572.125
371.94243	6599.525
376.11196	6657.425
380.27849	6719.325
384.44203	6751.525
388.60257	6809.725
392.76012	6847.725
396.91468	6946.325
401.06626	7030.225
405.21485	7156.625
409.36047	7208.025
413.50311	7217.225
417.64277	7329.725
421.77947	7544.125
425.9132	7830.525
430.04396	8073.425
434.17176	8076.125
438.2966	7929.025
442.41849	7740.925
446.53742	7728.725
450.6534	7777.625
454.76644	7812.425
458.87653	7769.725
462.98368	7681.825
467.08789	7563.625
471.18916	7480.825
475.2875	7436.725
479.38291	7440.425
483.4754	7467.625
487.56496	7540.825
491.6516	7512.525
495.73531	7465.225
499.81612	7378.025
503.89401	7332.825
507.96899	7285.225
512.04106	7230.925
516.11023	7208.325
520.1765	7185.825
524.23987	7173.125
528.30034	7159.025
532.35792	7110.625
536.41261	7061.725
540.46441	6995.525
544.51333	6980.225
548.55936	6994.725
552.60252	7074.025
556.64279	7175.725
560.6802	7245.725
564.71473	7295.625
568.7464	7331.125
572.7752	7425.025
576.80114	7471.225
580.82422	7489.825
584.84444	7596.025
588.86181	7786.725
592.87633	7956.725
596.888	8025.125
600.89682	7971.025
604.9028	8074.525
608.90594	8582.425
612.90624	9246.025
616.90371	8878.025
620.89834	7754.325
624.89015	7270.225
628.87913	7181.225
632.86528	7169.625
636.84862	7176.325
640.82913	7099.925
644.80683	6996.225
648.78172	6947.025
652.75379	6944.825
656.72306	7024.925
660.68952	7101.225
664.65319	7079.525
668.61405	6985.725
672.57211	6957.225
676.52738	7004.825
680.47986	7017.025
684.42955	7067.325
688.37646	7119.225
692.32058	7240.225
696.26192	7488.525
700.20048	7786.825
704.13626	8079.825
708.06928	8142.425
711.99952	8016.725
715.927	7816.425
719.85171	7624.025
723.77365	7489.325
727.69284	7350.825
731.60928	7269.025
735.52295	7239.925
739.43388	7231.025
743.34206	7209.925
747.24749	7188.225
751.15017	7191.125
755.05012	7217.425
758.94733	7332.825
762.8418	7535.125
766.73354	7857.125
770.62254	8229.625
774.50882	8396.225
778.39237	8215.625
782.27321	7818.325
786.15132	7464.725
790.02671	7253.025
793.89938	7167.725
797.76935	7115.625
801.6366	7111.225
805.50115	7108.825
809.36299	7072.225
813.22213	7079.825
817.07857	7057.825
820.93231	7070.525
824.78336	7062.925
828.63172	7062.025
832.47738	7088.925
836.32036	7067.025
840.16066	7073.625
843.99827	7091.925
847.8332	7098.325
851.66546	7075.525
855.49504	7054.825
859.32195	7086.925
863.1462	7063.625
866.96777	7038.225
870.78668	7036.425
874.60293	7049.725
878.41652	7047.525
882.22745	7065.725
886.03573	7072.725
889.84136	7096.725
893.64433	7060.325
897.44466	7049.425
901.24235	7013.725
905.0374	7009.625
908.8298	7013.225
912.61957	7016.825
916.40671	7043.125
920.19121	7073.025
923.97308	7101.025
927.75233	7127.325
931.52895	7098.525
935.30295	7087.825
939.07433	6993.725
942.84309	6939.025
946.60924	6930.825
950.37278	6900.525
954.13371	6881.625
957.89203	6848.625
961.64774	6832.925
965.40086	6833.525
969.15137	6812.625
972.89929	6827.625
976.64461	6831.325
980.38733	6834.925
984.12747	6861.525
987.86502	6885.425
991.59999	6950.625
995.33237	6998.525
999.06217	7094.325
1002.78939	7164.825
1006.51404	7246.025
1010.23611	7236.625
1013.95561	7277.325
1017.67255	7283.725
1021.38692	7245.725
1025.09872	7186.525
1028.80796	7206.325
1032.51465	7298.625
1036.21877	7431.125
1039.92035	7443.425
1043.61937	7410.025
1047.31584	7341.125
1051.00976	7283.425
1054.70114	7217.825
1058.38998	7220.525
1062.07627	7238.925
1065.76003	7299.825
1069.44126	7302.425
1073.11995	7372.525
1076.79611	7417.925
1080.46974	7475.925
1084.14085	7524.525
1087.80943	7577.025
1091.47549	7651.325
1095.13903	7654.525
1098.80005	7580.125
1102.45857	7519.825
1106.11456	7481.325
1109.76805	7471.925
1113.41903	7493.625
1117.06751	7522.725
1120.71348	7563.225
1124.35696	7610.825
1127.99793	7658.425
1131.63641	7688.425
1135.2724	7632.725
1138.90589	7527.025
1142.5369	7478.125
1146.16542	7459.525
1149.79145	7449.925
1153.415	7430.325
1157.03607	7473.525
1160.65467	7565.025
1164.27079	7740.125
1167.88443	7961.325
1171.49561	8196.425
1175.10432	8543.825
1178.71056	9012.225
1182.31434	9432.025
1185.91565	9615.125
1189.51451	9553.325
1193.11091	9300.225
1196.70485	9040.025
1200.29634	8797.125
1203.88538	8690.225
1207.47197	8595.925
1211.05612	8457.725
1214.63782	8356.125
1218.21708	8274.725
1221.79391	8267.025
1225.36829	8246.025
1228.94024	8210.725
1232.50976	8184.025
1236.07685	8131.825
1239.6415	8199.525
1243.20374	8332.625
1246.76355	8515.525
1250.32093	8725.325
1253.8759	8927.425
1257.42845	9175.325
1260.97859	9361.125
1264.52631	9474.725
1268.07163	9554.825
1271.61453	9636.625
1275.15503	9618.725
1278.69312	9605.125
1282.22882	9580.425
1285.76211	9615.825
1289.29301	9716.625
1292.82151	9881.725
1296.34761	10129.525
1299.87133	10463.225
1303.39266	10915.325
1306.9116	11394.825
1310.42815	11833.625
1313.94233	12023.525
1317.45412	11866.625
1320.96354	11581.925
1324.47058	11405.025
1327.97525	11299.725
1331.47754	10765.125
1334.97747	10526.625
1338.47502	10424.425
1341.97022	10359.825
1345.46305	10295.725
1348.95352	10344.925
1352.44163	10554.925
1355.92738	10938.025
1359.41078	11510.425
1362.89183	12014.625
1366.37053	11905.825
1369.84688	11060.625
1373.32088	10130.025
1376.79254	9589.825
1380.26186	9521.025
1383.72883	9807.625
1387.19347	10092.225
1390.65578	9995.225
1394.11575	9596.825
1397.57339	9277.925
1401.0287	9075.025
1404.48168	9008.625
1407.93234	8920.425
1411.38068	8798.825
1414.82669	8645.025
1418.27039	8442.025
1421.71177	8268.325
1425.15083	8096.525
1428.58758	8015.025
1432.02203	8076.325
1435.45416	8185.025
1438.88399	8282.825
1442.31151	8394.025
1445.73673	8634.325
1449.15965	8698.725
1452.58027	8479.625
1455.9986	8381.425
1459.41463	8382.825
1462.82837	8422.025
1466.23982	8511.225
1469.64898	8654.625
1473.05586	8730.325
1476.46045	8774.825
1479.86276	8813.025
1483.26279	8799.725
1486.66054	8789.125
1490.05602	8853.325
1493.44922	8930.225
1496.84016	9057.025
1500.22882	9273.525
1503.61521	9566.725
1506.99934	9931.725
1510.38121	10273.825
1513.76081	10353.225
1517.13816	10141.925
1520.51324	9711.325
1523.88607	9333.725
1527.25665	9094.325
1530.62498	8960.625
1533.99105	8882.725
1537.35488	8819.725
1540.71647	8729.725
1544.07581	8613.525
1547.4329	8525.125
1550.78776	8452.425
1554.14038	8417.925
1557.49077	8417.025
1560.83892	8409.725
1564.18484	8449.525
1567.52853	8517.525
1570.86999	8597.525
1574.20922	8711.825
1577.54624	8774.325
1580.88103	8764.425
1584.2136	8761.225
1587.54395	8870.425
1590.87208	9182.225
1594.19801	9584.825
1597.52172	9981.425
1600.84321	10098.125
1604.16251	9792.425
1607.47959	9288.125
1610.79447	8780.925
1614.10715	8328.525
1617.41763	8056.825
1620.7259	7907.025
1624.03199	7880.725
1627.33587	8044.925
1630.63757	8293.325
1633.93707	8690.825
1637.23439	9269.125
1640.52951	10056.125
1643.82246	11009.325
1647.11321	11897.825
1650.40179	12433.525
1653.68819	12474.925
1656.97241	11782.525
1660.25446	10923.425
1663.53433	10270.525
1666.81203	9661.825
1670.08756	9076.025
1673.36092	8495.725
1676.63211	8045.025
1679.90115	7720.225
1683.16801	7635.325
1686.43272	7622.225
1689.69527	7919.925
1692.95567	8652.825
1696.2139	9892.725
1699.46999	11088.825
1702.72392	11144.525
1705.97571	10027.525
1709.22535	8686.325
1712.47284	7789.025
1715.71819	7281.425
1718.96139	6982.125
1722.20246	6839.625
1725.44139	6736.625
1728.67818	6683.425
1731.91284	6642.625
1735.14537	6666.825
1738.37576	6703.925
1741.60403	6798.925
1744.83017	6927.125
1748.05418	7114.625
1751.27607	7507.225
1754.49584	8142.325
1757.71349	8910.525
1760.92903	9300.825
1764.14244	9216.425
1767.35375	9162.825
1770.56294	9179.325
1773.77002	8808.125
1776.97499	8033.525
1780.17785	7305.725
1783.37861	6856.325
1786.57727	6589.725
1789.77382	6457.825
1792.96828	6340.725
1796.16064	6269.425
1799.3509	6197.925
1802.53907	6164.325
1805.72514	6133.925
1808.90913	6096.625
1812.09102	6092.525
1815.27083	6044.525
1818.44856	6020.525
1821.6242	6007.325
1824.79776	5994.725
1827.96924	5950.325
1831.13864	5966.225
1834.30597	5952.125
1837.47122	5958.125
1840.6344	5936.125
1843.7955	5935.425
1846.95454	5931.625
1850.11151	5928.525
1853.26642	5927.925
1856.41926	5918.225
1859.57004	5932.525
1862.71876	5913.525
1865.86542	5906.925
1869.01003	5890.725
1872.15258	5888.325
1875.29308	5880.725
1878.43152	5881.725
1881.56792	5852.525
1884.70227	5865.825
1887.83457	5843.325
1890.96482	5846.325
1894.09304	5836.525
1897.21921	5845.825
1900.34335	5837.425
1903.46544	5830.925
1906.58551	5823.025
1909.70353	5811.025
1912.81953	5795.825
1915.93349	5814.525
1919.04543	5789.725
1922.15534	5767.125
1925.26322	5793.425
1928.36908	5764.925
1931.47292	5769.925
1934.57473	5763.825
1937.67453	5749.925
1940.77232	5734.825
1943.86808	5718.925
1946.96184	5698.625
1950.05358	5680.025
1953.14331	5662.725
1956.23103	5651.625
1959.31675	5612.025
1962.40046	5625.625
1965.48217	5611.425
1968.56188	5584.725
1971.63959	5563.125
1974.7153	5555.525
1977.78901	5542.825
1980.86073	5520.625
1983.93046	5508.125
1986.99819	5491.325
1990.06394	5476.325
1993.1277	5461.725
1996.18947	5449.825
1999.24925	5466.025
2002.30706	5445.425
2005.36288	5408.925
2008.41672	5388.525
2011.46859	5381.625
2014.51848	5374.825
2017.56639	5367.025
2020.61233	5360.425
2023.6563	5344.725
2026.6983	5313.725
2029.73833	5301.725
2032.7764	5292.425
2035.8125	5291.225
2038.84664	5285.925
2041.87881	5278.725
2044.90903	5256.925
2047.93729	5250.525
2050.96359	5275.025
2053.98794	5310.925
2057.01034	5277.725
2060.03078	5233.525
2063.04927	5228.525
2066.06582	5236.425
2069.08042	5214.425
2072.09307	5209.725
2075.10378	5219.325
2078.11255	5203.025
2081.11938	5214.025
2084.12426	5212.025
2087.12722	5206.225
2090.12824	5199.225
2093.12732	5190.125
2096.12447	5208.425
2099.11969	5198.925
2102.11299	5205.825
2105.10435	5191.425
2108.09379	5199.925
2111.08131	5217.925
2114.0669	5205.325
2117.05057	5204.825
2120.03233	5202.925
2123.01216	5221.725
2125.99008	5228.025
2128.96609	5232.625
2131.94018	5236.925
2134.91236	5236.225
2137.88263	5242.925
2140.851	5234.925
2143.81746	5253.225
2146.78201	5245.125
2149.74466	5229.425
2152.7054	5241.825
2155.66425	5229.125
2158.6212	5246.325
2161.57625	5235.725
2164.52941	5238.925
2167.48067	5223.925
2170.43004	5245.325
2173.37752	5243.625
2176.32311	5231.425
2179.26681	5264.525
2182.20863	5235.325
2185.14856	5241.625
2188.08661	5207.225
2191.02278	5246.625
2193.95707	5223.025
2196.88948	5222.625
2199.82001	5224.525
2202.74867	5229.025
2205.67545	5217.125
2208.60037	5209.825
2211.52341	5224.125
2214.44458	5199.825
2217.36388	5198.425
2220.28132	5185.825
2223.1969	5170.125
2226.11061	5182.125
2229.02246	5170.125
2231.93245	5153.825
2234.84058	5147.825
2237.74686	5139.125
2240.65128	5118.325
2243.55385	5122.225
2246.45456	5108.125
2249.35343	5105.625
2252.25044	5098.225
2255.14561	5125.725
2258.03893	5273.025
2260.93041	5541.125
2263.82004	5304.525
2266.70783	5170.825
2269.59378	5099.425
2272.4779	5064.825
2275.36017	5017.725
2278.24061	5024.025
2281.11922	5001.825
2283.996	5009.825
2286.87094	5002.925
2289.74405	4997.025
2292.61534	5007.725
2295.4848	4987.025
2298.35243	4999.125
2301.21824	4980.425
2304.08223	4994.225
2306.94439	5006.925
2309.80474	5012.725
2312.66327	5005.825
2315.51999	4998.325
2318.37489	4999.425
2321.22797	4999.425
2324.07925	5000.625
2326.92871	5012.225
2329.77637	5017.925
2332.62222	5020.225
2335.46626	5016.325
2338.3085	5044.225
2341.14893	5031.425
2343.98756	5027.225
2346.8244	5017.325
2349.65943	4980.525
2352.49267	4966.325
2355.32411	4954.925
2358.15376	4944.925
2360.98161	4942.125
2363.80768	4928.325
2366.63195	4919.725
2369.45444	4898.625
2372.27514	4892.125
2375.09405	4867.925
2377.91118	4880.625
2380.72652	4861.425
2383.54009	4850.525
2386.35187	4854.225
2389.16188	4838.625
2391.97011	4834.025
2394.77657	4816.125
2397.58125	4816.225
2400.38416	4814.825
2403.18529	4814.525
2405.98466	4810.125
2408.78226	4815.725
2411.57809	4832.325
2414.37216	4828.925
2417.16446	4791.225
2419.955	4788.825
2422.74378	4784.325
2425.5308	4766.725
2428.31606	4751.225
2431.09956	4745.325
2433.88131	4741.025
2436.6613	4737.225
2439.43954	4740.425
2442.21603	4721.025
2444.99077	4748.925
2447.76377	4728.925
2450.53501	4715.725
2453.30451	4702.725
2456.07226	4695.125
2458.83827	4715.225
2461.60254	4708.025
2464.36507	4711.525
2467.12586	4695.925
2469.88492	4687.725
2472.64224	4723.725
2475.39782	4939.625
2478.15167	5016.525
2480.90379	4837.925
2483.65417	4776.925
2486.40283	4748.525
2489.14976	4734.525
2491.89497	4740.725
2494.63845	5003.525
2497.3802	5048.325
2500.12024	4850.825
2502.85855	4764.425
2505.59514	4739.125
2508.33002	4699.025
2511.06318	4657.125
2513.79462	4654.025
2516.52435	4644.225
2519.25237	4631.325
2521.97867	4648.425
2524.70327	4648.325
2527.42616	4627.925
2530.14734	4633.825
2532.86681	4606.225
2535.58458	4624.225
2538.30065	4624.325
2541.01501	4610.525
2543.72768	4604.725
2546.43864	4588.425
2549.14791	4598.625
2551.85548	4602.325
2554.56136	4599.125
2557.26554	4580.225
2559.96803	4574.325
2562.66883	4552.625
2565.36794	4540.925
2568.06536	4543.025
2570.7611	4529.725
2573.45514	4528.425
2576.14751	4519.325
2578.83819	4515.225
2581.52719	4509.725
2584.21451	4501.925
2586.90015	4509.725
2589.58411	4484.025
2592.2664	4486.725
2594.94701	4492.425
2597.62594	4481.125
2600.30321	4485.725
2602.9788	4467.625
2605.65273	4456.225
2608.32498	4462.925
2610.99557	4448.425
2613.66449	4432.225
2616.33175	4431.125
2618.99734	4429.325
2621.66128	4446.625
2624.32355	4463.825
2626.98416	4428.625
2629.64311	4431.725
2632.30041	4410.525
2634.95605	4396.625
2637.61004	4400.725
2640.26238	4403.925
2642.91306	4376.825
2645.56209	4429.625
2648.20948	4498.925
2650.85521	4431.725
2653.4993	4410.425
2656.14175	4406.725
2658.78255	4395.725
2661.42171	4398.725
2664.05923	4389.725
2666.6951	4392.725
2669.32934	4397.225
2671.96194	4400.125
2674.59291	4386.025
2677.22224	4384.625
2679.84993	4388.025
2682.476	4384.625
2685.10043	4383.825
2687.72324	4386.925
2690.34441	4377.625
2692.96396	4389.825
2695.58188	4389.825
2698.19818	4397.725
2700.81285	4453.725
2703.4259	5052.525
2706.03733	6164.725
2708.64714	5361.125
2711.25533	4888.125
2713.86191	4727.525
2716.46687	4629.125
2719.07021	4529.625
2721.67194	4459.525
2724.27206	4420.025
2726.87057	4409.425
2729.46747	4386.025
2732.06276	4398.425
2734.65644	4399.425
2737.24852	4378.325
2739.83899	4377.825
2742.42786	4364.025
2745.01513	4358.225
2747.60079	4333.625
2750.18486	4355.625
2752.76733	4350.925
2755.3482	4336.525
2757.92747	4341.025
2760.50515	4324.125
2763.08123	4321.525
2765.65573	4331.525
2768.22863	4327.125
2770.79994	4322.525
2773.36967	4323.225
2775.9378	4305.725
2778.50435	4314.225
2781.06932	4305.325
2783.6327	4295.525
2786.1945	4304.925
2788.75471	4286.825
2791.31335	4309.925
2793.87041	4289.225
2796.42589	4274.825
2798.97979	4279.725
2801.53212	4273.025
2804.08288	4250.225
2806.63206	4241.425
2809.17967	4247.525
2811.72571	4229.125
2814.27018	4210.425
2816.81308	4212.325
2819.35442	4198.225
2821.89419	4188.125
2824.43239	4192.225
2826.96904	4193.425
2829.50412	4183.725
2832.03763	4172.025
2834.56959	4170.825
2837.1	4168.325
2839.62884	4169.025
2842.15613	4177.825
2844.68186	4175.225
2847.20604	4186.725
2849.72867	4188.025
2852.24974	4211.025
2854.76927	4466.025
2857.28724	4732.925
2859.80367	4447.225
2862.31855	4329.025
2864.83189	4310.125
2867.34368	4259.925
2869.85393	4226.825
2872.36264	4179.525
2874.8698	4165.625
2877.37543	4141.025
2879.87952	4140.725
2882.38207	4129.825
2884.88308	4136.625
2887.38256	4135.125
2889.88051	4132.225
2892.37692	4138.125
2894.8718	4134.825
2897.36515	4141.625
2899.85698	4143.525
2902.34727	4137.925
2904.83604	4135.625
2907.32328	4155.025
2909.809	4129.125
2912.29319	4141.225
2914.77587	4150.525
2917.25702	4134.225
2919.73665	4129.325
2922.21476	4129.925
2924.69136	4100.025
2927.16644	4129.625
2929.64	4114.125
2932.11205	4120.925
2934.58258	4094.425
2937.05161	4108.725
2939.51912	4104.625
2941.98513	4106.525
2944.44962	4090.925
2946.91261	4093.825
2949.37409	4093.625
2951.83407	4087.925
2954.29254	4076.725
2956.74951	4079.925
2959.20498	4083.925
2961.65895	4065.625
2964.11142	4084.725
2966.56239	4070.825
2969.01186	4075.525
2971.45984	4055.925
2973.90632	4063.925
2976.35131	4037.825
2978.7948	4053.725
2981.23681	4037.125
2983.67732	4021.625
2986.11635	4025.225
2988.55388	4025.125
2990.98993	4011.825
2993.4245	3999.125
2995.85758	3989.025
2998.28917	3981.325
3000.71928	3982.625
3003.14791	3973.525
3005.57506	3973.925
3008.00073	3982.225
3010.42493	3940.625
3012.84764	3956.125
3015.26888	3945.125
3017.68865	3928.625
3020.10694	3938.025
3022.52376	3944.625
3024.9391	3921.525
3027.35298	3914.625
3029.76539	3923.625
3032.17632	3908.125
3034.5858	3905.125
3036.9938	3908.725
3039.40034	3903.625
3041.80542	3900.725
3044.20903	3883.425
3046.61118	3878.625
3049.01187	3874.625
3051.4111	3865.125
3053.80888	3879.425
3056.20519	3855.825
3058.60005	3856.725
3060.99345	3844.525
3063.3854	3861.525
3065.7759	3852.225
3068.16494	3833.225
3070.55254	3819.025
3072.93868	3856.525
3075.32338	3825.025
3077.70662	3815.925
3080.08842	3812.025
3082.46878	3789.625
3084.84769	3795.525
3087.22515	3796.825
3089.60118	3794.025
3091.97576	3793.425
3094.3489	3787.625
3096.72061	3790.725
3099.09087	3783.725
3101.4597	3785.025
3103.82709	3793.825
3106.19305	3781.925
3108.55757	3791.425
3110.92066	3779.725
3113.28232	3774.425
3115.64255	3743.925
3118.00134	3766.025
3120.35871	3748.225
3122.71466	3741.125
3125.06917	3730.325
3127.42226	3721.225
3129.77393	3728.625
3132.12417	3713.025
3134.47299	3724.025
3136.82039	3711.725
3139.16636	3727.725
3141.51092	3723.025
3143.85406	3722.825
3146.19579	3710.925
3148.53609	3707.225
3150.87499	3712.325
3153.21246	3715.825
3155.54853	3733.925
3157.88318	3722.925
3160.21642	3715.325
3162.54826	3716.125
3164.87868	3717.525
3167.2077	3727.725
3169.5353	3737.325
3171.86151	3724.025
3174.18631	3722.725
3176.5097	3714.825
3178.83169	3713.225
3181.15228	3713.925
3183.47147	3704.325
3185.78926	3710.925
3188.10565	3702.425
3190.42065	3686.825
3192.73424	3700.825
3195.04645	3684.825
3197.35725	3684.925
3199.66667	3680.625
3201.97469	3679.225
3204.28132	3694.925
3206.58656	3692.625
3208.8904	3689.925
3211.19287	3683.125
3213.49394	3693.025
3215.79363	3692.025
3218.09193	3739.125
3220.38884	3981.025
3222.68438	4205.225
3224.97853	3944.425
3227.2713	3832.025
3229.56269	3776.925
3231.8527	3768.425
