Data from AgNP_FTO_APTES_UA_10uM_CRN_20uM_R6G_10uM_NaF_0.1M_Addition_RamanShift__3__16-06-20-734.txt Node

Date: Thu Feb 10 16:06:20 GMT 2022
User: TCL
Spectrometer: QEP01345
Trigger mode: 4
Integration Time (sec): 7.000000E0
Scans to average: 10
Electric dark correction enabled: true
Nonlinearity correction enabled: false
Boxcar width: 0
XAxis mode: Raman Shifts
Number of Pixels in Spectrum: 1044
>>>>>Begin Spectral Data<<<<<
46.04893	0.15
50.45542	-1.05
54.85868	-1.75
59.25871	-1.15
63.6555	76.45
68.04907	78.85
72.43941	82.65
76.82654	81.05
81.21044	88.85
85.59113	88.25
89.96862	90.55
94.34289	97.75
98.71396	99.05
103.08183	110.85
107.4465	108.65
111.80798	107.45
116.16626	113.35
120.52136	115.05
124.87327	122.15
129.222	126.25
133.56755	134.35
137.90993	142.25
142.24913	157.15
146.58517	178.85
150.91804	208.05
155.24774	244.05
159.57429	305.55
163.89768	390.25
168.21792	512.95
172.53501	701.75
176.84895	985.05
181.15975	1375.95
185.46741	1928.25
189.77193	2657.65
194.07331	3554.45
198.37157	4564.45
202.6667	5634.85
206.9587	6699.15
211.24758	7777.65
215.53334	8798.95
219.81599	9913.75
224.09553	11130.75
228.37195	12442.05
232.64527	13913.55
236.91549	15456.65
241.18261	16966.95
245.44663	18415.75
249.70755	19701.05
253.96539	20873.35
258.22014	21845.35
262.4718	22653.65
266.72039	23222.15
270.96589	23520.15
275.20832	23585.55
279.44768	23466.45
283.68397	23322.95
287.91719	23135.45
292.14735	22961.25
296.37445	22956.45
300.59849	23035.15
304.81948	23095.35
309.03742	23077.25
313.25231	22950.65
317.46415	22606.15
321.67296	22117.45
325.87872	21734.95
330.08145	21569.25
334.28114	21549.05
338.47781	21638.65
342.67145	21910.85
346.86207	22261.25
351.04966	22657.85
355.23424	23084.95
359.4158	23449.05
363.59435	23719.65
367.76989	23973.95
371.94243	24158.85
376.11196	24253.45
380.27849	24342.55
384.44203	24545.95
388.60257	24691.75
392.76012	25016.75
396.91468	25337.05
401.06626	25685.95
405.21485	25896.95
409.36047	25891.95
413.50311	25698.85
417.64277	25553.85
421.77947	25640.15
425.9132	25792.55
430.04396	25975.35
434.17176	26068.85
438.2966	26243.65
442.41849	26667.65
446.53742	27462.95
450.6534	28327.65
454.76644	28931.45
458.87653	29162.25
462.98368	28909.05
467.08789	28461.25
471.18916	27964.65
475.2875	27487.35
479.38291	27244.45
483.4754	27043.15
487.56496	26803.45
491.6516	26402.15
495.73531	26036.95
499.81612	25841.55
503.89401	25986.55
507.96899	26082.65
512.04106	26033.35
516.11023	25842.65
520.1765	25579.05
524.23987	25364.65
528.30034	25164.35
532.35792	24957.35
536.41261	24636.05
540.46441	24436.55
544.51333	24417.95
548.55936	24660.55
552.60252	25154.35
556.64279	25821.85
560.6802	26263.05
564.71473	26533.45
568.7464	26957.25
572.7752	27717.65
576.80114	28508.75
580.82422	29314.15
584.84444	30416.15
588.86181	31667.65
592.87633	32597.35
596.888	32250.65
600.89682	30920.35
604.9028	30558.55
608.90594	32170.25
612.90624	33849.95
616.90371	31737.65
620.89834	27470.05
624.89015	25661.05
628.87913	25415.15
632.86528	25449.65
636.84862	25243.55
640.82913	24803.95
644.80683	24282.45
648.78172	23940.35
652.75379	23983.45
656.72306	24260.55
660.68952	24578.05
664.65319	24403.65
668.61405	24001.85
672.57211	24039.05
676.52738	24114.15
680.47986	24120.45
684.42955	23956.15
688.37646	23861.65
692.32058	24087.95
696.26192	24459.75
700.20048	24867.15
704.13626	25016.55
708.06928	24957.25
711.99952	24827.25
715.927	24819.95
719.85171	24961.85
723.77365	24915.75
727.69284	24569.75
731.60928	24234.75
735.52295	24084.65
739.43388	24083.95
743.34206	24127.65
747.24749	24296.15
751.15017	24567.25
755.05012	25019.25
758.94733	25700.25
762.8418	26745.35
766.73354	28279.15
770.62254	29564.45
774.50882	29655.85
778.39237	28438.25
782.27321	26783.35
786.15132	25500.65
790.02671	24694.65
793.89938	24354.55
797.76935	24245.05
801.6366	24183.85
805.50115	24139.35
809.36299	23996.05
813.22213	23853.75
817.07857	23734.65
820.93231	23632.85
824.78336	23504.05
828.63172	23408.65
832.47738	23426.05
836.32036	23466.05
840.16066	23583.15
843.99827	23711.45
847.8332	23656.45
851.66546	23527.45
855.49504	23562.45
859.32195	23560.95
863.1462	23485.45
866.96777	23396.95
870.78668	23320.55
874.60293	23336.45
878.41652	23387.75
882.22745	23394.95
886.03573	23458.45
889.84136	23418.95
893.64433	23321.05
897.44466	23214.35
901.24235	23183.25
905.0374	23102.35
908.8298	23132.65
912.61957	23221.05
916.40671	23453.15
920.19121	23798.75
923.97308	24108.95
927.75233	24099.45
931.52895	23893.35
935.30295	23560.45
939.07433	23184.25
942.84309	22915.85
946.60924	22861.35
950.37278	22829.75
954.13371	22822.55
957.89203	22731.25
961.64774	22714.85
965.40086	22682.25
969.15137	22650.35
972.89929	22624.05
976.64461	22561.55
980.38733	22567.75
984.12747	22680.55
987.86502	22856.55
991.59999	23127.15
995.33237	23499.85
999.06217	24141.35
1002.78939	24883.65
1006.51404	25419.65
1010.23611	25750.95
1013.95561	25951.65
1017.67255	25912.55
1021.38692	25640.85
1025.09872	25298.25
1028.80796	25372.55
1032.51465	25957.45
1036.21877	26644.65
1039.92035	26793.85
1043.61937	26511.25
1047.31584	25920.25
1051.00976	25340.15
1054.70114	25011.45
1058.38998	24968.45
1062.07627	25077.35
1065.76003	25220.55
1069.44126	25351.35
1073.11995	25685.75
1076.79611	26030.25
1080.46974	26221.25
1084.14085	26461.95
1087.80943	26804.75
1091.47549	26914.05
1095.13903	26897.15
1098.80005	26595.65
1102.45857	26061.65
1106.11456	25694.05
1109.76805	25561.15
1113.41903	25572.15
1117.06751	25692.65
1120.71348	25844.05
1124.35696	26021.65
1127.99793	26271.45
1131.63641	26466.75
1135.2724	26439.05
1138.90589	26408.65
1142.5369	26444.45
1146.16542	26691.75
1149.79145	26889.15
1153.415	27206.45
1157.03607	27676.95
1160.65467	28581.15
1164.27079	30014.45
1167.88443	31671.45
1171.49561	33277.25
1175.10432	35246.25
1178.71056	37799.35
1182.31434	40224.05
1185.91565	41350.65
1189.51451	41050.85
1193.11091	39921.15
1196.70485	38571.35
1200.29634	37345.35
1203.88538	36640.05
1207.47197	36317.75
1211.05612	35995.65
1214.63782	35335.65
1218.21708	34365.55
1221.79391	33478.05
1225.36829	32849.95
1228.94024	32330.45
1232.50976	31705.25
1236.07685	31112.15
1239.6415	30849.55
1243.20374	30862.65
1246.76355	31204.15
1250.32093	31796.55
1253.8759	32509.25
1257.42845	33435.65
1260.97859	34383.85
1264.52631	35326.65
1268.07163	36432.65
1271.61453	37595.55
1275.15503	38783.45
1278.69312	39983.15
1282.22882	41025.55
1285.76211	42317.85
1289.29301	43845.55
1292.82151	45736.25
1296.34761	48342.25
1299.87133	51412.55
1303.39266	54877.15
1306.9116	57830.05
1310.42815	59860.35
1313.94233	60616.55
1317.45412	59955.25
1320.96354	58807.75
1324.47058	57782.65
1327.97525	57094.15
1331.47754	56634.15
1334.97747	56280.05
1338.47502	55653.45
1341.97022	54733.95
1345.46305	53296.35
1348.95352	52154.65
1352.44163	51926.35
1355.92738	52990.85
1359.41078	55069.65
1362.89183	56528.95
1366.37053	55295.45
1369.84688	51109.25
1373.32088	45912.75
1376.79254	42442.35
1380.26186	41388.35
1383.72883	41771.25
1387.19347	41979.85
1390.65578	41699.55
1394.11575	41746.05
1397.57339	42339.75
1401.0287	43286.75
1404.48168	44045.25
1407.93234	44245.05
1411.38068	43492.95
1414.82669	42024.65
1418.27039	40224.95
1421.71177	38382.65
1425.15083	36896.35
1428.58758	36175.15
1432.02203	36628.05
1435.45416	37790.85
1438.88399	39137.35
1442.31151	40176.95
1445.73673	40791.75
1449.15965	41049.25
1452.58027	40972.35
1455.9986	40798.95
1459.41463	40861.75
1462.82837	41336.35
1466.23982	42145.95
1469.64898	42992.85
1473.05586	43495.25
1476.46045	43565.65
1479.86276	43126.85
1483.26279	42601.25
1486.66054	42262.75
1490.05602	42181.35
1493.44922	42309.65
1496.84016	42416.25
1500.22882	42580.95
1503.61521	43113.75
1506.99934	43857.85
1510.38121	44540.65
1513.76081	44606.15
1517.13816	43944.25
1520.51324	42932.65
1523.88607	42340.85
1527.25665	42248.55
1530.62498	42566.45
1533.99105	42735.85
1537.35488	42462.55
1540.71647	41725.25
1544.07581	40589.25
1547.4329	39520.55
1550.78776	38493.35
1554.14038	37772.85
1557.49077	37340.25
1560.83892	36997.85
1564.18484	36747.95
1567.52853	36754.15
1570.86999	37069.85
1574.20922	37760.55
1577.54624	38599.95
1580.88103	39183.85
1584.2136	40088.75
1587.54395	41895.55
1590.87208	44569.25
1594.19801	47640.75
1597.52172	50160.75
1600.84321	50504.55
1604.16251	47909.65
1607.47959	43550.85
1610.79447	39091.55
1614.10715	35376.15
1617.41763	32682.55
1620.7259	31001.95
1624.03199	30311.45
1627.33587	30540.05
1630.63757	31641.55
1633.93707	33908.45
1637.23439	37435.05
1640.52951	42363.15
1643.82246	47984.35
1647.11321	51883.95
1650.40179	51764.65
1653.68819	47140.65
1656.97241	40428.15
1660.25446	34412.15
1663.53433	30175.25
1666.81203	27486.85
1670.08756	25796.95
1673.36092	24763.65
1676.63211	24129.55
1679.90115	23634.65
1683.16801	23252.95
1686.43272	22991.95
1689.69527	22852.25
1692.95567	22658.25
1696.2139	22584.25
1699.46999	22564.95
1702.72392	22447.35
1705.97571	22370.35
1709.22535	22297.55
1712.47284	22245.95
1715.71819	22222.75
1718.96139	22200.15
1722.20246	22107.35
1725.44139	22006.15
1728.67818	21889.95
1731.91284	21741.65
1735.14537	21625.35
1738.37576	21564.25
1741.60403	21442.15
1744.83017	21395.65
1748.05418	21372.55
1751.27607	21333.65
1754.49584	21283.15
1757.71349	21280.35
1760.92903	21264.55
1764.14244	21227.05
1767.35375	21230.15
1770.56294	21206.75
1773.77002	21173.75
1776.97499	21132.55
1780.17785	21079.95
1783.37861	21080.85
1786.57727	21015.65
1789.77382	21004.55
1792.96828	20957.05
1796.16064	20929.65
1799.3509	20898.25
1802.53907	20841.75
1805.72514	20829.45
1808.90913	20790.15
1812.09102	20765.65
1815.27083	20720.15
1818.44856	20707.55
1821.6242	20649.05
1824.79776	20654.25
1827.96924	20629.85
1831.13864	20628.65
1834.30597	20639.75
1837.47122	20626.25
1840.6344	20611.55
1843.7955	20617.15
1846.95454	20603.25
1850.11151	20627.45
1853.26642	20616.25
1856.41926	20612.65
1859.57004	20594.15
1862.71876	20555.35
1865.86542	20515.45
1869.01003	20521.75
1872.15258	20526.75
1875.29308	20529.25
1878.43152	20497.15
1881.56792	20473.65
1884.70227	20435.35
1887.83457	20445.15
1890.96482	20445.35
1894.09304	20403.85
1897.21921	20360.05
1900.34335	20367.05
1903.46544	20325.65
1906.58551	20318.55
1909.70353	20281.65
1912.81953	20300.55
1915.93349	20242.95
1919.04543	20216.85
1922.15534	20202.35
1925.26322	20158.95
1928.36908	20087.85
1931.47292	20070.45
1934.57473	20028.75
1937.67453	19960.15
1940.77232	19959.05
1943.86808	19860.55
1946.96184	19837.95
1950.05358	19758.65
1953.14331	19680.85
1956.23103	19684.85
1959.31675	19607.05
1962.40046	19563.15
1965.48217	19492.05
1968.56188	19449.35
1971.63959	19416.35
1974.7153	19372.15
1977.78901	19271.95
1980.86073	19254.45
1983.93046	19202.75
1986.99819	19153.55
1990.06394	19089.35
1993.1277	19060.85
1996.18947	18963.05
1999.24925	18946.35
2002.30706	18905.45
2005.36288	18877.75
2008.41672	18798.95
2011.46859	18781.45
2014.51848	18705.85
2017.56639	18715.85
2020.61233	18653.65
2023.6563	18623.55
2026.6983	18562.55
2029.73833	18557.35
2032.7764	18515.55
2035.8125	18488.85
2038.84664	18468.95
2041.87881	18416.35
2044.90903	18370.25
2047.93729	18343.85
2050.96359	18349.95
2053.98794	18338.25
2057.01034	18355.45
2060.03078	18301.45
2063.04927	18289.25
2066.06582	18327.95
2069.08042	18313.05
2072.09307	18280.25
2075.10378	18278.85
2078.11255	18251.55
2081.11938	18257.55
2084.12426	18226.45
2087.12722	18243.35
2090.12824	18232.35
2093.12732	18194.65
2096.12447	18229.05
2099.11969	18237.65
2102.11299	18223.65
2105.10435	18219.15
2108.09379	18213.05
2111.08131	18240.25
2114.0669	18249.35
2117.05057	18245.15
2120.03233	18276.05
2123.01216	18334.05
2125.99008	18351.35
2128.96609	18352.15
2131.94018	18400.95
2134.91236	18399.45
2137.88263	18396.25
2140.851	18390.85
2143.81746	18419.05
2146.78201	18421.35
2149.74466	18427.85
2152.7054	18456.75
2155.66425	18406.65
2158.6212	18459.75
2161.57625	18443.65
2164.52941	18442.45
2167.48067	18441.35
2170.43004	18439.35
2173.37752	18386.25
2176.32311	18412.15
2179.26681	18452.15
2182.20863	18463.05
2185.14856	18456.95
2188.08661	18430.85
2191.02278	18449.25
2193.95707	18477.45
2196.88948	18502.45
2199.82001	18471.95
2202.74867	18472.05
2205.67545	18458.05
2208.60037	18361.65
2211.52341	18409.95
2214.44458	18392.85
2217.36388	18345.05
2220.28132	18338.25
2223.1969	18309.25
2226.11061	18297.05
2229.02246	18252.05
2231.93245	18229.55
2234.84058	18176.85
2237.74686	18173.15
2240.65128	18157.25
2243.55385	18131.95
2246.45456	18088.45
2249.35343	18092.65
2252.25044	18077.45
2255.14561	18026.25
2258.03893	18021.15
2260.93041	17967.05
2263.82004	17910.95
2266.70783	17861.45
2269.59378	17810.85
2272.4779	17756.95
2275.36017	17723.15
2278.24061	17721.25
2281.11922	17698.05
2283.996	17679.15
2286.87094	17690.95
2289.74405	17689.85
2292.61534	17639.35
2295.4848	17678.75
2298.35243	17700.05
2301.21824	17705.75
2304.08223	17696.95
2306.94439	17711.55
2309.80474	17725.45
2312.66327	17733.35
2315.51999	17714.65
2318.37489	17700.45
2321.22797	17682.35
2324.07925	17680.05
2326.92871	17646.65
2329.77637	17625.95
2332.62222	17622.85
2335.46626	17599.15
2338.3085	17611.25
2341.14893	17599.75
2343.98756	17646.85
2346.8244	17643.05
2349.65943	17626.75
2352.49267	17605.55
2355.32411	17585.75
2358.15376	17610.25
2360.98161	17597.55
2363.80768	17572.05
2366.63195	17589.35
2369.45444	17537.95
2372.27514	17500.55
2375.09405	17486.95
2377.91118	17486.55
2380.72652	17399.45
2383.54009	17400.45
2386.35187	17375.85
2389.16188	17332.85
2391.97011	17309.35
2394.77657	17287.25
2397.58125	17271.25
2400.38416	17278.05
2403.18529	17269.25
2405.98466	17229.95
2408.78226	17177.55
2411.57809	17172.25
2414.37216	17184.75
2417.16446	17158.85
2419.955	17115.65
2422.74378	17082.05
2425.5308	17065.95
2428.31606	17090.65
2431.09956	17095.05
2433.88131	17096.65
2436.6613	17103.25
2439.43954	17094.35
2442.21603	17091.45
2444.99077	17049.65
2447.76377	17070.35
2450.53501	17066.05
2453.30451	17064.85
2456.07226	17073.85
2458.83827	17074.65
2461.60254	17054.85
2464.36507	17048.85
2467.12586	17035.95
2469.88492	17029.95
2472.64224	17026.65
2475.39782	17068.95
2478.15167	17100.35
2480.90379	17118.85
2483.65417	17176.05
2486.40283	17168.25
2489.14976	17176.95
2491.89497	17114.55
2494.63845	17153.75
2497.3802	17118.35
2500.12024	17130.15
2502.85855	17145.45
2505.59514	17128.15
2508.33002	17100.35
2511.06318	17106.85
2513.79462	17078.25
2516.52435	17086.45
2519.25237	17047.35
2521.97867	17033.95
2524.70327	17076.45
2527.42616	17013.65
2530.14734	17040.55
2532.86681	17055.05
2535.58458	17057.85
2538.30065	17046.75
2541.01501	17064.45
2543.72768	17025.15
2546.43864	17032.85
2549.14791	17055.95
2551.85548	17007.25
2554.56136	17017.95
2557.26554	17013.65
2559.96803	16985.35
2562.66883	16944.55
2565.36794	16927.55
2568.06536	16955.45
2570.7611	16935.95
2573.45514	16952.45
2576.14751	16930.55
2578.83819	16930.35
2581.52719	16916.35
2584.21451	16890.95
2586.90015	16908.95
2589.58411	16871.45
2592.2664	16890.35
2594.94701	16871.55
2597.62594	16879.05
2600.30321	16857.35
2602.9788	16853.05
2605.65273	16859.75
2608.32498	16892.85
2610.99557	16879.95
2613.66449	16879.45
2616.33175	16863.05
2618.99734	16891.85
2621.66128	16893.25
2624.32355	16855.75
2626.98416	16856.85
2629.64311	16843.75
2632.30041	16823.75
2634.95605	16816.55
2637.61004	16788.65
2640.26238	16776.65
2642.91306	16787.95
2645.56209	16778.05
2648.20948	16771.95
2650.85521	16756.75
2653.4993	16791.85
2656.14175	16751.95
2658.78255	16789.05
2661.42171	16798.95
2664.05923	16816.65
2666.6951	16828.55
2669.32934	16890.85
2671.96194	16898.05
2674.59291	16887.75
2677.22224	16900.55
2679.84993	16867.95
2682.476	16841.55
2685.10043	16858.45
2687.72324	16868.15
2690.34441	16830.95
2692.96396	16829.35
2695.58188	16821.65
2698.19818	16844.55
2700.81285	16859.35
2703.4259	16875.75
2706.03733	16909.15
2708.64714	16876.75
2711.25533	16907.35
2713.86191	16917.45
2716.46687	16913.85
2719.07021	16939.05
2721.67194	16967.35
2724.27206	16961.05
2726.87057	16973.45
2729.46747	17011.65
2732.06276	17025.45
2734.65644	16998.25
2737.24852	17029.95
2739.83899	17012.35
2742.42786	17054.05
2745.01513	16993.55
2747.60079	17003.55
2750.18486	16946.05
2752.76733	16944.55
2755.3482	16945.65
2757.92747	16949.75
2760.50515	16929.55
2763.08123	16972.15
2765.65573	16931.35
2768.22863	16957.45
2770.79994	16947.35
2773.36967	16936.25
2775.9378	16965.55
2778.50435	16979.55
2781.06932	16976.25
2783.6327	16965.55
2786.1945	16955.85
2788.75471	16947.85
2791.31335	16920.05
2793.87041	16900.55
2796.42589	16907.35
2798.97979	16890.85
2801.53212	16862.45
2804.08288	16873.85
2806.63206	16829.95
2809.17967	16794.05
2811.72571	16758.75
2814.27018	16718.65
2816.81308	16703.95
2819.35442	16668.35
2821.89419	16619.75
2824.43239	16628.75
2826.96904	16621.55
2829.50412	16591.55
2832.03763	16564.35
2834.56959	16585.55
2837.1	16569.85
2839.62884	16603.55
2842.15613	16565.55
2844.68186	16595.75
2847.20604	16557.25
2849.72867	16585.85
2852.24974	16556.25
2854.76927	16544.25
2857.28724	16547.15
2859.80367	16507.55
2862.31855	16518.85
2864.83189	16491.35
2867.34368	16425.25
2869.85393	16434.25
2872.36264	16473.45
2874.8698	16435.45
2877.37543	16448.85
2879.87952	16460.95
2882.38207	16468.25
2884.88308	16471.85
2887.38256	16524.05
2889.88051	16489.75
2892.37692	16485.15
2894.8718	16513.95
2897.36515	16559.65
2899.85698	16586.45
2902.34727	16609.85
2904.83604	16598.35
2907.32328	16645.35
2909.809	16656.65
2912.29319	16646.05
2914.77587	16613.85
2917.25702	16626.75
2919.73665	16601.35
2922.21476	16618.15
2924.69136	16622.85
2927.16644	16609.45
2929.64	16592.75
2932.11205	16582.45
2934.58258	16521.45
2937.05161	16576.15
2939.51912	16542.15
2941.98513	16532.55
2944.44962	16491.25
2946.91261	16482.35
2949.37409	16536.35
2951.83407	16514.75
2954.29254	16503.65
2956.74951	16493.55
2959.20498	16494.85
2961.65895	16494.95
2964.11142	16504.65
2966.56239	16462.05
2969.01186	16457.95
2971.45984	16470.15
2973.90632	16420.75
2976.35131	16380.05
2978.7948	16364.55
2981.23681	16352.45
2983.67732	16297.65
2986.11635	16261.75
2988.55388	16212.25
2990.98993	16201.95
2993.4245	16186.95
2995.85758	16134.95
2998.28917	16085.05
3000.71928	16099.85
3003.14791	16033.85
3005.57506	16015.95
3008.00073	15985.55
3010.42493	15823.65
3012.84764	15885.15
3015.26888	15869.45
3017.68865	15867.05
3020.10694	15840.55
3022.52376	15825.15
3024.9391	15838.35
3027.35298	15834.65
3029.76539	15831.65
3032.17632	15827.05
3034.5858	15815.15
3036.9938	15801.15
3039.40034	15819.65
3041.80542	15873.95
3044.20903	15840.05
3046.61118	15791.45
3049.01187	15764.15
3051.4111	15721.85
3053.80888	15679.05
3056.20519	15662.75
3058.60005	15595.35
3060.99345	15619.95
3063.3854	15605.75
3065.7759	15535.35
3068.16494	15505.25
3070.55254	15475.05
3072.93868	15441.35
3075.32338	15365.85
3077.70662	15364.85
3080.08842	15343.15
3082.46878	15321.15
3084.84769	15314.95
3087.22515	15330.75
3089.60118	15311.45
3091.97576	15292.65
3094.3489	15292.65
3096.72061	15322.85
3099.09087	15325.25
3101.4597	15293.85
3103.82709	15287.15
3106.19305	15270.75
3108.55757	15261.85
3110.92066	15237.95
3113.28232	15239.35
3115.64255	15187.95
3118.00134	15169.45
3120.35871	15162.25
3122.71466	15097.35
3125.06917	15072.75
3127.42226	15047.25
3129.77393	15056.55
3132.12417	15052.35
3134.47299	15030.35
3136.82039	14991.35
3139.16636	15025.75
3141.51092	15037.45
3143.85406	15010.15
3146.19579	14981.35
3148.53609	15008.75
3150.87499	14998.35
3153.21246	14996.45
3155.54853	15009.55
3157.88318	14987.45
3160.21642	15038.55
3162.54826	15026.55
3164.87868	15044.75
3167.2077	15058.95
3169.5353	15058.75
3171.86151	15074.15
3174.18631	15080.55
3176.5097	15036.85
3178.83169	15022.45
3181.15228	15030.35
3183.47147	14984.45
3185.78926	14989.25
3188.10565	14947.05
3190.42065	14961.65
3192.73424	14969.05
3195.04645	14939.95
3197.35725	14917.45
3199.66667	14914.45
3201.97469	14943.25
3204.28132	14931.35
3206.58656	14942.35
3208.8904	14929.45
3211.19287	14934.85
3213.49394	14900.95
3215.79363	14934.45
3218.09193	14964.85
3220.38884	14969.15
3222.68438	14954.25
3224.97853	14935.45
3227.2713	14931.75
3229.56269	14920.15
3231.8527	14894.45
3234.14133	14872.05
3236.42858	14868.15
3238.71446	14857.15
