Data from AgNP_FTO_APTES_UA_10uM_CRN_2uM_R6G_10uM_NaF_0.1M_Addition_RamanShift__19__14-19-00-601.txt Node

Date: Thu Feb 10 14:19:00 GMT 2022
User: TCL
Spectrometer: QEP01345
Trigger mode: 4
Integration Time (sec): 7.000000E0
Scans to average: 10
Electric dark correction enabled: true
Nonlinearity correction enabled: false
Boxcar width: 0
XAxis mode: Raman Shifts
Number of Pixels in Spectrum: 1044
>>>>>Begin Spectral Data<<<<<
46.04893	-0.5875
50.45542	-0.6875
54.85868	-2.2875
59.25871	0.1125
63.6555	67.6125
68.04907	72.9125
72.43941	75.9125
76.82654	73.7125
81.21044	79.6125
85.59113	80.7125
89.96862	84.5125
94.34289	90.6125
98.71396	92.9125
103.08183	93.6125
107.4465	96.8125
111.80798	99.2125
116.16626	103.4125
120.52136	106.2125
124.87327	113.2125
129.222	117.1125
133.56755	125.1125
137.90993	129.9125
142.24913	142.3125
146.58517	163.1125
150.91804	191.0125
155.24774	225.4125
159.57429	282.5125
163.89768	358.8125
168.21792	482.3125
172.53501	655.1125
176.84895	907.9125
181.15975	1284.4125
185.46741	1791.9125
189.77193	2473.4125
194.07331	3300.0125
198.37157	4241.4125
202.6667	5253.8125
206.9587	6225.9125
211.24758	7193.6125
215.53334	8181.6125
219.81599	9226.7125
224.09553	10395.2125
228.37195	11675.5125
232.64527	13118.0125
236.91549	14597.8125
241.18261	16047.0125
245.44663	17510.8125
249.70755	18589.4125
253.96539	19593.2125
258.22014	20445.9125
262.4718	21209.9125
266.72039	21741.8125
270.96589	22018.4125
275.20832	22115.7125
279.44768	21975.6125
283.68397	21810.9125
287.91719	21640.9125
292.14735	21574.5125
296.37445	21648.3125
300.59849	21800.8125
304.81948	21918.8125
309.03742	21917.9125
313.25231	21633.7125
317.46415	21054.8125
321.67296	20322.2125
325.87872	19678.0125
330.08145	19402.1125
334.28114	19349.3125
338.47781	19494.1125
342.67145	19765.5125
346.86207	20120.1125
351.04966	20586.2125
355.23424	21046.5125
359.4158	21477.7125
363.59435	21761.0125
367.76989	21905.5125
371.94243	22026.9125
376.11196	22079.4125
380.27849	22169.8125
384.44203	22264.1125
388.60257	22393.3125
392.76012	22579.3125
396.91468	22827.8125
401.06626	23176.5125
405.21485	23363.7125
409.36047	23207.3125
413.50311	22742.7125
417.64277	22350.7125
421.77947	22238.9125
425.9132	22299.0125
430.04396	22438.0125
434.17176	22506.2125
438.2966	22691.5125
442.41849	23077.6125
446.53742	23740.2125
450.6534	24425.7125
454.76644	24978.7125
458.87653	25129.6125
462.98368	25090.9125
467.08789	24782.4125
471.18916	24425.1125
475.2875	24115.0125
479.38291	23968.4125
483.4754	23807.0125
487.56496	23485.7125
491.6516	22988.6125
495.73531	22608.0125
499.81612	22418.1125
503.89401	22492.7125
507.96899	22604.3125
512.04106	22595.2125
516.11023	22501.6125
520.1765	22331.3125
524.23987	22193.7125
528.30034	22008.0125
532.35792	21776.6125
536.41261	21440.4125
540.46441	21164.3125
544.51333	21141.1125
548.55936	21455.4125
552.60252	22006.3125
556.64279	22615.1125
560.6802	23008.1125
564.71473	23219.2125
568.7464	23668.4125
572.7752	24216.3125
576.80114	24654.2125
580.82422	24918.4125
584.84444	25264.7125
588.86181	25539.2125
592.87633	25870.9125
596.888	25974.2125
600.89682	25927.7125
604.9028	26806.4125
608.90594	29505.4125
612.90624	32425.9125
616.90371	30295.7125
620.89834	24792.4125
624.89015	22497.0125
628.87913	22334.9125
632.86528	22327.5125
636.84862	22130.9125
640.82913	21645.8125
644.80683	21017.4125
648.78172	20531.4125
652.75379	20404.4125
656.72306	20715.3125
660.68952	21102.3125
664.65319	20958.6125
668.61405	20513.9125
672.57211	20336.9125
676.52738	20330.7125
680.47986	20316.7125
684.42955	20198.0125
688.37646	20120.7125
692.32058	20273.8125
696.26192	20457.8125
700.20048	20778.7125
704.13626	20950.4125
708.06928	20891.7125
711.99952	20696.8125
715.927	20624.1125
719.85171	20667.2125
723.77365	20600.8125
727.69284	20350.4125
731.60928	20146.1125
735.52295	20126.2125
739.43388	20076.6125
743.34206	20158.2125
747.24749	20244.7125
751.15017	20455.4125
755.05012	20862.6125
758.94733	21552.9125
762.8418	22876.6125
766.73354	24954.6125
770.62254	26969.3125
774.50882	27403.3125
778.39237	26031.2125
782.27321	23748.4125
786.15132	22014.0125
790.02671	20880.8125
793.89938	20398.4125
797.76935	20211.5125
801.6366	20152.1125
805.50115	20115.6125
809.36299	19915.7125
813.22213	19673.5125
817.07857	19638.6125
820.93231	19532.7125
824.78336	19484.8125
828.63172	19388.6125
832.47738	19413.9125
836.32036	19422.0125
840.16066	19515.0125
843.99827	19579.5125
847.8332	19551.6125
851.66546	19427.6125
855.49504	19392.0125
859.32195	19377.3125
863.1462	19293.3125
866.96777	19183.2125
870.78668	19152.1125
874.60293	19160.4125
878.41652	19173.2125
882.22745	19198.9125
886.03573	19264.8125
889.84136	19227.7125
893.64433	19176.4125
897.44466	19108.3125
901.24235	19027.2125
905.0374	18932.7125
908.8298	18883.0125
912.61957	18910.8125
916.40671	19102.5125
920.19121	19371.5125
923.97308	19684.3125
927.75233	19794.2125
931.52895	19724.8125
935.30295	19472.9125
939.07433	19003.4125
942.84309	18643.3125
946.60924	18481.2125
950.37278	18402.0125
954.13371	18345.4125
957.89203	18232.7125
961.64774	18193.6125
965.40086	18105.7125
969.15137	18036.0125
972.89929	17987.6125
976.64461	17935.2125
980.38733	17956.4125
984.12747	18041.2125
987.86502	18206.1125
991.59999	18518.4125
995.33237	18970.4125
999.06217	19642.8125
1002.78939	20420.7125
1006.51404	20776.7125
1010.23611	20928.1125
1013.95561	21103.6125
1017.67255	21111.5125
1021.38692	20840.7125
1025.09872	20620.0125
1028.80796	20838.8125
1032.51465	21575.9125
1036.21877	22289.1125
1039.92035	22341.1125
1043.61937	21929.0125
1047.31584	21280.5125
1051.00976	20610.5125
1054.70114	20323.9125
1058.38998	20324.5125
1062.07627	20384.9125
1065.76003	20493.8125
1069.44126	20566.0125
1073.11995	20789.7125
1076.79611	21083.1125
1080.46974	21281.8125
1084.14085	21509.4125
1087.80943	21800.1125
1091.47549	22026.9125
1095.13903	21946.5125
1098.80005	21610.3125
1102.45857	21113.1125
1106.11456	20775.9125
1109.76805	20660.9125
1113.41903	20780.9125
1117.06751	20954.8125
1120.71348	21203.7125
1124.35696	21540.6125
1127.99793	21865.6125
1131.63641	22031.8125
1135.2724	21791.8125
1138.90589	21597.3125
1142.5369	21481.5125
1146.16542	21419.1125
1149.79145	21477.1125
1153.415	21695.5125
1157.03607	22066.0125
1160.65467	22680.1125
1164.27079	23726.2125
1167.88443	25195.8125
1171.49561	27050.7125
1175.10432	29526.2125
1178.71056	32630.0125
1182.31434	35426.1125
1185.91565	36986.4125
1189.51451	36835.3125
1193.11091	35497.7125
1196.70485	33622.5125
1200.29634	31823.6125
1203.88538	30408.3125
1207.47197	29354.1125
1211.05612	28563.5125
1214.63782	27966.3125
1218.21708	27541.3125
1221.79391	27356.8125
1225.36829	27297.7125
1228.94024	26951.2125
1232.50976	26347.7125
1236.07685	25800.5125
1239.6415	25511.0125
1243.20374	25435.7125
1246.76355	25604.4125
1250.32093	25996.8125
1253.8759	26654.6125
1257.42845	27507.7125
1260.97859	28441.2125
1264.52631	29378.3125
1268.07163	30398.7125
1271.61453	31416.8125
1275.15503	32506.6125
1278.69312	33527.9125
1282.22882	34494.3125
1285.76211	35326.5125
1289.29301	36109.7125
1292.82151	37243.9125
1296.34761	38967.8125
1299.87133	41200.7125
1303.39266	44083.3125
1306.9116	47404.2125
1310.42815	50656.9125
1313.94233	52818.8125
1317.45412	52850.1125
1320.96354	51610.4125
1324.47058	50055.3125
1327.97525	48743.3125
1331.47754	47799.5125
1334.97747	47290.3125
1338.47502	47149.1125
1341.97022	47056.4125
1345.46305	46760.7125
1348.95352	46082.9125
1352.44163	45609.6125
1355.92738	46114.3125
1359.41078	48112.5125
1362.89183	50032.0125
1366.37053	48793.2125
1369.84688	44272.5125
1373.32088	39184.4125
1376.79254	35843.2125
1380.26186	34456.8125
1383.72883	34226.5125
1387.19347	34136.5125
1390.65578	33908.5125
1394.11575	33909.8125
1397.57339	34331.7125
1401.0287	34979.1125
1404.48168	35642.8125
1407.93234	35661.4125
1411.38068	35104.4125
1414.82669	33989.5125
1418.27039	32529.4125
1421.71177	31113.6125
1425.15083	29902.6125
1428.58758	29250.0125
1432.02203	29381.4125
1435.45416	30041.3125
1438.88399	30899.2125
1442.31151	31708.2125
1445.73673	32304.4125
1449.15965	32860.6125
1452.58027	33265.7125
1455.9986	33514.9125
1459.41463	33881.1125
1462.82837	34515.6125
1466.23982	35264.3125
1469.64898	35861.8125
1473.05586	36115.3125
1476.46045	36010.4125
1479.86276	35637.7125
1483.26279	35124.0125
1486.66054	34838.8125
1490.05602	34896.5125
1493.44922	35114.7125
1496.84016	35549.3125
1500.22882	36532.1125
1503.61521	38078.9125
1506.99934	40012.2125
1510.38121	41617.2125
1513.76081	42093.6125
1517.13816	40883.8125
1520.51324	38779.6125
1523.88607	36707.7125
1527.25665	35477.0125
1530.62498	34939.6125
1533.99105	34690.8125
1537.35488	34428.2125
1540.71647	34007.1125
1544.07581	33437.4125
1547.4329	32813.1125
1550.78776	32285.3125
1554.14038	31911.8125
1557.49077	31679.8125
1560.83892	31531.0125
1564.18484	31540.3125
1567.52853	31609.0125
1570.86999	31827.0125
1574.20922	32258.6125
1577.54624	32635.1125
1580.88103	32497.9125
1584.2136	32421.6125
1587.54395	33230.8125
1590.87208	34759.7125
1594.19801	37117.5125
1597.52172	39707.1125
1600.84321	40473.0125
1604.16251	38750.8125
1607.47959	35681.0125
1610.79447	32319.0125
1614.10715	29254.0125
1617.41763	26726.6125
1620.7259	24975.7125
1624.03199	24077.4125
1627.33587	24025.1125
1630.63757	24871.7125
1633.93707	26717.5125
1637.23439	29602.9125
1640.52951	33545.3125
1643.82246	37796.9125
1647.11321	41007.4125
1650.40179	41519.1125
1653.68819	38450.3125
1656.97241	33150.4125
1660.25446	27906.2125
1663.53433	24059.0125
1666.81203	21558.7125
1670.08756	20000.4125
1673.36092	19034.3125
1676.63211	18375.1125
1679.90115	17944.5125
1683.16801	17599.1125
1686.43272	17340.7125
1689.69527	17138.4125
1692.95567	17007.6125
1696.2139	16942.8125
1699.46999	16868.9125
1702.72392	16789.1125
1705.97571	16719.9125
1709.22535	16664.6125
1712.47284	16631.7125
1715.71819	16565.7125
1718.96139	16536.1125
1722.20246	16454.0125
1725.44139	16388.5125
1728.67818	16282.2125
1731.91284	16155.9125
1735.14537	16037.3125
1738.37576	15969.7125
1741.60403	15908.2125
1744.83017	15877.5125
1748.05418	15799.2125
1751.27607	15780.2125
1754.49584	15756.1125
1757.71349	15757.2125
1760.92903	15716.5125
1764.14244	15703.9125
1767.35375	15665.6125
1770.56294	15627.4125
1773.77002	15592.8125
1776.97499	15583.7125
1780.17785	15495.9125
1783.37861	15478.0125
1786.57727	15446.4125
1789.77382	15379.8125
1792.96828	15400.2125
1796.16064	15315.2125
1799.3509	15337.5125
1802.53907	15304.3125
1805.72514	15255.1125
1808.90913	15193.9125
1812.09102	15181.2125
1815.27083	15125.7125
1818.44856	15137.0125
1821.6242	15085.3125
1824.79776	15081.5125
1827.96924	15055.2125
1831.13864	15060.1125
1834.30597	15063.1125
1837.47122	15068.7125
1840.6344	15052.9125
1843.7955	15063.8125
1846.95454	15079.8125
1850.11151	15063.8125
1853.26642	15033.9125
1856.41926	15048.0125
1859.57004	15063.6125
1862.71876	15014.3125
1865.86542	15015.4125
1869.01003	14990.9125
1872.15258	14971.6125
1875.29308	14952.7125
1878.43152	14944.7125
1881.56792	14965.5125
1884.70227	14920.6125
1887.83457	14945.9125
1890.96482	14896.8125
1894.09304	14884.3125
1897.21921	14834.0125
1900.34335	14852.4125
1903.46544	14835.6125
1906.58551	14821.8125
1909.70353	14825.8125
1912.81953	14771.6125
1915.93349	14822.7125
1919.04543	14730.4125
1922.15534	14674.4125
1925.26322	14653.9125
1928.36908	14647.4125
1931.47292	14588.5125
1934.57473	14556.9125
1937.67453	14481.8125
1940.77232	14442.9125
1943.86808	14399.5125
1946.96184	14355.5125
1950.05358	14289.1125
1953.14331	14231.2125
1956.23103	14177.9125
1959.31675	14105.5125
1962.40046	14085.3125
1965.48217	14088.7125
1968.56188	14047.9125
1971.63959	14006.4125
1974.7153	13996.2125
1977.78901	13924.9125
1980.86073	13895.5125
1983.93046	13807.1125
1986.99819	13783.1125
1990.06394	13730.3125
1993.1277	13720.7125
1996.18947	13656.7125
1999.24925	13605.3125
2002.30706	13558.6125
2005.36288	13522.1125
2008.41672	13449.4125
2011.46859	13456.3125
2014.51848	13429.3125
2017.56639	13406.7125
2020.61233	13360.7125
2023.6563	13331.0125
2026.6983	13327.8125
2029.73833	13313.3125
2032.7764	13270.5125
2035.8125	13273.2125
2038.84664	13218.5125
2041.87881	13167.9125
2044.90903	13175.4125
2047.93729	13140.6125
2050.96359	13142.8125
2053.98794	13126.5125
2057.01034	13121.7125
2060.03078	13111.4125
2063.04927	13084.9125
2066.06582	13079.4125
2069.08042	13068.0125
2072.09307	13082.3125
2075.10378	13081.8125
2078.11255	13029.4125
2081.11938	13039.8125
2084.12426	12975.3125
2087.12722	13012.0125
2090.12824	12998.3125
2093.12732	12971.5125
2096.12447	12959.4125
2099.11969	12987.8125
2102.11299	12995.7125
2105.10435	13005.0125
2108.09379	12992.4125
2111.08131	13009.2125
2114.0669	13012.3125
2117.05057	13004.0125
2120.03233	13028.9125
2123.01216	13019.7125
2125.99008	13021.2125
2128.96609	13044.3125
2131.94018	13075.5125
2134.91236	13054.8125
2137.88263	13047.8125
2140.851	13085.8125
2143.81746	13098.7125
2146.78201	13074.6125
2149.74466	13078.1125
2152.7054	13066.9125
2155.66425	13067.0125
2158.6212	13058.6125
2161.57625	13073.8125
2164.52941	13070.5125
2167.48067	13080.6125
2170.43004	13049.6125
2173.37752	13050.6125
2176.32311	13040.1125
2179.26681	13053.1125
2182.20863	13020.3125
2185.14856	13036.8125
2188.08661	13032.9125
2191.02278	13074.0125
2193.95707	13068.2125
2196.88948	13054.6125
2199.82001	13051.6125
2202.74867	13024.3125
2205.67545	13022.1125
2208.60037	13030.9125
2211.52341	13004.5125
2214.44458	13013.2125
2217.36388	13013.8125
2220.28132	12979.2125
2223.1969	12960.4125
2226.11061	12943.8125
2229.02246	12910.4125
2231.93245	12876.8125
2234.84058	12827.9125
2237.74686	12806.8125
2240.65128	12795.8125
2243.55385	12777.4125
2246.45456	12745.5125
2249.35343	12712.6125
2252.25044	12741.3125
2255.14561	12711.5125
2258.03893	12691.6125
2260.93041	12667.0125
2263.82004	12629.6125
2266.70783	12598.0125
2269.59378	12548.0125
2272.4779	12519.8125
2275.36017	12502.4125
2278.24061	12478.7125
2281.11922	12467.1125
2283.996	12422.0125
2286.87094	12429.0125
2289.74405	12425.6125
2292.61534	12397.0125
2295.4848	12426.5125
2298.35243	12454.9125
2301.21824	12449.3125
2304.08223	12444.4125
2306.94439	12433.5125
2309.80474	12454.0125
2312.66327	12446.5125
2315.51999	12465.2125
2318.37489	12469.1125
2321.22797	12445.9125
2324.07925	12445.5125
2326.92871	12431.0125
2329.77637	12437.9125
2332.62222	12422.5125
2335.46626	12412.3125
2338.3085	12399.3125
2341.14893	12443.4125
2343.98756	12455.3125
2346.8244	12444.4125
2349.65943	12444.0125
2352.49267	12448.4125
2355.32411	12463.6125
2358.15376	12456.9125
2360.98161	12458.0125
2363.80768	12445.2125
2366.63195	12412.7125
2369.45444	12360.3125
2372.27514	12356.0125
2375.09405	12325.2125
2377.91118	12308.5125
2380.72652	12235.2125
2383.54009	12223.2125
2386.35187	12197.5125
2389.16188	12186.1125
2391.97011	12148.8125
2394.77657	12134.1125
2397.58125	12094.6125
2400.38416	12135.5125
2403.18529	12100.7125
2405.98466	12077.3125
2408.78226	12024.3125
2411.57809	12013.3125
2414.37216	12015.6125
2417.16446	11988.9125
2419.955	11949.1125
2422.74378	11969.1125
2425.5308	11956.6125
2428.31606	11954.0125
2431.09956	11968.2125
2433.88131	11935.8125
2436.6613	11927.2125
2439.43954	11959.1125
2442.21603	11975.1125
2444.99077	11950.6125
2447.76377	11941.9125
2450.53501	11906.6125
2453.30451	11925.3125
2456.07226	11929.6125
2458.83827	11927.5125
2461.60254	11927.4125
2464.36507	11915.0125
2467.12586	11926.9125
2469.88492	11921.7125
2472.64224	11913.1125
2475.39782	11945.8125
2478.15167	11947.4125
2480.90379	11987.7125
2483.65417	12009.8125
2486.40283	12016.8125
2489.14976	12006.8125
2491.89497	12000.7125
2494.63845	12025.4125
2497.3802	12029.7125
2500.12024	12012.1125
2502.85855	12010.9125
2505.59514	11991.6125
2508.33002	11953.1125
2511.06318	11951.5125
2513.79462	11948.7125
2516.52435	11920.2125
2519.25237	11958.6125
2521.97867	11898.2125
2524.70327	11892.4125
2527.42616	11913.0125
2530.14734	11928.2125
2532.86681	11902.8125
2535.58458	11908.0125
2538.30065	11903.8125
2541.01501	11911.2125
2543.72768	11894.3125
2546.43864	11887.5125
2549.14791	11891.7125
2551.85548	11870.4125
2554.56136	11863.9125
2557.26554	11840.9125
2559.96803	11833.4125
2562.66883	11806.8125
2565.36794	11814.0125
2568.06536	11788.9125
2570.7611	11788.5125
2573.45514	11773.0125
2576.14751	11775.0125
2578.83819	11765.1125
2581.52719	11767.7125
2584.21451	11757.9125
2586.90015	11753.9125
2589.58411	11767.2125
2592.2664	11783.0125
2594.94701	11776.5125
2597.62594	11762.9125
2600.30321	11724.4125
2602.9788	11747.3125
2605.65273	11746.3125
2608.32498	11746.3125
2610.99557	11735.3125
2613.66449	11739.2125
2616.33175	11720.9125
2618.99734	11743.8125
2621.66128	11776.1125
2624.32355	11767.4125
2626.98416	11761.8125
2629.64311	11761.5125
2632.30041	11778.7125
2634.95605	11778.0125
2637.61004	11719.6125
2640.26238	11723.2125
2642.91306	11696.0125
2645.56209	11720.8125
2648.20948	11718.3125
2650.85521	11694.9125
2653.4993	11688.5125
2656.14175	11670.3125
2658.78255	11703.3125
2661.42171	11717.3125
2664.05923	11750.3125
2666.6951	11732.8125
2669.32934	11725.5125
2671.96194	11740.7125
2674.59291	11750.2125
2677.22224	11738.6125
2679.84993	11735.7125
2682.476	11699.3125
2685.10043	11715.8125
2687.72324	11687.1125
2690.34441	11692.0125
2692.96396	11676.6125
2695.58188	11690.7125
2698.19818	11661.6125
2700.81285	11668.1125
2703.4259	11673.8125
2706.03733	11660.2125
2708.64714	11688.8125
2711.25533	11708.1125
2713.86191	11706.2125
2716.46687	11702.7125
2719.07021	11705.4125
2721.67194	11717.5125
2724.27206	11738.6125
2726.87057	11735.1125
2729.46747	11749.4125
2732.06276	11729.9125
2734.65644	11740.4125
2737.24852	11748.9125
2739.83899	11736.8125
2742.42786	11742.1125
2745.01513	11724.2125
2747.60079	11693.8125
2750.18486	11703.5125
2752.76733	11674.5125
2755.3482	11685.4125
2757.92747	11656.7125
2760.50515	11662.6125
2763.08123	11686.8125
2765.65573	11664.6125
2768.22863	11683.6125
2770.79994	11666.6125
2773.36967	11669.0125
2775.9378	11667.7125
2778.50435	11666.0125
2781.06932	11694.0125
2783.6327	11684.3125
2786.1945	11682.9125
2788.75471	11697.4125
2791.31335	11677.5125
2793.87041	11647.3125
2796.42589	11642.5125
2798.97979	11606.6125
2801.53212	11566.1125
2804.08288	11550.7125
2806.63206	11571.0125
2809.17967	11554.9125
2811.72571	11542.0125
2814.27018	11524.9125
2816.81308	11477.3125
2819.35442	11473.1125
2821.89419	11477.2125
2824.43239	11455.4125
2826.96904	11446.4125
2829.50412	11433.0125
2832.03763	11417.3125
2834.56959	11449.8125
2837.1	11369.9125
2839.62884	11428.1125
2842.15613	11418.0125
2844.68186	11471.8125
2847.20604	11434.4125
2849.72867	11469.5125
2852.24974	11456.2125
2854.76927	11427.7125
2857.28724	11391.9125
2859.80367	11381.9125
2862.31855	11385.5125
2864.83189	11345.2125
2867.34368	11331.6125
2869.85393	11385.3125
2872.36264	11380.0125
2874.8698	11364.0125
2877.37543	11351.2125
2879.87952	11354.7125
2882.38207	11374.5125
2884.88308	11361.5125
2887.38256	11362.4125
2889.88051	11347.9125
2892.37692	11355.8125
2894.8718	11357.6125
2897.36515	11385.2125
2899.85698	11388.3125
2902.34727	11432.0125
2904.83604	11446.8125
2907.32328	11492.3125
2909.809	11497.7125
2912.29319	11477.9125
2914.77587	11482.0125
2917.25702	11453.8125
2919.73665	11440.2125
2922.21476	11446.5125
2924.69136	11440.6125
2927.16644	11414.7125
2929.64	11422.8125
2932.11205	11385.8125
2934.58258	11357.9125
2937.05161	11343.3125
2939.51912	11381.1125
2941.98513	11357.8125
2944.44962	11307.7125
2946.91261	11286.3125
2949.37409	11290.9125
2951.83407	11301.8125
2954.29254	11288.3125
2956.74951	11276.8125
2959.20498	11262.8125
2961.65895	11237.4125
2964.11142	11272.4125
2966.56239	11212.2125
2969.01186	11259.9125
2971.45984	11204.0125
2973.90632	11149.4125
2976.35131	11156.7125
2978.7948	11117.3125
2981.23681	11085.2125
2983.67732	11084.4125
2986.11635	11040.9125
2988.55388	11020.5125
2990.98993	10983.3125
2993.4245	10981.9125
2995.85758	10964.9125
2998.28917	10938.2125
3000.71928	10928.7125
3003.14791	10897.7125
3005.57506	10859.0125
3008.00073	10877.7125
3010.42493	10717.8125
3012.84764	10811.3125
3015.26888	10792.1125
3017.68865	10766.1125
3020.10694	10770.4125
3022.52376	10764.2125
3024.9391	10721.0125
