Data from AgNP_FTO_APTES_UA_10uM_CRN_20uM_R6G_10uM_NaF_0.1M_Addition_RamanShift__4__16-07-30-735.txt Node

Date: Thu Feb 10 16:07:30 GMT 2022
User: TCL
Spectrometer: QEP01345
Trigger mode: 4
Integration Time (sec): 7.000000E0
Scans to average: 10
Electric dark correction enabled: true
Nonlinearity correction enabled: false
Boxcar width: 0
XAxis mode: Raman Shifts
Number of Pixels in Spectrum: 1044
>>>>>Begin Spectral Data<<<<<
46.04893	0.25
50.45542	-1.15
54.85868	-2.05
59.25871	-0.95
63.6555	71.95
68.04907	76.95
72.43941	79.85
76.82654	79.25
81.21044	88.05
85.59113	88.45
89.96862	92.85
94.34289	96.95
98.71396	96.85
103.08183	100.55
107.4465	106.15
111.80798	104.45
116.16626	111.65
120.52136	112.15
124.87327	117.65
129.222	123.65
133.56755	136.55
137.90993	143.65
142.24913	154.65
146.58517	172.75
150.91804	201.05
155.24774	242.85
159.57429	300.15
163.89768	376.65
168.21792	504.65
172.53501	692.65
176.84895	958.45
181.15975	1348.35
185.46741	1880.45
189.77193	2604.35
194.07331	3475.15
198.37157	4482.75
202.6667	5514.85
206.9587	6570.35
211.24758	7560.15
215.53334	8590.25
219.81599	9684.05
224.09553	10871.35
228.37195	12173.25
232.64527	13593.75
236.91549	15077.35
241.18261	16599.15
245.44663	18001.95
249.70755	19229.25
253.96539	20348.45
258.22014	21289.65
262.4718	22069.95
266.72039	22626.45
270.96589	22952.75
275.20832	23016.55
279.44768	22906.45
283.68397	22761.45
287.91719	22532.95
292.14735	22434.75
296.37445	22425.35
300.59849	22471.75
304.81948	22597.05
309.03742	22566.55
313.25231	22422.75
317.46415	22052.15
321.67296	21591.85
325.87872	21200.15
330.08145	21019.55
334.28114	20978.25
338.47781	21098.45
342.67145	21339.55
346.86207	21736.85
351.04966	22083.55
355.23424	22475.65
359.4158	22816.05
363.59435	23114.55
367.76989	23311.85
371.94243	23517.75
376.11196	23616.95
380.27849	23704.45
384.44203	23852.95
388.60257	24038.75
392.76012	24307.95
396.91468	24652.25
401.06626	25028.25
405.21485	25268.35
409.36047	25195.75
413.50311	24997.25
417.64277	24926.85
421.77947	24991.55
425.9132	25140.75
430.04396	25318.85
434.17176	25408.95
438.2966	25558.15
442.41849	25983.75
446.53742	26724.65
450.6534	27546.85
454.76644	28176.65
458.87653	28373.65
462.98368	28128.25
467.08789	27713.45
471.18916	27192.05
475.2875	26774.55
479.38291	26557.85
483.4754	26358.55
487.56496	26086.45
491.6516	25706.95
495.73531	25309.15
499.81612	25129.95
503.89401	25229.85
507.96899	25324.15
512.04106	25353.45
516.11023	25194.45
520.1765	24853.75
524.23987	24643.15
528.30034	24403.15
532.35792	24208.45
536.41261	23920.45
540.46441	23643.55
544.51333	23652.15
548.55936	23957.25
552.60252	24452.35
556.64279	25050.85
560.6802	25504.05
564.71473	25774.45
568.7464	26242.35
572.7752	26993.05
576.80114	27797.55
580.82422	28635.05
584.84444	29667.55
588.86181	30945.35
592.87633	31800.65
596.888	31491.55
600.89682	30131.95
604.9028	29742.55
608.90594	31287.25
612.90624	32871.45
616.90371	30662.65
620.89834	26581.15
624.89015	24832.55
628.87913	24616.15
632.86528	24647.05
636.84862	24439.15
640.82913	24021.35
644.80683	23519.65
648.78172	23165.15
652.75379	23223.75
656.72306	23483.15
660.68952	23748.55
664.65319	23579.65
668.61405	23202.95
672.57211	23218.75
676.52738	23296.35
680.47986	23310.05
684.42955	23134.95
688.37646	23063.45
692.32058	23273.45
696.26192	23652.05
700.20048	24030.75
704.13626	24218.25
708.06928	24160.75
711.99952	24004.05
715.927	23995.75
719.85171	24127.25
723.77365	24098.45
727.69284	23721.15
731.60928	23382.55
735.52295	23241.85
739.43388	23239.85
743.34206	23341.25
747.24749	23471.05
751.15017	23757.75
755.05012	24183.25
758.94733	24876.25
762.8418	25935.65
766.73354	27392.75
770.62254	28654.15
774.50882	28721.85
778.39237	27470.55
782.27321	25882.05
786.15132	24593.85
790.02671	23842.85
793.89938	23519.75
797.76935	23372.15
801.6366	23329.35
805.50115	23268.05
809.36299	23158.45
813.22213	22978.85
817.07857	22885.55
820.93231	22802.15
824.78336	22635.85
828.63172	22554.15
832.47738	22529.85
836.32036	22604.55
840.16066	22717.35
843.99827	22802.85
847.8332	22731.45
851.66546	22642.55
855.49504	22661.25
859.32195	22684.05
863.1462	22633.65
866.96777	22499.35
870.78668	22464.55
874.60293	22466.25
878.41652	22480.25
882.22745	22532.35
886.03573	22601.15
889.84136	22550.95
893.64433	22440.75
897.44466	22355.85
901.24235	22280.05
905.0374	22249.05
908.8298	22248.85
912.61957	22324.15
916.40671	22603.35
920.19121	22880.45
923.97308	23184.95
927.75233	23203.05
931.52895	22959.45
935.30295	22633.35
939.07433	22243.15
942.84309	22010.85
946.60924	21943.15
950.37278	21934.25
954.13371	21879.75
957.89203	21807.35
961.64774	21773.65
965.40086	21799.25
969.15137	21742.95
972.89929	21653.35
976.64461	21618.65
980.38733	21607.45
984.12747	21714.95
987.86502	21862.45
991.59999	22135.25
995.33237	22509.55
999.06217	23123.05
1002.78939	23834.95
1006.51404	24344.95
1010.23611	24688.35
1013.95561	24885.25
1017.67255	24872.25
1021.38692	24583.05
1025.09872	24255.65
1028.80796	24310.85
1032.51465	24878.55
1036.21877	25529.85
1039.92035	25675.25
1043.61937	25399.85
1047.31584	24913.75
1051.00976	24305.65
1054.70114	24027.55
1058.38998	23935.35
1062.07627	24053.85
1065.76003	24189.95
1069.44126	24374.85
1073.11995	24728.65
1076.79611	25033.55
1080.46974	25224.75
1084.14085	25434.25
1087.80943	25734.75
1091.47549	25921.85
1095.13903	25864.15
1098.80005	25538.25
1102.45857	25074.15
1106.11456	24694.65
1109.76805	24564.05
1113.41903	24553.25
1117.06751	24656.45
1120.71348	24844.85
1124.35696	24981.45
1127.99793	25223.25
1131.63641	25430.55
1135.2724	25420.05
1138.90589	25364.25
1142.5369	25473.55
1146.16542	25629.55
1149.79145	25923.45
1153.415	26208.55
1157.03607	26726.95
1160.65467	27597.25
1164.27079	29050.75
1167.88443	30683.95
1171.49561	32291.95
1175.10432	34184.75
1178.71056	36707.85
1182.31434	39068.65
1185.91565	40234.15
1189.51451	39964.05
1193.11091	38815.25
1196.70485	37512.95
1200.29634	36303.95
1203.88538	35640.05
1207.47197	35361.75
1211.05612	35028.25
1214.63782	34319.55
1218.21708	33414.55
1221.79391	32458.95
1225.36829	31825.15
1228.94024	31208.25
1232.50976	30623.05
1236.07685	30118.65
1239.6415	29853.95
1243.20374	29909.45
1246.76355	30197.95
1250.32093	30762.55
1253.8759	31472.85
1257.42845	32364.65
1260.97859	33298.15
1264.52631	34291.85
1268.07163	35327.05
1271.61453	36503.45
1275.15503	37679.75
1278.69312	38792.05
1282.22882	39877.15
1285.76211	41180.55
1289.29301	42684.95
1292.82151	44636.55
1296.34761	47169.85
1299.87133	50314.75
1303.39266	53654.65
1306.9116	56566.85
1310.42815	58479.15
1313.94233	59197.25
1317.45412	58660.55
1320.96354	57495.25
1324.47058	56661.45
1327.97525	56057.45
1331.47754	55584.35
1334.97747	55273.15
1338.47502	54744.55
1341.97022	53741.95
1345.46305	52354.45
1348.95352	51258.55
1352.44163	50859.15
1355.92738	51782.95
1359.41078	53813.05
1362.89183	55089.85
1366.37053	53859.55
1369.84688	49736.05
1373.32088	44734.15
1376.79254	41322.45
1380.26186	40398.45
1383.72883	40718.55
1387.19347	41005.65
1390.65578	40776.65
1394.11575	40790.75
1397.57339	41383.15
1401.0287	42358.45
1404.48168	43144.95
1407.93234	43252.05
1411.38068	42485.25
1414.82669	40985.75
1418.27039	39130.65
1421.71177	37320.85
1425.15083	35838.65
1428.58758	35194.15
1432.02203	35560.35
1435.45416	36724.65
1438.88399	38141.45
1442.31151	39148.15
1445.73673	39740.25
1449.15965	40023.55
1452.58027	39933.65
1455.9986	39805.35
1459.41463	39860.95
1462.82837	40352.45
1466.23982	41121.55
1469.64898	41884.25
1473.05586	42352.15
1476.46045	42421.35
1479.86276	42071.25
1483.26279	41401.65
1486.66054	41052.95
1490.05602	40991.75
1493.44922	41067.15
1496.84016	41198.15
1500.22882	41465.95
1503.61521	41971.25
1506.99934	42631.95
1510.38121	43335.55
1513.76081	43339.85
1517.13816	42776.75
1520.51324	41868.55
1523.88607	41305.85
1527.25665	41336.05
1530.62498	41686.85
1533.99105	41818.75
1537.35488	41573.75
1540.71647	40775.35
1544.07581	39717.15
1547.4329	38531.25
1550.78776	37478.75
1554.14038	36768.45
1557.49077	36338.25
1560.83892	35958.45
1564.18484	35756.15
1567.52853	35758.15
1570.86999	36028.25
1574.20922	36742.05
1577.54624	37569.15
1580.88103	38225.35
1584.2136	39109.95
1587.54395	40858.95
1590.87208	43525.05
1594.19801	46467.55
1597.52172	49026.65
1600.84321	49337.75
1604.16251	46731.95
1607.47959	42382.15
1610.79447	38050.85
1614.10715	34402.25
1617.41763	31702.25
1620.7259	29994.65
1624.03199	29279.35
1627.33587	29526.75
1630.63757	30598.45
1633.93707	32846.05
1637.23439	36384.05
1640.52951	41282.05
1643.82246	46875.25
1647.11321	50753.25
1650.40179	50623.25
1653.68819	46042.15
1656.97241	39346.35
1660.25446	33376.75
1663.53433	29166.75
1666.81203	26503.75
1670.08756	24784.25
1673.36092	23808.45
1676.63211	23111.25
1679.90115	22627.85
1683.16801	22276.55
1686.43272	22051.55
1689.69527	21844.05
1692.95567	21643.35
1696.2139	21570.05
1699.46999	21539.15
1702.72392	21436.15
1705.97571	21366.95
1709.22535	21297.85
1712.47284	21222.05
1715.71819	21222.35
1718.96139	21173.15
1722.20246	21102.95
1725.44139	20968.95
1728.67818	20855.75
1731.91284	20765.45
1735.14537	20624.65
1738.37576	20524.45
1741.60403	20489.05
1744.83017	20391.85
1748.05418	20359.55
1751.27607	20330.85
1754.49584	20291.45
1757.71349	20287.55
1760.92903	20290.95
1764.14244	20235.05
1767.35375	20235.25
1770.56294	20202.15
1773.77002	20165.75
1776.97499	20136.05
1780.17785	20100.95
1783.37861	20069.75
1786.57727	20023.35
1789.77382	20030.95
1792.96828	19980.65
1796.16064	19913.35
1799.3509	19904.25
1802.53907	19857.15
1805.72514	19825.85
1808.90913	19774.75
1812.09102	19737.15
1815.27083	19722.65
1818.44856	19677.35
1821.6242	19679.85
1824.79776	19626.15
1827.96924	19629.15
1831.13864	19630.65
1834.30597	19623.55
1837.47122	19645.75
1840.6344	19668.15
1843.7955	19663.55
1846.95454	19615.85
1850.11151	19604.85
1853.26642	19638.85
1856.41926	19611.45
1859.57004	19601.35
1862.71876	19580.95
1865.86542	19525.15
1869.01003	19536.65
1872.15258	19522.65
1875.29308	19513.45
1878.43152	19524.65
1881.56792	19503.75
1884.70227	19495.95
1887.83457	19481.15
1890.96482	19430.55
1894.09304	19409.25
1897.21921	19386.35
1900.34335	19364.65
1903.46544	19360.75
1906.58551	19376.35
1909.70353	19329.75
1912.81953	19243.05
1915.93349	19267.15
1919.04543	19240.55
1922.15534	19206.65
1925.26322	19154.85
1928.36908	19122.45
1931.47292	19082.15
1934.57473	19018.25
1937.67453	18985.65
1940.77232	18962.25
1943.86808	18906.15
1946.96184	18855.05
1950.05358	18792.35
1953.14331	18719.05
1956.23103	18679.85
1959.31675	18661.65
1962.40046	18625.55
1965.48217	18535.85
1968.56188	18482.65
1971.63959	18432.05
1974.7153	18354.25
1977.78901	18305.35
1980.86073	18265.25
1983.93046	18243.25
1986.99819	18171.55
1990.06394	18163.95
1993.1277	18106.15
1996.18947	18059.35
1999.24925	18012.25
2002.30706	17956.15
2005.36288	17919.65
2008.41672	17872.05
2011.46859	17797.25
2014.51848	17795.05
2017.56639	17746.35
2020.61233	17732.45
2023.6563	17681.75
2026.6983	17647.15
2029.73833	17599.25
2032.7764	17602.45
2035.8125	17564.15
2038.84664	17532.35
2041.87881	17483.15
2044.90903	17462.05
2047.93729	17374.65
2050.96359	17422.65
2053.98794	17396.35
2057.01034	17374.15
2060.03078	17341.95
2063.04927	17365.85
2066.06582	17376.05
2069.08042	17361.15
2072.09307	17325.95
2075.10378	17349.35
2078.11255	17347.15
2081.11938	17317.45
2084.12426	17312.35
2087.12722	17293.65
2090.12824	17294.35
2093.12732	17315.45
2096.12447	17294.75
2099.11969	17315.85
2102.11299	17274.45
2105.10435	17315.25
2108.09379	17296.25
2111.08131	17322.75
2114.0669	17311.25
2117.05057	17310.35
2120.03233	17323.05
2123.01216	17371.75
2125.99008	17405.15
2128.96609	17404.65
2131.94018	17436.05
2134.91236	17453.85
2137.88263	17457.65
2140.851	17452.85
2143.81746	17470.15
2146.78201	17460.35
2149.74466	17483.25
2152.7054	17437.75
2155.66425	17477.35
2158.6212	17471.65
2161.57625	17451.85
2164.52941	17469.85
2167.48067	17464.05
2170.43004	17457.55
2173.37752	17460.65
2176.32311	17450.15
2179.26681	17498.05
2182.20863	17478.35
2185.14856	17491.65
2188.08661	17488.05
2191.02278	17487.05
2193.95707	17513.25
2196.88948	17466.25
2199.82001	17488.95
2202.74867	17436.85
2205.67545	17464.55
2208.60037	17470.35
2211.52341	17430.45
2214.44458	17410.35
2217.36388	17394.75
2220.28132	17343.65
2223.1969	17337.25
2226.11061	17319.65
2229.02246	17283.85
2231.93245	17272.35
2234.84058	17234.75
2237.74686	17208.25
2240.65128	17184.35
2243.55385	17165.25
2246.45456	17144.65
2249.35343	17106.15
2252.25044	17080.95
2255.14561	17070.05
2258.03893	17050.95
2260.93041	17028.05
2263.82004	16939.85
2266.70783	16958.25
2269.59378	16859.85
2272.4779	16779.85
2275.36017	16774.65
2278.24061	16769.95
2281.11922	16757.45
2283.996	16746.85
2286.87094	16761.05
2289.74405	16748.95
2292.61534	16708.85
2295.4848	16717.15
2298.35243	16744.25
2301.21824	16713.25
2304.08223	16735.25
2306.94439	16752.35
2309.80474	16774.75
2312.66327	16781.05
2315.51999	16759.05
2318.37489	16737.25
2321.22797	16735.75
2324.07925	16752.95
2326.92871	16689.85
2329.77637	16690.45
2332.62222	16702.85
2335.46626	16663.55
2338.3085	16657.55
2341.14893	16683.45
2343.98756	16682.05
2346.8244	16688.55
2349.65943	16676.85
2352.49267	16687.55
2355.32411	16648.55
2358.15376	16657.05
2360.98161	16655.35
2363.80768	16670.95
2366.63195	16632.85
2369.45444	16585.35
2372.27514	16581.95
2375.09405	16539.75
2377.91118	16527.65
2380.72652	16467.15
2383.54009	16471.15
2386.35187	16450.85
2389.16188	16408.15
2391.97011	16343.65
2394.77657	16341.75
2397.58125	16334.45
2400.38416	16341.85
2403.18529	16304.05
2405.98466	16291.15
2408.78226	16259.65
2411.57809	16217.85
2414.37216	16232.85
2417.16446	16237.15
2419.955	16169.45
2422.74378	16172.25
2425.5308	16144.65
2428.31606	16164.15
2431.09956	16180.95
2433.88131	16161.95
2436.6613	16205.75
2439.43954	16180.35
2442.21603	16180.75
2444.99077	16171.85
2447.76377	16168.75
2450.53501	16124.45
2453.30451	16164.25
2456.07226	16151.15
2458.83827	16148.95
2461.60254	16142.95
2464.36507	16108.65
2467.12586	16096.95
2469.88492	16107.75
2472.64224	16092.15
2475.39782	16147.75
2478.15167	16190.25
2480.90379	16168.45
2483.65417	16209.05
2486.40283	16221.75
2489.14976	16220.05
2491.89497	16224.75
2494.63845	16232.25
2497.3802	16241.55
2500.12024	16214.65
2502.85855	16215.15
2505.59514	16216.85
2508.33002	16197.95
2511.06318	16177.45
2513.79462	16174.55
2516.52435	16180.75
2519.25237	16158.75
2521.97867	16159.55
2524.70327	16146.95
2527.42616	16122.35
2530.14734	16132.85
2532.86681	16132.65
2535.58458	16153.45
2538.30065	16132.35
2541.01501	16133.05
2543.72768	16158.95
2546.43864	16124.45
2549.14791	16093.55
2551.85548	16142.55
2554.56136	16115.95
2557.26554	16102.05
2559.96803	16051.25
2562.66883	16067.95
2565.36794	16048.35
2568.06536	16042.25
2570.7611	16029.65
2573.45514	16032.95
2576.14751	15991.95
2578.83819	16005.35
2581.52719	15997.95
2584.21451	16040.75
2586.90015	16040.75
2589.58411	15986.15
2592.2664	15988.75
2594.94701	15986.15
2597.62594	16015.05
2600.30321	15980.95
2602.9788	15954.85
2605.65273	15973.95
2608.32498	15972.35
2610.99557	15998.45
2613.66449	15980.45
2616.33175	15996.95
2618.99734	15995.65
2621.66128	15991.25
2624.32355	15973.35
2626.98416	15944.65
2629.64311	15958.05
2632.30041	15944.65
2634.95605	15963.35
2637.61004	15931.65
2640.26238	15913.85
2642.91306	15888.05
2645.56209	15898.85
2648.20948	15868.65
2650.85521	15853.75
2653.4993	15890.05
2656.14175	15889.75
2658.78255	15922.05
2661.42171	15925.05
2664.05923	15947.05
2666.6951	15982.75
2669.32934	16010.25
2671.96194	16002.25
2674.59291	15984.25
2677.22224	16008.25
2679.84993	15994.45
2682.476	15976.55
2685.10043	15964.05
2687.72324	15956.75
2690.34441	15976.45
2692.96396	15967.95
2695.58188	15967.95
2698.19818	15959.95
2700.81285	16000.25
2703.4259	16010.05
2706.03733	16047.65
2708.64714	16002.15
2711.25533	16025.65
2713.86191	16021.95
2716.46687	16050.15
2719.07021	16062.15
2721.67194	16076.65
2724.27206	16072.35
2726.87057	16088.15
2729.46747	16112.25
2732.06276	16150.35
2734.65644	16135.05
2737.24852	16134.55
2739.83899	16095.05
2742.42786	16151.35
2745.01513	16148.35
2747.60079	16107.05
2750.18486	16071.25
2752.76733	16095.55
2755.3482	16094.55
2757.92747	16078.15
2760.50515	16054.25
2763.08123	16093.15
2765.65573	16056.85
2768.22863	16082.25
2770.79994	16048.35
2773.36967	16097.45
2775.9378	16094.05
2778.50435	16113.25
2781.06932	16075.05
2783.6327	16101.95
2786.1945	16123.35
2788.75471	16098.95
2791.31335	16075.75
2793.87041	16038.05
2796.42589	16042.45
2798.97979	16005.55
2801.53212	15985.95
2804.08288	15991.25
2806.63206	15959.95
2809.17967	15917.55
2811.72571	15888.85
2814.27018	15874.05
2816.81308	15835.25
2819.35442	15815.95
2821.89419	15754.75
2824.43239	15764.85
2826.96904	15758.25
2829.50412	15755.85
2832.03763	15721.35
2834.56959	15724.05
2837.1	15719.05
2839.62884	15762.45
2842.15613	15719.55
2844.68186	15730.95
2847.20604	15706.35
2849.72867	15733.75
2852.24974	15713.85
2854.76927	15718.35
2857.28724	15668.05
2859.80367	15620.05
2862.31855	15636.05
2864.83189	15639.85
2867.34368	15637.05
2869.85393	15609.65
2872.36264	15619.55
2874.8698	15623.65
2877.37543	15612.25
2879.87952	15583.15
2882.38207	15635.15
2884.88308	15621.75
2887.38256	15663.45
2889.88051	15628.15
2892.37692	15667.35
2894.8718	15673.55
2897.36515	15720.55
2899.85698	15729.15
2902.34727	15746.35
2904.83604	15746.65
2907.32328	15785.05
2909.809	15762.35
2912.29319	15784.75
2914.77587	15774.85
2917.25702	15746.45
2919.73665	15738.55
2922.21476	15790.95
2924.69136	15744.45
2927.16644	15764.65
2929.64	15732.45
2932.11205	15722.95
2934.58258	15669.75
2937.05161	15662.05
2939.51912	15712.95
2941.98513	15676.25
2944.44962	15666.15
2946.91261	15635.85
2949.37409	15679.05
2951.83407	15644.55
2954.29254	15643.35
2956.74951	15621.95
2959.20498	15621.35
2961.65895	15605.25
2964.11142	15614.65
2966.56239	15608.05
2969.01186	15628.85
2971.45984	15550.05
2973.90632	15544.15
2976.35131	15506.85
2978.7948	15498.05
2981.23681	15477.35
2983.67732	15454.55
2986.11635	15412.25
2988.55388	15389.95
2990.98993	15369.75
2993.4245	15335.95
2995.85758	15300.35
2998.28917	15244.95
3000.71928	15225.45
3003.14791	15187.55
3005.57506	15173.05
3008.00073	15110.35
3010.42493	14965.25
3012.84764	15048.35
3015.26888	15070.25
3017.68865	14991.95
3020.10694	15002.55
3022.52376	14980.65
3024.9391	14972.85
3027.35298	14991.75
3029.76539	14997.35
3032.17632	15007.85
3034.5858	14977.05
3036.9938	14952.45
3039.40034	15000.65
3041.80542	15012.05
3044.20903	14974.85
3046.61118	14946.35
3049.01187	14913.25
3051.4111	14906.35
3053.80888	14847.15
3056.20519	14799.35
3058.60005	14810.25
3060.99345	14805.25
3063.3854	14751.35
3065.7759	14686.05
3068.16494	14680.85
3070.55254	14630.35
3072.93868	14612.95
3075.32338	14540.15
3077.70662	14525.75
3080.08842	14498.95
3082.46878	14509.95
3084.84769	14498.95
3087.22515	14511.55
3089.60118	14504.35
3091.97576	14497.15
3094.3489	14479.55
3096.72061	14510.15
3099.09087	14487.15
3101.4597	14483.35
3103.82709	14483.55
3106.19305	14429.75
3108.55757	14463.05
3110.92066	14405.55
3113.28232	14401.15
3115.64255	14363.45
3118.00134	14339.95
3120.35871	14306.85
3122.71466	14281.55
3125.06917	14281.35
3127.42226	14248.15
3129.77393	14261.15
3132.12417	14218.55
3134.47299	14204.75
3136.82039	14213.05
3139.16636	14212.95
3141.51092	14211.75
3143.85406	14192.15
3146.19579	14189.95
3148.53609	14168.05
3150.87499	14193.05
3153.21246	14214.05
3155.54853	14202.75
3157.88318	14218.65
3160.21642	14197.75
3162.54826	14232.95
3164.87868	14215.55
3167.2077	14223.35
3169.5353	14235.45
3171.86151	14266.45
3174.18631	14236.65
3176.5097	14207.75
3178.83169	14216.25
3181.15228	14199.95
3183.47147	14187.25
3185.78926	14158.35
3188.10565	14140.95
3190.42065	14129.05
3192.73424	14124.15
3195.04645	14102.75
3197.35725	14086.75
3199.66667	14086.95
3201.97469	14105.15
3204.28132	14057.85
3206.58656	14098.75
3208.8904	14121.85
3211.19287	14105.75
3213.49394	14099.65
3215.79363	14128.15
3218.09193	14116.25
3220.38884	14123.05
3222.68438	14125.75
3224.97853	14125.35
3227.2713	14113.65
3229.56269	14101.05
3231.8527	14090.75
3234.14133	14057.95
3236.42858	14063.65
3238.71446	14067.45
