Data from AgNP_FTO_APTES_UA_10uM_CRN_10uM_R6G_10uM_NaF_0.1M_Addition_RamanShift__15__15-41-50-704.txt Node

Date: Thu Feb 10 15:41:50 GMT 2022
User: TCL
Spectrometer: QEP01345
Trigger mode: 4
Integration Time (sec): 7.000000E0
Scans to average: 10
Electric dark correction enabled: true
Nonlinearity correction enabled: false
Boxcar width: 0
XAxis mode: Raman Shifts
Number of Pixels in Spectrum: 1044
>>>>>Begin Spectral Data<<<<<
46.04893	-0.125
50.45542	-0.525
54.85868	-1.125
59.25871	-1.725
63.6555	72.075
68.04907	74.675
72.43941	81.075
76.82654	79.075
81.21044	85.975
85.59113	85.475
89.96862	91.375
94.34289	93.975
98.71396	97.975
103.08183	99.475
107.4465	104.075
111.80798	103.675
116.16626	106.375
120.52136	113.375
124.87327	122.275
129.222	123.975
133.56755	132.775
137.90993	141.575
142.24913	153.075
146.58517	174.675
150.91804	204.975
155.24774	241.275
159.57429	305.675
163.89768	392.475
168.21792	515.975
172.53501	711.575
176.84895	988.375
181.15975	1399.675
185.46741	1964.575
189.77193	2710.575
194.07331	3609.875
198.37157	4657.275
202.6667	5751.475
206.9587	6842.875
211.24758	7882.675
215.53334	8958.775
219.81599	10047.575
224.09553	11288.475
228.37195	12646.575
232.64527	14116.875
236.91549	15701.175
241.18261	17298.975
245.44663	18733.675
249.70755	20087.775
253.96539	21300.175
258.22014	22341.375
262.4718	23163.575
266.72039	23819.775
270.96589	24170.875
275.20832	24259.775
279.44768	24223.975
283.68397	24112.275
287.91719	23899.875
292.14735	23829.475
296.37445	23849.575
300.59849	23872.575
304.81948	23927.375
309.03742	23830.675
313.25231	23494.275
317.46415	22967.375
321.67296	22376.375
325.87872	21849.075
330.08145	21638.375
334.28114	21623.375
338.47781	21729.975
342.67145	22044.375
346.86207	22354.075
351.04966	22757.575
355.23424	23156.975
359.4158	23490.375
363.59435	23762.875
367.76989	23956.075
371.94243	24127.875
376.11196	24260.375
380.27849	24316.275
384.44203	24394.675
388.60257	24616.675
392.76012	24864.375
396.91468	25163.275
401.06626	25486.175
405.21485	25698.875
409.36047	25623.375
413.50311	25277.175
417.64277	25043.975
421.77947	24977.175
425.9132	25148.075
430.04396	25294.775
434.17176	25382.275
438.2966	25524.175
442.41849	25865.775
446.53742	26391.775
450.6534	27031.475
454.76644	27583.675
458.87653	27801.275
462.98368	27772.875
467.08789	27589.975
471.18916	27352.675
475.2875	27118.375
479.38291	26988.875
483.4754	26812.875
487.56496	26520.075
491.6516	26086.975
495.73531	25734.975
499.81612	25547.575
503.89401	25631.875
507.96899	25777.175
512.04106	25764.075
516.11023	25586.875
520.1765	25357.375
524.23987	25089.875
528.30034	24840.475
532.35792	24612.475
536.41261	24353.775
540.46441	24178.075
544.51333	24278.475
548.55936	24580.575
552.60252	25093.975
556.64279	25634.875
560.6802	26027.975
564.71473	26291.175
568.7464	26727.075
572.7752	27364.675
576.80114	27995.775
580.82422	28504.275
584.84444	28900.575
588.86181	29177.875
592.87633	29243.675
596.888	29050.175
600.89682	28751.375
604.9028	29320.175
608.90594	31244.775
612.90624	33097.875
616.90371	31010.475
620.89834	26763.875
624.89015	24987.575
628.87913	24761.175
632.86528	24876.275
636.84862	24922.375
640.82913	24651.975
644.80683	24130.475
648.78172	23725.175
652.75379	23661.475
656.72306	23879.075
660.68952	24190.975
664.65319	24048.475
668.61405	23742.575
672.57211	23708.375
676.52738	23791.375
680.47986	23743.475
684.42955	23636.975
688.37646	23603.275
692.32058	23678.675
696.26192	23927.775
700.20048	24229.075
704.13626	24380.775
708.06928	24423.475
711.99952	24272.275
715.927	24183.675
719.85171	24233.575
723.77365	24139.175
727.69284	23916.075
731.60928	23665.575
735.52295	23535.375
739.43388	23494.075
743.34206	23584.475
747.24749	23662.775
751.15017	23870.575
755.05012	24305.175
758.94733	24958.175
762.8418	26032.475
766.73354	27693.175
770.62254	29210.175
774.50882	29384.875
778.39237	28115.275
782.27321	26342.575
786.15132	24990.675
790.02671	24092.975
793.89938	23679.575
797.76935	23465.075
801.6366	23425.475
805.50115	23347.375
809.36299	23190.075
813.22213	23079.175
817.07857	22944.375
820.93231	22958.675
824.78336	22831.775
828.63172	22720.075
832.47738	22695.175
836.32036	22649.975
840.16066	22690.275
843.99827	22728.875
847.8332	22701.175
851.66546	22645.975
855.49504	22699.975
859.32195	22679.275
863.1462	22632.675
866.96777	22581.575
870.78668	22548.375
874.60293	22539.375
878.41652	22536.375
882.22745	22569.975
886.03573	22638.875
889.84136	22630.175
893.64433	22545.775
897.44466	22472.975
901.24235	22430.475
905.0374	22357.075
908.8298	22333.975
912.61957	22399.875
916.40671	22523.775
920.19121	22805.475
923.97308	22980.475
927.75233	22907.975
931.52895	22759.375
935.30295	22444.875
939.07433	22119.075
942.84309	21870.375
946.60924	21729.275
950.37278	21682.375
954.13371	21694.175
957.89203	21661.175
961.64774	21634.175
965.40086	21596.175
969.15137	21547.875
972.89929	21473.475
976.64461	21408.675
980.38733	21373.375
984.12747	21444.875
987.86502	21548.875
991.59999	21721.275
995.33237	21936.275
999.06217	22324.775
1002.78939	22790.775
1006.51404	23123.975
1010.23611	23415.275
1013.95561	23648.575
1017.67255	23683.775
1021.38692	23468.575
1025.09872	23188.475
1028.80796	23018.875
1032.51465	23100.075
1036.21877	23339.475
1039.92035	23436.375
1043.61937	23397.875
1047.31584	23251.975
1051.00976	23111.475
1054.70114	23094.075
1058.38998	23239.775
1062.07627	23463.575
1065.76003	23711.275
1069.44126	23930.875
1073.11995	24258.575
1076.79611	24465.275
1080.46974	24660.475
1084.14085	24844.475
1087.80943	25074.375
1091.47549	25369.675
1095.13903	25374.375
1098.80005	25134.375
1102.45857	24683.875
1106.11456	24264.875
1109.76805	24060.475
1113.41903	24052.875
1117.06751	24148.975
1120.71348	24332.675
1124.35696	24525.475
1127.99793	24815.675
1131.63641	24925.775
1135.2724	24922.075
1138.90589	24803.175
1142.5369	24790.175
1146.16542	24896.475
1149.79145	25057.675
1153.415	25314.475
1157.03607	25737.675
1160.65467	26405.675
1164.27079	27449.475
1167.88443	28858.575
1171.49561	30382.775
1175.10432	32213.775
1178.71056	34581.975
1182.31434	36751.775
1185.91565	38008.375
1189.51451	38263.375
1193.11091	37590.775
1196.70485	36382.175
1200.29634	34987.075
1203.88538	33927.475
1207.47197	33242.775
1211.05612	32734.875
1214.63782	32077.475
1218.21708	31305.775
1221.79391	30614.275
1225.36829	30088.175
1228.94024	29703.375
1232.50976	29303.975
1236.07685	29070.375
1239.6415	28889.775
1243.20374	28897.975
1246.76355	29040.575
1250.32093	29439.675
1253.8759	29960.875
1257.42845	30724.275
1260.97859	31499.875
1264.52631	32335.575
1268.07163	33157.575
1271.61453	34016.575
1275.15503	34900.075
1278.69312	35755.075
1282.22882	36573.675
1285.76211	37414.775
1289.29301	38495.175
1292.82151	39917.575
1296.34761	41685.775
1299.87133	43834.575
1303.39266	46088.975
1306.9116	48286.275
1310.42815	50135.375
1313.94233	51186.975
1317.45412	51405.975
1320.96354	51081.875
1324.47058	50862.875
1327.97525	50730.975
1331.47754	50693.375
1334.97747	50836.575
1338.47502	51054.175
1341.97022	51066.675
1345.46305	50657.075
1348.95352	49823.275
1352.44163	48843.875
1355.92738	48327.075
1359.41078	48809.375
1362.89183	49337.375
1366.37053	48092.775
1369.84688	44865.575
1373.32088	41122.775
1376.79254	38457.875
1380.26186	37542.275
1383.72883	37569.075
1387.19347	37726.775
1390.65578	37640.175
1394.11575	37665.575
1397.57339	38015.475
1401.0287	38583.375
1404.48168	39072.375
1407.93234	39111.575
1411.38068	38478.575
1414.82669	37300.175
1418.27039	35698.975
1421.71177	34187.275
1425.15083	32941.075
1428.58758	32419.075
1432.02203	32554.275
1435.45416	33340.775
1438.88399	34301.075
1442.31151	35108.875
1445.73673	35712.175
1449.15965	36269.075
1452.58027	36558.275
1455.9986	36848.175
1459.41463	37118.875
1462.82837	37651.275
1466.23982	38178.875
1469.64898	38670.575
1473.05586	38810.475
1476.46045	38636.275
1479.86276	38204.875
1483.26279	37725.675
1486.66054	37451.875
1490.05602	37427.375
1493.44922	37646.175
1496.84016	37955.275
1500.22882	38694.175
1503.61521	39748.775
1506.99934	41057.675
1510.38121	42081.175
1513.76081	42265.675
1517.13816	41522.275
1520.51324	40263.975
1523.88607	39297.275
1527.25665	38834.875
1530.62498	38749.275
1533.99105	38679.775
1537.35488	38407.875
1540.71647	37888.775
1544.07581	37055.375
1547.4329	36245.275
1550.78776	35498.375
1554.14038	35049.275
1557.49077	34779.975
1560.83892	34572.875
1564.18484	34550.075
1567.52853	34564.175
1570.86999	34768.275
1574.20922	35302.775
1577.54624	35843.875
1580.88103	36071.475
1584.2136	36377.675
1587.54395	37208.675
1590.87208	38684.475
1594.19801	40469.975
1597.52172	42268.675
1600.84321	42580.775
1604.16251	40957.575
1607.47959	38298.975
1610.79447	35417.175
1614.10715	32705.475
1617.41763	30305.075
1620.7259	28566.175
1624.03199	27618.775
1627.33587	27481.075
1630.63757	28171.175
1633.93707	29876.075
1637.23439	32662.875
1640.52951	36474.475
1643.82246	40719.075
1647.11321	43713.175
1650.40179	43909.575
1653.68819	40957.775
1656.97241	36007.875
1660.25446	31159.875
1663.53433	27511.675
1666.81203	25005.775
1670.08756	23419.775
1673.36092	22376.275
1676.63211	21711.975
1679.90115	21239.375
1683.16801	20869.775
1686.43272	20604.075
1689.69527	20420.575
1692.95567	20289.075
1696.2139	20190.575
1699.46999	20106.775
1702.72392	20011.975
1705.97571	19928.875
1709.22535	19835.675
1712.47284	19771.575
1715.71819	19727.275
1718.96139	19676.575
1722.20246	19608.475
1725.44139	19505.575
1728.67818	19374.775
1731.91284	19232.275
1735.14537	19155.175
1738.37576	19047.675
1741.60403	18980.975
1744.83017	18889.875
1748.05418	18890.175
1751.27607	18828.575
1754.49584	18809.575
1757.71349	18757.375
1760.92903	18755.075
1764.14244	18741.175
1767.35375	18720.075
1770.56294	18693.375
1773.77002	18640.975
1776.97499	18588.375
1780.17785	18523.475
1783.37861	18524.575
1786.57727	18467.075
1789.77382	18413.975
1792.96828	18404.375
1796.16064	18360.375
1799.3509	18322.075
1802.53907	18308.375
1805.72514	18247.375
1808.90913	18174.275
1812.09102	18137.375
1815.27083	18101.575
1818.44856	18076.675
1821.6242	18043.675
1824.79776	18031.775
1827.96924	18027.875
1831.13864	18034.475
1834.30597	18017.275
1837.47122	18000.475
1840.6344	18013.275
1843.7955	18012.275
1846.95454	18053.875
1850.11151	18004.775
1853.26642	17967.675
1856.41926	17970.775
1859.57004	17955.475
1862.71876	17900.375
1865.86542	17895.875
1869.01003	17843.575
1872.15258	17855.575
1875.29308	17841.875
1878.43152	17777.675
1881.56792	17795.975
1884.70227	17779.875
1887.83457	17737.175
1890.96482	17733.975
1894.09304	17679.675
1897.21921	17641.075
1900.34335	17621.375
1903.46544	17598.475
1906.58551	17571.275
1909.70353	17549.075
1912.81953	17512.675
1915.93349	17491.975
1919.04543	17462.975
1922.15534	17409.975
1925.26322	17334.475
1928.36908	17299.175
1931.47292	17281.375
1934.57473	17215.275
1937.67453	17201.875
1940.77232	17164.675
1943.86808	17081.775
1946.96184	17007.975
1950.05358	16990.775
1953.14331	16929.575
1956.23103	16874.475
1959.31675	16820.475
1962.40046	16741.875
1965.48217	16674.775
1968.56188	16663.275
1971.63959	16570.575
1974.7153	16587.175
1977.78901	16498.175
1980.86073	16470.075
1983.93046	16403.075
1986.99819	16385.375
1990.06394	16316.175
1993.1277	16271.775
1996.18947	16183.175
1999.24925	16163.575
2002.30706	16082.275
2005.36288	16080.775
2008.41672	16026.075
2011.46859	15964.875
2014.51848	15913.475
2017.56639	15899.875
2020.61233	15844.675
2023.6563	15803.175
2026.6983	15775.275
2029.73833	15719.775
2032.7764	15715.775
2035.8125	15669.975
2038.84664	15636.675
2041.87881	15606.175
2044.90903	15524.475
2047.93729	15512.575
2050.96359	15553.575
2053.98794	15492.875
2057.01034	15503.675
2060.03078	15420.775
2063.04927	15434.275
2066.06582	15450.475
2069.08042	15437.175
2072.09307	15437.775
2075.10378	15417.775
2078.11255	15375.275
2081.11938	15392.475
2084.12426	15392.275
2087.12722	15384.675
2090.12824	15340.175
2093.12732	15334.575
2096.12447	15361.975
2099.11969	15333.975
2102.11299	15329.375
2105.10435	15314.375
2108.09379	15338.675
2111.08131	15350.075
2114.0669	15352.375
2117.05057	15339.775
2120.03233	15364.975
2123.01216	15394.975
2125.99008	15419.275
2128.96609	15417.075
2131.94018	15439.075
2134.91236	15426.575
2137.88263	15451.675
2140.851	15435.575
2143.81746	15435.375
2146.78201	15415.275
2149.74466	15396.575
2152.7054	15415.475
2155.66425	15396.275
2158.6212	15435.875
2161.57625	15405.475
2164.52941	15406.575
2167.48067	15373.175
2170.43004	15389.875
2173.37752	15350.175
2176.32311	15362.975
2179.26681	15377.075
2182.20863	15395.575
2185.14856	15368.775
2188.08661	15352.075
2191.02278	15341.975
2193.95707	15346.675
2196.88948	15368.075
2199.82001	15310.775
2202.74867	15295.275
2205.67545	15286.375
2208.60037	15272.075
2211.52341	15250.675
2214.44458	15215.475
2217.36388	15167.975
2220.28132	15180.575
2223.1969	15110.275
2226.11061	15114.575
2229.02246	15078.975
2231.93245	15030.875
2234.84058	14974.275
2237.74686	14980.075
2240.65128	14984.575
2243.55385	14897.075
2246.45456	14936.175
2249.35343	14915.575
2252.25044	14856.775
2255.14561	14850.675
2258.03893	14839.875
2260.93041	14822.675
2263.82004	14724.175
2266.70783	14700.975
2269.59378	14665.575
2272.4779	14607.475
2275.36017	14568.575
2278.24061	14581.375
2281.11922	14525.075
2283.996	14507.775
2286.87094	14494.275
2289.74405	14478.975
2292.61534	14460.375
2295.4848	14437.975
2298.35243	14470.075
2301.21824	14448.375
2304.08223	14435.775
2306.94439	14430.775
2309.80474	14436.375
2312.66327	14428.675
2315.51999	14392.075
2318.37489	14390.075
2321.22797	14375.475
2324.07925	14368.075
2326.92871	14337.775
2329.77637	14290.775
2332.62222	14311.475
2335.46626	14270.275
2338.3085	14267.775
2341.14893	14279.175
2343.98756	14264.775
2346.8244	14255.275
2349.65943	14258.375
2352.49267	14241.475
2355.32411	14248.275
2358.15376	14238.475
2360.98161	14254.475
2363.80768	14242.775
2366.63195	14223.675
2369.45444	14176.875
2372.27514	14179.175
2375.09405	14150.675
2377.91118	14118.275
2380.72652	14098.775
2383.54009	14056.675
2386.35187	14028.075
2389.16188	13996.275
2391.97011	13973.375
2394.77657	13930.775
2397.58125	13909.175
2400.38416	13874.675
2403.18529	13847.075
2405.98466	13842.875
2408.78226	13828.975
2411.57809	13805.775
2414.37216	13809.775
2417.16446	13792.175
2419.955	13759.875
2422.74378	13773.475
2425.5308	13753.675
2428.31606	13783.675
2431.09956	13746.275
2433.88131	13722.275
2436.6613	13735.875
2439.43954	13725.275
2442.21603	13730.075
2444.99077	13701.175
2447.76377	13699.175
2450.53501	13682.675
2453.30451	13676.875
2456.07226	13680.175
2458.83827	13654.275
2461.60254	13655.075
2464.36507	13627.175
2467.12586	13631.375
2469.88492	13595.875
2472.64224	13619.175
2475.39782	13609.775
2478.15167	13643.375
2480.90379	13625.575
2483.65417	13637.575
2486.40283	13634.275
2489.14976	13623.775
2491.89497	13641.875
2494.63845	13639.275
2497.3802	13655.375
2500.12024	13656.075
2502.85855	13620.175
2505.59514	13572.075
2508.33002	13557.475
2511.06318	13571.575
2513.79462	13591.275
2516.52435	13547.275
2519.25237	13528.775
2521.97867	13521.675
2524.70327	13479.775
2527.42616	13489.275
2530.14734	13512.375
2532.86681	13511.075
2535.58458	13490.675
2538.30065	13481.675
2541.01501	13466.575
2543.72768	13485.275
2546.43864	13453.175
2549.14791	13461.075
2551.85548	13435.275
2554.56136	13428.075
2557.26554	13391.075
2559.96803	13380.975
2562.66883	13357.375
2565.36794	13312.275
2568.06536	13295.275
2570.7611	13301.475
2573.45514	13291.375
2576.14751	13286.175
2578.83819	13262.375
2581.52719	13258.175
2584.21451	13228.975
2586.90015	13229.875
2589.58411	13207.475
2592.2664	13197.375
2594.94701	13186.975
2597.62594	13165.475
2600.30321	13156.675
2602.9788	13175.075
2605.65273	13137.275
2608.32498	13178.575
2610.99557	13162.575
2613.66449	13158.975
2616.33175	13122.375
2618.99734	13133.275
2621.66128	13122.875
2624.32355	13082.575
2626.98416	13093.875
2629.64311	13067.275
2632.30041	13059.275
2634.95605	13069.475
2637.61004	13043.475
2640.26238	13027.375
2642.91306	13021.175
2645.56209	12991.975
2648.20948	13041.475
2650.85521	13041.875
2653.4993	13027.475
2656.14175	13015.675
2658.78255	13012.875
2661.42171	13043.475
2664.05923	13058.375
2666.6951	13068.375
2669.32934	13075.475
2671.96194	13085.175
2674.59291	13085.775
2677.22224	13071.275
2679.84993	13067.275
2682.476	13071.475
2685.10043	13048.075
2687.72324	13062.075
2690.34441	13027.575
2692.96396	13025.875
2695.58188	13038.275
2698.19818	13031.475
2700.81285	13052.975
2703.4259	13029.475
2706.03733	13075.375
2708.64714	13032.375
2711.25533	13043.875
2713.86191	13052.475
2716.46687	13056.175
2719.07021	13062.575
2721.67194	13105.375
2724.27206	13087.275
2726.87057	13097.875
2729.46747	13133.775
2732.06276	13100.675
2734.65644	13090.975
2737.24852	13101.875
2739.83899	13073.275
2742.42786	13089.375
2745.01513	13060.975
2747.60079	13053.675
2750.18486	13022.175
2752.76733	13051.975
2755.3482	13021.575
2757.92747	13026.275
2760.50515	13007.275
2763.08123	13001.875
2765.65573	12975.675
2768.22863	12995.075
2770.79994	12969.675
2773.36967	12976.475
2775.9378	12975.275
2778.50435	12966.375
2781.06932	13001.475
2783.6327	12960.975
2786.1945	12950.475
2788.75471	12936.875
2791.31335	12921.475
2793.87041	12895.575
2796.42589	12878.575
2798.97979	12891.675
2801.53212	12854.275
2804.08288	12850.375
2806.63206	12810.475
2809.17967	12771.475
2811.72571	12747.175
2814.27018	12722.775
2816.81308	12672.775
2819.35442	12677.875
2821.89419	12630.375
2824.43239	12629.875
2826.96904	12622.475
2829.50412	12591.675
2832.03763	12572.675
2834.56959	12562.075
2837.1	12543.675
2839.62884	12572.575
2842.15613	12556.375
2844.68186	12559.275
2847.20604	12544.675
2849.72867	12543.875
2852.24974	12534.975
2854.76927	12483.175
2857.28724	12491.675
2859.80367	12476.575
2862.31855	12468.075
2864.83189	12451.975
2867.34368	12436.875
2869.85393	12430.475
2872.36264	12425.575
2874.8698	12424.975
2877.37543	12380.175
2879.87952	12388.275
2882.38207	12402.775
2884.88308	12380.375
2887.38256	12401.475
2889.88051	12393.275
2892.37692	12410.875
2894.8718	12404.775
2897.36515	12425.475
2899.85698	12428.475
2902.34727	12412.975
2904.83604	12444.075
2907.32328	12460.975
2909.809	12480.375
2912.29319	12454.875
2914.77587	12436.775
2917.25702	12425.575
2919.73665	12435.975
2922.21476	12443.775
2924.69136	12429.475
2927.16644	12426.375
2929.64	12406.475
2932.11205	12360.775
2934.58258	12366.975
2937.05161	12365.675
2939.51912	12375.975
2941.98513	12320.575
2944.44962	12309.975
2946.91261	12274.475
2949.37409	12307.175
2951.83407	12294.475
2954.29254	12267.475
2956.74951	12259.675
2959.20498	12235.675
2961.65895	12224.775
2964.11142	12223.775
2966.56239	12215.775
2969.01186	12215.775
2971.45984	12174.475
2973.90632	12169.975
2976.35131	12137.875
2978.7948	12122.675
2981.23681	12112.075
2983.67732	12087.375
2986.11635	12030.775
2988.55388	12011.975
2990.98993	12003.375
2993.4245	11962.675
2995.85758	11931.775
2998.28917	11891.675
3000.71928	11877.475
3003.14791	11821.875
3005.57506	11796.275
3008.00073	11774.675
3010.42493	11613.275
3012.84764	11734.275
3015.26888	11717.575
3017.68865	11667.875
3020.10694	11664.575
3022.52376	11645.175
3024.9391	11647.175
3027.35298	11633.075
3029.76539	11633.675
3032.17632	11652.875
3034.5858	11612.675
3036.9938	11630.475
3039.40034	11623.575
3041.80542	11611.675
3044.20903	11600.675
3046.61118	11550.475
3049.01187	11546.275
3051.4111	11535.775
3053.80888	11463.175
3056.20519	11459.775
3058.60005	11435.475
3060.99345	11417.775
3063.3854	11390.875
3065.7759	11345.575
3068.16494	11315.775
3070.55254	11296.375
3072.93868	11258.875
3075.32338	11232.875
3077.70662	11203.875
3080.08842	11201.275
3082.46878	11151.975
3084.84769	11150.875
3087.22515	11151.675
3089.60118	11140.675
3091.97576	11136.975
3094.3489	11131.775
3096.72061	11121.175
3099.09087	11127.375
3101.4597	11117.275
3103.82709	11099.975
3106.19305	11080.275
3108.55757	11061.675
3110.92066	11029.075
3113.28232	11038.575
3115.64255	11002.075
3118.00134	10950.975
3120.35871	10936.875
3122.71466	10913.775
3125.06917	10899.875
3127.42226	10864.275
