Data from AgNP_FTO_APTES_UA_10uM_CRN_5uM_R6G_10uM_NaF_0.1M_Addition_RamanShift__15__14-59-50-652.txt Node

Date: Thu Feb 10 14:59:50 GMT 2022
User: TCL
Spectrometer: QEP01345
Trigger mode: 4
Integration Time (sec): 7.000000E0
Scans to average: 10
Electric dark correction enabled: true
Nonlinearity correction enabled: false
Boxcar width: 0
XAxis mode: Raman Shifts
Number of Pixels in Spectrum: 1044
>>>>>Begin Spectral Data<<<<<
46.04893	-0.375
50.45542	-1.375
54.85868	-0.875
59.25871	-0.975
63.6555	72.125
68.04907	75.025
72.43941	81.325
76.82654	76.325
81.21044	88.625
85.59113	82.725
89.96862	90.625
94.34289	94.925
98.71396	96.825
103.08183	102.625
107.4465	107.825
111.80798	103.125
116.16626	109.125
120.52136	111.125
124.87327	119.925
129.222	125.425
133.56755	134.025
137.90993	142.625
142.24913	155.725
146.58517	175.625
150.91804	207.525
155.24774	249.725
159.57429	309.925
163.89768	391.725
168.21792	526.625
172.53501	719.825
176.84895	1004.825
181.15975	1420.125
185.46741	1985.625
189.77193	2733.525
194.07331	3659.825
198.37157	4735.825
202.6667	5840.325
206.9587	6941.425
211.24758	8022.125
215.53334	9094.825
219.81599	10238.625
224.09553	11486.825
228.37195	12842.225
232.64527	14357.925
236.91549	15972.825
241.18261	17610.125
245.44663	19061.025
249.70755	20434.325
253.96539	21619.625
258.22014	22706.925
262.4718	23499.125
266.72039	24146.925
270.96589	24481.225
275.20832	24603.425
279.44768	24493.125
283.68397	24311.025
287.91719	24153.725
292.14735	24052.225
296.37445	24038.825
300.59849	24071.125
304.81948	24137.525
309.03742	24068.025
313.25231	23828.825
317.46415	23390.425
321.67296	22761.325
325.87872	22287.625
330.08145	22051.825
334.28114	22110.425
338.47781	22211.625
342.67145	22478.525
346.86207	22877.825
351.04966	23284.425
355.23424	23637.425
359.4158	23956.525
363.59435	24262.125
367.76989	24481.925
371.94243	24591.425
376.11196	24690.525
380.27849	24776.125
384.44203	24893.725
388.60257	25068.025
392.76012	25293.625
396.91468	25633.225
401.06626	25996.025
405.21485	26200.425
409.36047	26064.125
413.50311	25734.425
417.64277	25530.925
421.77947	25547.625
425.9132	25642.525
430.04396	25776.125
434.17176	25857.525
438.2966	25964.125
442.41849	26273.825
446.53742	26795.525
450.6534	27452.425
454.76644	27850.825
458.87653	28029.325
462.98368	28025.125
467.08789	27889.525
471.18916	27658.125
475.2875	27371.725
479.38291	27300.725
483.4754	27110.525
487.56496	26853.925
491.6516	26482.325
495.73531	26120.725
499.81612	25948.925
503.89401	26063.725
507.96899	26210.225
512.04106	26193.025
516.11023	26105.125
520.1765	25909.825
524.23987	25653.225
528.30034	25390.125
532.35792	25176.125
536.41261	24927.525
540.46441	24756.625
544.51333	24763.725
548.55936	25087.225
552.60252	25563.125
556.64279	26111.125
560.6802	26506.425
564.71473	26795.225
568.7464	27169.225
572.7752	27864.425
576.80114	28646.925
580.82422	29306.125
584.84444	29870.525
588.86181	30357.825
592.87633	30572.925
596.888	30153.625
600.89682	29515.725
604.9028	29860.125
608.90594	31648.925
612.90624	33508.825
616.90371	31452.925
620.89834	27277.625
624.89015	25458.825
628.87913	25319.025
632.86528	25432.625
636.84862	25583.725
640.82913	25294.625
644.80683	24765.025
648.78172	24401.725
652.75379	24327.725
656.72306	24565.725
660.68952	24842.725
664.65319	24773.025
668.61405	24453.925
672.57211	24387.725
676.52738	24465.025
680.47986	24479.325
684.42955	24333.325
688.37646	24273.725
692.32058	24413.925
696.26192	24693.825
700.20048	24991.725
704.13626	25155.025
708.06928	25189.625
711.99952	25089.525
715.927	25041.525
719.85171	25039.225
723.77365	24972.425
727.69284	24702.925
731.60928	24358.025
735.52295	24226.625
739.43388	24201.025
743.34206	24230.325
747.24749	24347.125
751.15017	24560.325
755.05012	24976.725
758.94733	25630.925
762.8418	26741.425
766.73354	28422.525
770.62254	29890.825
774.50882	30030.525
778.39237	28842.425
782.27321	27168.425
786.15132	25803.125
790.02671	25005.325
793.89938	24535.925
797.76935	24328.325
801.6366	24223.125
805.50115	24180.525
809.36299	24024.725
813.22213	23910.925
817.07857	23826.425
820.93231	23751.825
824.78336	23685.325
828.63172	23569.525
832.47738	23510.925
836.32036	23487.725
840.16066	23473.025
843.99827	23471.025
847.8332	23465.225
851.66546	23485.825
855.49504	23521.125
859.32195	23537.425
863.1462	23517.625
866.96777	23471.225
870.78668	23416.025
874.60293	23421.525
878.41652	23472.125
882.22745	23495.925
886.03573	23519.925
889.84136	23538.125
893.64433	23487.625
897.44466	23441.325
901.24235	23345.625
905.0374	23316.325
908.8298	23283.525
912.61957	23270.225
916.40671	23447.925
920.19121	23700.525
923.97308	23893.125
927.75233	23852.025
931.52895	23635.825
935.30295	23322.625
939.07433	23019.325
942.84309	22748.325
946.60924	22583.725
950.37278	22571.525
954.13371	22554.025
957.89203	22541.325
961.64774	22555.625
965.40086	22526.125
969.15137	22521.225
972.89929	22436.425
976.64461	22365.325
980.38733	22339.025
984.12747	22382.825
987.86502	22480.625
991.59999	22633.225
995.33237	22793.725
999.06217	23051.525
1002.78939	23381.325
1006.51404	23696.125
1010.23611	24095.025
1013.95561	24312.925
1017.67255	24353.825
1021.38692	24216.825
1025.09872	23876.225
1028.80796	23653.825
1032.51465	23576.125
1036.21877	23703.725
1039.92035	23834.125
1043.61937	23833.225
1047.31584	23810.725
1051.00976	23801.025
1054.70114	23870.225
1058.38998	24050.325
1062.07627	24296.025
1065.76003	24602.725
1069.44126	24818.225
1073.11995	25153.225
1076.79611	25491.225
1080.46974	25627.025
1084.14085	25806.325
1087.80943	26017.425
1091.47549	26223.925
1095.13903	26249.625
1098.80005	26084.825
1102.45857	25579.825
1106.11456	25151.225
1109.76805	24895.925
1113.41903	24890.725
1117.06751	24946.325
1120.71348	25169.425
1124.35696	25392.625
1127.99793	25573.525
1131.63641	25766.225
1135.2724	25675.225
1138.90589	25581.925
1142.5369	25617.325
1146.16542	25696.325
1149.79145	25845.425
1153.415	26066.625
1157.03607	26425.025
1160.65467	27051.925
1164.27079	28135.225
1167.88443	29387.425
1171.49561	30812.025
1175.10432	32561.425
1178.71056	34790.325
1182.31434	36884.825
1185.91565	38104.225
1189.51451	38259.725
1193.11091	37700.125
1196.70485	36593.125
1200.29634	35285.525
1203.88538	34234.125
1207.47197	33617.525
1211.05612	33142.425
1214.63782	32555.225
1218.21708	31695.025
1221.79391	30902.025
1225.36829	30334.825
1228.94024	30038.625
1232.50976	29683.425
1236.07685	29420.725
1239.6415	29259.125
1243.20374	29259.225
1246.76355	29408.125
1250.32093	29769.225
1253.8759	30257.925
1257.42845	30962.825
1260.97859	31716.525
1264.52631	32601.425
1268.07163	33376.425
1271.61453	34197.825
1275.15503	34940.425
1278.69312	35701.225
1282.22882	36461.125
1285.76211	37352.325
1289.29301	38419.525
1292.82151	39805.825
1296.34761	41594.125
1299.87133	43748.525
1303.39266	45872.925
1306.9116	47885.825
1310.42815	49546.425
1313.94233	50398.125
1317.45412	50257.825
1320.96354	49907.225
1324.47058	49658.225
1327.97525	49492.525
1331.47754	49510.025
1334.97747	49687.325
1338.47502	49822.425
1341.97022	49904.325
1345.46305	49645.425
1348.95352	49145.725
1352.44163	48437.625
1355.92738	48166.625
1359.41078	48673.225
1362.89183	49221.525
1366.37053	48061.225
1369.84688	44774.625
1373.32088	41008.025
1376.79254	38367.525
1380.26186	37434.625
1383.72883	37419.525
1387.19347	37588.325
1390.65578	37376.625
1394.11575	37355.525
1397.57339	37581.825
1401.0287	37954.825
1404.48168	38327.725
1407.93234	38250.225
1411.38068	37615.425
1414.82669	36476.625
1418.27039	35087.225
1421.71177	33761.325
1425.15083	32664.025
1428.58758	32207.725
1432.02203	32451.325
1435.45416	33244.025
1438.88399	34175.225
1442.31151	34955.625
1445.73673	35389.925
1449.15965	35725.025
1452.58027	35931.525
1455.9986	36066.525
1459.41463	36348.525
1462.82837	36824.225
1466.23982	37252.325
1469.64898	37665.025
1473.05586	37796.625
1476.46045	37693.425
1479.86276	37388.325
1483.26279	36993.725
1486.66054	36843.225
1490.05602	36966.925
1493.44922	37301.025
1496.84016	37927.725
1500.22882	38882.725
1503.61521	40179.425
1506.99934	41533.525
1510.38121	42555.625
1513.76081	42625.525
1517.13816	41761.225
1520.51324	40457.325
1523.88607	39440.425
1527.25665	38933.325
1530.62498	38861.125
1533.99105	38787.625
1537.35488	38426.825
1540.71647	37793.625
1544.07581	36858.925
1547.4329	35964.725
1550.78776	35209.825
1554.14038	34733.525
1557.49077	34474.825
1560.83892	34364.525
1564.18484	34335.825
1567.52853	34406.625
1570.86999	34641.325
1574.20922	35179.825
1577.54624	35715.025
1580.88103	35839.625
1584.2136	36026.025
1587.54395	36815.525
1590.87208	37990.125
1594.19801	39756.425
1597.52172	41402.825
1600.84321	41697.725
1604.16251	40174.025
1607.47959	37756.625
1610.79447	35109.925
1614.10715	32549.425
1617.41763	30283.825
1620.7259	28604.525
1624.03199	27748.125
1627.33587	27600.325
1630.63757	28269.425
1633.93707	29903.825
1637.23439	32600.325
1640.52951	36312.425
1643.82246	40563.825
1647.11321	43725.225
1650.40179	44174.325
1653.68819	41290.725
1656.97241	36440.725
1660.25446	31683.025
1663.53433	28009.925
1666.81203	25556.425
1670.08756	24068.725
1673.36092	23083.925
1676.63211	22456.425
1679.90115	21999.925
1683.16801	21636.225
1686.43272	21409.825
1689.69527	21217.825
1692.95567	21047.425
1696.2139	20970.225
1699.46999	20912.325
1702.72392	20810.925
1705.97571	20744.325
1709.22535	20677.125
1712.47284	20599.525
1715.71819	20554.725
1718.96139	20490.225
1722.20246	20431.425
1725.44139	20310.325
1728.67818	20224.725
1731.91284	20081.425
1735.14537	19993.925
1738.37576	19908.225
1741.60403	19843.725
1744.83017	19755.825
1748.05418	19717.025
1751.27607	19659.325
1754.49584	19637.525
1757.71349	19621.225
1760.92903	19625.125
1764.14244	19595.325
1767.35375	19534.125
1770.56294	19527.425
1773.77002	19529.825
1776.97499	19473.225
1780.17785	19394.825
1783.37861	19329.825
1786.57727	19302.325
1789.77382	19278.025
1792.96828	19221.125
1796.16064	19160.525
1799.3509	19141.725
1802.53907	19120.825
1805.72514	19070.225
1808.90913	19011.325
1812.09102	19012.625
1815.27083	18959.625
1818.44856	18912.825
1821.6242	18871.125
1824.79776	18876.025
1827.96924	18865.025
1831.13864	18823.025
1834.30597	18843.025
1837.47122	18819.225
1840.6344	18819.825
1843.7955	18851.425
1846.95454	18833.225
1850.11151	18825.225
1853.26642	18811.925
1856.41926	18778.625
1859.57004	18811.725
1862.71876	18748.125
1865.86542	18698.525
1869.01003	18682.925
1872.15258	18632.625
1875.29308	18620.025
1878.43152	18591.025
1881.56792	18515.825
1884.70227	18544.025
1887.83457	18486.725
1890.96482	18456.325
1894.09304	18453.925
1897.21921	18385.425
1900.34335	18362.425
1903.46544	18328.825
1906.58551	18288.425
1909.70353	18268.625
1912.81953	18259.825
1915.93349	18241.825
1919.04543	18176.725
1922.15534	18130.525
1925.26322	18084.425
1928.36908	18042.425
1931.47292	18051.525
1934.57473	18009.825
1937.67453	17965.225
1940.77232	17880.525
1943.86808	17828.025
1946.96184	17787.625
1950.05358	17717.625
1953.14331	17652.025
1956.23103	17617.925
1959.31675	17554.525
1962.40046	17506.225
1965.48217	17440.025
1968.56188	17398.725
1971.63959	17322.925
1974.7153	17309.925
1977.78901	17261.925
1980.86073	17170.025
1983.93046	17117.925
1986.99819	17054.225
1990.06394	17032.125
1993.1277	17001.125
1996.18947	16919.525
1999.24925	16862.825
2002.30706	16822.825
2005.36288	16752.625
2008.41672	16719.025
2011.46859	16684.525
2014.51848	16645.725
2017.56639	16600.725
2020.61233	16547.325
2023.6563	16509.625
2026.6983	16464.625
2029.73833	16432.025
2032.7764	16415.625
2035.8125	16340.425
2038.84664	16301.325
2041.87881	16265.025
2044.90903	16231.725
2047.93729	16174.325
2050.96359	16198.725
2053.98794	16188.425
2057.01034	16124.625
2060.03078	16100.525
2063.04927	16114.225
2066.06582	16115.525
2069.08042	16068.225
2072.09307	16085.225
2075.10378	16075.925
2078.11255	16036.725
2081.11938	16030.325
2084.12426	16023.825
2087.12722	16034.825
2090.12824	16012.725
2093.12732	15995.625
2096.12447	16003.325
2099.11969	16001.225
2102.11299	16006.025
2105.10435	16006.725
2108.09379	16022.325
2111.08131	16005.325
2114.0669	15993.225
2117.05057	16010.525
2120.03233	16037.025
2123.01216	16038.625
2125.99008	16058.525
2128.96609	16056.925
2131.94018	16077.025
2134.91236	16077.125
2137.88263	16093.925
2140.851	16065.525
2143.81746	16104.525
2146.78201	16119.125
2149.74466	16122.825
2152.7054	16075.025
2155.66425	16071.425
2158.6212	16068.925
2161.57625	16069.625
2164.52941	16076.025
2167.48067	16013.125
2170.43004	16011.125
2173.37752	16027.625
2176.32311	16000.925
2179.26681	15997.525
2182.20863	15996.625
2185.14856	15993.125
2188.08661	15976.825
2191.02278	15983.625
2193.95707	15996.525
2196.88948	15996.025
2199.82001	15964.225
2202.74867	15913.125
2205.67545	15867.025
2208.60037	15841.225
2211.52341	15851.125
2214.44458	15852.725
2217.36388	15785.925
2220.28132	15743.625
2223.1969	15720.225
2226.11061	15706.925
2229.02246	15658.725
2231.93245	15638.425
2234.84058	15616.025
2237.74686	15595.825
2240.65128	15592.025
2243.55385	15555.625
2246.45456	15497.425
2249.35343	15479.025
2252.25044	15458.925
2255.14561	15468.925
2258.03893	15446.825
2260.93041	15385.125
2263.82004	15329.825
2266.70783	15317.425
2269.59378	15244.325
2272.4779	15191.225
2275.36017	15144.825
2278.24061	15153.025
2281.11922	15118.125
2283.996	15087.625
2286.87094	15076.525
2289.74405	15075.825
2292.61534	15077.825
2295.4848	15042.725
2298.35243	15038.025
2301.21824	15005.125
2304.08223	15017.325
2306.94439	14989.625
2309.80474	14944.325
2312.66327	14943.025
2315.51999	14931.925
2318.37489	14950.825
2321.22797	14926.425
2324.07925	14849.425
2326.92871	14833.925
2329.77637	14855.425
2332.62222	14854.725
2335.46626	14825.625
2338.3085	14839.025
2341.14893	14810.025
2343.98756	14781.025
2346.8244	14806.125
2349.65943	14770.725
2352.49267	14748.325
2355.32411	14742.025
2358.15376	14740.925
2360.98161	14754.325
2363.80768	14742.125
2366.63195	14745.225
2369.45444	14725.225
2372.27514	14691.625
2375.09405	14676.425
2377.91118	14651.825
2380.72652	14604.125
2383.54009	14573.525
2386.35187	14549.725
2389.16188	14521.025
2391.97011	14453.725
2394.77657	14400.025
2397.58125	14411.225
2400.38416	14391.625
2403.18529	14381.125
2405.98466	14373.325
2408.78226	14319.425
2411.57809	14308.625
2414.37216	14318.425
2417.16446	14313.425
2419.955	14263.325
2422.74378	14267.125
2425.5308	14238.825
2428.31606	14242.025
2431.09956	14226.925
2433.88131	14225.025
2436.6613	14204.525
2439.43954	14209.725
2442.21603	14197.725
2444.99077	14191.225
2447.76377	14178.125
2450.53501	14117.825
2453.30451	14108.425
2456.07226	14123.325
2458.83827	14118.225
2461.60254	14112.025
2464.36507	14099.825
2467.12586	14110.025
2469.88492	14110.425
2472.64224	14100.125
2475.39782	14087.325
2478.15167	14096.425
2480.90379	14089.925
2483.65417	14089.525
2486.40283	14121.025
2489.14976	14083.325
2491.89497	14067.725
2494.63845	14099.025
2497.3802	14055.225
2500.12024	14032.225
2502.85855	14023.125
2505.59514	13990.525
2508.33002	13999.125
2511.06318	13996.525
2513.79462	13985.125
2516.52435	13979.325
2519.25237	14003.525
2521.97867	13960.925
2524.70327	13948.225
2527.42616	13939.925
2530.14734	13915.425
2532.86681	13894.925
2535.58458	13878.425
2538.30065	13862.125
2541.01501	13871.725
2543.72768	13860.225
2546.43864	13825.325
2549.14791	13851.125
2551.85548	13809.625
2554.56136	13785.525
2557.26554	13759.225
2559.96803	13752.625
2562.66883	13713.825
2565.36794	13691.225
2568.06536	13681.925
2570.7611	13649.425
2573.45514	13653.425
2576.14751	13616.825
2578.83819	13603.925
2581.52719	13580.425
2584.21451	13561.825
2586.90015	13562.425
2589.58411	13529.325
2592.2664	13528.825
2594.94701	13536.525
2597.62594	13528.925
2600.30321	13485.525
2602.9788	13482.325
2605.65273	13500.125
2608.32498	13458.725
2610.99557	13463.325
2613.66449	13459.325
2616.33175	13462.725
2618.99734	13431.425
2621.66128	13448.625
2624.32355	13405.325
2626.98416	13379.425
2629.64311	13381.225
2632.30041	13351.625
2634.95605	13358.525
2637.61004	13330.625
2640.26238	13307.425
2642.91306	13315.325
2645.56209	13329.025
2648.20948	13357.425
2650.85521	13304.625
2653.4993	13342.225
2656.14175	13321.625
2658.78255	13321.225
2661.42171	13317.725
2664.05923	13315.625
2666.6951	13325.525
2669.32934	13361.725
2671.96194	13344.125
2674.59291	13346.925
2677.22224	13359.725
2679.84993	13360.125
2682.476	13331.225
2685.10043	13320.125
2687.72324	13315.525
2690.34441	13326.025
2692.96396	13323.025
2695.58188	13302.125
2698.19818	13301.925
2700.81285	13304.825
2703.4259	13340.525
2706.03733	13364.525
2708.64714	13328.425
2711.25533	13354.425
2713.86191	13337.325
2716.46687	13363.425
2719.07021	13332.725
2721.67194	13369.025
2724.27206	13363.425
2726.87057	13373.725
2729.46747	13357.925
2732.06276	13359.725
2734.65644	13357.825
2737.24852	13361.325
2739.83899	13342.825
2742.42786	13359.525
2745.01513	13303.925
2747.60079	13302.825
2750.18486	13281.325
2752.76733	13265.325
2755.3482	13274.725
2757.92747	13269.525
2760.50515	13228.625
2763.08123	13234.325
2765.65573	13202.125
2768.22863	13190.025
2770.79994	13206.225
2773.36967	13184.525
2775.9378	13181.825
2778.50435	13181.725
2781.06932	13170.525
2783.6327	13175.925
2786.1945	13165.025
2788.75471	13140.625
2791.31335	13123.625
2793.87041	13096.125
2796.42589	13082.625
2798.97979	13082.725
2801.53212	13041.925
2804.08288	13031.425
2806.63206	13008.125
2809.17967	12984.325
2811.72571	12948.825
2814.27018	12914.325
2816.81308	12858.425
2819.35442	12836.025
2821.89419	12820.025
2824.43239	12790.925
2826.96904	12777.425
2829.50412	12765.925
2832.03763	12740.625
2834.56959	12763.725
2837.1	12708.725
2839.62884	12741.825
2842.15613	12741.025
2844.68186	12747.725
2847.20604	12744.825
2849.72867	12757.525
2852.24974	12727.125
2854.76927	12709.625
2857.28724	12671.825
2859.80367	12656.725
2862.31855	12630.325
2864.83189	12626.525
2867.34368	12605.225
2869.85393	12587.625
2872.36264	12571.125
2874.8698	12561.025
2877.37543	12571.725
2879.87952	12549.025
2882.38207	12538.425
2884.88308	12540.025
2887.38256	12555.525
2889.88051	12534.825
2892.37692	12540.525
2894.8718	12513.825
2897.36515	12556.325
2899.85698	12570.125
2902.34727	12588.625
2904.83604	12596.425
2907.32328	12601.525
2909.809	12589.725
2912.29319	12585.025
2914.77587	12549.025
2917.25702	12555.025
2919.73665	12571.225
2922.21476	12559.425
2924.69136	12542.625
2927.16644	12559.925
2929.64	12522.825
2932.11205	12524.125
2934.58258	12472.225
2937.05161	12512.425
2939.51912	12495.825
2941.98513	12458.925
2944.44962	12425.825
2946.91261	12368.825
2949.37409	12406.325
2951.83407	12382.725
2954.29254	12345.125
2956.74951	12357.925
2959.20498	12363.825
2961.65895	12345.225
2964.11142	12335.625
2966.56239	12322.325
2969.01186	12321.625
2971.45984	12290.725
2973.90632	12331.325
2976.35131	12281.425
2978.7948	12231.125
2981.23681	12213.025
2983.67732	12187.725
2986.11635	12122.625
2988.55388	12084.725
2990.98993	12095.825
2993.4245	12069.825
2995.85758	12027.925
2998.28917	12004.725
3000.71928	11991.625
3003.14791	11959.225
3005.57506	11956.525
3008.00073	11908.925
3010.42493	11755.725
3012.84764	11836.825
3015.26888	11820.625
3017.68865	11766.225
3020.10694	11775.525
3022.52376	11742.125
3024.9391	11737.425
3027.35298	11715.625
3029.76539	11711.925
3032.17632	11725.325
3034.5858	11696.925
3036.9938	11693.125
3039.40034	11669.425
3041.80542	11686.525
3044.20903	11641.125
3046.61118	11650.825
3049.01187	11628.225
3051.4111	11584.625
3053.80888	11566.925
3056.20519	11549.225
3058.60005	11524.325
3060.99345	11483.025
3063.3854	11448.825
3065.7759	11402.625
3068.16494	11395.525
3070.55254	11347.825
3072.93868	11339.525
3075.32338	11282.925
3077.70662	11274.625
3080.08842	11257.425
3082.46878	11226.325
3084.84769	11203.625
3087.22515	11204.625
3089.60118	11209.025
3091.97576	11169.925
3094.3489	11167.625
3096.72061	11175.625
3099.09087	11179.225
3101.4597	11151.125
3103.82709	11142.425
3106.19305	11146.825
3108.55757	11152.625
3110.92066	11082.925
3113.28232	11078.025
3115.64255	11026.325
3118.00134	10982.525
3120.35871	11001.525
3122.71466	10970.425
3125.06917	10939.425
3127.42226	10925.725
