Data from AgNP_FTO_APTES_UA_10uM_CRN_10uM_R6G_10uM_NaF_0.1M_Addition_RamanShift__24__15-52-20-716.txt Node

Date: Thu Feb 10 15:52:20 GMT 2022
User: TCL
Spectrometer: QEP01345
Trigger mode: 4
Integration Time (sec): 7.000000E0
Scans to average: 10
Electric dark correction enabled: true
Nonlinearity correction enabled: false
Boxcar width: 0
XAxis mode: Raman Shifts
Number of Pixels in Spectrum: 1044
>>>>>Begin Spectral Data<<<<<
46.04893	0.275
50.45542	-0.225
54.85868	-2.925
59.25871	-1.525
63.6555	73.275
68.04907	77.775
72.43941	83.575
76.82654	82.875
81.21044	89.575
85.59113	88.775
89.96862	93.075
94.34289	99.375
98.71396	98.675
103.08183	104.275
107.4465	105.775
111.80798	104.075
116.16626	108.975
120.52136	113.475
124.87327	121.075
129.222	129.675
133.56755	133.175
137.90993	144.675
142.24913	155.775
146.58517	173.775
150.91804	207.275
155.24774	238.675
159.57429	299.775
163.89768	382.575
168.21792	506.975
172.53501	688.875
176.84895	956.675
181.15975	1350.275
185.46741	1886.875
189.77193	2613.375
194.07331	3473.275
198.37157	4461.675
202.6667	5518.175
206.9587	6524.975
211.24758	7573.975
215.53334	8601.675
219.81599	9680.375
224.09553	10898.975
228.37195	12276.475
232.64527	13813.075
236.91549	15407.475
241.18261	16947.775
245.44663	18359.675
249.70755	19581.875
253.96539	20713.175
258.22014	21736.475
262.4718	22560.075
266.72039	23186.775
270.96589	23617.575
275.20832	23777.975
279.44768	23788.975
283.68397	23751.375
287.91719	23615.275
292.14735	23631.475
296.37445	23713.175
300.59849	23892.675
304.81948	24007.975
309.03742	23959.775
313.25231	23616.775
317.46415	22897.575
321.67296	21975.475
325.87872	21270.775
330.08145	20957.975
334.28114	21002.175
338.47781	21171.175
342.67145	21541.275
346.86207	22028.975
351.04966	22683.775
355.23424	23309.975
359.4158	23844.175
363.59435	24205.375
367.76989	24397.075
371.94243	24500.075
376.11196	24540.475
380.27849	24620.575
384.44203	24595.475
388.60257	24662.675
392.76012	24798.175
396.91468	25125.175
401.06626	25569.875
405.21485	25887.775
409.36047	25774.675
413.50311	25229.375
417.64277	24727.075
421.77947	24572.175
425.9132	24669.075
430.04396	24854.675
434.17176	25012.375
438.2966	25252.975
442.41849	25692.575
446.53742	26308.675
450.6534	27047.475
454.76644	27609.475
458.87653	27885.275
462.98368	27794.775
467.08789	27534.375
471.18916	27096.175
475.2875	26662.675
479.38291	26393.675
483.4754	26115.275
487.56496	25809.975
491.6516	25347.775
495.73531	25069.775
499.81612	25004.675
503.89401	25111.575
507.96899	25193.075
512.04106	25157.375
516.11023	25147.275
520.1765	25103.975
524.23987	24904.775
528.30034	24644.675
532.35792	24389.075
536.41261	24083.675
540.46441	23823.475
544.51333	23876.675
548.55936	24211.675
552.60252	24780.775
556.64279	25336.575
560.6802	25634.175
564.71473	25823.075
568.7464	26252.375
572.7752	26809.675
576.80114	26898.575
580.82422	26917.675
584.84444	26917.775
588.86181	26983.275
592.87633	27129.675
596.888	27405.475
600.89682	27895.075
604.9028	29372.875
608.90594	33171.775
612.90624	37179.375
616.90371	34906.975
620.89834	28386.275
624.89015	25662.775
628.87913	25371.175
632.86528	25313.675
636.84862	25148.975
640.82913	24645.875
644.80683	23933.675
648.78172	23441.575
652.75379	23430.775
656.72306	23826.575
660.68952	24494.275
664.65319	24388.375
668.61405	23862.975
672.57211	23651.875
676.52738	23642.475
680.47986	23660.175
684.42955	23559.575
688.37646	23523.575
692.32058	23723.275
696.26192	23923.875
700.20048	24166.875
704.13626	24390.075
708.06928	24346.275
711.99952	24136.075
715.927	24012.875
719.85171	23999.575
723.77365	23908.875
727.69284	23694.575
731.60928	23450.675
735.52295	23365.675
739.43388	23421.075
743.34206	23527.375
747.24749	23697.175
751.15017	23933.175
755.05012	24407.975
758.94733	25239.775
762.8418	26785.475
766.73354	29263.075
770.62254	31600.775
774.50882	32234.575
778.39237	30592.375
782.27321	27845.575
786.15132	25637.975
790.02671	24372.975
793.89938	23776.775
797.76935	23570.775
801.6366	23455.275
805.50115	23359.375
809.36299	23239.375
813.22213	23082.875
817.07857	23075.575
820.93231	23058.875
824.78336	23046.475
828.63172	23026.375
832.47738	23102.175
836.32036	23140.475
840.16066	23234.975
843.99827	23273.075
847.8332	23194.375
851.66546	23087.875
855.49504	23030.075
859.32195	23011.575
863.1462	22882.375
866.96777	22733.275
870.78668	22689.575
874.60293	22696.875
878.41652	22710.875
882.22745	22817.975
886.03573	22860.675
889.84136	22801.675
893.64433	22680.675
897.44466	22611.175
901.24235	22596.975
905.0374	22598.475
908.8298	22601.475
912.61957	22662.875
916.40671	22889.975
920.19121	23162.175
923.97308	23443.275
927.75233	23534.675
931.52895	23436.075
935.30295	23230.575
939.07433	22779.475
942.84309	22363.975
946.60924	22242.675
950.37278	22129.175
954.13371	22003.575
957.89203	21865.375
961.64774	21775.575
965.40086	21766.275
969.15137	21651.375
972.89929	21614.975
976.64461	21546.975
980.38733	21568.775
984.12747	21693.175
987.86502	21885.275
991.59999	22173.275
995.33237	22652.775
999.06217	23453.975
1002.78939	24349.575
1006.51404	24834.375
1010.23611	25171.475
1013.95561	25401.375
1017.67255	25359.275
1021.38692	25070.575
1025.09872	24973.775
1028.80796	25263.475
1032.51465	26086.975
1036.21877	26869.675
1039.92035	26939.475
1043.61937	26440.275
1047.31584	25689.575
1051.00976	24841.975
1054.70114	24469.775
1058.38998	24449.375
1062.07627	24549.875
1065.76003	24655.875
1069.44126	24748.375
1073.11995	24928.075
1076.79611	25113.875
1080.46974	25275.375
1084.14085	25535.175
1087.80943	25875.475
1091.47549	25997.275
1095.13903	25785.375
1098.80005	25381.775
1102.45857	24832.275
1106.11456	24535.475
1109.76805	24515.875
1113.41903	24737.675
1117.06751	25056.575
1120.71348	25461.575
1124.35696	25793.075
1127.99793	26131.475
1131.63641	26238.275
1135.2724	25910.775
1138.90589	25552.775
1142.5369	25290.075
1146.16542	25179.975
1149.79145	25241.575
1153.415	25390.575
1157.03607	25751.575
1160.65467	26334.875
1164.27079	27238.775
1167.88443	28543.375
1171.49561	30318.775
1175.10432	32868.975
1178.71056	36070.375
1182.31434	38934.475
1185.91565	40518.175
1189.51451	40680.475
1193.11091	39328.575
1196.70485	37301.475
1200.29634	35380.275
1203.88538	33834.875
1207.47197	32531.075
1211.05612	31453.175
1214.63782	30793.275
1218.21708	30583.375
1221.79391	30615.175
1225.36829	30700.375
1228.94024	30592.675
1232.50976	30339.875
1236.07685	30051.375
1239.6415	29913.675
1243.20374	29897.075
1246.76355	30036.875
1250.32093	30482.475
1253.8759	31222.875
1257.42845	32213.275
1260.97859	33098.275
1264.52631	33788.775
1268.07163	34584.175
1271.61453	35528.475
1275.15503	36529.375
1278.69312	37491.875
1282.22882	38336.775
1285.76211	39041.275
1289.29301	39706.175
1292.82151	40651.175
1296.34761	41932.975
1299.87133	43797.575
1303.39266	46444.375
1306.9116	49883.375
1310.42815	53511.075
1313.94233	55882.975
1317.45412	56100.275
1320.96354	54769.875
1324.47058	53082.275
1327.97525	51554.775
1331.47754	50563.575
1334.97747	50289.175
1338.47502	50760.175
1341.97022	51279.975
1345.46305	51351.775
1348.95352	50803.475
1352.44163	50355.075
1355.92738	51087.375
1359.41078	53858.275
1362.89183	56334.375
1366.37053	54804.575
1369.84688	49536.375
1373.32088	44148.675
1376.79254	40646.275
1380.26186	39068.475
1383.72883	38491.375
1387.19347	38101.375
1390.65578	37662.575
1394.11575	37561.875
1397.57339	37941.175
1401.0287	38673.075
1404.48168	39548.675
1407.93234	40248.475
1411.38068	40433.475
1414.82669	39848.475
1418.27039	38534.775
1421.71177	36946.275
1425.15083	35600.475
1428.58758	34807.775
1432.02203	34609.675
1435.45416	34899.575
1438.88399	35385.175
1442.31151	35846.575
1445.73673	36259.775
1449.15965	36749.475
1452.58027	37087.275
1455.9986	37213.075
1459.41463	37449.675
1462.82837	37979.775
1466.23982	38700.075
1469.64898	39433.775
1473.05586	39878.775
1476.46045	40002.875
1479.86276	40059.675
1483.26279	40112.575
1486.66054	40314.475
1490.05602	40620.975
1493.44922	41116.675
1496.84016	41740.475
1500.22882	42722.175
1503.61521	44146.875
1506.99934	46198.775
1510.38121	48219.775
1513.76081	49338.075
1517.13816	48420.875
1520.51324	46000.275
1523.88607	43530.675
1527.25665	41679.875
1530.62498	40648.975
1533.99105	39980.575
1537.35488	39622.875
1540.71647	39281.475
1544.07581	38886.475
1547.4329	38359.175
1550.78776	37822.975
1554.14038	37615.575
1557.49077	37526.175
1560.83892	37591.475
1564.18484	37698.275
1567.52853	37717.375
1570.86999	37611.375
1574.20922	37737.475
1577.54624	37844.975
1580.88103	37531.975
1584.2136	37294.875
1587.54395	37982.675
1590.87208	39636.575
1594.19801	42077.875
1597.52172	44720.175
1600.84321	45689.675
1604.16251	43963.075
1607.47959	40824.275
1610.79447	37508.575
1614.10715	34496.975
1617.41763	32046.675
1620.7259	30361.275
1624.03199	29542.475
1627.33587	29494.175
1630.63757	30276.575
1633.93707	31938.975
1637.23439	34366.775
1640.52951	37360.775
1643.82246	40494.075
1647.11321	42979.075
1650.40179	43607.475
1653.68819	41402.275
1656.97241	36859.775
1660.25446	32115.575
1663.53433	28581.075
1666.81203	26287.975
1670.08756	24805.675
1673.36092	23883.075
1676.63211	23257.775
1679.90115	22827.975
1683.16801	22490.475
1686.43272	22234.075
1689.69527	22066.975
1692.95567	21952.375
1696.2139	21863.575
1699.46999	21834.875
1702.72392	21735.875
1705.97571	21681.675
1709.22535	21620.475
1712.47284	21546.675
1715.71819	21538.575
1718.96139	21495.975
1722.20246	21452.275
1725.44139	21369.775
1728.67818	21241.475
1731.91284	21081.075
1735.14537	21028.975
1738.37576	20957.675
1741.60403	20880.875
1744.83017	20825.275
1748.05418	20763.375
1751.27607	20713.175
1754.49584	20698.575
1757.71349	20702.075
1760.92903	20682.875
1764.14244	20632.075
1767.35375	20634.375
1770.56294	20633.775
1773.77002	20587.275
1776.97499	20561.075
1780.17785	20512.375
1783.37861	20475.775
1786.57727	20459.575
1789.77382	20418.375
1792.96828	20420.975
1796.16064	20405.175
1799.3509	20396.575
1802.53907	20354.475
1805.72514	20281.175
1808.90913	20218.375
1812.09102	20227.275
1815.27083	20146.975
1818.44856	20139.975
1821.6242	20123.575
1824.79776	20080.475
1827.96924	20084.075
1831.13864	20072.975
1834.30597	20059.175
1837.47122	20105.675
1840.6344	20037.775
1843.7955	20078.175
1846.95454	20083.575
1850.11151	20099.275
1853.26642	20079.775
1856.41926	20125.675
1859.57004	20136.775
1862.71876	20097.075
1865.86542	20105.775
1869.01003	20085.475
1872.15258	20101.175
1875.29308	20155.775
1878.43152	20148.775
1881.56792	20147.475
1884.70227	20153.975
1887.83457	20139.575
1890.96482	20155.175
1894.09304	20167.775
1897.21921	20138.075
1900.34335	20155.975
1903.46544	20154.775
1906.58551	20133.075
1909.70353	20201.875
1912.81953	20153.575
1915.93349	20162.275
1919.04543	20157.875
1922.15534	20127.675
1925.26322	20065.175
1928.36908	19963.975
1931.47292	19926.175
1934.57473	19861.275
1937.67453	19773.075
1940.77232	19733.775
1943.86808	19614.475
1946.96184	19525.475
1950.05358	19437.875
1953.14331	19372.775
1956.23103	19301.275
1959.31675	19236.275
1962.40046	19172.075
1965.48217	19136.075
1968.56188	19058.775
1971.63959	19001.175
1974.7153	18933.375
1977.78901	18883.075
1980.86073	18826.575
1983.93046	18780.375
1986.99819	18694.875
1990.06394	18674.675
1993.1277	18607.075
1996.18947	18546.175
1999.24925	18485.475
2002.30706	18464.875
2005.36288	18397.475
2008.41672	18372.775
2011.46859	18299.175
2014.51848	18267.875
2017.56639	18248.575
2020.61233	18174.075
2023.6563	18133.675
2026.6983	18087.275
2029.73833	18039.375
2032.7764	18037.375
2035.8125	18030.675
2038.84664	17979.775
2041.87881	17941.275
2044.90903	17892.775
2047.93729	17869.375
2050.96359	17879.175
2053.98794	17832.275
2057.01034	17857.675
2060.03078	17817.075
2063.04927	17827.875
2066.06582	17811.475
2069.08042	17775.675
2072.09307	17770.375
2075.10378	17770.275
2078.11255	17750.975
2081.11938	17754.575
2084.12426	17684.075
2087.12722	17685.675
2090.12824	17681.475
2093.12732	17685.475
2096.12447	17661.775
2099.11969	17649.375
2102.11299	17641.875
2105.10435	17684.875
2108.09379	17673.775
2111.08131	17704.275
2114.0669	17670.475
2117.05057	17691.975
2120.03233	17706.175
2123.01216	17746.975
2125.99008	17743.975
2128.96609	17785.875
2131.94018	17797.575
2134.91236	17800.075
2137.88263	17790.475
2140.851	17809.575
2143.81746	17817.375
2146.78201	17809.775
2149.74466	17821.875
2152.7054	17848.275
2155.66425	17804.775
2158.6212	17808.675
2161.57625	17819.475
2164.52941	17845.775
2167.48067	17794.875
2170.43004	17788.975
2173.37752	17785.475
2176.32311	17774.375
2179.26681	17776.075
2182.20863	17785.975
2185.14856	17796.775
2188.08661	17771.875
2191.02278	17821.775
2193.95707	17817.775
2196.88948	17790.075
2199.82001	17788.775
2202.74867	17793.475
2205.67545	17800.675
2208.60037	17763.975
2211.52341	17805.775
2214.44458	17766.175
2217.36388	17736.175
2220.28132	17720.675
2223.1969	17678.175
2226.11061	17702.375
2229.02246	17644.375
2231.93245	17561.975
2234.84058	17503.775
2237.74686	17487.275
2240.65128	17463.075
2243.55385	17434.075
2246.45456	17431.275
2249.35343	17405.875
2252.25044	17419.175
2255.14561	17364.575
2258.03893	17377.075
2260.93041	17319.375
2263.82004	17266.575
2266.70783	17259.875
2269.59378	17181.175
2272.4779	17156.175
2275.36017	17112.575
2278.24061	17093.075
2281.11922	17072.175
2283.996	17062.275
2286.87094	17020.675
2289.74405	17037.475
2292.61534	17000.975
2295.4848	16970.775
2298.35243	16996.775
2301.21824	17002.075
2304.08223	17010.175
2306.94439	17025.075
2309.80474	17026.375
2312.66327	17100.975
2315.51999	17015.675
2318.37489	17058.875
2321.22797	17060.075
2324.07925	17038.575
2326.92871	16988.675
2329.77637	16999.675
2332.62222	16969.775
2335.46626	16982.075
2338.3085	16991.575
2341.14893	17011.975
2343.98756	17051.275
2346.8244	17027.775
2349.65943	17041.375
2352.49267	17011.175
2355.32411	17046.675
2358.15376	17019.575
2360.98161	17033.775
2363.80768	17017.175
2366.63195	16994.775
2369.45444	16960.575
2372.27514	16902.075
2375.09405	16884.175
2377.91118	16842.775
2380.72652	16783.075
2383.54009	16736.375
2386.35187	16679.575
2389.16188	16633.075
2391.97011	16613.975
2394.77657	16623.675
2397.58125	16557.875
2400.38416	16587.975
2403.18529	16530.075
2405.98466	16512.475
2408.78226	16454.375
2411.57809	16413.975
2414.37216	16400.475
2417.16446	16376.275
2419.955	16345.575
2422.74378	16365.875
2425.5308	16320.275
2428.31606	16331.075
2431.09956	16309.475
2433.88131	16287.875
2436.6613	16333.175
2439.43954	16343.975
2442.21603	16305.175
2444.99077	16314.775
2447.76377	16319.175
2450.53501	16253.175
2453.30451	16294.275
2456.07226	16273.275
2458.83827	16277.375
2461.60254	16282.975
2464.36507	16197.075
2467.12586	16239.875
2469.88492	16217.275
2472.64224	16240.675
2475.39782	16259.375
2478.15167	16274.775
2480.90379	16290.775
2483.65417	16314.575
2486.40283	16335.775
2489.14976	16335.175
2491.89497	16365.275
2494.63845	16388.875
2497.3802	16379.375
2500.12024	16379.375
2502.85855	16361.075
2505.59514	16350.275
2508.33002	16317.975
2511.06318	16311.275
2513.79462	16262.275
2516.52435	16262.775
2519.25237	16240.075
2521.97867	16236.075
2524.70327	16198.175
2527.42616	16187.875
2530.14734	16218.175
2532.86681	16187.475
2535.58458	16175.275
2538.30065	16170.675
2541.01501	16179.375
2543.72768	16208.975
2546.43864	16184.275
2549.14791	16156.075
2551.85548	16148.375
2554.56136	16117.775
2557.26554	16105.075
2559.96803	16091.775
2562.66883	16070.575
2565.36794	16042.575
2568.06536	16035.275
2570.7611	16043.275
2573.45514	16014.775
2576.14751	16027.775
2578.83819	16012.875
2581.52719	16021.675
2584.21451	15997.175
2586.90015	16002.675
2589.58411	15993.675
2592.2664	15990.075
2594.94701	15990.475
2597.62594	15979.575
2600.30321	15957.275
2602.9788	15969.775
2605.65273	15980.275
2608.32498	15970.775
2610.99557	16000.575
2613.66449	15984.275
2616.33175	15970.375
2618.99734	16021.975
2621.66128	16001.675
2624.32355	15969.075
2626.98416	16000.975
2629.64311	15973.075
2632.30041	15962.975
2634.95605	15958.075
2637.61004	15946.075
2640.26238	15934.875
2642.91306	15890.375
2645.56209	15891.575
2648.20948	15881.475
2650.85521	15860.475
2653.4993	15856.275
2656.14175	15815.075
2658.78255	15845.475
2661.42171	15871.075
2664.05923	15902.575
2666.6951	15929.175
2669.32934	15955.275
2671.96194	15959.975
2674.59291	15950.875
2677.22224	15931.375
2679.84993	15938.575
2682.476	15946.375
2685.10043	15912.175
2687.72324	15884.875
2690.34441	15931.675
2692.96396	15880.875
2695.58188	15880.975
2698.19818	15847.375
2700.81285	15889.575
2703.4259	15897.575
2706.03733	15878.675
2708.64714	15860.875
2711.25533	15870.875
2713.86191	15870.075
2716.46687	15877.775
2719.07021	15921.675
2721.67194	15898.775
2724.27206	15913.375
2726.87057	15934.575
2729.46747	15956.975
2732.06276	15951.175
2734.65644	15930.475
2737.24852	15934.375
2739.83899	15903.275
2742.42786	15969.775
2745.01513	15927.875
2747.60079	15913.475
2750.18486	15858.775
2752.76733	15871.975
2755.3482	15862.275
2757.92747	15878.875
2760.50515	15864.375
2763.08123	15833.875
2765.65573	15842.075
2768.22863	15867.875
2770.79994	15807.275
2773.36967	15836.475
2775.9378	15856.675
2778.50435	15845.775
2781.06932	15825.775
2783.6327	15864.375
2786.1945	15839.975
2788.75471	15806.875
2791.31335	15796.575
2793.87041	15768.975
2796.42589	15748.975
2798.97979	15747.775
2801.53212	15719.475
2804.08288	15695.775
2806.63206	15645.175
2809.17967	15651.875
2811.72571	15634.775
2814.27018	15591.075
2816.81308	15565.975
2819.35442	15576.675
2821.89419	15534.775
2824.43239	15533.775
2826.96904	15541.475
2829.50412	15504.675
2832.03763	15520.575
2834.56959	15506.175
2837.1	15472.975
2839.62884	15482.275
2842.15613	15450.375
2844.68186	15494.675
2847.20604	15517.775
2849.72867	15471.175
2852.24974	15490.875
2854.76927	15447.675
2857.28724	15455.275
2859.80367	15420.475
2862.31855	15406.475
2864.83189	15380.375
2867.34368	15362.475
2869.85393	15368.875
2872.36264	15363.575
2874.8698	15350.975
2877.37543	15354.475
2879.87952	15345.975
2882.38207	15329.875
2884.88308	15352.575
2887.38256	15380.575
2889.88051	15364.375
2892.37692	15356.475
2894.8718	15374.875
2897.36515	15425.075
2899.85698	15451.175
2902.34727	15457.775
2904.83604	15453.075
2907.32328	15491.875
2909.809	15477.175
2912.29319	15476.875
2914.77587	15461.175
2917.25702	15435.775
2919.73665	15419.675
2922.21476	15472.275
2924.69136	15408.075
2927.16644	15424.375
2929.64	15395.675
2932.11205	15388.175
2934.58258	15319.675
2937.05161	15317.775
2939.51912	15296.875
2941.98513	15262.375
2944.44962	15265.075
2946.91261	15256.175
2949.37409	15268.575
2951.83407	15258.975
2954.29254	15266.275
2956.74951	15233.475
2959.20498	15220.675
2961.65895	15195.975
2964.11142	15195.675
2966.56239	15184.575
2969.01186	15155.275
2971.45984	15114.775
2973.90632	15090.675
2976.35131	15060.775
2978.7948	15060.175
2981.23681	15016.875
2983.67732	14999.175
2986.11635	14960.675
2988.55388	14940.075
2990.98993	14905.675
2993.4245	14857.575
2995.85758	14836.475
2998.28917	14761.175
3000.71928	14761.475
3003.14791	14703.075
3005.57506	14721.275
3008.00073	14676.475
3010.42493	14508.875
3012.84764	14614.375
3015.26888	14603.975
3017.68865	14541.675
3020.10694	14564.375
3022.52376	14503.575
3024.9391	14502.975
3027.35298	14521.675
3029.76539	14504.375
3032.17632	14481.475
3034.5858	14460.275
3036.9938	14466.775
3039.40034	14486.075
3041.80542	14489.075
3044.20903	14435.375
3046.61118	14404.975
3049.01187	14374.975
3051.4111	14381.775
3053.80888	14325.875
3056.20519	14296.475
3058.60005	14235.375
3060.99345	14237.675
3063.3854	14215.175
3065.7759	14142.975
3068.16494	14114.875
3070.55254	14085.275
3072.93868	14053.875
3075.32338	14011.775
3077.70662	13972.975
3080.08842	13936.775
3082.46878	13906.375
3084.84769	13904.675
3087.22515	13925.675
3089.60118	13914.775
3091.97576	13893.575
3094.3489	13866.175
3096.72061	13910.175
3099.09087	13886.075
3101.4597	13876.875
3103.82709	13855.175
3106.19305	13824.675
3108.55757	13838.475
3110.92066	13783.375
3113.28232	13758.775
3115.64255	13727.575
3118.00134	13732.875
3120.35871	13718.075
3122.71466	13670.575
3125.06917	13647.275
3127.42226	13618.475
