Data from AgNP_FTO_APTES_UA_10uM_CRN_1uM_R6G_10uM_NaF_0.1M_Addition_RamanShift__6__12-59-40-499.txt Node

Date: Thu Feb 10 12:59:40 GMT 2022
User: TCL
Spectrometer: QEP01345
Trigger mode: 4
Integration Time (sec): 7.000000E0
Scans to average: 10
Electric dark correction enabled: true
Nonlinearity correction enabled: false
Boxcar width: 0
XAxis mode: Raman Shifts
Number of Pixels in Spectrum: 1044
>>>>>Begin Spectral Data<<<<<
46.04893	0.15
50.45542	-0.65
54.85868	-1.95
59.25871	-0.15
63.6555	78.85
68.04907	82.35
72.43941	87.95
76.82654	83.65
81.21044	91.65
85.59113	91.65
89.96862	95.25
94.34289	100.35
98.71396	100.15
103.08183	107.15
107.4465	108.85
111.80798	107.95
116.16626	117.85
120.52136	118.05
124.87327	126.25
129.222	133.65
133.56755	142.35
137.90993	154.95
142.24913	166.95
146.58517	188.95
150.91804	222.85
155.24774	267.15
159.57429	331.25
163.89768	431.65
168.21792	574.75
172.53501	786.75
176.84895	1091.95
181.15975	1538.65
185.46741	2165.55
189.77193	2975.95
194.07331	3988.35
198.37157	5126.55
202.6667	6335.05
206.9587	7531.05
211.24758	8683.15
215.53334	9895.35
219.81599	11153.15
224.09553	12541.45
228.37195	14123.85
232.64527	15797.25
236.91549	17571.35
241.18261	19319.45
245.44663	20890.05
249.70755	22268.85
253.96539	23477.15
258.22014	24490.95
262.4718	25363.85
266.72039	25940.75
270.96589	26171.25
275.20832	26165.25
279.44768	25943.85
283.68397	25602.25
287.91719	25358.45
292.14735	25159.65
296.37445	25155.85
300.59849	25254.75
304.81948	25442.65
309.03742	25559.65
313.25231	25516.25
317.46415	25224.15
321.67296	24713.25
325.87872	24313.95
330.08145	24087.65
334.28114	24068.15
338.47781	24243.95
342.67145	24504.85
346.86207	24950.95
351.04966	25526.75
355.23424	26063.35
359.4158	26487.75
363.59435	26833.65
367.76989	27065.55
371.94243	27140.95
376.11196	27223.15
380.27849	27314.45
384.44203	27433.35
388.60257	27674.75
392.76012	27969.45
396.91468	28339.35
401.06626	28770.55
405.21485	29078.55
409.36047	28963.75
413.50311	28745.05
417.64277	28713.95
421.77947	28914.45
425.9132	29179.85
430.04396	29347.25
434.17176	29377.35
438.2966	29477.95
442.41849	29946.95
446.53742	30770.45
450.6534	31774.45
454.76644	32415.35
458.87653	32449.25
462.98368	32103.25
467.08789	31478.95
471.18916	30808.85
475.2875	29978.25
479.38291	29463.15
483.4754	29147.15
487.56496	28905.65
491.6516	28544.65
495.73531	28369.75
499.81612	28270.35
503.89401	28508.05
507.96899	28760.45
512.04106	28706.15
516.11023	28488.05
520.1765	28163.95
524.23987	27885.65
528.30034	27638.15
532.35792	27377.05
536.41261	26946.05
540.46441	26543.85
544.51333	26439.45
548.55936	26693.65
552.60252	27300.85
556.64279	28008.35
560.6802	28651.75
564.71473	28923.95
568.7464	29352.65
572.7752	30249.35
576.80114	31418.15
580.82422	32905.65
584.84444	34915.25
588.86181	37582.05
592.87633	39774.85
596.888	39459.85
600.89682	36531.15
604.9028	34857.55
608.90594	36479.05
612.90624	38681.95
616.90371	36215.85
620.89834	30679.45
624.89015	28166.85
628.87913	27856.45
632.86528	27971.35
636.84862	27799.65
640.82913	27173.35
644.80683	26394.55
648.78172	25942.55
652.75379	26009.65
656.72306	26402.05
660.68952	26863.75
664.65319	26678.15
668.61405	26122.65
672.57211	26073.35
676.52738	26295.65
680.47986	26259.25
684.42955	26010.65
688.37646	25895.05
692.32058	26138.95
696.26192	26668.45
700.20048	27243.75
704.13626	27435.95
708.06928	27320.45
711.99952	27160.95
715.927	27215.45
719.85171	27392.75
723.77365	27237.05
727.69284	26670.55
731.60928	26097.15
735.52295	25967.95
739.43388	25992.75
743.34206	26101.25
747.24749	26340.35
751.15017	26659.15
755.05012	27184.45
758.94733	27958.85
762.8418	29295.45
766.73354	31272.35
770.62254	33029.15
774.50882	33251.35
778.39237	31789.45
782.27321	29798.15
786.15132	28135.85
790.02671	27064.85
793.89938	26525.15
797.76935	26323.35
801.6366	26255.55
805.50115	26227.35
809.36299	26056.45
813.22213	25808.85
817.07857	25661.85
820.93231	25458.35
824.78336	25333.95
828.63172	25161.05
832.47738	25123.25
836.32036	25168.35
840.16066	25245.45
843.99827	25266.35
847.8332	25308.25
851.66546	25270.15
855.49504	25286.55
859.32195	25272.15
863.1462	25185.15
866.96777	25116.95
870.78668	25074.45
874.60293	25057.95
878.41652	25100.25
882.22745	25213.65
886.03573	25327.25
889.84136	25295.45
893.64433	25206.75
897.44466	25087.05
901.24235	24957.25
905.0374	24936.35
908.8298	24843.05
912.61957	24867.65
916.40671	25092.05
920.19121	25446.25
923.97308	25869.05
927.75233	26053.75
931.52895	25887.15
935.30295	25378.55
939.07433	24860.95
942.84309	24510.95
946.60924	24411.15
950.37278	24454.65
954.13371	24418.85
957.89203	24381.35
961.64774	24321.25
965.40086	24327.95
969.15137	24394.45
972.89929	24327.95
976.64461	24296.55
980.38733	24318.45
984.12747	24466.35
987.86502	24566.25
991.59999	24830.05
995.33237	25224.05
999.06217	25864.05
1002.78939	26695.75
1006.51404	27523.45
1010.23611	28161.35
1013.95561	28560.15
1017.67255	28533.75
1021.38692	28147.85
1025.09872	27489.75
1028.80796	27269.75
1032.51465	27630.65
1036.21877	28120.95
1039.92035	28358.25
1043.61937	28225.85
1047.31584	27765.35
1051.00976	27261.75
1054.70114	27015.25
1058.38998	27038.75
1062.07627	27190.15
1065.76003	27411.45
1069.44126	27773.95
1073.11995	28344.95
1076.79611	28948.75
1080.46974	29255.75
1084.14085	29550.05
1087.80943	29971.55
1091.47549	30216.65
1095.13903	30145.95
1098.80005	29599.95
1102.45857	28806.45
1106.11456	28247.05
1109.76805	27994.25
1113.41903	27922.45
1117.06751	28009.75
1120.71348	28228.25
1124.35696	28501.35
1127.99793	28811.05
1131.63641	29026.35
1135.2724	29058.85
1138.90589	29007.85
1142.5369	29125.45
1146.16542	29389.65
1149.79145	29660.45
1153.415	29884.55
1157.03607	30274.75
1160.65467	31182.25
1164.27079	32783.65
1167.88443	34803.95
1171.49561	36824.15
1175.10432	39290.35
1178.71056	42600.35
1182.31434	45717.95
1185.91565	47325.45
1189.51451	46908.25
1193.11091	45337.25
1196.70485	43519.25
1200.29634	41901.75
1203.88538	40840.75
1207.47197	40409.65
1211.05612	40118.15
1214.63782	39400.45
1218.21708	38264.05
1221.79391	37148.75
1225.36829	36439.35
1228.94024	36018.15
1232.50976	35387.65
1236.07685	34599.65
1239.6415	34032.25
1243.20374	33909.05
1246.76355	34162.75
1250.32093	34862.55
1253.8759	35802.55
1257.42845	37005.05
1260.97859	38250.05
1264.52631	39734.85
1268.07163	41242.55
1271.61453	42641.15
1275.15503	44027.25
1278.69312	45422.45
1282.22882	46754.05
1285.76211	48341.65
1289.29301	50225.55
1292.82151	52591.95
1296.34761	55575.95
1299.87133	59307.35
1303.39266	63402.05
1306.9116	67337.05
1310.42815	70086.65
1313.94233	71308.85
1317.45412	70221.45
1320.96354	68034.95
1324.47058	66240.95
1327.97525	65203.15
1331.47754	64647.95
1334.97747	64099.65
1338.47502	63128.75
1341.97022	61652.65
1345.46305	60130.25
1348.95352	59037.05
1352.44163	59049.95
1355.92738	60957.65
1359.41078	64399.25
1362.89183	67085.55
1366.37053	66333.45
1369.84688	61195.35
1373.32088	53992.65
1376.79254	48947.15
1380.26186	47101.65
1383.72883	47200.55
1387.19347	47221.65
1390.65578	46601.25
1394.11575	46458.15
1397.57339	47133.55
1401.0287	48233.95
1404.48168	49182.25
1407.93234	49500.25
1411.38068	48685.85
1414.82669	47139.05
1418.27039	45172.95
1421.71177	43201.35
1425.15083	41720.65
1428.58758	41229.05
1432.02203	42004.25
1435.45416	43698.05
1438.88399	45350.25
1442.31151	46256.35
1445.73673	46541.25
1449.15965	46428.05
1452.58027	46033.75
1455.9986	45707.85
1459.41463	45905.25
1462.82837	46705.45
1466.23982	47900.55
1469.64898	48856.15
1473.05586	49366.15
1476.46045	49430.55
1479.86276	48880.35
1483.26279	48251.85
1486.66054	47973.85
1490.05602	48222.25
1493.44922	48579.45
1496.84016	48830.85
1500.22882	49240.75
1503.61521	49914.55
1506.99934	51043.95
1510.38121	51819.25
1513.76081	51731.45
1517.13816	50617.15
1520.51324	49147.05
1523.88607	48306.85
1527.25665	48233.15
1530.62498	48476.75
1533.99105	48433.55
1537.35488	47805.55
1540.71647	46826.05
1544.07581	45467.75
1547.4329	44162.75
1550.78776	42986.65
1554.14038	42009.85
1557.49077	41442.15
1560.83892	41100.95
1564.18484	40812.85
1567.52853	40875.25
1570.86999	41210.75
1574.20922	41956.15
1577.54624	42657.15
1580.88103	43093.95
1584.2136	43978.15
1587.54395	46027.95
1590.87208	49530.45
1594.19801	53849.45
1597.52172	57572.35
1600.84321	58327.85
1604.16251	55055.95
1607.47959	49501.95
1610.79447	43882.15
1614.10715	39137.15
1617.41763	35657.25
1620.7259	33505.45
1624.03199	32586.55
1627.33587	32835.45
1630.63757	34179.15
1633.93707	37038.95
1637.23439	41710.35
1640.52951	48665.65
1643.82246	56716.25
1647.11321	62640.75
1650.40179	62562.45
1653.68819	56049.75
1656.97241	46742.35
1660.25446	38625.25
1663.53433	33110.35
1666.81203	29778.75
1670.08756	27827.85
1673.36092	26558.35
1676.63211	25754.25
1679.90115	25173.65
1683.16801	24770.15
1686.43272	24432.45
1689.69527	24199.15
1692.95567	24036.65
1696.2139	23928.85
1699.46999	23814.05
1702.72392	23716.15
1705.97571	23660.25
1709.22535	23600.45
1712.47284	23601.85
1715.71819	23563.85
1718.96139	23511.95
1722.20246	23375.65
1725.44139	23295.35
1728.67818	23101.85
1731.91284	22927.95
1735.14537	22782.45
1738.37576	22744.25
1741.60403	22668.35
1744.83017	22599.95
1748.05418	22460.35
1751.27607	22423.95
1754.49584	22396.35
1757.71349	22347.85
1760.92903	22351.25
1764.14244	22372.85
1767.35375	22351.05
1770.56294	22251.15
1773.77002	22218.05
1776.97499	22170.45
1780.17785	22147.95
1783.37861	22085.15
1786.57727	22060.65
1789.77382	22031.15
1792.96828	21983.45
1796.16064	21924.35
1799.3509	21882.45
1802.53907	21885.15
1805.72514	21817.95
1808.90913	21761.25
1812.09102	21672.75
1815.27083	21666.35
1818.44856	21619.15
1821.6242	21604.85
1824.79776	21609.35
1827.96924	21559.65
1831.13864	21574.85
1834.30597	21629.25
1837.47122	21651.55
1840.6344	21672.75
1843.7955	21594.75
1846.95454	21626.55
1850.11151	21590.85
1853.26642	21610.05
1856.41926	21576.45
1859.57004	21585.55
1862.71876	21576.45
1865.86542	21514.35
1869.01003	21492.65
1872.15258	21480.05
1875.29308	21504.55
1878.43152	21474.35
1881.56792	21445.65
1884.70227	21437.45
1887.83457	21410.55
1890.96482	21373.45
1894.09304	21298.65
1897.21921	21236.75
1900.34335	21279.55
1903.46544	21264.85
1906.58551	21236.95
1909.70353	21148.85
1912.81953	21152.25
1915.93349	21112.25
1919.04543	21062.55
1922.15534	21012.25
1925.26322	20947.65
1928.36908	20903.15
1931.47292	20867.65
1934.57473	20816.65
1937.67453	20765.15
1940.77232	20748.25
1943.86808	20668.65
1946.96184	20603.35
1950.05358	20545.95
1953.14331	20526.35
1956.23103	20463.95
1959.31675	20395.15
1962.40046	20354.45
1965.48217	20276.95
1968.56188	20236.55
1971.63959	20170.55
1974.7153	20099.75
1977.78901	20089.25
1980.86073	19988.25
1983.93046	19927.75
1986.99819	19891.25
1990.06394	19824.55
1993.1277	19740.35
1996.18947	19720.75
1999.24925	19638.95
2002.30706	19622.35
2005.36288	19572.95
2008.41672	19505.95
2011.46859	19464.15
2014.51848	19412.15
2017.56639	19371.05
2020.61233	19349.05
2023.6563	19310.05
2026.6983	19296.75
2029.73833	19253.35
2032.7764	19198.25
2035.8125	19178.75
2038.84664	19127.35
2041.87881	19089.85
2044.90903	19099.35
2047.93729	19036.85
2050.96359	19052.85
2053.98794	19060.75
2057.01034	19009.15
2060.03078	19010.95
2063.04927	18957.25
2066.06582	18967.75
2069.08042	18940.55
2072.09307	18917.05
2075.10378	18885.55
2078.11255	18859.15
2081.11938	18890.15
2084.12426	18853.45
2087.12722	18871.55
2090.12824	18863.35
2093.12732	18854.35
2096.12447	18826.75
2099.11969	18839.25
2102.11299	18848.75
2105.10435	18909.15
2108.09379	18906.65
2111.08131	18884.75
2114.0669	18879.75
2117.05057	18929.85
2120.03233	18948.95
2123.01216	18967.45
2125.99008	18959.15
2128.96609	18984.85
2131.94018	18979.85
2134.91236	19037.55
2137.88263	19023.25
2140.851	19009.45
2143.81746	19025.35
2146.78201	19028.05
2149.74466	19050.35
2152.7054	19011.45
2155.66425	18991.85
2158.6212	18999.15
2161.57625	18969.75
2164.52941	18955.45
2167.48067	18968.25
2170.43004	18964.65
2173.37752	18999.85
2176.32311	18993.35
2179.26681	19029.55
2182.20863	18986.55
2185.14856	19013.75
2188.08661	19028.65
2191.02278	19014.85
2193.95707	19025.25
2196.88948	19011.05
2199.82001	18995.45
2202.74867	18993.95
2205.67545	18951.45
2208.60037	18937.25
2211.52341	18892.25
2214.44458	18891.75
2217.36388	18892.15
2220.28132	18839.75
2223.1969	18828.55
2226.11061	18789.85
2229.02246	18785.45
2231.93245	18796.05
2234.84058	18753.75
2237.74686	18737.15
2240.65128	18717.15
2243.55385	18663.15
2246.45456	18631.15
2249.35343	18575.75
2252.25044	18582.15
2255.14561	18520.65
2258.03893	18514.65
2260.93041	18470.95
2263.82004	18411.55
2266.70783	18379.45
2269.59378	18313.95
2272.4779	18288.45
2275.36017	18246.35
2278.24061	18239.45
2281.11922	18243.95
2283.996	18202.15
2286.87094	18171.55
2289.74405	18158.95
2292.61534	18149.75
2295.4848	18149.15
2298.35243	18179.35
2301.21824	18147.35
2304.08223	18198.65
2306.94439	18166.85
2309.80474	18141.85
2312.66327	18187.65
2315.51999	18203.35
2318.37489	18157.05
2321.22797	18167.75
2324.07925	18161.05
2326.92871	18145.75
2329.77637	18125.25
2332.62222	18123.85
2335.46626	18069.85
2338.3085	18099.35
2341.14893	18092.65
2343.98756	18104.55
2346.8244	18104.75
2349.65943	18103.45
2352.49267	18096.75
2355.32411	18122.75
2358.15376	18086.85
2360.98161	18115.45
2363.80768	18108.65
2366.63195	18074.15
2369.45444	18010.75
2372.27514	18002.85
2375.09405	17983.85
2377.91118	17965.95
2380.72652	17924.45
2383.54009	17867.05
2386.35187	17842.05
2389.16188	17800.55
2391.97011	17779.65
2394.77657	17747.95
2397.58125	17749.75
2400.38416	17720.75
2403.18529	17685.25
2405.98466	17632.75
2408.78226	17628.85
2411.57809	17623.75
2414.37216	17642.85
2417.16446	17602.55
2419.955	17577.15
2422.74378	17576.65
2425.5308	17578.85
2428.31606	17557.85
2431.09956	17580.55
2433.88131	17551.15
2436.6613	17578.15
2439.43954	17586.25
2442.21603	17571.25
2444.99077	17521.05
2447.76377	17531.75
2450.53501	17512.05
2453.30451	17537.45
2456.07226	17530.25
2458.83827	17542.45
2461.60254	17557.55
2464.36507	17521.75
2467.12586	17550.45
2469.88492	17541.95
2472.64224	17553.75
2475.39782	17558.75
2478.15167	17589.35
2480.90379	17610.45
2483.65417	17652.75
2486.40283	17604.85
2489.14976	17603.65
2491.89497	17582.95
2494.63845	17615.75
2497.3802	17607.15
2500.12024	17586.75
2502.85855	17595.95
2505.59514	17578.15
2508.33002	17546.35
2511.06318	17545.05
2513.79462	17535.45
2516.52435	17540.45
2519.25237	17554.55
2521.97867	17499.75
2524.70327	17519.35
2527.42616	17535.75
2530.14734	17548.05
2532.86681	17489.35
2535.58458	17535.85
2538.30065	17509.85
2541.01501	17545.65
2543.72768	17545.45
2546.43864	17545.95
2549.14791	17478.45
2551.85548	17516.15
2554.56136	17524.55
2557.26554	17476.05
2559.96803	17451.45
2562.66883	17409.95
2565.36794	17432.65
2568.06536	17404.55
2570.7611	17384.35
2573.45514	17403.25
2576.14751	17417.45
2578.83819	17404.45
2581.52719	17397.25
2584.21451	17381.35
2586.90015	17395.45
2589.58411	17364.05
2592.2664	17368.65
2594.94701	17326.75
2597.62594	17335.65
2600.30321	17352.15
2602.9788	17301.85
2605.65273	17296.95
2608.32498	17376.25
2610.99557	17323.95
2613.66449	17352.95
2616.33175	17338.05
2618.99734	17321.05
2621.66128	17289.75
2624.32355	17301.25
2626.98416	17276.95
2629.64311	17277.15
2632.30041	17237.45
2634.95605	17240.45
2637.61004	17232.25
2640.26238	17224.25
2642.91306	17245.55
2645.56209	17248.55
2648.20948	17227.55
2650.85521	17262.25
2653.4993	17202.45
2656.14175	17229.35
2658.78255	17300.35
2661.42171	17303.85
2664.05923	17341.65
2666.6951	17379.95
2669.32934	17367.95
2671.96194	17347.45
2674.59291	17357.65
2677.22224	17337.25
2679.84993	17336.45
2682.476	17327.65
2685.10043	17363.75
2687.72324	17320.55
2690.34441	17306.55
2692.96396	17314.35
2695.58188	17295.15
2698.19818	17263.25
2700.81285	17292.35
2703.4259	17313.35
2706.03733	17343.55
2708.64714	17285.85
2711.25533	17370.15
2713.86191	17350.05
2716.46687	17373.55
2719.07021	17377.95
2721.67194	17424.55
2724.27206	17475.75
2726.87057	17446.35
2729.46747	17457.95
2732.06276	17495.05
2734.65644	17504.85
2737.24852	17501.55
2739.83899	17470.05
2742.42786	17514.55
2745.01513	17482.25
2747.60079	17483.95
2750.18486	17466.75
2752.76733	17419.45
2755.3482	17421.95
2757.92747	17441.45
2760.50515	17435.05
2763.08123	17417.75
2765.65573	17383.95
2768.22863	17407.95
2770.79994	17394.85
2773.36967	17395.55
2775.9378	17394.55
2778.50435	17379.75
2781.06932	17407.45
2783.6327	17400.05
2786.1945	17411.25
2788.75471	17385.75
2791.31335	17365.55
2793.87041	17350.95
2796.42589	17322.95
2798.97979	17303.95
2801.53212	17311.65
2804.08288	17283.65
2806.63206	17219.35
2809.17967	17193.75
2811.72571	17157.05
2814.27018	17137.45
2816.81308	17101.85
2819.35442	17071.95
2821.89419	17066.75
2824.43239	17036.55
2826.96904	17022.25
2829.50412	17009.55
2832.03763	16959.65
2834.56959	16988.45
2837.1	16937.95
2839.62884	16922.05
2842.15613	16955.05
2844.68186	16983.25
2847.20604	16971.75
2849.72867	16992.35
2852.24974	16987.85
2854.76927	16954.15
2857.28724	16950.75
2859.80367	16928.15
2862.31855	16870.85
2864.83189	16913.55
2867.34368	16882.55
2869.85393	16869.75
2872.36264	16858.05
2874.8698	16835.45
2877.37543	16859.95
2879.87952	16854.35
2882.38207	16860.45
2884.88308	16857.65
2887.38256	16866.75
2889.88051	16855.35
2892.37692	16857.65
2894.8718	16896.35
2897.36515	16910.35
2899.85698	16921.05
2902.34727	16943.75
2904.83604	16955.95
2907.32328	17022.15
2909.809	17002.65
2912.29319	16985.25
2914.77587	16958.15
2917.25702	17001.75
2919.73665	16935.15
2922.21476	16952.95
2924.69136	16920.85
2927.16644	16921.35
2929.64	16908.15
2932.11205	16927.15
2934.58258	16844.55
2937.05161	16868.15
2939.51912	16876.45
2941.98513	16878.35
2944.44962	16777.95
2946.91261	16775.55
2949.37409	16811.65
2951.83407	16800.85
2954.29254	16799.65
2956.74951	16810.85
2959.20498	16752.05
2961.65895	16718.15
2964.11142	16708.45
2966.56239	16700.25
2969.01186	16703.35
2971.45984	16682.65
2973.90632	16660.15
2976.35131	16583.05
2978.7948	16577.35
2981.23681	16529.15
2983.67732	16504.15
2986.11635	16446.35
2988.55388	16429.95
2990.98993	16373.75
2993.4245	16347.05
2995.85758	16329.65
2998.28917	16289.05
3000.71928	16222.95
3003.14791	16244.35
3005.57506	16188.15
3008.00073	16142.45
3010.42493	16133.35
3012.84764	16092.55
3015.26888	16088.45
3017.68865	16004.05
3020.10694	15972.25
3022.52376	15938.55
3024.9391	15969.75
3027.35298	15935.85
3029.76539	15901.35
3032.17632	15938.65
3034.5858	15888.75
3036.9938	15883.55
3039.40034	15905.75
3041.80542	15908.05
3044.20903	15865.95
3046.61118	15838.35
3049.01187	15789.05
3051.4111	15794.35
3053.80888	15777.25
3056.20519	15718.05
3058.60005	15696.05
3060.99345	15657.35
3063.3854	15612.75
3065.7759	15563.05
3068.16494	15513.75
3070.55254	15466.35
3072.93868	15452.35
3075.32338	15442.25
3077.70662	15365.25
3080.08842	15355.55
3082.46878	15366.35
3084.84769	15322.85
3087.22515	15299.95
3089.60118	15279.15
3091.97576	15252.85
3094.3489	15275.25
3096.72061	15240.75
3099.09087	15255.25
3101.4597	15246.05
3103.82709	15246.55
3106.19305	15209.75
3108.55757	15206.75
3110.92066	15179.05
3113.28232	15164.65
3115.64255	15112.55
3118.00134	15076.25
3120.35871	15037.35
3122.71466	15036.95
3125.06917	14965.25
3127.42226	14947.65
3129.77393	14964.65
3132.12417	14931.45
3134.47299	14918.35
3136.82039	14924.05
3139.16636	14894.35
3141.51092	14915.95
3143.85406	14887.45
3146.19579	14881.75
3148.53609	14862.75
3150.87499	14875.85
3153.21246	14885.65
3155.54853	14878.45
3157.88318	14843.45
3160.21642	14853.85
3162.54826	14878.05
3164.87868	14850.25
3167.2077	14861.35
3169.5353	14894.05
3171.86151	14879.15
3174.18631	14880.35
3176.5097	14817.65
3178.83169	14809.55
3181.15228	14786.95
3183.47147	14808.85
3185.78926	14799.35
3188.10565	14735.85
3190.42065	14754.05
3192.73424	14719.65
3195.04645	14716.75
3197.35725	14672.85
3199.66667	14642.05
3201.97469	14654.55
3204.28132	14673.35
3206.58656	14668.45
3208.8904	14689.15
3211.19287	14672.75
3213.49394	14695.25
3215.79363	14687.85
3218.09193	14671.25
3220.38884	14642.75
3222.68438	14681.95
3224.97853	14669.25
3227.2713	14720.65
3229.56269	14690.65
3231.8527	14667.95
3234.14133	14606.95
3236.42858	14581.85
3238.71446	14573.75
