Data from AgNP_FTO_APTES_UA_10uM_CRN_1uM_R6G_10uM_NaF_0.1M_Addition_RamanShift__20__13-16-00-520.txt Node

Date: Thu Feb 10 13:16:00 GMT 2022
User: TCL
Spectrometer: QEP01345
Trigger mode: 4
Integration Time (sec): 7.000000E0
Scans to average: 10
Electric dark correction enabled: true
Nonlinearity correction enabled: false
Boxcar width: 0
XAxis mode: Raman Shifts
Number of Pixels in Spectrum: 1044
>>>>>Begin Spectral Data<<<<<
46.04893	-0.575
50.45542	-1.075
54.85868	-2.275
59.25871	-1.175
63.6555	78.525
68.04907	82.225
72.43941	87.225
76.82654	83.225
81.21044	95.025
85.59113	92.125
89.96862	94.625
94.34289	99.425
98.71396	104.225
103.08183	108.625
107.4465	107.825
111.80798	108.925
116.16626	117.225
120.52136	120.525
124.87327	121.525
129.222	127.325
133.56755	143.525
137.90993	154.225
142.24913	161.125
146.58517	188.525
150.91804	218.925
155.24774	259.125
159.57429	329.425
163.89768	416.025
168.21792	559.025
172.53501	760.925
176.84895	1064.825
181.15975	1493.625
185.46741	2112.825
189.77193	2897.025
194.07331	3858.425
198.37157	4977.625
202.6667	6169.525
206.9587	7308.125
211.24758	8466.225
215.53334	9627.125
219.81599	10853.025
224.09553	12280.025
228.37195	13787.425
232.64527	15478.425
236.91549	17239.625
241.18261	18951.025
245.44663	20531.425
249.70755	21891.225
253.96539	23123.225
258.22014	24149.325
262.4718	25046.325
266.72039	25673.125
270.96589	26032.225
275.20832	26134.225
279.44768	25962.825
283.68397	25710.525
287.91719	25542.825
292.14735	25435.525
296.37445	25495.425
300.59849	25707.125
304.81948	25885.825
309.03742	25916.825
313.25231	25638.725
317.46415	24921.925
321.67296	24063.625
325.87872	23302.125
330.08145	22927.925
334.28114	22946.225
338.47781	23144.525
342.67145	23484.725
346.86207	23949.025
351.04966	24607.625
355.23424	25326.525
359.4158	25865.025
363.59435	26235.125
367.76989	26524.425
371.94243	26664.125
376.11196	26735.025
380.27849	26830.425
384.44203	26929.125
388.60257	27054.625
392.76012	27208.025
396.91468	27565.925
401.06626	27996.525
405.21485	28400.825
409.36047	28265.625
413.50311	27780.625
417.64277	27289.625
421.77947	27151.625
425.9132	27217.725
430.04396	27373.525
434.17176	27509.525
438.2966	27771.125
442.41849	28294.525
446.53742	29129.825
450.6534	30042.825
454.76644	30760.225
458.87653	30964.425
462.98368	30759.425
467.08789	30308.825
471.18916	29673.925
475.2875	29152.125
479.38291	28813.325
483.4754	28610.325
487.56496	28339.025
491.6516	27870.225
495.73531	27513.925
499.81612	27368.125
503.89401	27467.625
507.96899	27550.825
512.04106	27530.825
516.11023	27429.725
520.1765	27256.125
524.23987	27099.925
528.30034	26839.525
532.35792	26509.425
536.41261	26051.025
540.46441	25696.025
544.51333	25635.425
548.55936	25947.125
552.60252	26588.925
556.64279	27258.225
560.6802	27665.125
564.71473	27864.125
568.7464	28385.825
572.7752	29051.625
576.80114	29530.125
580.82422	29928.325
584.84444	30319.525
588.86181	30704.625
592.87633	31241.225
596.888	31484.725
600.89682	31460.525
604.9028	32612.825
608.90594	36419.525
612.90624	40527.725
616.90371	38143.525
620.89834	31041.025
624.89015	27968.125
628.87913	27618.925
632.86528	27509.025
636.84862	27137.825
640.82913	26569.725
644.80683	25713.225
648.78172	25081.525
652.75379	24977.625
656.72306	25410.225
660.68952	26025.725
664.65319	25999.025
668.61405	25381.825
672.57211	25130.125
676.52738	25160.525
680.47986	25123.425
684.42955	24979.725
688.37646	24986.525
692.32058	25145.525
696.26192	25490.925
700.20048	25854.225
704.13626	25997.425
708.06928	25882.425
711.99952	25617.925
715.927	25523.125
719.85171	25578.825
723.77365	25502.225
727.69284	25158.625
731.60928	24831.925
735.52295	24781.125
739.43388	24788.825
743.34206	24936.425
747.24749	25151.025
751.15017	25397.125
755.05012	25848.025
758.94733	26686.325
762.8418	28380.125
766.73354	30859.225
770.62254	33407.025
774.50882	34109.525
778.39237	32495.625
782.27321	29710.625
786.15132	27364.025
790.02671	25967.925
793.89938	25352.525
797.76935	25106.825
801.6366	25070.525
805.50115	24971.525
809.36299	24812.825
813.22213	24552.925
817.07857	24449.725
820.93231	24341.825
824.78336	24242.325
828.63172	24241.325
832.47738	24285.025
836.32036	24339.625
840.16066	24489.225
843.99827	24605.425
847.8332	24584.425
851.66546	24397.425
855.49504	24324.425
859.32195	24244.125
863.1462	24157.225
866.96777	23982.725
870.78668	23936.825
874.60293	23921.625
878.41652	23903.325
882.22745	23974.425
886.03573	24112.025
889.84136	24069.325
893.64433	23982.825
897.44466	23849.125
901.24235	23778.425
905.0374	23695.625
908.8298	23646.625
912.61957	23655.125
916.40671	23911.825
920.19121	24276.525
923.97308	24700.625
927.75233	24947.325
931.52895	24926.325
935.30295	24651.925
939.07433	23974.125
942.84309	23527.225
946.60924	23351.625
950.37278	23292.825
954.13371	23172.425
957.89203	23003.125
961.64774	22881.325
965.40086	22819.825
969.15137	22736.025
972.89929	22603.825
976.64461	22577.625
980.38733	22641.425
984.12747	22785.325
987.86502	23072.525
991.59999	23473.925
995.33237	24208.125
999.06217	25286.525
1002.78939	26493.325
1006.51404	27119.725
1010.23611	27379.725
1013.95561	27628.225
1017.67255	27622.825
1021.38692	27242.825
1025.09872	26947.225
1028.80796	27400.825
1032.51465	28665.625
1036.21877	29816.925
1039.92035	29899.825
1043.61937	29211.625
1047.31584	28097.025
1051.00976	26834.325
1054.70114	26190.225
1058.38998	26051.325
1062.07627	26057.025
1065.76003	26092.925
1069.44126	26228.825
1073.11995	26528.225
1076.79611	26911.125
1080.46974	27176.225
1084.14085	27494.025
1087.80943	27953.225
1091.47549	28189.125
1095.13903	27993.825
1098.80005	27472.525
1102.45857	26876.825
1106.11456	26430.625
1109.76805	26368.725
1113.41903	26495.525
1117.06751	26729.125
1120.71348	27136.225
1124.35696	27468.625
1127.99793	27874.325
1131.63641	28052.825
1135.2724	27813.525
1138.90589	27455.925
1142.5369	27255.925
1146.16542	27143.325
1149.79145	27189.625
1153.415	27307.525
1157.03607	27668.425
1160.65467	28333.725
1164.27079	29518.525
1167.88443	31262.325
1171.49561	33601.225
1175.10432	36662.025
1178.71056	40623.325
1182.31434	44394.825
1185.91565	46496.225
1189.51451	46412.125
1193.11091	44589.825
1196.70485	41938.425
1200.29634	39593.425
1203.88538	37772.325
1207.47197	36403.325
1211.05612	35387.825
1214.63782	34674.125
1218.21708	34376.325
1221.79391	34390.525
1225.36829	34549.325
1228.94024	34263.225
1232.50976	33596.525
1236.07685	32947.825
1239.6415	32467.625
1243.20374	32360.125
1246.76355	32538.125
1250.32093	33014.325
1253.8759	33957.725
1257.42845	35184.825
1260.97859	36342.125
1264.52631	37480.325
1268.07163	38728.625
1271.61453	40050.525
1275.15503	41584.225
1278.69312	43092.325
1282.22882	44355.225
1285.76211	45186.225
1289.29301	46022.825
1292.82151	47111.125
1296.34761	48839.825
1299.87133	51514.725
1303.39266	55126.125
1306.9116	59612.225
1310.42815	64187.625
1313.94233	67190.325
1317.45412	67188.625
1320.96354	65355.925
1324.47058	63038.225
1327.97525	61036.925
1331.47754	59681.325
1334.97747	59043.225
1338.47502	58946.325
1341.97022	58837.525
1345.46305	58236.025
1348.95352	57277.625
1352.44163	56816.925
1355.92738	57911.125
1359.41078	61125.025
1362.89183	64198.525
1366.37053	62935.325
1369.84688	57044.325
1373.32088	50394.325
1376.79254	45751.025
1380.26186	43757.025
1383.72883	43167.025
1387.19347	42751.425
1390.65578	42160.825
1394.11575	42107.925
1397.57339	42596.825
1401.0287	43611.825
1404.48168	44659.525
1407.93234	45331.125
1411.38068	45239.325
1414.82669	44279.625
1418.27039	42671.525
1421.71177	40855.825
1425.15083	39310.225
1428.58758	38505.225
1432.02203	38538.725
1435.45416	39267.325
1438.88399	40109.925
1442.31151	40903.425
1445.73673	41461.625
1449.15965	42001.125
1452.58027	42308.825
1455.9986	42436.825
1459.41463	42750.625
1462.82837	43420.925
1466.23982	44404.725
1469.64898	45301.625
1473.05586	45866.325
1476.46045	45922.925
1479.86276	45707.525
1483.26279	45374.925
1486.66054	45241.025
1490.05602	45484.125
1493.44922	45840.425
1496.84016	46240.125
1500.22882	47027.625
1503.61521	48574.525
1506.99934	50632.925
1510.38121	52580.525
1513.76081	53256.625
1517.13816	51887.825
1520.51324	49214.525
1523.88607	46591.125
1527.25665	44949.025
1530.62498	43969.225
1533.99105	43442.125
1537.35488	43109.425
1540.71647	42749.025
1544.07581	42260.125
1547.4329	41625.325
1550.78776	41008.325
1554.14038	40525.325
1557.49077	40258.125
1560.83892	40166.225
1564.18484	40084.125
1567.52853	40116.025
1570.86999	40254.725
1574.20922	40611.525
1577.54624	40815.225
1580.88103	40724.525
1584.2136	40769.225
1587.54395	41868.525
1590.87208	44291.225
1594.19801	47805.725
1597.52172	51322.325
1600.84321	52623.825
1604.16251	50364.825
1607.47959	46101.025
1610.79447	41581.825
1614.10715	37398.325
1617.41763	34168.625
1620.7259	32081.625
1624.03199	31041.625
1627.33587	31096.425
1630.63757	32252.325
1633.93707	34516.725
1637.23439	38071.625
1640.52951	42596.925
1643.82246	47471.525
1647.11321	50960.125
1650.40179	51317.625
1653.68819	47664.825
1656.97241	41341.125
1660.25446	35103.225
1663.53433	30465.925
1666.81203	27534.825
1670.08756	25732.025
1673.36092	24614.425
1676.63211	23833.425
1679.90115	23309.325
1683.16801	22893.225
1686.43272	22648.025
1689.69527	22416.025
1692.95567	22278.625
1696.2139	22158.725
1699.46999	22061.625
1702.72392	22015.425
1705.97571	21946.325
1709.22535	21896.925
1712.47284	21851.725
1715.71819	21837.925
1718.96139	21771.125
1722.20246	21664.625
1725.44139	21570.125
1728.67818	21406.025
1731.91284	21253.925
1735.14537	21155.425
1738.37576	21084.325
1741.60403	21013.225
1744.83017	20915.425
1748.05418	20882.825
1751.27607	20801.425
1754.49584	20762.025
1757.71349	20743.825
1760.92903	20762.225
1764.14244	20760.025
1767.35375	20763.825
1770.56294	20697.525
1773.77002	20622.225
1776.97499	20578.125
1780.17785	20530.725
1783.37861	20527.125
1786.57727	20530.625
1789.77382	20490.725
1792.96828	20390.425
1796.16064	20392.725
1799.3509	20374.125
1802.53907	20334.425
1805.72514	20299.225
1808.90913	20250.025
1812.09102	20165.825
1815.27083	20154.925
1818.44856	20111.425
1821.6242	20075.125
1824.79776	20037.925
1827.96924	20057.125
1831.13864	20062.525
1834.30597	20075.925
1837.47122	20096.825
1840.6344	20132.925
1843.7955	20118.925
1846.95454	20146.225
1850.11151	20134.925
1853.26642	20145.725
1856.41926	20156.725
1859.57004	20178.925
1862.71876	20170.825
1865.86542	20185.325
1869.01003	20170.625
1872.15258	20155.025
1875.29308	20161.425
1878.43152	20163.425
1881.56792	20144.625
1884.70227	20174.825
1887.83457	20140.425
1890.96482	20154.625
1894.09304	20140.125
1897.21921	20085.725
1900.34335	20108.925
1903.46544	20124.825
1906.58551	20133.025
1909.70353	20112.125
1912.81953	20093.925
1915.93349	20025.725
1919.04543	19984.625
1922.15534	19918.125
1925.26322	19832.325
1928.36908	19775.925
1931.47292	19742.325
1934.57473	19660.425
1937.67453	19614.225
1940.77232	19539.125
1943.86808	19458.025
1946.96184	19372.725
1950.05358	19254.425
1953.14331	19181.125
1956.23103	19150.125
1959.31675	19076.325
1962.40046	18981.925
1965.48217	18942.325
1968.56188	18917.425
1971.63959	18829.525
1974.7153	18790.925
1977.78901	18755.425
1980.86073	18695.625
1983.93046	18617.825
1986.99819	18554.525
1990.06394	18516.525
1993.1277	18429.325
1996.18947	18367.125
1999.24925	18337.725
2002.30706	18291.425
2005.36288	18244.725
2008.41672	18168.925
2011.46859	18120.625
2014.51848	18124.325
2017.56639	18083.525
2020.61233	18015.225
2023.6563	18010.525
2026.6983	17955.825
2029.73833	17955.125
2032.7764	17921.825
2035.8125	17868.925
2038.84664	17864.225
2041.87881	17829.925
2044.90903	17841.125
2047.93729	17822.525
2050.96359	17771.425
2053.98794	17748.925
2057.01034	17733.425
2060.03078	17725.225
2063.04927	17702.625
2066.06582	17659.225
2069.08042	17632.925
2072.09307	17614.225
2075.10378	17618.125
2078.11255	17624.425
2081.11938	17613.225
2084.12426	17593.525
2087.12722	17578.125
2090.12824	17532.225
2093.12732	17543.825
2096.12447	17538.625
2099.11969	17509.125
2102.11299	17572.125
2105.10435	17555.125
2108.09379	17592.825
2111.08131	17553.525
2114.0669	17561.825
2117.05057	17575.225
2120.03233	17609.525
2123.01216	17609.725
2125.99008	17636.725
2128.96609	17624.425
2131.94018	17640.225
2134.91236	17677.425
2137.88263	17668.825
2140.851	17674.425
2143.81746	17701.125
2146.78201	17736.225
2149.74466	17692.925
2152.7054	17733.125
2155.66425	17668.125
2158.6212	17689.325
2161.57625	17675.425
2164.52941	17685.325
2167.48067	17610.425
2170.43004	17660.125
2173.37752	17636.025
2176.32311	17677.825
2179.26681	17698.425
2182.20863	17681.725
2185.14856	17680.425
2188.08661	17653.825
2191.02278	17693.025
2193.95707	17701.025
2196.88948	17690.525
2199.82001	17713.325
2202.74867	17707.325
2205.67545	17706.125
2208.60037	17710.325
2211.52341	17684.925
2214.44458	17663.925
2217.36388	17675.925
2220.28132	17672.925
2223.1969	17582.525
2226.11061	17614.525
2229.02246	17570.325
2231.93245	17519.325
2234.84058	17513.225
2237.74686	17440.525
2240.65128	17421.025
2243.55385	17348.725
2246.45456	17397.425
2249.35343	17330.625
2252.25044	17326.625
2255.14561	17291.225
2258.03893	17288.325
2260.93041	17237.725
2263.82004	17220.825
2266.70783	17160.625
2269.59378	17131.225
2272.4779	17103.225
2275.36017	17045.425
2278.24061	17036.825
2281.11922	16997.325
2283.996	16991.225
2286.87094	16960.225
2289.74405	16903.525
2292.61534	16916.325
2295.4848	16948.025
2298.35243	16943.925
2301.21824	16956.125
2304.08223	16986.125
2306.94439	17027.625
2309.80474	17028.225
2312.66327	17041.325
2315.51999	17064.325
2318.37489	17116.125
2321.22797	17094.325
2324.07925	17060.925
2326.92871	17019.825
2329.77637	17022.925
2332.62222	17038.225
2335.46626	17032.225
2338.3085	17033.025
2341.14893	17058.525
2343.98756	17112.025
2346.8244	17119.525
2349.65943	17105.125
2352.49267	17135.025
2355.32411	17109.425
2358.15376	17123.025
2360.98161	17071.925
2363.80768	17057.625
2366.63195	17060.325
2369.45444	16991.125
2372.27514	16961.325
2375.09405	16940.325
2377.91118	16893.925
2380.72652	16818.725
2383.54009	16801.525
2386.35187	16744.425
2389.16188	16716.625
2391.97011	16717.525
2394.77657	16658.925
2397.58125	16600.025
2400.38416	16612.625
2403.18529	16584.225
2405.98466	16564.825
2408.78226	16511.625
2411.57809	16471.925
2414.37216	16495.525
2417.16446	16438.525
2419.955	16368.125
2422.74378	16382.525
2425.5308	16349.625
2428.31606	16381.725
2431.09956	16392.325
2433.88131	16380.625
2436.6613	16393.025
2439.43954	16381.925
2442.21603	16388.425
2444.99077	16391.925
2447.76377	16356.725
2450.53501	16361.125
2453.30451	16367.325
2456.07226	16324.625
2458.83827	16392.825
2461.60254	16412.325
2464.36507	16370.525
2467.12586	16349.025
2469.88492	16372.025
2472.64224	16385.625
2475.39782	16440.325
2478.15167	16392.925
2480.90379	16417.025
2483.65417	16483.925
2486.40283	16466.025
2489.14976	16490.025
2491.89497	16509.725
2494.63845	16525.125
2497.3802	16511.525
2500.12024	16486.725
2502.85855	16482.625
2505.59514	16504.525
2508.33002	16484.125
2511.06318	16444.725
2513.79462	16402.925
2516.52435	16389.325
2519.25237	16379.525
2521.97867	16373.425
2524.70327	16369.325
2527.42616	16377.025
2530.14734	16369.525
2532.86681	16383.225
2535.58458	16355.725
2538.30065	16375.625
2541.01501	16389.325
2543.72768	16351.825
2546.43864	16379.325
2549.14791	16353.025
2551.85548	16368.125
2554.56136	16335.325
2557.26554	16291.425
2559.96803	16282.125
2562.66883	16230.725
2565.36794	16247.125
2568.06536	16246.025
2570.7611	16222.525
2573.45514	16224.525
2576.14751	16214.225
2578.83819	16246.825
2581.52719	16231.725
2584.21451	16231.225
2586.90015	16249.125
2589.58411	16230.725
2592.2664	16246.425
2594.94701	16241.225
2597.62594	16259.425
2600.30321	16201.325
2602.9788	16228.225
2605.65273	16197.825
2608.32498	16238.225
2610.99557	16220.825
2613.66449	16225.725
2616.33175	16224.425
2618.99734	16218.325
2621.66128	16238.125
2624.32355	16281.625
2626.98416	16265.425
2629.64311	16263.825
2632.30041	16277.225
2634.95605	16245.125
2637.61004	16220.525
2640.26238	16208.125
2642.91306	16212.025
2645.56209	16203.125
2648.20948	16121.925
2650.85521	16153.725
2653.4993	16137.125
2656.14175	16153.825
2658.78255	16145.225
2661.42171	16141.625
2664.05923	16201.225
2666.6951	16205.225
2669.32934	16216.825
2671.96194	16228.725
2674.59291	16238.725
2677.22224	16214.525
2679.84993	16211.025
2682.476	16224.625
2685.10043	16207.725
2687.72324	16124.425
2690.34441	16128.925
2692.96396	16116.225
2695.58188	16088.725
2698.19818	16068.525
2700.81285	16081.525
2703.4259	16056.225
2706.03733	16056.925
2708.64714	16093.025
2711.25533	16130.625
2713.86191	16103.325
2716.46687	16121.525
2719.07021	16109.525
2721.67194	16186.225
2724.27206	16146.325
2726.87057	16192.325
2729.46747	16189.125
2732.06276	16210.925
2734.65644	16213.025
2737.24852	16211.825
2739.83899	16179.225
2742.42786	16178.225
2745.01513	16173.325
2747.60079	16182.725
2750.18486	16151.925
2752.76733	16137.625
2755.3482	16143.325
2757.92747	16171.125
2760.50515	16120.525
2763.08123	16125.125
2765.65573	16073.225
2768.22863	16113.525
2770.79994	16080.425
2773.36967	16068.025
2775.9378	16100.325
2778.50435	16088.725
2781.06932	16071.025
2783.6327	16106.125
2786.1945	16138.725
2788.75471	16100.925
2791.31335	16038.825
2793.87041	16055.125
2796.42589	16000.325
2798.97979	16036.525
2801.53212	15996.325
2804.08288	15980.625
2806.63206	15930.025
2809.17967	15879.825
2811.72571	15899.325
2814.27018	15883.425
2816.81308	15836.825
2819.35442	15814.025
2821.89419	15797.725
2824.43239	15860.325
2826.96904	15813.125
2829.50412	15792.525
2832.03763	15765.325
2834.56959	15778.825
2837.1	15736.025
2839.62884	15735.825
2842.15613	15752.825
2844.68186	15744.825
2847.20604	15769.025
2849.72867	15797.925
2852.24974	15786.125
2854.76927	15782.625
2857.28724	15732.525
2859.80367	15689.525
2862.31855	15660.425
2864.83189	15704.625
2867.34368	15656.925
2869.85393	15687.725
2872.36264	15664.425
2874.8698	15669.725
2877.37543	15686.825
2879.87952	15707.525
2882.38207	15704.425
2884.88308	15641.125
2887.38256	15688.025
2889.88051	15683.125
2892.37692	15719.325
2894.8718	15706.225
2897.36515	15732.225
2899.85698	15734.825
2902.34727	15772.825
2904.83604	15809.325
2907.32328	15844.025
2909.809	15842.825
2912.29319	15865.125
2914.77587	15845.925
2917.25702	15818.425
2919.73665	15809.425
2922.21476	15787.225
2924.69136	15741.425
2927.16644	15784.025
2929.64	15691.125
2932.11205	15728.425
2934.58258	15650.025
2937.05161	15663.925
2939.51912	15655.425
2941.98513	15643.425
2944.44962	15586.925
2946.91261	15591.125
2949.37409	15574.025
2951.83407	15571.925
2954.29254	15542.125
2956.74951	15549.425
2959.20498	15558.125
2961.65895	15500.425
2964.11142	15536.625
2966.56239	15478.725
2969.01186	15495.525
2971.45984	15433.725
2973.90632	15380.725
2976.35131	15375.225
2978.7948	15323.925
2981.23681	15295.325
2983.67732	15241.225
2986.11635	15212.025
2988.55388	15196.325
2990.98993	15154.725
2993.4245	15096.025
2995.85758	15098.225
2998.28917	15034.925
3000.71928	15043.925
3003.14791	14990.025
3005.57506	15016.725
3008.00073	14941.625
3010.42493	14855.225
3012.84764	14904.525
3015.26888	14873.025
3017.68865	14773.925
3020.10694	14775.225
3022.52376	14736.225
3024.9391	14762.225
3027.35298	14727.525
3029.76539	14763.225
3032.17632	14709.725
3034.5858	14687.325
3036.9938	14688.025
3039.40034	14701.325
3041.80542	14685.925
3044.20903	14658.725
3046.61118	14642.125
3049.01187	14621.025
3051.4111	14610.225
3053.80888	14590.125
3056.20519	14541.825
3058.60005	14523.325
3060.99345	14513.025
3063.3854	14447.825
3065.7759	14393.925
3068.16494	14387.525
3070.55254	14329.825
3072.93868	14303.325
3075.32338	14293.225
3077.70662	14273.325
3080.08842	14187.325
3082.46878	14194.625
3084.84769	14169.425
3087.22515	14177.325
3089.60118	14155.525
3091.97576	14161.425
3094.3489	14144.825
3096.72061	14143.925
3099.09087	14129.425
3101.4597	14115.025
3103.82709	14117.925
3106.19305	14092.925
3108.55757	14089.325
3110.92066	14043.925
3113.28232	14046.225
3115.64255	14037.125
3118.00134	13991.625
3120.35871	13943.725
3122.71466	13908.925
3125.06917	13920.325
3127.42226	13901.625
