Data from AgNP_FTO_APTES_UA_10uM_CRN_0uM_R6G_10uM_NaF_0.1M_Addition_RamanShift__3__11-12-20-355.txt Node

Date: Thu Feb 10 11:12:20 GMT 2022
User: TCL
Spectrometer: QEP01345
Trigger mode: 4
Integration Time (sec): 7.000000E0
Scans to average: 10
Electric dark correction enabled: true
Nonlinearity correction enabled: false
Boxcar width: 0
XAxis mode: Raman Shifts
Number of Pixels in Spectrum: 1044
>>>>>Begin Spectral Data<<<<<
46.04893	1.05
50.45542	-0.75
54.85868	-0.75
59.25871	-1.45
63.6555	65.65
68.04907	71.15
72.43941	72.15
76.82654	71.45
81.21044	77.25
85.59113	74.75
89.96862	81.45
94.34289	81.45
98.71396	89.45
103.08183	90.85
107.4465	97.85
111.80798	92.35
116.16626	97.25
120.52136	103.35
124.87327	110.55
129.222	116.05
133.56755	129.85
137.90993	137.75
142.24913	151.95
146.58517	176.85
150.91804	209.65
155.24774	260.15
159.57429	330.75
163.89768	429.25
168.21792	572.25
172.53501	798.95
176.84895	1116.35
181.15975	1567.35
185.46741	2204.95
189.77193	3070.15
194.07331	4119.45
198.37157	5290.65
202.6667	6571.05
206.9587	7817.15
211.24758	9049.75
215.53334	10315.45
219.81599	11642.35
224.09553	13129.75
228.37195	14759.65
232.64527	16586.45
236.91549	18475.15
241.18261	20416.55
245.44663	22188.05
249.70755	23753.95
253.96539	25027.85
258.22014	26092.95
262.4718	26912.65
266.72039	27384.35
270.96589	27544.55
275.20832	27344.75
279.44768	26855.95
283.68397	26335.15
287.91719	25807.95
292.14735	25502.95
296.37445	25320.65
300.59849	25285.65
304.81948	25345.75
309.03742	25255.85
313.25231	24894.05
317.46415	24308.05
321.67296	23591.75
325.87872	22937.55
330.08145	22648.45
334.28114	22605.05
338.47781	22713.95
342.67145	22935.35
346.86207	23320.15
351.04966	23786.45
355.23424	24331.45
359.4158	24795.85
363.59435	25173.85
367.76989	25330.25
371.94243	25397.95
376.11196	25457.75
380.27849	25383.05
384.44203	25422.95
388.60257	25424.85
392.76012	25529.95
396.91468	25774.35
401.06626	26150.25
405.21485	26234.35
409.36047	25973.95
413.50311	25418.35
417.64277	25070.95
421.77947	24896.95
425.9132	24886.95
430.04396	24948.95
434.17176	24942.35
438.2966	25121.95
442.41849	25379.55
446.53742	25781.85
450.6534	26223.55
454.76644	26443.15
458.87653	26580.55
462.98368	26583.85
467.08789	26504.95
471.18916	26265.35
475.2875	25971.95
479.38291	25954.05
483.4754	25903.05
487.56496	25879.05
491.6516	25659.25
495.73531	25359.05
499.81612	25127.35
503.89401	25205.35
507.96899	25479.85
512.04106	25655.95
516.11023	25779.85
520.1765	25699.75
524.23987	25557.35
528.30034	25253.05
532.35792	24991.65
536.41261	24744.55
540.46441	24532.05
544.51333	24446.95
548.55936	24623.05
552.60252	25056.05
556.64279	25512.65
560.6802	25882.15
564.71473	26237.45
568.7464	26772.85
572.7752	27408.65
576.80114	27809.55
580.82422	28018.15
584.84444	28283.65
588.86181	28784.05
592.87633	29286.35
596.888	29087.35
600.89682	28610.65
604.9028	29369.25
608.90594	32491.95
612.90624	36330.15
616.90371	34953.75
620.89834	29118.65
624.89015	25900.35
628.87913	25094.35
632.86528	25127.15
636.84862	25154.65
640.82913	24936.45
644.80683	24372.25
648.78172	23956.95
652.75379	23922.95
656.72306	24280.95
660.68952	24713.35
664.65319	24567.85
668.61405	24021.25
672.57211	23824.55
676.52738	23964.05
680.47986	24131.75
684.42955	24174.35
688.37646	24114.75
692.32058	24101.05
696.26192	24244.85
700.20048	24403.75
704.13626	24567.65
708.06928	24635.15
711.99952	24593.85
715.927	24506.75
719.85171	24468.45
723.77365	24404.25
727.69284	24167.45
731.60928	23929.85
735.52295	23777.05
739.43388	23796.15
743.34206	23841.55
747.24749	23943.65
751.15017	24079.75
755.05012	24398.15
758.94733	25031.35
762.8418	26259.25
766.73354	28271.85
770.62254	30438.25
774.50882	31344.65
778.39237	30312.45
782.27321	28032.65
786.15132	26141.95
790.02671	24929.15
793.89938	24298.05
797.76935	23953.15
801.6366	23805.15
805.50115	23788.05
809.36299	23733.65
813.22213	23686.25
817.07857	23536.55
820.93231	23486.05
824.78336	23384.45
828.63172	23285.35
832.47738	23144.25
836.32036	23084.45
840.16066	23037.05
843.99827	23047.25
847.8332	23051.75
851.66546	23095.35
855.49504	23145.05
859.32195	23157.05
863.1462	23198.25
866.96777	23160.15
870.78668	23227.75
874.60293	23304.95
878.41652	23362.55
882.22745	23437.65
886.03573	23562.65
889.84136	23718.45
893.64433	23787.25
897.44466	23934.35
901.24235	24016.45
905.0374	24036.35
908.8298	24138.85
912.61957	24294.05
916.40671	24630.45
920.19121	24979.95
923.97308	25300.15
927.75233	25467.45
931.52895	25377.55
935.30295	25033.85
939.07433	24379.05
942.84309	23880.05
946.60924	23460.35
950.37278	23182.95
954.13371	22959.15
957.89203	22762.85
961.64774	22629.55
965.40086	22403.95
969.15137	22288.95
972.89929	22103.25
976.64461	21936.15
980.38733	21852.35
984.12747	21810.95
987.86502	21788.75
991.59999	21871.65
995.33237	22054.75
999.06217	22310.65
1002.78939	22581.25
1006.51404	22871.05
1010.23611	23257.25
1013.95561	23517.75
1017.67255	23615.45
1021.38692	23457.95
1025.09872	23163.05
1028.80796	22904.15
1032.51465	22820.65
1036.21877	22773.95
1039.92035	22822.45
1043.61937	22930.35
1047.31584	23037.35
1051.00976	23141.25
1054.70114	23266.15
1058.38998	23384.55
1062.07627	23570.45
1065.76003	23677.85
1069.44126	23831.15
1073.11995	23974.95
1076.79611	24198.45
1080.46974	24449.25
1084.14085	24681.65
1087.80943	25042.45
1091.47549	25299.25
1095.13903	25251.65
1098.80005	24887.55
1102.45857	24418.05
1106.11456	24043.75
1109.76805	23837.45
1113.41903	23863.35
1117.06751	24020.35
1120.71348	24342.45
1124.35696	24667.25
1127.99793	25122.25
1131.63641	25394.85
1135.2724	25093.65
1138.90589	24762.25
1142.5369	24590.75
1146.16542	24550.05
1149.79145	24656.95
1153.415	24819.35
1157.03607	25186.65
1160.65467	25844.55
1164.27079	26932.35
1167.88443	28258.45
1171.49561	29890.75
1175.10432	31921.65
1178.71056	34637.65
1182.31434	37220.95
1185.91565	38622.45
1189.51451	38615.05
1193.11091	37602.25
1196.70485	35944.95
1200.29634	34168.55
1203.88538	33012.55
1207.47197	32371.85
1211.05612	31924.75
1214.63782	31257.35
1218.21708	30367.45
1221.79391	29495.35
1225.36829	28917.05
1228.94024	28689.75
1232.50976	28465.45
1236.07685	28317.25
1239.6415	28187.35
1243.20374	28147.75
1246.76355	28203.55
1250.32093	28326.75
1253.8759	28822.35
1257.42845	29607.85
1260.97859	30573.95
1264.52631	31595.45
1268.07163	32572.35
1271.61453	33485.15
1275.15503	34272.45
1278.69312	35033.05
1282.22882	35711.05
1285.76211	36640.65
1289.29301	37995.25
1292.82151	39709.75
1296.34761	41745.05
1299.87133	44051.95
1303.39266	46420.95
1306.9116	48790.05
1310.42815	50762.15
1313.94233	51634.45
1317.45412	50984.85
1320.96354	49583.25
1324.47058	48515.55
1327.97525	47741.35
1331.47754	47165.25
1334.97747	46810.25
1338.47502	46431.75
1341.97022	46226.75
1345.46305	46284.05
1348.95352	46654.15
1352.44163	47138.05
1355.92738	48159.75
1359.41078	50181.05
1362.89183	52754.65
1366.37053	52832.75
1369.84688	48615.75
1373.32088	42975.75
1376.79254	39005.55
1380.26186	37291.55
1383.72883	37049.65
1387.19347	37102.85
1390.65578	36889.25
1394.11575	36856.65
1397.57339	37083.55
1401.0287	37543.65
1404.48168	37675.15
1407.93234	37160.85
1411.38068	36043.65
1414.82669	34662.35
1418.27039	33320.75
1421.71177	32174.65
1425.15083	31270.05
1428.58758	30783.55
1432.02203	30921.95
1435.45416	31525.65
1438.88399	32358.75
1442.31151	32857.15
1445.73673	33173.35
1449.15965	33531.55
1452.58027	33643.85
1455.9986	33643.85
1459.41463	33659.45
1462.82837	33783.15
1466.23982	33906.25
1469.64898	34031.65
1473.05586	33944.65
1476.46045	33750.75
1479.86276	33512.85
1483.26279	33412.65
1486.66054	33473.25
1490.05602	33861.35
1493.44922	34646.55
1496.84016	35834.35
1500.22882	37608.35
1503.61521	39734.35
1506.99934	42188.25
1510.38121	44354.95
1513.76081	45209.95
1517.13816	44112.15
1520.51324	41665.85
1523.88607	39357.85
1527.25665	37967.55
1530.62498	37214.55
1533.99105	36676.95
1537.35488	35937.45
1540.71647	35042.45
1544.07581	34006.75
1547.4329	33214.95
1550.78776	32690.25
1554.14038	32451.65
1557.49077	32492.75
1560.83892	32658.25
1564.18484	32875.25
1567.52853	33203.35
1570.86999	33720.95
1574.20922	34520.25
1577.54624	35242.65
1580.88103	35451.65
1584.2136	35462.95
1587.54395	35886.15
1590.87208	36815.45
1594.19801	37874.65
1597.52172	38546.35
1600.84321	37949.15
1604.16251	35850.25
1607.47959	33286.85
1610.79447	31035.85
1614.10715	28952.45
1617.41763	27122.85
1620.7259	25780.75
1624.03199	25230.35
1627.33587	25374.35
1630.63757	26180.45
1633.93707	28003.25
1637.23439	30713.55
1640.52951	34572.15
1643.82246	38935.85
1647.11321	42308.45
1650.40179	42825.25
1653.68819	39923.05
1656.97241	34474.35
1660.25446	29037.55
1663.53433	25090.35
1666.81203	22671.25
1670.08756	21186.95
1673.36092	20285.85
1676.63211	19672.85
1679.90115	19189.25
1683.16801	18900.65
1686.43272	18651.95
1689.69527	18503.35
1692.95567	18282.05
1696.2139	18167.75
1699.46999	18067.65
1702.72392	18005.65
1705.97571	17925.55
1709.22535	17847.15
1712.47284	17801.55
1715.71819	17754.55
1718.96139	17690.85
1722.20246	17663.15
1725.44139	17564.15
1728.67818	17451.75
1731.91284	17331.15
1735.14537	17258.85
1738.37576	17166.55
1741.60403	17107.25
1744.83017	17050.95
1748.05418	16995.25
1751.27607	16968.55
1754.49584	16974.05
1757.71349	16970.85
1760.92903	16965.95
1764.14244	16984.55
1767.35375	17018.05
1770.56294	17002.05
1773.77002	16906.25
1776.97499	16908.85
1780.17785	16888.55
1783.37861	16899.15
1786.57727	16847.75
1789.77382	16791.95
1792.96828	16728.45
1796.16064	16678.55
1799.3509	16603.35
1802.53907	16568.95
1805.72514	16508.85
1808.90913	16427.75
1812.09102	16362.85
1815.27083	16296.75
1818.44856	16285.25
1821.6242	16278.25
1824.79776	16176.05
1827.96924	16148.65
1831.13864	16153.95
1834.30597	16163.45
1837.47122	16169.15
1840.6344	16194.25
1843.7955	16180.25
1846.95454	16146.65
1850.11151	16074.35
1853.26642	16004.45
1856.41926	15984.05
1859.57004	15939.25
1862.71876	15882.55
1865.86542	15836.05
1869.01003	15770.35
1872.15258	15744.25
1875.29308	15701.25
1878.43152	15622.15
1881.56792	15602.25
1884.70227	15540.55
1887.83457	15495.55
1890.96482	15468.25
1894.09304	15425.05
1897.21921	15364.05
1900.34335	15337.85
1903.46544	15283.15
1906.58551	15281.25
1909.70353	15225.05
1912.81953	15168.25
1915.93349	15133.85
1919.04543	15174.65
1922.15534	15081.75
1925.26322	15058.35
1928.36908	15024.65
1931.47292	15003.75
1934.57473	14955.35
1937.67453	14923.95
1940.77232	14862.65
1943.86808	14869.75
1946.96184	14862.25
1950.05358	14780.65
1953.14331	14757.85
1956.23103	14700.35
1959.31675	14683.95
1962.40046	14633.95
1965.48217	14625.05
1968.56188	14556.15
1971.63959	14542.05
1974.7153	14516.05
1977.78901	14457.75
1980.86073	14418.75
1983.93046	14343.45
1986.99819	14298.05
1990.06394	14253.55
1993.1277	14179.45
1996.18947	14097.15
1999.24925	14046.15
2002.30706	14006.65
2005.36288	13927.55
2008.41672	13893.35
2011.46859	13797.35
2014.51848	13761.45
2017.56639	13694.75
2020.61233	13666.55
2023.6563	13581.85
2026.6983	13547.25
2029.73833	13509.05
2032.7764	13432.65
2035.8125	13376.35
2038.84664	13340.05
2041.87881	13313.45
2044.90903	13252.05
2047.93729	13202.95
2050.96359	13201.35
2053.98794	13208.45
2057.01034	13230.65
2060.03078	13194.55
2063.04927	13150.05
2066.06582	13176.85
2069.08042	13174.75
2072.09307	13214.95
2075.10378	13201.15
2078.11255	13176.35
2081.11938	13206.55
2084.12426	13230.15
2087.12722	13236.15
2090.12824	13235.55
2093.12732	13243.15
2096.12447	13255.05
2099.11969	13285.95
2102.11299	13285.15
2105.10435	13339.45
2108.09379	13336.45
2111.08131	13330.65
2114.0669	13344.75
2117.05057	13366.55
2120.03233	13380.55
2123.01216	13420.15
2125.99008	13436.55
2128.96609	13435.95
2131.94018	13424.05
2134.91236	13439.05
2137.88263	13405.85
2140.851	13377.25
2143.81746	13365.75
2146.78201	13279.05
2149.74466	13197.45
2152.7054	13181.65
2155.66425	13113.25
2158.6212	13079.25
2161.57625	13040.85
2164.52941	12996.75
2167.48067	12977.35
2170.43004	12932.95
2173.37752	12882.05
2176.32311	12842.55
2179.26681	12838.05
2182.20863	12814.65
2185.14856	12823.55
2188.08661	12772.45
2191.02278	12799.55
2193.95707	12783.35
2196.88948	12752.25
2199.82001	12743.15
2202.74867	12726.55
2205.67545	12697.25
2208.60037	12673.55
2211.52341	12635.05
2214.44458	12595.35
2217.36388	12576.15
2220.28132	12556.95
2223.1969	12497.05
2226.11061	12503.55
2229.02246	12456.55
2231.93245	12422.85
2234.84058	12342.35
2237.74686	12334.15
2240.65128	12340.15
2243.55385	12283.25
2246.45456	12239.25
2249.35343	12228.25
2252.25044	12203.65
2255.14561	12190.05
2258.03893	12161.45
2260.93041	12109.95
2263.82004	12088.25
2266.70783	12064.45
2269.59378	12022.35
2272.4779	12005.15
2275.36017	11945.75
2278.24061	11931.75
2281.11922	11911.45
2283.996	11885.35
2286.87094	11882.65
2289.74405	11848.55
2292.61534	11806.25
2295.4848	11822.95
2298.35243	11770.15
2301.21824	11741.85
2304.08223	11770.35
2306.94439	11724.25
2309.80474	11735.05
2312.66327	11703.65
2315.51999	11693.85
2318.37489	11659.55
2321.22797	11634.95
2324.07925	11634.15
2326.92871	11596.15
2329.77637	11556.25
2332.62222	11555.25
2335.46626	11533.65
2338.3085	11519.95
2341.14893	11526.35
2343.98756	11520.65
2346.8244	11475.05
2349.65943	11462.75
2352.49267	11477.35
2355.32411	11500.95
2358.15376	11478.95
2360.98161	11467.85
2363.80768	11482.55
2366.63195	11483.35
2369.45444	11486.75
2372.27514	11446.05
2375.09405	11434.05
2377.91118	11428.35
2380.72652	11378.45
2383.54009	11332.25
2386.35187	11329.05
2389.16188	11294.85
2391.97011	11254.25
2394.77657	11198.55
2397.58125	11213.05
2400.38416	11146.15
2403.18529	11093.85
2405.98466	11115.15
2408.78226	11050.75
2411.57809	11104.45
2414.37216	11068.65
2417.16446	11046.45
2419.955	10997.35
2422.74378	11014.65
2425.5308	11005.05
2428.31606	10997.95
2431.09956	10985.65
2433.88131	10965.45
2436.6613	11005.55
2439.43954	10970.15
2442.21603	10955.95
2444.99077	10937.35
2447.76377	10966.95
2450.53501	10932.95
2453.30451	10964.05
2456.07226	10907.35
2458.83827	10893.25
2461.60254	10879.15
2464.36507	10844.55
2467.12586	10860.05
2469.88492	10831.95
2472.64224	10825.45
2475.39782	10839.45
2478.15167	10833.05
2480.90379	10855.15
2483.65417	10856.65
2486.40283	10829.25
2489.14976	10828.05
2491.89497	10829.35
2494.63845	10851.35
2497.3802	10816.55
2500.12024	10854.15
2502.85855	10819.15
2505.59514	10811.95
2508.33002	10778.15
2511.06318	10715.55
2513.79462	10688.45
2516.52435	10674.25
2519.25237	10664.05
2521.97867	10643.85
2524.70327	10615.85
2527.42616	10587.65
2530.14734	10574.75
2532.86681	10569.05
2535.58458	10556.15
2538.30065	10554.75
2541.01501	10535.55
2543.72768	10530.75
2546.43864	10545.45
2549.14791	10515.05
2551.85548	10525.35
2554.56136	10495.85
2557.26554	10485.55
2559.96803	10459.55
2562.66883	10427.95
2565.36794	10393.45
2568.06536	10386.05
2570.7611	10361.75
2573.45514	10364.15
2576.14751	10345.75
2578.83819	10356.45
2581.52719	10340.35
2584.21451	10306.95
2586.90015	10262.75
2589.58411	10266.25
2592.2664	10242.25
2594.94701	10233.45
2597.62594	10239.75
2600.30321	10230.35
2602.9788	10215.45
2605.65273	10196.85
2608.32498	10211.15
2610.99557	10220.95
2613.66449	10189.65
2616.33175	10177.15
2618.99734	10164.25
2621.66128	10139.75
2624.32355	10128.95
2626.98416	10119.95
2629.64311	10102.35
2632.30041	10080.25
2634.95605	10055.75
2637.61004	10046.25
2640.26238	10043.35
2642.91306	10023.45
2645.56209	10000.55
2648.20948	9997.55
2650.85521	10021.45
2653.4993	10017.25
2656.14175	10029.55
2658.78255	10026.45
2661.42171	9999.45
2664.05923	10020.25
2666.6951	10059.65
2669.32934	10041.45
2671.96194	10032.55
2674.59291	10058.35
2677.22224	10030.35
2679.84993	10032.25
2682.476	10026.35
2685.10043	10039.15
2687.72324	10022.45
2690.34441	10039.25
2692.96396	10040.95
2695.58188	10041.15
2698.19818	10001.75
2700.81285	10008.45
2703.4259	9991.55
2706.03733	9967.25
2708.64714	9958.55
2711.25533	10001.25
2713.86191	9991.25
2716.46687	10049.65
2719.07021	10044.65
2721.67194	10086.65
2724.27206	10040.35
2726.87057	10064.95
2729.46747	10061.45
2732.06276	10051.05
2734.65644	10038.75
2737.24852	10065.95
2739.83899	10045.15
2742.42786	10067.35
2745.01513	10057.65
2747.60079	10056.35
2750.18486	10001.85
2752.76733	9977.05
2755.3482	10008.75
2757.92747	9999.05
2760.50515	9967.15
2763.08123	9971.25
2765.65573	9934.05
2768.22863	9946.35
2770.79994	9930.95
2773.36967	9929.95
2775.9378	9903.95
2778.50435	9905.05
2781.06932	9902.55
2783.6327	9889.05
2786.1945	9849.25
2788.75471	9867.75
2791.31335	9883.45
2793.87041	9858.35
2796.42589	9818.75
2798.97979	9835.35
2801.53212	9798.95
2804.08288	9783.25
2806.63206	9750.25
2809.17967	9722.15
2811.72571	9730.05
2814.27018	9717.85
2816.81308	9674.95
2819.35442	9653.35
2821.89419	9662.05
2824.43239	9642.05
2826.96904	9619.55
2829.50412	9625.45
2832.03763	9634.05
2834.56959	9689.15
2837.1	9680.05
2839.62884	9713.05
2842.15613	9771.65
2844.68186	9895.15
2847.20604	9997.95
2849.72867	10082.05
2852.24974	10142.85
2854.76927	10155.05
2857.28724	10151.65
2859.80367	10199.45
2862.31855	10199.35
2864.83189	10197.75
2867.34368	10188.55
2869.85393	10182.45
2872.36264	10194.05
2874.8698	10198.45
2877.37543	10203.65
2879.87952	10183.65
2882.38207	10191.65
2884.88308	10253.45
2887.38256	10269.55
2889.88051	10253.25
2892.37692	10310.95
2894.8718	10363.45
2897.36515	10407.35
2899.85698	10408.85
2902.34727	10450.35
2904.83604	10474.65
2907.32328	10494.65
2909.809	10525.75
2912.29319	10563.35
2914.77587	10588.05
2917.25702	10578.95
2919.73665	10567.85
2922.21476	10594.95
2924.69136	10583.75
2927.16644	10565.45
2929.64	10520.15
2932.11205	10485.75
2934.58258	10424.15
2937.05161	10403.75
2939.51912	10320.75
2941.98513	10252.85
2944.44962	10168.25
2946.91261	10067.35
2949.37409	10019.95
2951.83407	9948.75
2954.29254	9891.75
2956.74951	9806.85
2959.20498	9761.35
2961.65895	9717.25
2964.11142	9696.95
2966.56239	9655.05
2969.01186	9612.25
2971.45984	9543.85
2973.90632	9492.65
2976.35131	9452.45
2978.7948	9427.75
2981.23681	9380.45
2983.67732	9350.85
2986.11635	9295.15
2988.55388	9252.55
2990.98993	9217.65
2993.4245	9213.15
2995.85758	9158.35
2998.28917	9116.35
3000.71928	9076.45
3003.14791	9052.95
3005.57506	9058.65
3008.00073	9045.25
3010.42493	9012.35
3012.84764	8981.95
3015.26888	8978.55
3017.68865	8954.15
3020.10694	8943.15
3022.52376	8914.55
3024.9391	8906.85
3027.35298	8894.75
3029.76539	8863.25
3032.17632	8864.25
3034.5858	8861.15
3036.9938	8857.05
3039.40034	8845.05
3041.80542	8867.75
3044.20903	8829.55
3046.61118	8860.45
3049.01187	8799.85
3051.4111	8804.95
3053.80888	8780.05
3056.20519	8772.15
3058.60005	8753.65
3060.99345	8739.05
3063.3854	8714.75
3065.7759	8708.85
3068.16494	8708.65
3070.55254	8676.85
3072.93868	8689.65
3075.32338	8640.85
3077.70662	8623.95
3080.08842	8630.35
3082.46878	8621.95
3084.84769	8589.85
3087.22515	8604.55
3089.60118	8596.95
3091.97576	8585.75
3094.3489	8595.45
3096.72061	8625.15
3099.09087	8617.25
3101.4597	8632.95
3103.82709	8622.25
3106.19305	8654.95
3108.55757	8666.85
3110.92066	8658.25
3113.28232	8666.65
3115.64255	8686.85
3118.00134	8629.55
3120.35871	8674.75
3122.71466	8625.15
3125.06917	8621.45
3127.42226	8604.65
3129.77393	8636.65
3132.12417	8634.35
3134.47299	8653.95
3136.82039	8660.45
3139.16636	8666.75
3141.51092	8682.65
3143.85406	8691.55
3146.19579	8682.15
3148.53609	8720.15
3150.87499	8751.35
3153.21246	8763.55
3155.54853	8796.65
3157.88318	8832.25
3160.21642	8864.15
3162.54826	8866.25
3164.87868	8906.45
3167.2077	8894.35
3169.5353	8920.15
3171.86151	8947.95
3174.18631	8950.15
3176.5097	8986.55
3178.83169	8980.95
3181.15228	9003.55
3183.47147	9005.45
3185.78926	9008.85
3188.10565	8995.65
3190.42065	8971.75
3192.73424	8943.65
3195.04645	8947.55
3197.35725	8959.55
3199.66667	9002.15
3201.97469	8967.25
3204.28132	8995.85
3206.58656	9030.25
3208.8904	9052.95
3211.19287	9048.05
3213.49394	9050.95
3215.79363	9055.65
3218.09193	9060.15
3220.38884	9058.95
3222.68438	9065.15
3224.97853	9076.15
3227.2713	9098.95
3229.56269	9090.15
3231.8527	9105.25
3234.14133	9093.65
3236.42858	9042.05
3238.71446	9081.25
3240.99896	9027.15
3243.28209	9025.55
3245.56384	9003.45
3247.84423	9016.45
3250.12324	9016.65
3252.40088	9016.55
3254.67715	8982.85
3256.95205	8996.75
3259.22558	8983.95
