Data from AgNP_FTO_APTES_UA_10uM_CRN_20uM_R6G_10uM_NaF_0.1M_Addition_RamanShift__30__16-37-50-773.txt Node

Date: Thu Feb 10 16:37:50 GMT 2022
User: TCL
Spectrometer: QEP01345
Trigger mode: 4
Integration Time (sec): 7.000000E0
Scans to average: 10
Electric dark correction enabled: true
Nonlinearity correction enabled: false
Boxcar width: 0
XAxis mode: Raman Shifts
Number of Pixels in Spectrum: 1044
>>>>>Begin Spectral Data<<<<<
46.04893	-0.275
50.45542	0.125
54.85868	-1.075
59.25871	-1.475
63.6555	46.125
68.04907	44.925
72.43941	48.725
76.82654	47.925
81.21044	57.525
85.59113	53.425
89.96862	59.625
94.34289	61.825
98.71396	65.325
103.08183	67.825
107.4465	69.525
111.80798	67.125
116.16626	70.725
120.52136	71.625
124.87327	74.025
129.222	78.725
133.56755	80.725
137.90993	83.125
142.24913	85.125
146.58517	97.725
150.91804	112.525
155.24774	131.525
159.57429	157.025
163.89768	196.325
168.21792	257.225
172.53501	350.225
176.84895	476.925
181.15975	668.625
185.46741	916.125
189.77193	1279.225
194.07331	1692.325
198.37157	2176.425
202.6667	2693.125
206.9587	3188.825
211.24758	3688.625
215.53334	4227.825
219.81599	4787.525
224.09553	5459.525
228.37195	6203.125
232.64527	6985.125
236.91549	7810.025
241.18261	8556.525
245.44663	9175.925
249.70755	9665.225
253.96539	10097.225
258.22014	10466.925
262.4718	10866.525
266.72039	11134.025
270.96589	11358.225
275.20832	11464.425
279.44768	11406.925
283.68397	11339.525
287.91719	11306.525
292.14735	11345.825
296.37445	11588.325
300.59849	11926.425
304.81948	12325.125
309.03742	12536.025
313.25231	12417.025
317.46415	11766.825
321.67296	10876.625
325.87872	10164.125
330.08145	9825.725
334.28114	9785.025
338.47781	9920.725
342.67145	10214.225
346.86207	10666.425
351.04966	11275.925
355.23424	11944.125
359.4158	12451.125
363.59435	12661.425
367.76989	12711.925
371.94243	12694.925
376.11196	12609.225
380.27849	12589.225
384.44203	12426.425
388.60257	12247.725
392.76012	12233.725
396.91468	12342.225
401.06626	12662.025
405.21485	12915.125
409.36047	12692.625
413.50311	12029.525
417.64277	11409.125
421.77947	11106.425
425.9132	10984.425
430.04396	11007.925
434.17176	11046.225
438.2966	11178.125
442.41849	11400.225
446.53742	11671.525
450.6534	11989.125
454.76644	12199.425
458.87653	12252.225
462.98368	12196.625
467.08789	11996.525
471.18916	11760.425
475.2875	11476.125
479.38291	11282.825
483.4754	11088.925
487.56496	10909.025
491.6516	10796.825
495.73531	10775.425
499.81612	10806.225
503.89401	10936.625
507.96899	11043.325
512.04106	11205.025
516.11023	11353.125
520.1765	11476.525
524.23987	11390.325
528.30034	11155.925
532.35792	10933.925
536.41261	10697.125
540.46441	10479.225
544.51333	10405.425
548.55936	10529.725
552.60252	10824.925
556.64279	11139.425
560.6802	11275.525
564.71473	11410.725
568.7464	11791.625
572.7752	12105.825
576.80114	11827.425
580.82422	11481.525
584.84444	11285.025
588.86181	11227.425
592.87633	11189.025
596.888	11258.525
600.89682	11697.125
604.9028	13051.125
608.90594	16689.525
612.90624	21434.025
616.90371	20375.925
620.89834	14209.525
624.89015	11411.225
628.87913	10900.825
632.86528	10995.025
636.84862	11157.825
640.82913	11004.525
644.80683	10517.625
648.78172	10199.125
652.75379	10254.825
656.72306	10705.825
660.68952	11223.125
664.65319	11098.825
668.61405	10554.725
672.57211	10298.925
676.52738	10283.225
680.47986	10282.325
684.42955	10223.825
688.37646	10190.725
692.32058	10241.625
696.26192	10361.125
700.20048	10505.525
704.13626	10619.625
708.06928	10608.425
711.99952	10524.925
715.927	10477.125
719.85171	10488.525
723.77365	10476.825
727.69284	10336.125
731.60928	10236.025
735.52295	10201.825
739.43388	10229.125
743.34206	10303.825
747.24749	10333.225
751.15017	10459.425
755.05012	10708.825
758.94733	11238.325
762.8418	12476.725
766.73354	14585.425
770.62254	16783.025
774.50882	17775.625
778.39237	16824.625
782.27321	14461.125
786.15132	12364.225
790.02671	11137.825
793.89938	10614.225
797.76935	10380.925
801.6366	10257.025
805.50115	10190.625
809.36299	10126.425
813.22213	10099.025
817.07857	10059.925
820.93231	10070.125
824.78336	10104.725
828.63172	10133.425
832.47738	10157.925
836.32036	10140.825
840.16066	10083.125
843.99827	10024.625
847.8332	10015.325
851.66546	10001.025
855.49504	10014.225
859.32195	9976.925
863.1462	9921.625
866.96777	9876.025
870.78668	9870.525
874.60293	9874.725
878.41652	9941.825
882.22745	9989.425
886.03573	10020.525
889.84136	9989.225
893.64433	9916.125
897.44466	9911.025
901.24235	9907.725
905.0374	9895.225
908.8298	9870.425
912.61957	9904.725
916.40671	9965.725
920.19121	10084.125
923.97308	10154.725
927.75233	10203.825
931.52895	10263.625
935.30295	10132.725
939.07433	9862.525
942.84309	9605.725
946.60924	9455.725
950.37278	9406.425
954.13371	9371.825
957.89203	9297.525
961.64774	9302.825
965.40086	9254.025
969.15137	9244.525
972.89929	9221.925
976.64461	9190.925
980.38733	9214.625
984.12747	9207.625
987.86502	9241.525
991.59999	9301.325
995.33237	9445.125
999.06217	9645.625
1002.78939	9896.125
1006.51404	10094.325
1010.23611	10321.225
1013.95561	10508.525
1017.67255	10436.625
1021.38692	10316.325
1025.09872	10169.525
1028.80796	10119.525
1032.51465	10226.225
1036.21877	10369.825
1039.92035	10466.025
1043.61937	10455.225
1047.31584	10402.525
1051.00976	10307.725
1054.70114	10280.825
1058.38998	10310.625
1062.07627	10414.925
1065.76003	10501.725
1069.44126	10544.325
1073.11995	10618.925
1076.79611	10716.225
1080.46974	10861.025
1084.14085	11075.025
1087.80943	11410.525
1091.47549	11554.525
1095.13903	11361.025
1098.80005	10983.125
1102.45857	10640.125
1106.11456	10466.725
1109.76805	10486.425
1113.41903	10714.525
1117.06751	11029.525
1120.71348	11427.025
1124.35696	11853.025
1127.99793	12247.225
1131.63641	12212.525
1135.2724	11709.625
1138.90589	11228.525
1142.5369	10932.025
1146.16542	10731.125
1149.79145	10614.125
1153.415	10664.925
1157.03607	10754.425
1160.65467	11038.425
1164.27079	11411.725
1167.88443	12006.225
1171.49561	12944.925
1175.10432	14551.925
1178.71056	16595.625
1182.31434	18086.725
1185.91565	18421.125
1189.51451	17921.725
1193.11091	16763.125
1196.70485	15461.025
1200.29634	14486.625
1203.88538	13805.125
1207.47197	13018.925
1211.05612	12310.125
1214.63782	11912.325
1218.21708	11757.325
1221.79391	11749.525
1225.36829	11820.025
1228.94024	11905.825
1232.50976	11944.625
1236.07685	12007.525
1239.6415	12034.925
1243.20374	12074.325
1246.76355	12196.425
1250.32093	12394.825
1253.8759	12665.425
1257.42845	13069.125
1260.97859	13499.025
1264.52631	13873.525
1268.07163	14217.625
1271.61453	14559.925
1275.15503	14831.025
1278.69312	14937.925
1282.22882	15022.525
1285.76211	15278.425
1289.29301	15683.125
1292.82151	16121.325
1296.34761	16572.525
1299.87133	17334.625
1303.39266	18689.625
1306.9116	20693.225
1310.42815	23083.225
1313.94233	24560.325
1317.45412	24267.825
1320.96354	22800.125
1324.47058	21151.725
1327.97525	19704.625
1331.47754	18814.825
1334.97747	18517.225
1338.47502	18699.725
1341.97022	19162.625
1345.46305	19703.325
1348.95352	20510.225
1352.44163	21697.225
1355.92738	23515.325
1359.41078	26666.625
1362.89183	29821.125
1366.37053	29060.625
1369.84688	24730.025
1373.32088	20485.925
1376.79254	17796.525
1380.26186	16459.325
1383.72883	15810.425
1387.19347	15361.225
1390.65578	14794.425
1394.11575	14379.025
1397.57339	14135.425
1401.0287	14156.225
1404.48168	14333.725
1407.93234	14598.525
1411.38068	14770.925
1414.82669	14783.525
1418.27039	14509.025
1421.71177	14139.225
1425.15083	13775.825
1428.58758	13510.425
1432.02203	13465.925
1435.45416	13598.425
1438.88399	13672.125
1442.31151	13663.825
1445.73673	13784.825
1449.15965	13869.225
1452.58027	13871.325
1455.9986	13821.025
1459.41463	13809.225
1462.82837	13960.325
1466.23982	14243.825
1469.64898	14559.625
1473.05586	14866.925
1476.46045	15059.525
1479.86276	15318.925
1483.26279	15691.525
1486.66054	16131.625
1490.05602	16620.925
1493.44922	17319.125
1496.84016	18398.925
1500.22882	20005.425
1503.61521	22173.525
1506.99934	24743.725
1510.38121	27250.925
1513.76081	28488.725
1517.13816	27423.425
1520.51324	24452.025
1523.88607	21339.025
1527.25665	19055.925
1530.62498	17721.325
1533.99105	16916.925
1537.35488	16347.225
1540.71647	15999.025
1544.07581	15765.425
1547.4329	15635.825
1550.78776	15481.925
1554.14038	15453.925
1557.49077	15592.925
1560.83892	15909.125
1564.18484	16353.525
1567.52853	16770.925
1570.86999	17066.225
1574.20922	17240.825
1577.54624	17043.625
1580.88103	16312.125
1584.2136	15331.325
1587.54395	14838.925
1590.87208	15058.125
1594.19801	15895.125
1597.52172	16968.925
1600.84321	17379.325
1604.16251	16759.025
1607.47959	15642.625
1610.79447	14504.625
1614.10715	13420.625
1617.41763	12548.325
1620.7259	11990.525
1624.03199	11721.125
1627.33587	11702.525
1630.63757	11971.025
1633.93707	12531.825
1637.23439	13369.325
1640.52951	14562.225
1643.82246	16168.925
1647.11321	18111.425
1650.40179	19596.225
1653.68819	19259.125
1656.97241	16956.625
1660.25446	14213.825
1663.53433	12250.525
1666.81203	11041.525
1670.08756	10345.925
1673.36092	9869.025
1676.63211	9588.225
1679.90115	9398.225
1683.16801	9247.325
1686.43272	9174.225
1689.69527	9079.125
1692.95567	9035.625
1696.2139	9014.425
1699.46999	9024.325
1702.72392	8990.325
1705.97571	8919.525
1709.22535	8903.225
1712.47284	8891.925
1715.71819	8902.925
1718.96139	8885.025
1722.20246	8869.825
1725.44139	8817.525
1728.67818	8752.425
1731.91284	8689.425
1735.14537	8610.125
1738.37576	8589.325
1741.60403	8552.925
1744.83017	8509.825
1748.05418	8501.825
1751.27607	8482.525
1754.49584	8474.025
1757.71349	8481.525
1760.92903	8469.725
1764.14244	8436.625
1767.35375	8447.825
1770.56294	8412.625
1773.77002	8391.025
1776.97499	8343.825
1780.17785	8313.225
1783.37861	8304.825
1786.57727	8277.725
1789.77382	8265.225
1792.96828	8243.425
1796.16064	8233.925
1799.3509	8231.425
1802.53907	8231.525
1805.72514	8215.325
1808.90913	8158.325
1812.09102	8140.625
1815.27083	8130.025
1818.44856	8086.925
1821.6242	8083.325
1824.79776	8082.425
1827.96924	8059.025
1831.13864	8062.425
1834.30597	8052.925
1837.47122	8039.325
1840.6344	8052.625
1843.7955	8051.025
1846.95454	8046.025
1850.11151	8036.925
1853.26642	8008.725
1856.41926	8035.825
1859.57004	8031.625
1862.71876	8025.725
1865.86542	8027.025
1869.01003	8002.625
1872.15258	8010.325
1875.29308	8014.325
1878.43152	8027.025
1881.56792	8034.125
1884.70227	8017.425
1887.83457	8034.925
1890.96482	8036.625
1894.09304	8018.125
1897.21921	8020.425
1900.34335	8009.325
1903.46544	8028.525
1906.58551	8031.725
1909.70353	8055.425
1912.81953	8036.125
1915.93349	8042.725
1919.04543	8038.325
1922.15534	8028.925
1925.26322	8002.525
1928.36908	7966.325
1931.47292	7954.425
1934.57473	7905.625
1937.67453	7887.125
1940.77232	7828.725
1943.86808	7812.025
1946.96184	7765.325
1950.05358	7731.825
1953.14331	7696.425
1956.23103	7661.525
1959.31675	7641.425
1962.40046	7622.825
1965.48217	7580.525
1968.56188	7594.125
1971.63959	7559.225
1974.7153	7514.325
1977.78901	7515.625
1980.86073	7487.325
1983.93046	7467.025
1986.99819	7416.925
1990.06394	7413.025
1993.1277	7373.325
1996.18947	7336.925
1999.24925	7324.925
2002.30706	7317.425
2005.36288	7290.525
2008.41672	7269.225
2011.46859	7238.225
2014.51848	7231.025
2017.56639	7220.825
2020.61233	7200.525
2023.6563	7179.325
2026.6983	7167.625
2029.73833	7134.225
2032.7764	7115.925
2035.8125	7094.725
2038.84664	7091.525
2041.87881	7069.925
2044.90903	7042.425
2047.93729	7021.125
2050.96359	7022.025
2053.98794	7002.425
2057.01034	7001.725
2060.03078	6982.925
2063.04927	6980.925
2066.06582	6980.525
2069.08042	6981.325
2072.09307	6980.225
2075.10378	6972.225
2078.11255	6951.925
2081.11938	6946.625
2084.12426	6945.325
2087.12722	6937.525
2090.12824	6923.425
2093.12732	6934.725
2096.12447	6936.425
2099.11969	6917.625
2102.11299	6921.125
2105.10435	6919.425
2108.09379	6924.725
2111.08131	6931.525
2114.0669	6939.425
2117.05057	6923.925
2120.03233	6936.625
2123.01216	6959.225
2125.99008	6950.425
2128.96609	6945.625
2131.94018	6955.925
2134.91236	6970.025
2137.88263	6986.125
2140.851	6956.825
2143.81746	6962.025
2146.78201	6950.025
2149.74466	6937.025
2152.7054	6954.025
2155.66425	6934.225
2158.6212	6932.725
2161.57625	6928.825
2164.52941	6922.825
2167.48067	6928.925
2170.43004	6917.425
2173.37752	6917.325
2176.32311	6914.725
2179.26681	6912.625
2182.20863	6915.125
2185.14856	6913.525
2188.08661	6918.625
2191.02278	6927.625
2193.95707	6912.525
2196.88948	6895.425
2199.82001	6899.925
2202.74867	6882.125
2205.67545	6868.125
2208.60037	6863.125
2211.52341	6873.425
2214.44458	6863.125
2217.36388	6839.425
2220.28132	6836.825
2223.1969	6816.325
2226.11061	6801.425
2229.02246	6768.525
2231.93245	6775.325
2234.84058	6738.125
2237.74686	6728.325
2240.65128	6721.125
2243.55385	6706.825
2246.45456	6696.925
2249.35343	6710.325
2252.25044	6717.525
2255.14561	6696.625
2258.03893	6687.825
2260.93041	6678.925
2263.82004	6676.625
2266.70783	6661.825
2269.59378	6625.025
2272.4779	6599.625
2275.36017	6574.925
2278.24061	6580.225
2281.11922	6555.225
2283.996	6556.725
2286.87094	6537.725
2289.74405	6535.025
2292.61534	6515.925
2295.4848	6508.425
2298.35243	6502.425
2301.21824	6488.425
2304.08223	6495.125
2306.94439	6487.925
2309.80474	6485.925
2312.66327	6489.425
2315.51999	6489.725
2318.37489	6478.625
2321.22797	6469.825
2324.07925	6469.925
2326.92871	6459.625
2329.77637	6448.525
2332.62222	6436.525
2335.46626	6429.025
2338.3085	6437.425
2341.14893	6435.425
2343.98756	6425.425
2346.8244	6456.425
2349.65943	6434.925
2352.49267	6438.525
2355.32411	6462.025
2358.15376	6459.825
2360.98161	6486.525
2363.80768	6472.125
2366.63195	6475.025
2369.45444	6454.225
2372.27514	6460.525
2375.09405	6455.325
2377.91118	6421.625
2380.72652	6404.225
2383.54009	6373.525
2386.35187	6342.525
2389.16188	6305.225
2391.97011	6295.525
2394.77657	6289.125
2397.58125	6260.325
2400.38416	6252.025
2403.18529	6241.825
2405.98466	6216.525
2408.78226	6207.225
2411.57809	6188.425
2414.37216	6184.925
2417.16446	6176.425
2419.955	6163.025
2422.74378	6162.625
2425.5308	6149.925
2428.31606	6156.425
2431.09956	6151.825
2433.88131	6144.825
2436.6613	6154.425
2439.43954	6154.625
2442.21603	6134.225
2444.99077	6149.025
2447.76377	6140.725
2450.53501	6129.025
2453.30451	6131.625
2456.07226	6126.525
2458.83827	6134.025
2461.60254	6139.325
2464.36507	6115.325
2467.12586	6114.125
2469.88492	6104.925
2472.64224	6114.825
2475.39782	6109.125
2478.15167	6107.725
2480.90379	6116.325
2483.65417	6141.225
2486.40283	6140.325
2489.14976	6166.725
2491.89497	6156.525
2494.63845	6179.225
2497.3802	6168.725
2500.12024	6159.525
2502.85855	6150.825
2505.59514	6127.625
2508.33002	6113.925
2511.06318	6084.925
2513.79462	6082.925
2516.52435	6054.025
2519.25237	6034.725
2521.97867	6023.225
2524.70327	5996.125
2527.42616	5985.325
2530.14734	5977.625
2532.86681	5975.725
2535.58458	5979.225
2538.30065	5974.525
2541.01501	5971.825
2543.72768	5953.925
2546.43864	5976.325
2549.14791	5963.725
2551.85548	5958.725
2554.56136	5956.725
2557.26554	5956.425
2559.96803	5933.825
2562.66883	5913.025
2565.36794	5908.325
2568.06536	5899.325
2570.7611	5886.425
2573.45514	5882.425
2576.14751	5857.325
2578.83819	5856.625
2581.52719	5843.825
2584.21451	5854.325
2586.90015	5842.525
2589.58411	5821.425
2592.2664	5824.125
2594.94701	5817.025
2597.62594	5823.525
2600.30321	5803.225
2602.9788	5804.025
2605.65273	5807.825
2608.32498	5800.525
2610.99557	5823.925
2613.66449	5812.925
2616.33175	5800.325
2618.99734	5787.325
2621.66128	5797.925
2624.32355	5783.025
2626.98416	5786.725
2629.64311	5769.725
2632.30041	5766.325
2634.95605	5746.225
2637.61004	5752.025
2640.26238	5715.625
2642.91306	5721.325
2645.56209	5723.525
2648.20948	5706.625
2650.85521	5702.625
2653.4993	5709.525
2656.14175	5694.425
2658.78255	5726.425
2661.42171	5711.725
2664.05923	5709.625
2666.6951	5705.325
2669.32934	5759.825
2671.96194	5754.725
2674.59291	5754.125
2677.22224	5743.825
2679.84993	5765.925
2682.476	5751.325
2685.10043	5754.725
2687.72324	5749.025
2690.34441	5735.025
2692.96396	5728.525
2695.58188	5725.425
2698.19818	5727.125
2700.81285	5731.825
2703.4259	5734.325
2706.03733	5736.225
2708.64714	5714.125
2711.25533	5733.625
2713.86191	5725.725
2716.46687	5729.425
2719.07021	5734.525
2721.67194	5752.625
2724.27206	5740.225
2726.87057	5735.225
2729.46747	5743.825
2732.06276	5756.425
2734.65644	5731.925
2737.24852	5736.225
2739.83899	5719.525
2742.42786	5717.325
2745.01513	5704.825
2747.60079	5697.325
2750.18486	5674.825
2752.76733	5690.625
2755.3482	5658.025
2757.92747	5679.425
2760.50515	5666.625
2763.08123	5650.725
2765.65573	5636.725
2768.22863	5649.625
2770.79994	5633.925
2773.36967	5620.925
2775.9378	5616.525
2778.50435	5632.625
2781.06932	5618.525
2783.6327	5637.425
2786.1945	5612.825
2788.75471	5619.425
2791.31335	5600.325
2793.87041	5583.925
2796.42589	5589.025
2798.97979	5579.225
2801.53212	5585.125
2804.08288	5588.525
2806.63206	5565.725
2809.17967	5562.825
2811.72571	5549.625
2814.27018	5557.125
2816.81308	5549.125
2819.35442	5544.225
2821.89419	5542.325
2824.43239	5544.225
2826.96904	5562.525
2829.50412	5557.925
2832.03763	5531.525
2834.56959	5551.725
2837.1	5527.025
2839.62884	5550.325
2842.15613	5573.625
2844.68186	5592.125
2847.20604	5609.625
2849.72867	5634.725
2852.24974	5631.825
2854.76927	5633.325
2857.28724	5614.925
2859.80367	5600.825
2862.31855	5601.325
2864.83189	5602.825
2867.34368	5561.825
2869.85393	5566.725
2872.36264	5568.025
2874.8698	5580.825
2877.37543	5550.325
2879.87952	5562.325
2882.38207	5554.925
2884.88308	5553.225
2887.38256	5553.825
2889.88051	5544.325
2892.37692	5542.325
2894.8718	5541.525
2897.36515	5543.825
2899.85698	5549.625
2902.34727	5552.125
2904.83604	5538.925
2907.32328	5558.325
2909.809	5552.525
2912.29319	5555.625
2914.77587	5547.025
2917.25702	5563.525
2919.73665	5553.325
2922.21476	5543.325
2924.69136	5537.025
2927.16644	5540.525
2929.64	5523.125
2932.11205	5528.525
2934.58258	5504.825
2937.05161	5499.825
2939.51912	5477.925
2941.98513	5462.425
2944.44962	5441.825
2946.91261	5409.025
2949.37409	5412.425
2951.83407	5382.125
2954.29254	5384.425
2956.74951	5376.525
2959.20498	5362.825
2961.65895	5348.625
2964.11142	5355.125
2966.56239	5336.725
2969.01186	5325.725
2971.45984	5299.425
2973.90632	5315.325
2976.35131	5300.225
2978.7948	5290.825
2981.23681	5279.325
2983.67732	5258.125
2986.11635	5242.525
2988.55388	5234.325
2990.98993	5211.825
2993.4245	5213.025
2995.85758	5204.725
2998.28917	5179.325
3000.71928	5171.125
3003.14791	5147.225
3005.57506	5150.525
3008.00073	5137.925
3010.42493	5117.025
3012.84764	5123.225
3015.26888	5116.525
3017.68865	5119.325
3020.10694	5103.025
3022.52376	5085.625
3024.9391	5091.325
3027.35298	5080.325
3029.76539	5081.525
3032.17632	5087.425
3034.5858	5056.325
3036.9938	5070.525
3039.40034	5048.225
3041.80542	5071.725
3044.20903	5030.125
3046.61118	5044.525
3049.01187	5033.325
3051.4111	5006.925
3053.80888	4999.425
3056.20519	4983.825
3058.60005	4969.025
3060.99345	4984.925
3063.3854	4981.125
3065.7759	4951.025
3068.16494	4934.225
3070.55254	4925.525
3072.93868	4917.425
3075.32338	4916.325
3077.70662	4892.825
3080.08842	4873.525
3082.46878	4861.225
3084.84769	4858.825
3087.22515	4858.025
3089.60118	4849.725
3091.97576	4866.425
3094.3489	4849.525
3096.72061	4861.425
3099.09087	4861.125
3101.4597	4847.925
3103.82709	4841.325
3106.19305	4828.325
3108.55757	4814.225
3110.92066	4815.725
3113.28232	4806.125
3115.64255	4820.225
3118.00134	4782.525
3120.35871	4778.925
3122.71466	4778.425
3125.06917	4767.425
3127.42226	4770.725
3129.77393	4778.625
3132.12417	4767.525
3134.47299	4756.525
3136.82039	4760.125
3139.16636	4767.325
3141.51092	4772.025
3143.85406	4774.425
3146.19579	4766.525
3148.53609	4784.925
3150.87499	4764.325
3153.21246	4789.625
3155.54853	4802.625
3157.88318	4796.325
3160.21642	4791.325
3162.54826	4804.925
3164.87868	4793.425
3167.2077	4782.525
3169.5353	4799.525
3171.86151	4807.525
3174.18631	4809.925
3176.5097	4801.725
3178.83169	4790.325
3181.15228	4791.725
3183.47147	4778.125
3185.78926	4776.025
3188.10565	4777.625
3190.42065	4775.225
3192.73424	4788.225
3195.04645	4765.225
