Data from AgNP_FTO_APTES_UA_10uM_CRN_200uM_R6G_10uM_NaF_0.1M_Addition_RamanShift__9__18-11-10-889.txt Node

Date: Thu Feb 10 18:11:10 GMT 2022
User: TCL
Spectrometer: QEP01345
Trigger mode: 4
Integration Time (sec): 7.000000E0
Scans to average: 10
Electric dark correction enabled: true
Nonlinearity correction enabled: false
Boxcar width: 0
XAxis mode: Raman Shifts
Number of Pixels in Spectrum: 1044
>>>>>Begin Spectral Data<<<<<
46.04893	0.075
50.45542	-0.125
54.85868	-1.425
59.25871	-2.125
63.6555	57.275
68.04907	59.875
72.43941	67.175
76.82654	63.375
81.21044	71.475
85.59113	64.275
89.96862	71.675
94.34289	75.975
98.71396	76.975
103.08183	80.575
107.4465	81.175
111.80798	80.475
116.16626	87.075
120.52136	89.575
124.87327	93.275
129.222	95.875
133.56755	102.675
137.90993	106.775
142.24913	113.175
146.58517	128.175
150.91804	151.775
155.24774	176.975
159.57429	215.475
163.89768	273.975
168.21792	354.275
172.53501	483.975
176.84895	673.975
181.15975	948.375
185.46741	1330.775
189.77193	1851.175
194.07331	2463.075
198.37157	3178.575
202.6667	3934.975
206.9587	4665.475
211.24758	5384.175
215.53334	6106.375
219.81599	6850.875
224.09553	7667.575
228.37195	8576.875
232.64527	9556.275
236.91549	10643.075
241.18261	11741.275
245.44663	12774.375
249.70755	13742.775
253.96539	14618.575
258.22014	15316.275
262.4718	15922.575
266.72039	16328.775
270.96589	16566.375
275.20832	16590.775
279.44768	16527.675
283.68397	16365.075
287.91719	16241.175
292.14735	16148.575
296.37445	16093.175
300.59849	16110.175
304.81948	16113.275
309.03742	16042.775
313.25231	15925.375
317.46415	15692.175
321.67296	15417.775
325.87872	15187.075
330.08145	15098.475
334.28114	15102.975
338.47781	15198.475
342.67145	15360.375
346.86207	15563.775
351.04966	15757.075
355.23424	15976.775
359.4158	16187.675
363.59435	16367.975
367.76989	16527.375
371.94243	16625.175
376.11196	16767.275
380.27849	16832.275
384.44203	16943.575
388.60257	17082.975
392.76012	17240.375
396.91468	17401.075
401.06626	17617.575
405.21485	17764.275
409.36047	17742.475
413.50311	17624.575
417.64277	17550.675
421.77947	17606.875
425.9132	17658.075
430.04396	17806.075
434.17176	17859.675
438.2966	17931.875
442.41849	18144.275
446.53742	18393.975
450.6534	18720.575
454.76644	19004.375
458.87653	19069.975
462.98368	19073.075
467.08789	19003.475
471.18916	18865.475
475.2875	18755.175
479.38291	18739.375
483.4754	18670.675
487.56496	18527.475
491.6516	18294.575
495.73531	18081.275
499.81612	17980.975
503.89401	18043.475
507.96899	18126.775
512.04106	18112.175
516.11023	18076.775
520.1765	17988.775
524.23987	17831.775
528.30034	17709.475
532.35792	17654.375
536.41261	17533.175
540.46441	17430.375
544.51333	17481.875
548.55936	17607.375
552.60252	17873.275
556.64279	18168.375
560.6802	18386.375
564.71473	18494.775
568.7464	18665.475
572.7752	19061.075
576.80114	19461.075
580.82422	19843.475
584.84444	20244.875
588.86181	20807.375
592.87633	21155.875
596.888	20997.775
600.89682	20417.575
604.9028	20237.275
608.90594	20998.375
612.90624	21891.575
616.90371	20951.075
620.89834	18825.275
624.89015	17894.375
628.87913	17850.475
632.86528	17964.875
636.84862	18030.175
640.82913	17878.175
644.80683	17648.475
648.78172	17474.075
652.75379	17466.875
656.72306	17558.175
660.68952	17721.375
664.65319	17643.775
668.61405	17474.575
672.57211	17483.175
676.52738	17534.775
680.47986	17576.975
684.42955	17522.275
688.37646	17443.775
692.32058	17497.175
696.26192	17614.675
700.20048	17793.975
704.13626	17904.075
708.06928	17960.275
711.99952	17913.175
715.927	17870.675
719.85171	17881.575
723.77365	17823.975
727.69284	17703.575
731.60928	17584.475
735.52295	17499.175
739.43388	17442.275
743.34206	17468.475
747.24749	17568.275
751.15017	17673.375
755.05012	17851.075
758.94733	18186.175
762.8418	18699.775
766.73354	19522.375
770.62254	20279.675
774.50882	20427.275
778.39237	19887.775
782.27321	19000.175
786.15132	18278.575
790.02671	17746.775
793.89938	17543.875
797.76935	17395.375
801.6366	17372.175
805.50115	17357.775
809.36299	17285.575
813.22213	17251.175
817.07857	17225.975
820.93231	17211.775
824.78336	17123.175
828.63172	17105.875
832.47738	17059.575
836.32036	17044.275
840.16066	17050.475
843.99827	17079.675
847.8332	17075.875
851.66546	17051.675
855.49504	17083.675
859.32195	17089.475
863.1462	17092.675
866.96777	17043.175
870.78668	17004.175
874.60293	17054.375
878.41652	17063.275
882.22745	17120.275
886.03573	17117.275
889.84136	17105.375
893.64433	17074.075
897.44466	17090.175
901.24235	17022.075
905.0374	16964.075
908.8298	16987.375
912.61957	16956.375
916.40671	17080.675
920.19121	17231.575
923.97308	17326.875
927.75233	17231.275
931.52895	17137.775
935.30295	16972.475
939.07433	16775.875
942.84309	16625.975
946.60924	16541.075
950.37278	16469.975
954.13371	16454.175
957.89203	16483.375
961.64774	16460.975
965.40086	16432.475
969.15137	16346.875
972.89929	16321.275
976.64461	16280.475
980.38733	16245.575
984.12747	16271.975
987.86502	16317.775
991.59999	16337.875
995.33237	16425.575
999.06217	16564.375
1002.78939	16704.475
1006.51404	16852.675
1010.23611	17035.475
1013.95561	17149.675
1017.67255	17206.275
1021.38692	17160.175
1025.09872	17012.375
1028.80796	16861.875
1032.51465	16800.875
1036.21877	16813.275
1039.92035	16882.375
1043.61937	16889.875
1047.31584	16940.275
1051.00976	16976.475
1054.70114	17033.575
1058.38998	17122.675
1062.07627	17263.975
1065.76003	17425.775
1069.44126	17575.475
1073.11995	17677.875
1076.79611	17853.775
1080.46974	17913.575
1084.14085	17924.975
1087.80943	18018.475
1091.47549	18131.875
1095.13903	18153.075
1098.80005	18043.875
1102.45857	17813.475
1106.11456	17567.875
1109.76805	17433.075
1113.41903	17398.175
1117.06751	17438.775
1120.71348	17585.975
1124.35696	17723.975
1127.99793	17932.175
1131.63641	18052.675
1135.2724	17931.975
1138.90589	17885.175
1142.5369	17882.575
1146.16542	17920.275
1149.79145	17994.775
1153.415	18111.875
1157.03607	18247.475
1160.65467	18629.775
1164.27079	19187.275
1167.88443	19845.575
1171.49561	20585.375
1175.10432	21346.975
1178.71056	22423.275
1182.31434	23405.475
1185.91565	24013.375
1189.51451	23990.475
1193.11091	23672.875
1196.70485	23142.075
1200.29634	22559.975
1203.88538	22117.975
1207.47197	21882.475
1211.05612	21674.175
1214.63782	21304.275
1218.21708	20820.275
1221.79391	20330.775
1225.36829	19966.175
1228.94024	19732.975
1232.50976	19609.775
1236.07685	19495.975
1239.6415	19434.175
1243.20374	19508.175
1246.76355	19616.775
1250.32093	19781.375
1253.8759	20020.775
1257.42845	20374.775
1260.97859	20806.575
1264.52631	21155.075
1268.07163	21531.075
1271.61453	21907.375
1275.15503	22274.075
1278.69312	22646.375
1282.22882	23042.275
1285.76211	23642.475
1289.29301	24390.375
1292.82151	25247.075
1296.34761	26298.075
1299.87133	27481.775
1303.39266	28597.675
1306.9116	29471.175
1310.42815	30114.375
1313.94233	30472.675
1317.45412	30332.675
1320.96354	30011.175
1324.47058	29740.475
1327.97525	29510.275
1331.47754	29349.575
1334.97747	29277.575
1338.47502	29113.575
1341.97022	28973.875
1345.46305	28850.175
1348.95352	28676.175
1352.44163	28642.575
1355.92738	29022.475
1359.41078	29636.175
1362.89183	30082.375
1366.37053	29562.275
1369.84688	27781.675
1373.32088	25581.375
1376.79254	24024.675
1380.26186	23492.075
1383.72883	23486.475
1387.19347	23486.375
1390.65578	23399.075
1394.11575	23360.975
1397.57339	23458.975
1401.0287	23599.475
1404.48168	23749.875
1407.93234	23633.575
1411.38068	23154.575
1414.82669	22505.475
1418.27039	21743.775
1421.71177	21068.075
1425.15083	20526.475
1428.58758	20280.175
1432.02203	20393.975
1435.45416	20733.575
1438.88399	21167.275
1442.31151	21465.675
1445.73673	21716.375
1449.15965	21860.575
1452.58027	21938.375
1455.9986	21963.175
1459.41463	22094.275
1462.82837	22290.275
1466.23982	22521.375
1469.64898	22787.675
1473.05586	22898.475
1476.46045	22941.975
1479.86276	22782.275
1483.26279	22643.375
1486.66054	22566.575
1490.05602	22606.075
1493.44922	22794.975
1496.84016	23131.775
1500.22882	23620.275
1503.61521	24296.775
1506.99934	25031.375
1510.38121	25594.175
1513.76081	25619.575
1517.13816	25250.375
1520.51324	24757.275
1523.88607	24358.275
1527.25665	24218.775
1530.62498	24167.875
1533.99105	24074.175
1537.35488	23791.775
1540.71647	23377.675
1544.07581	22882.575
1547.4329	22355.075
1550.78776	21911.175
1554.14038	21616.875
1557.49077	21407.975
1560.83892	21336.775
1564.18484	21300.575
1567.52853	21336.575
1570.86999	21590.175
1574.20922	21887.975
1577.54624	22234.975
1580.88103	22376.575
1584.2136	22477.475
1587.54395	22787.575
1590.87208	23462.975
1594.19801	24231.375
1597.52172	25006.175
1600.84321	25141.175
1604.16251	24359.475
1607.47959	23054.475
1610.79447	21713.675
1614.10715	20383.075
1617.41763	19331.775
1620.7259	18535.775
1624.03199	18134.275
1627.33587	18099.875
1630.63757	18436.575
1633.93707	19162.175
1637.23439	20469.275
1640.52951	22423.975
1643.82246	24711.175
1647.11321	26483.075
1650.40179	26787.775
1653.68819	25306.375
1656.97241	22710.975
1660.25446	20178.675
1663.53433	18337.375
1666.81203	17099.175
1670.08756	16316.375
1673.36092	15818.975
1676.63211	15483.875
1679.90115	15247.575
1683.16801	15045.875
1686.43272	14959.875
1689.69527	14809.975
1692.95567	14775.975
1696.2139	14731.875
1699.46999	14655.175
1702.72392	14650.475
1705.97571	14605.875
1709.22535	14557.975
1712.47284	14522.375
1715.71819	14490.475
1718.96139	14484.675
1722.20246	14436.875
1725.44139	14402.675
1728.67818	14339.675
1731.91284	14256.275
1735.14537	14176.575
1738.37576	14129.375
1741.60403	14129.875
1744.83017	14103.675
1748.05418	14030.275
1751.27607	14007.675
1754.49584	13996.775
1757.71349	14020.075
1760.92903	14015.075
1764.14244	13979.475
1767.35375	13964.175
1770.56294	13952.275
1773.77002	13925.275
1776.97499	13883.375
1780.17785	13851.275
1783.37861	13808.475
1786.57727	13763.475
1789.77382	13727.675
1792.96828	13714.775
1796.16064	13684.075
1799.3509	13666.675
1802.53907	13635.275
1805.72514	13605.375
1808.90913	13552.075
1812.09102	13526.975
1815.27083	13506.675
1818.44856	13498.975
1821.6242	13449.875
1824.79776	13436.975
1827.96924	13440.075
1831.13864	13423.875
1834.30597	13402.275
1837.47122	13393.275
1840.6344	13431.775
1843.7955	13402.275
1846.95454	13365.975
1850.11151	13342.875
1853.26642	13331.675
1856.41926	13346.175
1859.57004	13331.675
1862.71876	13311.875
1865.86542	13280.075
1869.01003	13258.875
1872.15258	13250.275
1875.29308	13232.175
1878.43152	13249.575
1881.56792	13207.875
1884.70227	13187.375
1887.83457	13160.075
1890.96482	13107.975
1894.09304	13113.475
1897.21921	13099.175
1900.34335	13041.575
1903.46544	13065.075
1906.58551	13045.375
1909.70353	13015.275
1912.81953	12977.475
1915.93349	12997.375
1919.04543	12911.475
1922.15534	12882.275
1925.26322	12862.275
1928.36908	12868.875
1931.47292	12823.075
1934.57473	12806.175
1937.67453	12779.875
1940.77232	12755.775
1943.86808	12714.875
1946.96184	12691.675
1950.05358	12640.975
1953.14331	12578.575
1956.23103	12546.475
1959.31675	12516.975
1962.40046	12514.775
1965.48217	12465.875
1968.56188	12399.575
1971.63959	12330.275
1974.7153	12319.275
1977.78901	12298.975
1980.86073	12260.975
1983.93046	12239.575
1986.99819	12175.875
1990.06394	12147.475
1993.1277	12142.775
1996.18947	12113.175
1999.24925	12065.975
2002.30706	12014.875
2005.36288	11978.275
2008.41672	11906.775
2011.46859	11885.175
2014.51848	11884.475
2017.56639	11848.375
2020.61233	11798.075
2023.6563	11791.275
2026.6983	11723.375
2029.73833	11703.875
2032.7764	11660.075
2035.8125	11649.175
2038.84664	11636.175
2041.87881	11600.475
2044.90903	11554.275
2047.93729	11530.775
2050.96359	11521.275
2053.98794	11486.475
2057.01034	11503.875
2060.03078	11491.875
2063.04927	11473.475
2066.06582	11465.075
2069.08042	11447.675
2072.09307	11450.975
2075.10378	11429.375
2078.11255	11449.475
2081.11938	11455.675
2084.12426	11436.275
2087.12722	11416.075
2090.12824	11404.275
2093.12732	11396.075
2096.12447	11413.975
2099.11969	11396.275
2102.11299	11404.875
2105.10435	11393.675
2108.09379	11365.475
2111.08131	11390.775
2114.0669	11390.275
2117.05057	11394.275
2120.03233	11443.275
2123.01216	11425.375
2125.99008	11443.475
2128.96609	11421.675
2131.94018	11429.175
2134.91236	11448.975
2137.88263	11461.675
2140.851	11460.075
2143.81746	11467.175
2146.78201	11416.275
2149.74466	11443.375
2152.7054	11439.675
2155.66425	11442.875
2158.6212	11460.775
2161.57625	11408.875
2164.52941	11420.475
2167.48067	11404.375
2170.43004	11389.975
2173.37752	11394.475
2176.32311	11408.475
2179.26681	11390.475
2182.20863	11433.275
2185.14856	11397.175
2188.08661	11370.575
2191.02278	11389.875
2193.95707	11390.875
2196.88948	11373.475
2199.82001	11354.775
2202.74867	11332.675
2205.67545	11329.275
2208.60037	11279.975
2211.52341	11267.875
2214.44458	11278.175
2217.36388	11245.475
2220.28132	11211.475
2223.1969	11169.275
2226.11061	11178.075
2229.02246	11146.775
2231.93245	11141.675
2234.84058	11120.975
2237.74686	11100.975
2240.65128	11099.275
2243.55385	11033.275
2246.45456	11019.975
2249.35343	11015.475
2252.25044	11016.575
2255.14561	10956.575
2258.03893	10977.575
2260.93041	10939.575
2263.82004	10914.175
2266.70783	10863.775
2269.59378	10829.675
2272.4779	10796.875
2275.36017	10773.575
2278.24061	10761.875
2281.11922	10769.375
2283.996	10760.575
2286.87094	10710.475
2289.74405	10714.275
2292.61534	10679.675
2295.4848	10669.775
2298.35243	10697.375
2301.21824	10654.075
2304.08223	10643.075
2306.94439	10642.875
2309.80474	10652.475
2312.66327	10653.775
2315.51999	10628.775
2318.37489	10592.475
2321.22797	10537.575
2324.07925	10557.175
2326.92871	10561.575
2329.77637	10539.775
2332.62222	10501.575
2335.46626	10496.375
2338.3085	10483.575
2341.14893	10477.175
2343.98756	10472.475
2346.8244	10431.675
2349.65943	10437.675
2352.49267	10415.275
2355.32411	10436.475
2358.15376	10443.775
2360.98161	10410.475
2363.80768	10422.875
2366.63195	10403.875
2369.45444	10378.575
2372.27514	10374.275
2375.09405	10358.975
2377.91118	10374.775
2380.72652	10317.875
2383.54009	10291.775
2386.35187	10255.675
2389.16188	10242.775
2391.97011	10215.175
2394.77657	10196.375
2397.58125	10185.975
2400.38416	10166.675
2403.18529	10164.175
2405.98466	10133.975
2408.78226	10127.575
2411.57809	10086.975
2414.37216	10086.275
2417.16446	10071.175
2419.955	10051.675
2422.74378	10059.775
2425.5308	10031.275
2428.31606	10030.175
2431.09956	10032.375
2433.88131	10015.375
2436.6613	10019.375
2439.43954	9996.075
2442.21603	10000.175
2444.99077	10001.575
2447.76377	9989.975
2450.53501	9968.675
2453.30451	9954.975
2456.07226	9949.175
2458.83827	9935.775
2461.60254	9926.575
2464.36507	9905.675
2467.12586	9888.575
2469.88492	9892.275
2472.64224	9864.675
2475.39782	9884.275
2478.15167	9883.675
2480.90379	9878.375
2483.65417	9855.875
2486.40283	9884.375
2489.14976	9868.775
2491.89497	9840.975
2494.63845	9845.975
2497.3802	9836.875
2500.12024	9826.175
2502.85855	9813.675
2505.59514	9829.175
2508.33002	9782.075
2511.06318	9767.975
2513.79462	9754.575
2516.52435	9733.375
2519.25237	9718.875
2521.97867	9708.375
2524.70327	9721.175
2527.42616	9721.775
2530.14734	9687.575
2532.86681	9699.175
2535.58458	9709.175
2538.30065	9687.875
2541.01501	9673.775
2543.72768	9657.375
2546.43864	9644.775
2549.14791	9631.375
2551.85548	9627.075
2554.56136	9611.175
2557.26554	9574.875
2559.96803	9560.975
2562.66883	9543.575
2565.36794	9525.275
2568.06536	9507.375
2570.7611	9468.975
2573.45514	9491.275
2576.14751	9452.975
2578.83819	9442.875
2581.52719	9407.975
2584.21451	9399.975
2586.90015	9407.675
2589.58411	9371.175
2592.2664	9364.675
2594.94701	9361.075
2597.62594	9350.875
2600.30321	9321.375
2602.9788	9328.575
2605.65273	9304.275
2608.32498	9286.575
2610.99557	9287.575
2613.66449	9284.575
2616.33175	9262.075
2618.99734	9223.075
2621.66128	9227.875
2624.32355	9230.275
2626.98416	9210.875
2629.64311	9196.375
2632.30041	9176.975
2634.95605	9161.875
2637.61004	9142.075
2640.26238	9143.175
2642.91306	9148.075
2645.56209	9157.675
2648.20948	9157.775
2650.85521	9135.375
2653.4993	9126.875
2656.14175	9128.175
2658.78255	9141.175
2661.42171	9116.775
2664.05923	9145.475
2666.6951	9139.475
2669.32934	9161.775
2671.96194	9130.675
2674.59291	9125.175
2677.22224	9110.075
2679.84993	9124.375
2682.476	9117.975
2685.10043	9092.175
2687.72324	9101.275
2690.34441	9115.475
2692.96396	9109.375
2695.58188	9101.875
2698.19818	9057.175
2700.81285	9089.675
2703.4259	9100.375
2706.03733	9113.775
2708.64714	9111.275
2711.25533	9092.775
2713.86191	9074.775
2716.46687	9083.075
2719.07021	9078.875
2721.67194	9099.175
2724.27206	9085.475
2726.87057	9089.575
2729.46747	9107.375
2732.06276	9096.475
2734.65644	9088.575
2737.24852	9071.675
2739.83899	9055.575
2742.42786	9057.975
2745.01513	9040.775
2747.60079	9034.675
2750.18486	9027.575
2752.76733	9009.175
2755.3482	9003.275
2757.92747	8958.975
2760.50515	8972.075
2763.08123	8960.375
2765.65573	8947.075
2768.22863	8930.475
2770.79994	8934.075
2773.36967	8928.975
2775.9378	8915.975
2778.50435	8895.575
2781.06932	8903.175
2783.6327	8876.175
2786.1945	8910.975
2788.75471	8876.875
2791.31335	8864.575
2793.87041	8870.075
2796.42589	8827.275
2798.97979	8815.875
2801.53212	8794.675
2804.08288	8793.775
2806.63206	8753.875
2809.17967	8735.775
2811.72571	8697.375
2814.27018	8682.575
2816.81308	8685.075
2819.35442	8669.275
2821.89419	8646.475
2824.43239	8639.875
2826.96904	8609.175
2829.50412	8604.775
2832.03763	8584.375
2834.56959	8613.375
2837.1	8583.275
2839.62884	8586.775
2842.15613	8583.675
2844.68186	8593.975
2847.20604	8628.775
2849.72867	8637.475
2852.24974	8623.275
2854.76927	8605.875
2857.28724	8584.075
2859.80367	8572.175
2862.31855	8571.475
2864.83189	8536.175
2867.34368	8535.075
2869.85393	8502.475
2872.36264	8515.175
2874.8698	8490.175
2877.37543	8515.775
2879.87952	8487.075
2882.38207	8496.275
2884.88308	8471.375
2887.38256	8491.875
2889.88051	8484.575
2892.37692	8486.375
2894.8718	8473.775
2897.36515	8478.675
2899.85698	8484.675
2902.34727	8495.475
2904.83604	8494.275
2907.32328	8488.175
2909.809	8476.275
2912.29319	8497.975
2914.77587	8473.775
2917.25702	8480.975
2919.73665	8477.375
2922.21476	8491.675
2924.69136	8479.275
2927.16644	8474.275
2929.64	8462.975
2932.11205	8455.375
2934.58258	8428.475
2937.05161	8426.375
2939.51912	8429.975
2941.98513	8409.475
2944.44962	8411.475
2946.91261	8361.075
2949.37409	8389.975
2951.83407	8343.675
2954.29254	8344.975
2956.74951	8339.175
2959.20498	8349.175
2961.65895	8336.675
2964.11142	8338.475
2966.56239	8342.375
2969.01186	8353.175
2971.45984	8284.075
2973.90632	8292.175
2976.35131	8261.975
2978.7948	8235.575
2981.23681	8218.175
2983.67732	8216.775
2986.11635	8197.175
2988.55388	8151.375
2990.98993	8160.075
2993.4245	8150.075
2995.85758	8095.975
2998.28917	8087.875
3000.71928	8071.375
3003.14791	8054.975
3005.57506	8060.475
3008.00073	8048.875
3010.42493	8014.875
3012.84764	8011.875
3015.26888	7983.475
3017.68865	7957.475
3020.10694	7963.675
3022.52376	7931.575
3024.9391	7941.875
3027.35298	7924.975
3029.76539	7926.475
3032.17632	7903.075
3034.5858	7910.575
3036.9938	7912.375
3039.40034	7904.075
3041.80542	7893.775
3044.20903	7864.575
3046.61118	7872.475
3049.01187	7854.075
3051.4111	7830.575
3053.80888	7823.675
3056.20519	7810.275
3058.60005	7784.775
3060.99345	7797.275
3063.3854	7766.875
3065.7759	7740.075
3068.16494	7723.475
3070.55254	7717.475
3072.93868	7710.275
3075.32338	7684.875
3077.70662	7675.375
3080.08842	7649.675
3082.46878	7643.875
3084.84769	7631.075
3087.22515	7615.275
3089.60118	7624.075
3091.97576	7623.575
3094.3489	7601.475
3096.72061	7597.875
3099.09087	7606.575
3101.4597	7608.375
3103.82709	7611.075
3106.19305	7583.475
3108.55757	7577.375
3110.92066	7573.275
3113.28232	7563.475
3115.64255	7548.675
3118.00134	7521.875
3120.35871	7519.975
3122.71466	7511.175
3125.06917	7503.475
3127.42226	7470.475
3129.77393	7486.675
3132.12417	7479.375
3134.47299	7486.675
3136.82039	7463.475
3139.16636	7466.675
3141.51092	7475.075
3143.85406	7473.875
3146.19579	7458.875
3148.53609	7448.275
3150.87499	7459.975
3153.21246	7469.775
3155.54853	7485.675
3157.88318	7465.175
3160.21642	7474.275
