Data from AgNP_FTO_APTES_UA_10uM_CRN_1000uM_R6G_10uM_NaF_0.1M_Addition_RamanShift__17__19-41-00-998.txt Node

Date: Thu Feb 10 19:41:00 GMT 2022
User: TCL
Spectrometer: QEP01345
Trigger mode: 4
Integration Time (sec): 7.000000E0
Scans to average: 10
Electric dark correction enabled: true
Nonlinearity correction enabled: false
Boxcar width: 0
XAxis mode: Raman Shifts
Number of Pixels in Spectrum: 1044
>>>>>Begin Spectral Data<<<<<
46.04893	-1.075
50.45542	0.025
54.85868	-0.675
59.25871	-1.275
63.6555	54.325
68.04907	56.125
72.43941	63.925
76.82654	62.425
81.21044	66.725
85.59113	67.325
89.96862	73.925
94.34289	73.925
98.71396	75.525
103.08183	78.125
107.4465	80.925
111.80798	80.525
116.16626	84.125
120.52136	86.925
124.87327	91.825
129.222	92.025
133.56755	101.525
137.90993	109.525
142.24913	116.725
146.58517	137.625
150.91804	152.925
155.24774	183.225
159.57429	229.125
163.89768	291.325
168.21792	383.925
172.53501	530.825
176.84895	734.825
181.15975	1037.625
185.46741	1453.025
189.77193	2022.925
194.07331	2704.925
198.37157	3506.525
202.6667	4335.125
206.9587	5161.325
211.24758	5954.125
215.53334	6752.525
219.81599	7599.025
224.09553	8514.925
228.37195	9521.825
232.64527	10628.625
236.91549	11797.225
241.18261	12982.725
245.44663	14120.825
249.70755	15130.625
253.96539	16043.125
258.22014	16808.925
262.4718	17489.125
266.72039	17936.125
270.96589	18197.725
275.20832	18259.825
279.44768	18178.425
283.68397	17994.425
287.91719	17842.125
292.14735	17749.125
296.37445	17735.625
300.59849	17756.225
304.81948	17739.425
309.03742	17653.825
313.25231	17427.925
317.46415	17120.425
321.67296	16690.825
325.87872	16399.225
330.08145	16268.725
334.28114	16284.925
338.47781	16373.825
342.67145	16517.725
346.86207	16750.525
351.04966	17032.925
355.23424	17333.025
359.4158	17586.925
363.59435	17825.025
367.76989	17952.525
371.94243	18102.325
376.11196	18218.925
380.27849	18334.925
384.44203	18457.925
388.60257	18592.825
392.76012	18735.425
396.91468	18871.225
401.06626	19059.425
405.21485	19241.425
409.36047	19140.525
413.50311	18958.625
417.64277	18820.925
421.77947	18847.725
425.9132	18933.425
430.04396	19089.025
434.17176	19251.925
438.2966	19375.525
442.41849	19715.125
446.53742	20170.625
450.6534	20628.525
454.76644	21026.325
458.87653	21143.125
462.98368	21054.225
467.08789	20979.125
471.18916	20795.625
475.2875	20671.125
479.38291	20714.725
483.4754	20706.125
487.56496	20512.425
491.6516	20191.825
495.73531	19835.525
499.81612	19649.925
503.89401	19591.825
507.96899	19597.225
512.04106	19560.625
516.11023	19474.725
520.1765	19340.525
524.23987	19207.225
528.30034	19078.625
532.35792	18987.725
536.41261	18841.125
540.46441	18736.625
544.51333	18778.925
548.55936	18943.225
552.60252	19235.825
556.64279	19671.625
560.6802	20012.325
564.71473	20256.125
568.7464	20592.925
572.7752	21029.425
576.80114	21314.425
580.82422	21424.925
584.84444	21470.925
588.86181	21664.825
592.87633	21924.325
596.888	21891.325
600.89682	21575.625
604.9028	21716.425
608.90594	22839.325
612.90624	24140.925
616.90371	23151.825
620.89834	20410.525
624.89015	19153.925
628.87913	18967.225
632.86528	19086.225
636.84862	19143.925
640.82913	19017.025
644.80683	18724.725
648.78172	18473.025
652.75379	18406.925
656.72306	18501.725
660.68952	18707.725
664.65319	18658.625
668.61405	18419.225
672.57211	18391.925
676.52738	18474.725
680.47986	18526.025
684.42955	18493.925
688.37646	18445.525
692.32058	18453.025
696.26192	18575.325
700.20048	18707.725
704.13626	18777.225
708.06928	18781.425
711.99952	18741.425
715.927	18683.325
719.85171	18675.625
723.77365	18657.825
727.69284	18536.425
731.60928	18428.925
735.52295	18361.225
739.43388	18339.825
743.34206	18356.625
747.24749	18380.725
751.15017	18510.225
755.05012	18684.225
758.94733	19030.725
762.8418	19689.625
766.73354	20726.025
770.62254	21696.425
774.50882	21964.625
778.39237	21278.225
782.27321	20105.425
786.15132	19164.325
790.02671	18556.525
793.89938	18273.425
797.76935	18148.225
801.6366	18111.725
805.50115	18079.525
809.36299	18008.025
813.22213	17920.825
817.07857	17914.925
820.93231	17902.225
824.78336	17823.325
828.63172	17768.925
832.47738	17705.325
836.32036	17692.725
840.16066	17678.525
843.99827	17682.525
847.8332	17695.925
851.66546	17653.425
855.49504	17643.425
859.32195	17702.625
863.1462	17664.625
866.96777	17662.725
870.78668	17616.225
874.60293	17617.125
878.41652	17575.525
882.22745	17592.325
886.03573	17661.125
889.84136	17681.325
893.64433	17644.725
897.44466	17602.025
901.24235	17527.725
905.0374	17479.525
908.8298	17393.525
912.61957	17430.625
916.40671	17481.625
920.19121	17603.025
923.97308	17722.025
927.75233	17686.825
931.52895	17607.125
935.30295	17452.225
939.07433	17240.725
942.84309	17053.325
946.60924	16913.825
950.37278	16871.525
954.13371	16862.825
957.89203	16810.825
961.64774	16825.825
965.40086	16750.825
969.15137	16692.825
972.89929	16595.325
976.64461	16566.525
980.38733	16507.525
984.12747	16529.425
987.86502	16558.525
991.59999	16699.325
995.33237	16845.125
999.06217	17089.125
1002.78939	17338.725
1006.51404	17537.625
1010.23611	17627.825
1013.95561	17796.025
1017.67255	17835.325
1021.38692	17699.125
1025.09872	17553.525
1028.80796	17501.225
1032.51465	17547.325
1036.21877	17691.125
1039.92035	17711.325
1043.61937	17637.825
1047.31584	17512.025
1051.00976	17426.125
1054.70114	17411.025
1058.38998	17497.025
1062.07627	17579.025
1065.76003	17660.225
1069.44126	17721.225
1073.11995	17799.225
1076.79611	17954.125
1080.46974	17983.625
1084.14085	18097.425
1087.80943	18235.925
1091.47549	18339.725
1095.13903	18364.825
1098.80005	18283.625
1102.45857	18030.525
1106.11456	17847.025
1109.76805	17786.325
1113.41903	17820.525
1117.06751	17927.625
1120.71348	18066.125
1124.35696	18234.525
1127.99793	18415.725
1131.63641	18581.225
1135.2724	18484.425
1138.90589	18340.225
1142.5369	18287.425
1146.16542	18332.825
1149.79145	18445.625
1153.415	18592.825
1157.03607	18804.925
1160.65467	19206.225
1164.27079	19857.625
1167.88443	20645.625
1171.49561	21567.625
1175.10432	22813.125
1178.71056	24342.925
1182.31434	25759.625
1185.91565	26565.125
1189.51451	26539.625
1193.11091	26085.425
1196.70485	25365.425
1200.29634	24568.825
1203.88538	23910.425
1207.47197	23480.925
1211.05612	23060.625
1214.63782	22622.625
1218.21708	22269.625
1221.79391	21991.125
1225.36829	21699.825
1228.94024	21466.325
1232.50976	21055.425
1236.07685	20716.325
1239.6415	20591.025
1243.20374	20599.625
1246.76355	20732.725
1250.32093	20903.225
1253.8759	21180.725
1257.42845	21603.025
1260.97859	22014.425
1264.52631	22501.925
1268.07163	22934.925
1271.61453	23402.325
1275.15503	23853.025
1278.69312	24453.025
1282.22882	24891.925
1285.76211	25463.825
1289.29301	26187.625
1292.82151	27196.725
1296.34761	28485.325
1299.87133	29963.325
1303.39266	31427.425
1306.9116	32809.325
1310.42815	34150.925
1313.94233	35033.425
1317.45412	35083.525
1320.96354	34658.925
1324.47058	34223.125
1327.97525	33771.025
1331.47754	33479.625
1334.97747	33383.625
1338.47502	33387.525
1341.97022	33304.825
1345.46305	32884.825
1348.95352	32463.525
1352.44163	32054.025
1355.92738	32044.825
1359.41078	32554.225
1362.89183	33146.425
1366.37053	32592.825
1369.84688	30426.225
1373.32088	27834.025
1376.79254	26065.625
1380.26186	25448.525
1383.72883	25569.825
1387.19347	25711.725
1390.65578	25866.425
1394.11575	26027.425
1397.57339	26367.925
1401.0287	26809.325
1404.48168	27169.425
1407.93234	27115.125
1411.38068	26572.525
1414.82669	25702.825
1418.27039	24677.725
1421.71177	23620.925
1425.15083	22781.825
1428.58758	22283.325
1432.02203	22283.725
1435.45416	22683.225
1438.88399	23262.825
1442.31151	23807.225
1445.73673	24247.025
1449.15965	24593.525
1452.58027	24928.025
1455.9986	25101.225
1459.41463	25304.825
1462.82837	25492.825
1466.23982	25712.025
1469.64898	25863.525
1473.05586	25936.525
1476.46045	25762.925
1479.86276	25511.225
1483.26279	25170.625
1486.66054	24954.425
1490.05602	24867.225
1493.44922	24935.725
1496.84016	25041.825
1500.22882	25332.525
1503.61521	25832.925
1506.99934	26658.225
1510.38121	27351.825
1513.76081	27669.025
1517.13816	27245.425
1520.51324	26410.225
1523.88607	25671.425
1527.25665	25333.825
1530.62498	25333.425
1533.99105	25339.525
1537.35488	25336.825
1540.71647	25072.625
1544.07581	24665.325
1547.4329	24219.925
1550.78776	23740.425
1554.14038	23463.725
1557.49077	23298.925
1560.83892	23213.125
1564.18484	23188.925
1567.52853	23206.225
1570.86999	23410.025
1574.20922	23808.325
1577.54624	24160.825
1580.88103	24341.725
1584.2136	24537.325
1587.54395	25060.525
1590.87208	25867.025
1594.19801	26937.525
1597.52172	28028.525
1600.84321	28357.025
1604.16251	27469.625
1607.47959	25861.525
1610.79447	23980.925
1614.10715	22185.925
1617.41763	20745.225
1620.7259	19674.825
1624.03199	19071.925
1627.33587	18982.625
1630.63757	19354.625
1633.93707	20294.125
1637.23439	21844.325
1640.52951	24049.525
1643.82246	26551.625
1647.11321	28539.025
1650.40179	28985.225
1653.68819	27368.925
1656.97241	24446.225
1660.25446	21433.325
1663.53433	19146.925
1666.81203	17647.625
1670.08756	16681.625
1673.36092	16095.325
1676.63211	15695.425
1679.90115	15398.725
1683.16801	15163.425
1686.43272	15004.325
1689.69527	14893.925
1692.95567	14810.225
1696.2139	14769.225
1699.46999	14723.325
1702.72392	14680.425
1705.97571	14607.125
1709.22535	14540.925
1712.47284	14495.025
1715.71819	14473.625
1718.96139	14441.325
1722.20246	14383.625
1725.44139	14306.925
1728.67818	14250.725
1731.91284	14161.725
1735.14537	14095.425
1738.37576	14047.325
1741.60403	14026.025
1744.83017	13954.925
1748.05418	13923.825
1751.27607	13935.225
1754.49584	13932.325
1757.71349	13931.025
1760.92903	13898.925
1764.14244	13852.425
1767.35375	13839.525
1770.56294	13807.525
1773.77002	13778.125
1776.97499	13740.125
1780.17785	13714.425
1783.37861	13658.525
1786.57727	13620.025
1789.77382	13587.525
1792.96828	13575.425
1796.16064	13529.525
1799.3509	13521.125
1802.53907	13496.925
1805.72514	13458.125
1808.90913	13394.425
1812.09102	13345.825
1815.27083	13326.725
1818.44856	13310.125
1821.6242	13275.425
1824.79776	13230.725
1827.96924	13219.325
1831.13864	13235.125
1834.30597	13210.125
1837.47122	13205.825
1840.6344	13139.825
1843.7955	13177.025
1846.95454	13157.525
1850.11151	13123.125
1853.26642	13131.125
1856.41926	13131.725
1859.57004	13124.825
1862.71876	13070.625
1865.86542	13087.625
1869.01003	13071.125
1872.15258	13044.425
1875.29308	13040.025
1878.43152	13008.425
1881.56792	13038.125
1884.70227	12993.625
1887.83457	12986.925
1890.96482	12956.825
1894.09304	12906.525
1897.21921	12902.425
1900.34335	12912.525
1903.46544	12903.025
1906.58551	12900.125
1909.70353	12868.325
1912.81953	12864.325
1915.93349	12831.325
1919.04543	12789.425
1922.15534	12756.625
1925.26322	12726.925
1928.36908	12691.925
1931.47292	12680.025
1934.57473	12668.125
1937.67453	12637.025
1940.77232	12606.925
1943.86808	12589.825
1946.96184	12514.025
1950.05358	12476.225
1953.14331	12435.425
1956.23103	12397.125
1959.31675	12362.825
1962.40046	12339.825
1965.48217	12271.525
1968.56188	12257.725
1971.63959	12208.825
1974.7153	12187.025
1977.78901	12158.925
1980.86073	12112.225
1983.93046	12068.925
1986.99819	12040.525
1990.06394	12007.825
1993.1277	11956.525
1996.18947	11880.425
1999.24925	11876.725
2002.30706	11834.825
2005.36288	11822.125
2008.41672	11756.325
2011.46859	11718.525
2014.51848	11692.025
2017.56639	11685.925
2020.61233	11653.125
2023.6563	11625.825
2026.6983	11588.925
2029.73833	11558.625
2032.7764	11526.925
2035.8125	11490.325
2038.84664	11461.325
2041.87881	11410.625
2044.90903	11397.325
2047.93729	11389.125
2050.96359	11401.925
2053.98794	11387.325
2057.01034	11347.825
2060.03078	11326.425
2063.04927	11308.925
2066.06582	11316.125
2069.08042	11320.525
2072.09307	11333.425
2075.10378	11305.025
2078.11255	11296.225
2081.11938	11292.425
2084.12426	11265.925
2087.12722	11252.325
2090.12824	11260.425
2093.12732	11251.425
2096.12447	11252.225
2099.11969	11242.525
2102.11299	11218.925
2105.10435	11244.425
2108.09379	11225.425
2111.08131	11238.025
2114.0669	11227.425
2117.05057	11227.725
2120.03233	11251.025
2123.01216	11260.025
2125.99008	11267.825
2128.96609	11268.625
2131.94018	11285.225
2134.91236	11284.625
2137.88263	11274.625
2140.851	11266.425
2143.81746	11297.125
2146.78201	11284.925
2149.74466	11299.825
2152.7054	11299.325
2155.66425	11283.325
2158.6212	11290.325
2161.57625	11261.825
2164.52941	11264.125
2167.48067	11247.225
2170.43004	11244.725
2173.37752	11252.925
2176.32311	11243.325
2179.26681	11239.825
2182.20863	11237.125
2185.14856	11223.825
2188.08661	11207.225
2191.02278	11230.725
2193.95707	11233.225
2196.88948	11238.525
2199.82001	11221.225
2202.74867	11188.525
2205.67545	11160.925
2208.60037	11132.625
2211.52341	11161.225
2214.44458	11161.625
2217.36388	11117.825
2220.28132	11082.225
2223.1969	11060.425
2226.11061	11046.425
2229.02246	11019.925
2231.93245	10998.325
2234.84058	10969.725
2237.74686	10946.825
2240.65128	10931.525
2243.55385	10865.825
2246.45456	10875.225
2249.35343	10845.225
2252.25044	10869.425
2255.14561	10819.025
2258.03893	10813.525
2260.93041	10798.425
2263.82004	10765.625
2266.70783	10741.225
2269.59378	10691.025
2272.4779	10663.625
2275.36017	10641.725
2278.24061	10630.725
2281.11922	10608.225
2283.996	10599.425
2286.87094	10571.825
2289.74405	10564.225
2292.61534	10540.825
2295.4848	10540.025
2298.35243	10549.625
2301.21824	10508.125
2304.08223	10505.325
2306.94439	10515.825
2309.80474	10518.525
2312.66327	10469.325
2315.51999	10471.625
2318.37489	10480.625
2321.22797	10466.125
2324.07925	10444.125
2326.92871	10430.925
2329.77637	10396.825
2332.62222	10398.925
2335.46626	10379.925
2338.3085	10370.025
2341.14893	10356.525
2343.98756	10365.225
2346.8244	10344.525
2349.65943	10333.025
2352.49267	10329.725
2355.32411	10315.325
2358.15376	10304.525
2360.98161	10314.925
2363.80768	10307.425
2366.63195	10292.825
2369.45444	10285.225
2372.27514	10263.325
2375.09405	10237.525
2377.91118	10258.225
2380.72652	10202.325
2383.54009	10176.025
2386.35187	10155.225
2389.16188	10092.125
2391.97011	10093.425
2394.77657	10095.125
2397.58125	10091.225
2400.38416	10073.525
2403.18529	10067.725
2405.98466	10024.825
2408.78226	10009.025
2411.57809	10015.525
2414.37216	9975.425
2417.16446	9960.425
2419.955	9940.525
2422.74378	9934.125
2425.5308	9904.225
2428.31606	9934.425
2431.09956	9907.825
2433.88131	9891.225
2436.6613	9882.325
2439.43954	9883.925
2442.21603	9838.825
2444.99077	9867.525
2447.76377	9863.625
2450.53501	9829.225
2453.30451	9845.425
2456.07226	9810.725
2458.83827	9823.125
2461.60254	9811.825
2464.36507	9796.425
2467.12586	9777.025
2469.88492	9778.725
2472.64224	9778.325
2475.39782	9770.225
2478.15167	9805.025
2480.90379	9793.825
2483.65417	9788.825
2486.40283	9802.225
2489.14976	9789.425
2491.89497	9765.125
2494.63845	9778.825
2497.3802	9750.025
2500.12024	9740.925
2502.85855	9729.625
2505.59514	9758.125
2508.33002	9746.225
2511.06318	9713.725
2513.79462	9701.425
2516.52435	9673.325
2519.25237	9682.725
2521.97867	9671.425
2524.70327	9660.225
2527.42616	9648.925
2530.14734	9656.325
2532.86681	9625.225
2535.58458	9644.625
2538.30065	9652.325
2541.01501	9628.325
2543.72768	9616.525
2546.43864	9574.925
2549.14791	9577.425
2551.85548	9581.725
2554.56136	9537.125
2557.26554	9537.325
2559.96803	9513.725
2562.66883	9492.425
2565.36794	9455.725
2568.06536	9458.225
2570.7611	9448.025
2573.45514	9427.125
2576.14751	9414.925
2578.83819	9396.325
2581.52719	9394.025
2584.21451	9372.225
2586.90015	9375.125
2589.58411	9347.525
2592.2664	9337.125
2594.94701	9326.425
2597.62594	9346.725
2600.30321	9314.325
2602.9788	9312.725
2605.65273	9270.525
2608.32498	9287.325
2610.99557	9288.525
2613.66449	9301.725
2616.33175	9276.825
2618.99734	9258.925
2621.66128	9254.225
2624.32355	9247.925
2626.98416	9244.025
2629.64311	9231.525
2632.30041	9235.825
2634.95605	9207.525
2637.61004	9178.925
2640.26238	9192.725
2642.91306	9180.325
2645.56209	9172.825
2648.20948	9183.125
2650.85521	9153.425
2653.4993	9179.725
2656.14175	9167.625
2658.78255	9168.925
2661.42171	9165.025
2664.05923	9195.225
2666.6951	9177.225
2669.32934	9209.325
2671.96194	9163.025
2674.59291	9153.925
2677.22224	9175.925
2679.84993	9167.025
2682.476	9158.725
2685.10043	9153.425
2687.72324	9134.525
2690.34441	9143.025
2692.96396	9117.025
2695.58188	9110.925
2698.19818	9116.425
2700.81285	9148.925
2703.4259	9115.025
2706.03733	9140.825
2708.64714	9139.325
2711.25533	9138.925
2713.86191	9124.725
2716.46687	9159.825
2719.07021	9143.525
2721.67194	9169.125
2724.27206	9145.625
2726.87057	9172.825
2729.46747	9151.625
2732.06276	9138.025
2734.65644	9150.925
2737.24852	9168.625
2739.83899	9137.625
2742.42786	9143.925
2745.01513	9121.425
2747.60079	9114.625
2750.18486	9082.425
2752.76733	9069.625
2755.3482	9084.725
2757.92747	9081.425
2760.50515	9056.125
2763.08123	9067.825
2765.65573	9035.025
2768.22863	9053.525
2770.79994	9021.025
2773.36967	9028.325
2775.9378	9011.525
2778.50435	9009.325
2781.06932	9017.825
2783.6327	8999.125
2786.1945	8999.825
2788.75471	8987.625
2791.31335	8987.225
2793.87041	8971.825
2796.42589	8945.525
2798.97979	8942.225
2801.53212	8935.925
2804.08288	8918.825
2806.63206	8888.425
2809.17967	8862.425
2811.72571	8846.225
2814.27018	8833.025
2816.81308	8802.125
2819.35442	8809.825
2821.89419	8784.325
2824.43239	8781.725
2826.96904	8746.025
2829.50412	8743.825
2832.03763	8743.125
2834.56959	8738.325
2837.1	8728.125
2839.62884	8737.125
2842.15613	8762.625
2844.68186	8760.925
2847.20604	8775.225
2849.72867	8792.225
2852.24974	8770.025
2854.76927	8750.525
2857.28724	8721.125
2859.80367	8731.125
2862.31855	8714.825
2864.83189	8722.625
2867.34368	8679.625
2869.85393	8666.225
2872.36264	8674.225
2874.8698	8684.025
2877.37543	8681.525
2879.87952	8666.325
2882.38207	8671.625
2884.88308	8655.125
2887.38256	8671.325
2889.88051	8677.625
2892.37692	8652.325
2894.8718	8664.225
2897.36515	8665.625
2899.85698	8681.725
2902.34727	8698.825
2904.83604	8706.925
2907.32328	8743.525
2909.809	8691.625
2912.29319	8719.625
2914.77587	8714.825
2917.25702	8707.425
2919.73665	8709.625
2922.21476	8725.525
2924.69136	8698.825
2927.16644	8693.125
2929.64	8686.825
2932.11205	8686.125
2934.58258	8665.325
2937.05161	8669.425
2939.51912	8679.325
2941.98513	8672.725
2944.44962	8650.025
2946.91261	8618.925
2949.37409	8635.925
2951.83407	8606.225
2954.29254	8575.325
2956.74951	8586.925
2959.20498	8579.525
2961.65895	8534.725
2964.11142	8569.125
2966.56239	8545.325
2969.01186	8541.325
2971.45984	8514.225
2973.90632	8501.425
2976.35131	8485.025
2978.7948	8450.025
2981.23681	8419.525
2983.67732	8401.425
2986.11635	8383.025
2988.55388	8366.525
2990.98993	8332.525
2993.4245	8301.225
2995.85758	8287.025
2998.28917	8275.525
3000.71928	8270.125
3003.14791	8249.525
3005.57506	8241.125
3008.00073	8206.425
3010.42493	8179.425
3012.84764	8164.725
3015.26888	8164.825
3017.68865	8134.125
3020.10694	8135.925
3022.52376	8115.125
3024.9391	8124.625
3027.35298	8099.725
3029.76539	8093.225
3032.17632	8090.825
3034.5858	8092.425
3036.9938	8115.125
3039.40034	8088.225
3041.80542	8093.725
3044.20903	8031.825
3046.61118	8027.525
3049.01187	8029.525
3051.4111	8030.825
3053.80888	8011.925
3056.20519	7986.325
3058.60005	7973.225
3060.99345	7966.225
3063.3854	7941.625
3065.7759	7919.325
3068.16494	7893.025
3070.55254	7896.925
3072.93868	7890.025
3075.32338	7850.525
3077.70662	7845.625
3080.08842	7829.425
3082.46878	7812.325
3084.84769	7820.125
3087.22515	7788.425
3089.60118	7791.225
3091.97576	7800.225
3094.3489	7782.125
3096.72061	7779.325
3099.09087	7787.425
3101.4597	7784.425
3103.82709	7772.525
3106.19305	7760.525
3108.55757	7757.525
3110.92066	7746.525
3113.28232	7749.125
3115.64255	7717.825
3118.00134	7734.025
3120.35871	7678.025
3122.71466	7685.525
3125.06917	7687.825
3127.42226	7658.425
3129.77393	7642.825
3132.12417	7635.725
3134.47299	7639.825
3136.82039	7632.725
3139.16636	7626.525
3141.51092	7626.025
3143.85406	7631.625
3146.19579	7633.625
3148.53609	7621.225
3150.87499	7634.125
3153.21246	7628.525
3155.54853	7666.925
3157.88318	7654.325
3160.21642	7672.625
