Data from AgNP_FTO_APTES_UA_10uM_CRN_10uM_R6G_10uM_NaF_0.1M_Addition_RamanShift__3__15-27-50-686.txt Node

Date: Thu Feb 10 15:27:50 GMT 2022
User: TCL
Spectrometer: QEP01345
Trigger mode: 4
Integration Time (sec): 7.000000E0
Scans to average: 10
Electric dark correction enabled: true
Nonlinearity correction enabled: false
Boxcar width: 0
XAxis mode: Raman Shifts
Number of Pixels in Spectrum: 1044
>>>>>Begin Spectral Data<<<<<
46.04893	-0.725
50.45542	0.775
54.85868	-2.025
59.25871	-0.525
63.6555	80.375
68.04907	80.275
72.43941	88.375
76.82654	87.575
81.21044	90.075
85.59113	95.275
89.96862	97.875
94.34289	100.775
98.71396	101.075
103.08183	103.075
107.4465	110.175
111.80798	110.975
116.16626	117.575
120.52136	122.675
124.87327	124.975
129.222	130.475
133.56755	141.475
137.90993	149.475
142.24913	162.575
146.58517	187.075
150.91804	215.875
155.24774	258.675
159.57429	318.375
163.89768	414.375
168.21792	542.375
172.53501	745.275
176.84895	1040.575
181.15975	1462.775
185.46741	2035.475
189.77193	2811.975
194.07331	3760.275
198.37157	4828.575
202.6667	5962.375
206.9587	7072.675
211.24758	8177.975
215.53334	9285.075
219.81599	10472.275
224.09553	11736.975
228.37195	13162.175
232.64527	14725.975
236.91549	16337.475
241.18261	17969.875
245.44663	19448.175
249.70755	20776.075
253.96539	22032.575
258.22014	22996.975
262.4718	23814.775
266.72039	24369.475
270.96589	24694.775
275.20832	24756.675
279.44768	24634.275
283.68397	24422.375
287.91719	24206.575
292.14735	24052.575
296.37445	24058.275
300.59849	24149.375
304.81948	24267.875
309.03742	24308.575
313.25231	24151.575
317.46415	23806.475
321.67296	23312.675
325.87872	22922.175
330.08145	22734.975
334.28114	22702.575
338.47781	22838.475
342.67145	23095.675
346.86207	23510.275
351.04966	23997.675
355.23424	24389.875
359.4158	24799.575
363.59435	25079.475
367.76989	25303.475
371.94243	25464.475
376.11196	25587.075
380.27849	25695.875
384.44203	25867.875
388.60257	26108.175
392.76012	26383.175
396.91468	26770.375
401.06626	27142.475
405.21485	27395.475
409.36047	27340.175
413.50311	27134.475
417.64277	27164.075
421.77947	27381.175
425.9132	27570.475
430.04396	27744.175
434.17176	27862.075
438.2966	28011.175
442.41849	28438.775
446.53742	29295.975
450.6534	30254.875
454.76644	30929.375
458.87653	31060.175
462.98368	30785.475
467.08789	30248.275
471.18916	29563.875
475.2875	28891.275
479.38291	28544.475
483.4754	28296.575
487.56496	27991.175
491.6516	27585.575
495.73531	27270.375
499.81612	27115.075
503.89401	27342.875
507.96899	27548.875
512.04106	27481.875
516.11023	27253.175
520.1765	26933.175
524.23987	26613.275
528.30034	26377.875
532.35792	26161.675
536.41261	25846.475
540.46441	25498.675
544.51333	25483.675
548.55936	25795.675
552.60252	26345.175
556.64279	27045.975
560.6802	27647.175
564.71473	27928.475
568.7464	28363.875
572.7752	29239.375
576.80114	30244.475
580.82422	31429.575
584.84444	32865.375
588.86181	34694.775
592.87633	36040.775
596.888	35501.875
600.89682	33479.875
604.9028	32709.975
608.90594	34196.675
612.90624	35783.975
616.90371	33342.375
620.89834	28752.375
624.89015	26816.775
628.87913	26541.575
632.86528	26601.775
636.84862	26377.875
640.82913	25823.375
644.80683	25245.575
648.78172	24890.475
652.75379	24968.975
656.72306	25256.975
660.68952	25556.075
664.65319	25404.175
668.61405	25039.575
672.57211	25037.575
676.52738	25165.375
680.47986	25101.775
684.42955	24919.575
688.37646	24814.975
692.32058	25078.675
696.26192	25508.975
700.20048	25952.675
704.13626	26161.875
708.06928	26080.975
711.99952	25890.875
715.927	25942.875
719.85171	26114.775
723.77365	25993.175
727.69284	25579.775
731.60928	25169.075
735.52295	24999.375
739.43388	25031.875
743.34206	25150.275
747.24749	25314.575
751.15017	25592.075
755.05012	26110.175
758.94733	26873.275
762.8418	28018.975
766.73354	29641.275
770.62254	31014.975
774.50882	30990.075
778.39237	29639.075
782.27321	27900.175
786.15132	26489.675
790.02671	25659.075
793.89938	25325.175
797.76935	25165.875
801.6366	25167.075
805.50115	25093.075
809.36299	24960.575
813.22213	24771.375
817.07857	24587.975
820.93231	24462.075
824.78336	24327.575
828.63172	24180.875
832.47738	24172.575
836.32036	24222.475
840.16066	24386.875
843.99827	24454.975
847.8332	24405.275
851.66546	24347.175
855.49504	24344.175
859.32195	24307.775
863.1462	24205.375
866.96777	24124.875
870.78668	24045.275
874.60293	24068.075
878.41652	24119.875
882.22745	24211.575
886.03573	24255.775
889.84136	24234.375
893.64433	24077.875
897.44466	23963.575
901.24235	23926.075
905.0374	23856.375
908.8298	23803.275
912.61957	23909.475
916.40671	24180.975
920.19121	24590.775
923.97308	24901.475
927.75233	24925.175
931.52895	24667.775
935.30295	24273.675
939.07433	23863.675
942.84309	23581.075
946.60924	23498.275
950.37278	23554.775
954.13371	23523.175
957.89203	23430.175
961.64774	23371.675
965.40086	23393.175
969.15137	23325.975
972.89929	23245.575
976.64461	23186.575
980.38733	23199.975
984.12747	23306.875
987.86502	23540.975
991.59999	23776.275
995.33237	24234.075
999.06217	24932.875
1002.78939	25787.375
1006.51404	26462.275
1010.23611	26956.275
1013.95561	27237.975
1017.67255	27188.375
1021.38692	26826.975
1025.09872	26349.075
1028.80796	26334.675
1032.51465	26884.975
1036.21877	27529.075
1039.92035	27758.075
1043.61937	27508.475
1047.31584	26925.475
1051.00976	26260.775
1054.70114	25947.775
1058.38998	25848.875
1062.07627	25936.075
1065.76003	26138.375
1069.44126	26374.775
1073.11995	26797.575
1076.79611	27212.075
1080.46974	27414.675
1084.14085	27730.075
1087.80943	28048.475
1091.47549	28218.375
1095.13903	28170.275
1098.80005	27757.675
1102.45857	27230.575
1106.11456	26725.475
1109.76805	26593.575
1113.41903	26579.175
1117.06751	26704.975
1120.71348	26887.875
1124.35696	27079.775
1127.99793	27337.775
1131.63641	27543.975
1135.2724	27538.975
1138.90589	27569.475
1142.5369	27701.075
1146.16542	27969.675
1149.79145	28230.075
1153.415	28538.075
1157.03607	29101.175
1160.65467	30103.375
1164.27079	31794.675
1167.88443	33686.475
1171.49561	35499.975
1175.10432	37737.475
1178.71056	40580.175
1182.31434	43364.575
1185.91565	44728.075
1189.51451	44249.975
1193.11091	42897.675
1196.70485	41358.375
1200.29634	39988.575
1203.88538	39200.375
1207.47197	38932.075
1211.05612	38713.775
1214.63782	37928.975
1218.21708	36903.375
1221.79391	35913.475
1225.36829	35187.975
1228.94024	34550.575
1232.50976	33893.875
1236.07685	33136.475
1239.6415	32782.275
1243.20374	32763.075
1246.76355	33064.875
1250.32093	33763.375
1253.8759	34550.175
1257.42845	35626.675
1260.97859	36729.275
1264.52631	37939.775
1268.07163	39237.775
1271.61453	40604.575
1275.15503	41924.375
1278.69312	43253.275
1282.22882	44473.575
1285.76211	45916.075
1289.29301	47673.975
1292.82151	49935.575
1296.34761	52866.075
1299.87133	56477.775
1303.39266	60528.375
1306.9116	64120.375
1310.42815	66469.175
1313.94233	67403.375
1317.45412	66599.275
1320.96354	65068.675
1324.47058	63899.475
1327.97525	63032.875
1331.47754	62578.975
1334.97747	62301.475
1338.47502	61610.775
1341.97022	60316.075
1345.46305	58636.275
1348.95352	57169.975
1352.44163	56881.475
1355.92738	58145.875
1359.41078	60694.875
1362.89183	62385.575
1366.37053	61012.975
1369.84688	56266.975
1373.32088	50285.275
1376.79254	46215.575
1380.26186	44964.375
1383.72883	45423.175
1387.19347	45703.275
1390.65578	45311.575
1394.11575	45316.075
1397.57339	46149.175
1401.0287	47301.975
1404.48168	48338.975
1407.93234	48669.475
1411.38068	47933.475
1414.82669	46326.475
1418.27039	44261.875
1421.71177	42120.575
1425.15083	40378.875
1428.58758	39713.475
1432.02203	40248.375
1435.45416	41703.175
1438.88399	43385.675
1442.31151	44600.475
1445.73673	45070.075
1449.15965	45267.175
1452.58027	45083.275
1455.9986	44787.375
1459.41463	44862.475
1462.82837	45510.775
1466.23982	46520.875
1469.64898	47490.575
1473.05586	48093.575
1476.46045	48135.475
1479.86276	47611.475
1483.26279	46811.275
1486.66054	46334.975
1490.05602	46246.275
1493.44922	46319.575
1496.84016	46290.775
1500.22882	46340.075
1503.61521	46689.475
1506.99934	47335.475
1510.38121	47875.875
1513.76081	47809.275
1517.13816	47052.275
1520.51324	46100.575
1523.88607	45583.075
1527.25665	45803.175
1530.62498	46363.875
1533.99105	46660.175
1537.35488	46370.175
1540.71647	45558.975
1544.07581	44319.075
1547.4329	43060.775
1550.78776	41834.475
1554.14038	40939.075
1557.49077	40221.175
1560.83892	39718.875
1564.18484	39415.675
1567.52853	39303.775
1570.86999	39652.075
1574.20922	40433.675
1577.54624	41239.075
1580.88103	41912.875
1584.2136	43012.575
1587.54395	45232.075
1590.87208	48598.575
1594.19801	52480.875
1597.52172	55864.275
1600.84321	56582.975
1604.16251	53488.475
1607.47959	48174.675
1610.79447	42705.375
1614.10715	38230.975
1617.41763	34947.275
1620.7259	32917.275
1624.03199	32086.875
1627.33587	32318.475
1630.63757	33621.875
1633.93707	36332.575
1637.23439	40632.175
1640.52951	46775.075
1643.82246	53595.575
1647.11321	58300.275
1650.40179	57867.875
1653.68819	51999.075
1656.97241	43868.275
1660.25446	36786.475
1663.53433	31892.375
1666.81203	28810.475
1670.08756	26925.275
1673.36092	25756.975
1676.63211	25037.775
1679.90115	24438.475
1683.16801	24017.975
1686.43272	23730.775
1689.69527	23532.475
1692.95567	23401.775
1696.2139	23242.375
1699.46999	23184.675
1702.72392	23103.875
1705.97571	23018.375
1709.22535	22958.375
1712.47284	22899.975
1715.71819	22820.275
1718.96139	22782.475
1722.20246	22712.675
1725.44139	22560.775
1728.67818	22451.975
1731.91284	22318.575
1735.14537	22185.475
1738.37576	22086.875
1741.60403	21984.175
1744.83017	21928.175
1748.05418	21849.975
1751.27607	21845.875
1754.49584	21786.475
1757.71349	21787.775
1760.92903	21755.075
1764.14244	21735.375
1767.35375	21719.975
1770.56294	21711.075
1773.77002	21658.875
1776.97499	21618.075
1780.17785	21552.875
1783.37861	21491.875
1786.57727	21478.275
1789.77382	21437.575
1792.96828	21401.275
1796.16064	21374.475
1799.3509	21370.675
1802.53907	21314.675
1805.72514	21244.975
1808.90913	21176.275
1812.09102	21147.875
1815.27083	21133.075
1818.44856	21085.475
1821.6242	21083.675
1824.79776	21073.575
1827.96924	21052.775
1831.13864	21028.575
1834.30597	21063.475
1837.47122	21052.675
1840.6344	21029.175
1843.7955	21057.675
1846.95454	21045.775
1850.11151	21047.275
1853.26642	21049.375
1856.41926	21030.375
1859.57004	21033.875
1862.71876	20985.975
1865.86542	20962.675
1869.01003	20913.675
1872.15258	20933.475
1875.29308	20929.775
1878.43152	20946.275
1881.56792	20890.575
1884.70227	20889.475
1887.83457	20864.575
1890.96482	20819.975
1894.09304	20830.675
1897.21921	20807.875
1900.34335	20780.775
1903.46544	20729.875
1906.58551	20696.175
1909.70353	20689.875
1912.81953	20661.975
1915.93349	20655.475
1919.04543	20574.575
1922.15534	20562.675
1925.26322	20497.475
1928.36908	20465.675
1931.47292	20420.175
1934.57473	20376.475
1937.67453	20347.775
1940.77232	20271.075
1943.86808	20237.275
1946.96184	20178.575
1950.05358	20120.575
1953.14331	20072.975
1956.23103	20009.375
1959.31675	19962.075
1962.40046	19920.675
1965.48217	19843.875
1968.56188	19785.075
1971.63959	19713.475
1974.7153	19682.375
1977.78901	19615.175
1980.86073	19570.375
1983.93046	19533.675
1986.99819	19477.975
1990.06394	19450.075
1993.1277	19382.275
1996.18947	19314.875
1999.24925	19255.875
2002.30706	19192.475
2005.36288	19153.975
2008.41672	19112.475
2011.46859	19032.475
2014.51848	19056.575
2017.56639	18990.475
2020.61233	18958.575
2023.6563	18921.475
2026.6983	18879.875
2029.73833	18873.275
2032.7764	18864.575
2035.8125	18816.275
2038.84664	18785.675
2041.87881	18738.075
2044.90903	18693.975
2047.93729	18640.975
2050.96359	18661.975
2053.98794	18615.075
2057.01034	18609.275
2060.03078	18612.075
2063.04927	18628.675
2066.06582	18591.775
2069.08042	18593.975
2072.09307	18575.675
2075.10378	18558.575
2078.11255	18536.275
2081.11938	18543.475
2084.12426	18525.875
2087.12722	18507.775
2090.12824	18497.975
2093.12732	18495.575
2096.12447	18503.075
2099.11969	18503.575
2102.11299	18515.675
2105.10435	18507.775
2108.09379	18501.575
2111.08131	18493.175
2114.0669	18508.775
2117.05057	18521.575
2120.03233	18531.475
2123.01216	18563.675
2125.99008	18613.975
2128.96609	18626.075
2131.94018	18635.275
2134.91236	18655.175
2137.88263	18700.075
2140.851	18711.875
2143.81746	18658.575
2146.78201	18683.975
2149.74466	18663.575
2152.7054	18674.475
2155.66425	18679.775
2158.6212	18690.875
2161.57625	18684.975
2164.52941	18688.875
2167.48067	18676.775
2170.43004	18645.275
2173.37752	18637.775
2176.32311	18656.575
2179.26681	18715.275
2182.20863	18694.075
2185.14856	18661.275
2188.08661	18672.875
2191.02278	18705.375
2193.95707	18727.375
2196.88948	18684.075
2199.82001	18693.675
2202.74867	18654.375
2205.67545	18639.375
2208.60037	18624.675
2211.52341	18647.675
2214.44458	18608.575
2217.36388	18567.475
2220.28132	18537.175
2223.1969	18510.575
2226.11061	18553.075
2229.02246	18479.575
2231.93245	18429.075
2234.84058	18400.375
2237.74686	18419.575
2240.65128	18403.775
2243.55385	18354.375
2246.45456	18317.575
2249.35343	18309.375
2252.25044	18271.675
2255.14561	18230.375
2258.03893	18194.975
2260.93041	18179.375
2263.82004	18088.075
2266.70783	18116.675
2269.59378	17988.775
2272.4779	17940.075
2275.36017	17905.175
2278.24061	17914.375
2281.11922	17909.675
2283.996	17881.575
2286.87094	17886.575
2289.74405	17880.675
2292.61534	17851.375
2295.4848	17833.975
2298.35243	17858.975
2301.21824	17877.975
2304.08223	17910.875
2306.94439	17904.675
2309.80474	17939.075
2312.66327	17928.275
2315.51999	17903.475
2318.37489	17928.475
2321.22797	17878.275
2324.07925	17870.875
2326.92871	17852.775
2329.77637	17805.075
2332.62222	17815.475
2335.46626	17784.075
2338.3085	17816.575
2341.14893	17835.575
2343.98756	17829.075
2346.8244	17846.875
2349.65943	17839.475
2352.49267	17821.175
2355.32411	17836.375
2358.15376	17814.975
2360.98161	17795.375
2363.80768	17807.975
2366.63195	17751.275
2369.45444	17709.675
2372.27514	17691.075
2375.09405	17658.675
2377.91118	17655.675
2380.72652	17590.775
2383.54009	17596.975
2386.35187	17552.275
2389.16188	17486.775
2391.97011	17513.275
2394.77657	17474.275
2397.58125	17460.075
2400.38416	17454.275
2403.18529	17421.475
2405.98466	17396.775
2408.78226	17370.775
2411.57809	17380.375
2414.37216	17351.475
2417.16446	17346.275
2419.955	17306.375
2422.74378	17282.575
2425.5308	17280.775
2428.31606	17298.975
2431.09956	17277.275
2433.88131	17271.275
2436.6613	17271.875
2439.43954	17284.375
2442.21603	17280.775
2444.99077	17271.975
2447.76377	17263.975
2450.53501	17283.275
2453.30451	17288.375
2456.07226	17238.375
2458.83827	17268.375
2461.60254	17280.575
2464.36507	17244.275
2467.12586	17253.975
2469.88492	17237.875
2472.64224	17247.475
2475.39782	17320.675
2478.15167	17288.475
2480.90379	17315.975
2483.65417	17350.775
2486.40283	17325.075
2489.14976	17344.875
2491.89497	17351.775
2494.63845	17361.475
2497.3802	17362.075
2500.12024	17359.775
2502.85855	17372.275
2505.59514	17333.675
2508.33002	17326.275
2511.06318	17338.375
2513.79462	17332.075
2516.52435	17310.075
2519.25237	17286.775
2521.97867	17283.275
2524.70327	17305.575
2527.42616	17249.975
2530.14734	17296.775
2532.86681	17295.575
2535.58458	17256.875
2538.30065	17268.875
2541.01501	17317.475
2543.72768	17283.775
2546.43864	17276.675
2549.14791	17263.575
2551.85548	17285.675
2554.56136	17233.975
2557.26554	17233.475
2559.96803	17256.875
2562.66883	17220.575
2565.36794	17200.775
2568.06536	17193.675
2570.7611	17180.875
2573.45514	17220.075
2576.14751	17214.775
2578.83819	17162.075
2581.52719	17176.775
2584.21451	17175.375
2586.90015	17183.075
2589.58411	17192.675
2592.2664	17183.075
2594.94701	17154.875
2597.62594	17166.175
2600.30321	17150.975
2602.9788	17106.775
2605.65273	17139.775
2608.32498	17174.875
2610.99557	17178.175
2613.66449	17182.375
2616.33175	17186.675
2618.99734	17185.375
2621.66128	17179.975
2624.32355	17147.575
2626.98416	17149.875
2629.64311	17138.975
2632.30041	17141.575
2634.95605	17100.375
2637.61004	17102.575
2640.26238	17094.375
2642.91306	17083.375
2645.56209	17069.075
2648.20948	17067.475
2650.85521	17051.075
2653.4993	17113.275
2656.14175	17072.875
2658.78255	17118.375
2661.42171	17154.175
2664.05923	17156.875
2666.6951	17155.375
2669.32934	17220.375
2671.96194	17205.775
2674.59291	17230.475
2677.22224	17205.075
2679.84993	17244.075
2682.476	17158.175
2685.10043	17204.375
2687.72324	17178.375
2690.34441	17165.075
2692.96396	17183.075
2695.58188	17169.575
2698.19818	17173.375
2700.81285	17199.275
2703.4259	17201.375
2706.03733	17244.975
2708.64714	17213.375
2711.25533	17224.375
2713.86191	17202.175
2716.46687	17256.075
2719.07021	17232.575
2721.67194	17316.175
2724.27206	17303.575
2726.87057	17304.475
2729.46747	17344.475
2732.06276	17352.975
2734.65644	17360.475
2737.24852	17354.375
2739.83899	17304.975
2742.42786	17378.275
2745.01513	17347.575
2747.60079	17332.775
2750.18486	17297.875
2752.76733	17327.375
2755.3482	17287.475
2757.92747	17292.575
2760.50515	17285.575
2763.08123	17300.975
2765.65573	17270.475
2768.22863	17309.275
2770.79994	17296.975
2773.36967	17306.075
2775.9378	17336.275
2778.50435	17306.275
2781.06932	17323.875
2783.6327	17355.475
2786.1945	17353.375
2788.75471	17303.275
2791.31335	17287.975
2793.87041	17274.375
2796.42589	17277.175
2798.97979	17276.575
2801.53212	17224.575
2804.08288	17206.075
2806.63206	17170.875
2809.17967	17121.675
2811.72571	17085.375
2814.27018	17087.175
2816.81308	17034.975
2819.35442	17028.075
2821.89419	16950.375
2824.43239	16970.975
2826.96904	16945.975
2829.50412	16951.775
2832.03763	16932.475
2834.56959	16899.675
2837.1	16875.175
2839.62884	16918.775
2842.15613	16884.775
2844.68186	16929.575
2847.20604	16886.475
2849.72867	16894.475
2852.24974	16863.975
2854.76927	16861.975
2857.28724	16841.475
2859.80367	16822.475
2862.31855	16823.675
2864.83189	16799.175
2867.34368	16747.675
2869.85393	16773.375
2872.36264	16781.475
2874.8698	16775.375
2877.37543	16773.075
2879.87952	16793.475
2882.38207	16792.475
2884.88308	16788.275
2887.38256	16827.875
2889.88051	16801.575
2892.37692	16815.975
2894.8718	16824.475
2897.36515	16885.275
2899.85698	16864.175
2902.34727	16914.175
2904.83604	16915.075
2907.32328	16956.275
2909.809	16970.275
2912.29319	16970.375
2914.77587	16941.675
2917.25702	16921.075
2919.73665	16927.175
2922.21476	16942.175
2924.69136	16911.375
2927.16644	16922.475
2929.64	16875.875
2932.11205	16865.875
2934.58258	16789.375
2937.05161	16818.575
2939.51912	16828.775
2941.98513	16805.375
2944.44962	16801.075
2946.91261	16771.675
2949.37409	16808.275
2951.83407	16780.975
2954.29254	16762.275
2956.74951	16767.075
2959.20498	16757.975
2961.65895	16736.775
2964.11142	16730.775
2966.56239	16696.375
2969.01186	16737.275
2971.45984	16658.375
2973.90632	16655.675
2976.35131	16641.675
2978.7948	16610.075
2981.23681	16593.775
2983.67732	16538.075
2986.11635	16465.475
2988.55388	16464.775
2990.98993	16427.975
2993.4245	16392.275
2995.85758	16333.975
2998.28917	16274.075
3000.71928	16309.375
3003.14791	16258.075
3005.57506	16246.075
3008.00073	16179.875
3010.42493	16033.975
3012.84764	16088.975
3015.26888	16075.675
3017.68865	16023.075
3020.10694	16050.575
3022.52376	15987.775
3024.9391	16005.275
3027.35298	16000.275
3029.76539	16003.675
3032.17632	16018.275
3034.5858	15983.475
3036.9938	15985.375
3039.40034	15975.075
3041.80542	16012.475
3044.20903	15974.175
3046.61118	15952.375
3049.01187	15920.975
3051.4111	15883.975
3053.80888	15836.675
3056.20519	15807.375
3058.60005	15764.775
3060.99345	15803.375
3063.3854	15744.075
3065.7759	15697.975
3068.16494	15629.375
3070.55254	15593.575
3072.93868	15559.575
3075.32338	15532.375
3077.70662	15486.575
3080.08842	15466.175
3082.46878	15460.275
3084.84769	15440.875
3087.22515	15452.875
3089.60118	15434.675
3091.97576	15416.575
3094.3489	15414.975
3096.72061	15423.275
3099.09087	15394.375
3101.4597	15375.375
3103.82709	15365.275
3106.19305	15339.275
3108.55757	15344.075
3110.92066	15312.075
3113.28232	15280.675
3115.64255	15233.175
3118.00134	15195.675
3120.35871	15201.975
3122.71466	15172.475
3125.06917	15116.875
3127.42226	15097.175
