Data from AgNP_FTO_APTES_UA_10uM_CRN_1000uM_R6G_10uM_NaF_0.1M_Addition_RamanShift__0__19-21-10-974.txt Node

Date: Thu Feb 10 19:21:10 GMT 2022
User: TCL
Spectrometer: QEP01345
Trigger mode: 4
Integration Time (sec): 7.000000E0
Scans to average: 10
Electric dark correction enabled: true
Nonlinearity correction enabled: false
Boxcar width: 0
XAxis mode: Raman Shifts
Number of Pixels in Spectrum: 1044
>>>>>Begin Spectral Data<<<<<
46.04893	-0.05
50.45542	-0.45
54.85868	-1.75
59.25871	-1.05
63.6555	53.65
68.04907	58.65
72.43941	61.95
76.82654	60.75
81.21044	67.85
85.59113	65.45
89.96862	66.45
94.34289	72.35
98.71396	73.65
103.08183	75.55
107.4465	78.85
111.80798	77.95
116.16626	81.85
120.52136	82.35
124.87327	87.55
129.222	90.95
133.56755	94.55
137.90993	104.65
142.24913	112.55
146.58517	124.05
150.91804	146.35
155.24774	166.35
159.57429	210.95
163.89768	265.75
168.21792	347.85
172.53501	478.65
176.84895	663.55
181.15975	934.45
185.46741	1307.15
189.77193	1820.65
194.07331	2437.25
198.37157	3139.35
202.6667	3905.25
206.9587	4633.25
211.24758	5374.95
215.53334	6115.05
219.81599	6887.15
224.09553	7733.85
228.37195	8673.85
232.64527	9701.95
236.91549	10806.15
241.18261	11887.25
245.44663	12884.25
249.70755	13817.45
253.96539	14616.55
258.22014	15285.05
262.4718	15875.05
266.72039	16315.15
270.96589	16539.05
275.20832	16556.65
279.44768	16446.85
283.68397	16239.55
287.91719	16049.15
292.14735	15919.75
296.37445	15911.55
300.59849	16000.95
304.81948	16108.85
309.03742	16170.05
313.25231	16115.95
317.46415	15848.95
321.67296	15464.95
325.87872	15161.75
330.08145	15008.55
334.28114	15015.25
338.47781	15135.45
342.67145	15311.75
346.86207	15577.05
351.04966	15902.15
355.23424	16258.05
359.4158	16557.55
363.59435	16738.75
367.76989	16939.65
371.94243	17050.25
376.11196	17105.75
380.27849	17209.55
384.44203	17331.95
388.60257	17377.15
392.76012	17487.15
396.91468	17638.65
401.06626	17882.15
405.21485	18036.75
409.36047	17954.55
413.50311	17708.25
417.64277	17501.85
421.77947	17360.85
425.9132	17390.25
430.04396	17478.95
434.17176	17583.35
438.2966	17767.15
442.41849	18056.05
446.53742	18477.35
450.6534	18897.65
454.76644	19191.15
458.87653	19269.15
462.98368	19172.35
467.08789	19034.35
471.18916	18907.25
475.2875	18723.75
479.38291	18598.05
483.4754	18545.55
487.56496	18414.45
491.6516	18196.35
495.73531	17965.55
499.81612	17847.85
503.89401	17875.65
507.96899	17914.05
512.04106	17936.05
516.11023	17950.05
520.1765	17937.75
524.23987	17943.75
528.30034	17837.35
532.35792	17764.15
536.41261	17635.85
540.46441	17478.05
544.51333	17412.95
548.55936	17535.15
552.60252	17792.95
556.64279	18136.25
560.6802	18437.75
564.71473	18573.25
568.7464	18865.35
572.7752	19144.45
576.80114	19258.55
580.82422	19278.45
584.84444	19374.05
588.86181	19775.75
592.87633	20193.85
596.888	20360.35
600.89682	20006.75
604.9028	20180.55
608.90594	21690.35
612.90624	23826.95
616.90371	23061.15
620.89834	19727.25
624.89015	18127.85
628.87913	17834.55
632.86528	17941.05
636.84862	18029.05
640.82913	17902.65
644.80683	17590.15
648.78172	17369.45
652.75379	17389.35
656.72306	17590.95
660.68952	17844.45
664.65319	17755.55
668.61405	17456.35
672.57211	17409.95
676.52738	17447.95
680.47986	17475.35
684.42955	17444.95
688.37646	17360.05
692.32058	17408.85
696.26192	17549.75
700.20048	17737.45
704.13626	17825.55
708.06928	17792.95
711.99952	17788.65
715.927	17733.35
719.85171	17794.75
723.77365	17747.25
727.69284	17664.85
731.60928	17547.35
735.52295	17475.85
739.43388	17472.45
743.34206	17499.55
747.24749	17590.05
751.15017	17657.85
755.05012	17822.45
758.94733	18170.85
762.8418	18839.15
766.73354	19903.25
770.62254	21075.55
774.50882	21589.65
778.39237	21050.15
782.27321	19777.95
786.15132	18649.75
790.02671	17937.55
793.89938	17648.85
797.76935	17495.45
801.6366	17435.05
805.50115	17374.05
809.36299	17301.55
813.22213	17307.45
817.07857	17244.65
820.93231	17265.15
824.78336	17269.35
828.63172	17254.75
832.47738	17210.75
836.32036	17201.25
840.16066	17200.15
843.99827	17231.75
847.8332	17190.75
851.66546	17195.55
855.49504	17199.15
859.32195	17174.35
863.1462	17155.45
866.96777	17145.35
870.78668	17134.25
874.60293	17201.05
878.41652	17179.75
882.22745	17212.55
886.03573	17264.85
889.84136	17271.05
893.64433	17225.35
897.44466	17154.45
901.24235	17148.55
905.0374	17093.95
908.8298	17057.25
912.61957	17036.85
916.40671	17064.15
920.19121	17203.45
923.97308	17301.05
927.75233	17344.75
931.52895	17306.35
935.30295	17177.75
939.07433	16977.45
942.84309	16792.35
946.60924	16680.95
950.37278	16619.95
954.13371	16623.55
957.89203	16600.25
961.64774	16546.55
965.40086	16520.15
969.15137	16486.85
972.89929	16421.15
976.64461	16423.15
980.38733	16360.25
984.12747	16419.35
987.86502	16496.55
991.59999	16596.75
995.33237	16683.95
999.06217	16878.75
1002.78939	17070.55
1006.51404	17254.95
1010.23611	17386.85
1013.95561	17513.05
1017.67255	17569.95
1021.38692	17463.55
1025.09872	17278.05
1028.80796	17201.55
1032.51465	17206.95
1036.21877	17270.45
1039.92035	17352.35
1043.61937	17380.05
1047.31584	17322.55
1051.00976	17243.85
1054.70114	17278.15
1058.38998	17275.95
1062.07627	17321.65
1065.76003	17400.25
1069.44126	17476.05
1073.11995	17617.65
1076.79611	17740.45
1080.46974	17861.15
1084.14085	17955.05
1087.80943	18129.55
1091.47549	18262.75
1095.13903	18258.35
1098.80005	18092.95
1102.45857	17874.95
1106.11456	17709.75
1109.76805	17660.55
1113.41903	17713.15
1117.06751	17856.85
1120.71348	18018.45
1124.35696	18264.95
1127.99793	18480.55
1131.63641	18612.65
1135.2724	18419.55
1138.90589	18164.35
1142.5369	18057.75
1146.16542	18048.25
1149.79145	18067.75
1153.415	18157.65
1157.03607	18261.75
1160.65467	18528.35
1164.27079	19079.65
1167.88443	19693.55
1171.49561	20488.85
1175.10432	21629.45
1178.71056	23060.45
1182.31434	24344.85
1185.91565	24860.25
1189.51451	24635.95
1193.11091	24013.55
1196.70485	23251.75
1200.29634	22573.65
1203.88538	22074.25
1207.47197	21568.55
1211.05612	21108.15
1214.63782	20757.15
1218.21708	20470.55
1221.79391	20332.65
1225.36829	20180.75
1228.94024	20104.25
1232.50976	19868.45
1236.07685	19671.75
1239.6415	19547.85
1243.20374	19621.25
1246.76355	19686.75
1250.32093	19829.85
1253.8759	20080.45
1257.42845	20425.25
1260.97859	20787.25
1264.52631	21154.05
1268.07163	21542.25
1271.61453	21890.95
1275.15503	22224.75
1278.69312	22524.85
1282.22882	22876.35
1285.76211	23355.45
1289.29301	24038.15
1292.82151	24860.45
1296.34761	25879.35
1299.87133	27029.05
1303.39266	28233.15
1306.9116	29605.35
1310.42815	30934.15
1313.94233	31792.65
1317.45412	31679.45
1320.96354	31016.65
1324.47058	30162.75
1327.97525	29286.55
1331.47754	28551.25
1334.97747	28127.25
1338.47502	27862.95
1341.97022	27732.25
1345.46305	27600.25
1348.95352	27799.45
1352.44163	28357.35
1355.92738	29318.05
1359.41078	30868.85
1362.89183	32389.45
1366.37053	32008.55
1369.84688	29362.15
1373.32088	26285.65
1376.79254	24297.75
1380.26186	23573.55
1383.72883	23452.25
1387.19347	23393.65
1390.65578	23185.05
1394.11575	23070.95
1397.57339	23080.45
1401.0287	23252.45
1404.48168	23363.15
1407.93234	23192.85
1411.38068	22813.55
1414.82669	22301.75
1418.27039	21694.45
1421.71177	21129.15
1425.15083	20617.95
1428.58758	20324.05
1432.02203	20381.35
1435.45416	20698.25
1438.88399	21043.15
1442.31151	21337.25
1445.73673	21524.05
1449.15965	21637.35
1452.58027	21735.15
1455.9986	21712.65
1459.41463	21746.75
1462.82837	21813.25
1466.23982	22078.95
1469.64898	22307.15
1473.05586	22417.75
1476.46045	22490.45
1479.86276	22483.45
1483.26279	22463.85
1486.66054	22430.45
1490.05602	22572.35
1493.44922	22906.05
1496.84016	23335.35
1500.22882	24085.45
1503.61521	25149.95
1506.99934	26413.75
1510.38121	27497.85
1513.76081	27940.75
1517.13816	27261.95
1520.51324	25953.35
1523.88607	24679.15
1527.25665	23869.55
1530.62498	23547.55
1533.99105	23352.35
1537.35488	23149.75
1540.71647	22834.15
1544.07581	22440.75
1547.4329	22023.45
1550.78776	21697.95
1554.14038	21463.45
1557.49077	21373.75
1560.83892	21379.35
1564.18484	21510.65
1567.52853	21645.95
1570.86999	21968.65
1574.20922	22295.65
1577.54624	22538.25
1580.88103	22444.75
1584.2136	22278.45
1587.54395	22397.95
1590.87208	22944.55
1594.19801	23771.25
1597.52172	24646.65
1600.84321	24905.05
1604.16251	24212.65
1607.47959	22920.55
1610.79447	21519.35
1614.10715	20191.85
1617.41763	19162.85
1620.7259	18475.55
1624.03199	18120.65
1627.33587	18142.05
1630.63757	18483.35
1633.93707	19223.35
1637.23439	20379.05
1640.52951	22140.45
1643.82246	24328.95
1647.11321	26321.55
1650.40179	27059.35
1653.68819	25839.45
1656.97241	23181.35
1660.25446	20459.95
1663.53433	18511.25
1666.81203	17269.85
1670.08756	16496.05
1673.36092	16033.25
1676.63211	15746.75
1679.90115	15488.65
1683.16801	15360.45
1686.43272	15221.65
1689.69527	15143.55
1692.95567	15046.45
1696.2139	15033.25
1699.46999	14991.95
1702.72392	14956.75
1705.97571	14915.55
1709.22535	14880.35
1712.47284	14852.75
1715.71819	14821.35
1718.96139	14817.25
1722.20246	14764.65
1725.44139	14727.05
1728.67818	14650.65
1731.91284	14592.35
1735.14537	14528.55
1738.37576	14453.65
1741.60403	14456.75
1744.83017	14427.35
1748.05418	14372.85
1751.27607	14362.55
1754.49584	14345.05
1757.71349	14327.75
1760.92903	14320.25
1764.14244	14309.85
1767.35375	14309.85
1770.56294	14286.65
1773.77002	14231.15
1776.97499	14240.15
1780.17785	14192.85
1783.37861	14184.25
1786.57727	14123.95
1789.77382	14099.05
1792.96828	14096.85
1796.16064	14081.85
1799.3509	14040.05
1802.53907	14008.85
1805.72514	13985.15
1808.90913	13937.85
1812.09102	13911.65
1815.27083	13868.05
1818.44856	13855.85
1821.6242	13823.75
1824.79776	13810.75
1827.96924	13766.65
1831.13864	13776.45
1834.30597	13767.05
1837.47122	13724.95
1840.6344	13736.95
1843.7955	13709.35
1846.95454	13702.45
1850.11151	13684.65
1853.26642	13665.35
1856.41926	13657.85
1859.57004	13659.65
1862.71876	13650.15
1865.86542	13660.25
1869.01003	13631.55
1872.15258	13595.15
1875.29308	13622.15
1878.43152	13590.85
1881.56792	13564.65
1884.70227	13553.45
1887.83457	13524.95
1890.96482	13499.75
1894.09304	13462.95
1897.21921	13474.65
1900.34335	13464.75
1903.46544	13483.75
1906.58551	13448.45
1909.70353	13415.65
1912.81953	13383.75
1915.93349	13388.55
1919.04543	13385.05
1922.15534	13316.65
1925.26322	13316.85
1928.36908	13295.25
1931.47292	13274.25
1934.57473	13253.15
1937.67453	13203.55
1940.77232	13176.45
1943.86808	13139.25
1946.96184	13117.65
1950.05358	13064.75
1953.14331	13050.55
1956.23103	12999.65
1959.31675	12950.95
1962.40046	12925.15
1965.48217	12892.25
1968.56188	12865.85
1971.63959	12815.55
1974.7153	12771.75
1977.78901	12736.65
1980.86073	12706.95
1983.93046	12673.15
1986.99819	12611.55
1990.06394	12567.95
1993.1277	12548.15
1996.18947	12498.25
1999.24925	12444.55
2002.30706	12421.25
2005.36288	12370.65
2008.41672	12376.85
2011.46859	12327.75
2014.51848	12285.75
2017.56639	12263.25
2020.61233	12255.75
2023.6563	12222.65
2026.6983	12178.55
2029.73833	12144.05
2032.7764	12115.05
2035.8125	12095.55
2038.84664	12046.55
2041.87881	12025.55
2044.90903	11977.25
2047.93729	11951.55
2050.96359	11980.65
2053.98794	11934.85
2057.01034	11919.75
2060.03078	11921.15
2063.04927	11893.95
2066.06582	11906.75
2069.08042	11941.85
2072.09307	11903.45
2075.10378	11893.55
2078.11255	11887.75
2081.11938	11886.35
2084.12426	11856.75
2087.12722	11863.45
2090.12824	11847.15
2093.12732	11850.25
2096.12447	11857.35
2099.11969	11832.15
2102.11299	11809.75
2105.10435	11841.85
2108.09379	11851.85
2111.08131	11847.65
2114.0669	11839.55
2117.05057	11873.35
2120.03233	11854.35
2123.01216	11894.55
2125.99008	11911.85
2128.96609	11898.95
2131.94018	11932.65
2134.91236	11955.05
2137.88263	11902.25
2140.851	11930.25
2143.81746	11928.85
2146.78201	11944.35
2149.74466	11942.95
2152.7054	11916.55
2155.66425	11937.65
2158.6212	11896.55
2161.57625	11925.85
2164.52941	11897.85
2167.48067	11900.95
2170.43004	11879.25
2173.37752	11894.45
2176.32311	11896.85
2179.26681	11890.05
2182.20863	11881.55
2185.14856	11858.85
2188.08661	11856.25
2191.02278	11867.05
2193.95707	11866.85
2196.88948	11846.65
2199.82001	11868.95
2202.74867	11796.25
2205.67545	11799.25
2208.60037	11784.65
2211.52341	11765.85
2214.44458	11766.75
2217.36388	11757.55
2220.28132	11713.25
2223.1969	11699.95
2226.11061	11661.25
2229.02246	11636.55
2231.93245	11631.05
2234.84058	11589.35
2237.74686	11604.85
2240.65128	11545.85
2243.55385	11537.45
2246.45456	11532.35
2249.35343	11500.45
2252.25044	11470.15
2255.14561	11468.65
2258.03893	11482.75
2260.93041	11467.95
2263.82004	11404.95
2266.70783	11394.45
2269.59378	11347.15
2272.4779	11321.25
2275.36017	11292.55
2278.24061	11276.65
2281.11922	11277.35
2283.996	11264.55
2286.87094	11241.35
2289.74405	11250.65
2292.61534	11226.95
2295.4848	11196.25
2298.35243	11189.95
2301.21824	11166.15
2304.08223	11172.75
2306.94439	11190.55
2309.80474	11158.75
2312.66327	11153.25
2315.51999	11169.15
2318.37489	11125.05
2321.22797	11113.05
2324.07925	11107.45
2326.92871	11053.45
2329.77637	11053.15
2332.62222	11042.95
2335.46626	11007.95
2338.3085	11005.15
2341.14893	10976.05
2343.98756	11001.25
2346.8244	10968.55
2349.65943	10953.15
2352.49267	10948.95
2355.32411	10940.65
2358.15376	10931.05
2360.98161	10936.45
2363.80768	10947.05
2366.63195	10940.75
2369.45444	10935.75
2372.27514	10901.05
2375.09405	10896.35
2377.91118	10872.65
2380.72652	10820.05
2383.54009	10817.95
2386.35187	10795.65
2389.16188	10759.65
2391.97011	10744.45
2394.77657	10721.65
2397.58125	10687.25
2400.38416	10674.75
2403.18529	10679.95
2405.98466	10668.65
2408.78226	10641.45
2411.57809	10622.85
2414.37216	10589.35
2417.16446	10587.95
2419.955	10597.15
2422.74378	10568.95
2425.5308	10518.25
2428.31606	10565.55
2431.09956	10535.95
2433.88131	10514.05
2436.6613	10515.35
2439.43954	10504.95
2442.21603	10490.25
2444.99077	10484.25
2447.76377	10474.75
2450.53501	10471.55
2453.30451	10456.35
2456.07226	10431.65
2458.83827	10429.75
2461.60254	10451.05
2464.36507	10436.25
2467.12586	10420.65
2469.88492	10400.65
2472.64224	10356.75
2475.39782	10389.55
2478.15167	10415.75
2480.90379	10403.55
2483.65417	10414.45
2486.40283	10416.55
2489.14976	10392.65
2491.89497	10393.15
2494.63845	10411.85
2497.3802	10348.85
2500.12024	10340.65
2502.85855	10337.45
2505.59514	10331.85
2508.33002	10334.35
2511.06318	10319.55
2513.79462	10278.45
2516.52435	10268.95
2519.25237	10263.45
2521.97867	10259.15
2524.70327	10259.25
2527.42616	10243.45
2530.14734	10205.25
2532.86681	10178.35
2535.58458	10212.05
2538.30065	10196.35
2541.01501	10183.85
2543.72768	10163.45
2546.43864	10155.45
2549.14791	10130.45
2551.85548	10133.75
2554.56136	10121.95
2557.26554	10083.15
2559.96803	10046.35
2562.66883	10055.95
2565.36794	10020.45
2568.06536	10011.55
2570.7611	10005.85
2573.45514	9952.45
2576.14751	9942.25
2578.83819	9918.95
2581.52719	9913.55
2584.21451	9911.35
2586.90015	9885.45
2589.58411	9893.65
2592.2664	9864.05
2594.94701	9855.95
2597.62594	9856.45
2600.30321	9822.95
2602.9788	9811.75
2605.65273	9767.25
2608.32498	9788.85
2610.99557	9785.95
2613.66449	9791.05
2616.33175	9758.85
2618.99734	9770.95
2621.66128	9744.95
2624.32355	9743.45
2626.98416	9724.15
2629.64311	9693.45
2632.30041	9698.05
2634.95605	9665.65
2637.61004	9642.05
2640.26238	9633.95
2642.91306	9636.85
2645.56209	9638.25
2648.20948	9616.35
2650.85521	9612.95
2653.4993	9626.75
2656.14175	9617.85
2658.78255	9632.95
2661.42171	9613.95
2664.05923	9612.35
2666.6951	9619.55
2669.32934	9619.75
2671.96194	9613.85
2674.59291	9592.85
2677.22224	9596.55
2679.84993	9597.95
2682.476	9597.95
2685.10043	9613.95
2687.72324	9582.35
2690.34441	9580.35
2692.96396	9575.95
2695.58188	9584.55
2698.19818	9564.45
2700.81285	9589.05
2703.4259	9566.75
2706.03733	9599.85
2708.64714	9584.55
2711.25533	9601.65
2713.86191	9566.25
2716.46687	9596.55
2719.07021	9578.55
2721.67194	9596.55
2724.27206	9588.25
2726.87057	9590.95
2729.46747	9601.85
2732.06276	9569.25
2734.65644	9588.15
2737.24852	9591.65
2739.83899	9569.65
2742.42786	9561.75
2745.01513	9530.75
2747.60079	9533.65
2750.18486	9498.95
2752.76733	9489.65
2755.3482	9477.35
2757.92747	9491.35
2760.50515	9482.55
2763.08123	9457.05
2765.65573	9440.85
2768.22863	9429.45
2770.79994	9391.75
2773.36967	9411.75
2775.9378	9391.35
2778.50435	9395.85
2781.06932	9371.95
2783.6327	9389.65
2786.1945	9371.95
2788.75471	9374.95
2791.31335	9335.05
2793.87041	9324.75
2796.42589	9312.55
2798.97979	9318.75
2801.53212	9274.65
2804.08288	9243.55
2806.63206	9222.25
2809.17967	9226.55
2811.72571	9186.85
2814.27018	9153.65
2816.81308	9136.85
2819.35442	9130.05
2821.89419	9133.75
2824.43239	9110.25
2826.96904	9070.15
2829.50412	9092.45
2832.03763	9082.75
2834.56959	9080.55
2837.1	9076.05
2839.62884	9093.35
2842.15613	9092.45
2844.68186	9104.75
2847.20604	9140.95
2849.72867	9151.95
2852.24974	9156.25
2854.76927	9102.15
2857.28724	9074.05
2859.80367	9084.35
2862.31855	9059.55
2864.83189	9076.25
2867.34368	9034.85
2869.85393	9037.05
2872.36264	9026.35
2874.8698	9039.45
2877.37543	9003.15
2879.87952	9026.25
2882.38207	8981.35
2884.88308	8986.95
2887.38256	8988.05
2889.88051	8974.45
2892.37692	8977.65
2894.8718	8978.75
2897.36515	8991.25
2899.85698	8986.95
2902.34727	9001.85
2904.83604	9005.75
2907.32328	9041.35
2909.809	9005.35
2912.29319	9005.45
2914.77587	9000.35
2917.25702	8994.15
2919.73665	9018.05
2922.21476	9010.25
2924.69136	8981.55
2927.16644	8988.35
2929.64	8977.95
2932.11205	8947.05
2934.58258	8922.95
2937.05161	8940.65
2939.51912	8947.75
2941.98513	8939.15
2944.44962	8895.25
2946.91261	8877.35
2949.37409	8895.15
2951.83407	8869.65
2954.29254	8859.95
2956.74951	8859.45
2959.20498	8826.15
2961.65895	8831.45
2964.11142	8845.15
2966.56239	8826.25
2969.01186	8823.15
2971.45984	8802.75
2973.90632	8807.65
2976.35131	8764.85
2978.7948	8722.85
2981.23681	8720.95
2983.67732	8699.85
2986.11635	8666.35
2988.55388	8656.75
2990.98993	8646.85
2993.4245	8582.75
2995.85758	8594.45
2998.28917	8553.55
3000.71928	8552.65
3003.14791	8556.15
3005.57506	8541.95
3008.00073	8505.95
3010.42493	8511.55
3012.84764	8467.85
3015.26888	8472.15
3017.68865	8431.25
3020.10694	8445.05
3022.52376	8426.05
3024.9391	8421.55
3027.35298	8398.75
3029.76539	8414.75
3032.17632	8408.35
3034.5858	8401.65
3036.9938	8409.25
3039.40034	8390.25
3041.80542	8395.35
3044.20903	8352.35
3046.61118	8368.55
3049.01187	8350.85
3051.4111	8327.25
3053.80888	8323.25
3056.20519	8302.45
3058.60005	8263.85
3060.99345	8249.65
3063.3854	8230.05
3065.7759	8195.85
3068.16494	8195.75
3070.55254	8182.45
3072.93868	8183.85
3075.32338	8156.05
3077.70662	8148.85
3080.08842	8109.05
3082.46878	8121.85
3084.84769	8102.05
3087.22515	8080.35
3089.60118	8082.15
3091.97576	8102.25
3094.3489	8091.55
3096.72061	8088.35
3099.09087	8080.15
3101.4597	8070.55
3103.82709	8068.45
3106.19305	8059.75
3108.55757	8072.65
3110.92066	8021.15
3113.28232	8048.85
3115.64255	8009.05
3118.00134	8004.75
3120.35871	8019.85
3122.71466	7990.95
3125.06917	7947.35
3127.42226	7946.45
3129.77393	7962.45
3132.12417	7940.05
3134.47299	7926.65
3136.82039	7916.55
3139.16636	7944.45
3141.51092	7946.45
3143.85406	7920.55
3146.19579	7917.95
3148.53609	7932.45
3150.87499	7933.05
3153.21246	7922.85
3155.54853	7938.75
3157.88318	7952.15
3160.21642	7945.65
3162.54826	7928.55
3164.87868	7937.45
3167.2077	7958.55
3169.5353	7940.35
3171.86151	7947.45
3174.18631	7937.75
3176.5097	7958.75
3178.83169	7945.35
3181.15228	7941.15
3183.47147	7904.55
3185.78926	7927.15
3188.10565	7893.95
3190.42065	7886.15
3192.73424	7875.15
3195.04645	7874.75
3197.35725	7868.95
3199.66667	7874.55
3201.97469	7885.75
3204.28132	7883.75
3206.58656	7869.45
3208.8904	7869.65
3211.19287	7880.35
3213.49394	7852.95
3215.79363	7860.35
3218.09193	7881.15
3220.38884	7878.75
3222.68438	7873.55
3224.97853	7881.85
3227.2713	7835.45
3229.56269	7835.35
3231.8527	7837.85
3234.14133	7822.25
3236.42858	7828.85
3238.71446	7816.75
3240.99896	7773.45
3243.28209	7767.95
3245.56384	7771.65
3247.84423	7751.95
3250.12324	7769.65
3252.40088	7743.05
3254.67715	7745.35
3256.95205	7729.25
3259.22558	7733.75
3261.49775	7715.15
3263.76855	7700.45
3266.03799	7671.65
3268.30606	7684.85
3270.57277	7652.25
3272.83812	7650.35
