Data from AgNP_FTO_APTES_UA_10uM_CRN_200uM_R6G_10uM_NaF_0.1M_Addition_RamanShift__30__18-35-40-919.txt Node

Date: Thu Feb 10 18:35:40 GMT 2022
User: TCL
Spectrometer: QEP01345
Trigger mode: 4
Integration Time (sec): 7.000000E0
Scans to average: 10
Electric dark correction enabled: true
Nonlinearity correction enabled: false
Boxcar width: 0
XAxis mode: Raman Shifts
Number of Pixels in Spectrum: 1044
>>>>>Begin Spectral Data<<<<<
46.04893	-1.0125
50.45542	1.3875
54.85868	-0.4125
59.25871	-1.9125
63.6555	44.8875
68.04907	45.6875
72.43941	51.6875
76.82654	52.3875
81.21044	57.6875
85.59113	54.9875
89.96862	61.5875
94.34289	61.7875
98.71396	64.1875
103.08183	67.0875
107.4465	69.8875
111.80798	68.4875
116.16626	70.0875
120.52136	74.2875
124.87327	73.5875
129.222	76.4875
133.56755	82.9875
137.90993	82.4875
142.24913	84.3875
146.58517	96.3875
150.91804	105.9875
155.24774	123.2875
159.57429	154.1875
163.89768	191.3875
168.21792	247.0875
172.53501	338.4875
176.84895	455.2875
181.15975	638.8875
185.46741	888.1875
189.77193	1234.0875
194.07331	1638.2875
198.37157	2115.1875
202.6667	2617.4875
206.9587	3119.3875
211.24758	3613.3875
215.53334	4126.6875
219.81599	4695.7875
224.09553	5314.5875
228.37195	6031.9875
232.64527	6812.0875
236.91549	7615.7875
241.18261	8327.9875
245.44663	8967.0875
249.70755	9475.1875
253.96539	9912.7875
258.22014	10302.3875
262.4718	10634.1875
266.72039	10916.7875
270.96589	11098.5875
275.20832	11118.6875
279.44768	11079.4875
283.68397	10928.3875
287.91719	10837.0875
292.14735	10852.1875
296.37445	11028.5875
300.59849	11395.2875
304.81948	11784.5875
309.03742	12090.1875
313.25231	12038.8875
317.46415	11529.6875
321.67296	10765.5875
325.87872	10064.3875
330.08145	9765.6875
334.28114	9723.4875
338.47781	9894.7875
342.67145	10181.1875
346.86207	10587.4875
351.04966	11163.0875
355.23424	11837.4875
359.4158	12316.5875
363.59435	12577.3875
367.76989	12680.4875
371.94243	12708.5875
376.11196	12662.3875
380.27849	12623.1875
384.44203	12543.2875
388.60257	12382.6875
392.76012	12294.4875
396.91468	12404.8875
401.06626	12683.7875
405.21485	12937.4875
409.36047	12802.8875
413.50311	12216.6875
417.64277	11631.9875
421.77947	11370.6875
425.9132	11244.0875
430.04396	11251.5875
434.17176	11324.9875
438.2966	11444.6875
442.41849	11705.3875
446.53742	12000.4875
450.6534	12376.2875
454.76644	12542.8875
458.87653	12593.4875
462.98368	12480.7875
467.08789	12331.8875
471.18916	12080.3875
475.2875	11838.9875
479.38291	11630.5875
483.4754	11468.7875
487.56496	11331.5875
491.6516	11215.9875
495.73531	11149.4875
499.81612	11183.9875
503.89401	11301.2875
507.96899	11452.7875
512.04106	11610.6875
516.11023	11809.7875
520.1765	11923.1875
524.23987	11917.1875
528.30034	11714.0875
532.35792	11518.6875
536.41261	11288.7875
540.46441	11067.6875
544.51333	10988.1875
548.55936	11058.3875
552.60252	11272.6875
556.64279	11533.8875
560.6802	11674.5875
564.71473	11841.5875
568.7464	12251.3875
572.7752	12578.4875
576.80114	12283.2875
580.82422	11825.5875
584.84444	11629.8875
588.86181	11604.3875
592.87633	11651.5875
596.888	11800.5875
600.89682	12107.4875
604.9028	13218.3875
608.90594	16382.2875
612.90624	20893.5875
616.90371	20446.2875
620.89834	14759.1875
624.89015	12057.4875
628.87913	11526.6875
632.86528	11538.4875
636.84862	11689.9875
640.82913	11597.5875
644.80683	11209.7875
648.78172	10932.0875
652.75379	10960.9875
656.72306	11354.2875
660.68952	11896.7875
664.65319	11821.0875
668.61405	11318.6875
672.57211	11036.8875
676.52738	11080.7875
680.47986	11090.2875
684.42955	11039.7875
688.37646	11023.2875
692.32058	11052.4875
696.26192	11156.0875
700.20048	11236.3875
704.13626	11362.1875
708.06928	11328.1875
711.99952	11227.3875
715.927	11204.1875
719.85171	11242.0875
723.77365	11242.1875
727.69284	11158.0875
731.60928	11083.0875
735.52295	11055.2875
739.43388	11060.9875
743.34206	11126.0875
747.24749	11144.9875
751.15017	11229.4875
755.05012	11404.1875
758.94733	11888.1875
762.8418	12897.0875
766.73354	14714.1875
770.62254	16685.4875
774.50882	17765.2875
778.39237	17171.0875
782.27321	15098.0875
786.15132	13066.9875
790.02671	11940.0875
793.89938	11427.9875
797.76935	11218.0875
801.6366	11124.6875
805.50115	11070.4875
809.36299	11056.7875
813.22213	10995.3875
817.07857	11004.0875
820.93231	11009.7875
824.78336	11016.3875
828.63172	11086.6875
832.47738	11104.8875
836.32036	11103.0875
840.16066	11041.9875
843.99827	10989.4875
847.8332	10944.5875
851.66546	10963.5875
855.49504	10971.3875
859.32195	10974.0875
863.1462	10908.6875
866.96777	10883.8875
870.78668	10890.0875
874.60293	10888.3875
878.41652	10924.9875
882.22745	11010.7875
886.03573	11049.7875
889.84136	11019.7875
893.64433	10956.8875
897.44466	10949.9875
901.24235	10941.1875
905.0374	10931.0875
908.8298	10915.1875
912.61957	10883.2875
916.40671	10934.6875
920.19121	10948.1875
923.97308	11059.6875
927.75233	11125.1875
931.52895	11235.7875
935.30295	11122.7875
939.07433	10861.8875
942.84309	10656.4875
946.60924	10519.4875
950.37278	10466.1875
954.13371	10390.2875
957.89203	10348.8875
961.64774	10373.0875
965.40086	10322.5875
969.15137	10302.5875
972.89929	10262.7875
976.64461	10284.6875
980.38733	10272.1875
984.12747	10299.6875
987.86502	10339.1875
991.59999	10389.1875
995.33237	10450.5875
999.06217	10622.3875
1002.78939	10850.5875
1006.51404	11025.7875
1010.23611	11215.3875
1013.95561	11357.6875
1017.67255	11356.7875
1021.38692	11218.5875
1025.09872	11112.7875
1028.80796	11026.0875
1032.51465	11069.7875
1036.21877	11149.6875
1039.92035	11231.3875
1043.61937	11228.0875
1047.31584	11182.7875
1051.00976	11160.9875
1054.70114	11122.3875
1058.38998	11151.1875
1062.07627	11206.7875
1065.76003	11233.0875
1069.44126	11287.7875
1073.11995	11353.1875
1076.79611	11489.9875
1080.46974	11607.3875
1084.14085	11836.8875
1087.80943	12091.6875
1091.47549	12201.1875
1095.13903	12064.7875
1098.80005	11745.3875
1102.45857	11452.6875
1106.11456	11354.6875
1109.76805	11391.0875
1113.41903	11590.7875
1117.06751	11931.1875
1120.71348	12310.2875
1124.35696	12730.9875
1127.99793	13096.5875
1131.63641	13091.6875
1135.2724	12608.1875
1138.90589	12064.2875
1142.5369	11760.7875
1146.16542	11570.5875
1149.79145	11455.5875
1153.415	11467.0875
1157.03607	11563.1875
1160.65467	11731.8875
1164.27079	12101.6875
1167.88443	12573.0875
1171.49561	13397.5875
1175.10432	14784.4875
1178.71056	16629.9875
1182.31434	17919.7875
1185.91565	18204.4875
1189.51451	17751.4875
1193.11091	16807.4875
1196.70485	15698.6875
1200.29634	14842.9875
1203.88538	14274.2875
1207.47197	13572.7875
1211.05612	12943.7875
1214.63782	12584.3875
1218.21708	12458.0875
1221.79391	12478.9875
1225.36829	12534.9875
1228.94024	12541.0875
1232.50976	12555.9875
1236.07685	12596.4875
1239.6415	12631.7875
1243.20374	12725.8875
1246.76355	12840.7875
1250.32093	12973.9875
1253.8759	13188.6875
1257.42845	13539.0875
1260.97859	13867.0875
1264.52631	14193.4875
1268.07163	14458.4875
1271.61453	14755.4875
1275.15503	14958.7875
1278.69312	15018.4875
1282.22882	15025.5875
1285.76211	15269.6875
1289.29301	15646.6875
1292.82151	16040.2875
1296.34761	16471.1875
1299.87133	17162.1875
1303.39266	18316.5875
1306.9116	20106.1875
1310.42815	22187.9875
1313.94233	23500.3875
1317.45412	23190.0875
1320.96354	21790.4875
1324.47058	20225.5875
1327.97525	18868.9875
1331.47754	18049.6875
1334.97747	17768.7875
1338.47502	17967.5875
1341.97022	18413.1875
1345.46305	19019.4875
1348.95352	19855.1875
1352.44163	20974.3875
1355.92738	22790.7875
1359.41078	25608.5875
1362.89183	28364.8875
1366.37053	27683.7875
1369.84688	23789.9875
1373.32088	19960.9875
1376.79254	17494.1875
1380.26186	16271.1875
1383.72883	15696.7875
1387.19347	15282.5875
1390.65578	14845.7875
1394.11575	14444.6875
1397.57339	14265.3875
1401.0287	14264.0875
1404.48168	14453.7875
1407.93234	14640.5875
1411.38068	14845.9875
1414.82669	14846.3875
1418.27039	14633.8875
1421.71177	14376.6875
1425.15083	14052.5875
1428.58758	13901.3875
1432.02203	13940.9875
1435.45416	14032.3875
1438.88399	14071.5875
1442.31151	14074.6875
1445.73673	14129.8875
1449.15965	14169.6875
1452.58027	14191.8875
1455.9986	14087.0875
1459.41463	14078.1875
1462.82837	14179.8875
1466.23982	14425.7875
1469.64898	14684.8875
1473.05586	14876.4875
1476.46045	15027.1875
1479.86276	15242.0875
1483.26279	15546.4875
1486.66054	15931.7875
1490.05602	16384.5875
1493.44922	16963.7875
1496.84016	17845.3875
1500.22882	19221.7875
1503.61521	21109.8875
1506.99934	23288.4875
1510.38121	25496.4875
1513.76081	26663.8875
1517.13816	25631.2875
1520.51324	22898.3875
1523.88607	20044.8875
1527.25665	18015.6875
1530.62498	16902.9875
1533.99105	16252.6875
1537.35488	15869.8875
1540.71647	15684.1875
1544.07581	15588.8875
1547.4329	15569.0875
1550.78776	15464.0875
1554.14038	15470.8875
1557.49077	15534.0875
1560.83892	15744.3875
1564.18484	16142.7875
1567.52853	16472.1875
1570.86999	16750.5875
1574.20922	16906.2875
1577.54624	16816.0875
1580.88103	16195.2875
1584.2136	15304.1875
1587.54395	14853.2875
1590.87208	14956.7875
1594.19801	15623.5875
1597.52172	16597.6875
1600.84321	17139.7875
1604.16251	16750.0875
1607.47959	15878.1875
1610.79447	14855.6875
1614.10715	13872.9875
1617.41763	13041.7875
1620.7259	12533.5875
1624.03199	12252.1875
1627.33587	12219.5875
1630.63757	12424.3875
1633.93707	12849.0875
1637.23439	13553.2875
1640.52951	14547.1875
1643.82246	15920.4875
1647.11321	17632.3875
1650.40179	18953.4875
1653.68819	18713.7875
1656.97241	16701.1875
1660.25446	14352.5875
1663.53433	12665.6875
1666.81203	11651.8875
1670.08756	11081.0875
1673.36092	10738.9875
1676.63211	10513.1875
1679.90115	10324.8875
1683.16801	10174.4875
1686.43272	10145.1875
1689.69527	10062.9875
1692.95567	10027.8875
1696.2139	10011.2875
1699.46999	10009.8875
1702.72392	9991.8875
1705.97571	9952.1875
1709.22535	9943.2875
1712.47284	9941.9875
1715.71819	9924.5875
1718.96139	9923.4875
1722.20246	9920.0875
1725.44139	9891.7875
1728.67818	9839.1875
1731.91284	9777.9875
1735.14537	9688.3875
1738.37576	9667.2875
1741.60403	9653.9875
1744.83017	9618.7875
1748.05418	9578.1875
1751.27607	9580.7875
1754.49584	9571.6875
1757.71349	9573.5875
1760.92903	9559.0875
1764.14244	9535.1875
1767.35375	9536.2875
1770.56294	9508.7875
1773.77002	9482.5875
1776.97499	9473.8875
1780.17785	9433.4875
1783.37861	9440.5875
1786.57727	9397.4875
1789.77382	9394.2875
1792.96828	9362.3875
1796.16064	9349.5875
1799.3509	9358.2875
1802.53907	9335.8875
1805.72514	9299.0875
1808.90913	9286.1875
1812.09102	9256.7875
1815.27083	9213.7875
1818.44856	9195.5875
1821.6242	9187.7875
1824.79776	9172.0875
1827.96924	9161.1875
1831.13864	9166.8875
1834.30597	9144.1875
1837.47122	9136.9875
1840.6344	9123.9875
1843.7955	9138.9875
1846.95454	9115.8875
1850.11151	9099.3875
1853.26642	9105.4875
1856.41926	9108.0875
1859.57004	9124.8875
1862.71876	9096.7875
1865.86542	9099.5875
1869.01003	9113.5875
1872.15258	9110.3875
1875.29308	9096.7875
1878.43152	9092.6875
1881.56792	9075.1875
1884.70227	9085.6875
1887.83457	9097.8875
1890.96482	9095.1875
1894.09304	9051.7875
1897.21921	9069.0875
1900.34335	9041.7875
1903.46544	9038.5875
1906.58551	9050.3875
1909.70353	9049.8875
1912.81953	9038.9875
1915.93349	9056.7875
1919.04543	9026.9875
1922.15534	9000.1875
1925.26322	8974.5875
1928.36908	8963.4875
1931.47292	8943.0875
1934.57473	8939.6875
1937.67453	8884.7875
1940.77232	8870.3875
1943.86808	8821.5875
1946.96184	8783.7875
1950.05358	8786.0875
1953.14331	8739.6875
1956.23103	8695.1875
1959.31675	8690.6875
1962.40046	8667.4875
1965.48217	8667.4875
1968.56188	8621.4875
1971.63959	8592.1875
1974.7153	8571.2875
1977.78901	8541.4875
1980.86073	8535.5875
1983.93046	8505.8875
1986.99819	8466.5875
1990.06394	8458.1875
1993.1277	8426.7875
1996.18947	8373.3875
1999.24925	8354.1875
2002.30706	8334.3875
2005.36288	8308.7875
2008.41672	8283.7875
2011.46859	8254.9875
2014.51848	8242.7875
2017.56639	8237.2875
2020.61233	8209.0875
2023.6563	8187.6875
2026.6983	8160.3875
2029.73833	8151.6875
2032.7764	8108.0875
2035.8125	8099.9875
2038.84664	8076.9875
2041.87881	8052.4875
2044.90903	8032.0875
2047.93729	8023.0875
2050.96359	8010.2875
2053.98794	8007.1875
2057.01034	7993.0875
2060.03078	7985.4875
2063.04927	7974.0875
2066.06582	7970.1875
2069.08042	7972.0875
2072.09307	7961.7875
2075.10378	7968.0875
2078.11255	7973.5875
2081.11938	7957.7875
2084.12426	7927.8875
2087.12722	7947.6875
2090.12824	7929.9875
2093.12732	7935.6875
2096.12447	7938.8875
2099.11969	7932.7875
2102.11299	7919.7875
2105.10435	7931.1875
2108.09379	7923.5875
2111.08131	7932.0875
2114.0669	7912.9875
2117.05057	7958.0875
2120.03233	7943.6875
2123.01216	7966.5875
2125.99008	7960.4875
2128.96609	7943.1875
2131.94018	7966.2875
2134.91236	7977.4875
2137.88263	7959.8875
2140.851	7962.1875
2143.81746	7972.6875
2146.78201	7966.0875
2149.74466	7976.8875
2152.7054	7962.4875
2155.66425	7947.4875
2158.6212	7963.8875
2161.57625	7938.4875
2164.52941	7928.1875
2167.48067	7920.1875
2170.43004	7941.9875
2173.37752	7930.3875
2176.32311	7930.7875
2179.26681	7945.9875
2182.20863	7943.0875
2185.14856	7924.2875
2188.08661	7927.0875
2191.02278	7925.7875
2193.95707	7915.2875
2196.88948	7916.4875
2199.82001	7906.6875
2202.74867	7879.3875
2205.67545	7877.9875
2208.60037	7869.5875
2211.52341	7867.4875
2214.44458	7839.2875
2217.36388	7846.3875
2220.28132	7806.1875
2223.1969	7801.3875
2226.11061	7805.9875
2229.02246	7772.1875
2231.93245	7750.8875
2234.84058	7734.4875
2237.74686	7728.5875
2240.65128	7708.1875
2243.55385	7699.8875
2246.45456	7694.8875
2249.35343	7671.4875
2252.25044	7688.5875
2255.14561	7684.7875
2258.03893	7676.1875
2260.93041	7654.2875
2263.82004	7619.2875
2266.70783	7619.2875
2269.59378	7580.3875
2272.4779	7571.4875
2275.36017	7536.7875
2278.24061	7544.5875
2281.11922	7525.6875
2283.996	7525.0875
2286.87094	7514.1875
2289.74405	7492.6875
2292.61534	7462.2875
2295.4848	7483.0875
2298.35243	7462.2875
2301.21824	7446.6875
2304.08223	7453.3875
2306.94439	7452.8875
2309.80474	7439.3875
2312.66327	7428.5875
2315.51999	7422.9875
2318.37489	7418.2875
2321.22797	7400.1875
2324.07925	7407.9875
2326.92871	7404.5875
2329.77637	7387.3875
2332.62222	7393.7875
2335.46626	7363.2875
2338.3085	7357.7875
2341.14893	7350.1875
2343.98756	7351.2875
2346.8244	7352.9875
2349.65943	7351.0875
2352.49267	7334.8875
2355.32411	7347.3875
2358.15376	7360.8875
2360.98161	7353.6875
2363.80768	7364.9875
2366.63195	7377.7875
2369.45444	7351.3875
2372.27514	7332.2875
2375.09405	7324.7875
2377.91118	7329.4875
2380.72652	7297.3875
2383.54009	7250.5875
2386.35187	7244.1875
2389.16188	7197.5875
2391.97011	7189.5875
2394.77657	7177.3875
2397.58125	7162.8875
2400.38416	7119.6875
2403.18529	7117.8875
2405.98466	7102.6875
2408.78226	7070.4875
2411.57809	7081.8875
2414.37216	7059.2875
2417.16446	7064.2875
2419.955	7036.6875
2422.74378	7041.2875
2425.5308	7045.0875
2428.31606	7039.0875
2431.09956	7044.8875
2433.88131	7016.1875
2436.6613	7019.2875
2439.43954	7016.0875
2442.21603	6997.6875
2444.99077	7029.8875
2447.76377	7009.6875
2450.53501	7005.3875
2453.30451	6994.0875
2456.07226	7001.3875
2458.83827	6985.7875
2461.60254	6980.6875
2464.36507	6978.6875
2467.12586	6944.8875
2469.88492	6961.3875
2472.64224	6953.9875
2475.39782	6957.0875
2478.15167	6956.2875
2480.90379	6960.5875
2483.65417	6978.4875
2486.40283	6985.3875
2489.14976	6989.4875
2491.89497	7002.0875
2494.63845	6978.3875
2497.3802	6963.4875
2500.12024	6981.3875
2502.85855	6966.3875
2505.59514	6932.2875
2508.33002	6918.4875
2511.06318	6893.9875
2513.79462	6875.7875
2516.52435	6853.8875
2519.25237	6836.3875
2521.97867	6807.2875
2524.70327	6818.8875
2527.42616	6796.5875
2530.14734	6792.2875
2532.86681	6805.3875
2535.58458	6799.5875
2538.30065	6776.8875
2541.01501	6799.9875
2543.72768	6784.6875
2546.43864	6754.6875
2549.14791	6756.0875
2551.85548	6745.3875
2554.56136	6744.8875
2557.26554	6738.2875
2559.96803	6728.2875
2562.66883	6712.9875
2565.36794	6669.3875
2568.06536	6657.6875
2570.7611	6645.4875
2573.45514	6645.2875
2576.14751	6637.9875
2578.83819	6621.2875
2581.52719	6628.6875
2584.21451	6599.2875
2586.90015	6608.7875
2589.58411	6600.3875
2592.2664	6562.1875
2594.94701	6569.2875
2597.62594	6562.8875
2600.30321	6546.7875
2602.9788	6551.6875
2605.65273	6544.6875
2608.32498	6517.2875
2610.99557	6508.7875
2613.66449	6533.7875
2616.33175	6511.0875
2618.99734	6522.7875
2621.66128	6495.5875
2624.32355	6494.7875
2626.98416	6494.3875
2629.64311	6484.9875
2632.30041	6461.1875
2634.95605	6460.4875
2637.61004	6455.2875
2640.26238	6441.5875
2642.91306	6433.7875
2645.56209	6409.6875
2648.20948	6423.5875
2650.85521	6404.2875
2653.4993	6395.2875
2656.14175	6415.1875
2658.78255	6389.7875
2661.42171	6406.8875
2664.05923	6436.3875
2666.6951	6422.8875
2669.32934	6428.6875
2671.96194	6428.3875
2674.59291	6443.6875
2677.22224	6424.2875
2679.84993	6436.6875
2682.476	6411.2875
2685.10043	6413.1875
2687.72324	6411.2875
2690.34441	6429.1875
2692.96396	6434.2875
2695.58188	6418.6875
2698.19818	6402.3875
2700.81285	6411.4875
2703.4259	6407.8875
2706.03733	6420.5875
2708.64714	6406.3875
2711.25533	6406.5875
2713.86191	6411.8875
2716.46687	6410.3875
2719.07021	6409.2875
2721.67194	6422.8875
2724.27206	6412.1875
2726.87057	6422.9875
2729.46747	6412.5875
2732.06276	6430.7875
2734.65644	6420.9875
2737.24852	6403.5875
2739.83899	6398.2875
2742.42786	6408.5875
2745.01513	6360.9875
2747.60079	6360.6875
2750.18486	6356.3875
2752.76733	6331.3875
2755.3482	6336.1875
2757.92747	6326.3875
2760.50515	6326.2875
2763.08123	6309.7875
2765.65573	6301.8875
2768.22863	6293.7875
2770.79994	6283.5875
2773.36967	6280.9875
2775.9378	6280.5875
2778.50435	6274.7875
2781.06932	6294.3875
2783.6327	6263.0875
2786.1945	6258.2875
2788.75471	6253.4875
2791.31335	6249.9875
2793.87041	6246.3875
2796.42589	6226.7875
2798.97979	6212.1875
2801.53212	6214.7875
2804.08288	6214.9875
2806.63206	6193.4875
2809.17967	6187.3875
2811.72571	6169.0875
2814.27018	6166.8875
2816.81308	6163.0875
2819.35442	6154.5875
2821.89419	6146.9875
2824.43239	6138.2875
2826.96904	6142.8875
2829.50412	6157.2875
2832.03763	6133.3875
2834.56959	6159.6875
2837.1	6154.2875
2839.62884	6178.6875
2842.15613	6178.4875
2844.68186	6224.9875
2847.20604	6276.4875
2849.72867	6306.2875
2852.24974	6314.3875
2854.76927	6318.9875
2857.28724	6283.7875
2859.80367	6278.1875
2862.31855	6264.6875
2864.83189	6234.9875
2867.34368	6217.7875
2869.85393	6215.7875
2872.36264	6216.6875
2874.8698	6206.3875
2877.37543	6177.0875
2879.87952	6187.7875
2882.38207	6191.1875
2884.88308	6187.9875
2887.38256	6179.6875
2889.88051	6180.4875
2892.37692	6177.8875
2894.8718	6168.7875
2897.36515	6179.2875
2899.85698	6178.3875
2902.34727	6186.3875
2904.83604	6184.1875
2907.32328	6185.9875
2909.809	6179.9875
2912.29319	6199.4875
2914.77587	6201.8875
2917.25702	6183.4875
2919.73665	6165.8875
2922.21476	6177.0875
2924.69136	6171.4875
2927.16644	6163.1875
2929.64	6145.6875
2932.11205	6128.0875
2934.58258	6112.7875
2937.05161	6123.8875
2939.51912	6103.6875
2941.98513	6075.3875
2944.44962	6057.2875
2946.91261	6002.7875
2949.37409	6001.2875
2951.83407	5975.1875
2954.29254	5958.1875
2956.74951	5941.7875
2959.20498	5953.9875
2961.65895	5951.4875
2964.11142	5927.6875
2966.56239	5924.9875
2969.01186	5918.3875
2971.45984	5894.1875
2973.90632	5886.3875
2976.35131	5879.6875
2978.7948	5853.5875
2981.23681	5831.4875
2983.67732	5841.0875
2986.11635	5808.7875
2988.55388	5795.5875
2990.98993	5780.7875
2993.4245	5768.7875
2995.85758	5749.1875
2998.28917	5735.8875
3000.71928	5726.9875
3003.14791	5710.0875
3005.57506	5715.0875
3008.00073	5693.8875
3010.42493	5713.3875
3012.84764	5679.0875
3015.26888	5685.6875
3017.68865	5680.1875
3020.10694	5661.4875
3022.52376	5656.3875
3024.9391	5642.9875
3027.35298	5634.7875
3029.76539	5627.2875
3032.17632	5621.4875
3034.5858	5639.3875
3036.9938	5626.1875
3039.40034	5606.7875
3041.80542	5593.1875
3044.20903	5585.9875
3046.61118	5586.2875
3049.01187	5563.5875
3051.4111	5567.4875
3053.80888	5566.4875
3056.20519	5547.4875
3058.60005	5529.7875
3060.99345	5527.3875
3063.3854	5511.3875
3065.7759	5510.6875
3068.16494	5503.6875
3070.55254	5480.6875
3072.93868	5465.7875
3075.32338	5437.3875
3077.70662	5416.5875
3080.08842	5418.9875
