Data from AgNP_FTO_APTES_UA_10uM_CRN_200uM_R6G_10uM_NaF_0.1M_Addition_RamanShift__24__18-28-40-910.txt Node

Date: Thu Feb 10 18:28:40 GMT 2022
User: TCL
Spectrometer: QEP01345
Trigger mode: 4
Integration Time (sec): 7.000000E0
Scans to average: 10
Electric dark correction enabled: true
Nonlinearity correction enabled: false
Boxcar width: 0
XAxis mode: Raman Shifts
Number of Pixels in Spectrum: 1044
>>>>>Begin Spectral Data<<<<<
46.04893	0.375
50.45542	-0.925
54.85868	-2.525
59.25871	-1.325
63.6555	66.475
68.04907	68.275
72.43941	76.075
76.82654	72.675
81.21044	79.675
85.59113	77.275
89.96862	80.775
94.34289	86.775
98.71396	90.075
103.08183	91.775
107.4465	96.675
111.80798	93.675
116.16626	98.975
120.52136	102.275
124.87327	105.475
129.222	112.575
133.56755	117.575
137.90993	122.775
142.24913	133.275
146.58517	151.475
150.91804	177.975
155.24774	204.975
159.57429	257.975
163.89768	325.475
168.21792	429.975
172.53501	579.175
176.84895	815.275
181.15975	1141.075
185.46741	1618.675
189.77193	2220.175
194.07331	2986.775
198.37157	3860.375
202.6667	4766.975
206.9587	5692.075
211.24758	6569.375
215.53334	7475.475
219.81599	8384.475
224.09553	9388.975
228.37195	10519.475
232.64527	11793.575
236.91549	13111.475
241.18261	14456.575
245.44663	15749.875
249.70755	16909.875
253.96539	17943.275
258.22014	18856.375
262.4718	19617.875
266.72039	20102.075
270.96589	20478.175
275.20832	20534.275
279.44768	20486.375
283.68397	20271.875
287.91719	20082.075
292.14735	19980.675
296.37445	19962.475
300.59849	20046.675
304.81948	20066.275
309.03742	19978.975
313.25231	19748.875
317.46415	19323.675
321.67296	18844.575
325.87872	18454.875
330.08145	18300.075
334.28114	18284.575
338.47781	18492.075
342.67145	18723.075
346.86207	19003.975
351.04966	19402.575
355.23424	19823.275
359.4158	20192.075
363.59435	20480.675
367.76989	20705.175
371.94243	20886.775
376.11196	21030.475
380.27849	21186.375
384.44203	21341.775
388.60257	21430.775
392.76012	21530.375
396.91468	21729.875
401.06626	22004.975
405.21485	22217.675
409.36047	22175.975
413.50311	21897.675
417.64277	21698.275
421.77947	21616.975
425.9132	21688.175
430.04396	21842.075
434.17176	22015.475
438.2966	22257.475
442.41849	22648.575
446.53742	23141.475
450.6534	23663.375
454.76644	24119.375
458.87653	24293.075
462.98368	24194.975
467.08789	23969.075
471.18916	23733.875
475.2875	23516.775
479.38291	23495.275
483.4754	23356.775
487.56496	23128.575
491.6516	22798.975
495.73531	22537.275
499.81612	22361.675
503.89401	22389.075
507.96899	22427.575
512.04106	22433.575
516.11023	22435.575
520.1765	22407.175
524.23987	22258.275
528.30034	22145.075
532.35792	22024.775
536.41261	21896.775
540.46441	21742.975
544.51333	21744.775
548.55936	21910.775
552.60252	22233.875
556.64279	22598.575
560.6802	22859.675
564.71473	22983.575
568.7464	23273.875
572.7752	23619.675
576.80114	23764.075
580.82422	23740.975
584.84444	23822.075
588.86181	24016.575
592.87633	24311.775
596.888	24583.075
600.89682	24620.875
604.9028	25150.475
608.90594	26915.775
612.90624	29091.275
616.90371	28008.175
620.89834	24297.675
624.89015	22638.175
628.87913	22448.075
632.86528	22496.975
636.84862	22476.375
640.82913	22312.575
644.80683	21938.975
648.78172	21623.275
652.75379	21542.275
656.72306	21731.375
660.68952	22069.675
664.65319	22034.875
668.61405	21763.975
672.57211	21618.475
676.52738	21640.875
680.47986	21749.675
684.42955	21692.175
688.37646	21641.175
692.32058	21639.375
696.26192	21805.675
700.20048	21964.675
704.13626	22066.075
708.06928	22063.775
711.99952	21946.675
715.927	21882.075
719.85171	21924.775
723.77365	21886.675
727.69284	21813.975
731.60928	21698.575
735.52295	21659.375
739.43388	21718.075
743.34206	21731.175
747.24749	21794.575
751.15017	21911.175
755.05012	22122.575
758.94733	22585.775
762.8418	23384.875
766.73354	24692.475
770.62254	25978.075
774.50882	26492.175
778.39237	25725.075
782.27321	24111.475
786.15132	22824.475
790.02671	22059.475
793.89938	21704.575
797.76935	21560.175
801.6366	21549.875
805.50115	21535.375
809.36299	21444.375
813.22213	21398.375
817.07857	21382.075
820.93231	21348.575
824.78336	21291.675
828.63172	21324.175
832.47738	21309.675
836.32036	21351.875
840.16066	21361.075
843.99827	21386.575
847.8332	21377.375
851.66546	21344.375
855.49504	21352.275
859.32195	21323.175
863.1462	21318.275
866.96777	21261.775
870.78668	21207.875
874.60293	21223.775
878.41652	21216.875
882.22745	21260.775
886.03573	21308.975
889.84136	21298.875
893.64433	21253.775
897.44466	21214.875
901.24235	21119.475
905.0374	21054.575
908.8298	21003.575
912.61957	21037.175
916.40671	21085.775
920.19121	21262.175
923.97308	21386.775
927.75233	21457.175
931.52895	21425.575
935.30295	21300.675
939.07433	21033.475
942.84309	20815.775
946.60924	20690.375
950.37278	20629.375
954.13371	20551.075
957.89203	20516.175
961.64774	20446.975
965.40086	20407.675
969.15137	20335.875
972.89929	20255.275
976.64461	20169.175
980.38733	20190.975
984.12747	20266.475
987.86502	20401.575
991.59999	20571.975
995.33237	20823.775
999.06217	21201.075
1002.78939	21646.375
1006.51404	21880.575
1010.23611	22029.675
1013.95561	22116.175
1017.67255	22185.875
1021.38692	21997.075
1025.09872	21899.575
1028.80796	21958.375
1032.51465	22265.275
1036.21877	22576.475
1039.92035	22635.775
1043.61937	22425.775
1047.31584	22134.575
1051.00976	21800.875
1054.70114	21617.575
1058.38998	21607.975
1062.07627	21714.275
1065.76003	21783.975
1069.44126	21815.075
1073.11995	21923.375
1076.79611	22030.775
1080.46974	22129.675
1084.14085	22241.775
1087.80943	22422.375
1091.47549	22564.075
1095.13903	22518.575
1098.80005	22318.975
1102.45857	22093.675
1106.11456	21933.475
1109.76805	21922.275
1113.41903	22056.975
1117.06751	22278.575
1120.71348	22497.875
1124.35696	22703.175
1127.99793	22914.575
1131.63641	23041.475
1135.2724	22826.175
1138.90589	22591.475
1142.5369	22372.875
1146.16542	22316.575
1149.79145	22293.375
1153.415	22449.575
1157.03607	22623.475
1160.65467	22985.575
1164.27079	23595.375
1167.88443	24421.375
1171.49561	25482.275
1175.10432	26896.575
1178.71056	28718.875
1182.31434	30388.675
1185.91565	31275.575
1189.51451	31212.875
1193.11091	30518.275
1196.70485	29512.175
1200.29634	28599.675
1203.88538	27835.175
1207.47197	27237.975
1211.05612	26694.375
1214.63782	26219.775
1218.21708	25905.775
1221.79391	25806.175
1225.36829	25670.475
1228.94024	25430.375
1232.50976	25115.975
1236.07685	24869.475
1239.6415	24778.375
1243.20374	24830.875
1246.76355	24972.275
1250.32093	25268.575
1253.8759	25690.875
1257.42845	26185.575
1260.97859	26669.575
1264.52631	27081.275
1268.07163	27529.775
1271.61453	28085.775
1275.15503	28598.675
1278.69312	29118.675
1282.22882	29626.975
1285.76211	30083.975
1289.29301	30707.275
1292.82151	31553.775
1296.34761	32660.775
1299.87133	34094.975
1303.39266	35754.275
1306.9116	37651.975
1310.42815	39601.875
1313.94233	40801.375
1317.45412	40907.875
1320.96354	40172.275
1324.47058	39296.675
1327.97525	38405.575
1331.47754	37810.875
1334.97747	37718.975
1338.47502	37932.975
1341.97022	38159.175
1345.46305	38111.075
1348.95352	37724.475
1352.44163	37420.375
1355.92738	37777.775
1359.41078	38996.975
1362.89183	40319.375
1366.37053	39672.575
1369.84688	36660.775
1373.32088	33221.575
1376.79254	30918.675
1380.26186	29946.975
1383.72883	29815.275
1387.19347	29756.075
1390.65578	29746.675
1394.11575	29825.175
1397.57339	30209.775
1401.0287	30734.075
1404.48168	31377.975
1407.93234	31731.075
1411.38068	31694.675
1414.82669	31168.375
1418.27039	30170.275
1421.71177	29033.975
1425.15083	28056.175
1428.58758	27440.475
1432.02203	27364.575
1435.45416	27639.475
1438.88399	28098.375
1442.31151	28541.675
1445.73673	28919.275
1449.15965	29317.875
1452.58027	29635.375
1455.9986	29752.775
1459.41463	29968.875
1462.82837	30277.075
1466.23982	30656.975
1469.64898	31073.075
1473.05586	31299.675
1476.46045	31320.175
1479.86276	31213.175
1483.26279	31062.675
1486.66054	30893.175
1490.05602	30897.275
1493.44922	30972.175
1496.84016	31063.175
1500.22882	31393.375
1503.61521	32020.675
1506.99934	33013.975
1510.38121	34067.375
1513.76081	34540.075
1517.13816	33950.575
1520.51324	32633.575
1523.88607	31357.975
1527.25665	30524.175
1530.62498	30160.975
1533.99105	30011.475
1537.35488	29990.175
1540.71647	29849.575
1544.07581	29643.975
1547.4329	29358.175
1550.78776	29043.775
1554.14038	28745.975
1557.49077	28693.875
1560.83892	28652.475
1564.18484	28721.175
1567.52853	28713.675
1570.86999	28753.175
1574.20922	28980.075
1577.54624	29172.075
1580.88103	29219.175
1584.2136	29261.875
1587.54395	29761.175
1590.87208	30779.675
1594.19801	32237.275
1597.52172	33756.875
1600.84321	34448.075
1604.16251	33590.975
1607.47959	31686.575
1610.79447	29486.275
1614.10715	27451.175
1617.41763	25732.075
1620.7259	24618.975
1624.03199	23983.475
1627.33587	23923.275
1630.63757	24336.375
1633.93707	25261.075
1637.23439	26806.275
1640.52951	28927.375
1643.82246	31242.475
1647.11321	33177.175
1650.40179	33698.475
1653.68819	32240.275
1656.97241	29210.075
1660.25446	26060.175
1663.53433	23700.275
1666.81203	22146.475
1670.08756	21157.975
1673.36092	20506.175
1676.63211	20103.375
1679.90115	19760.175
1683.16801	19533.975
1686.43272	19386.675
1689.69527	19270.575
1692.95567	19157.275
1696.2139	19135.475
1699.46999	19110.375
1702.72392	19038.275
1705.97571	18998.175
1709.22535	18941.775
1712.47284	18932.475
1715.71819	18961.575
1718.96139	18920.975
1722.20246	18874.775
1725.44139	18817.575
1728.67818	18729.175
1731.91284	18666.975
1735.14537	18582.775
1738.37576	18517.675
1741.60403	18494.675
1744.83017	18451.775
1748.05418	18382.875
1751.27607	18414.275
1754.49584	18361.975
1757.71349	18415.975
1760.92903	18371.475
1764.14244	18291.975
1767.35375	18309.175
1770.56294	18271.575
1773.77002	18264.075
1776.97499	18241.275
1780.17785	18205.775
1783.37861	18192.575
1786.57727	18136.475
1789.77382	18097.975
1792.96828	18091.775
1796.16064	18027.775
1799.3509	18030.075
1802.53907	18000.575
1805.72514	17962.375
1808.90913	17936.575
1812.09102	17909.175
1815.27083	17875.775
1818.44856	17832.175
1821.6242	17829.675
1824.79776	17776.675
1827.96924	17798.075
1831.13864	17739.375
1834.30597	17740.575
1837.47122	17756.975
1840.6344	17749.275
1843.7955	17737.875
1846.95454	17744.275
1850.11151	17733.675
1853.26642	17702.575
1856.41926	17712.075
1859.57004	17745.975
1862.71876	17710.975
1865.86542	17650.275
1869.01003	17655.575
1872.15258	17687.975
1875.29308	17691.175
1878.43152	17701.675
1881.56792	17655.175
1884.70227	17643.375
1887.83457	17654.875
1890.96482	17605.175
1894.09304	17578.275
1897.21921	17562.775
1900.34335	17590.575
1903.46544	17561.075
1906.58551	17491.775
1909.70353	17514.675
1912.81953	17505.775
1915.93349	17527.675
1919.04543	17417.475
1922.15534	17415.275
1925.26322	17373.875
1928.36908	17365.275
1931.47292	17338.175
1934.57473	17297.175
1937.67453	17289.575
1940.77232	17211.275
1943.86808	17178.175
1946.96184	17137.075
1950.05358	17048.875
1953.14331	17017.475
1956.23103	16946.475
1959.31675	16908.775
1962.40046	16856.075
1965.48217	16850.075
1968.56188	16763.475
1971.63959	16675.275
1974.7153	16661.575
1977.78901	16608.475
1980.86073	16587.075
1983.93046	16548.475
1986.99819	16471.375
1990.06394	16442.175
1993.1277	16432.875
1996.18947	16345.475
1999.24925	16336.075
2002.30706	16304.975
2005.36288	16225.575
2008.41672	16184.775
2011.46859	16160.475
2014.51848	16137.675
2017.56639	16083.175
2020.61233	16046.175
2023.6563	15994.575
2026.6983	15953.775
2029.73833	15927.875
2032.7764	15892.775
2035.8125	15875.075
2038.84664	15846.775
2041.87881	15818.775
2044.90903	15774.875
2047.93729	15748.275
2050.96359	15754.875
2053.98794	15694.275
2057.01034	15713.975
2060.03078	15683.375
2063.04927	15664.475
2066.06582	15695.275
2069.08042	15667.575
2072.09307	15676.175
2075.10378	15645.975
2078.11255	15638.575
2081.11938	15648.575
2084.12426	15588.575
2087.12722	15619.675
2090.12824	15597.575
2093.12732	15575.075
2096.12447	15593.075
2099.11969	15619.575
2102.11299	15578.375
2105.10435	15598.175
2108.09379	15610.475
2111.08131	15597.375
2114.0669	15597.375
2117.05057	15639.575
2120.03233	15664.275
2123.01216	15664.775
2125.99008	15662.875
2128.96609	15652.575
2131.94018	15709.475
2134.91236	15686.875
2137.88263	15694.675
2140.851	15694.375
2143.81746	15721.175
2146.78201	15714.375
2149.74466	15699.775
2152.7054	15725.575
2155.66425	15745.775
2158.6212	15725.275
2161.57625	15684.375
2164.52941	15725.675
2167.48067	15705.975
2170.43004	15710.075
2173.37752	15694.175
2176.32311	15695.475
2179.26681	15705.175
2182.20863	15721.675
2185.14856	15726.275
2188.08661	15720.575
2191.02278	15722.975
2193.95707	15714.175
2196.88948	15709.775
2199.82001	15715.275
2202.74867	15698.875
2205.67545	15702.475
2208.60037	15648.375
2211.52341	15623.475
2214.44458	15643.775
2217.36388	15590.475
2220.28132	15562.575
2223.1969	15539.775
2226.11061	15558.575
2229.02246	15464.975
2231.93245	15457.775
2234.84058	15449.375
2237.74686	15403.275
2240.65128	15414.575
2243.55385	15351.575
2246.45456	15336.275
2249.35343	15327.875
2252.25044	15307.575
2255.14561	15274.775
2258.03893	15258.375
2260.93041	15264.275
2263.82004	15192.375
2266.70783	15158.875
2269.59378	15099.875
2272.4779	15071.175
2275.36017	15038.675
2278.24061	15016.675
2281.11922	15025.775
2283.996	14980.075
2286.87094	15005.575
2289.74405	14975.175
2292.61534	14960.275
2295.4848	14959.875
2298.35243	14958.175
2301.21824	14915.575
2304.08223	14943.475
2306.94439	14987.575
2309.80474	14931.375
2312.66327	14927.575
2315.51999	14924.775
2318.37489	14914.775
2321.22797	14868.475
2324.07925	14868.175
2326.92871	14879.075
2329.77637	14844.875
2332.62222	14821.475
2335.46626	14832.675
2338.3085	14809.275
2341.14893	14799.675
2343.98756	14808.875
2346.8244	14796.975
2349.65943	14795.075
2352.49267	14757.275
2355.32411	14809.075
2358.15376	14793.075
2360.98161	14765.075
2363.80768	14756.075
2366.63195	14759.975
2369.45444	14721.875
2372.27514	14687.575
2375.09405	14688.775
2377.91118	14655.975
2380.72652	14612.375
2383.54009	14588.675
2386.35187	14564.875
2389.16188	14487.875
2391.97011	14504.575
2394.77657	14465.075
2397.58125	14431.875
2400.38416	14420.675
2403.18529	14379.175
2405.98466	14390.375
2408.78226	14352.875
2411.57809	14304.575
2414.37216	14287.975
2417.16446	14293.475
2419.955	14260.775
2422.74378	14283.875
2425.5308	14259.075
2428.31606	14260.275
2431.09956	14274.575
2433.88131	14227.275
2436.6613	14205.475
2439.43954	14235.875
2442.21603	14207.375
2444.99077	14218.675
2447.76377	14188.275
2450.53501	14177.275
2453.30451	14161.675
2456.07226	14138.575
2458.83827	14156.375
2461.60254	14159.475
2464.36507	14139.775
2467.12586	14104.775
2469.88492	14105.375
2472.64224	14123.975
2475.39782	14110.875
2478.15167	14140.475
2480.90379	14099.675
2483.65417	14152.075
2486.40283	14144.675
2489.14976	14142.275
2491.89497	14121.975
2494.63845	14135.375
2497.3802	14121.075
2500.12024	14120.175
2502.85855	14116.775
2505.59514	14099.575
2508.33002	14088.875
2511.06318	14067.475
2513.79462	14012.775
2516.52435	14022.475
2519.25237	14005.575
2521.97867	14009.775
2524.70327	14009.975
2527.42616	14005.475
2530.14734	13980.575
2532.86681	13966.575
2535.58458	13995.975
2538.30065	13974.375
2541.01501	13956.475
2543.72768	13937.875
2546.43864	13925.375
2549.14791	13897.475
2551.85548	13898.175
2554.56136	13880.575
2557.26554	13861.875
2559.96803	13839.275
2562.66883	13795.675
2565.36794	13763.475
2568.06536	13748.475
2570.7611	13761.375
2573.45514	13742.875
2576.14751	13707.675
2578.83819	13692.375
2581.52719	13671.175
2584.21451	13691.575
2586.90015	13669.375
2589.58411	13662.275
2592.2664	13640.275
2594.94701	13621.075
2597.62594	13611.175
2600.30321	13615.575
2602.9788	13574.175
2605.65273	13544.775
2608.32498	13559.375
2610.99557	13543.675
2613.66449	13555.475
2616.33175	13553.975
2618.99734	13542.575
2621.66128	13528.175
2624.32355	13522.775
2626.98416	13495.875
2629.64311	13530.075
2632.30041	13502.175
2634.95605	13473.675
2637.61004	13465.675
2640.26238	13428.775
2642.91306	13441.575
2645.56209	13410.775
2648.20948	13409.075
2650.85521	13406.775
2653.4993	13423.475
2656.14175	13412.175
2658.78255	13450.575
2661.42171	13399.075
2664.05923	13445.775
2666.6951	13445.375
2669.32934	13477.375
2671.96194	13427.875
2674.59291	13446.575
2677.22224	13414.175
2679.84993	13472.575
2682.476	13447.175
2685.10043	13436.575
2687.72324	13379.475
2690.34441	13412.775
2692.96396	13415.375
2695.58188	13383.675
2698.19818	13363.475
2700.81285	13384.875
2703.4259	13410.375
2706.03733	13384.575
2708.64714	13406.875
2711.25533	13394.375
2713.86191	13397.275
2716.46687	13425.875
2719.07021	13415.775
2721.67194	13408.175
2724.27206	13392.675
2726.87057	13429.775
2729.46747	13442.475
2732.06276	13452.275
2734.65644	13457.975
2737.24852	13459.375
2739.83899	13433.875
2742.42786	13417.875
2745.01513	13385.675
2747.60079	13381.675
2750.18486	13381.775
2752.76733	13359.575
2755.3482	13334.675
2757.92747	13339.675
2760.50515	13321.475
2763.08123	13307.875
2765.65573	13282.975
2768.22863	13303.775
2770.79994	13250.675
2773.36967	13303.375
2775.9378	13261.475
2778.50435	13278.375
2781.06932	13272.275
2783.6327	13261.575
2786.1945	13258.375
2788.75471	13238.575
2791.31335	13213.975
2793.87041	13234.975
2796.42589	13186.175
2798.97979	13193.575
2801.53212	13169.675
2804.08288	13134.075
2806.63206	13114.275
2809.17967	13058.075
2811.72571	13017.875
2814.27018	13022.975
2816.81308	12995.175
2819.35442	12982.675
2821.89419	12963.075
2824.43239	12930.775
2826.96904	12926.575
2829.50412	12910.275
2832.03763	12941.475
2834.56959	12931.475
2837.1	12893.775
2839.62884	12889.175
2842.15613	12888.775
2844.68186	12903.975
2847.20604	12940.075
2849.72867	12953.775
2852.24974	12932.775
2854.76927	12930.975
2857.28724	12856.675
2859.80367	12855.675
2862.31855	12842.075
2864.83189	12837.175
2867.34368	12806.775
2869.85393	12791.275
2872.36264	12804.475
2874.8698	12826.075
2877.37543	12791.375
2879.87952	12787.175
2882.38207	12792.175
2884.88308	12779.175
2887.38256	12771.175
2889.88051	12798.375
2892.37692	12796.775
2894.8718	12770.375
2897.36515	12823.275
2899.85698	12828.575
2902.34727	12834.075
2904.83604	12845.975
2907.32328	12856.875
2909.809	12871.175
2912.29319	12849.775
2914.77587	12850.575
2917.25702	12848.675
2919.73665	12850.175
2922.21476	12845.975
2924.69136	12837.075
2927.16644	12845.675
2929.64	12804.075
2932.11205	12827.275
2934.58258	12770.275
2937.05161	12804.975
2939.51912	12789.775
2941.98513	12777.775
2944.44962	12746.675
2946.91261	12699.075
2949.37409	12733.875
2951.83407	12712.975
2954.29254	12700.675
2956.74951	12684.075
2959.20498	12685.475
2961.65895	12666.375
2964.11142	12676.975
2966.56239	12630.775
2969.01186	12631.775
2971.45984	12622.875
2973.90632	12593.875
2976.35131	12554.375
2978.7948	12555.275
2981.23681	12521.275
2983.67732	12498.475
2986.11635	12470.675
2988.55388	12435.575
2990.98993	12402.975
2993.4245	12400.975
2995.85758	12372.175
2998.28917	12336.775
3000.71928	12341.075
3003.14791	12297.575
3005.57506	12314.475
3008.00073	12272.875
3010.42493	12251.975
3012.84764	12262.275
3015.26888	12213.475
3017.68865	12178.475
3020.10694	12195.375
3022.52376	12154.675
3024.9391	12155.575
3027.35298	12125.675
3029.76539	12115.275
3032.17632	12123.775
3034.5858	12119.175
3036.9938	12115.475
3039.40034	12096.475
3041.80542	12072.475
3044.20903	12082.275
3046.61118	12077.275
3049.01187	12035.775
3051.4111	12030.275
3053.80888	11995.175
3056.20519	11972.675
3058.60005	11945.975
3060.99345	11921.575
3063.3854	11902.175
3065.7759	11883.375
3068.16494	11862.275
3070.55254	11833.575
3072.93868	11819.575
3075.32338	11768.775
3077.70662	11771.775
3080.08842	11721.175
3082.46878	11706.775
3084.84769	11696.075
3087.22515	11698.375
3089.60118	11700.375
3091.97576	11702.175
3094.3489	11684.675
3096.72061	11688.375
3099.09087	11665.275
3101.4597	11699.875
3103.82709	11676.475
3106.19305	11652.275
3108.55757	11661.875
3110.92066	11646.875
3113.28232	11640.275
3115.64255	11610.275
3118.00134	11591.775
3120.35871	11557.175
3122.71466	11514.275
3125.06917	11487.975
3127.42226	11470.975
