Data from AgNP_FTO_APTES_UA_10uM_CRN_0uM_R6G_10uM_NaF_0.1M_Addition_RamanShift__2__11-11-10-353.txt Node

Date: Thu Feb 10 11:11:10 GMT 2022
User: TCL
Spectrometer: QEP01345
Trigger mode: 4
Integration Time (sec): 7.000000E0
Scans to average: 10
Electric dark correction enabled: true
Nonlinearity correction enabled: false
Boxcar width: 0
XAxis mode: Raman Shifts
Number of Pixels in Spectrum: 1044
>>>>>Begin Spectral Data<<<<<
46.04893	-0.575
50.45542	-0.575
54.85868	-2.275
59.25871	0.025
63.6555	70.825
68.04907	74.625
72.43941	75.825
76.82654	77.025
81.21044	80.525
85.59113	82.725
89.96862	85.925
94.34289	91.725
98.71396	90.225
103.08183	94.825
107.4465	99.625
111.80798	99.925
116.16626	104.425
120.52136	111.325
124.87327	118.525
129.222	122.825
133.56755	136.825
137.90993	151.125
142.24913	164.725
146.58517	187.425
150.91804	230.325
155.24774	276.425
159.57429	353.225
163.89768	460.225
168.21792	620.225
172.53501	860.525
176.84895	1195.825
181.15975	1687.825
185.46741	2374.825
189.77193	3301.425
194.07331	4419.625
198.37157	5698.025
202.6667	7038.825
206.9587	8407.425
211.24758	9736.025
215.53334	11038.125
219.81599	12493.925
224.09553	14118.425
228.37195	15850.225
232.64527	17794.825
236.91549	19842.325
241.18261	21877.325
245.44663	23761.025
249.70755	25388.525
253.96539	26782.825
258.22014	27832.625
262.4718	28725.825
266.72039	29234.325
270.96589	29395.525
275.20832	29159.825
279.44768	28674.425
283.68397	28093.425
287.91719	27570.225
292.14735	27250.725
296.37445	27048.625
300.59849	27013.425
304.81948	27046.225
309.03742	26933.825
313.25231	26610.325
317.46415	26004.325
321.67296	25270.525
325.87872	24625.025
330.08145	24257.925
334.28114	24210.425
338.47781	24344.625
342.67145	24572.925
346.86207	24932.525
351.04966	25405.925
355.23424	25951.125
359.4158	26467.925
363.59435	26827.225
367.76989	26982.325
371.94243	27027.325
376.11196	27065.625
380.27849	27067.625
384.44203	26984.025
388.60257	27079.525
392.76012	27152.525
396.91468	27438.825
401.06626	27800.425
405.21485	27899.525
409.36047	27606.125
413.50311	26995.825
417.64277	26521.025
421.77947	26399.725
425.9132	26544.225
430.04396	26666.025
434.17176	26706.225
438.2966	26747.125
442.41849	27094.625
446.53742	27582.925
450.6534	28028.525
454.76644	28287.425
458.87653	28347.825
462.98368	28350.025
467.08789	28228.125
471.18916	27970.525
475.2875	27657.425
479.38291	27557.925
483.4754	27524.725
487.56496	27504.125
491.6516	27261.525
495.73531	26936.625
499.81612	26641.925
503.89401	26704.025
507.96899	26941.225
512.04106	27216.225
516.11023	27306.025
520.1765	27211.525
524.23987	26982.625
528.30034	26668.225
532.35792	26393.825
536.41261	26100.925
540.46441	25831.125
544.51333	25786.225
548.55936	25972.125
552.60252	26414.025
556.64279	26926.325
560.6802	27313.125
564.71473	27688.825
568.7464	28289.325
572.7752	29030.125
576.80114	29563.525
580.82422	29865.125
584.84444	30383.925
588.86181	31228.225
592.87633	31962.625
596.888	31673.425
600.89682	30907.425
604.9028	31391.625
608.90594	34561.725
612.90624	38523.425
616.90371	37039.425
620.89834	30650.425
624.89015	27193.325
628.87913	26355.325
632.86528	26406.125
636.84862	26431.925
640.82913	26114.125
644.80683	25588.725
648.78172	25188.225
652.75379	25145.225
656.72306	25478.025
660.68952	25926.325
664.65319	25733.025
668.61405	25136.625
672.57211	24875.025
676.52738	25046.825
680.47986	25258.625
684.42955	25241.325
688.37646	25161.625
692.32058	25164.225
696.26192	25388.925
700.20048	25569.425
704.13626	25756.025
708.06928	25792.225
711.99952	25793.125
715.927	25731.325
719.85171	25670.925
723.77365	25572.625
727.69284	25304.925
731.60928	25014.125
735.52295	24904.625
739.43388	24899.725
743.34206	24995.425
747.24749	25085.225
751.15017	25249.325
755.05012	25625.525
758.94733	26300.625
762.8418	27599.725
766.73354	29774.725
770.62254	32017.725
774.50882	32912.725
778.39237	31721.225
782.27321	29393.525
786.15132	27322.425
790.02671	26053.025
793.89938	25407.925
797.76935	25042.725
801.6366	24909.925
805.50115	24828.625
809.36299	24824.525
813.22213	24679.125
817.07857	24600.225
820.93231	24545.525
824.78336	24385.325
828.63172	24244.325
832.47738	24070.125
836.32036	23963.325
840.16066	23943.225
843.99827	23993.125
847.8332	23989.525
851.66546	24063.625
855.49504	24164.225
859.32195	24166.925
863.1462	24120.825
866.96777	24118.625
870.78668	24112.625
874.60293	24198.225
878.41652	24273.425
882.22745	24365.325
886.03573	24488.525
889.84136	24633.725
893.64433	24755.325
897.44466	24894.425
901.24235	24999.525
905.0374	25022.025
908.8298	25093.325
912.61957	25246.025
916.40671	25628.625
920.19121	26057.725
923.97308	26442.725
927.75233	26574.425
931.52895	26473.325
935.30295	25980.925
939.07433	25339.725
942.84309	24739.625
946.60924	24358.525
950.37278	23975.925
954.13371	23830.925
957.89203	23632.025
961.64774	23408.225
965.40086	23253.825
969.15137	23096.725
972.89929	22892.625
976.64461	22686.725
980.38733	22588.525
984.12747	22565.725
987.86502	22574.125
991.59999	22690.025
995.33237	22836.625
999.06217	23145.125
1002.78939	23484.825
1006.51404	23813.125
1010.23611	24283.425
1013.95561	24550.225
1017.67255	24666.725
1021.38692	24480.325
1025.09872	24145.325
1028.80796	23815.125
1032.51465	23677.625
1036.21877	23665.925
1039.92035	23775.225
1043.61937	23842.825
1047.31584	24001.125
1051.00976	24067.925
1054.70114	24244.925
1058.38998	24354.825
1062.07627	24482.925
1065.76003	24672.725
1069.44126	24817.925
1073.11995	25043.825
1076.79611	25280.725
1080.46974	25537.625
1084.14085	25810.825
1087.80943	26216.325
1091.47549	26517.025
1095.13903	26467.725
1098.80005	26077.625
1102.45857	25484.625
1106.11456	24982.925
1109.76805	24784.225
1113.41903	24781.725
1117.06751	24981.925
1120.71348	25335.825
1124.35696	25697.525
1127.99793	26134.525
1131.63641	26443.925
1135.2724	26190.925
1138.90589	25833.325
1142.5369	25646.725
1146.16542	25730.325
1149.79145	25824.825
1153.415	26130.925
1157.03607	26565.225
1160.65467	27347.125
1164.27079	28604.425
1167.88443	30154.325
1171.49561	31889.525
1175.10432	34245.525
1178.71056	37264.825
1182.31434	40138.125
1185.91565	41643.125
1189.51451	41570.325
1193.11091	40396.425
1196.70485	38585.025
1200.29634	36615.925
1203.88538	35345.425
1207.47197	34708.925
1211.05612	34301.625
1214.63782	33593.925
1218.21708	32538.325
1221.79391	31546.825
1225.36829	30889.125
1228.94024	30554.625
1232.50976	30339.025
1236.07685	30100.525
1239.6415	30047.025
1243.20374	29952.125
1246.76355	29952.225
1250.32093	30139.725
1253.8759	30699.425
1257.42845	31577.125
1260.97859	32660.025
1264.52631	33865.825
1268.07163	35076.325
1271.61453	36044.725
1275.15503	36936.725
1278.69312	37798.725
1282.22882	38704.625
1285.76211	39902.325
1289.29301	41592.025
1292.82151	43649.925
1296.34761	46082.225
1299.87133	48780.225
1303.39266	51445.225
1306.9116	54056.825
1310.42815	56022.425
1313.94233	56817.625
1317.45412	56031.825
1320.96354	54598.925
1324.47058	53446.625
1327.97525	52720.025
1331.47754	52130.225
1334.97747	51584.825
1338.47502	51032.425
1341.97022	50502.925
1345.46305	50409.225
1348.95352	50549.325
1352.44163	51053.425
1355.92738	52163.025
1359.41078	54560.225
1362.89183	57442.425
1366.37053	57548.325
1369.84688	53000.125
1373.32088	46796.825
1376.79254	42405.125
1380.26186	40537.125
1383.72883	40304.525
1387.19347	40450.725
1390.65578	40326.425
1394.11575	40306.625
1397.57339	40718.325
1401.0287	41295.925
1404.48168	41489.525
1407.93234	40959.425
1411.38068	39578.325
1414.82669	37932.425
1418.27039	36319.625
1421.71177	34978.125
1425.15083	33927.725
1428.58758	33296.325
1432.02203	33481.025
1435.45416	34195.225
1438.88399	35191.025
1442.31151	35747.525
1445.73673	36211.325
1449.15965	36496.725
1452.58027	36667.725
1455.9986	36650.125
1459.41463	36683.925
1462.82837	36765.525
1466.23982	36881.125
1469.64898	36965.225
1473.05586	36833.525
1476.46045	36598.925
1479.86276	36353.225
1483.26279	36189.125
1486.66054	36238.725
1490.05602	36716.725
1493.44922	37563.025
1496.84016	38830.225
1500.22882	40642.925
1503.61521	42801.625
1506.99934	45233.425
1510.38121	47392.225
1513.76081	48238.825
1517.13816	47067.325
1520.51324	44672.325
1523.88607	42427.225
1527.25665	41062.225
1530.62498	40345.825
1533.99105	39777.325
1537.35488	39010.325
1540.71647	37817.125
1544.07581	36634.125
1547.4329	35719.725
1550.78776	35025.225
1554.14038	34725.325
1557.49077	34730.725
1560.83892	34888.225
1564.18484	35140.225
1567.52853	35410.825
1570.86999	35970.525
1574.20922	36952.325
1577.54624	37710.925
1580.88103	38097.225
1584.2136	38329.825
1587.54395	39049.525
1590.87208	40318.725
1594.19801	41616.825
1597.52172	42411.525
1600.84321	41585.125
1604.16251	38965.625
1607.47959	35888.825
1610.79447	33190.425
1614.10715	30775.225
1617.41763	28697.325
1620.7259	27270.125
1624.03199	26672.925
1627.33587	26886.225
1630.63757	27850.925
1633.93707	29937.825
1637.23439	33281.425
1640.52951	37932.425
1643.82246	43073.225
1647.11321	46875.125
1650.40179	47281.025
1653.68819	43578.825
1656.97241	37171.925
1660.25446	30978.025
1663.53433	26506.725
1666.81203	23725.625
1670.08756	22030.425
1673.36092	21037.925
1676.63211	20395.125
1679.90115	19868.025
1683.16801	19490.725
1686.43272	19261.225
1689.69527	19029.325
1692.95567	18823.425
1696.2139	18678.125
1699.46999	18607.525
1702.72392	18491.325
1705.97571	18381.025
1709.22535	18306.525
1712.47284	18268.925
1715.71819	18218.725
1718.96139	18159.825
1722.20246	18108.525
1725.44139	17985.225
1728.67818	17842.825
1731.91284	17725.125
1735.14537	17620.925
1738.37576	17551.025
1741.60403	17466.725
1744.83017	17370.425
1748.05418	17313.325
1751.27607	17303.125
1754.49584	17280.125
1757.71349	17272.625
1760.92903	17268.225
1764.14244	17308.125
1767.35375	17308.125
1770.56294	17261.425
1773.77002	17190.225
1776.97499	17205.325
1780.17785	17164.125
1783.37861	17141.125
1786.57727	17111.025
1789.77382	17049.425
1792.96828	16998.725
1796.16064	16948.525
1799.3509	16900.925
1802.53907	16856.725
1805.72514	16765.825
1808.90913	16707.925
1812.09102	16623.525
1815.27083	16583.925
1818.44856	16561.825
1821.6242	16523.025
1824.79776	16491.125
1827.96924	16477.425
1831.13864	16452.525
1834.30597	16523.225
1837.47122	16513.925
1840.6344	16548.125
1843.7955	16515.725
1846.95454	16501.625
1850.11151	16451.825
1853.26642	16380.825
1856.41926	16307.625
1859.57004	16269.825
1862.71876	16176.325
1865.86542	16158.225
1869.01003	16085.925
1872.15258	16064.225
1875.29308	16042.125
1878.43152	15938.725
1881.56792	15909.425
1884.70227	15897.325
1887.83457	15820.225
1890.96482	15764.225
1894.09304	15704.225
1897.21921	15662.925
1900.34335	15605.025
1903.46544	15582.025
1906.58551	15564.525
1909.70353	15505.325
1912.81953	15456.425
1915.93349	15440.125
1919.04543	15377.325
1922.15534	15325.725
1925.26322	15278.125
1928.36908	15259.225
1931.47292	15244.225
1934.57473	15219.125
1937.67453	15137.125
1940.77232	15122.425
1943.86808	15097.525
1946.96184	15064.525
1950.05358	15045.325
1953.14331	14992.925
1956.23103	14942.725
1959.31675	14898.425
1962.40046	14864.725
1965.48217	14847.425
1968.56188	14826.425
1971.63959	14784.325
1974.7153	14751.925
1977.78901	14729.025
1980.86073	14639.925
1983.93046	14607.725
1986.99819	14538.025
1990.06394	14524.925
1993.1277	14438.925
1996.18947	14320.225
1999.24925	14300.625
2002.30706	14223.025
2005.36288	14142.025
2008.41672	14125.225
2011.46859	14051.625
2014.51848	14013.925
2017.56639	13940.525
2020.61233	13903.025
2023.6563	13847.625
2026.6983	13790.125
2029.73833	13703.825
2032.7764	13669.325
2035.8125	13614.625
2038.84664	13544.725
2041.87881	13512.325
2044.90903	13450.025
2047.93729	13411.025
2050.96359	13460.525
2053.98794	13491.925
2057.01034	13418.025
2060.03078	13383.825
2063.04927	13381.325
2066.06582	13406.725
2069.08042	13408.625
2072.09307	13410.225
2075.10378	13416.025
2078.11255	13403.525
2081.11938	13402.725
2084.12426	13444.525
2087.12722	13459.725
2090.12824	13453.725
2093.12732	13478.625
2096.12447	13495.425
2099.11969	13493.425
2102.11299	13518.225
2105.10435	13550.025
2108.09379	13544.625
2111.08131	13573.725
2114.0669	13580.225
2117.05057	13568.525
2120.03233	13611.525
2123.01216	13645.525
2125.99008	13651.925
2128.96609	13635.425
2131.94018	13643.425
2134.91236	13630.025
2137.88263	13600.925
2140.851	13572.025
2143.81746	13532.025
2146.78201	13491.125
2149.74466	13406.025
2152.7054	13336.225
2155.66425	13299.225
2158.6212	13300.325
2161.57625	13244.525
2164.52941	13174.825
2167.48067	13116.825
2170.43004	13083.625
2173.37752	13064.325
2176.32311	13018.625
2179.26681	13019.525
2182.20863	12981.225
2185.14856	12985.425
2188.08661	12948.125
2191.02278	12940.425
2193.95707	12933.725
2196.88948	12936.725
2199.82001	12906.925
2202.74867	12875.225
2205.67545	12846.325
2208.60037	12859.925
2211.52341	12787.025
2214.44458	12754.425
2217.36388	12775.025
2220.28132	12680.825
2223.1969	12678.325
2226.11061	12655.025
2229.02246	12630.925
2231.93245	12562.725
2234.84058	12502.125
2237.74686	12506.925
2240.65128	12480.625
2243.55385	12474.525
2246.45456	12394.925
2249.35343	12383.225
2252.25044	12323.125
2255.14561	12356.325
2258.03893	12319.925
2260.93041	12269.225
2263.82004	12225.525
2266.70783	12173.825
2269.59378	12169.525
2272.4779	12123.025
2275.36017	12078.725
2278.24061	12084.825
2281.11922	12030.725
2283.996	12014.425
2286.87094	12011.125
2289.74405	11969.225
2292.61534	11967.325
2295.4848	11922.725
2298.35243	11906.325
2301.21824	11894.825
2304.08223	11859.625
2306.94439	11849.225
2309.80474	11851.025
2312.66327	11832.225
2315.51999	11820.425
2318.37489	11809.425
2321.22797	11794.025
2324.07925	11736.225
2326.92871	11727.525
2329.77637	11692.225
2332.62222	11679.825
2335.46626	11664.625
2338.3085	11681.325
2341.14893	11671.625
2343.98756	11647.725
2346.8244	11633.925
2349.65943	11615.725
2352.49267	11624.925
2355.32411	11638.425
2358.15376	11618.125
2360.98161	11630.625
2363.80768	11644.625
2366.63195	11603.925
2369.45444	11619.725
2372.27514	11590.825
2375.09405	11579.525
2377.91118	11558.825
2380.72652	11505.525
2383.54009	11495.825
2386.35187	11445.925
2389.16188	11401.125
2391.97011	11389.025
2394.77657	11338.025
2397.58125	11317.025
2400.38416	11297.825
2403.18529	11245.525
2405.98466	11238.425
2408.78226	11179.525
2411.57809	11214.325
2414.37216	11201.525
2417.16446	11188.925
2419.955	11133.825
2422.74378	11120.725
2425.5308	11116.025
2428.31606	11153.625
2431.09956	11130.525
2433.88131	11130.625
2436.6613	11130.825
2439.43954	11120.725
2442.21603	11100.525
2444.99077	11074.425
2447.76377	11082.525
2450.53501	11078.925
2453.30451	11074.425
2456.07226	11066.225
2458.83827	11050.325
2461.60254	11030.125
2464.36507	10992.125
2467.12586	11025.425
2469.88492	10977.125
2472.64224	10962.225
2475.39782	10980.825
2478.15167	10987.925
2480.90379	10981.225
2483.65417	10991.225
2486.40283	10982.125
2489.14976	10980.025
2491.89497	10985.725
2494.63845	10986.125
2497.3802	10979.525
2500.12024	11000.425
2502.85855	10973.425
2505.59514	10934.325
2508.33002	10872.525
2511.06318	10868.025
2513.79462	10845.825
2516.52435	10829.725
2519.25237	10812.925
2521.97867	10792.825
2524.70327	10801.925
2527.42616	10753.725
2530.14734	10715.225
2532.86681	10733.125
2535.58458	10694.125
2538.30065	10701.725
2541.01501	10691.425
2543.72768	10701.225
2546.43864	10691.325
2549.14791	10691.925
2551.85548	10706.325
2554.56136	10681.225
2557.26554	10646.525
2559.96803	10620.025
2562.66883	10617.525
2565.36794	10589.625
2568.06536	10558.325
2570.7611	10536.725
2573.45514	10519.925
2576.14751	10533.625
2578.83819	10539.425
2581.52719	10498.725
2584.21451	10478.825
2586.90015	10449.125
2589.58411	10430.325
2592.2664	10438.325
2594.94701	10421.125
2597.62594	10427.025
2600.30321	10423.125
2602.9788	10423.825
2605.65273	10408.125
2608.32498	10365.125
2610.99557	10377.925
2613.66449	10392.825
2616.33175	10369.825
2618.99734	10352.625
2621.66128	10345.125
2624.32355	10313.325
2626.98416	10293.325
2629.64311	10309.325
2632.30041	10278.725
2634.95605	10259.825
2637.61004	10245.425
2640.26238	10228.625
2642.91306	10230.825
2645.56209	10221.625
2648.20948	10226.625
2650.85521	10216.825
2653.4993	10233.325
2656.14175	10225.025
2658.78255	10225.125
2661.42171	10225.225
2664.05923	10265.525
2666.6951	10269.525
2669.32934	10268.325
2671.96194	10259.625
2674.59291	10274.825
2677.22224	10272.625
2679.84993	10268.925
2682.476	10250.325
2685.10043	10241.825
2687.72324	10226.425
2690.34441	10261.625
2692.96396	10251.225
2695.58188	10247.525
2698.19818	10230.725
2700.81285	10246.425
2703.4259	10204.925
2706.03733	10192.925
2708.64714	10196.525
2711.25533	10208.825
2713.86191	10237.425
2716.46687	10264.625
2719.07021	10267.325
2721.67194	10333.125
2724.27206	10289.225
2726.87057	10301.125
2729.46747	10301.525
2732.06276	10319.025
2734.65644	10293.725
2737.24852	10288.725
2739.83899	10293.125
2742.42786	10301.225
2745.01513	10290.725
2747.60079	10297.225
2750.18486	10249.425
2752.76733	10258.125
2755.3482	10262.225
2757.92747	10255.125
2760.50515	10221.225
2763.08123	10209.825
2765.65573	10184.825
2768.22863	10192.725
2770.79994	10176.425
2773.36967	10208.425
2775.9378	10188.425
2778.50435	10171.825
2781.06932	10155.625
2783.6327	10142.625
2786.1945	10120.525
2788.75471	10117.025
2791.31335	10124.025
2793.87041	10114.525
2796.42589	10102.825
2798.97979	10108.025
2801.53212	10067.725
2804.08288	10074.525
2806.63206	10028.025
2809.17967	10014.825
2811.72571	9994.225
2814.27018	9987.025
2816.81308	9964.725
2819.35442	9957.525
2821.89419	9918.225
2824.43239	9921.625
2826.96904	9905.425
2829.50412	9933.725
2832.03763	9943.625
2834.56959	9948.025
2837.1	9982.025
2839.62884	10023.125
2842.15613	10083.625
2844.68186	10220.425
2847.20604	10340.625
2849.72867	10458.325
2852.24974	10516.425
2854.76927	10543.625
2857.28724	10558.525
2859.80367	10595.025
2862.31855	10573.225
2864.83189	10588.625
2867.34368	10575.125
2869.85393	10587.425
2872.36264	10594.425
2874.8698	10603.625
2877.37543	10587.625
2879.87952	10589.125
2882.38207	10646.725
2884.88308	10631.925
2887.38256	10673.625
2889.88051	10700.125
2892.37692	10737.525
2894.8718	10775.825
2897.36515	10837.225
2899.85698	10864.225
2902.34727	10896.425
2904.83604	10934.425
2907.32328	10972.125
2909.809	10984.425
2912.29319	11041.725
2914.77587	11036.425
2917.25702	11045.525
2919.73665	11052.025
2922.21476	11065.125
2924.69136	11029.325
2927.16644	11012.425
2929.64	10969.325
2932.11205	10961.625
2934.58258	10860.625
2937.05161	10842.825
2939.51912	10763.625
2941.98513	10656.625
2944.44962	10596.425
2946.91261	10452.225
2949.37409	10368.325
2951.83407	10319.125
2954.29254	10246.625
2956.74951	10150.025
2959.20498	10127.625
2961.65895	10037.325
2964.11142	10013.125
2966.56239	9966.125
2969.01186	9927.825
2971.45984	9838.325
2973.90632	9799.725
2976.35131	9760.425
2978.7948	9714.125
2981.23681	9660.125
2983.67732	9624.125
2986.11635	9558.025
2988.55388	9490.825
2990.98993	9469.125
2993.4245	9456.425
2995.85758	9398.725
2998.28917	9371.425
3000.71928	9321.825
3003.14791	9300.325
3005.57506	9278.225
3008.00073	9268.825
3010.42493	9270.525
3012.84764	9222.525
3015.26888	9215.625
3017.68865	9183.225
3020.10694	9176.425
3022.52376	9139.425
3024.9391	9119.825
3027.35298	9116.925
3029.76539	9099.925
3032.17632	9112.725
3034.5858	9067.025
3036.9938	9071.325
3039.40034	9075.525
3041.80542	9094.325
3044.20903	9067.525
3046.61118	9073.825
3049.01187	9068.025
3051.4111	9013.425
3053.80888	9009.525
3056.20519	9003.525
3058.60005	8969.925
3060.99345	8965.625
3063.3854	8930.525
3065.7759	8916.725
3068.16494	8935.625
3070.55254	8896.125
3072.93868	8893.825
3075.32338	8849.925
3077.70662	8841.625
3080.08842	8837.725
3082.46878	8836.225
3084.84769	8816.225
3087.22515	8821.725
3089.60118	8810.625
3091.97576	8808.825
3094.3489	8807.325
3096.72061	8835.025
3099.09087	8830.925
3101.4597	8843.225
3103.82709	8831.325
3106.19305	8859.725
3108.55757	8851.625
3110.92066	8889.925
3113.28232	8913.525
3115.64255	8877.725
3118.00134	8843.125
3120.35871	8848.625
3122.71466	8840.325
3125.06917	8843.525
3127.42226	8812.825
3129.77393	8841.425
3132.12417	8828.025
3134.47299	8863.525
3136.82039	8846.825
