Data from AgNP_FTO_APTES_UA_10uM_CRN_100uM_R6G_10uM_NaF_0.1M_Addition_RamanShift__4__17-29-10-836.txt Node

Date: Thu Feb 10 17:29:10 GMT 2022
User: TCL
Spectrometer: QEP01345
Trigger mode: 4
Integration Time (sec): 7.000000E0
Scans to average: 10
Electric dark correction enabled: true
Nonlinearity correction enabled: false
Boxcar width: 0
XAxis mode: Raman Shifts
Number of Pixels in Spectrum: 1044
>>>>>Begin Spectral Data<<<<<
46.04893	-1.225
50.45542	0.275
54.85868	-1.825
59.25871	-0.125
63.6555	60.675
68.04907	64.375
72.43941	65.975
76.82654	65.375
81.21044	72.875
85.59113	71.075
89.96862	78.275
94.34289	79.875
98.71396	82.575
103.08183	86.175
107.4465	89.675
111.80798	86.675
116.16626	92.475
120.52136	95.175
124.87327	101.375
129.222	101.175
133.56755	113.575
137.90993	118.575
142.24913	126.675
146.58517	141.175
150.91804	162.075
155.24774	195.675
159.57429	238.775
163.89768	302.075
168.21792	399.675
172.53501	545.375
176.84895	757.075
181.15975	1064.275
185.46741	1491.175
189.77193	2051.675
194.07331	2748.975
198.37157	3544.075
202.6667	4394.775
206.9587	5195.975
211.24758	5989.875
215.53334	6810.575
219.81599	7635.575
224.09553	8567.275
228.37195	9570.075
232.64527	10677.375
236.91549	11863.175
241.18261	13081.475
245.44663	14237.175
249.70755	15308.475
253.96539	16282.075
258.22014	17095.375
262.4718	17769.675
266.72039	18245.875
270.96589	18495.175
275.20832	18545.175
279.44768	18479.475
283.68397	18318.075
287.91719	18133.375
292.14735	18031.175
296.37445	18040.475
300.59849	18036.975
304.81948	18014.175
309.03742	17962.975
313.25231	17832.475
317.46415	17526.575
321.67296	17226.075
325.87872	16981.675
330.08145	16870.775
334.28114	16868.475
338.47781	17013.775
342.67145	17188.275
346.86207	17380.275
351.04966	17623.075
355.23424	17865.175
359.4158	18084.075
363.59435	18312.975
367.76989	18442.475
371.94243	18579.975
376.11196	18691.075
380.27849	18772.875
384.44203	18903.575
388.60257	19050.975
392.76012	19256.275
396.91468	19470.975
401.06626	19713.475
405.21485	19879.275
409.36047	19849.575
413.50311	19759.775
417.64277	19676.675
421.77947	19739.175
425.9132	19828.775
430.04396	19976.175
434.17176	20037.375
438.2966	20137.875
442.41849	20364.875
446.53742	20781.175
450.6534	21174.175
454.76644	21529.975
458.87653	21685.575
462.98368	21640.075
467.08789	21484.475
471.18916	21347.375
475.2875	21182.975
479.38291	21139.475
483.4754	21021.775
487.56496	20801.375
491.6516	20541.975
495.73531	20267.775
499.81612	20116.075
503.89401	20189.675
507.96899	20277.175
512.04106	20313.475
516.11023	20232.475
520.1765	20063.175
524.23987	19900.175
528.30034	19717.675
532.35792	19608.075
536.41261	19504.975
540.46441	19401.475
544.51333	19448.575
548.55936	19663.575
552.60252	19946.475
556.64279	20277.275
560.6802	20535.775
564.71473	20675.575
568.7464	20940.675
572.7752	21408.575
576.80114	21914.175
580.82422	22472.875
584.84444	22993.075
588.86181	23695.275
592.87633	24187.275
596.888	23923.575
600.89682	23182.575
604.9028	22952.775
608.90594	23727.075
612.90624	24591.975
616.90371	23436.875
620.89834	20972.575
624.89015	19975.975
628.87913	19914.075
632.86528	20026.075
636.84862	20051.775
640.82913	19845.575
644.80683	19540.675
648.78172	19382.775
652.75379	19357.475
656.72306	19492.075
660.68952	19655.475
664.65319	19588.775
668.61405	19378.975
672.57211	19333.775
676.52738	19428.475
680.47986	19454.875
684.42955	19425.775
688.37646	19322.575
692.32058	19413.975
696.26192	19568.175
700.20048	19772.475
704.13626	19953.675
708.06928	19973.975
711.99952	19916.375
715.927	19923.475
719.85171	19913.775
723.77365	19851.775
727.69284	19696.975
731.60928	19497.775
735.52295	19406.475
739.43388	19384.675
743.34206	19451.775
747.24749	19506.375
751.15017	19658.375
755.05012	19916.975
758.94733	20367.075
762.8418	20991.675
766.73354	21910.875
770.62254	22650.575
774.50882	22775.775
778.39237	22070.775
782.27321	20992.575
786.15132	20222.975
790.02671	19691.575
793.89938	19446.775
797.76935	19308.875
801.6366	19298.275
805.50115	19291.475
809.36299	19198.875
813.22213	19127.975
817.07857	19086.475
820.93231	19040.575
824.78336	18973.875
828.63172	18937.975
832.47738	18895.375
836.32036	18878.575
840.16066	18881.475
843.99827	18867.875
847.8332	18903.075
851.66546	18929.675
855.49504	18941.275
859.32195	18969.475
863.1462	18911.775
866.96777	18857.375
870.78668	18862.175
874.60293	18878.475
878.41652	18885.075
882.22745	18917.075
886.03573	18934.875
889.84136	18894.975
893.64433	18887.875
897.44466	18873.175
901.24235	18828.475
905.0374	18753.775
908.8298	18787.675
912.61957	18845.575
916.40671	18983.475
920.19121	19129.875
923.97308	19248.575
927.75233	19183.975
931.52895	19015.875
935.30295	18838.775
939.07433	18580.975
942.84309	18414.775
946.60924	18309.975
950.37278	18279.175
954.13371	18259.075
957.89203	18289.775
961.64774	18313.875
965.40086	18262.675
969.15137	18215.375
972.89929	18134.375
976.64461	18104.175
980.38733	18069.375
984.12747	18131.175
987.86502	18165.775
991.59999	18242.675
995.33237	18333.075
999.06217	18502.775
1002.78939	18732.175
1006.51404	18941.675
1010.23611	19151.475
1013.95561	19293.875
1017.67255	19359.275
1021.38692	19204.875
1025.09872	19029.075
1028.80796	18870.375
1032.51465	18887.075
1036.21877	18935.575
1039.92035	19041.375
1043.61937	19006.575
1047.31584	19037.175
1051.00976	19042.475
1054.70114	19087.575
1058.38998	19140.675
1062.07627	19304.075
1065.76003	19473.675
1069.44126	19629.175
1073.11995	19835.275
1076.79611	19992.575
1080.46974	20119.175
1084.14085	20153.975
1087.80943	20274.675
1091.47549	20373.975
1095.13903	20421.175
1098.80005	20282.875
1102.45857	19958.175
1106.11456	19712.775
1109.76805	19596.875
1113.41903	19540.475
1117.06751	19622.075
1120.71348	19703.875
1124.35696	19864.275
1127.99793	20027.575
1131.63641	20147.775
1135.2724	20109.675
1138.90589	20076.075
1142.5369	20135.075
1146.16542	20268.075
1149.79145	20414.875
1153.415	20534.975
1157.03607	20769.675
1160.65467	21268.775
1164.27079	22035.375
1167.88443	22883.575
1171.49561	23687.475
1175.10432	24691.375
1178.71056	25867.475
1182.31434	27014.375
1185.91565	27570.275
1189.51451	27537.975
1193.11091	27115.175
1196.70485	26540.375
1200.29634	25896.775
1203.88538	25535.575
1207.47197	25396.075
1211.05612	25119.075
1214.63782	24761.775
1218.21708	24175.375
1221.79391	23474.775
1225.36829	22969.975
1228.94024	22688.375
1232.50976	22455.675
1236.07685	22321.475
1239.6415	22254.175
1243.20374	22320.575
1246.76355	22472.275
1250.32093	22722.675
1253.8759	23008.975
1257.42845	23453.275
1260.97859	23876.875
1264.52631	24404.875
1268.07163	24862.775
1271.61453	25327.975
1275.15503	25783.175
1278.69312	26387.075
1282.22882	26996.075
1285.76211	27783.375
1289.29301	28639.575
1292.82151	29854.575
1296.34761	31231.775
1299.87133	32794.075
1303.39266	34216.675
1306.9116	35335.275
1310.42815	36140.175
1313.94233	36538.675
1317.45412	36339.175
1320.96354	36028.775
1324.47058	35838.075
1327.97525	35672.675
1331.47754	35522.775
1334.97747	35329.975
1338.47502	35127.975
1341.97022	34822.675
1345.46305	34383.275
1348.95352	33979.575
1352.44163	33862.175
1355.92738	34082.475
1359.41078	34852.575
1362.89183	35328.775
1366.37053	34737.775
1369.84688	32616.475
1373.32088	29947.475
1376.79254	28186.675
1380.26186	27634.075
1383.72883	27770.275
1387.19347	27940.775
1390.65578	27832.375
1394.11575	27732.975
1397.57339	27972.175
1401.0287	28316.475
1404.48168	28551.575
1407.93234	28464.175
1411.38068	27861.075
1414.82669	27009.075
1418.27039	26007.175
1421.71177	25024.675
1425.15083	24235.975
1428.58758	23892.275
1432.02203	24063.075
1435.45416	24596.675
1438.88399	25213.075
1442.31151	25679.775
1445.73673	26046.875
1449.15965	26215.675
1452.58027	26296.875
1455.9986	26250.175
1459.41463	26404.075
1462.82837	26730.475
1466.23982	27084.875
1469.64898	27377.675
1473.05586	27611.775
1476.46045	27644.075
1479.86276	27432.875
1483.26279	27138.775
1486.66054	26955.675
1490.05602	27031.275
1493.44922	27174.575
1496.84016	27378.275
1500.22882	27774.775
1503.61521	28347.575
1506.99934	29012.975
1510.38121	29544.675
1513.76081	29682.375
1517.13816	29361.875
1520.51324	28839.475
1523.88607	28569.275
1527.25665	28485.175
1530.62498	28561.775
1533.99105	28475.875
1537.35488	28203.675
1540.71647	27647.975
1544.07581	27016.975
1547.4329	26347.575
1550.78776	25748.375
1554.14038	25363.775
1557.49077	25153.175
1560.83892	24966.375
1564.18484	24955.675
1567.52853	25014.275
1570.86999	25238.475
1574.20922	25704.675
1577.54624	26119.275
1580.88103	26395.775
1584.2136	26722.075
1587.54395	27327.375
1590.87208	28351.275
1594.19801	29531.075
1597.52172	30582.775
1600.84321	30669.975
1604.16251	29444.575
1607.47959	27599.375
1610.79447	25731.675
1614.10715	24002.775
1617.41763	22661.375
1620.7259	21731.575
1624.03199	21249.875
1627.33587	21257.375
1630.63757	21769.375
1633.93707	22826.075
1637.23439	24632.575
1640.52951	27175.375
1643.82246	30104.175
1647.11321	32362.875
1650.40179	32603.775
1653.68819	30518.675
1656.97241	27102.875
1660.25446	23882.775
1663.53433	21502.775
1666.81203	19912.375
1670.08756	18937.775
1673.36092	18276.675
1676.63211	17873.175
1679.90115	17574.375
1683.16801	17340.075
1686.43272	17208.475
1689.69527	17085.475
1692.95567	16990.475
1696.2139	16881.575
1699.46999	16833.075
1702.72392	16800.675
1705.97571	16777.975
1709.22535	16721.975
1712.47284	16682.775
1715.71819	16677.575
1718.96139	16620.075
1722.20246	16602.275
1725.44139	16552.275
1728.67818	16452.775
1731.91284	16358.975
1735.14537	16285.075
1738.37576	16216.375
1741.60403	16192.075
1744.83017	16137.275
1748.05418	16115.975
1751.27607	16081.575
1754.49584	16070.875
1757.71349	16063.575
1760.92903	16034.175
1764.14244	16024.875
1767.35375	16012.775
1770.56294	15997.475
1773.77002	15980.875
1776.97499	15919.175
1780.17785	15888.275
1783.37861	15874.775
1786.57727	15836.475
1789.77382	15831.575
1792.96828	15761.075
1796.16064	15721.675
1799.3509	15700.175
1802.53907	15708.175
1805.72514	15670.975
1808.90913	15617.875
1812.09102	15604.275
1815.27083	15522.375
1818.44856	15553.375
1821.6242	15520.475
1824.79776	15481.375
1827.96924	15484.275
1831.13864	15480.075
1834.30597	15491.875
1837.47122	15447.275
1840.6344	15469.875
1843.7955	15431.475
1846.95454	15421.475
1850.11151	15407.175
1853.26642	15422.775
1856.41926	15401.175
1859.57004	15375.175
1862.71876	15347.675
1865.86542	15326.075
1869.01003	15332.975
1872.15258	15316.675
1875.29308	15308.675
1878.43152	15246.875
1881.56792	15262.975
1884.70227	15206.775
1887.83457	15190.275
1890.96482	15153.275
1894.09304	15156.675
1897.21921	15118.675
1900.34335	15110.275
1903.46544	15084.075
1906.58551	15101.575
1909.70353	15040.375
1912.81953	14988.975
1915.93349	14993.575
1919.04543	14971.375
1922.15534	14921.275
1925.26322	14890.575
1928.36908	14867.875
1931.47292	14868.275
1934.57473	14831.475
1937.67453	14825.375
1940.77232	14780.075
1943.86808	14708.675
1946.96184	14656.075
1950.05358	14635.375
1953.14331	14617.975
1956.23103	14591.475
1959.31675	14519.875
1962.40046	14491.175
1965.48217	14431.775
1968.56188	14391.875
1971.63959	14343.875
1974.7153	14325.275
1977.78901	14270.675
1980.86073	14194.975
1983.93046	14172.875
1986.99819	14149.275
1990.06394	14094.075
1993.1277	14075.075
1996.18947	14022.075
1999.24925	13970.775
2002.30706	13951.675
2005.36288	13897.675
2008.41672	13871.275
2011.46859	13803.975
2014.51848	13805.775
2017.56639	13785.475
2020.61233	13737.275
2023.6563	13716.375
2026.6983	13662.575
2029.73833	13624.775
2032.7764	13630.675
2035.8125	13549.175
2038.84664	13544.575
2041.87881	13509.675
2044.90903	13436.675
2047.93729	13429.875
2050.96359	13436.375
2053.98794	13414.175
2057.01034	13390.075
2060.03078	13378.975
2063.04927	13350.875
2066.06582	13380.875
2069.08042	13347.975
2072.09307	13358.575
2075.10378	13349.375
2078.11255	13291.675
2081.11938	13315.975
2084.12426	13302.175
2087.12722	13299.275
2090.12824	13267.775
2093.12732	13309.175
2096.12447	13271.775
2099.11969	13261.075
2102.11299	13262.075
2105.10435	13265.875
2108.09379	13310.775
2111.08131	13298.075
2114.0669	13337.275
2117.05057	13324.075
2120.03233	13341.675
2123.01216	13332.175
2125.99008	13330.575
2128.96609	13361.675
2131.94018	13358.375
2134.91236	13362.375
2137.88263	13351.375
2140.851	13385.575
2143.81746	13367.175
2146.78201	13371.375
2149.74466	13380.675
2152.7054	13354.975
2155.66425	13371.275
2158.6212	13391.675
2161.57625	13339.675
2164.52941	13338.175
2167.48067	13325.275
2170.43004	13343.675
2173.37752	13336.975
2176.32311	13316.075
2179.26681	13318.675
2182.20863	13316.875
2185.14856	13315.375
2188.08661	13267.575
2191.02278	13295.975
2193.95707	13308.075
2196.88948	13299.575
2199.82001	13324.675
2202.74867	13255.675
2205.67545	13254.175
2208.60037	13235.775
2211.52341	13225.775
2214.44458	13204.975
2217.36388	13174.575
2220.28132	13134.875
2223.1969	13121.875
2226.11061	13115.675
2229.02246	13040.775
2231.93245	13014.675
2234.84058	13042.775
2237.74686	12984.475
2240.65128	13014.475
2243.55385	12979.875
2246.45456	12952.175
2249.35343	12947.875
2252.25044	12923.375
2255.14561	12920.775
2258.03893	12884.475
2260.93041	12846.375
2263.82004	12775.575
2266.70783	12759.175
2269.59378	12734.175
2272.4779	12683.175
2275.36017	12656.275
2278.24061	12643.075
2281.11922	12648.675
2283.996	12619.675
2286.87094	12604.275
2289.74405	12581.975
2292.61534	12545.675
2295.4848	12538.775
2298.35243	12530.375
2301.21824	12511.675
2304.08223	12508.575
2306.94439	12524.675
2309.80474	12493.775
2312.66327	12517.275
2315.51999	12469.975
2318.37489	12502.575
2321.22797	12455.175
2324.07925	12451.075
2326.92871	12410.475
2329.77637	12404.175
2332.62222	12395.575
2335.46626	12350.375
2338.3085	12348.575
2341.14893	12350.575
2343.98756	12333.175
2346.8244	12315.175
2349.65943	12307.275
2352.49267	12296.975
2355.32411	12312.175
2358.15376	12307.175
2360.98161	12306.375
2363.80768	12309.475
2366.63195	12258.775
2369.45444	12252.475
2372.27514	12235.575
2375.09405	12224.975
2377.91118	12212.675
2380.72652	12164.875
2383.54009	12131.575
2386.35187	12106.775
2389.16188	12120.875
2391.97011	12050.275
2394.77657	12035.775
2397.58125	12007.475
2400.38416	12012.075
2403.18529	11992.775
2405.98466	11973.775
2408.78226	11956.175
2411.57809	11945.875
2414.37216	11926.275
2417.16446	11922.875
2419.955	11926.875
2422.74378	11914.475
2425.5308	11894.375
2428.31606	11899.875
2431.09956	11889.175
2433.88131	11862.175
2436.6613	11872.575
2439.43954	11842.775
2442.21603	11834.075
2444.99077	11825.775
2447.76377	11795.975
2450.53501	11790.475
2453.30451	11791.275
2456.07226	11776.975
2458.83827	11801.675
2461.60254	11760.975
2464.36507	11733.775
2467.12586	11730.475
2469.88492	11714.475
2472.64224	11740.875
2475.39782	11713.975
2478.15167	11731.475
2480.90379	11716.475
2483.65417	11749.075
2486.40283	11718.975
2489.14976	11728.375
2491.89497	11697.575
2494.63845	11713.675
2497.3802	11696.675
2500.12024	11699.375
2502.85855	11667.975
2505.59514	11660.275
2508.33002	11645.775
2511.06318	11658.775
2513.79462	11657.175
2516.52435	11604.175
2519.25237	11607.475
2521.97867	11613.475
2524.70327	11614.575
2527.42616	11597.275
2530.14734	11599.875
2532.86681	11560.975
2535.58458	11560.875
2538.30065	11551.875
2541.01501	11565.775
2543.72768	11547.975
2546.43864	11504.775
2549.14791	11515.275
2551.85548	11504.975
2554.56136	11480.975
2557.26554	11461.475
2559.96803	11438.575
2562.66883	11422.975
2565.36794	11383.775
2568.06536	11379.875
2570.7611	11375.175
2573.45514	11352.475
2576.14751	11336.075
2578.83819	11321.075
2581.52719	11305.075
2584.21451	11275.675
2586.90015	11283.875
2589.58411	11258.875
2592.2664	11253.175
2594.94701	11268.275
2597.62594	11238.075
2600.30321	11193.975
2602.9788	11186.375
2605.65273	11166.675
2608.32498	11159.675
2610.99557	11140.275
2613.66449	11134.775
2616.33175	11135.075
2618.99734	11134.075
2621.66128	11139.775
2624.32355	11105.875
2626.98416	11089.575
2629.64311	11089.875
2632.30041	11051.775
2634.95605	11080.975
2637.61004	11027.175
2640.26238	11026.875
2642.91306	10977.975
2645.56209	11033.975
2648.20948	10999.975
2650.85521	10990.975
2653.4993	11006.075
2656.14175	11037.275
2658.78255	11028.775
2661.42171	11031.775
2664.05923	11027.875
2666.6951	11029.175
2669.32934	11036.275
2671.96194	11034.475
2674.59291	11059.975
2677.22224	11036.575
2679.84993	11038.475
2682.476	11029.275
2685.10043	11014.575
2687.72324	10992.475
2690.34441	11004.075
2692.96396	11009.475
2695.58188	10988.375
2698.19818	10979.275
2700.81285	11002.275
2703.4259	11001.175
2706.03733	11014.975
2708.64714	10992.675
2711.25533	11020.475
2713.86191	10997.875
2716.46687	11018.575
2719.07021	11026.375
2721.67194	11031.975
2724.27206	11016.075
2726.87057	11035.075
2729.46747	11036.975
2732.06276	11046.675
2734.65644	11035.675
2737.24852	11046.775
2739.83899	10994.375
2742.42786	11008.375
2745.01513	10971.275
2747.60079	10969.975
2750.18486	10942.675
2752.76733	10932.675
2755.3482	10937.675
2757.92747	10932.875
2760.50515	10926.375
2763.08123	10903.775
2765.65573	10891.775
2768.22863	10885.575
2770.79994	10904.475
2773.36967	10898.275
2775.9378	10876.975
2778.50435	10890.375
2781.06932	10874.575
2783.6327	10860.475
2786.1945	10877.175
2788.75471	10844.975
2791.31335	10801.375
2793.87041	10785.475
2796.42589	10802.475
2798.97979	10773.475
2801.53212	10750.775
2804.08288	10725.975
2806.63206	10725.875
2809.17967	10678.875
2811.72571	10667.675
2814.27018	10650.075
2816.81308	10610.375
2819.35442	10613.575
2821.89419	10585.475
2824.43239	10542.175
2826.96904	10549.675
2829.50412	10560.475
2832.03763	10530.675
2834.56959	10518.775
2837.1	10478.175
2839.62884	10501.475
2842.15613	10523.375
2844.68186	10519.475
2847.20604	10512.875
2849.72867	10538.375
2852.24974	10525.575
2854.76927	10492.075
2857.28724	10485.675
2859.80367	10468.975
2862.31855	10455.675
2864.83189	10428.275
2867.34368	10405.675
2869.85393	10402.375
2872.36264	10395.975
2874.8698	10385.875
2877.37543	10379.875
2879.87952	10377.675
2882.38207	10364.375
2884.88308	10339.675
2887.38256	10382.175
2889.88051	10362.175
2892.37692	10357.175
2894.8718	10373.175
2897.36515	10384.075
2899.85698	10361.575
2902.34727	10411.475
2904.83604	10382.575
2907.32328	10421.575
2909.809	10390.875
2912.29319	10390.575
2914.77587	10400.375
2917.25702	10403.175
2919.73665	10383.175
2922.21476	10408.475
2924.69136	10364.575
2927.16644	10402.075
2929.64	10319.575
2932.11205	10347.275
2934.58258	10310.375
2937.05161	10324.975
2939.51912	10349.275
2941.98513	10309.475
2944.44962	10297.475
2946.91261	10253.675
2949.37409	10258.575
2951.83407	10229.375
2954.29254	10255.175
2956.74951	10255.175
2959.20498	10242.775
2961.65895	10237.775
2964.11142	10234.975
2966.56239	10230.675
2969.01186	10245.375
2971.45984	10187.575
2973.90632	10176.575
2976.35131	10160.175
2978.7948	10151.875
2981.23681	10121.475
2983.67732	10090.375
2986.11635	10104.575
2988.55388	10055.675
2990.98993	10034.075
2993.4245	10034.275
2995.85758	9992.075
2998.28917	9966.775
3000.71928	9960.475
3003.14791	9929.275
3005.57506	9922.775
3008.00073	9888.775
3010.42493	9880.175
3012.84764	9846.575
3015.26888	9857.975
3017.68865	9825.575
3020.10694	9824.275
3022.52376	9822.875
3024.9391	9805.575
3027.35298	9768.975
3029.76539	9754.975
3032.17632	9761.475
3034.5858	9760.475
3036.9938	9780.175
3039.40034	9746.175
3041.80542	9744.675
3044.20903	9723.175
3046.61118	9726.075
3049.01187	9687.575
3051.4111	9705.075
3053.80888	9658.475
3056.20519	9634.575
3058.60005	9628.975
3060.99345	9611.175
3063.3854	9577.075
3065.7759	9562.275
3068.16494	9536.475
3070.55254	9510.975
3072.93868	9503.375
3075.32338	9472.375
3077.70662	9438.875
3080.08842	9427.775
3082.46878	9423.775
3084.84769	9408.075
3087.22515	9398.775
3089.60118	9418.275
3091.97576	9391.875
3094.3489	9387.375
3096.72061	9387.875
3099.09087	9390.675
3101.4597	9387.175
3103.82709	9395.275
3106.19305	9349.075
3108.55757	9335.275
3110.92066	9345.775
3113.28232	9335.975
3115.64255	9326.575
3118.00134	9309.275
3120.35871	9277.075
3122.71466	9261.875
3125.06917	9217.275
3127.42226	9221.775
3129.77393	9223.475
3132.12417	9209.275
3134.47299	9196.875
