Data from AgNP_FTO_APTES_UA_10uM_CRN_50uM_R6G_10uM_NaF_0.1M_Addition_RamanShift__17__17-02-20-803.txt Node

Date: Thu Feb 10 17:02:20 GMT 2022
User: TCL
Spectrometer: QEP01345
Trigger mode: 4
Integration Time (sec): 7.000000E0
Scans to average: 10
Electric dark correction enabled: true
Nonlinearity correction enabled: false
Boxcar width: 0
XAxis mode: Raman Shifts
Number of Pixels in Spectrum: 1044
>>>>>Begin Spectral Data<<<<<
46.04893	1.525
50.45542	-1.175
54.85868	-1.275
59.25871	-1.475
63.6555	58.625
68.04907	60.125
72.43941	66.825
76.82654	65.625
81.21044	71.525
85.59113	71.725
89.96862	76.925
94.34289	78.625
98.71396	80.325
103.08183	83.625
107.4465	86.125
111.80798	84.625
116.16626	87.825
120.52136	92.425
124.87327	96.125
129.222	99.125
133.56755	107.025
137.90993	112.425
142.24913	119.325
146.58517	134.525
150.91804	156.725
155.24774	185.225
159.57429	225.625
163.89768	284.925
168.21792	378.425
172.53501	511.225
176.84895	717.225
181.15975	1008.025
185.46741	1417.225
189.77193	1955.325
194.07331	2611.325
198.37157	3357.425
202.6667	4143.425
206.9587	4943.825
211.24758	5679.625
215.53334	6442.125
219.81599	7230.525
224.09553	8101.725
228.37195	9060.025
232.64527	10122.525
236.91549	11268.225
241.18261	12426.425
245.44663	13533.125
249.70755	14549.725
253.96539	15489.325
258.22014	16243.325
262.4718	16888.825
266.72039	17355.725
270.96589	17624.525
275.20832	17701.425
279.44768	17675.025
283.68397	17574.225
287.91719	17443.925
292.14735	17396.025
296.37445	17347.725
300.59849	17351.325
304.81948	17309.125
309.03742	17133.125
313.25231	16884.625
317.46415	16534.525
321.67296	16139.725
325.87872	15854.425
330.08145	15756.525
334.28114	15773.725
338.47781	15862.525
342.67145	16091.225
346.86207	16307.025
351.04966	16519.725
355.23424	16755.525
359.4158	17018.925
363.59435	17203.525
367.76989	17317.625
371.94243	17406.225
376.11196	17541.925
380.27849	17613.025
384.44203	17768.625
388.60257	17866.425
392.76012	18067.725
396.91468	18246.825
401.06626	18491.525
405.21485	18625.925
409.36047	18591.225
413.50311	18395.725
417.64277	18265.725
421.77947	18250.425
425.9132	18277.425
430.04396	18387.525
434.17176	18493.225
438.2966	18595.725
442.41849	18854.325
446.53742	19212.825
450.6534	19561.425
454.76644	19945.125
458.87653	20106.325
462.98368	20103.925
467.08789	20035.325
471.18916	19935.025
475.2875	19853.525
479.38291	19809.425
483.4754	19723.425
487.56496	19505.425
491.6516	19192.325
495.73531	18917.425
499.81612	18814.125
503.89401	18873.025
507.96899	18916.825
512.04106	18912.525
516.11023	18818.625
520.1765	18688.425
524.23987	18579.725
528.30034	18433.825
532.35792	18306.925
536.41261	18210.625
540.46441	18118.625
544.51333	18196.925
548.55936	18425.125
552.60252	18731.925
556.64279	19032.825
560.6802	19193.325
564.71473	19265.325
568.7464	19441.525
572.7752	19736.225
576.80114	19959.825
580.82422	20199.325
584.84444	20384.425
588.86181	20464.625
592.87633	20523.325
596.888	20622.925
600.89682	20772.125
604.9028	21242.525
608.90594	22457.125
612.90624	23545.525
616.90371	22349.525
620.89834	19866.125
624.89015	18844.125
628.87913	18881.625
632.86528	18887.325
636.84862	18768.725
640.82913	18586.925
644.80683	18241.325
648.78172	18029.025
652.75379	17922.725
656.72306	18058.525
660.68952	18255.725
664.65319	18200.325
668.61405	17966.425
672.57211	17952.625
676.52738	17949.725
680.47986	18002.825
684.42955	17971.925
688.37646	17950.825
692.32058	17978.125
696.26192	18109.325
700.20048	18291.125
704.13626	18365.425
708.06928	18343.725
711.99952	18265.625
715.927	18217.425
719.85171	18219.725
723.77365	18193.125
727.69284	18065.425
731.60928	17949.725
735.52295	17861.225
739.43388	17885.625
743.34206	17922.625
747.24749	18006.025
751.15017	18063.325
755.05012	18276.825
758.94733	18695.425
762.8418	19329.425
766.73354	20385.225
770.62254	21251.325
774.50882	21437.025
778.39237	20665.625
782.27321	19556.825
786.15132	18667.325
790.02671	18128.325
793.89938	17882.925
797.76935	17794.125
801.6366	17775.225
805.50115	17746.925
809.36299	17641.525
813.22213	17553.325
817.07857	17504.425
820.93231	17492.525
824.78336	17431.425
828.63172	17418.925
832.47738	17450.625
836.32036	17431.725
840.16066	17486.725
843.99827	17529.225
847.8332	17545.325
851.66546	17448.625
855.49504	17437.625
859.32195	17454.625
863.1462	17404.625
866.96777	17374.025
870.78668	17341.025
874.60293	17354.325
878.41652	17350.325
882.22745	17345.225
886.03573	17376.725
889.84136	17352.225
893.64433	17296.125
897.44466	17232.525
901.24235	17174.625
905.0374	17197.225
908.8298	17169.825
912.61957	17211.225
916.40671	17380.325
920.19121	17520.725
923.97308	17644.025
927.75233	17617.025
931.52895	17536.925
935.30295	17383.425
939.07433	17193.625
942.84309	16948.825
946.60924	16892.825
950.37278	16865.925
954.13371	16810.325
957.89203	16778.925
961.64774	16693.525
965.40086	16720.525
969.15137	16617.725
972.89929	16575.125
976.64461	16513.425
980.38733	16576.425
984.12747	16610.825
987.86502	16745.525
991.59999	16886.025
995.33237	17147.425
999.06217	17479.325
1002.78939	17846.725
1006.51404	17945.125
1010.23611	18039.325
1013.95561	18108.025
1017.67255	18135.925
1021.38692	18026.725
1025.09872	17937.225
1028.80796	18084.825
1032.51465	18516.025
1036.21877	18886.825
1039.92035	18937.625
1043.61937	18692.825
1047.31584	18387.325
1051.00976	18073.125
1054.70114	17957.125
1058.38998	18014.825
1062.07627	18097.625
1065.76003	18212.425
1069.44126	18227.525
1073.11995	18340.325
1076.79611	18465.025
1080.46974	18560.925
1084.14085	18670.625
1087.80943	18769.025
1091.47549	18874.025
1095.13903	18855.825
1098.80005	18738.125
1102.45857	18484.525
1106.11456	18295.725
1109.76805	18238.525
1113.41903	18253.325
1117.06751	18344.725
1120.71348	18435.825
1124.35696	18533.525
1127.99793	18680.125
1131.63641	18789.325
1135.2724	18712.925
1138.90589	18660.825
1142.5369	18587.025
1146.16542	18584.325
1149.79145	18641.325
1153.415	18789.725
1157.03607	18976.725
1160.65467	19400.525
1164.27079	19991.525
1167.88443	20772.225
1171.49561	21702.325
1175.10432	22840.625
1178.71056	24287.425
1182.31434	25657.725
1185.91565	26439.425
1189.51451	26549.225
1193.11091	25988.225
1196.70485	25168.725
1200.29634	24274.025
1203.88538	23557.825
1207.47197	23153.925
1211.05612	22741.125
1214.63782	22303.425
1218.21708	21989.125
1221.79391	21743.925
1225.36829	21638.025
1228.94024	21369.725
1232.50976	21059.025
1236.07685	20837.125
1239.6415	20750.325
1243.20374	20834.625
1246.76355	20943.125
1250.32093	21183.725
1253.8759	21569.425
1257.42845	22041.125
1260.97859	22397.225
1264.52631	22788.125
1268.07163	23277.425
1271.61453	23761.425
1275.15503	24333.725
1278.69312	24957.025
1282.22882	25473.925
1285.76211	25935.125
1289.29301	26406.325
1292.82151	27048.825
1296.34761	28016.225
1299.87133	29230.825
1303.39266	30572.325
1306.9116	32079.525
1310.42815	33460.125
1313.94233	34305.725
1317.45412	34336.225
1320.96354	33920.825
1324.47058	33482.025
1327.97525	33097.925
1331.47754	32800.825
1334.97747	32741.825
1338.47502	32865.725
1341.97022	32979.025
1345.46305	32857.425
1348.95352	32510.425
1352.44163	32078.625
1355.92738	31958.925
1359.41078	32493.825
1362.89183	32972.625
1366.37053	32183.625
1369.84688	30120.225
1373.32088	27727.325
1376.79254	26137.425
1380.26186	25459.225
1383.72883	25418.925
1387.19347	25455.625
1390.65578	25342.625
1394.11575	25299.125
1397.57339	25452.825
1401.0287	25764.125
1404.48168	26048.925
1407.93234	26048.425
1411.38068	25722.825
1414.82669	25052.225
1418.27039	24171.525
1421.71177	23373.925
1425.15083	22673.325
1428.58758	22262.225
1432.02203	22259.525
1435.45416	22581.325
1438.88399	23028.625
1442.31151	23474.225
1445.73673	23828.925
1449.15965	24171.725
1452.58027	24437.325
1455.9986	24623.825
1459.41463	24804.925
1462.82837	25168.325
1466.23982	25588.825
1469.64898	25900.725
1473.05586	26107.425
1476.46045	26150.425
1479.86276	25983.825
1483.26279	25701.425
1486.66054	25456.625
1490.05602	25401.425
1493.44922	25465.625
1496.84016	25591.025
1500.22882	25970.825
1503.61521	26623.025
1506.99934	27488.925
1510.38121	28150.725
1513.76081	28402.425
1517.13816	27992.225
1520.51324	27322.225
1523.88607	26627.625
1527.25665	26252.625
1530.62498	26057.125
1533.99105	25936.225
1537.35488	25845.925
1540.71647	25603.125
1544.07581	25225.525
1547.4329	24788.625
1550.78776	24447.825
1554.14038	24208.825
1557.49077	24091.225
1560.83892	24003.625
1564.18484	24006.925
1567.52853	24033.925
1570.86999	24111.025
1574.20922	24324.825
1577.54624	24550.225
1580.88103	24616.425
1584.2136	24698.325
1587.54395	25093.025
1590.87208	25863.425
1594.19801	27006.825
1597.52172	28198.125
1600.84321	28520.725
1604.16251	27629.025
1607.47959	26109.025
1610.79447	24442.325
1614.10715	22900.625
1617.41763	21574.325
1620.7259	20582.825
1624.03199	20026.925
1627.33587	19946.725
1630.63757	20329.625
1633.93707	21169.625
1637.23439	22559.025
1640.52951	24410.525
1643.82246	26447.125
1647.11321	28001.925
1650.40179	28279.625
1653.68819	26929.325
1656.97241	24400.525
1660.25446	21758.525
1663.53433	19815.625
1666.81203	18455.225
1670.08756	17555.425
1673.36092	16966.925
1676.63211	16535.725
1679.90115	16261.825
1683.16801	16068.325
1686.43272	15888.725
1689.69527	15795.025
1692.95567	15682.025
1696.2139	15653.425
1699.46999	15613.125
1702.72392	15579.925
1705.97571	15499.425
1709.22535	15438.525
1712.47284	15429.325
1715.71819	15390.925
1718.96139	15361.825
1722.20246	15348.225
1725.44139	15257.125
1728.67818	15181.725
1731.91284	15097.925
1735.14537	15075.225
1738.37576	14994.725
1741.60403	14971.325
1744.83017	14948.825
1748.05418	14911.325
1751.27607	14896.625
1754.49584	14878.425
1757.71349	14885.425
1760.92903	14852.625
1764.14244	14815.925
1767.35375	14820.825
1770.56294	14778.425
1773.77002	14788.125
1776.97499	14735.425
1780.17785	14679.925
1783.37861	14682.925
1786.57727	14637.925
1789.77382	14597.925
1792.96828	14577.325
1796.16064	14545.325
1799.3509	14521.825
1802.53907	14540.425
1805.72514	14472.925
1808.90913	14463.425
1812.09102	14431.625
1815.27083	14375.225
1818.44856	14381.425
1821.6242	14338.925
1824.79776	14330.025
1827.96924	14338.125
1831.13864	14298.025
1834.30597	14319.825
1837.47122	14290.425
1840.6344	14267.325
1843.7955	14282.525
1846.95454	14286.825
1850.11151	14288.325
1853.26642	14309.625
1856.41926	14262.925
1859.57004	14257.425
1862.71876	14246.625
1865.86542	14219.725
1869.01003	14215.125
1872.15258	14214.525
1875.29308	14203.725
1878.43152	14185.525
1881.56792	14178.325
1884.70227	14145.825
1887.83457	14130.925
1890.96482	14119.425
1894.09304	14080.825
1897.21921	14064.525
1900.34335	14073.425
1903.46544	14046.625
1906.58551	14020.325
1909.70353	14010.025
1912.81953	14000.625
1915.93349	14006.925
1919.04543	13950.725
1922.15534	13922.625
1925.26322	13907.625
1928.36908	13879.625
1931.47292	13854.725
1934.57473	13815.725
1937.67453	13824.725
1940.77232	13761.125
1943.86808	13752.325
1946.96184	13677.525
1950.05358	13637.125
1953.14331	13631.525
1956.23103	13595.225
1959.31675	13521.725
1962.40046	13486.625
1965.48217	13448.425
1968.56188	13385.925
1971.63959	13356.025
1974.7153	13324.525
1977.78901	13324.425
1980.86073	13239.425
1983.93046	13222.625
1986.99819	13194.225
1990.06394	13169.725
1993.1277	13134.925
1996.18947	13081.225
1999.24925	13046.125
2002.30706	13013.625
2005.36288	12984.525
2008.41672	12940.825
2011.46859	12915.025
2014.51848	12907.825
2017.56639	12868.425
2020.61233	12810.125
2023.6563	12791.825
2026.6983	12765.125
2029.73833	12731.925
2032.7764	12718.725
2035.8125	12694.425
2038.84664	12644.525
2041.87881	12618.525
2044.90903	12595.025
2047.93729	12582.825
2050.96359	12579.325
2053.98794	12567.225
2057.01034	12540.625
2060.03078	12539.925
2063.04927	12536.225
2066.06582	12533.725
2069.08042	12515.125
2072.09307	12493.325
2075.10378	12516.425
2078.11255	12477.425
2081.11938	12476.625
2084.12426	12461.325
2087.12722	12466.325
2090.12824	12444.725
2093.12732	12442.825
2096.12447	12438.725
2099.11969	12471.925
2102.11299	12408.825
2105.10435	12460.125
2108.09379	12471.325
2111.08131	12472.825
2114.0669	12460.125
2117.05057	12486.725
2120.03233	12488.925
2123.01216	12504.225
2125.99008	12530.925
2128.96609	12542.125
2131.94018	12542.825
2134.91236	12555.525
2137.88263	12559.525
2140.851	12548.325
2143.81746	12577.225
2146.78201	12562.225
2149.74466	12570.525
2152.7054	12579.825
2155.66425	12580.925
2158.6212	12580.625
2161.57625	12578.325
2164.52941	12570.125
2167.48067	12544.525
2170.43004	12558.425
2173.37752	12552.925
2176.32311	12559.625
2179.26681	12543.725
2182.20863	12536.225
2185.14856	12538.925
2188.08661	12546.425
2191.02278	12550.525
2193.95707	12538.725
2196.88948	12551.725
2199.82001	12566.825
2202.74867	12557.125
2205.67545	12544.725
2208.60037	12501.225
2211.52341	12523.225
2214.44458	12487.725
2217.36388	12471.625
2220.28132	12457.425
2223.1969	12453.125
2226.11061	12446.125
2229.02246	12382.525
2231.93245	12378.825
2234.84058	12336.625
2237.74686	12306.925
2240.65128	12329.025
2243.55385	12274.225
2246.45456	12267.425
2249.35343	12245.025
2252.25044	12248.525
2255.14561	12214.225
2258.03893	12213.925
2260.93041	12174.725
2263.82004	12142.625
2266.70783	12101.925
2269.59378	12056.925
2272.4779	12052.025
2275.36017	12015.525
2278.24061	12002.925
2281.11922	11991.425
2283.996	11986.325
2286.87094	11960.825
2289.74405	11975.525
2292.61534	11942.525
2295.4848	11949.025
2298.35243	11919.325
2301.21824	11925.725
2304.08223	11934.425
2306.94439	11929.125
2309.80474	11939.125
2312.66327	11951.125
2315.51999	11939.725
2318.37489	11955.325
2321.22797	11938.425
2324.07925	11900.825
2326.92871	11896.325
2329.77637	11864.025
2332.62222	11858.225
2335.46626	11846.925
2338.3085	11843.125
2341.14893	11853.925
2343.98756	11863.225
2346.8244	11839.725
2349.65943	11842.225
2352.49267	11831.825
2355.32411	11829.125
2358.15376	11845.125
2360.98161	11845.725
2363.80768	11795.225
2366.63195	11790.925
2369.45444	11771.225
2372.27514	11737.525
2375.09405	11731.725
2377.91118	11692.325
2380.72652	11678.925
2383.54009	11635.625
2386.35187	11622.325
2389.16188	11591.825
2391.97011	11560.625
2394.77657	11550.725
2397.58125	11538.325
2400.38416	11531.925
2403.18529	11514.025
2405.98466	11495.325
2408.78226	11493.925
2411.57809	11474.125
2414.37216	11456.325
2417.16446	11441.925
2419.955	11408.325
2422.74378	11435.125
2425.5308	11422.425
2428.31606	11400.425
2431.09956	11426.625
2433.88131	11405.825
2436.6613	11379.425
2439.43954	11370.725
2442.21603	11404.925
2444.99077	11348.325
2447.76377	11350.125
2450.53501	11362.725
2453.30451	11361.125
2456.07226	11324.325
2458.83827	11324.525
2461.60254	11330.525
2464.36507	11310.425
2467.12586	11317.525
2469.88492	11309.325
2472.64224	11305.625
2475.39782	11305.825
2478.15167	11308.725
2480.90379	11306.225
2483.65417	11323.625
2486.40283	11313.425
2489.14976	11326.225
2491.89497	11332.425
2494.63845	11355.525
2497.3802	11329.325
2500.12024	11300.025
2502.85855	11314.625
2505.59514	11303.625
2508.33002	11266.825
2511.06318	11300.125
2513.79462	11259.825
2516.52435	11244.725
2519.25237	11230.325
2521.97867	11229.025
2524.70327	11237.425
2527.42616	11204.225
2530.14734	11213.525
2532.86681	11203.425
2535.58458	11230.725
2538.30065	11193.725
2541.01501	11238.325
2543.72768	11204.725
2546.43864	11187.325
2549.14791	11181.725
2551.85548	11170.325
2554.56136	11152.925
2557.26554	11119.925
2559.96803	11068.025
2562.66883	11084.425
2565.36794	11048.325
2568.06536	11067.825
2570.7611	11030.725
2573.45514	11048.825
2576.14751	11029.125
2578.83819	10988.725
2581.52719	10998.625
2584.21451	10975.425
2586.90015	10982.925
2589.58411	10979.525
2592.2664	10993.225
2594.94701	10967.025
2597.62594	10957.825
2600.30321	10934.825
2602.9788	10912.725
2605.65273	10866.025
2608.32498	10907.725
2610.99557	10901.625
2613.66449	10896.025
2616.33175	10903.725
2618.99734	10886.225
2621.66128	10892.525
2624.32355	10893.525
2626.98416	10881.525
2629.64311	10871.225
2632.30041	10876.025
2634.95605	10850.625
2637.61004	10822.425
2640.26238	10824.425
2642.91306	10822.225
2645.56209	10809.625
2648.20948	10810.825
2650.85521	10805.525
2653.4993	10793.025
2656.14175	10798.025
2658.78255	10781.625
2661.42171	10820.425
2664.05923	10826.725
2666.6951	10834.025
2669.32934	10851.925
2671.96194	10793.425
2674.59291	10856.125
2677.22224	10834.625
2679.84993	10821.525
2682.476	10801.425
2685.10043	10790.025
2687.72324	10774.225
2690.34441	10793.225
2692.96396	10775.325
2695.58188	10808.725
2698.19818	10760.325
2700.81285	10783.925
2703.4259	10793.525
2706.03733	10804.425
2708.64714	10781.525
2711.25533	10773.925
2713.86191	10778.625
2716.46687	10807.425
2719.07021	10804.225
2721.67194	10804.725
2724.27206	10812.325
2726.87057	10825.425
2729.46747	10827.825
2732.06276	10799.125
2734.65644	10812.325
2737.24852	10823.725
2739.83899	10785.825
2742.42786	10815.225
2745.01513	10772.025
2747.60079	10753.225
2750.18486	10775.425
2752.76733	10755.725
2755.3482	10751.825
2757.92747	10740.125
2760.50515	10724.525
2763.08123	10705.625
2765.65573	10699.925
2768.22863	10708.625
2770.79994	10708.125
2773.36967	10703.025
2775.9378	10709.625
2778.50435	10702.825
2781.06932	10738.325
2783.6327	10690.625
2786.1945	10720.925
2788.75471	10691.725
2791.31335	10665.425
2793.87041	10668.125
2796.42589	10645.325
2798.97979	10651.825
2801.53212	10614.925
2804.08288	10601.125
2806.63206	10552.625
2809.17967	10544.125
2811.72571	10519.725
2814.27018	10493.425
2816.81308	10498.225
2819.35442	10470.825
2821.89419	10467.725
2824.43239	10445.625
2826.96904	10444.125
2829.50412	10419.325
2832.03763	10426.225
2834.56959	10417.225
2837.1	10399.825
2839.62884	10413.425
2842.15613	10397.425
2844.68186	10406.925
2847.20604	10406.825
2849.72867	10410.825
2852.24974	10426.425
2854.76927	10380.025
2857.28724	10384.225
2859.80367	10361.825
2862.31855	10353.325
2864.83189	10331.525
2867.34368	10318.625
2869.85393	10323.725
2872.36264	10318.925
2874.8698	10333.725
2877.37543	10312.225
2879.87952	10320.125
2882.38207	10319.825
2884.88308	10317.425
2887.38256	10320.925
2889.88051	10287.525
2892.37692	10288.425
2894.8718	10298.325
2897.36515	10316.425
2899.85698	10350.925
2902.34727	10360.225
2904.83604	10384.425
2907.32328	10398.025
2909.809	10382.525
2912.29319	10378.125
2914.77587	10397.225
2917.25702	10390.925
2919.73665	10393.425
2922.21476	10387.025
2924.69136	10354.925
2927.16644	10354.225
2929.64	10346.125
2932.11205	10341.425
2934.58258	10314.025
2937.05161	10301.425
2939.51912	10335.225
2941.98513	10304.625
2944.44962	10316.025
2946.91261	10269.025
2949.37409	10294.525
2951.83407	10264.325
2954.29254	10253.025
2956.74951	10243.525
2959.20498	10264.725
2961.65895	10268.325
2964.11142	10271.425
2966.56239	10263.725
2969.01186	10247.725
2971.45984	10231.925
2973.90632	10228.825
2976.35131	10197.425
2978.7948	10175.325
2981.23681	10146.725
2983.67732	10135.025
2986.11635	10120.125
2988.55388	10121.525
2990.98993	10114.125
2993.4245	10061.625
2995.85758	10054.025
2998.28917	10016.325
3000.71928	10018.425
3003.14791	9990.425
3005.57506	9988.525
3008.00073	9952.325
3010.42493	9938.825
3012.84764	9934.025
3015.26888	9919.925
3017.68865	9884.825
3020.10694	9886.025
3022.52376	9885.725
3024.9391	9895.125
3027.35298	9861.625
3029.76539	9838.625
3032.17632	9855.925
3034.5858	9853.825
3036.9938	9845.525
3039.40034	9832.625
3041.80542	9832.925
3044.20903	9790.425
3046.61118	9804.425
3049.01187	9790.925
3051.4111	9798.825
3053.80888	9772.125
3056.20519	9768.325
3058.60005	9752.825
3060.99345	9726.525
3063.3854	9719.325
3065.7759	9686.625
3068.16494	9670.525
3070.55254	9668.025
3072.93868	9633.025
3075.32338	9619.025
3077.70662	9593.625
3080.08842	9601.925
3082.46878	9564.225
3084.84769	9557.125
3087.22515	9567.625
3089.60118	9563.725
3091.97576	9556.925
3094.3489	9538.325
3096.72061	9555.125
3099.09087	9580.625
3101.4597	9545.925
3103.82709	9566.025
3106.19305	9559.225
3108.55757	9559.525
3110.92066	9557.925
3113.28232	9545.225
3115.64255	9526.525
3118.00134	9530.525
3120.35871	9490.325
3122.71466	9471.025
3125.06917	9443.725
3127.42226	9442.025
3129.77393	9434.325
3132.12417	9431.125
3134.47299	9408.725
