Data from AgNP_FTO_APTES_UA_10uM_CRN_10uM_R6G_10uM_NaF_0.1M_Addition_RamanShift__26__15-54-40-720.txt Node

Date: Thu Feb 10 15:54:40 GMT 2022
User: TCL
Spectrometer: QEP01345
Trigger mode: 4
Integration Time (sec): 7.000000E0
Scans to average: 10
Electric dark correction enabled: true
Nonlinearity correction enabled: false
Boxcar width: 0
XAxis mode: Raman Shifts
Number of Pixels in Spectrum: 1044
>>>>>Begin Spectral Data<<<<<
46.04893	0.4625
50.45542	-1.1375
54.85868	-1.2375
59.25871	-1.6375
63.6555	67.1625
68.04907	69.1625
72.43941	74.1625
76.82654	73.4625
81.21044	80.5625
85.59113	79.7625
89.96862	86.7625
94.34289	87.5625
98.71396	89.0625
103.08183	90.3625
107.4465	98.2625
111.80798	95.6625
116.16626	99.3625
120.52136	105.0625
124.87327	106.0625
129.222	109.0625
133.56755	116.5625
137.90993	126.3625
142.24913	140.4625
146.58517	153.9625
150.91804	180.6625
155.24774	210.3625
159.57429	264.2625
163.89768	341.4625
168.21792	447.5625
172.53501	606.0625
176.84895	839.5625
181.15975	1181.2625
185.46741	1643.8625
189.77193	2270.7625
194.07331	3023.6625
198.37157	3897.1625
202.6667	4821.9625
206.9587	5716.4625
211.24758	6611.0625
215.53334	7510.6625
219.81599	8514.9625
224.09553	9602.8625
228.37195	10840.0625
232.64527	12183.3625
236.91549	13611.4625
241.18261	14922.8625
245.44663	16097.6625
249.70755	17162.1625
253.96539	18114.0625
258.22014	18899.6625
262.4718	19665.7625
266.72039	20200.5625
270.96589	20554.6625
275.20832	20698.1625
279.44768	20715.1625
283.68397	20648.1625
287.91719	20556.2625
292.14735	20602.7625
296.37445	20749.6625
300.59849	21039.2625
304.81948	21255.7625
309.03742	21363.3625
313.25231	21082.5625
317.46415	20279.2625
321.67296	19250.0625
325.87872	18456.4625
330.08145	18072.5625
334.28114	18073.2625
338.47781	18279.5625
342.67145	18642.1625
346.86207	19146.9625
351.04966	19852.7625
355.23424	20564.4625
359.4158	21180.4625
363.59435	21479.6625
367.76989	21602.1625
371.94243	21681.6625
376.11196	21699.1625
380.27849	21702.6625
384.44203	21658.4625
388.60257	21585.6625
392.76012	21666.7625
396.91468	21909.2625
401.06626	22368.3625
405.21485	22716.0625
409.36047	22485.3625
413.50311	21858.2625
417.64277	21227.7625
421.77947	20956.7625
425.9132	20939.2625
430.04396	21053.5625
434.17176	21188.2625
438.2966	21450.7625
442.41849	21810.3625
446.53742	22380.0625
450.6534	23031.9625
454.76644	23476.4625
458.87653	23691.5625
462.98368	23629.2625
467.08789	23356.8625
471.18916	22993.0625
475.2875	22563.1625
479.38291	22296.0625
483.4754	22039.8625
487.56496	21706.3625
491.6516	21362.5625
495.73531	21128.5625
499.81612	21098.8625
503.89401	21214.2625
507.96899	21357.6625
512.04106	21361.1625
516.11023	21402.4625
520.1765	21412.7625
524.23987	21246.2625
528.30034	20986.0625
532.35792	20700.2625
536.41261	20384.3625
540.46441	20119.0625
544.51333	20107.9625
548.55936	20388.4625
552.60252	20903.0625
556.64279	21439.4625
560.6802	21745.4625
564.71473	21890.8625
568.7464	22376.3625
572.7752	22918.2625
576.80114	22850.5625
580.82422	22660.4625
584.84444	22603.4625
588.86181	22530.9625
592.87633	22626.4625
596.888	22840.7625
600.89682	23376.6625
604.9028	25064.6625
608.90594	29271.5625
612.90624	34168.6625
616.90371	32088.8625
620.89834	24858.5625
624.89015	21807.3625
628.87913	21340.7625
632.86528	21358.1625
636.84862	21315.0625
640.82913	20884.1625
644.80683	20157.7625
648.78172	19683.7625
652.75379	19709.9625
656.72306	20153.4625
660.68952	20835.6625
664.65319	20750.0625
668.61405	20159.8625
672.57211	19898.6625
676.52738	19887.3625
680.47986	19863.3625
684.42955	19808.1625
688.37646	19777.3625
692.32058	19881.8625
696.26192	20093.9625
700.20048	20338.4625
704.13626	20495.9625
708.06928	20505.9625
711.99952	20264.3625
715.927	20234.8625
719.85171	20207.6625
723.77365	20135.0625
727.69284	19889.6625
731.60928	19708.2625
735.52295	19664.5625
739.43388	19668.3625
743.34206	19731.7625
747.24749	19912.3625
751.15017	20142.3625
755.05012	20560.1625
758.94733	21352.3625
762.8418	22979.4625
766.73354	25604.4625
770.62254	28205.5625
774.50882	28993.5625
778.39237	27406.3625
782.27321	24480.9625
786.15132	22101.3625
790.02671	20753.3625
793.89938	20132.0625
797.76935	19846.7625
801.6366	19743.8625
805.50115	19609.5625
809.36299	19511.6625
813.22213	19401.5625
817.07857	19348.6625
820.93231	19374.1625
824.78336	19370.5625
828.63172	19384.3625
832.47738	19452.1625
836.32036	19464.3625
840.16066	19506.1625
843.99827	19523.5625
847.8332	19457.3625
851.66546	19346.1625
855.49504	19297.4625
859.32195	19272.8625
863.1462	19158.5625
866.96777	19079.0625
870.78668	18995.3625
874.60293	19001.4625
878.41652	19041.1625
882.22745	19111.9625
886.03573	19209.3625
889.84136	19163.0625
893.64433	19005.6625
897.44466	18998.1625
901.24235	18971.9625
905.0374	18934.2625
908.8298	18945.0625
912.61957	19039.8625
916.40671	19208.0625
920.19121	19484.5625
923.97308	19694.4625
927.75233	19778.0625
931.52895	19760.0625
935.30295	19545.7625
939.07433	19072.8625
942.84309	18731.7625
946.60924	18525.9625
950.37278	18455.5625
954.13371	18327.8625
957.89203	18240.7625
961.64774	18172.3625
965.40086	18122.1625
969.15137	18063.8625
972.89929	17973.6625
976.64461	17998.2625
980.38733	17971.5625
984.12747	18075.5625
987.86502	18223.7625
991.59999	18450.0625
995.33237	18827.4625
999.06217	19474.9625
1002.78939	20256.4625
1006.51404	20703.0625
1010.23611	21054.9625
1013.95561	21286.7625
1017.67255	21216.6625
1021.38692	20968.5625
1025.09872	20832.0625
1028.80796	21038.1625
1032.51465	21690.8625
1036.21877	22314.3625
1039.92035	22401.7625
1043.61937	22019.8625
1047.31584	21385.8625
1051.00976	20775.4625
1054.70114	20462.2625
1058.38998	20423.3625
1062.07627	20560.9625
1065.76003	20628.0625
1069.44126	20708.7625
1073.11995	20874.7625
1076.79611	21039.1625
1080.46974	21202.3625
1084.14085	21505.4625
1087.80943	21843.5625
1091.47549	22007.3625
1095.13903	21827.1625
1098.80005	21338.7625
1102.45857	20834.7625
1106.11456	20564.0625
1109.76805	20591.6625
1113.41903	20783.5625
1117.06751	21146.7625
1120.71348	21582.6625
1124.35696	21990.1625
1127.99793	22419.1625
1131.63641	22459.2625
1135.2724	22074.9625
1138.90589	21580.0625
1142.5369	21285.4625
1146.16542	21146.1625
1149.79145	21069.4625
1153.415	21218.3625
1157.03607	21526.1625
1160.65467	22014.4625
1164.27079	22819.7625
1167.88443	23968.0625
1171.49561	25553.0625
1175.10432	28006.1625
1178.71056	31083.8625
1182.31434	33727.7625
1185.91565	35060.1625
1189.51451	34958.9625
1193.11091	33540.5625
1196.70485	31506.5625
1200.29634	29757.0625
1203.88538	28368.4625
1207.47197	27067.0625
1211.05612	25995.6625
1214.63782	25409.6625
1218.21708	25252.7625
1221.79391	25324.5625
1225.36829	25414.7625
1228.94024	25414.1625
1232.50976	25232.4625
1236.07685	25139.8625
1239.6415	25042.0625
1243.20374	24970.5625
1246.76355	25130.9625
1250.32093	25513.4625
1253.8759	26115.1625
1257.42845	27021.5625
1260.97859	27800.4625
1264.52631	28441.9625
1268.07163	29122.9625
1271.61453	29889.7625
1275.15503	30688.9625
1278.69312	31446.9625
1282.22882	32068.2625
1285.76211	32655.1625
1289.29301	33230.9625
1292.82151	34041.0625
1296.34761	35076.4625
1299.87133	36673.0625
1303.39266	39052.8625
1306.9116	42209.3625
1310.42815	45820.0625
1313.94233	48115.0625
1317.45412	48255.8625
1320.96354	46818.1625
1324.47058	44932.7625
1327.97525	43221.5625
1331.47754	42096.2625
1334.97747	41855.8625
1338.47502	42157.6625
1341.97022	42722.9625
1345.46305	42928.2625
1348.95352	42857.5625
1352.44163	43026.0625
1355.92738	44302.3625
1359.41078	47539.5625
1362.89183	50774.7625
1366.37053	49496.5625
1369.84688	43923.9625
1373.32088	38346.8625
1376.79254	34839.2625
1380.26186	33209.9625
1383.72883	32558.8625
1387.19347	32040.3625
1390.65578	31539.4625
1394.11575	31304.7625
1397.57339	31489.7625
1401.0287	32035.4625
1404.48168	32739.5625
1407.93234	33378.9625
1411.38068	33649.0625
1414.82669	33252.1625
1418.27039	32217.6625
1421.71177	30907.4625
1425.15083	29828.7625
1428.58758	29079.7625
1432.02203	28920.5625
1435.45416	29082.1625
1438.88399	29446.2625
1442.31151	29768.3625
1445.73673	30077.0625
1449.15965	30485.1625
1452.58027	30744.7625
1455.9986	30774.8625
1459.41463	30957.3625
1462.82837	31381.6625
1466.23982	31950.1625
1469.64898	32651.5625
1473.05586	33051.6625
1476.46045	33228.2625
1479.86276	33395.9625
1483.26279	33634.3625
1486.66054	33966.5625
1490.05602	34396.0625
1493.44922	35049.6625
1496.84016	35859.7625
1500.22882	37159.5625
1503.61521	38983.9625
1506.99934	41385.9625
1510.38121	43904.4625
1513.76081	45172.9625
1517.13816	44313.6625
1520.51324	41533.7625
1523.88607	38427.7625
1527.25665	36166.7625
1530.62498	34800.2625
1533.99105	33934.3625
1537.35488	33471.8625
1540.71647	33001.7625
1544.07581	32672.7625
1547.4329	32300.4625
1550.78776	31891.7625
1554.14038	31719.5625
1557.49077	31776.5625
1560.83892	32002.3625
1564.18484	32204.8625
1567.52853	32356.8625
1570.86999	32410.1625
1574.20922	32455.6625
1577.54624	32428.7625
1580.88103	31861.3625
1584.2136	31348.3625
1587.54395	31582.3625
1590.87208	32939.0625
1594.19801	35041.2625
1597.52172	37364.7625
1600.84321	38178.0625
1604.16251	36682.3625
1607.47959	34000.3625
1610.79447	31204.1625
1614.10715	28643.4625
1617.41763	26620.8625
1620.7259	25217.0625
1624.03199	24574.1625
1627.33587	24546.1625
1630.63757	25231.3625
1633.93707	26628.6625
1637.23439	28653.6625
1640.52951	31136.1625
1643.82246	33931.5625
1647.11321	36399.6625
1650.40179	37588.3625
1653.68819	35976.1625
1656.97241	31872.2625
1660.25446	27463.3625
1663.53433	24198.5625
1666.81203	22081.2625
1670.08756	20768.5625
1673.36092	19982.7625
1676.63211	19417.7625
1679.90115	19023.2625
1683.16801	18723.0625
1686.43272	18550.7625
1689.69527	18398.3625
1692.95567	18279.3625
1696.2139	18219.4625
1699.46999	18200.8625
1702.72392	18133.6625
1705.97571	18073.2625
1709.22535	18008.2625
1712.47284	17957.8625
1715.71819	17953.8625
1718.96139	17957.3625
1722.20246	17891.0625
1725.44139	17810.4625
1728.67818	17711.2625
1731.91284	17589.5625
1735.14537	17486.3625
1738.37576	17404.4625
1741.60403	17376.6625
1744.83017	17287.3625
1748.05418	17259.7625
1751.27607	17227.5625
1754.49584	17221.5625
1757.71349	17238.9625
1760.92903	17187.3625
1764.14244	17200.5625
1767.35375	17178.3625
1770.56294	17156.1625
1773.77002	17102.2625
1776.97499	17053.6625
1780.17785	17008.7625
1783.37861	17006.6625
1786.57727	16948.1625
1789.77382	16941.7625
1792.96828	16954.3625
1796.16064	16930.2625
1799.3509	16887.9625
1802.53907	16892.9625
1805.72514	16839.8625
1808.90913	16796.3625
1812.09102	16760.5625
1815.27083	16743.1625
1818.44856	16711.7625
1821.6242	16658.9625
1824.79776	16634.9625
1827.96924	16662.7625
1831.13864	16617.8625
1834.30597	16641.5625
1837.47122	16622.6625
1840.6344	16611.7625
1843.7955	16658.5625
1846.95454	16643.0625
1850.11151	16639.8625
1853.26642	16647.0625
1856.41926	16657.9625
1859.57004	16665.9625
1862.71876	16656.7625
1865.86542	16646.2625
1869.01003	16655.0625
1872.15258	16653.6625
1875.29308	16681.9625
1878.43152	16663.9625
1881.56792	16671.6625
1884.70227	16690.5625
1887.83457	16718.5625
1890.96482	16744.6625
1894.09304	16708.3625
1897.21921	16713.9625
1900.34335	16725.9625
1903.46544	16721.1625
1906.58551	16714.7625
1909.70353	16740.2625
1912.81953	16748.5625
1915.93349	16751.7625
1919.04543	16730.5625
1922.15534	16684.9625
1925.26322	16660.8625
1928.36908	16607.5625
1931.47292	16554.0625
1934.57473	16499.8625
1937.67453	16402.3625
1940.77232	16343.8625
1943.86808	16284.6625
1946.96184	16179.0625
1950.05358	16126.0625
1953.14331	16067.9625
1956.23103	16000.4625
1959.31675	15924.6625
1962.40046	15880.6625
1965.48217	15850.6625
1968.56188	15799.2625
1971.63959	15749.3625
1974.7153	15687.6625
1977.78901	15649.7625
1980.86073	15585.0625
1983.93046	15570.8625
1986.99819	15516.3625
1990.06394	15452.7625
1993.1277	15426.3625
1996.18947	15351.7625
1999.24925	15298.2625
2002.30706	15288.9625
2005.36288	15215.2625
2008.41672	15199.0625
2011.46859	15123.7625
2014.51848	15142.8625
2017.56639	15097.6625
2020.61233	15059.9625
2023.6563	15018.1625
2026.6983	14980.2625
2029.73833	14939.4625
2032.7764	14922.4625
2035.8125	14914.8625
2038.84664	14885.5625
2041.87881	14828.1625
2044.90903	14807.9625
2047.93729	14792.4625
2050.96359	14814.5625
2053.98794	14766.3625
2057.01034	14742.7625
2060.03078	14738.6625
2063.04927	14720.2625
2066.06582	14740.7625
2069.08042	14699.4625
2072.09307	14691.2625
2075.10378	14644.7625
2078.11255	14640.4625
2081.11938	14654.8625
2084.12426	14630.5625
2087.12722	14618.6625
2090.12824	14632.8625
2093.12732	14572.7625
2096.12447	14578.4625
2099.11969	14590.1625
2102.11299	14594.9625
2105.10435	14568.1625
2108.09379	14572.5625
2111.08131	14601.1625
2114.0669	14581.8625
2117.05057	14594.9625
2120.03233	14612.7625
2123.01216	14634.7625
2125.99008	14664.2625
2128.96609	14672.8625
2131.94018	14699.9625
2134.91236	14708.6625
2137.88263	14689.1625
2140.851	14676.0625
2143.81746	14721.8625
2146.78201	14705.5625
2149.74466	14695.1625
2152.7054	14684.9625
2155.66425	14684.5625
2158.6212	14689.3625
2161.57625	14685.7625
2164.52941	14708.8625
2167.48067	14684.1625
2170.43004	14686.0625
2173.37752	14668.2625
2176.32311	14630.0625
2179.26681	14697.6625
2182.20863	14714.1625
2185.14856	14683.6625
2188.08661	14671.1625
2191.02278	14676.0625
2193.95707	14689.3625
2196.88948	14668.5625
2199.82001	14697.1625
2202.74867	14651.7625
2205.67545	14651.7625
2208.60037	14644.9625
2211.52341	14671.5625
2214.44458	14658.4625
2217.36388	14613.9625
2220.28132	14591.5625
2223.1969	14570.0625
2226.11061	14570.0625
2229.02246	14524.1625
2231.93245	14490.9625
2234.84058	14421.2625
2237.74686	14425.7625
2240.65128	14417.0625
2243.55385	14362.1625
2246.45456	14370.1625
2249.35343	14342.3625
2252.25044	14343.3625
2255.14561	14333.5625
2258.03893	14326.7625
2260.93041	14282.8625
2263.82004	14269.3625
2266.70783	14231.2625
2269.59378	14183.5625
2272.4779	14120.6625
2275.36017	14113.4625
2278.24061	14067.7625
2281.11922	14042.6625
2283.996	14045.0625
2286.87094	14032.1625
2289.74405	14022.3625
2292.61534	14004.6625
2295.4848	14006.6625
2298.35243	14015.6625
2301.21824	14014.5625
2304.08223	14007.2625
2306.94439	13998.5625
2309.80474	14045.5625
2312.66327	14050.1625
2315.51999	14055.6625
2318.37489	14027.9625
2321.22797	14062.0625
2324.07925	14016.2625
2326.92871	14006.8625
2329.77637	13994.7625
2332.62222	13991.1625
2335.46626	13978.1625
2338.3085	13978.3625
2341.14893	14009.0625
2343.98756	14025.0625
2346.8244	14050.8625
2349.65943	14048.7625
2352.49267	14052.1625
2355.32411	14062.1625
2358.15376	14066.3625
2360.98161	14048.3625
2363.80768	14043.5625
2366.63195	14031.1625
2369.45444	13979.6625
2372.27514	13981.4625
2375.09405	13954.0625
2377.91118	13913.9625
2380.72652	13838.1625
2383.54009	13797.7625
2386.35187	13769.4625
2389.16188	13738.2625
2391.97011	13693.4625
2394.77657	13678.8625
2397.58125	13668.4625
2400.38416	13657.9625
2403.18529	13638.9625
2405.98466	13589.0625
2408.78226	13565.8625
2411.57809	13548.9625
2414.37216	13520.5625
2417.16446	13484.2625
2419.955	13476.2625
2422.74378	13479.5625
2425.5308	13456.3625
2428.31606	13437.4625
2431.09956	13460.1625
2433.88131	13446.7625
2436.6613	13436.0625
2439.43954	13421.4625
2442.21603	13421.1625
2444.99077	13421.8625
2447.76377	13396.3625
2450.53501	13400.6625
2453.30451	13417.5625
2456.07226	13398.2625
2458.83827	13403.3625
2461.60254	13436.1625
2464.36507	13364.2625
2467.12586	13340.3625
2469.88492	13362.5625
2472.64224	13381.5625
2475.39782	13418.8625
2478.15167	13425.8625
2480.90379	13420.8625
2483.65417	13463.4625
2486.40283	13476.2625
2489.14976	13503.0625
2491.89497	13487.8625
2494.63845	13524.8625
2497.3802	13520.7625
2500.12024	13522.9625
2502.85855	13497.6625
2505.59514	13502.0625
2508.33002	13449.4625
2511.06318	13417.6625
2513.79462	13415.6625
2516.52435	13379.9625
2519.25237	13364.1625
2521.97867	13372.4625
2524.70327	13347.2625
2527.42616	13318.9625
2530.14734	13330.1625
2532.86681	13327.7625
2535.58458	13334.3625
2538.30065	13304.8625
2541.01501	13331.1625
2543.72768	13322.1625
2546.43864	13314.6625
2549.14791	13287.0625
2551.85548	13300.0625
2554.56136	13282.1625
2557.26554	13257.7625
2559.96803	13221.5625
2562.66883	13220.0625
2565.36794	13209.2625
2568.06536	13196.1625
2570.7611	13201.1625
2573.45514	13178.4625
2576.14751	13177.9625
2578.83819	13161.6625
2581.52719	13174.4625
2584.21451	13173.3625
2586.90015	13160.5625
2589.58411	13155.4625
2592.2664	13175.4625
2594.94701	13141.2625
2597.62594	13170.0625
2600.30321	13115.1625
2602.9788	13127.0625
2605.65273	13112.7625
2608.32498	13137.7625
2610.99557	13148.1625
2613.66449	13123.5625
2616.33175	13113.5625
2618.99734	13165.5625
2621.66128	13153.4625
2624.32355	13146.1625
2626.98416	13155.6625
2629.64311	13171.6625
2632.30041	13144.2625
2634.95605	13143.3625
2637.61004	13095.6625
2640.26238	13093.4625
2642.91306	13048.9625
2645.56209	13038.6625
2648.20948	13023.4625
2650.85521	13041.6625
2653.4993	13006.8625
2656.14175	12984.0625
2658.78255	13038.0625
2661.42171	13045.6625
2664.05923	13040.7625
2666.6951	13068.1625
2669.32934	13114.3625
2671.96194	13108.1625
2674.59291	13116.7625
2677.22224	13133.6625
2679.84993	13124.2625
2682.476	13079.0625
2685.10043	13092.5625
2687.72324	13047.9625
2690.34441	13061.5625
2692.96396	13049.1625
2695.58188	13021.2625
2698.19818	13007.0625
2700.81285	13044.3625
2703.4259	13040.6625
2706.03733	13070.8625
2708.64714	13036.0625
2711.25533	13060.7625
2713.86191	13026.1625
2716.46687	13063.1625
2719.07021	13033.9625
2721.67194	13060.8625
2724.27206	13080.3625
2726.87057	13076.7625
2729.46747	13081.1625
2732.06276	13100.5625
2734.65644	13097.1625
2737.24852	13074.8625
2739.83899	13063.2625
2742.42786	13104.2625
2745.01513	13070.5625
2747.60079	13065.5625
2750.18486	13041.9625
2752.76733	13047.0625
2755.3482	13024.2625
2757.92747	13013.5625
2760.50515	13006.3625
2763.08123	12984.0625
2765.65573	12990.0625
2768.22863	12996.7625
2770.79994	12978.4625
2773.36967	12994.8625
2775.9378	12981.4625
2778.50435	12980.8625
2781.06932	12997.2625
2783.6327	13019.2625
2786.1945	12981.2625
2788.75471	12988.8625
2791.31335	12963.3625
2793.87041	12945.2625
2796.42589	12917.8625
2798.97979	12924.5625
2801.53212	12905.7625
2804.08288	12876.8625
2806.63206	12859.3625
2809.17967	12833.5625
2811.72571	12800.8625
2814.27018	12816.8625
2816.81308	12806.6625
2819.35442	12815.3625
2821.89419	12751.8625
2824.43239	12792.6625
2826.96904	12752.5625
2829.50412	12763.0625
2832.03763	12745.9625
2834.56959	12739.2625
2837.1	12729.8625
2839.62884	12748.3625
2842.15613	12719.6625
2844.68186	12765.5625
2847.20604	12720.2625
2849.72867	12781.1625
2852.24974	12716.1625
2854.76927	12728.5625
2857.28724	12699.5625
2859.80367	12669.9625
2862.31855	12696.8625
2864.83189	12676.3625
2867.34368	12640.4625
2869.85393	12674.6625
2872.36264	12635.9625
2874.8698	12615.9625
2877.37543	12639.0625
2879.87952	12644.9625
2882.38207	12631.6625
2884.88308	12646.6625
2887.38256	12645.1625
2889.88051	12658.4625
2892.37692	12648.3625
2894.8718	12662.0625
2897.36515	12682.7625
2899.85698	12678.3625
2902.34727	12689.9625
2904.83604	12696.6625
2907.32328	12732.3625
2909.809	12718.3625
2912.29319	12730.6625
2914.77587	12751.9625
2917.25702	12739.7625
2919.73665	12708.6625
2922.21476	12706.1625
2924.69136	12670.5625
2927.16644	12655.6625
2929.64	12652.3625
2932.11205	12626.1625
2934.58258	12571.3625
2937.05161	12585.3625
2939.51912	12588.0625
2941.98513	12559.1625
2944.44962	12549.6625
2946.91261	12492.3625
2949.37409	12531.9625
2951.83407	12468.4625
2954.29254	12501.9625
2956.74951	12495.6625
2959.20498	12521.8625
2961.65895	12456.0625
2964.11142	12466.6625
2966.56239	12439.7625
2969.01186	12451.4625
2971.45984	12395.5625
2973.90632	12396.3625
2976.35131	12351.2625
2978.7948	12328.1625
2981.23681	12317.0625
2983.67732	12295.3625
2986.11635	12262.6625
2988.55388	12235.3625
2990.98993	12218.0625
2993.4245	12195.1625
2995.85758	12140.1625
2998.28917	12129.9625
3000.71928	12104.2625
3003.14791	12085.0625
3005.57506	12065.8625
3008.00073	11993.5625
3010.42493	11895.2625
3012.84764	11962.2625
3015.26888	11976.5625
3017.68865	11933.5625
3020.10694	11937.9625
3022.52376	11892.1625
3024.9391	11881.8625
