Data from AgNP_FTO_APTES_UA_10uM_CRN_200uM_R6G_10uM_NaF_0.1M_Addition_RamanShift__16__18-19-20-899.txt Node

Date: Thu Feb 10 18:19:20 GMT 2022
User: TCL
Spectrometer: QEP01345
Trigger mode: 4
Integration Time (sec): 7.000000E0
Scans to average: 10
Electric dark correction enabled: true
Nonlinearity correction enabled: false
Boxcar width: 0
XAxis mode: Raman Shifts
Number of Pixels in Spectrum: 1044
>>>>>Begin Spectral Data<<<<<
46.04893	0.475
50.45542	-0.425
54.85868	-1.325
59.25871	-1.525
63.6555	56.675
68.04907	58.975
72.43941	62.275
76.82654	59.475
81.21044	66.575
85.59113	69.575
89.96862	69.675
94.34289	73.375
98.71396	75.875
103.08183	76.675
107.4465	82.075
111.80798	82.275
116.16626	86.675
120.52136	87.175
124.87327	93.975
129.222	97.875
133.56755	102.475
137.90993	105.875
142.24913	115.775
146.58517	127.175
150.91804	150.575
155.24774	175.175
159.57429	216.075
163.89768	270.475
168.21792	357.075
172.53501	483.575
176.84895	678.975
181.15975	953.675
185.46741	1339.575
189.77193	1868.375
194.07331	2484.575
198.37157	3219.675
202.6667	3973.875
206.9587	4735.675
211.24758	5459.175
215.53334	6213.275
219.81599	6976.875
224.09553	7816.075
228.37195	8716.375
232.64527	9730.175
236.91549	10825.975
241.18261	11924.475
245.44663	13000.975
249.70755	13986.675
253.96539	14848.875
258.22014	15611.375
262.4718	16153.675
266.72039	16620.975
270.96589	16870.375
275.20832	16957.975
279.44768	16855.575
283.68397	16728.475
287.91719	16612.875
292.14735	16487.175
296.37445	16448.875
300.59849	16471.975
304.81948	16449.075
309.03742	16382.775
313.25231	16183.375
317.46415	15877.675
321.67296	15502.475
325.87872	15234.775
330.08145	15122.475
334.28114	15138.475
338.47781	15245.175
342.67145	15435.975
346.86207	15639.175
351.04966	15910.375
355.23424	16149.275
359.4158	16411.675
363.59435	16642.275
367.76989	16789.675
371.94243	16933.375
376.11196	17024.575
380.27849	17119.375
384.44203	17259.075
388.60257	17369.275
392.76012	17512.175
396.91468	17649.575
401.06626	17844.975
405.21485	18003.775
409.36047	17946.275
413.50311	17786.575
417.64277	17608.075
421.77947	17596.875
425.9132	17597.975
430.04396	17719.075
434.17176	17796.575
438.2966	17940.075
442.41849	18128.675
446.53742	18427.075
450.6534	18737.575
454.76644	19036.175
458.87653	19166.375
462.98368	19150.975
467.08789	19057.275
471.18916	19011.675
475.2875	18905.675
479.38291	18886.175
483.4754	18795.675
487.56496	18635.175
491.6516	18460.475
495.73531	18252.775
499.81612	18150.275
503.89401	18214.175
507.96899	18250.175
512.04106	18285.975
516.11023	18276.075
520.1765	18209.175
524.23987	18077.575
528.30034	17956.175
532.35792	17874.475
536.41261	17768.975
540.46441	17691.375
544.51333	17723.975
548.55936	17869.575
552.60252	18097.275
556.64279	18404.875
560.6802	18568.175
564.71473	18675.875
568.7464	18841.175
572.7752	19084.275
576.80114	19276.575
580.82422	19458.375
584.84444	19522.075
588.86181	19627.675
592.87633	19691.675
596.888	19669.875
600.89682	19722.975
604.9028	20106.075
608.90594	21279.875
612.90624	22730.375
616.90371	21866.375
620.89834	19346.075
624.89015	18268.675
628.87913	18167.275
632.86528	18214.075
636.84862	18247.175
640.82913	18146.275
644.80683	17906.575
648.78172	17638.075
652.75379	17613.275
656.72306	17739.075
660.68952	17954.275
664.65319	17907.875
668.61405	17718.475
672.57211	17665.675
676.52738	17700.875
680.47986	17763.575
684.42955	17731.475
688.37646	17660.475
692.32058	17697.875
696.26192	17769.375
700.20048	17927.175
704.13626	17990.175
708.06928	17997.775
711.99952	17947.175
715.927	17894.175
719.85171	17912.375
723.77365	17855.875
727.69284	17800.375
731.60928	17673.675
735.52295	17661.875
739.43388	17620.475
743.34206	17635.975
747.24749	17701.975
751.15017	17777.675
755.05012	17920.075
758.94733	18188.775
762.8418	18801.275
766.73354	19713.375
770.62254	20689.975
774.50882	20996.075
778.39237	20437.475
782.27321	19386.475
786.15132	18523.475
790.02671	17937.775
793.89938	17682.575
797.76935	17565.475
801.6366	17559.675
805.50115	17510.175
809.36299	17428.975
813.22213	17342.975
817.07857	17372.675
820.93231	17284.175
824.78336	17268.675
828.63172	17262.875
832.47738	17276.575
836.32036	17248.775
840.16066	17267.175
843.99827	17283.375
847.8332	17299.475
851.66546	17275.675
855.49504	17254.575
859.32195	17303.875
863.1462	17274.475
866.96777	17257.175
870.78668	17236.775
874.60293	17232.075
878.41652	17240.975
882.22745	17282.075
886.03573	17303.475
889.84136	17280.975
893.64433	17261.775
897.44466	17214.175
901.24235	17154.975
905.0374	17111.775
908.8298	17078.375
912.61957	17082.575
916.40671	17144.375
920.19121	17266.575
923.97308	17348.075
927.75233	17323.475
931.52895	17290.775
935.30295	17188.475
939.07433	16985.575
942.84309	16833.175
946.60924	16728.175
950.37278	16666.575
954.13371	16658.575
957.89203	16629.775
961.64774	16571.275
965.40086	16533.875
969.15137	16477.175
972.89929	16439.675
976.64461	16415.375
980.38733	16406.875
984.12747	16462.675
987.86502	16540.875
991.59999	16640.875
995.33237	16815.875
999.06217	17020.675
1002.78939	17224.375
1006.51404	17338.875
1010.23611	17401.075
1013.95561	17503.575
1017.67255	17527.175
1021.38692	17472.675
1025.09872	17351.475
1028.80796	17364.975
1032.51465	17482.375
1036.21877	17701.875
1039.92035	17740.275
1043.61937	17664.075
1047.31584	17538.975
1051.00976	17376.175
1054.70114	17370.875
1058.38998	17388.075
1062.07627	17551.475
1065.76003	17607.275
1069.44126	17693.075
1073.11995	17748.075
1076.79611	17879.375
1080.46974	17968.675
1084.14085	18027.375
1087.80943	18104.175
1091.47549	18235.175
1095.13903	18233.975
1098.80005	18115.575
1102.45857	17917.075
1106.11456	17755.875
1109.76805	17715.775
1113.41903	17740.975
1117.06751	17812.375
1120.71348	17976.575
1124.35696	18070.075
1127.99793	18270.475
1131.63641	18373.775
1135.2724	18261.375
1138.90589	18085.775
1142.5369	17977.175
1146.16542	17938.375
1149.79145	17944.275
1153.415	17998.075
1157.03607	18176.875
1160.65467	18452.575
1164.27079	18927.575
1167.88443	19547.575
1171.49561	20312.675
1175.10432	21292.775
1178.71056	22473.775
1182.31434	23613.075
1185.91565	24320.675
1189.51451	24395.875
1193.11091	24025.275
1196.70485	23288.075
1200.29634	22542.775
1203.88538	21982.275
1207.47197	21522.075
1211.05612	21073.875
1214.63782	20701.675
1218.21708	20429.275
1221.79391	20217.275
1225.36829	20078.575
1228.94024	19930.375
1232.50976	19707.675
1236.07685	19586.975
1239.6415	19431.475
1243.20374	19503.775
1246.76355	19603.675
1250.32093	19791.975
1253.8759	20041.475
1257.42845	20369.275
1260.97859	20692.775
1264.52631	21040.875
1268.07163	21379.075
1271.61453	21732.975
1275.15503	22144.275
1278.69312	22526.475
1282.22882	22900.875
1285.76211	23218.375
1289.29301	23668.375
1292.82151	24286.875
1296.34761	25112.475
1299.87133	26107.675
1303.39266	27221.975
1306.9116	28375.375
1310.42815	29519.175
1313.94233	30198.275
1317.45412	30155.075
1320.96354	29688.275
1324.47058	29176.075
1327.97525	28809.575
1331.47754	28477.175
1334.97747	28426.275
1338.47502	28412.575
1341.97022	28538.975
1345.46305	28545.875
1348.95352	28405.475
1352.44163	28399.475
1355.92738	28585.175
1359.41078	29242.975
1362.89183	29918.975
1366.37053	29387.675
1369.84688	27408.675
1373.32088	25185.275
1376.79254	23702.675
1380.26186	23020.375
1383.72883	22894.175
1387.19347	22843.575
1390.65578	22769.775
1394.11575	22716.175
1397.57339	22816.575
1401.0287	22998.775
1404.48168	23094.975
1407.93234	23051.775
1411.38068	22745.475
1414.82669	22220.875
1418.27039	21622.075
1421.71177	21030.675
1425.15083	20526.875
1428.58758	20206.075
1432.02203	20230.275
1435.45416	20461.475
1438.88399	20799.575
1442.31151	21100.775
1445.73673	21361.575
1449.15965	21559.975
1452.58027	21720.375
1455.9986	21882.675
1459.41463	22034.275
1462.82837	22292.275
1466.23982	22472.575
1469.64898	22656.575
1473.05586	22764.275
1476.46045	22779.275
1479.86276	22666.275
1483.26279	22572.275
1486.66054	22458.375
1490.05602	22482.975
1493.44922	22685.975
1496.84016	22955.675
1500.22882	23471.675
1503.61521	24281.175
1506.99934	25251.575
1510.38121	26017.975
1513.76081	26233.275
1517.13816	25775.575
1520.51324	24858.175
1523.88607	23998.975
1527.25665	23494.375
1530.62498	23246.075
1533.99105	23101.975
1537.35488	22989.175
1540.71647	22790.175
1544.07581	22483.975
1547.4329	22156.475
1550.78776	21908.875
1554.14038	21694.875
1557.49077	21628.775
1560.83892	21636.175
1564.18484	21658.075
1567.52853	21761.575
1570.86999	21874.475
1574.20922	22105.675
1577.54624	22276.875
1580.88103	22254.175
1584.2136	22184.575
1587.54395	22335.575
1590.87208	22818.275
1594.19801	23595.775
1597.52172	24387.775
1600.84321	24728.675
1604.16251	24143.875
1607.47959	23023.675
1610.79447	21826.575
1614.10715	20650.675
1617.41763	19596.875
1620.7259	18817.075
1624.03199	18343.575
1627.33587	18249.175
1630.63757	18462.975
1633.93707	19079.375
1637.23439	20127.475
1640.52951	21584.275
1643.82246	23269.675
1647.11321	24694.775
1650.40179	25155.775
1653.68819	24207.675
1656.97241	22179.375
1660.25446	20022.475
1663.53433	18382.275
1666.81203	17251.575
1670.08756	16491.375
1673.36092	16009.575
1676.63211	15737.375
1679.90115	15512.375
1683.16801	15301.875
1686.43272	15188.675
1689.69527	15083.075
1692.95567	15044.875
1696.2139	14974.475
1699.46999	14956.975
1702.72392	14925.275
1705.97571	14853.075
1709.22535	14824.475
1712.47284	14818.475
1715.71819	14772.175
1718.96139	14780.975
1722.20246	14739.875
1725.44139	14675.175
1728.67818	14620.075
1731.91284	14555.175
1735.14537	14474.775
1738.37576	14422.875
1741.60403	14423.475
1744.83017	14397.575
1748.05418	14341.775
1751.27607	14331.575
1754.49584	14340.375
1757.71349	14345.975
1760.92903	14321.775
1764.14244	14279.875
1767.35375	14296.475
1770.56294	14250.275
1773.77002	14233.175
1776.97499	14188.775
1780.17785	14146.375
1783.37861	14136.975
1786.57727	14088.675
1789.77382	14062.875
1792.96828	14051.675
1796.16064	14038.375
1799.3509	13975.475
1802.53907	13956.475
1805.72514	13943.775
1808.90913	13878.675
1812.09102	13879.575
1815.27083	13829.175
1818.44856	13794.875
1821.6242	13800.475
1824.79776	13775.175
1827.96924	13774.275
1831.13864	13756.675
1834.30597	13722.375
1837.47122	13735.475
1840.6344	13724.675
1843.7955	13720.075
1846.95454	13672.875
1850.11151	13684.875
1853.26642	13681.175
1856.41926	13651.875
1859.57004	13672.275
1862.71876	13641.275
1865.86542	13632.275
1869.01003	13640.375
1872.15258	13619.275
1875.29308	13595.775
1878.43152	13593.675
1881.56792	13570.675
1884.70227	13571.275
1887.83457	13537.275
1890.96482	13505.675
1894.09304	13471.975
1897.21921	13451.475
1900.34335	13429.075
1903.46544	13427.175
1906.58551	13427.975
1909.70353	13382.275
1912.81953	13398.575
1915.93349	13382.175
1919.04543	13318.575
1922.15534	13284.375
1925.26322	13271.075
1928.36908	13253.675
1931.47292	13227.975
1934.57473	13223.675
1937.67453	13163.375
1940.77232	13134.175
1943.86808	13107.875
1946.96184	13078.175
1950.05358	13038.075
1953.14331	13000.775
1956.23103	12954.875
1959.31675	12919.475
1962.40046	12870.275
1965.48217	12841.975
1968.56188	12814.375
1971.63959	12741.675
1974.7153	12728.875
1977.78901	12678.275
1980.86073	12647.275
1983.93046	12626.575
1986.99819	12596.175
1990.06394	12553.875
1993.1277	12546.775
1996.18947	12483.875
1999.24925	12454.075
2002.30706	12393.775
2005.36288	12382.875
2008.41672	12344.875
2011.46859	12296.075
2014.51848	12295.375
2017.56639	12257.475
2020.61233	12223.375
2023.6563	12185.175
2026.6983	12156.175
2029.73833	12152.075
2032.7764	12071.675
2035.8125	12069.475
2038.84664	12059.575
2041.87881	12019.975
2044.90903	11975.075
2047.93729	11929.575
2050.96359	11969.375
2053.98794	11922.675
2057.01034	11908.575
2060.03078	11883.875
2063.04927	11887.475
2066.06582	11895.175
2069.08042	11907.375
2072.09307	11881.175
2075.10378	11905.875
2078.11255	11883.875
2081.11938	11875.675
2084.12426	11861.275
2087.12722	11853.575
2090.12824	11832.675
2093.12732	11821.475
2096.12447	11827.975
2099.11969	11847.575
2102.11299	11803.875
2105.10435	11820.475
2108.09379	11827.375
2111.08131	11845.675
2114.0669	11835.575
2117.05057	11832.775
2120.03233	11875.575
2123.01216	11873.975
2125.99008	11880.275
2128.96609	11883.075
2131.94018	11882.275
2134.91236	11879.475
2137.88263	11903.375
2140.851	11927.875
2143.81746	11911.975
2146.78201	11922.375
2149.74466	11916.375
2152.7054	11922.175
2155.66425	11917.775
2158.6212	11911.475
2161.57625	11895.075
2164.52941	11883.275
2167.48067	11895.675
2170.43004	11898.675
2173.37752	11873.075
2176.32311	11884.375
2179.26681	11881.075
2182.20863	11892.275
2185.14856	11878.575
2188.08661	11884.075
2191.02278	11871.675
2193.95707	11877.575
2196.88948	11902.675
2199.82001	11865.675
2202.74867	11813.375
2205.67545	11821.175
2208.60037	11827.375
2211.52341	11788.575
2214.44458	11799.875
2217.36388	11774.875
2220.28132	11746.075
2223.1969	11720.875
2226.11061	11704.575
2229.02246	11684.275
2231.93245	11636.775
2234.84058	11617.975
2237.74686	11599.975
2240.65128	11601.875
2243.55385	11572.775
2246.45456	11531.275
2249.35343	11512.075
2252.25044	11523.075
2255.14561	11470.575
2258.03893	11511.075
2260.93041	11472.075
2263.82004	11464.175
2266.70783	11400.475
2269.59378	11369.075
2272.4779	11330.675
2275.36017	11299.075
2278.24061	11293.575
2281.11922	11295.775
2283.996	11263.075
2286.87094	11230.275
2289.74405	11259.675
2292.61534	11239.875
2295.4848	11221.875
2298.35243	11226.075
2301.21824	11201.075
2304.08223	11198.775
2306.94439	11222.275
2309.80474	11204.675
2312.66327	11204.975
2315.51999	11181.975
2318.37489	11177.675
2321.22797	11149.375
2324.07925	11137.475
2326.92871	11112.975
2329.77637	11106.575
2332.62222	11083.475
2335.46626	11057.475
2338.3085	11067.075
2341.14893	11065.075
2343.98756	11046.675
2346.8244	11035.075
2349.65943	11067.875
2352.49267	11024.475
2355.32411	11040.575
2358.15376	11019.075
2360.98161	11027.775
2363.80768	11007.175
2366.63195	10998.675
2369.45444	10996.675
2372.27514	10976.275
2375.09405	10932.875
2377.91118	10937.575
2380.72652	10924.775
2383.54009	10863.175
2386.35187	10845.675
2389.16188	10814.475
2391.97011	10809.875
2394.77657	10748.175
2397.58125	10760.475
2400.38416	10746.675
2403.18529	10747.875
2405.98466	10715.875
2408.78226	10669.675
2411.57809	10655.975
2414.37216	10646.775
2417.16446	10639.875
2419.955	10636.775
2422.74378	10630.675
2425.5308	10613.875
2428.31606	10610.875
2431.09956	10607.275
2433.88131	10586.475
2436.6613	10591.675
2439.43954	10568.575
2442.21603	10569.675
2444.99077	10583.775
2447.76377	10566.575
2450.53501	10546.975
2453.30451	10530.175
2456.07226	10509.075
2458.83827	10501.975
2461.60254	10519.975
2464.36507	10502.675
2467.12586	10508.475
2469.88492	10481.875
2472.64224	10466.275
2475.39782	10448.975
2478.15167	10436.275
2480.90379	10458.375
2483.65417	10477.375
2486.40283	10462.575
2489.14976	10446.675
2491.89497	10469.075
2494.63845	10469.475
2497.3802	10438.175
2500.12024	10436.575
2502.85855	10427.675
2505.59514	10418.475
2508.33002	10406.875
2511.06318	10371.275
2513.79462	10350.575
2516.52435	10350.975
2519.25237	10354.875
2521.97867	10340.075
2524.70327	10335.975
2527.42616	10328.875
2530.14734	10335.175
2532.86681	10299.375
2535.58458	10326.975
2538.30065	10310.675
2541.01501	10308.375
2543.72768	10279.875
2546.43864	10274.675
2549.14791	10251.675
2551.85548	10245.075
2554.56136	10225.075
2557.26554	10193.275
2559.96803	10159.875
2562.66883	10142.475
2565.36794	10140.475
2568.06536	10114.775
2570.7611	10115.075
2573.45514	10083.575
2576.14751	10056.675
2578.83819	10068.575
2581.52719	10040.275
2584.21451	10010.975
2586.90015	10030.675
2589.58411	9999.275
2592.2664	9994.375
2594.94701	9963.275
2597.62594	9984.875
2600.30321	9959.275
2602.9788	9934.675
2605.65273	9909.375
2608.32498	9893.075
2610.99557	9883.675
2613.66449	9886.875
2616.33175	9896.475
2618.99734	9877.875
2621.66128	9855.775
2624.32355	9865.275
2626.98416	9871.575
2629.64311	9836.075
2632.30041	9827.775
2634.95605	9829.575
2637.61004	9781.475
2640.26238	9760.875
2642.91306	9784.775
2645.56209	9795.475
2648.20948	9776.475
2650.85521	9760.375
2653.4993	9746.975
2656.14175	9747.475
2658.78255	9749.275
2661.42171	9745.275
2664.05923	9770.975
2666.6951	9767.975
2669.32934	9774.475
2671.96194	9768.675
2674.59291	9764.275
2677.22224	9760.475
2679.84993	9763.975
2682.476	9763.375
2685.10043	9752.275
2687.72324	9695.575
2690.34441	9743.975
2692.96396	9756.675
2695.58188	9726.875
2698.19818	9675.875
2700.81285	9706.775
2703.4259	9724.875
2706.03733	9733.075
2708.64714	9718.475
2711.25533	9734.075
2713.86191	9695.975
2716.46687	9736.775
2719.07021	9728.475
2721.67194	9735.675
2724.27206	9725.775
2726.87057	9748.175
2729.46747	9759.575
2732.06276	9743.175
2734.65644	9723.575
2737.24852	9728.675
2739.83899	9707.675
2742.42786	9715.975
2745.01513	9677.875
2747.60079	9685.575
2750.18486	9631.875
2752.76733	9615.175
2755.3482	9645.175
2757.92747	9641.775
2760.50515	9613.575
2763.08123	9579.275
2765.65573	9583.875
2768.22863	9574.875
2770.79994	9550.075
2773.36967	9571.775
2775.9378	9578.375
2778.50435	9552.275
2781.06932	9548.575
2783.6327	9572.975
2786.1945	9549.475
2788.75471	9529.075
2791.31335	9500.275
2793.87041	9516.275
2796.42589	9470.875
2798.97979	9466.375
2801.53212	9454.075
2804.08288	9427.575
2806.63206	9418.175
2809.17967	9374.775
2811.72571	9375.375
2814.27018	9344.175
2816.81308	9326.775
2819.35442	9300.475
2821.89419	9295.975
2824.43239	9281.875
2826.96904	9271.675
2829.50412	9265.775
2832.03763	9237.975
2834.56959	9271.275
2837.1	9244.775
2839.62884	9231.975
2842.15613	9242.375
2844.68186	9252.275
2847.20604	9250.675
2849.72867	9282.875
2852.24974	9268.575
2854.76927	9264.375
2857.28724	9231.475
2859.80367	9209.375
2862.31855	9199.175
2864.83189	9222.975
2867.34368	9191.875
2869.85393	9185.975
2872.36264	9173.475
2874.8698	9177.475
2877.37543	9156.875
2879.87952	9180.575
2882.38207	9155.075
2884.88308	9166.675
2887.38256	9174.175
2889.88051	9150.675
2892.37692	9149.675
2894.8718	9157.775
2897.36515	9161.875
2899.85698	9156.375
2902.34727	9184.875
2904.83604	9195.875
2907.32328	9193.575
2909.809	9187.275
2912.29319	9187.575
2914.77587	9193.675
2917.25702	9209.275
2919.73665	9191.475
2922.21476	9215.675
2924.69136	9166.775
2927.16644	9166.775
2929.64	9162.075
2932.11205	9155.475
2934.58258	9126.975
2937.05161	9150.075
2939.51912	9123.875
2941.98513	9120.175
2944.44962	9133.575
2946.91261	9062.375
2949.37409	9096.875
2951.83407	9062.975
2954.29254	9081.075
2956.74951	9043.175
2959.20498	9070.475
2961.65895	9039.775
2964.11142	9042.775
2966.56239	9014.775
2969.01186	9038.775
2971.45984	8976.175
2973.90632	9010.175
2976.35131	8988.575
2978.7948	8994.075
2981.23681	8935.575
2983.67732	8915.775
2986.11635	8920.675
2988.55388	8910.475
2990.98993	8857.275
2993.4245	8854.075
2995.85758	8831.275
2998.28917	8807.975
3000.71928	8811.275
3003.14791	8781.875
3005.57506	8780.975
3008.00073	8759.075
3010.42493	8773.075
3012.84764	8733.675
3015.26888	8726.275
3017.68865	8715.375
3020.10694	8718.175
3022.52376	8706.175
3024.9391	8674.275
3027.35298	8653.575
3029.76539	8652.875
3032.17632	8676.875
3034.5858	8670.675
3036.9938	8664.575
3039.40034	8648.975
3041.80542	8643.475
3044.20903	8626.675
3046.61118	8605.075
3049.01187	8586.275
3051.4111	8586.875
3053.80888	8588.675
3056.20519	8559.475
3058.60005	8525.275
3060.99345	8523.875
3063.3854	8503.375
3065.7759	8484.375
3068.16494	8492.775
3070.55254	8470.475
3072.93868	8458.975
3075.32338	8438.475
3077.70662	8447.575
3080.08842	8419.375
3082.46878	8425.275
3084.84769	8394.875
3087.22515	8385.475
3089.60118	8403.675
3091.97576	8386.975
3094.3489	8377.475
3096.72061	8391.475
3099.09087	8412.475
3101.4597	8380.375
3103.82709	8379.775
3106.19305	8377.375
3108.55757	8365.975
3110.92066	8340.075
3113.28232	8359.975
3115.64255	8347.175
3118.00134	8320.675
3120.35871	8306.875
3122.71466	8304.775
3125.06917	8273.175
3127.42226	8266.275
3129.77393	8255.275
3132.12417	8253.575
3134.47299	8258.275
3136.82039	8256.775
3139.16636	8265.375
3141.51092	8251.875
3143.85406	8259.775
3146.19579	8257.975
3148.53609	8248.775
3150.87499	8255.475
3153.21246	8266.275
