Data from AgNP_FTO_APTES_UA_10uM_CRN_1000uM_R6G_10uM_NaF_0.1M_Addition_RamanShift__24__19-49-11-008.txt Node

Date: Thu Feb 10 19:49:11 GMT 2022
User: TCL
Spectrometer: QEP01345
Trigger mode: 4
Integration Time (sec): 7.000000E0
Scans to average: 10
Electric dark correction enabled: true
Nonlinearity correction enabled: false
Boxcar width: 0
XAxis mode: Raman Shifts
Number of Pixels in Spectrum: 1044
>>>>>Begin Spectral Data<<<<<
46.04893	-0.7
50.45542	-0.6
54.85868	-1.4
59.25871	-0.7
63.6555	70.5
68.04907	70.6
72.43941	74.1
76.82654	75.4
81.21044	81
85.59113	82.9
89.96862	85.7
94.34289	92.8
98.71396	92.1
103.08183	95.3
107.4465	97.9
111.80798	98.6
116.16626	104.1
120.52136	107.2
124.87327	114.6
129.222	118.4
133.56755	126.7
137.90993	136.8
142.24913	147.1
146.58517	170.6
150.91804	196.5
155.24774	238.2
159.57429	299.1
163.89768	383.1
168.21792	509.5
172.53501	703
176.84895	982.2
181.15975	1367.7
185.46741	1947.3
189.77193	2689.6
194.07331	3609.6
198.37157	4667
202.6667	5778.8
206.9587	6884
211.24758	7978.7
215.53334	9069.4
219.81599	10264.6
224.09553	11545.3
228.37195	12978
232.64527	14552.1
236.91549	16215.3
241.18261	17826.2
245.44663	19340.5
249.70755	20651.2
253.96539	21805.6
258.22014	22751.7
262.4718	23625
266.72039	24274.2
270.96589	24652.7
275.20832	24714.9
279.44768	24594.3
283.68397	24337
287.91719	24067.3
292.14735	24005.7
296.37445	24105.5
300.59849	24369.2
304.81948	24713.4
309.03742	24850.6
313.25231	24548.7
317.46415	23817.5
321.67296	22835.8
325.87872	21979.8
330.08145	21697.5
334.28114	21677.7
338.47781	21887.3
342.67145	22268.1
346.86207	22817.1
351.04966	23521.2
355.23424	24366.4
359.4158	25072.1
363.59435	25487.4
367.76989	25724.9
371.94243	25884.8
376.11196	25981.1
380.27849	26091.9
384.44203	26122.9
388.60257	26058
392.76012	26037
396.91468	26225.6
401.06626	26650.4
405.21485	26989.1
409.36047	26786.7
413.50311	26162.3
417.64277	25531.5
421.77947	25250.6
425.9132	25211.1
430.04396	25389.7
434.17176	25591
438.2966	25951.5
442.41849	26444.6
446.53742	27148.2
450.6534	27915.4
454.76644	28382.9
458.87653	28524.2
462.98368	28322.4
467.08789	28028.7
471.18916	27690
475.2875	27389.7
479.38291	27191.7
483.4754	27016.6
487.56496	26674.2
491.6516	26250.7
495.73531	25913.2
499.81612	25696.6
503.89401	25785.3
507.96899	25842.9
512.04106	25963.7
516.11023	26094.2
520.1765	26118.8
524.23987	26029.5
528.30034	25799
532.35792	25528.9
536.41261	25316.8
540.46441	24991.3
544.51333	25000.4
548.55936	25137.7
552.60252	25573.4
556.64279	26142.1
560.6802	26503.4
564.71473	26833.2
568.7464	27463.5
572.7752	28054.1
576.80114	27847.1
580.82422	27275.6
584.84444	26955.9
588.86181	27017.4
592.87633	27342.1
596.888	27652.9
600.89682	27844.7
604.9028	29026.4
608.90594	32859.6
612.90624	37986.6
616.90371	36780.2
620.89834	29547.9
624.89015	26138.3
628.87913	25485.3
632.86528	25534.5
636.84862	25652.7
640.82913	25398.9
644.80683	24823.1
648.78172	24314.5
652.75379	24292.4
656.72306	24746.4
660.68952	25346.7
664.65319	25297.7
668.61405	24723.7
672.57211	24500.9
676.52738	24501.3
680.47986	24515.8
684.42955	24477.3
688.37646	24387
692.32058	24443
696.26192	24622.7
700.20048	24826.6
704.13626	24962.4
708.06928	24899
711.99952	24774
715.927	24662.1
719.85171	24692.2
723.77365	24677.2
727.69284	24524.3
731.60928	24390.8
735.52295	24301.9
739.43388	24322.3
743.34206	24391.4
747.24749	24467.4
751.15017	24606.6
755.05012	24920.5
758.94733	25603.7
762.8418	26944.5
766.73354	29231
770.62254	31820.2
774.50882	32988.7
778.39237	31860.6
782.27321	29060.6
786.15132	26572.2
790.02671	25131
793.89938	24437.3
797.76935	24170.3
801.6366	24055.4
805.50115	23987.6
809.36299	23916.4
813.22213	23821.8
817.07857	23878
820.93231	23814.5
824.78336	23822.5
828.63172	23839.4
832.47738	23848.6
836.32036	23804.1
840.16066	23786.9
843.99827	23776.3
847.8332	23714.1
851.66546	23678.5
855.49504	23677.8
859.32195	23665.2
863.1462	23623.3
866.96777	23585.1
870.78668	23532.2
874.60293	23531.9
878.41652	23511.6
882.22745	23591.3
886.03573	23669.2
889.84136	23656.3
893.64433	23538.3
897.44466	23496.8
901.24235	23445.8
905.0374	23373.9
908.8298	23288.1
912.61957	23267.4
916.40671	23330.4
920.19121	23494.2
923.97308	23597.9
927.75233	23713.7
931.52895	23709.2
935.30295	23600.3
939.07433	23266.6
942.84309	22904.7
946.60924	22653.8
950.37278	22583.2
954.13371	22458.6
957.89203	22397.5
961.64774	22365.8
965.40086	22294.5
969.15137	22190.5
972.89929	22096.6
976.64461	22067.5
980.38733	22029.9
984.12747	22081.1
987.86502	22229.6
991.59999	22363
995.33237	22651.3
999.06217	23048.9
1002.78939	23599.7
1006.51404	23971.2
1010.23611	24205
1013.95561	24433.5
1017.67255	24414.5
1021.38692	24189.5
1025.09872	23914.8
1028.80796	23889.8
1032.51465	24103.1
1036.21877	24316.6
1039.92035	24394.4
1043.61937	24226.5
1047.31584	23962.3
1051.00976	23708.9
1054.70114	23579.2
1058.38998	23574.8
1062.07627	23646.1
1065.76003	23763.8
1069.44126	23781.7
1073.11995	23883.4
1076.79611	24030.6
1080.46974	24207.8
1084.14085	24456.3
1087.80943	24815.7
1091.47549	24984.3
1095.13903	24891.4
1098.80005	24484.7
1102.45857	24119.2
1106.11456	23946.3
1109.76805	24012.2
1113.41903	24268.9
1117.06751	24652.5
1120.71348	25089.1
1124.35696	25543.6
1127.99793	25960
1131.63641	26060.5
1135.2724	25526.4
1138.90589	24969.9
1142.5369	24628.2
1146.16542	24483.8
1149.79145	24436.1
1153.415	24477.1
1157.03607	24674.3
1160.65467	25087.9
1164.27079	25810.3
1167.88443	26821.5
1171.49561	28243.6
1175.10432	30405.6
1178.71056	33153.9
1182.31434	35633.1
1185.91565	36648.3
1189.51451	36343.3
1193.11091	35162.7
1196.70485	33660.5
1200.29634	32294.3
1203.88538	31246.8
1207.47197	30222.9
1211.05612	29279.1
1214.63782	28645.8
1218.21708	28429.5
1221.79391	28350.1
1225.36829	28194
1228.94024	27852.1
1232.50976	27475.6
1236.07685	27240.2
1239.6415	27236.8
1243.20374	27362
1246.76355	27533.9
1250.32093	27859.8
1253.8759	28329.1
1257.42845	28982.2
1260.97859	29590.1
1264.52631	30177.6
1268.07163	30768.1
1271.61453	31338.5
1275.15503	31931.9
1278.69312	32403.9
1282.22882	32704.3
1285.76211	33108.7
1289.29301	33860.1
1292.82151	34829.6
1296.34761	36084
1299.87133	37815.6
1303.39266	40065.9
1306.9116	42967.9
1310.42815	46209.9
1313.94233	48353.3
1317.45412	48262.8
1320.96354	46697.7
1324.47058	44883.1
1327.97525	43154
1331.47754	42100.2
1334.97747	41850.2
1338.47502	42251.4
1341.97022	42893.8
1345.46305	43164.9
1348.95352	43203
1352.44163	43554.6
1355.92738	44848.6
1359.41078	47685.9
1362.89183	50697.5
1366.37053	49699.9
1369.84688	44453.2
1373.32088	38978.8
1376.79254	35475.3
1380.26186	33909.3
1383.72883	33407.8
1387.19347	33225.4
1390.65578	33069.6
1394.11575	33001.4
1397.57339	33332.9
1401.0287	34041.5
1404.48168	34750.2
1407.93234	35378
1411.38068	35459
1414.82669	34970.8
1418.27039	33929.2
1421.71177	32642.7
1425.15083	31414.8
1428.58758	30695.7
1432.02203	30578.3
1435.45416	30804.9
1438.88399	31158.6
1442.31151	31517.8
1445.73673	31913.4
1449.15965	32332
1452.58027	32698.9
1455.9986	32854.6
1459.41463	33093.9
1462.82837	33450
1466.23982	33991.4
1469.64898	34529.7
1473.05586	34827.9
1476.46045	34801.3
1479.86276	34691.4
1483.26279	34632.5
1486.66054	34720.6
1490.05602	35000.1
1493.44922	35332.8
1496.84016	35790.2
1500.22882	36769.8
1503.61521	38429.8
1506.99934	40771.6
1510.38121	43232.9
1513.76081	44457.7
1517.13816	43285.5
1520.51324	40347
1523.88607	37260.8
1527.25665	35198.7
1530.62498	34159
1533.99105	33630.2
1537.35488	33467.2
1540.71647	33308
1544.07581	33191
1547.4329	32960.1
1550.78776	32674.9
1554.14038	32513.3
1557.49077	32503.7
1560.83892	32649.6
1564.18484	32870.3
1567.52853	33078.4
1570.86999	33278.1
1574.20922	33510.9
1577.54624	33535
1580.88103	33112.7
1584.2136	32545
1587.54395	32639.2
1590.87208	33630.5
1594.19801	35303.2
1597.52172	37426.9
1600.84321	38430
1604.16251	37564.1
1607.47959	35368.4
1610.79447	32705.6
1614.10715	30124.7
1617.41763	28067.5
1620.7259	26679.3
1624.03199	25856.7
1627.33587	25701.8
1630.63757	26144.2
1633.93707	27264.2
1637.23439	28983.9
1640.52951	31418.8
1643.82246	34347.6
1647.11321	37230.1
1650.40179	38680.5
1653.68819	37366.5
1656.97241	33421.7
1660.25446	29146.4
1663.53433	25989.7
1666.81203	23945.3
1670.08756	22685.7
1673.36092	21920.8
1676.63211	21445.7
1679.90115	21049.7
1683.16801	20813
1686.43272	20616.9
1689.69527	20443
1692.95567	20373.1
1696.2139	20311.4
1699.46999	20263.1
1702.72392	20188.5
1705.97571	20152.9
1709.22535	20116.9
1712.47284	20079.5
1715.71819	20058.1
1718.96139	20006.9
1722.20246	19977.6
1725.44139	19904.4
1728.67818	19797
1731.91284	19695.8
1735.14537	19606.9
1738.37576	19520.4
1741.60403	19449.8
1744.83017	19409.4
1748.05418	19360
1751.27607	19340
1754.49584	19328.7
1757.71349	19274.6
1760.92903	19222.1
1764.14244	19250.2
1767.35375	19232.2
1770.56294	19181.3
1773.77002	19175.6
1776.97499	19153.3
1780.17785	19096.1
1783.37861	19086.4
1786.57727	19012.3
1789.77382	18960.8
1792.96828	18973.6
1796.16064	18926.4
1799.3509	18908.6
1802.53907	18891.3
1805.72514	18831.4
1808.90913	18773.1
1812.09102	18716.2
1815.27083	18697.2
1818.44856	18655.9
1821.6242	18600.6
1824.79776	18583.6
1827.96924	18581.3
1831.13864	18531
1834.30597	18549.1
1837.47122	18497.5
1840.6344	18490.4
1843.7955	18492.6
1846.95454	18493.6
1850.11151	18440.9
1853.26642	18470.5
1856.41926	18471
1859.57004	18458.6
1862.71876	18432.5
1865.86542	18416.7
1869.01003	18416.9
1872.15258	18401.8
1875.29308	18409.6
1878.43152	18399.9
1881.56792	18382.7
1884.70227	18378.3
1887.83457	18350.3
1890.96482	18288.8
1894.09304	18271.9
1897.21921	18286.8
1900.34335	18283.5
1903.46544	18279.4
1906.58551	18285.3
1909.70353	18252
1912.81953	18210.3
1915.93349	18234.6
1919.04543	18189.4
1922.15534	18118.5
1925.26322	18056
1928.36908	18048.9
1931.47292	18025.8
1934.57473	17991.6
1937.67453	17975
1940.77232	17931.3
1943.86808	17851
1946.96184	17774.6
1950.05358	17727.5
1953.14331	17681.3
1956.23103	17608.5
1959.31675	17530.4
1962.40046	17526.5
1965.48217	17476.2
1968.56188	17427.2
1971.63959	17349
1974.7153	17320.6
1977.78901	17259.3
1980.86073	17219.2
1983.93046	17174.6
1986.99819	17090.7
1990.06394	17055.1
1993.1277	17012.8
1996.18947	16927.4
1999.24925	16871.4
2002.30706	16813.7
2005.36288	16760.4
2008.41672	16740.3
2011.46859	16706.4
2014.51848	16661.1
2017.56639	16629.3
2020.61233	16555.8
2023.6563	16540.1
2026.6983	16476.4
2029.73833	16444
2032.7764	16408.1
2035.8125	16370.9
2038.84664	16341.3
2041.87881	16291.3
2044.90903	16249.5
2047.93729	16232
2050.96359	16256
2053.98794	16186.8
2057.01034	16131.4
2060.03078	16144.6
2063.04927	16141.2
2066.06582	16144.6
2069.08042	16151.3
2072.09307	16106.6
2075.10378	16113
2078.11255	16091.1
2081.11938	16075.1
2084.12426	16084.7
2087.12722	16042.2
2090.12824	16015.7
2093.12732	16054.1
2096.12447	16032.1
2099.11969	15985.8
2102.11299	16020.6
2105.10435	16012.3
2108.09379	16008.2
2111.08131	16041.6
2114.0669	16024.6
2117.05057	16009.2
2120.03233	16032.8
2123.01216	16035.7
2125.99008	16045.2
2128.96609	16073.5
2131.94018	16097.1
2134.91236	16112
2137.88263	16114.5
2140.851	16112.5
2143.81746	16162.5
2146.78201	16108.2
2149.74466	16102
2152.7054	16129.4
2155.66425	16098.4
2158.6212	16089
2161.57625	16100.7
2164.52941	16062.5
2167.48067	16042.5
2170.43004	16033.4
2173.37752	16055.1
2176.32311	16050.5
2179.26681	16053.6
2182.20863	16057
2185.14856	16021.6
2188.08661	16018.3
2191.02278	16042.6
2193.95707	16036.3
2196.88948	16016.7
2199.82001	15996.9
2202.74867	15967.3
2205.67545	15946.1
2208.60037	15963.3
2211.52341	15942.2
2214.44458	15953.6
2217.36388	15917.4
2220.28132	15870.9
2223.1969	15783
2226.11061	15776.4
2229.02246	15707.4
2231.93245	15719.1
2234.84058	15662.8
2237.74686	15645.6
2240.65128	15636.2
2243.55385	15581.4
2246.45456	15602.1
2249.35343	15571.1
2252.25044	15567.9
2255.14561	15511.9
2258.03893	15525.1
2260.93041	15471.3
2263.82004	15438.4
2266.70783	15396.9
2269.59378	15349.5
2272.4779	15299.8
2275.36017	15281
2278.24061	15223.8
2281.11922	15213.8
2283.996	15212.2
2286.87094	15194.8
2289.74405	15159.2
2292.61534	15141.1
2295.4848	15160.1
2298.35243	15117.5
2301.21824	15091.8
2304.08223	15117.5
2306.94439	15068.4
2309.80474	15104.8
2312.66327	15099.7
2315.51999	15084.7
2318.37489	15049
2321.22797	15060
2324.07925	15030.7
2326.92871	14992.3
2329.77637	14976.3
2332.62222	14967.8
2335.46626	14911.9
2338.3085	14930.6
2341.14893	14916.8
2343.98756	14947.3
2346.8244	14888.5
2349.65943	14941
2352.49267	14897.4
2355.32411	14900.5
2358.15376	14905.4
2360.98161	14913.5
2363.80768	14868.5
2366.63195	14889.6
2369.45444	14845.2
2372.27514	14842.2
2375.09405	14818.6
2377.91118	14803.9
2380.72652	14747.8
2383.54009	14660.2
2386.35187	14652.9
2389.16188	14576.8
2391.97011	14590.2
2394.77657	14577.2
2397.58125	14521.4
2400.38416	14540.9
2403.18529	14502.9
2405.98466	14481.1
2408.78226	14417
2411.57809	14391
2414.37216	14381
2417.16446	14372
2419.955	14314.7
2422.74378	14317.7
2425.5308	14304.3
2428.31606	14331.8
2431.09956	14292.4
2433.88131	14258.1
2436.6613	14270.9
2439.43954	14267
2442.21603	14232.8
2444.99077	14195.9
2447.76377	14203.7
2450.53501	14199
2453.30451	14194.4
2456.07226	14171.5
2458.83827	14157.4
2461.60254	14184
2464.36507	14140.3
2467.12586	14121.3
2469.88492	14125.1
2472.64224	14098.6
2475.39782	14108.9
2478.15167	14148.6
2480.90379	14116.8
2483.65417	14182.3
2486.40283	14178.2
2489.14976	14184.7
2491.89497	14182.7
2494.63845	14141.9
2497.3802	14147.6
2500.12024	14136.1
2502.85855	14126.1
2505.59514	14090.4
2508.33002	14083.4
2511.06318	14036.3
2513.79462	14046
2516.52435	14002.8
2519.25237	13965
2521.97867	13960.8
2524.70327	13970.2
2527.42616	13953.9
2530.14734	13915.1
2532.86681	13917.4
2535.58458	13934.4
2538.30065	13917.3
2541.01501	13901
2543.72768	13883.8
2546.43864	13893.9
2549.14791	13840.8
2551.85548	13833
2554.56136	13792
2557.26554	13793
2559.96803	13733.6
2562.66883	13740.8
2565.36794	13692.3
2568.06536	13675.8
2570.7611	13662.6
2573.45514	13652.9
2576.14751	13639.1
2578.83819	13581.5
2581.52719	13586
2584.21451	13583.4
2586.90015	13556.7
2589.58411	13561.3
2592.2664	13563.3
2594.94701	13484.2
2597.62594	13511.7
2600.30321	13479.7
2602.9788	13478.1
2605.65273	13437.2
2608.32498	13464
2610.99557	13449.4
2613.66449	13465.7
2616.33175	13416.6
2618.99734	13431.4
2621.66128	13417.2
2624.32355	13418.8
2626.98416	13403.7
2629.64311	13387.7
2632.30041	13375.8
2634.95605	13338.2
2637.61004	13317.3
2640.26238	13292.8
2642.91306	13309.6
2645.56209	13268.6
2648.20948	13276.6
2650.85521	13284.7
2653.4993	13262.2
2656.14175	13305.2
2658.78255	13287.1
2661.42171	13275.1
2664.05923	13307.8
2666.6951	13310.1
2669.32934	13306.9
2671.96194	13298.4
2674.59291	13313.9
2677.22224	13305.3
2679.84993	13288.9
2682.476	13283.4
2685.10043	13270.4
2687.72324	13256.4
2690.34441	13247
2692.96396	13268.8
2695.58188	13242.6
2698.19818	13237.6
2700.81285	13211.3
2703.4259	13244.4
2706.03733	13266.2
2708.64714	13240.8
2711.25533	13254.2
2713.86191	13237.6
2716.46687	13255.9
2719.07021	13262.5
2721.67194	13276.8
2724.27206	13275
2726.87057	13263.1
2729.46747	13261.8
2732.06276	13257.6
2734.65644	13265.6
2737.24852	13278.5
2739.83899	13244.5
2742.42786	13280.8
2745.01513	13206
2747.60079	13211.9
2750.18486	13169.8
2752.76733	13201.1
2755.3482	13169.4
2757.92747	13155.8
2760.50515	13122.3
2763.08123	13158
2765.65573	13098
2768.22863	13106.8
2770.79994	13076.8
2773.36967	13101.1
2775.9378	13070.2
2778.50435	13057.6
2781.06932	13073.3
2783.6327	13052.7
2786.1945	13047.2
2788.75471	13048.1
2791.31335	13030.3
2793.87041	12997
2796.42589	12983.9
2798.97979	12977.4
2801.53212	12941.7
2804.08288	12921.2
2806.63206	12893.2
2809.17967	12846.3
2811.72571	12827.7
2814.27018	12814.3
2816.81308	12803.4
2819.35442	12788.9
2821.89419	12773.1
2824.43239	12753.1
2826.96904	12721.9
2829.50412	12741.2
2832.03763	12713
2834.56959	12750.4
2837.1	12686.1
2839.62884	12710.4
2842.15613	12710.8
2844.68186	12728.3
2847.20604	12758.7
2849.72867	12789.4
2852.24974	12742.2
2854.76927	12723.7
2857.28724	12717.2
2859.80367	12698.6
2862.31855	12689.4
2864.83189	12665.4
2867.34368	12637.7
2869.85393	12626.4
2872.36264	12626
2874.8698	12627
2877.37543	12621.6
2879.87952	12595.8
2882.38207	12616.3
2884.88308	12638.3
2887.38256	12599.4
2889.88051	12589.4
2892.37692	12582.5
2894.8718	12579.2
2897.36515	12622.4
2899.85698	12616.3
2902.34727	12636
2904.83604	12642.6
2907.32328	12675.9
2909.809	12651.1
2912.29319	12671.8
2914.77587	12628.6
2917.25702	12609.8
2919.73665	12609.8
2922.21476	12628.9
2924.69136	12613.1
2927.16644	12595.2
2929.64	12580.9
2932.11205	12587.7
2934.58258	12538.4
2937.05161	12555.7
2939.51912	12557.5
2941.98513	12529.9
2944.44962	12476.3
2946.91261	12442.8
2949.37409	12430.6
2951.83407	12436.3
2954.29254	12402.3
2956.74951	12394.8
2959.20498	12382
2961.65895	12380.3
2964.11142	12379.1
2966.56239	12343.9
2969.01186	12354.8
2971.45984	12304.3
2973.90632	12278.7
2976.35131	12252.8
2978.7948	12201.5
2981.23681	12185
2983.67732	12129.1
2986.11635	12129.5
2988.55388	12073.3
2990.98993	12063.4
2993.4245	12027.2
2995.85758	12005.9
2998.28917	11982.8
3000.71928	11946.6
3003.14791	11926.6
3005.57506	11917.7
3008.00073	11888.9
3010.42493	11869.9
3012.84764	11828.7
3015.26888	11800.3
3017.68865	11794.9
3020.10694	11800.7
3022.52376	11768
3024.9391	11741.8
3027.35298	11734.8
3029.76539	11718.8
3032.17632	11725.4
3034.5858	11696.3
3036.9938	11721.6
3039.40034	11701.1
3041.80542	11679.3
3044.20903	11641.6
3046.61118	11640.8
3049.01187	11615
3051.4111	11626
3053.80888	11552.2
3056.20519	11547.1
3058.60005	11510.6
3060.99345	11479.8
3063.3854	11458.9
3065.7759	11431.2
3068.16494	11385.9
3070.55254	11369.1
3072.93868	11347.9
3075.32338	11302.8
3077.70662	11319.5
3080.08842	11252.9
3082.46878	11230.8
3084.84769	11238.4
3087.22515	11190.9
3089.60118	11176.6
3091.97576	11214.4
3094.3489	11189.1
3096.72061	11182
3099.09087	11166.8
3101.4597	11168.8
3103.82709	11147.2
3106.19305	11162.5
3108.55757	11134.2
3110.92066	11101.4
3113.28232	11097.3
3115.64255	11069.9
3118.00134	11062.5
3120.35871	11038.2
3122.71466	11021.9
3125.06917	10986.4
3127.42226	10958.1
3129.77393	10953.7
3132.12417	10942.5
3134.47299	10921
3136.82039	10923.8
3139.16636	10909.3
3141.51092	10934.9
3143.85406	10894.1
3146.19579	10905.2
3148.53609	10898.2
3150.87499	10900.1
3153.21246	10903.8
3155.54853	10937.9
3157.88318	10897
3160.21642	10900.6
3162.54826	10898.5
3164.87868	10913.5
3167.2077	10908
3169.5353	10899
3171.86151	10907.2
3174.18631	10893.7
3176.5097	10890.6
3178.83169	10876
3181.15228	10875.6
3183.47147	10831.6
3185.78926	10826.5
3188.10565	10831.6
3190.42065	10810.9
3192.73424	10793.8
3195.04645	10782.2
3197.35725	10787.4
3199.66667	10800
3201.97469	10817
3204.28132	10790.7
3206.58656	10810.5
3208.8904	10790.3
3211.19287	10765.3
3213.49394	10774.5
3215.79363	10798.8
3218.09193	10799.7
3220.38884	10787.5
3222.68438	10789.5
3224.97853	10776.4
3227.2713	10771.3
3229.56269	10764.8
3231.8527	10729.5
3234.14133	10745.8
3236.42858	10707.9
3238.71446	10691.6
3240.99896	10665.9
3243.28209	10648.8
3245.56384	10636.3
3247.84423	10642.2
3250.12324	10633.1
3252.40088	10632.2
3254.67715	10594.3
3256.95205	10596
3259.22558	10579.8
3261.49775	10550.1
3263.76855	10559.1
3266.03799	10517.8
3268.30606	10517.4
3270.57277	10492
3272.83812	10473.3
3275.10211	10421.6
3277.36474	10438.7
3279.62601	10414
3281.88593	10408
3284.14448	10432.2
3286.40168	10412.7
3288.65753	10415
3290.91202	10419.3
3293.16516	10384.1
3295.41695	10346.5
3297.66738	10307.3
3299.91647	10251
3302.16421	10164.5
3304.4106	10097.9
3306.65564	10062.3
3308.89933	9970.7
3311.14169	9916.9
3313.38269	9811.7
3315.62236	9760
3317.86068	9683.9
3320.09766	9598.9
3322.3333	9541.1
3324.5676	9496.9
3326.80056	9354
3329.03219	9275.4
3331.26248	3.7
3333.49143	0.6
3335.71905	-0.6
