Data from AgNP_FTO_APTES_UA_10uM_CRN_100uM_R6G_10uM_NaF_0.1M_Addition_RamanShift__10__17-36-10-845.txt Node

Date: Thu Feb 10 17:36:10 GMT 2022
User: TCL
Spectrometer: QEP01345
Trigger mode: 4
Integration Time (sec): 7.000000E0
Scans to average: 10
Electric dark correction enabled: true
Nonlinearity correction enabled: false
Boxcar width: 0
XAxis mode: Raman Shifts
Number of Pixels in Spectrum: 1044
>>>>>Begin Spectral Data<<<<<
46.04893	-0.0875
50.45542	0.6125
54.85868	-1.3875
59.25871	-1.0875
63.6555	51.3125
68.04907	52.6125
72.43941	56.9125
76.82654	61.5125
81.21044	64.9125
85.59113	63.4125
89.96862	69.1125
94.34289	69.8125
98.71396	71.7125
103.08183	78.4125
107.4465	77.5125
111.80798	74.5125
116.16626	77.7125
120.52136	80.7125
124.87327	85.6125
129.222	86.9125
133.56755	97.8125
137.90993	98.3125
142.24913	101.9125
146.58517	114.2125
150.91804	135.9125
155.24774	154.3125
159.57429	189.5125
163.89768	240.5125
168.21792	317.7125
172.53501	431.7125
176.84895	591.2125
181.15975	829.6125
185.46741	1174.6125
189.77193	1625.3125
194.07331	2174.1125
198.37157	2802.2125
202.6667	3468.7125
206.9587	4140.6125
211.24758	4777.0125
215.53334	5414.3125
219.81599	6108.7125
224.09553	6808.0125
228.37195	7579.3125
232.64527	8461.0125
236.91549	9412.9125
241.18261	10373.9125
245.44663	11346.5125
249.70755	12234.3125
253.96539	13019.0125
258.22014	13685.4125
262.4718	14250.5125
266.72039	14609.8125
270.96589	14835.2125
275.20832	14856.3125
279.44768	14833.0125
283.68397	14681.5125
287.91719	14595.4125
292.14735	14510.9125
296.37445	14484.1125
300.59849	14464.4125
304.81948	14426.1125
309.03742	14338.0125
313.25231	14197.4125
317.46415	14012.9125
321.67296	13788.8125
325.87872	13604.4125
330.08145	13547.6125
334.28114	13590.6125
338.47781	13707.5125
342.67145	13839.3125
346.86207	13999.6125
351.04966	14107.5125
355.23424	14300.6125
359.4158	14455.2125
363.59435	14596.0125
367.76989	14726.5125
371.94243	14814.9125
376.11196	14907.7125
380.27849	14999.4125
384.44203	15072.0125
388.60257	15164.7125
392.76012	15307.7125
396.91468	15469.6125
401.06626	15680.5125
405.21485	15817.2125
409.36047	15832.3125
413.50311	15754.4125
417.64277	15652.8125
421.77947	15684.2125
425.9132	15746.6125
430.04396	15873.4125
434.17176	15964.0125
438.2966	16049.9125
442.41849	16184.7125
446.53742	16411.5125
450.6534	16602.5125
454.76644	16787.8125
458.87653	16907.6125
462.98368	16931.9125
467.08789	16915.9125
471.18916	16865.9125
475.2875	16827.5125
479.38291	16752.2125
483.4754	16677.2125
487.56496	16591.4125
491.6516	16488.6125
495.73531	16374.6125
499.81612	16326.3125
503.89401	16366.3125
507.96899	16437.5125
512.04106	16460.9125
516.11023	16437.7125
520.1765	16408.7125
524.23987	16301.9125
528.30034	16212.0125
532.35792	16141.7125
536.41261	16110.0125
540.46441	16047.3125
544.51333	16100.8125
548.55936	16222.1125
552.60252	16435.4125
556.64279	16607.4125
560.6802	16702.3125
564.71473	16805.9125
568.7464	16936.5125
572.7752	17201.5125
576.80114	17481.5125
580.82422	17780.1125
584.84444	17971.6125
588.86181	18076.0125
592.87633	18079.8125
596.888	18064.4125
600.89682	18008.0125
604.9028	18169.6125
608.90594	18765.8125
612.90624	19378.0125
616.90371	18693.6125
620.89834	17245.4125
624.89015	16598.3125
628.87913	16551.6125
632.86528	16628.9125
636.84862	16715.1125
640.82913	16616.1125
644.80683	16445.1125
648.78172	16315.0125
652.75379	16277.5125
656.72306	16334.5125
660.68952	16464.7125
664.65319	16435.1125
668.61405	16362.8125
672.57211	16376.9125
676.52738	16419.6125
680.47986	16457.0125
684.42955	16417.8125
688.37646	16415.1125
692.32058	16417.6125
696.26192	16518.4125
700.20048	16598.8125
704.13626	16728.5125
708.06928	16764.7125
711.99952	16753.0125
715.927	16701.4125
719.85171	16668.2125
723.77365	16621.1125
727.69284	16559.6125
731.60928	16403.0125
735.52295	16343.9125
739.43388	16318.4125
743.34206	16350.2125
747.24749	16423.4125
751.15017	16489.9125
755.05012	16636.3125
758.94733	16885.9125
762.8418	17317.6125
766.73354	17917.8125
770.62254	18542.5125
774.50882	18683.0125
778.39237	18241.6125
782.27321	17551.2125
786.15132	16989.2125
790.02671	16654.5125
793.89938	16443.2125
797.76935	16309.6125
801.6366	16276.9125
805.50115	16240.1125
809.36299	16196.6125
813.22213	16157.3125
817.07857	16144.4125
820.93231	16130.4125
824.78336	16151.4125
828.63172	16139.6125
832.47738	16131.7125
836.32036	16092.4125
840.16066	16087.1125
843.99827	16068.6125
847.8332	16107.3125
851.66546	16099.3125
855.49504	16119.7125
859.32195	16127.9125
863.1462	16159.1125
866.96777	16133.8125
870.78668	16112.6125
874.60293	16122.7125
878.41652	16159.3125
882.22745	16178.9125
886.03573	16159.1125
889.84136	16189.6125
893.64433	16169.5125
897.44466	16177.9125
901.24235	16131.5125
905.0374	16121.2125
908.8298	16119.6125
912.61957	16152.8125
916.40671	16239.2125
920.19121	16343.7125
923.97308	16358.2125
927.75233	16316.4125
931.52895	16211.4125
935.30295	16075.2125
939.07433	15953.6125
942.84309	15838.1125
946.60924	15779.7125
950.37278	15723.6125
954.13371	15702.1125
957.89203	15682.4125
961.64774	15665.0125
965.40086	15645.7125
969.15137	15615.2125
972.89929	15573.3125
976.64461	15541.2125
980.38733	15534.5125
984.12747	15547.7125
987.86502	15550.1125
991.59999	15606.8125
995.33237	15619.7125
999.06217	15714.0125
1002.78939	15820.6125
1006.51404	15917.2125
1010.23611	16016.0125
1013.95561	16137.2125
1017.67255	16144.4125
1021.38692	16103.9125
1025.09872	16049.0125
1028.80796	15982.5125
1032.51465	15897.1125
1036.21877	15926.6125
1039.92035	15942.0125
1043.61937	15985.7125
1047.31584	16049.2125
1051.00976	16101.0125
1054.70114	16196.3125
1058.38998	16257.9125
1062.07627	16374.4125
1065.76003	16507.4125
1069.44126	16610.8125
1073.11995	16775.8125
1076.79611	16876.5125
1080.46974	16886.9125
1084.14085	16903.1125
1087.80943	16938.3125
1091.47549	16961.6125
1095.13903	17049.1125
1098.80005	17032.2125
1102.45857	16866.2125
1106.11456	16668.9125
1109.76805	16547.2125
1113.41903	16473.1125
1117.06751	16503.9125
1120.71348	16565.9125
1124.35696	16636.6125
1127.99793	16750.0125
1131.63641	16858.1125
1135.2724	16822.6125
1138.90589	16751.4125
1142.5369	16737.3125
1146.16542	16776.2125
1149.79145	16798.0125
1153.415	16855.0125
1157.03607	16921.1125
1160.65467	17170.5125
1164.27079	17480.2125
1167.88443	17880.1125
1171.49561	18308.6125
1175.10432	18838.0125
1178.71056	19524.5125
1182.31434	20225.1125
1185.91565	20728.0125
1189.51451	20958.8125
1193.11091	20912.7125
1196.70485	20664.7125
1200.29634	20229.9125
1203.88538	19821.5125
1207.47197	19444.1125
1211.05612	19177.2125
1214.63782	18924.9125
1218.21708	18635.2125
1221.79391	18314.0125
1225.36829	18049.5125
1228.94024	17919.5125
1232.50976	17894.1125
1236.07685	17844.2125
1239.6415	17872.4125
1243.20374	17950.3125
1246.76355	18001.8125
1250.32093	18126.3125
1253.8759	18316.8125
1257.42845	18558.9125
1260.97859	18812.7125
1264.52631	19033.8125
1268.07163	19307.7125
1271.61453	19536.5125
1275.15503	19693.4125
1278.69312	19933.0125
1282.22882	20141.0125
1285.76211	20442.3125
1289.29301	20706.9125
1292.82151	21126.8125
1296.34761	21579.3125
1299.87133	22131.8125
1303.39266	22685.9125
1306.9116	23220.5125
1310.42815	23642.9125
1313.94233	23888.5125
1317.45412	23871.8125
1320.96354	23786.3125
1324.47058	23773.5125
1327.97525	23806.1125
1331.47754	23814.3125
1334.97747	23976.0125
1338.47502	24186.6125
1341.97022	24555.9125
1345.46305	24807.8125
1348.95352	24977.8125
1352.44163	24886.2125
1355.92738	24761.5125
1359.41078	24721.2125
1362.89183	24670.6125
1366.37053	24175.9125
1369.84688	23059.9125
1373.32088	21771.5125
1376.79254	20822.9125
1380.26186	20319.0125
1383.72883	20150.7125
1387.19347	20097.2125
1390.65578	19919.6125
1394.11575	19826.2125
1397.57339	19739.9125
1401.0287	19715.1125
1404.48168	19708.4125
1407.93234	19624.6125
1411.38068	19426.7125
1414.82669	19110.1125
1418.27039	18726.6125
1421.71177	18334.2125
1425.15083	17964.1125
1428.58758	17796.0125
1432.02203	17781.7125
1435.45416	17904.9125
1438.88399	18022.0125
1442.31151	18187.6125
1445.73673	18383.1125
1449.15965	18509.8125
1452.58027	18617.7125
1455.9986	18724.8125
1459.41463	18873.3125
1462.82837	19096.0125
1466.23982	19313.6125
1469.64898	19567.0125
1473.05586	19678.7125
1476.46045	19788.2125
1479.86276	19772.5125
1483.26279	19745.4125
1486.66054	19795.5125
1490.05602	19859.9125
1493.44922	20060.1125
1496.84016	20388.6125
1500.22882	20860.4125
1503.61521	21465.5125
1506.99934	22065.7125
1510.38121	22514.3125
1513.76081	22518.0125
1517.13816	22249.5125
1520.51324	21828.6125
1523.88607	21466.7125
1527.25665	21226.8125
1530.62498	21079.2125
1533.99105	20969.8125
1537.35488	20736.0125
1540.71647	20434.7125
1544.07581	20134.8125
1547.4329	19798.2125
1550.78776	19528.3125
1554.14038	19356.9125
1557.49077	19258.2125
1560.83892	19237.0125
1564.18484	19231.3125
1567.52853	19289.6125
1570.86999	19356.7125
1574.20922	19495.7125
1577.54624	19559.6125
1580.88103	19515.2125
1584.2136	19420.0125
1587.54395	19458.9125
1590.87208	19667.1125
1594.19801	20056.2125
1597.52172	20547.9125
1600.84321	20686.2125
1604.16251	20346.3125
1607.47959	19765.0125
1610.79447	19114.5125
1614.10715	18411.8125
1617.41763	17666.8125
1620.7259	17102.9125
1624.03199	16726.7125
1627.33587	16622.5125
1630.63757	16682.6125
1633.93707	17006.8125
1637.23439	17657.3125
1640.52951	18594.8125
1643.82246	19819.3125
1647.11321	20914.7125
1650.40179	21408.4125
1653.68819	21063.4125
1656.97241	19830.9125
1660.25446	18366.8125
1663.53433	17120.0125
1666.81203	16158.4125
1670.08756	15517.5125
1673.36092	15048.5125
1676.63211	14789.4125
1679.90115	14547.5125
1683.16801	14444.5125
1686.43272	14336.5125
1689.69527	14256.3125
1692.95567	14182.9125
1696.2139	14098.1125
1699.46999	14099.1125
1702.72392	14066.4125
1705.97571	14025.0125
1709.22535	13974.1125
1712.47284	13977.0125
1715.71819	13942.4125
1718.96139	13938.4125
1722.20246	13915.1125
1725.44139	13862.4125
1728.67818	13803.9125
1731.91284	13721.5125
1735.14537	13676.4125
1738.37576	13653.9125
1741.60403	13631.6125
1744.83017	13586.4125
1748.05418	13540.9125
1751.27607	13535.3125
1754.49584	13508.0125
1757.71349	13553.2125
1760.92903	13508.0125
1764.14244	13466.6125
1767.35375	13489.7125
1770.56294	13454.5125
1773.77002	13420.4125
1776.97499	13407.0125
1780.17785	13364.4125
1783.37861	13347.9125
1786.57727	13315.9125
1789.77382	13294.8125
1792.96828	13270.7125
1796.16064	13211.6125
1799.3509	13228.3125
1802.53907	13180.2125
1805.72514	13131.6125
1808.90913	13119.4125
1812.09102	13098.0125
1815.27083	13098.0125
1818.44856	13073.4125
1821.6242	13049.2125
1824.79776	13006.3125
1827.96924	13002.5125
1831.13864	12988.0125
1834.30597	12989.3125
1837.47122	12972.1125
1840.6344	12965.0125
1843.7955	12953.3125
1846.95454	12939.4125
1850.11151	12897.4125
1853.26642	12890.9125
1856.41926	12908.4125
1859.57004	12904.7125
1862.71876	12879.8125
1865.86542	12862.4125
1869.01003	12813.2125
1872.15258	12816.9125
1875.29308	12822.4125
1878.43152	12771.9125
1881.56792	12762.1125
1884.70227	12727.2125
1887.83457	12736.1125
1890.96482	12654.0125
1894.09304	12670.1125
1897.21921	12651.5125
1900.34335	12611.0125
1903.46544	12622.4125
1906.58551	12597.8125
1909.70353	12554.9125
1912.81953	12555.6125
1915.93349	12548.2125
1919.04543	12492.0125
1922.15534	12472.5125
1925.26322	12433.6125
1928.36908	12423.5125
1931.47292	12415.4125
1934.57473	12407.3125
1937.67453	12367.8125
1940.77232	12334.2125
1943.86808	12271.1125
1946.96184	12227.9125
1950.05358	12208.2125
1953.14331	12192.2125
1956.23103	12151.2125
1959.31675	12118.1125
1962.40046	12069.6125
1965.48217	12011.5125
1968.56188	12004.5125
1971.63959	11957.5125
1974.7153	11898.2125
1977.78901	11897.3125
1980.86073	11853.1125
1983.93046	11823.1125
1986.99819	11789.3125
1990.06394	11774.9125
1993.1277	11733.8125
1996.18947	11701.8125
1999.24925	11644.4125
2002.30706	11616.0125
2005.36288	11561.1125
2008.41672	11537.9125
2011.46859	11525.2125
2014.51848	11500.9125
2017.56639	11464.9125
2020.61233	11406.6125
2023.6563	11361.7125
2026.6983	11349.0125
2029.73833	11334.5125
2032.7764	11268.7125
2035.8125	11260.1125
2038.84664	11209.2125
2041.87881	11219.4125
2044.90903	11184.9125
2047.93729	11135.1125
2050.96359	11130.3125
2053.98794	11095.5125
2057.01034	11088.4125
2060.03078	11074.8125
2063.04927	11077.3125
2066.06582	11084.9125
2069.08042	11043.0125
2072.09307	11063.5125
2075.10378	11060.0125
2078.11255	11024.8125
2081.11938	11021.9125
2084.12426	10990.9125
2087.12722	10988.3125
2090.12824	10977.3125
2093.12732	10977.2125
2096.12447	11013.2125
2099.11969	10979.0125
2102.11299	10969.7125
2105.10435	10987.3125
2108.09379	10987.3125
2111.08131	11018.2125
2114.0669	10981.0125
2117.05057	11008.9125
2120.03233	11006.7125
2123.01216	11015.3125
2125.99008	11034.1125
2128.96609	11020.2125
2131.94018	11014.0125
2134.91236	11018.9125
2137.88263	11026.0125
2140.851	11056.8125
2143.81746	11049.2125
2146.78201	11047.1125
2149.74466	11066.9125
2152.7054	11038.7125
2155.66425	11046.4125
2158.6212	11067.8125
2161.57625	11038.8125
2164.52941	11008.6125
2167.48067	11027.0125
2170.43004	11000.1125
2173.37752	11005.1125
2176.32311	11006.7125
2179.26681	11004.4125
2182.20863	10993.1125
2185.14856	10980.0125
2188.08661	10964.7125
2191.02278	10954.6125
2193.95707	10977.8125
2196.88948	10957.9125
2199.82001	10955.5125
2202.74867	10925.6125
2205.67545	10902.1125
2208.60037	10893.0125
2211.52341	10882.1125
2214.44458	10865.4125
2217.36388	10827.1125
2220.28132	10809.8125
2223.1969	10773.1125
2226.11061	10773.4125
2229.02246	10718.2125
2231.93245	10725.1125
2234.84058	10723.9125
2237.74686	10698.4125
2240.65128	10686.3125
2243.55385	10642.7125
2246.45456	10661.9125
2249.35343	10628.1125
2252.25044	10611.8125
2255.14561	10588.4125
2258.03893	10609.2125
2260.93041	10554.0125
2263.82004	10501.0125
2266.70783	10462.0125
2269.59378	10461.5125
2272.4779	10435.1125
2275.36017	10386.8125
2278.24061	10374.2125
2281.11922	10358.5125
2283.996	10367.0125
2286.87094	10352.0125
2289.74405	10305.1125
2292.61534	10287.1125
2295.4848	10305.7125
2298.35243	10272.2125
2301.21824	10230.6125
2304.08223	10238.5125
2306.94439	10215.8125
2309.80474	10225.1125
2312.66327	10221.9125
2315.51999	10217.5125
2318.37489	10195.5125
2321.22797	10189.3125
2324.07925	10156.4125
2326.92871	10129.3125
2329.77637	10129.3125
2332.62222	10125.0125
2335.46626	10108.6125
2338.3085	10082.2125
2341.14893	10062.8125
2343.98756	10047.8125
2346.8244	10039.4125
2349.65943	10014.0125
2352.49267	9993.9125
2355.32411	10011.2125
2358.15376	10013.2125
2360.98161	9989.1125
2363.80768	10013.5125
2366.63195	10003.9125
2369.45444	9950.1125
2372.27514	9948.0125
2375.09405	9947.3125
2377.91118	9905.7125
2380.72652	9883.1125
2383.54009	9871.5125
2386.35187	9856.5125
2389.16188	9797.5125
2391.97011	9787.8125
2394.77657	9751.2125
2397.58125	9744.2125
2400.38416	9728.8125
2403.18529	9725.6125
2405.98466	9708.4125
2408.78226	9698.7125
2411.57809	9685.5125
2414.37216	9673.2125
2417.16446	9682.8125
2419.955	9638.6125
2422.74378	9649.0125
2425.5308	9631.6125
2428.31606	9635.7125
2431.09956	9610.2125
2433.88131	9584.1125
2436.6613	9587.4125
2439.43954	9582.9125
2442.21603	9551.8125
2444.99077	9558.3125
2447.76377	9528.1125
2450.53501	9520.2125
2453.30451	9529.5125
2456.07226	9480.5125
2458.83827	9509.5125
2461.60254	9481.0125
2464.36507	9460.4125
2467.12586	9463.7125
2469.88492	9443.0125
2472.64224	9444.6125
2475.39782	9422.9125
2478.15167	9444.1125
2480.90379	9420.8125
2483.65417	9432.3125
2486.40283	9402.5125
2489.14976	9398.4125
2491.89497	9381.2125
2494.63845	9385.2125
2497.3802	9372.3125
2500.12024	9363.7125
2502.85855	9357.6125
2505.59514	9333.8125
2508.33002	9309.8125
2511.06318	9325.4125
2513.79462	9332.8125
2516.52435	9306.9125
2519.25237	9288.7125
2521.97867	9268.0125
2524.70327	9278.2125
2527.42616	9246.2125
2530.14734	9252.3125
2532.86681	9249.3125
2535.58458	9241.4125
2538.30065	9228.5125
2541.01501	9213.2125
2543.72768	9200.7125
2546.43864	9184.8125
2549.14791	9180.6125
2551.85548	9172.1125
2554.56136	9136.6125
2557.26554	9086.6125
2559.96803	9050.7125
2562.66883	9051.9125
2565.36794	9030.4125
2568.06536	9020.1125
2570.7611	9003.2125
2573.45514	9005.2125
2576.14751	8976.0125
2578.83819	8948.1125
2581.52719	8928.9125
2584.21451	8924.0125
2586.90015	8898.2125
2589.58411	8893.1125
2592.2664	8876.5125
2594.94701	8857.3125
2597.62594	8845.5125
2600.30321	8824.7125
2602.9788	8798.4125
2605.65273	8778.8125
2608.32498	8785.1125
2610.99557	8769.4125
2613.66449	8761.3125
2616.33175	8727.3125
2618.99734	8739.2125
2621.66128	8721.8125
2624.32355	8700.0125
2626.98416	8697.7125
2629.64311	8670.9125
2632.30041	8666.7125
2634.95605	8640.0125
2637.61004	8628.6125
2640.26238	8623.2125
2642.91306	8607.8125
2645.56209	8612.2125
2648.20948	8607.1125
2650.85521	8603.8125
2653.4993	8583.0125
2656.14175	8593.8125
2658.78255	8604.4125
2661.42171	8604.4125
2664.05923	8603.9125
2666.6951	8605.2125
2669.32934	8600.4125
2671.96194	8569.1125
2674.59291	8596.1125
2677.22224	8578.2125
2679.84993	8573.4125
2682.476	8591.1125
2685.10043	8575.3125
2687.72324	8544.0125
2690.34441	8557.1125
2692.96396	8569.2125
2695.58188	8556.9125
2698.19818	8528.3125
2700.81285	8550.7125
2703.4259	8563.5125
2706.03733	8547.2125
2708.64714	8523.0125
2711.25533	8555.6125
2713.86191	8541.2125
2716.46687	8522.0125
2719.07021	8528.0125
2721.67194	8539.1125
2724.27206	8513.3125
2726.87057	8528.5125
2729.46747	8529.8125
2732.06276	8539.5125
2734.65644	8512.9125
2737.24852	8514.3125
2739.83899	8487.3125
2742.42786	8512.3125
2745.01513	8464.0125
2747.60079	8464.8125
2750.18486	8426.6125
2752.76733	8452.6125
2755.3482	8438.1125
2757.92747	8417.9125
2760.50515	8383.6125
2763.08123	8390.8125
2765.65573	8360.1125
2768.22863	8376.1125
2770.79994	8344.8125
2773.36967	8361.8125
2775.9378	8342.1125
2778.50435	8353.9125
2781.06932	8325.9125
2783.6327	8312.5125
2786.1945	8304.7125
2788.75471	8298.8125
2791.31335	8262.1125
2793.87041	8242.1125
2796.42589	8251.0125
2798.97979	8220.9125
2801.53212	8219.6125
2804.08288	8189.7125
2806.63206	8167.6125
2809.17967	8138.3125
2811.72571	8107.5125
2814.27018	8098.2125
2816.81308	8094.2125
2819.35442	8061.3125
2821.89419	8054.6125
2824.43239	8039.8125
2826.96904	8028.1125
2829.50412	8028.3125
2832.03763	7997.5125
2834.56959	8013.9125
2837.1	7991.7125
2839.62884	7989.6125
2842.15613	7996.3125
2844.68186	8022.1125
2847.20604	7983.6125
2849.72867	7989.4125
2852.24974	8000.1125
2854.76927	7974.0125
2857.28724	7960.5125
2859.80367	7934.8125
2862.31855	7930.1125
2864.83189	7929.0125
2867.34368	7905.4125
2869.85393	7891.5125
2872.36264	7883.6125
2874.8698	7867.8125
2877.37543	7868.7125
2879.87952	7862.1125
2882.38207	7870.3125
2884.88308	7843.6125
2887.38256	7861.0125
2889.88051	7850.6125
2892.37692	7832.0125
2894.8718	7842.9125
2897.36515	7845.1125
2899.85698	7817.4125
2902.34727	7867.5125
2904.83604	7838.6125
2907.32328	7875.3125
2909.809	7832.6125
2912.29319	7845.3125
2914.77587	7818.5125
2917.25702	7833.4125
2919.73665	7831.3125
2922.21476	7816.2125
2924.69136	7816.6125
2927.16644	7808.0125
2929.64	7780.4125
2932.11205	7804.3125
2934.58258	7775.2125
2937.05161	7773.0125
2939.51912	7776.4125
2941.98513	7772.0125
2944.44962	7751.1125
2946.91261	7707.3125
2949.37409	7731.0125
2951.83407	7718.0125
2954.29254	7699.1125
2956.74951	7690.3125
2959.20498	7679.9125
2961.65895	7688.3125
2964.11142	7687.3125
2966.56239	7689.4125
2969.01186	7672.3125
2971.45984	7630.7125
2973.90632	7631.1125
2976.35131	7628.8125
2978.7948	7631.7125
2981.23681	7615.3125
2983.67732	7596.0125
2986.11635	7570.9125
2988.55388	7568.7125
2990.98993	7552.5125
2993.4245	7527.0125
2995.85758	7520.0125
2998.28917	7500.3125
3000.71928	7492.2125
3003.14791	7460.5125
3005.57506	7461.0125
3008.00073	7431.0125
3010.42493	7415.7125
3012.84764	7394.5125
3015.26888	7392.7125
3017.68865	7378.0125
3020.10694	7357.8125
3022.52376	7376.8125
3024.9391	7365.4125
3027.35298	7335.5125
3029.76539	7336.6125
3032.17632	7331.0125
3034.5858	7321.2125
3036.9938	7303.3125
3039.40034	7296.2125
3041.80542	7319.0125
3044.20903	7291.7125
3046.61118	7270.4125
3049.01187	7267.8125
3051.4111	7242.9125
3053.80888	7246.6125
