Data from AgNP_FTO_APTES_UA_10uM_CRN_5uM_R6G_10uM_NaF_0.1M_Addition_RamanShift__14__14-58-40-650.txt Node

Date: Thu Feb 10 14:58:40 GMT 2022
User: TCL
Spectrometer: QEP01345
Trigger mode: 4
Integration Time (sec): 7.000000E0
Scans to average: 10
Electric dark correction enabled: true
Nonlinearity correction enabled: false
Boxcar width: 0
XAxis mode: Raman Shifts
Number of Pixels in Spectrum: 1044
>>>>>Begin Spectral Data<<<<<
46.04893	0.575
50.45542	-0.325
54.85868	-1.625
59.25871	-2.225
63.6555	74.975
68.04907	75.775
72.43941	82.575
76.82654	79.675
81.21044	86.375
85.59113	88.575
89.96862	90.375
94.34289	95.775
98.71396	100.575
103.08183	104.675
107.4465	109.775
111.80798	108.375
116.16626	111.775
120.52136	116.675
124.87327	119.775
129.222	128.075
133.56755	137.075
137.90993	145.075
142.24913	155.875
146.58517	178.875
150.91804	210.275
155.24774	253.475
159.57429	313.775
163.89768	400.175
168.21792	533.975
172.53501	733.175
176.84895	1028.675
181.15975	1443.475
185.46741	2006.975
189.77193	2793.375
194.07331	3722.275
198.37157	4813.075
202.6667	5944.275
206.9587	7073.675
211.24758	8182.475
215.53334	9290.175
219.81599	10417.775
224.09553	11675.575
228.37195	13058.175
232.64527	14575.475
236.91549	16208.975
241.18261	17854.875
245.44663	19404.475
249.70755	20822.975
253.96539	22135.175
258.22014	23140.375
262.4718	23977.675
266.72039	24578.375
270.96589	24904.275
275.20832	24945.275
279.44768	24857.075
283.68397	24682.075
287.91719	24466.475
292.14735	24327.975
296.37445	24287.475
300.59849	24307.675
304.81948	24344.375
309.03742	24302.675
313.25231	24095.175
317.46415	23750.675
321.67296	23296.975
325.87872	22905.975
330.08145	22764.675
334.28114	22753.575
338.47781	22898.975
342.67145	23162.975
346.86207	23432.475
351.04966	23746.575
355.23424	24038.475
359.4158	24352.775
363.59435	24573.475
367.76989	24733.275
371.94243	24877.875
376.11196	24961.475
380.27849	24976.475
384.44203	25093.775
388.60257	25260.275
392.76012	25553.575
396.91468	25931.175
401.06626	26316.375
405.21485	26531.575
409.36047	26477.975
413.50311	26223.075
417.64277	26082.875
421.77947	26184.975
425.9132	26321.275
430.04396	26515.875
434.17176	26604.475
438.2966	26718.775
442.41849	26987.475
446.53742	27397.175
450.6534	27923.975
454.76644	28280.975
458.87653	28412.675
462.98368	28423.075
467.08789	28327.075
471.18916	28149.875
475.2875	27900.675
479.38291	27741.075
483.4754	27599.275
487.56496	27434.875
491.6516	27193.375
495.73531	26852.375
499.81612	26633.575
503.89401	26738.275
507.96899	26831.275
512.04106	26937.375
516.11023	26866.075
520.1765	26665.975
524.23987	26409.775
528.30034	26199.975
532.35792	25931.175
536.41261	25749.375
540.46441	25541.075
544.51333	25601.075
548.55936	25877.075
552.60252	26215.375
556.64279	26735.675
560.6802	27069.475
564.71473	27368.275
568.7464	27892.075
572.7752	28715.375
576.80114	29699.875
580.82422	30662.475
584.84444	31362.975
588.86181	32033.075
592.87633	32542.975
596.888	32345.675
600.89682	31448.475
604.9028	31074.775
608.90594	32055.675
612.90624	33110.375
616.90371	31204.375
620.89834	27860.075
624.89015	26550.275
628.87913	26508.775
632.86528	26712.775
636.84862	26771.475
640.82913	26434.075
644.80683	25882.575
648.78172	25498.475
652.75379	25386.075
656.72306	25553.975
660.68952	25832.675
664.65319	25832.675
668.61405	25543.575
672.57211	25505.975
676.52738	25590.675
680.47986	25559.175
684.42955	25441.675
688.37646	25381.375
692.32058	25483.275
696.26192	25703.975
700.20048	25973.175
704.13626	26218.275
708.06928	26320.875
711.99952	26258.275
715.927	26149.575
719.85171	26042.575
723.77365	25887.975
727.69284	25633.975
731.60928	25315.075
735.52295	25206.875
739.43388	25124.075
743.34206	25170.875
747.24749	25289.175
751.15017	25493.075
755.05012	25892.475
758.94733	26531.775
762.8418	27540.075
766.73354	28993.575
770.62254	30213.675
774.50882	30258.175
778.39237	29142.275
782.27321	27765.275
786.15132	26583.375
790.02671	25901.475
793.89938	25435.275
797.76935	25220.775
801.6366	25116.675
805.50115	25002.275
809.36299	24957.775
813.22213	24786.175
817.07857	24742.475
820.93231	24700.275
824.78336	24668.275
828.63172	24562.275
832.47738	24471.875
836.32036	24456.675
840.16066	24398.675
843.99827	24356.175
847.8332	24418.875
851.66546	24438.475
855.49504	24523.175
859.32195	24528.775
863.1462	24527.975
866.96777	24464.575
870.78668	24417.275
874.60293	24448.975
878.41652	24450.375
882.22745	24502.175
886.03573	24533.875
889.84136	24523.575
893.64433	24479.475
897.44466	24440.875
901.24235	24422.375
905.0374	24378.075
908.8298	24335.575
912.61957	24391.575
916.40671	24580.675
920.19121	24840.875
923.97308	25085.175
927.75233	25031.975
931.52895	24741.075
935.30295	24428.575
939.07433	24037.275
942.84309	23770.375
946.60924	23655.175
950.37278	23561.675
954.13371	23549.575
957.89203	23554.575
961.64774	23515.175
965.40086	23513.475
969.15137	23498.175
972.89929	23435.675
976.64461	23343.775
980.38733	23319.275
984.12747	23299.075
987.86502	23378.675
991.59999	23471.875
995.33237	23580.875
999.06217	23788.575
1002.78939	24097.475
1006.51404	24431.375
1010.23611	24820.375
1013.95561	25065.775
1017.67255	25111.475
1021.38692	24913.475
1025.09872	24654.775
1028.80796	24329.675
1032.51465	24205.075
1036.21877	24194.675
1039.92035	24269.575
1043.61937	24403.975
1047.31584	24449.975
1051.00976	24585.475
1054.70114	24705.975
1058.38998	24895.875
1062.07627	25202.375
1065.76003	25514.575
1069.44126	25802.475
1073.11995	26152.475
1076.79611	26453.275
1080.46974	26516.375
1084.14085	26666.175
1087.80943	26882.675
1091.47549	27036.175
1095.13903	27135.775
1098.80005	26949.375
1102.45857	26454.375
1106.11456	25992.675
1109.76805	25673.275
1113.41903	25579.975
1117.06751	25620.175
1120.71348	25782.575
1124.35696	25985.275
1127.99793	26204.775
1131.63641	26382.775
1135.2724	26373.375
1138.90589	26376.375
1142.5369	26403.475
1146.16542	26448.175
1149.79145	26714.975
1153.415	26920.075
1157.03607	27287.575
1160.65467	27780.475
1164.27079	28711.375
1167.88443	29819.975
1171.49561	31030.175
1175.10432	32494.275
1178.71056	34282.075
1182.31434	35988.275
1185.91565	37090.175
1189.51451	37364.475
1193.11091	37122.075
1196.70485	36303.875
1200.29634	35148.575
1203.88538	34230.675
1207.47197	33731.475
1211.05612	33508.675
1214.63782	33024.575
1218.21708	32230.575
1221.79391	31337.675
1225.36829	30690.175
1228.94024	30295.075
1232.50976	30063.775
1236.07685	29904.675
1239.6415	29779.875
1243.20374	29766.675
1246.76355	29878.975
1250.32093	30162.475
1253.8759	30621.375
1257.42845	31274.075
1260.97859	32008.575
1264.52631	32871.275
1268.07163	33579.875
1271.61453	34363.275
1275.15503	35072.375
1278.69312	35826.575
1282.22882	36597.275
1285.76211	37531.875
1289.29301	38596.675
1292.82151	39945.875
1296.34761	41458.475
1299.87133	43172.375
1303.39266	44970.675
1306.9116	46525.175
1310.42815	47559.675
1313.94233	48151.875
1317.45412	47955.575
1320.96354	47658.275
1324.47058	47585.575
1327.97525	47637.575
1331.47754	47924.475
1334.97747	48170.475
1338.47502	48485.575
1341.97022	48739.375
1345.46305	48861.675
1348.95352	48595.075
1352.44163	47998.775
1355.92738	47486.075
1359.41078	47365.875
1362.89183	47406.175
1366.37053	46277.775
1369.84688	43673.075
1373.32088	40490.575
1376.79254	38265.475
1380.26186	37357.575
1383.72883	37302.175
1387.19347	37327.775
1390.65578	37172.675
1394.11575	37001.575
1397.57339	37047.575
1401.0287	37239.975
1404.48168	37425.475
1407.93234	37252.975
1411.38068	36576.575
1414.82669	35589.675
1418.27039	34314.275
1421.71177	33214.975
1425.15083	32331.275
1428.58758	31960.375
1432.02203	32167.675
1435.45416	32848.275
1438.88399	33633.175
1442.31151	34230.875
1445.73673	34593.375
1449.15965	34917.875
1452.58027	35206.275
1455.9986	35432.475
1459.41463	35841.075
1462.82837	36281.275
1466.23982	36754.275
1469.64898	37161.475
1473.05586	37281.875
1476.46045	37243.475
1479.86276	37051.475
1483.26279	36821.375
1486.66054	36735.575
1490.05602	36868.975
1493.44922	37273.675
1496.84016	37884.175
1500.22882	38820.575
1503.61521	39832.475
1506.99934	40826.675
1510.38121	41495.775
1513.76081	41441.475
1517.13816	40916.175
1520.51324	40199.675
1523.88607	39761.575
1527.25665	39662.575
1530.62498	39623.275
1533.99105	39356.275
1537.35488	38806.775
1540.71647	37898.575
1544.07581	36885.075
1547.4329	35916.575
1550.78776	35207.875
1554.14038	34661.875
1557.49077	34392.075
1560.83892	34305.975
1564.18484	34258.175
1567.52853	34313.375
1570.86999	34510.075
1574.20922	34949.375
1577.54624	35438.075
1580.88103	35576.175
1584.2136	35812.975
1587.54395	36499.075
1590.87208	37582.475
1594.19801	38994.375
1597.52172	40364.875
1600.84321	40456.975
1604.16251	39067.375
1607.47959	36942.375
1610.79447	34653.075
1614.10715	32387.975
1617.41763	30373.275
1620.7259	28926.375
1624.03199	28131.375
1627.33587	28024.175
1630.63757	28627.175
1633.93707	30137.475
1637.23439	32682.275
1640.52951	36248.675
1643.82246	40414.875
1647.11321	43579.275
1650.40179	44037.775
1653.68819	41372.175
1656.97241	36793.875
1660.25446	32195.275
1663.53433	28701.075
1666.81203	26321.675
1670.08756	24817.575
1673.36092	23888.775
1676.63211	23259.775
1679.90115	22792.975
1683.16801	22428.375
1686.43272	22199.075
1689.69527	22026.975
1692.95567	21852.475
1696.2139	21768.675
1699.46999	21708.275
1702.72392	21605.775
1705.97571	21513.575
1709.22535	21467.075
1712.47284	21378.975
1715.71819	21389.275
1718.96139	21333.875
1722.20246	21238.275
1725.44139	21160.975
1728.67818	21064.775
1731.91284	20908.475
1735.14537	20799.675
1738.37576	20703.575
1741.60403	20608.375
1744.83017	20547.875
1748.05418	20470.375
1751.27607	20432.675
1754.49584	20454.075
1757.71349	20434.475
1760.92903	20419.475
1764.14244	20388.475
1767.35375	20369.775
1770.56294	20317.475
1773.77002	20310.675
1776.97499	20221.675
1780.17785	20174.875
1783.37861	20156.875
1786.57727	20102.975
1789.77382	20054.675
1792.96828	20026.975
1796.16064	19946.175
1799.3509	19926.175
1802.53907	19889.875
1805.72514	19820.175
1808.90913	19771.475
1812.09102	19744.575
1815.27083	19657.075
1818.44856	19651.575
1821.6242	19617.575
1824.79776	19612.175
1827.96924	19579.975
1831.13864	19589.975
1834.30597	19599.875
1837.47122	19553.275
1840.6344	19574.175
1843.7955	19606.275
1846.95454	19544.775
1850.11151	19539.775
1853.26642	19524.875
1856.41926	19560.675
1859.57004	19543.375
1862.71876	19528.675
1865.86542	19442.675
1869.01003	19429.775
1872.15258	19411.275
1875.29308	19380.775
1878.43152	19305.875
1881.56792	19282.475
1884.70227	19261.275
1887.83457	19238.875
1890.96482	19181.575
1894.09304	19153.775
1897.21921	19090.775
1900.34335	19099.575
1903.46544	19048.875
1906.58551	19014.675
1909.70353	18980.975
1912.81953	18911.075
1915.93349	18923.675
1919.04543	18872.075
1922.15534	18805.275
1925.26322	18776.075
1928.36908	18751.675
1931.47292	18707.675
1934.57473	18668.775
1937.67453	18642.575
1940.77232	18578.175
1943.86808	18483.475
1946.96184	18442.575
1950.05358	18358.475
1953.14331	18291.775
1956.23103	18260.975
1959.31675	18195.375
1962.40046	18138.375
1965.48217	18082.875
1968.56188	18036.575
1971.63959	17930.475
1974.7153	17888.775
1977.78901	17854.275
1980.86073	17763.375
1983.93046	17735.575
1986.99819	17665.875
1990.06394	17644.175
1993.1277	17570.975
1996.18947	17517.175
1999.24925	17434.875
2002.30706	17390.375
2005.36288	17360.575
2008.41672	17285.175
2011.46859	17263.675
2014.51848	17196.575
2017.56639	17164.075
2020.61233	17109.875
2023.6563	17081.275
2026.6983	17032.675
2029.73833	16971.475
2032.7764	16942.675
2035.8125	16892.275
2038.84664	16827.375
2041.87881	16785.175
2044.90903	16765.675
2047.93729	16745.175
2050.96359	16732.875
2053.98794	16713.375
2057.01034	16668.475
2060.03078	16626.175
2063.04927	16620.075
2066.06582	16598.775
2069.08042	16593.375
2072.09307	16583.275
2075.10378	16554.075
2078.11255	16547.475
2081.11938	16561.975
2084.12426	16538.475
2087.12722	16521.175
2090.12824	16508.575
2093.12732	16471.375
2096.12447	16499.075
2099.11969	16502.375
2102.11299	16504.775
2105.10435	16497.175
2108.09379	16514.275
2111.08131	16477.475
2114.0669	16496.175
2117.05057	16511.675
2120.03233	16505.875
2123.01216	16514.575
2125.99008	16556.475
2128.96609	16545.975
2131.94018	16552.175
2134.91236	16549.775
2137.88263	16571.675
2140.851	16540.975
2143.81746	16572.575
2146.78201	16568.575
2149.74466	16583.975
2152.7054	16543.975
2155.66425	16521.675
2158.6212	16525.175
2161.57625	16534.075
2164.52941	16511.175
2167.48067	16481.075
2170.43004	16482.375
2173.37752	16478.475
2176.32311	16447.675
2179.26681	16462.375
2182.20863	16476.175
2185.14856	16430.975
2188.08661	16443.275
2191.02278	16429.575
2193.95707	16418.775
2196.88948	16389.875
2199.82001	16373.375
2202.74867	16327.875
2205.67545	16335.275
2208.60037	16276.775
2211.52341	16268.175
2214.44458	16247.575
2217.36388	16214.875
2220.28132	16167.275
2223.1969	16120.775
2226.11061	16119.775
2229.02246	16072.775
2231.93245	16035.775
2234.84058	16008.375
2237.74686	16005.975
2240.65128	16013.175
2243.55385	15954.475
2246.45456	15922.675
2249.35343	15908.875
2252.25044	15898.275
2255.14561	15867.275
2258.03893	15836.275
2260.93041	15774.175
2263.82004	15700.975
2266.70783	15676.375
2269.59378	15600.775
2272.4779	15555.875
2275.36017	15530.375
2278.24061	15552.075
2281.11922	15508.975
2283.996	15489.375
2286.87094	15448.375
2289.74405	15453.475
2292.61534	15397.275
2295.4848	15379.575
2298.35243	15356.975
2301.21824	15346.575
2304.08223	15348.275
2306.94439	15320.875
2309.80474	15304.275
2312.66327	15277.375
2315.51999	15261.875
2318.37489	15254.175
2321.22797	15239.075
2324.07925	15199.475
2326.92871	15163.075
2329.77637	15137.175
2332.62222	15132.075
2335.46626	15133.875
2338.3085	15093.675
2341.14893	15117.575
2343.98756	15073.375
2346.8244	15087.575
2349.65943	15074.275
2352.49267	15023.975
2355.32411	15024.475
2358.15376	15038.175
2360.98161	15041.775
2363.80768	15035.975
2366.63195	15026.475
2369.45444	14975.675
2372.27514	14938.575
2375.09405	14975.375
2377.91118	14932.375
2380.72652	14907.075
2383.54009	14862.275
2386.35187	14853.075
2389.16188	14767.175
2391.97011	14750.975
2394.77657	14712.075
2397.58125	14693.975
2400.38416	14676.575
2403.18529	14627.575
2405.98466	14639.075
2408.78226	14623.775
2411.57809	14619.475
2414.37216	14610.075
2417.16446	14533.275
2419.955	14566.275
2422.74378	14544.575
2425.5308	14526.275
2428.31606	14489.275
2431.09956	14506.775
2433.88131	14466.375
2436.6613	14467.975
2439.43954	14483.275
2442.21603	14471.175
2444.99077	14424.075
2447.76377	14435.175
2450.53501	14365.875
2453.30451	14386.175
2456.07226	14369.375
2458.83827	14360.175
2461.60254	14332.875
2464.36507	14362.375
2467.12586	14324.475
2469.88492	14315.375
2472.64224	14286.875
2475.39782	14302.275
2478.15167	14317.275
2480.90379	14325.575
2483.65417	14312.975
2486.40283	14298.175
2489.14976	14296.175
2491.89497	14260.975
2494.63845	14280.475
2497.3802	14252.075
2500.12024	14237.775
2502.85855	14231.275
2505.59514	14198.975
2508.33002	14193.975
2511.06318	14200.775
2513.79462	14171.275
2516.52435	14185.175
2519.25237	14188.875
2521.97867	14145.675
2524.70327	14174.575
2527.42616	14130.975
2530.14734	14094.575
2532.86681	14084.375
2535.58458	14054.175
2538.30065	14042.575
2541.01501	14041.775
2543.72768	14004.575
2546.43864	14038.675
2549.14791	14020.675
2551.85548	13998.775
2554.56136	13976.475
2557.26554	13955.075
2559.96803	13882.275
2562.66883	13878.275
2565.36794	13850.275
2568.06536	13853.475
2570.7611	13805.275
2573.45514	13787.375
2576.14751	13767.475
2578.83819	13749.375
2581.52719	13731.175
2584.21451	13691.875
2586.90015	13694.875
2589.58411	13701.875
2592.2664	13637.175
2594.94701	13644.275
2597.62594	13636.875
2600.30321	13604.775
2602.9788	13620.275
2605.65273	13599.875
2608.32498	13581.775
2610.99557	13565.175
2613.66449	13588.775
2616.33175	13580.675
2618.99734	13562.675
2621.66128	13559.775
2624.32355	13524.075
2626.98416	13490.175
2629.64311	13466.675
2632.30041	13474.975
2634.95605	13437.775
2637.61004	13414.775
2640.26238	13405.475
2642.91306	13385.475
2645.56209	13415.975
2648.20948	13427.675
2650.85521	13405.175
2653.4993	13420.275
2656.14175	13397.075
2658.78255	13413.275
2661.42171	13400.575
2664.05923	13417.975
2666.6951	13420.575
2669.32934	13439.775
2671.96194	13419.875
2674.59291	13447.475
2677.22224	13419.075
2679.84993	13442.075
2682.476	13411.375
2685.10043	13434.375
2687.72324	13415.375
2690.34441	13435.175
2692.96396	13425.475
2695.58188	13435.775
2698.19818	13404.775
2700.81285	13392.375
2703.4259	13398.975
2706.03733	13420.475
2708.64714	13413.675
2711.25533	13439.475
2713.86191	13398.175
2716.46687	13413.275
2719.07021	13415.075
2721.67194	13467.175
2724.27206	13431.875
2726.87057	13414.975
2729.46747	13403.675
2732.06276	13409.475
2734.65644	13434.975
2737.24852	13419.575
2739.83899	13396.475
2742.42786	13405.675
2745.01513	13348.875
2747.60079	13372.875
2750.18486	13337.275
2752.76733	13313.675
2755.3482	13314.275
2757.92747	13321.975
2760.50515	13311.675
2763.08123	13280.575
2765.65573	13229.775
2768.22863	13254.875
2770.79994	13224.275
2773.36967	13229.875
2775.9378	13226.575
2778.50435	13229.275
2781.06932	13196.075
2783.6327	13179.275
2786.1945	13193.675
2788.75471	13160.775
2791.31335	13118.875
2793.87041	13111.975
2796.42589	13077.575
2798.97979	13070.175
2801.53212	13049.975
2804.08288	13033.575
2806.63206	13008.475
2809.17967	12974.775
2811.72571	12930.375
2814.27018	12913.275
2816.81308	12871.975
2819.35442	12846.775
2821.89419	12808.275
2824.43239	12795.275
2826.96904	12786.375
2829.50412	12786.575
2832.03763	12735.275
2834.56959	12737.775
2837.1	12722.875
2839.62884	12726.575
2842.15613	12746.975
2844.68186	12734.975
2847.20604	12719.475
2849.72867	12737.475
2852.24974	12741.075
2854.76927	12652.275
2857.28724	12636.275
2859.80367	12637.975
2862.31855	12621.175
2864.83189	12582.775
2867.34368	12533.675
2869.85393	12566.275
2872.36264	12564.975
2874.8698	12516.575
2877.37543	12503.675
2879.87952	12502.075
2882.38207	12544.775
2884.88308	12498.975
2887.38256	12484.775
2889.88051	12498.275
2892.37692	12494.975
2894.8718	12472.175
2897.36515	12521.275
2899.85698	12519.675
2902.34727	12518.175
2904.83604	12537.375
2907.32328	12571.875
2909.809	12523.675
2912.29319	12525.075
2914.77587	12484.675
2917.25702	12500.575
2919.73665	12465.075
2922.21476	12484.475
2924.69136	12462.375
2927.16644	12487.275
2929.64	12444.675
2932.11205	12449.775
2934.58258	12409.275
2937.05161	12429.175
2939.51912	12415.475
2941.98513	12386.275
2944.44962	12372.375
2946.91261	12307.175
2949.37409	12347.875
2951.83407	12315.275
2954.29254	12290.675
2956.74951	12288.375
2959.20498	12279.375
2961.65895	12280.275
2964.11142	12291.275
2966.56239	12252.975
2969.01186	12249.375
2971.45984	12234.375
2973.90632	12251.875
2976.35131	12199.675
2978.7948	12153.075
2981.23681	12115.675
2983.67732	12095.275
2986.11635	12072.875
2988.55388	12030.575
2990.98993	12010.575
2993.4245	11994.375
2995.85758	11961.475
2998.28917	11906.675
3000.71928	11889.175
3003.14791	11875.975
3005.57506	11869.375
3008.00073	11813.575
3010.42493	11695.675
3012.84764	11732.075
3015.26888	11732.875
3017.68865	11685.575
3020.10694	11651.275
3022.52376	11672.275
3024.9391	11649.375
3027.35298	11632.775
3029.76539	11637.175
3032.17632	11630.875
3034.5858	11621.075
3036.9938	11597.675
3039.40034	11580.275
3041.80542	11584.975
3044.20903	11527.675
3046.61118	11553.575
3049.01187	11499.475
3051.4111	11495.575
3053.80888	11464.875
3056.20519	11459.175
3058.60005	11387.075
3060.99345	11394.475
3063.3854	11323.475
3065.7759	11307.775
3068.16494	11266.275
3070.55254	11266.375
3072.93868	11219.175
3075.32338	11142.575
3077.70662	11145.175
3080.08842	11139.075
3082.46878	11112.475
3084.84769	11092.075
3087.22515	11070.575
3089.60118	11099.875
3091.97576	11087.375
3094.3489	11076.275
3096.72061	11064.775
3099.09087	11068.075
3101.4597	11040.775
3103.82709	11031.975
3106.19305	11006.275
3108.55757	11013.575
3110.92066	10990.175
3113.28232	10951.175
3115.64255	10915.375
3118.00134	10887.075
3120.35871	10891.075
3122.71466	10854.975
3125.06917	10848.775
3127.42226	10801.575
