Data from AgNP_FTO_APTES_UA_10uM_CRN_2uM_R6G_10uM_NaF_0.1M_Addition_RamanShift__14__14-13-10-594.txt Node

Date: Thu Feb 10 14:13:10 GMT 2022
User: TCL
Spectrometer: QEP01345
Trigger mode: 4
Integration Time (sec): 7.000000E0
Scans to average: 10
Electric dark correction enabled: true
Nonlinearity correction enabled: false
Boxcar width: 0
XAxis mode: Raman Shifts
Number of Pixels in Spectrum: 1044
>>>>>Begin Spectral Data<<<<<
46.04893	-0.675
50.45542	-0.275
54.85868	0.025
59.25871	-0.875
63.6555	69.125
68.04907	71.225
72.43941	77.025
76.82654	75.225
81.21044	82.725
85.59113	78.725
89.96862	84.025
94.34289	91.425
98.71396	88.925
103.08183	97.625
107.4465	98.925
111.80798	100.525
116.16626	103.425
120.52136	107.425
124.87327	110.125
129.222	116.125
133.56755	124.025
137.90993	132.625
142.24913	143.425
146.58517	165.225
150.91804	193.325
155.24774	227.225
159.57429	287.125
163.89768	367.925
168.21792	481.525
172.53501	666.725
176.84895	926.225
181.15975	1296.825
185.46741	1827.325
189.77193	2532.425
194.07331	3384.325
198.37157	4360.125
202.6667	5422.825
206.9587	6472.325
211.24758	7482.825
215.53334	8475.725
219.81599	9567.225
224.09553	10709.125
228.37195	11991.925
232.64527	13414.025
236.91549	14922.725
241.18261	16427.925
245.44663	17800.725
249.70755	19097.325
253.96539	20206.625
258.22014	21144.925
262.4718	21906.525
266.72039	22401.925
270.96589	22646.225
275.20832	22691.425
279.44768	22610.325
283.68397	22363.825
287.91719	22246.425
292.14735	22093.825
296.37445	22118.725
300.59849	22153.825
304.81948	22306.525
309.03742	22299.025
313.25231	22099.025
317.46415	21692.525
321.67296	21159.525
325.87872	20693.525
330.08145	20458.225
334.28114	20464.525
338.47781	20604.525
342.67145	20887.325
346.86207	21159.225
351.04966	21493.625
355.23424	21858.825
359.4158	22165.825
363.59435	22384.925
367.76989	22536.425
371.94243	22665.025
376.11196	22660.725
380.27849	22708.625
384.44203	22796.825
388.60257	22933.725
392.76012	23122.825
396.91468	23426.825
401.06626	23766.125
405.21485	24027.625
409.36047	23930.025
413.50311	23547.225
417.64277	23241.225
421.77947	23193.125
425.9132	23279.125
430.04396	23338.825
434.17176	23473.625
438.2966	23546.025
442.41849	23791.125
446.53742	24187.425
450.6534	24605.625
454.76644	24947.025
458.87653	25041.025
462.98368	25104.125
467.08789	25045.525
471.18916	24899.725
475.2875	24689.325
479.38291	24549.225
483.4754	24430.825
487.56496	24282.225
491.6516	24091.425
495.73531	23779.825
499.81612	23608.525
503.89401	23658.925
507.96899	23717.025
512.04106	23794.625
516.11023	23825.625
520.1765	23688.225
524.23987	23543.125
528.30034	23335.125
532.35792	23127.125
536.41261	22898.725
540.46441	22693.425
544.51333	22717.025
548.55936	22967.625
552.60252	23340.825
556.64279	23748.025
560.6802	24044.625
564.71473	24287.925
568.7464	24690.925
572.7752	25397.525
576.80114	26119.025
580.82422	26745.225
584.84444	27191.625
588.86181	27457.525
592.87633	27610.725
596.888	27471.225
600.89682	27078.025
604.9028	27327.125
608.90594	28985.825
612.90624	30957.525
616.90371	29319.225
620.89834	25313.025
624.89015	23592.225
628.87913	23400.525
632.86528	23613.425
636.84862	23736.625
640.82913	23448.525
644.80683	22944.125
648.78172	22558.225
652.75379	22427.225
656.72306	22658.325
660.68952	22992.425
664.65319	22890.225
668.61405	22603.225
672.57211	22543.125
676.52738	22533.425
680.47986	22527.225
684.42955	22399.125
688.37646	22325.125
692.32058	22359.525
696.26192	22589.325
700.20048	22821.025
704.13626	23016.325
708.06928	23147.625
711.99952	23080.125
715.927	22936.425
719.85171	22893.925
723.77365	22726.525
727.69284	22518.225
731.60928	22306.825
735.52295	22175.925
739.43388	22116.325
743.34206	22149.825
747.24749	22253.825
751.15017	22422.825
755.05012	22777.725
758.94733	23339.625
762.8418	24421.325
766.73354	26043.025
770.62254	27511.925
774.50882	27788.325
778.39237	26762.125
782.27321	25190.625
786.15132	23867.125
790.02671	22989.625
793.89938	22474.625
797.76935	22199.225
801.6366	22094.925
805.50115	21991.925
809.36299	21878.525
813.22213	21778.625
817.07857	21746.025
820.93231	21765.225
824.78336	21683.725
828.63172	21651.425
832.47738	21589.825
836.32036	21575.425
840.16066	21520.325
843.99827	21493.725
847.8332	21493.825
851.66546	21498.125
855.49504	21585.825
859.32195	21559.925
863.1462	21518.725
866.96777	21482.725
870.78668	21503.825
874.60293	21500.525
878.41652	21532.825
882.22745	21574.825
886.03573	21631.825
889.84136	21644.725
893.64433	21639.925
897.44466	21594.425
901.24235	21534.225
905.0374	21496.725
908.8298	21447.125
912.61957	21477.625
916.40671	21638.425
920.19121	21849.425
923.97308	22040.825
927.75233	21986.725
931.52895	21866.725
935.30295	21551.525
939.07433	21237.325
942.84309	20931.225
946.60924	20791.625
950.37278	20704.725
954.13371	20685.825
957.89203	20642.925
961.64774	20613.025
965.40086	20634.225
969.15137	20571.425
972.89929	20569.525
976.64461	20509.025
980.38733	20450.025
984.12747	20420.525
987.86502	20486.525
991.59999	20561.225
995.33237	20647.225
999.06217	20848.725
1002.78939	21081.425
1006.51404	21411.825
1010.23611	21706.725
1013.95561	21909.125
1017.67255	21949.925
1021.38692	21790.825
1025.09872	21549.025
1028.80796	21371.625
1032.51465	21221.825
1036.21877	21238.025
1039.92035	21324.825
1043.61937	21376.225
1047.31584	21452.025
1051.00976	21549.625
1054.70114	21687.225
1058.38998	21802.425
1062.07627	22006.725
1065.76003	22268.725
1069.44126	22479.325
1073.11995	22859.625
1076.79611	23145.725
1080.46974	23325.025
1084.14085	23406.425
1087.80943	23559.725
1091.47549	23766.325
1095.13903	23819.125
1098.80005	23607.325
1102.45857	23130.825
1106.11456	22781.825
1109.76805	22512.525
1113.41903	22440.625
1117.06751	22526.325
1120.71348	22716.225
1124.35696	23000.325
1127.99793	23261.025
1131.63641	23411.625
1135.2724	23287.425
1138.90589	23130.525
1142.5369	23082.725
1146.16542	23114.925
1149.79145	23190.425
1153.415	23329.925
1157.03607	23588.925
1160.65467	24048.925
1164.27079	24781.925
1167.88443	25715.625
1171.49561	26907.525
1175.10432	28440.125
1178.71056	30294.725
1182.31434	32035.525
1185.91565	33062.725
1189.51451	33330.725
1193.11091	33012.425
1196.70485	32075.325
1200.29634	30909.725
1203.88538	29840.325
1207.47197	29126.925
1211.05612	28537.125
1214.63782	28022.625
1218.21708	27406.825
1221.79391	26737.925
1225.36829	26288.525
1228.94024	26038.025
1232.50976	25879.125
1236.07685	25776.725
1239.6415	25712.725
1243.20374	25715.625
1246.76355	25792.225
1250.32093	26001.825
1253.8759	26349.025
1257.42845	26910.725
1260.97859	27593.525
1264.52631	28282.325
1268.07163	28964.225
1271.61453	29625.325
1275.15503	30150.725
1278.69312	30785.625
1282.22882	31366.525
1285.76211	32101.425
1289.29301	33003.025
1292.82151	34045.725
1296.34761	35200.325
1299.87133	36676.625
1303.39266	38190.825
1306.9116	39706.625
1310.42815	41023.925
1313.94233	41777.625
1317.45412	41613.725
1320.96354	41088.425
1324.47058	40823.825
1327.97525	40626.825
1331.47754	40568.025
1334.97747	40589.625
1338.47502	40767.425
1341.97022	41135.225
1345.46305	41587.325
1348.95352	41826.125
1352.44163	41697.425
1355.92738	41577.225
1359.41078	41963.125
1362.89183	42464.125
1366.37053	41573.925
1369.84688	38701.625
1373.32088	35444.225
1376.79254	33092.525
1380.26186	32098.625
1383.72883	31735.425
1387.19347	31517.425
1390.65578	31180.525
1394.11575	30965.725
1397.57339	30919.825
1401.0287	30887.325
1404.48168	30856.325
1407.93234	30617.125
1411.38068	30142.925
1414.82669	29419.325
1418.27039	28618.625
1421.71177	27769.925
1425.15083	27129.225
1428.58758	26807.225
1432.02203	26942.925
1435.45416	27387.025
1438.88399	27867.625
1442.31151	28279.925
1445.73673	28635.625
1449.15965	28952.625
1452.58027	29266.125
1455.9986	29499.625
1459.41463	29746.125
1462.82837	30119.525
1466.23982	30534.425
1469.64898	30890.625
1473.05586	31028.225
1476.46045	31097.225
1479.86276	31057.425
1483.26279	31022.625
1486.66054	31137.325
1490.05602	31444.825
1493.44922	32072.225
1496.84016	32970.025
1500.22882	34418.225
1503.61521	36034.625
1506.99934	37707.425
1510.38121	38808.825
1513.76081	38826.725
1517.13816	37714.625
1520.51324	36183.825
1523.88607	34955.225
1527.25665	34158.925
1530.62498	33769.625
1533.99105	33391.725
1537.35488	32787.525
1540.71647	32107.525
1544.07581	31223.525
1547.4329	30416.325
1550.78776	29915.625
1554.14038	29580.025
1557.49077	29475.725
1560.83892	29474.525
1564.18484	29586.325
1567.52853	29777.525
1570.86999	29986.325
1574.20922	30425.325
1577.54624	30701.625
1580.88103	30545.825
1584.2136	30290.025
1587.54395	30433.425
1590.87208	30962.225
1594.19801	31969.225
1597.52172	33022.025
1600.84321	33218.225
1604.16251	32228.325
1607.47959	30724.325
1610.79447	29053.525
1614.10715	27314.825
1617.41763	25748.525
1620.7259	24485.325
1624.03199	23788.425
1627.33587	23623.525
1630.63757	24080.025
1633.93707	25217.625
1637.23439	27184.525
1640.52951	30027.125
1643.82246	33462.625
1647.11321	36326.425
1650.40179	37324.625
1653.68819	35542.025
1656.97241	31769.125
1660.25446	27785.225
1663.53433	24647.825
1666.81203	22567.625
1670.08756	21212.725
1673.36092	20392.225
1676.63211	19878.825
1679.90115	19524.125
1683.16801	19203.325
1686.43272	18983.025
1689.69527	18830.525
1692.95567	18715.725
1696.2139	18617.425
1699.46999	18552.225
1702.72392	18472.825
1705.97571	18411.125
1709.22535	18363.125
1712.47284	18299.425
1715.71819	18279.625
1718.96139	18201.625
1722.20246	18193.925
1725.44139	18093.825
1728.67818	17998.225
1731.91284	17889.325
1735.14537	17802.925
1738.37576	17735.125
1741.60403	17640.825
1744.83017	17587.025
1748.05418	17552.925
1751.27607	17520.125
1754.49584	17487.425
1757.71349	17448.325
1760.92903	17407.825
1764.14244	17409.125
1767.35375	17435.125
1770.56294	17366.225
1773.77002	17348.425
1776.97499	17297.125
1780.17785	17244.125
1783.37861	17183.125
1786.57727	17129.825
1789.77382	17109.725
1792.96828	17087.925
1796.16064	17035.425
1799.3509	16985.925
1802.53907	16998.925
1805.72514	16918.925
1808.90913	16856.225
1812.09102	16859.325
1815.27083	16803.525
1818.44856	16814.525
1821.6242	16756.225
1824.79776	16752.025
1827.96924	16723.525
1831.13864	16716.725
1834.30597	16753.925
1837.47122	16654.525
1840.6344	16673.025
1843.7955	16675.625
1846.95454	16681.325
1850.11151	16636.825
1853.26642	16647.625
1856.41926	16639.025
1859.57004	16672.725
1862.71876	16637.625
1865.86542	16581.225
1869.01003	16558.725
1872.15258	16555.725
1875.29308	16487.325
1878.43152	16439.825
1881.56792	16395.725
1884.70227	16404.225
1887.83457	16367.525
1890.96482	16282.425
1894.09304	16263.325
1897.21921	16262.025
1900.34335	16219.325
1903.46544	16201.025
1906.58551	16195.825
1909.70353	16164.825
1912.81953	16130.125
1915.93349	16089.025
1919.04543	16080.625
1922.15534	16030.725
1925.26322	15985.525
1928.36908	15955.625
1931.47292	15957.525
1934.57473	15921.725
1937.67453	15849.425
1940.77232	15808.525
1943.86808	15726.525
1946.96184	15700.125
1950.05358	15677.425
1953.14331	15593.925
1956.23103	15540.325
1959.31675	15525.125
1962.40046	15435.325
1965.48217	15387.525
1968.56188	15363.725
1971.63959	15311.225
1974.7153	15271.225
1977.78901	15240.725
1980.86073	15154.825
1983.93046	15106.125
1986.99819	15075.425
1990.06394	15055.125
1993.1277	14971.525
1996.18947	14889.825
1999.24925	14858.625
2002.30706	14807.425
2005.36288	14737.825
2008.41672	14704.825
2011.46859	14675.825
2014.51848	14649.725
2017.56639	14614.525
2020.61233	14560.625
2023.6563	14508.325
2026.6983	14450.825
2029.73833	14437.225
2032.7764	14375.425
2035.8125	14362.125
2038.84664	14296.325
2041.87881	14264.225
2044.90903	14255.625
2047.93729	14220.825
2050.96359	14211.225
2053.98794	14187.325
2057.01034	14165.025
2060.03078	14112.725
2063.04927	14120.425
2066.06582	14105.325
2069.08042	14089.725
2072.09307	14115.625
2075.10378	14084.525
2078.11255	14080.825
2081.11938	14045.025
2084.12426	14018.325
2087.12722	14043.025
2090.12824	14042.425
2093.12732	14010.425
2096.12447	14021.325
2099.11969	14007.025
2102.11299	14023.125
2105.10435	14036.425
2108.09379	14027.025
2111.08131	14007.925
2114.0669	14020.725
2117.05057	14018.325
2120.03233	14042.725
2123.01216	14047.725
2125.99008	14046.025
2128.96609	14068.225
2131.94018	14085.725
2134.91236	14068.725
2137.88263	14058.425
2140.851	14068.025
2143.81746	14046.825
2146.78201	14071.825
2149.74466	14088.625
2152.7054	14055.925
2155.66425	14038.025
2158.6212	14008.125
2161.57625	14013.425
2164.52941	14022.025
2167.48067	13987.325
2170.43004	13998.725
2173.37752	13977.725
2176.32311	13969.625
2179.26681	13979.625
2182.20863	13950.925
2185.14856	13942.225
2188.08661	13949.225
2191.02278	13947.625
2193.95707	13919.325
2196.88948	13914.425
2199.82001	13893.225
2202.74867	13854.825
2205.67545	13836.225
2208.60037	13840.925
2211.52341	13823.225
2214.44458	13805.425
2217.36388	13794.325
2220.28132	13741.725
2223.1969	13689.025
2226.11061	13693.025
2229.02246	13635.825
2231.93245	13623.125
2234.84058	13583.525
2237.74686	13582.925
2240.65128	13530.525
2243.55385	13555.725
2246.45456	13497.825
2249.35343	13477.325
2252.25044	13469.025
2255.14561	13454.625
2258.03893	13438.925
2260.93041	13421.625
2263.82004	13339.325
2266.70783	13302.825
2269.59378	13264.925
2272.4779	13228.625
2275.36017	13174.725
2278.24061	13157.525
2281.11922	13140.025
2283.996	13114.725
2286.87094	13111.225
2289.74405	13088.825
2292.61534	13098.125
2295.4848	13050.925
2298.35243	13048.925
2301.21824	13044.725
2304.08223	13023.825
2306.94439	12970.625
2309.80474	12955.925
2312.66327	12965.125
2315.51999	12950.525
2318.37489	12931.925
2321.22797	12915.025
2324.07925	12888.825
2326.92871	12891.025
2329.77637	12883.725
2332.62222	12848.325
2335.46626	12828.925
2338.3085	12795.125
2341.14893	12788.625
2343.98756	12798.925
2346.8244	12772.825
2349.65943	12744.725
2352.49267	12741.425
2355.32411	12739.925
2358.15376	12747.025
2360.98161	12737.025
2363.80768	12733.625
2366.63195	12726.925
2369.45444	12715.525
2372.27514	12688.225
2375.09405	12690.925
2377.91118	12661.725
2380.72652	12626.825
2383.54009	12599.625
2386.35187	12555.925
2389.16188	12508.125
2391.97011	12485.425
2394.77657	12486.625
2397.58125	12452.325
2400.38416	12417.325
2403.18529	12390.725
2405.98466	12400.625
2408.78226	12342.325
2411.57809	12369.025
2414.37216	12309.925
2417.16446	12321.025
2419.955	12295.525
2422.74378	12281.725
2425.5308	12270.425
2428.31606	12271.025
2431.09956	12286.125
2433.88131	12262.425
2436.6613	12244.125
2439.43954	12247.025
2442.21603	12245.325
2444.99077	12239.025
2447.76377	12191.925
2450.53501	12169.525
2453.30451	12162.725
2456.07226	12159.625
2458.83827	12156.325
2461.60254	12141.625
2464.36507	12147.525
2467.12586	12114.325
2469.88492	12125.325
2472.64224	12126.225
2475.39782	12120.925
2478.15167	12128.325
2480.90379	12093.725
2483.65417	12110.625
2486.40283	12113.925
2489.14976	12096.525
2491.89497	12058.725
2494.63845	12058.425
2497.3802	12051.225
2500.12024	12038.825
2502.85855	12017.525
2505.59514	12006.625
2508.33002	11989.725
2511.06318	12013.625
2513.79462	11981.625
2516.52435	11960.725
2519.25237	11943.225
2521.97867	11918.725
2524.70327	11936.325
2527.42616	11906.725
2530.14734	11889.925
2532.86681	11869.625
2535.58458	11841.825
2538.30065	11840.325
2541.01501	11813.625
2543.72768	11798.125
2546.43864	11799.225
2549.14791	11785.125
2551.85548	11766.125
2554.56136	11760.025
2557.26554	11742.025
2559.96803	11684.125
2562.66883	11650.525
2565.36794	11670.225
2568.06536	11622.025
2570.7611	11590.925
2573.45514	11593.725
2576.14751	11585.625
2578.83819	11561.325
2581.52719	11540.025
2584.21451	11501.925
2586.90015	11519.425
2589.58411	11504.525
2592.2664	11470.125
2594.94701	11457.325
2597.62594	11434.825
2600.30321	11405.125
2602.9788	11390.025
2605.65273	11397.125
2608.32498	11382.625
2610.99557	11387.025
2613.66449	11363.925
2616.33175	11340.525
2618.99734	11334.025
2621.66128	11346.425
2624.32355	11304.225
2626.98416	11298.525
2629.64311	11266.025
2632.30041	11264.625
2634.95605	11256.725
2637.61004	11225.425
2640.26238	11252.625
2642.91306	11224.525
2645.56209	11227.425
2648.20948	11226.125
2650.85521	11227.025
2653.4993	11206.525
2656.14175	11192.925
2658.78255	11213.625
2661.42171	11214.125
2664.05923	11219.625
2666.6951	11216.725
2669.32934	11229.125
2671.96194	11206.825
2674.59291	11203.825
2677.22224	11192.425
2679.84993	11210.225
2682.476	11222.625
2685.10043	11199.025
2687.72324	11182.525
2690.34441	11190.125
2692.96396	11197.425
2695.58188	11183.725
2698.19818	11166.325
2700.81285	11178.425
2703.4259	11173.725
2706.03733	11168.025
2708.64714	11166.925
2711.25533	11173.525
2713.86191	11171.425
2716.46687	11182.825
2719.07021	11174.725
2721.67194	11213.425
2724.27206	11196.125
2726.87057	11217.325
2729.46747	11188.325
2732.06276	11188.325
2734.65644	11195.525
2737.24852	11160.625
2739.83899	11159.825
2742.42786	11162.425
2745.01513	11118.025
2747.60079	11099.525
2750.18486	11104.625
2752.76733	11086.225
2755.3482	11031.725
2757.92747	11092.925
2760.50515	11026.125
2763.08123	11042.125
2765.65573	10986.925
2768.22863	11015.025
2770.79994	10983.725
2773.36967	10963.025
2775.9378	10974.025
2778.50435	10964.625
2781.06932	10943.925
2783.6327	10938.725
2786.1945	10971.625
2788.75471	10917.225
2791.31335	10902.425
2793.87041	10910.725
2796.42589	10866.925
2798.97979	10821.525
2801.53212	10837.425
2804.08288	10817.925
2806.63206	10817.225
2809.17967	10787.225
2811.72571	10760.625
2814.27018	10726.825
2816.81308	10704.125
2819.35442	10679.725
2821.89419	10659.125
2824.43239	10633.925
2826.96904	10628.725
2829.50412	10645.425
2832.03763	10602.525
2834.56959	10609.325
2837.1	10577.025
2839.62884	10603.825
2842.15613	10586.925
2844.68186	10614.925
2847.20604	10589.125
2849.72867	10613.625
2852.24974	10585.925
2854.76927	10576.425
2857.28724	10534.625
2859.80367	10481.525
2862.31855	10517.025
2864.83189	10507.625
2867.34368	10472.725
2869.85393	10469.225
2872.36264	10452.925
2874.8698	10462.625
2877.37543	10433.825
2879.87952	10430.425
2882.38207	10454.225
2884.88308	10400.125
2887.38256	10427.325
2889.88051	10413.125
2892.37692	10391.325
2894.8718	10392.025
2897.36515	10432.125
2899.85698	10420.225
2902.34727	10411.525
2904.83604	10403.825
2907.32328	10443.725
2909.809	10436.325
2912.29319	10421.625
2914.77587	10410.325
2917.25702	10387.325
2919.73665	10407.725
2922.21476	10385.625
2924.69136	10380.225
2927.16644	10377.625
2929.64	10377.525
2932.11205	10369.925
2934.58258	10315.425
2937.05161	10314.525
2939.51912	10344.225
2941.98513	10294.125
2944.44962	10281.825
2946.91261	10250.625
2949.37409	10262.625
2951.83407	10274.925
2954.29254	10255.625
2956.74951	10216.225
2959.20498	10225.125
2961.65895	10198.425
2964.11142	10204.225
2966.56239	10195.125
2969.01186	10189.825
2971.45984	10172.325
2973.90632	10166.925
2976.35131	10126.325
2978.7948	10119.025
2981.23681	10111.225
2983.67732	10098.125
2986.11635	10073.725
2988.55388	10022.025
2990.98993	10014.525
2993.4245	9979.025
2995.85758	9967.125
2998.28917	9934.625
3000.71928	9923.025
3003.14791	9911.525
3005.57506	9875.325
3008.00073	9868.825
3010.42493	9698.925
3012.84764	9803.425
3015.26888	9803.525
3017.68865	9752.925
3020.10694	9756.025
3022.52376	9709.425
3024.9391	9694.225
3027.35298	9717.525
3029.76539	9701.125
3032.17632	9695.425
3034.5858	9649.425
3036.9938	9644.725
3039.40034	9647.025
3041.80542	9643.225
3044.20903	9620.825
3046.61118	9609.825
3049.01187	9576.925
3051.4111	9595.825
3053.80888	9532.225
3056.20519	9533.025
3058.60005	9513.925
3060.99345	9501.625
3063.3854	9464.525
3065.7759	9438.325
3068.16494	9423.025
3070.55254	9377.525
3072.93868	9369.925
3075.32338	9330.025
3077.70662	9323.025
3080.08842	9308.825
3082.46878	9288.525
3084.84769	9269.125
3087.22515	9260.125
3089.60118	9278.825
3091.97576	9245.025
3094.3489	9247.525
3096.72061	9267.725
3099.09087	9242.425
3101.4597	9226.225
3103.82709	9235.525
3106.19305	9210.925
3108.55757	9208.425
3110.92066	9198.125
3113.28232	9157.725
3115.64255	9146.625
3118.00134	9105.925
3120.35871	9115.925
3122.71466	9069.725
3125.06917	9075.525
3127.42226	9049.825
3129.77393	9070.325
3132.12417	9024.825
3134.47299	9016.325
