Data from AgNP_FTO_APTES_UA_10uM_CRN_1uM_R6G_10uM_NaF_0.1M_Addition_RamanShift__25__13-21-50-528.txt Node

Date: Thu Feb 10 13:21:50 GMT 2022
User: TCL
Spectrometer: QEP01345
Trigger mode: 4
Integration Time (sec): 7.000000E0
Scans to average: 10
Electric dark correction enabled: true
Nonlinearity correction enabled: false
Boxcar width: 0
XAxis mode: Raman Shifts
Number of Pixels in Spectrum: 1044
>>>>>Begin Spectral Data<<<<<
46.04893	-0.4
50.45542	-0.8
54.85868	-2
59.25871	-1.6
63.6555	71.8
68.04907	79.1
72.43941	80.1
76.82654	82.3
81.21044	85.7
85.59113	89.5
89.96862	94.4
94.34289	98.6
98.71396	98.1
103.08183	102.9
107.4465	105.7
111.80798	102.3
116.16626	108.7
120.52136	114.7
124.87327	116.3
129.222	125.1
133.56755	132.3
137.90993	139.2
142.24913	147.4
146.58517	171.6
150.91804	198.7
155.24774	232.8
159.57429	289.5
163.89768	367.2
168.21792	488.3
172.53501	661.7
176.84895	923.5
181.15975	1289.7
185.46741	1802.1
189.77193	2497.6
194.07331	3332
198.37157	4297.4
202.6667	5312.3
206.9587	6323.2
211.24758	7318.7
215.53334	8352.4
219.81599	9466.2
224.09553	10692.9
228.37195	12127.1
232.64527	13625
236.91549	15194.1
241.18261	16668.7
245.44663	18015.9
249.70755	19135
253.96539	20140.9
258.22014	20986.8
262.4718	21740.3
266.72039	22327.8
270.96589	22679.7
275.20832	22745.1
279.44768	22667.6
283.68397	22474.3
287.91719	22338.6
292.14735	22352.9
296.37445	22510.8
300.59849	22894.5
304.81948	23315.2
309.03742	23606.2
313.25231	23429
317.46415	22635.8
321.67296	21403.1
325.87872	20399.9
330.08145	19961.2
334.28114	19997.4
338.47781	20280
342.67145	20671.4
346.86207	21295.4
351.04966	22262.3
355.23424	23271
359.4158	24070.6
363.59435	24494
367.76989	24623.2
371.94243	24686.6
376.11196	24601.1
380.27849	24621.5
384.44203	24526
388.60257	24441.5
392.76012	24474.2
396.91468	24817.8
401.06626	25403.3
405.21485	25871.3
409.36047	25691
413.50311	24918.6
417.64277	24247.6
421.77947	23916.6
425.9132	23902.5
430.04396	23972.5
434.17176	24122.6
438.2966	24421.8
442.41849	24977
446.53742	25745.2
450.6534	26566.9
454.76644	27201.4
458.87653	27342.9
462.98368	27206
467.08789	26806.3
471.18916	26177.8
475.2875	25558
479.38291	25157
483.4754	24824.6
487.56496	24563
491.6516	24224.8
495.73531	23915
499.81612	23883.6
503.89401	24034.7
507.96899	24185.9
512.04106	24231.2
516.11023	24363.4
520.1765	24388.5
524.23987	24294.4
528.30034	24005.5
532.35792	23647.8
536.41261	23190.3
540.46441	22836.6
544.51333	22721.9
548.55936	23005.9
552.60252	23539.5
556.64279	24074.9
560.6802	24437.6
564.71473	24663.2
568.7464	25399.3
572.7752	26087
576.80114	26001.5
580.82422	25777.4
584.84444	25757.1
588.86181	25848.9
592.87633	26143
596.888	26510.4
600.89682	26981
604.9028	28956.6
608.90594	34004
612.90624	40241.9
616.90371	38207.4
620.89834	29429.9
624.89015	25521.9
628.87913	24965.9
632.86528	24848.7
636.84862	24661.5
640.82913	24147
644.80683	23212
648.78172	22652.9
652.75379	22666.9
656.72306	23288.8
660.68952	24148.3
664.65319	24113.5
668.61405	23350.2
672.57211	22959.4
676.52738	22919.1
680.47986	22932
684.42955	22830
688.37646	22856.3
692.32058	23014.6
696.26192	23205.6
700.20048	23523.7
704.13626	23747.8
708.06928	23624.1
711.99952	23359.3
715.927	23292.3
719.85171	23301.9
723.77365	23191.6
727.69284	22917.2
731.60928	22691.3
735.52295	22698.2
739.43388	22745.4
743.34206	22920.2
747.24749	23116.1
751.15017	23376.3
755.05012	23817.1
758.94733	24767
762.8418	26610.9
766.73354	29622.8
770.62254	32614.4
774.50882	33802.9
778.39237	32185
782.27321	28922.7
786.15132	25974.2
790.02671	24219.7
793.89938	23450.1
797.76935	23162.4
801.6366	23070
805.50115	22917.9
809.36299	22791.8
813.22213	22650.6
817.07857	22589.2
820.93231	22626.2
824.78336	22683.3
828.63172	22699.1
832.47738	22811.3
836.32036	22910.8
840.16066	22962.5
843.99827	22994.5
847.8332	22918.6
851.66546	22818
855.49504	22731.4
859.32195	22646.8
863.1462	22552
866.96777	22397.5
870.78668	22325.4
874.60293	22376
878.41652	22393.2
882.22745	22520
886.03573	22628.5
889.84136	22599.6
893.64433	22446.2
897.44466	22398.6
901.24235	22347.3
905.0374	22362.3
908.8298	22308.8
912.61957	22337.7
916.40671	22543.6
920.19121	22846.7
923.97308	23200.5
927.75233	23425.6
931.52895	23593.7
935.30295	23315.1
939.07433	22708.6
942.84309	22234.9
946.60924	22083.9
950.37278	21950.8
954.13371	21799.6
957.89203	21616.4
961.64774	21514.6
965.40086	21440.8
969.15137	21378.7
972.89929	21326.1
976.64461	21278.1
980.38733	21319.9
984.12747	21438.9
987.86502	21737.7
991.59999	22076.3
995.33237	22669.2
999.06217	23571.3
1002.78939	24660.9
1006.51404	25367.4
1010.23611	25754.7
1013.95561	26051.2
1017.67255	26085.3
1021.38692	25783.6
1025.09872	25530.4
1028.80796	25922.8
1032.51465	26957.8
1036.21877	27829.2
1039.92035	27879.2
1043.61937	27280.6
1047.31584	26253.4
1051.00976	25210.5
1054.70114	24700.9
1058.38998	24508.3
1062.07627	24533
1065.76003	24607.8
1069.44126	24702.5
1073.11995	24941.5
1076.79611	25169.7
1080.46974	25410.3
1084.14085	25775.7
1087.80943	26248.3
1091.47549	26484.6
1095.13903	26095
1098.80005	25493.6
1102.45857	24869.7
1106.11456	24540.3
1109.76805	24599.8
1113.41903	24873.7
1117.06751	25264
1120.71348	25840.5
1124.35696	26472.8
1127.99793	27024
1131.63641	27073.5
1135.2724	26471.1
1138.90589	25844.9
1142.5369	25446.9
1146.16542	25124.6
1149.79145	25085.5
1153.415	25189.5
1157.03607	25431.5
1160.65467	25916.1
1164.27079	26785.2
1167.88443	28125.6
1171.49561	30178.3
1175.10432	33179.4
1178.71056	37072
1182.31434	40418.6
1185.91565	42098.1
1189.51451	42039.9
1193.11091	40153.5
1196.70485	37493.7
1200.29634	35165.7
1203.88538	33393.8
1207.47197	31839.3
1211.05612	30634.9
1214.63782	30044.9
1218.21708	29993.5
1221.79391	30295.1
1225.36829	30590.4
1228.94024	30709.6
1232.50976	30391.8
1236.07685	30175.7
1239.6415	29916.7
1243.20374	29809.7
1246.76355	29888.5
1250.32093	30274
1253.8759	31094.4
1257.42845	32139.3
1260.97859	33138.2
1264.52631	34016.2
1268.07163	34898.7
1271.61453	35909.7
1275.15503	37050.6
1278.69312	38157.9
1282.22882	39017.5
1285.76211	39809.1
1289.29301	40612.3
1292.82151	41500.3
1296.34761	42716.4
1299.87133	44564.4
1303.39266	47493.5
1306.9116	51676.3
1310.42815	56502.1
1313.94233	59829.1
1317.45412	59743.8
1320.96354	57467.8
1324.47058	54592.4
1327.97525	52031
1331.47754	50385.2
1334.97747	49784.3
1338.47502	50040.4
1341.97022	50603.2
1345.46305	50825.1
1348.95352	50841.8
1352.44163	51336
1355.92738	53301
1359.41078	57561.5
1362.89183	61835.7
1366.37053	60448.7
1369.84688	53651.6
1373.32088	46606.1
1376.79254	42083.4
1380.26186	39887.5
1383.72883	38869
1387.19347	38087.9
1390.65578	37311.1
1394.11575	37010.9
1397.57339	37341
1401.0287	37989.5
1404.48168	38964.5
1407.93234	39837.4
1411.38068	40355.5
1414.82669	40104.8
1418.27039	38975.4
1421.71177	37563.1
1425.15083	36322.4
1428.58758	35685.3
1432.02203	35564.5
1435.45416	35775.9
1438.88399	36105.4
1442.31151	36265
1445.73673	36555.6
1449.15965	36926
1452.58027	37013.3
1455.9986	36952.8
1459.41463	37049
1462.82837	37460.2
1466.23982	38073.4
1469.64898	38824.1
1473.05586	39311.7
1476.46045	39519.6
1479.86276	39837.7
1483.26279	40165.3
1486.66054	40775.1
1490.05602	41463.9
1493.44922	42351
1496.84016	43443.1
1500.22882	44931.1
1503.61521	47047.2
1506.99934	49790.7
1510.38121	52747.9
1513.76081	54341.3
1517.13816	53021.7
1520.51324	49483.2
1523.88607	45520.5
1527.25665	42681.9
1530.62498	40887.3
1533.99105	39841.1
1537.35488	39178.2
1540.71647	38813
1544.07581	38495.7
1547.4329	38227.3
1550.78776	37824.5
1554.14038	37606.1
1557.49077	37607.1
1560.83892	37810.8
1564.18484	38023.5
1567.52853	38191.8
1570.86999	38187.5
1574.20922	38219.7
1577.54624	38196.4
1580.88103	37525.9
1584.2136	36905.9
1587.54395	37356.2
1590.87208	39190.8
1594.19801	42185.4
1597.52172	45328.5
1600.84321	46792.7
1604.16251	45161.9
1607.47959	41616.6
1610.79447	37880.3
1614.10715	34417.5
1617.41763	31824.2
1620.7259	30185.8
1624.03199	29451.5
1627.33587	29597.1
1630.63757	30537.6
1633.93707	32393.7
1637.23439	34999.9
1640.52951	38071.7
1643.82246	41410.9
1647.11321	44161.9
1650.40179	45231.5
1653.68819	43069.8
1656.97241	38092.5
1660.25446	32751.5
1663.53433	28872.3
1666.81203	26440.3
1670.08756	24931.7
1673.36092	24075.7
1676.63211	23476.5
1679.90115	23043.2
1683.16801	22693.8
1686.43272	22521.1
1689.69527	22353.2
1692.95567	22218.6
1696.2139	22150.6
1699.46999	22112.9
1702.72392	22085.6
1705.97571	22031.2
1709.22535	22007.9
1712.47284	21989.1
1715.71819	21994.3
1718.96139	21959.7
1722.20246	21912.6
1725.44139	21811.3
1728.67818	21721.9
1731.91284	21541.6
1735.14537	21462.1
1738.37576	21401.3
1741.60403	21341
1744.83017	21247
1748.05418	21235.4
1751.27607	21192.9
1754.49584	21152.5
1757.71349	21136.3
1760.92903	21122
1764.14244	21132.9
1767.35375	21121.8
1770.56294	21082.5
1773.77002	21057.8
1776.97499	20989.9
1780.17785	20989.9
1783.37861	20993.1
1786.57727	20958
1789.77382	20914.9
1792.96828	20906.7
1796.16064	20880.9
1799.3509	20865.8
1802.53907	20881.5
1805.72514	20841.8
1808.90913	20767.5
1812.09102	20724.8
1815.27083	20656.9
1818.44856	20665.7
1821.6242	20622.3
1824.79776	20600.8
1827.96924	20590.9
1831.13864	20571.9
1834.30597	20631
1837.47122	20611.2
1840.6344	20593.9
1843.7955	20619.9
1846.95454	20619.1
1850.11151	20632.1
1853.26642	20628.6
1856.41926	20653.7
1859.57004	20737.1
1862.71876	20702.9
1865.86542	20730.2
1869.01003	20731.7
1872.15258	20790.1
1875.29308	20794.4
1878.43152	20826
1881.56792	20831.5
1884.70227	20860.4
1887.83457	20838.3
1890.96482	20868.4
1894.09304	20847.3
1897.21921	20847.5
1900.34335	20888.5
1903.46544	20848.9
1906.58551	20897.6
1909.70353	20903.1
1912.81953	20904.1
1915.93349	20893.2
1919.04543	20889
1922.15534	20847.5
1925.26322	20789.2
1928.36908	20752.4
1931.47292	20661.6
1934.57473	20610.9
1937.67453	20538
1940.77232	20455.7
1943.86808	20345.2
1946.96184	20217.8
1950.05358	20132.9
1953.14331	20046.8
1956.23103	20001.1
1959.31675	19911.6
1962.40046	19830.6
1965.48217	19775.7
1968.56188	19725
1971.63959	19652.8
1974.7153	19592.4
1977.78901	19567.5
1980.86073	19477.6
1983.93046	19427.7
1986.99819	19334.2
1990.06394	19334.8
1993.1277	19236.9
1996.18947	19205.5
1999.24925	19170.2
2002.30706	19083.4
2005.36288	19039.8
2008.41672	19020.2
2011.46859	18984.9
2014.51848	18889.4
2017.56639	18888.6
2020.61233	18865
2023.6563	18774.5
2026.6983	18811.8
2029.73833	18718.3
2032.7764	18674.5
2035.8125	18659.6
2038.84664	18644.3
2041.87881	18590.2
2044.90903	18616.7
2047.93729	18564
2050.96359	18543.3
2053.98794	18523.3
2057.01034	18491.8
2060.03078	18501.7
2063.04927	18461.2
2066.06582	18451.5
2069.08042	18421.2
2072.09307	18398.7
2075.10378	18358.1
2078.11255	18382
2081.11938	18382.7
2084.12426	18344.2
2087.12722	18363.6
2090.12824	18341.8
2093.12732	18298.9
2096.12447	18275.5
2099.11969	18284.1
2102.11299	18309.6
2105.10435	18334.2
2108.09379	18326.4
2111.08131	18343
2114.0669	18318.9
2117.05057	18352
2120.03233	18347.1
2123.01216	18391.8
2125.99008	18397.6
2128.96609	18418.7
2131.94018	18455.6
2134.91236	18477.7
2137.88263	18480.4
2140.851	18471
2143.81746	18492.4
2146.78201	18495.6
2149.74466	18478.6
2152.7054	18491.7
2155.66425	18490.2
2158.6212	18463.8
2161.57625	18429.2
2164.52941	18425.1
2167.48067	18437.1
2170.43004	18422.7
2173.37752	18391.9
2176.32311	18471.2
2179.26681	18479.5
2182.20863	18487.8
2185.14856	18452.2
2188.08661	18465.3
2191.02278	18471.7
2193.95707	18517.5
2196.88948	18489.9
2199.82001	18489
2202.74867	18456.3
2205.67545	18481.4
2208.60037	18492.9
2211.52341	18457.6
2214.44458	18479.1
2217.36388	18460.8
2220.28132	18423.5
2223.1969	18371.5
2226.11061	18341.5
2229.02246	18319.8
2231.93245	18311.8
2234.84058	18232.8
2237.74686	18209.3
2240.65128	18194.4
2243.55385	18147.2
2246.45456	18159.6
2249.35343	18128.3
2252.25044	18122.6
2255.14561	18096.7
2258.03893	18071.1
2260.93041	18054.6
2263.82004	18021.5
2266.70783	17975.9
2269.59378	17926.9
2272.4779	17887.5
2275.36017	17815.8
2278.24061	17794.9
2281.11922	17770.3
2283.996	17771.3
2286.87094	17755.6
2289.74405	17693.4
2292.61534	17704.9
2295.4848	17705.9
2298.35243	17711.7
2301.21824	17708.8
2304.08223	17751.2
2306.94439	17764.9
2309.80474	17777.2
2312.66327	17793.9
2315.51999	17796
2318.37489	17799.9
2321.22797	17806.2
2324.07925	17815.1
2326.92871	17796.5
2329.77637	17783.8
2332.62222	17753.4
2335.46626	17755.9
2338.3085	17780.7
2341.14893	17764.7
2343.98756	17796.6
2346.8244	17834.5
2349.65943	17816
2352.49267	17835.6
2355.32411	17844.3
2358.15376	17859
2360.98161	17821.4
2363.80768	17840.9
2366.63195	17776.3
2369.45444	17713.6
2372.27514	17717.2
2375.09405	17686.1
2377.91118	17636.9
2380.72652	17586.2
2383.54009	17543.9
2386.35187	17470.6
2389.16188	17460
2391.97011	17412.7
2394.77657	17388
2397.58125	17355.8
2400.38416	17328.5
2403.18529	17332.2
2405.98466	17270.3
2408.78226	17187.5
2411.57809	17189.7
2414.37216	17155.3
2417.16446	17131.8
2419.955	17096.7
2422.74378	17068.7
2425.5308	17053.7
2428.31606	17046.6
2431.09956	17082.7
2433.88131	17079.5
2436.6613	17108.1
2439.43954	17063.6
2442.21603	17036.6
2444.99077	17058.1
2447.76377	17024.3
2450.53501	17022.4
2453.30451	17036.3
2456.07226	17031.8
2458.83827	17016.2
2461.60254	17041.9
2464.36507	17007.8
2467.12586	16999.8
2469.88492	16993.2
2472.64224	17022.8
2475.39782	17040
2478.15167	17032.8
2480.90379	17056.9
2483.65417	17083.4
2486.40283	17123.4
2489.14976	17096.5
2491.89497	17145.6
2494.63845	17154.5
2497.3802	17166.9
2500.12024	17144.5
2502.85855	17172.2
2505.59514	17132
2508.33002	17097.6
2511.06318	17082.1
2513.79462	17041.6
2516.52435	16990.5
2519.25237	16984.1
2521.97867	16940.2
2524.70327	16973.5
2527.42616	16927.1
2530.14734	16969.2
2532.86681	16948.8
2535.58458	16973.4
2538.30065	16941
2541.01501	16965.7
2543.72768	16963.5
2546.43864	16941.9
2549.14791	16920.3
2551.85548	16926.1
2554.56136	16917.9
2557.26554	16878.4
2559.96803	16865.3
2562.66883	16812.6
2565.36794	16790.4
2568.06536	16788
2570.7611	16756.6
2573.45514	16761.1
2576.14751	16773.6
2578.83819	16776.9
2581.52719	16737.9
2584.21451	16753.5
2586.90015	16758.3
2589.58411	16758.6
2592.2664	16770.2
2594.94701	16740.3
2597.62594	16747.9
2600.30321	16758.9
2602.9788	16731.5
2605.65273	16728.5
2608.32498	16734.1
2610.99557	16726.1
2613.66449	16754
2616.33175	16750.1
2618.99734	16765.5
2621.66128	16750.3
2624.32355	16750.2
2626.98416	16753.8
2629.64311	16750.2
2632.30041	16757.7
2634.95605	16719.9
2637.61004	16715.6
2640.26238	16660
2642.91306	16644.5
2645.56209	16651
2648.20948	16622.9
2650.85521	16595.9
2653.4993	16601
2656.14175	16565.2
2658.78255	16571.6
2661.42171	16603.4
2664.05923	16640.6
2666.6951	16653
2669.32934	16677.9
2671.96194	16716.1
2674.59291	16728.5
2677.22224	16706.5
2679.84993	16706.7
2682.476	16702.4
2685.10043	16726.3
2687.72324	16645.4
2690.34441	16645.6
2692.96396	16658.6
2695.58188	16613.7
2698.19818	16601.6
2700.81285	16593.1
2703.4259	16610.1
2706.03733	16623.2
2708.64714	16583
2711.25533	16610.3
2713.86191	16625.7
2716.46687	16627.8
2719.07021	16637.9
2721.67194	16685.9
2724.27206	16661.6
2726.87057	16646
2729.46747	16682.1
2732.06276	16678.6
2734.65644	16698.3
2737.24852	16664.3
2739.83899	16634.8
2742.42786	16690.4
2745.01513	16639.6
2747.60079	16614.2
2750.18486	16639.6
2752.76733	16598.8
2755.3482	16611.4
2757.92747	16617
2760.50515	16595.9
2763.08123	16566.4
2765.65573	16544.2
2768.22863	16562.1
2770.79994	16548.3
2773.36967	16520.1
2775.9378	16508.9
2778.50435	16550.5
2781.06932	16538.4
2783.6327	16557.3
2786.1945	16566.3
2788.75471	16513.3
2791.31335	16486
2793.87041	16507.7
2796.42589	16465.3
2798.97979	16437.5
2801.53212	16422.9
2804.08288	16394
2806.63206	16347.2
2809.17967	16332.5
2811.72571	16310
2814.27018	16310.2
2816.81308	16268.7
2819.35442	16291
2821.89419	16240.6
2824.43239	16253.1
2826.96904	16290.9
2829.50412	16264.4
2832.03763	16244
2834.56959	16235.5
2837.1	16251.8
2839.62884	16203.4
2842.15613	16252
2844.68186	16305.7
2847.20604	16288.9
2849.72867	16329.1
2852.24974	16352.7
2854.76927	16310.9
2857.28724	16276.2
2859.80367	16251.2
2862.31855	16227.4
2864.83189	16216.5
2867.34368	16207.9
2869.85393	16206.5
2872.36264	16150.5
2874.8698	16184.9
2877.37543	16165.7
2879.87952	16170.9
2882.38207	16187.5
2884.88308	16184.3
2887.38256	16177.1
2889.88051	16160.1
2892.37692	16157.6
2894.8718	16155.8
2897.36515	16220.7
2899.85698	16208.8
2902.34727	16238.7
2904.83604	16241.6
2907.32328	16306.4
2909.809	16289.1
2912.29319	16302.6
2914.77587	16284.3
2917.25702	16276.1
2919.73665	16244
2922.21476	16248.2
2924.69136	16204.8
2927.16644	16192.9
2929.64	16171
2932.11205	16176.8
2934.58258	16114.1
2937.05161	16103
2939.51912	16104.9
2941.98513	16048.8
2944.44962	16040.5
2946.91261	15955.6
2949.37409	16006.6
2951.83407	15989.8
2954.29254	15986.6
2956.74951	15969.9
2959.20498	15929.5
2961.65895	15902.5
2964.11142	15912.5
2966.56239	15902.2
2969.01186	15867.6
2971.45984	15827.5
2973.90632	15812.1
2976.35131	15750.2
2978.7948	15726.3
2981.23681	15677.7
2983.67732	15692.2
2986.11635	15636.3
2988.55388	15629.6
2990.98993	15559.6
2993.4245	15518.9
2995.85758	15504.3
2998.28917	15436
3000.71928	15445.1
3003.14791	15379.5
3005.57506	15387.4
3008.00073	15378.5
3010.42493	15282.5
3012.84764	15345.6
3015.26888	15292.9
3017.68865	15244.2
3020.10694	15207.6
3022.52376	15162.7
3024.9391	15183.5
3027.35298	15124.2
3029.76539	15111.5
3032.17632	15112.9
3034.5858	15075.6
3036.9938	15107.7
3039.40034	15094.9
3041.80542	15047.3
3044.20903	15030.8
3046.61118	15035.9
3049.01187	14991.3
3051.4111	14978.7
3053.80888	14930.8
3056.20519	14893.5
3058.60005	14873.7
3060.99345	14853.5
3063.3854	14804.3
3065.7759	14760.4
3068.16494	14677.6
3070.55254	14650.3
3072.93868	14634.3
3075.32338	14623.1
3077.70662	14581.5
3080.08842	14546.2
3082.46878	14520.6
3084.84769	14477.7
3087.22515	14495.8
3089.60118	14471.6
3091.97576	14463.4
3094.3489	14439
3096.72061	14451.6
3099.09087	14431.3
3101.4597	14450.5
3103.82709	14403.7
3106.19305	14402.2
3108.55757	14421.6
3110.92066	14379.7
3113.28232	14347.9
3115.64255	14320.7
3118.00134	14276.1
3120.35871	14278
3122.71466	14273.2
3125.06917	14219.2
3127.42226	14171.2
3129.77393	14169.3
3132.12417	14145.8
3134.47299	14131.5
3136.82039	14153.1
3139.16636	14161.7
3141.51092	14114.1
3143.85406	14150.3
3146.19579	14116.9
3148.53609	14106
3150.87499	14101.4
3153.21246	14104.9
3155.54853	14161.7
3157.88318	14145.1
3160.21642	14118.1
3162.54826	14129.9
3164.87868	14159
3167.2077	14147.4
3169.5353	14169
3171.86151	14132.4
3174.18631	14133.2
3176.5097	14098.5
3178.83169	14087.5
3181.15228	14069.2
3183.47147	14067.7
3185.78926	14043
3188.10565	14052
3190.42065	14047.6
3192.73424	14031.5
3195.04645	13992.7
3197.35725	14020.2
3199.66667	13984.8
3201.97469	14025.6
3204.28132	14034.3
3206.58656	14050.7
3208.8904	14040.8
3211.19287	14054.7
3213.49394	14063.8
3215.79363	14066.8
3218.09193	14058.3
3220.38884	14051.1
3222.68438	14038.4
3224.97853	14055.6
3227.2713	14043.8
3229.56269	14066.3
3231.8527	14043.5
3234.14133	14004.3
3236.42858	13972.1
3238.71446	13946.6
3240.99896	13892.5
3243.28209	13876.5
3245.56384	13844.2
3247.84423	13876.3
3250.12324	13824.9
3252.40088	13815.9
3254.67715	13823.8
3256.95205	13798
3259.22558	13817.4
3261.49775	13781.9
3263.76855	13807.8
3266.03799	13770
3268.30606	13759.3
3270.57277	13728.8
3272.83812	13689.7
3275.10211	13658.7
3277.36474	13643.8
3279.62601	13655.7
3281.88593	13683.4
3284.14448	13666
3286.40168	13624.6
3288.65753	13642.3
3290.91202	13621.6
3293.16516	13597.4
3295.41695	13577.7
3297.66738	13518.8
3299.91647	13428.2
3302.16421	13343.9
3304.4106	13310.8
3306.65564	13218.8
3308.89933	13127.8
3311.14169	13025.6
3313.38269	12949.8
3315.62236	12840.3
3317.86068	12737.3
3320.09766	12642.2
3322.3333	12572.9
3324.5676	12516.5
3326.80056	12296.3
3329.03219	12256.2
3331.26248	4.7
3333.49143	0.2
3335.71905	-0.1
