Data from AgNP_FTO_APTES_UA_10uM_CRN_5uM_R6G_10uM_NaF_0.1M_Addition_RamanShift__2__14-44-40-633.txt Node

Date: Thu Feb 10 14:44:40 GMT 2022
User: TCL
Spectrometer: QEP01345
Trigger mode: 4
Integration Time (sec): 7.000000E0
Scans to average: 10
Electric dark correction enabled: true
Nonlinearity correction enabled: false
Boxcar width: 0
XAxis mode: Raman Shifts
Number of Pixels in Spectrum: 1044
>>>>>Begin Spectral Data<<<<<
46.04893	-0.7875
50.45542	-0.5875
54.85868	-2.5875
59.25871	-0.5875
63.6555	78.3125
68.04907	84.2125
72.43941	88.3125
76.82654	84.5125
81.21044	96.3125
85.59113	93.0125
89.96862	100.2125
94.34289	105.4125
98.71396	104.2125
103.08183	109.1125
107.4465	114.9125
111.80798	111.8125
116.16626	118.0125
120.52136	124.2125
124.87327	130.0125
129.222	137.9125
133.56755	146.3125
137.90993	152.6125
142.24913	167.3125
146.58517	188.8125
150.91804	222.0125
155.24774	265.3125
159.57429	333.2125
163.89768	424.6125
168.21792	567.5125
172.53501	772.4125
176.84895	1081.2125
181.15975	1515.5125
185.46741	2120.9125
189.77193	2937.9125
194.07331	3913.8125
198.37157	5034.2125
202.6667	6214.1125
206.9587	7378.6125
211.24758	8530.3125
215.53334	9694.7125
219.81599	10902.0125
224.09553	12273.2125
228.37195	13747.5125
232.64527	15357.5125
236.91549	17103.1125
241.18261	18817.3125
245.44663	20353.6125
249.70755	21750.5125
253.96539	23072.8125
258.22014	24076.5125
262.4718	24883.2125
266.72039	25508.2125
270.96589	25816.3125
275.20832	25850.4125
279.44768	25675.0125
283.68397	25418.2125
287.91719	25154.0125
292.14735	25017.9125
296.37445	25009.4125
300.59849	25068.6125
304.81948	25197.9125
309.03742	25220.1125
313.25231	25111.6125
317.46415	24805.0125
321.67296	24322.6125
325.87872	23962.8125
330.08145	23739.9125
334.28114	23721.2125
338.47781	23881.8125
342.67145	24204.9125
346.86207	24618.6125
351.04966	25109.9125
355.23424	25532.9125
359.4158	25952.9125
363.59435	26243.5125
367.76989	26460.2125
371.94243	26655.8125
376.11196	26749.5125
380.27849	26878.4125
384.44203	27044.2125
388.60257	27269.5125
392.76012	27533.4125
396.91468	27882.5125
401.06626	28253.6125
405.21485	28514.3125
409.36047	28425.0125
413.50311	28210.9125
417.64277	28182.5125
421.77947	28304.8125
425.9132	28495.1125
430.04396	28722.0125
434.17176	28789.1125
438.2966	28941.2125
442.41849	29342.6125
446.53742	30267.5125
450.6534	31211.0125
454.76644	31766.4125
458.87653	31883.0125
462.98368	31547.1125
467.08789	31046.2125
471.18916	30437.0125
475.2875	29818.0125
479.38291	29370.6125
483.4754	29059.3125
487.56496	28782.6125
491.6516	28415.6125
495.73531	28095.4125
499.81612	28019.3125
503.89401	28289.9125
507.96899	28477.0125
512.04106	28415.4125
516.11023	28228.5125
520.1765	27913.3125
524.23987	27770.7125
528.30034	27556.2125
532.35792	27313.4125
536.41261	26938.7125
540.46441	26568.1125
544.51333	26520.7125
548.55936	26834.0125
552.60252	27360.7125
556.64279	28102.3125
560.6802	28651.2125
564.71473	28896.7125
568.7464	29246.5125
572.7752	30079.4125
576.80114	31068.4125
580.82422	32242.5125
584.84444	33756.0125
588.86181	35620.8125
592.87633	37093.7125
596.888	36625.1125
600.89682	34612.1125
604.9028	33776.4125
608.90594	35342.6125
612.90624	37155.2125
616.90371	34784.1125
620.89834	29973.4125
624.89015	27983.0125
628.87913	27736.0125
632.86528	27743.1125
636.84862	27586.0125
640.82913	27045.4125
644.80683	26482.9125
648.78172	26129.3125
652.75379	26163.2125
656.72306	26504.7125
660.68952	26866.6125
664.65319	26652.0125
668.61405	26241.7125
672.57211	26244.0125
676.52738	26374.8125
680.47986	26343.1125
684.42955	26102.7125
688.37646	26055.9125
692.32058	26253.7125
696.26192	26720.7125
700.20048	27206.0125
704.13626	27350.4125
708.06928	27287.1125
711.99952	27108.8125
715.927	27108.2125
719.85171	27267.6125
723.77365	27222.5125
727.69284	26768.5125
731.60928	26313.7125
735.52295	26192.7125
739.43388	26223.8125
743.34206	26315.5125
747.24749	26498.1125
751.15017	26796.4125
755.05012	27236.8125
758.94733	27980.2125
762.8418	29173.0125
766.73354	30880.3125
770.62254	32430.5125
774.50882	32568.9125
778.39237	31237.4125
782.27321	29449.2125
786.15132	27975.7125
790.02671	27070.1125
793.89938	26637.1125
797.76935	26449.3125
801.6366	26481.6125
805.50115	26391.3125
809.36299	26251.4125
813.22213	26026.3125
817.07857	25809.4125
820.93231	25717.7125
824.78336	25563.7125
828.63172	25517.4125
832.47738	25462.2125
836.32036	25526.2125
840.16066	25537.7125
843.99827	25657.7125
847.8332	25617.8125
851.66546	25545.1125
855.49504	25604.9125
859.32195	25646.3125
863.1462	25520.7125
866.96777	25467.3125
870.78668	25417.7125
874.60293	25422.7125
878.41652	25519.4125
882.22745	25557.3125
886.03573	25661.1125
889.84136	25552.8125
893.64433	25476.3125
897.44466	25372.3125
901.24235	25263.9125
905.0374	25208.9125
908.8298	25151.7125
912.61957	25234.3125
916.40671	25382.0125
920.19121	25718.5125
923.97308	26089.0125
927.75233	26126.2125
931.52895	25988.5125
935.30295	25568.7125
939.07433	25216.2125
942.84309	24872.8125
946.60924	24765.3125
950.37278	24780.5125
954.13371	24743.8125
957.89203	24734.3125
961.64774	24683.1125
965.40086	24713.9125
969.15137	24663.2125
972.89929	24541.9125
976.64461	24554.2125
980.38733	24581.8125
984.12747	24725.5125
987.86502	24928.1125
991.59999	25158.7125
995.33237	25523.0125
999.06217	26107.8125
1002.78939	26857.3125
1006.51404	27467.1125
1010.23611	28038.3125
1013.95561	28337.6125
1017.67255	28337.3125
1021.38692	27962.9125
1025.09872	27450.0125
1028.80796	27291.9125
1032.51465	27657.8125
1036.21877	28139.0125
1039.92035	28302.6125
1043.61937	28149.4125
1047.31584	27719.0125
1051.00976	27239.0125
1054.70114	27020.4125
1058.38998	27019.9125
1062.07627	27218.7125
1065.76003	27435.3125
1069.44126	27708.1125
1073.11995	28090.4125
1076.79611	28546.5125
1080.46974	28860.2125
1084.14085	29094.9125
1087.80943	29388.4125
1091.47549	29604.0125
1095.13903	29560.4125
1098.80005	29208.7125
1102.45857	28624.7125
1106.11456	28187.9125
1109.76805	27954.3125
1113.41903	27958.3125
1117.06751	28050.1125
1120.71348	28226.5125
1124.35696	28413.3125
1127.99793	28687.1125
1131.63641	28903.2125
1135.2724	28867.8125
1138.90589	28785.2125
1142.5369	28903.6125
1146.16542	29106.3125
1149.79145	29261.8125
1153.415	29530.6125
1157.03607	29909.9125
1160.65467	30779.4125
1164.27079	32330.8125
1167.88443	34110.9125
1171.49561	35881.5125
1175.10432	38125.0125
1178.71056	41038.3125
1182.31434	43935.5125
1185.91565	45186.7125
1189.51451	44724.9125
1193.11091	43388.1125
1196.70485	41864.0125
1200.29634	40422.8125
1203.88538	39459.8125
1207.47197	39084.0125
1211.05612	38781.3125
1214.63782	38072.1125
1218.21708	37080.9125
1221.79391	36189.3125
1225.36829	35639.3125
1228.94024	35229.7125
1232.50976	34617.4125
1236.07685	33948.3125
1239.6415	33493.3125
1243.20374	33405.3125
1246.76355	33724.8125
1250.32093	34273.6125
1253.8759	35067.4125
1257.42845	35996.8125
1260.97859	37076.7125
1264.52631	38239.6125
1268.07163	39543.4125
1271.61453	40772.7125
1275.15503	42009.3125
1278.69312	43089.0125
1282.22882	44211.7125
1285.76211	45479.3125
1289.29301	47107.1125
1292.82151	49124.6125
1296.34761	51798.2125
1299.87133	55117.1125
1303.39266	58863.8125
1306.9116	62258.1125
1310.42815	64909.5125
1313.94233	66095.9125
1317.45412	65215.0125
1320.96354	63496.7125
1324.47058	61966.6125
1327.97525	60985.3125
1331.47754	60413.0125
1334.97747	60165.5125
1338.47502	59679.4125
1341.97022	58686.8125
1345.46305	57385.0125
1348.95352	56315.2125
1352.44163	56297.1125
1355.92738	57649.2125
1359.41078	60183.5125
1362.89183	61866.5125
1366.37053	60568.9125
1369.84688	55769.0125
1373.32088	49781.5125
1376.79254	45854.2125
1380.26186	44553.2125
1383.72883	44719.2125
1387.19347	44844.3125
1390.65578	44476.0125
1394.11575	44489.9125
1397.57339	45146.8125
1401.0287	46082.3125
1404.48168	46954.7125
1407.93234	47193.1125
1411.38068	46522.7125
1414.82669	45235.8125
1418.27039	43456.4125
1421.71177	41601.7125
1425.15083	40055.7125
1428.58758	39552.8125
1432.02203	40195.9125
1435.45416	41576.7125
1438.88399	43036.1125
1442.31151	44042.6125
1445.73673	44343.3125
1449.15965	44404.2125
1452.58027	44216.2125
1455.9986	43961.1125
1459.41463	44161.7125
1462.82837	44899.9125
1466.23982	45873.4125
1469.64898	46759.2125
1473.05586	47161.8125
1476.46045	47129.1125
1479.86276	46636.6125
1483.26279	46004.4125
1486.66054	45658.2125
1490.05602	45678.7125
1493.44922	45830.4125
1496.84016	46043.5125
1500.22882	46466.9125
1503.61521	47223.6125
1506.99934	48193.4125
1510.38121	48897.7125
1513.76081	48744.8125
1517.13816	47671.2125
1520.51324	46326.1125
1523.88607	45432.7125
1527.25665	45347.0125
1530.62498	45655.9125
1533.99105	45819.2125
1537.35488	45525.4125
1540.71647	44815.3125
1544.07581	43750.8125
1547.4329	42557.1125
1550.78776	41545.2125
1554.14038	40704.0125
1557.49077	40140.9125
1560.83892	39798.7125
1564.18484	39559.6125
1567.52853	39544.9125
1570.86999	39834.8125
1574.20922	40484.6125
1577.54624	41190.3125
1580.88103	41549.5125
1584.2136	42220.4125
1587.54395	44015.4125
1590.87208	46886.9125
1594.19801	50498.4125
1597.52172	53867.4125
1600.84321	54797.1125
1604.16251	52172.3125
1607.47959	47503.7125
1610.79447	42544.6125
1614.10715	38263.5125
1617.41763	35149.4125
1620.7259	33176.0125
1624.03199	32326.0125
1627.33587	32497.3125
1630.63757	33667.4125
1633.93707	36145.1125
1637.23439	40154.4125
1640.52951	45928.9125
1643.82246	52486.0125
1647.11321	57195.1125
1650.40179	57025.7125
1653.68819	51622.2125
1656.97241	43905.1125
1660.25446	37017.6125
1663.53433	32399.3125
1666.81203	29470.5125
1670.08756	27675.3125
1673.36092	26598.6125
1676.63211	25838.8125
1679.90115	25336.7125
1683.16801	24971.3125
1686.43272	24669.3125
1689.69527	24479.9125
1692.95567	24301.2125
1696.2139	24241.3125
1699.46999	24151.2125
1702.72392	24065.6125
1705.97571	23970.4125
1709.22535	23910.6125
1712.47284	23865.0125
1715.71819	23850.1125
1718.96139	23788.0125
1722.20246	23687.9125
1725.44139	23597.4125
1728.67818	23469.9125
1731.91284	23303.9125
1735.14537	23178.0125
1738.37576	23100.6125
1741.60403	23029.8125
1744.83017	22900.8125
1748.05418	22878.3125
1751.27607	22839.2125
1754.49584	22826.0125
1757.71349	22807.6125
1760.92903	22789.1125
1764.14244	22785.0125
1767.35375	22782.3125
1770.56294	22725.5125
1773.77002	22692.0125
1776.97499	22640.3125
1780.17785	22589.1125
1783.37861	22539.1125
1786.57727	22515.7125
1789.77382	22462.4125
1792.96828	22399.4125
1796.16064	22369.8125
1799.3509	22346.2125
1802.53907	22308.0125
1805.72514	22213.2125
1808.90913	22160.4125
1812.09102	22165.1125
1815.27083	22088.6125
1818.44856	22122.8125
1821.6242	22081.6125
1824.79776	22046.5125
1827.96924	22049.8125
1831.13864	22030.5125
1834.30597	22043.7125
1837.47122	22008.4125
1840.6344	22012.6125
1843.7955	22057.8125
1846.95454	22039.0125
1850.11151	21983.3125
1853.26642	22032.9125
1856.41926	21988.2125
1859.57004	22002.8125
1862.71876	21987.6125
1865.86542	21896.1125
1869.01003	21917.1125
1872.15258	21891.9125
1875.29308	21876.2125
1878.43152	21852.9125
1881.56792	21851.7125
1884.70227	21800.6125
1887.83457	21854.9125
1890.96482	21776.0125
1894.09304	21776.3125
1897.21921	21734.8125
1900.34335	21712.5125
1903.46544	21655.5125
1906.58551	21657.4125
1909.70353	21583.3125
1912.81953	21590.7125
1915.93349	21554.6125
1919.04543	21547.3125
1922.15534	21456.8125
1925.26322	21410.8125
1928.36908	21386.5125
1931.47292	21377.8125
1934.57473	21340.7125
1937.67453	21246.5125
1940.77232	21211.3125
1943.86808	21105.9125
1946.96184	21080.0125
1950.05358	21011.0125
1953.14331	20952.0125
1956.23103	20898.9125
1959.31675	20855.5125
1962.40046	20773.0125
1965.48217	20763.1125
1968.56188	20664.3125
1971.63959	20614.8125
1974.7153	20596.9125
1977.78901	20524.4125
1980.86073	20410.8125
1983.93046	20402.6125
1986.99819	20382.5125
1990.06394	20289.6125
1993.1277	20253.1125
1996.18947	20212.2125
1999.24925	20146.7125
2002.30706	20098.4125
2005.36288	20042.2125
2008.41672	19966.6125
2011.46859	19929.6125
2014.51848	19866.9125
2017.56639	19848.9125
2020.61233	19850.6125
2023.6563	19752.6125
2026.6983	19736.4125
2029.73833	19677.1125
2032.7764	19657.5125
2035.8125	19600.8125
2038.84664	19578.9125
2041.87881	19553.0125
2044.90903	19526.4125
2047.93729	19493.6125
2050.96359	19532.0125
2053.98794	19495.9125
2057.01034	19457.7125
2060.03078	19444.7125
2063.04927	19410.4125
2066.06582	19379.7125
2069.08042	19377.7125
2072.09307	19379.5125
2075.10378	19361.5125
2078.11255	19364.7125
2081.11938	19317.9125
2084.12426	19339.6125
2087.12722	19349.3125
2090.12824	19326.8125
2093.12732	19296.5125
2096.12447	19328.2125
2099.11969	19333.0125
2102.11299	19351.4125
2105.10435	19326.6125
2108.09379	19344.4125
2111.08131	19369.8125
2114.0669	19370.6125
2117.05057	19370.0125
2120.03233	19383.5125
2123.01216	19408.9125
2125.99008	19432.7125
2128.96609	19440.7125
2131.94018	19448.4125
2134.91236	19485.6125
2137.88263	19490.1125
2140.851	19509.4125
2143.81746	19510.7125
2146.78201	19520.6125
2149.74466	19540.5125
2152.7054	19539.6125
2155.66425	19498.7125
2158.6212	19488.9125
2161.57625	19512.9125
2164.52941	19526.3125
2167.48067	19488.6125
2170.43004	19513.5125
2173.37752	19475.0125
2176.32311	19467.0125
2179.26681	19504.6125
2182.20863	19498.7125
2185.14856	19498.8125
2188.08661	19509.1125
2191.02278	19520.3125
2193.95707	19520.4125
2196.88948	19505.9125
2199.82001	19484.8125
2202.74867	19470.4125
2205.67545	19421.3125
2208.60037	19416.1125
2211.52341	19406.4125
2214.44458	19394.9125
2217.36388	19371.6125
2220.28132	19338.7125
2223.1969	19299.3125
2226.11061	19277.4125
2229.02246	19226.2125
2231.93245	19237.5125
2234.84058	19151.3125
2237.74686	19147.4125
2240.65128	19195.8125
2243.55385	19106.6125
2246.45456	19108.6125
2249.35343	19082.1125
2252.25044	19076.3125
2255.14561	19051.3125
2258.03893	19019.1125
2260.93041	18940.4125
2263.82004	18875.1125
2266.70783	18865.0125
2269.59378	18757.5125
2272.4779	18754.8125
2275.36017	18688.6125
2278.24061	18680.0125
2281.11922	18679.1125
2283.996	18657.6125
2286.87094	18635.7125
2289.74405	18629.1125
2292.61534	18629.8125
2295.4848	18636.6125
2298.35243	18636.6125
2301.21824	18626.9125
2304.08223	18612.2125
2306.94439	18604.8125
2309.80474	18621.6125
2312.66327	18643.5125
2315.51999	18636.3125
2318.37489	18623.4125
2321.22797	18612.6125
2324.07925	18561.0125
2326.92871	18554.0125
2329.77637	18552.3125
2332.62222	18504.1125
2335.46626	18574.6125
2338.3085	18507.3125
2341.14893	18527.2125
2343.98756	18551.5125
2346.8244	18543.0125
2349.65943	18514.8125
2352.49267	18493.4125
2355.32411	18502.2125
2358.15376	18500.4125
2360.98161	18485.2125
2363.80768	18471.5125
2366.63195	18477.3125
2369.45444	18443.4125
2372.27514	18404.1125
2375.09405	18380.1125
2377.91118	18356.5125
2380.72652	18284.1125
2383.54009	18290.5125
2386.35187	18239.2125
2389.16188	18208.3125
2391.97011	18187.8125
2394.77657	18127.4125
2397.58125	18123.2125
2400.38416	18139.9125
2403.18529	18080.6125
2405.98466	18061.4125
2408.78226	18049.3125
2411.57809	18007.0125
2414.37216	18027.2125
2417.16446	18016.4125
2419.955	17974.9125
2422.74378	17974.0125
2425.5308	17938.2125
2428.31606	17943.5125
2431.09956	17999.8125
2433.88131	17945.4125
2436.6613	17952.1125
2439.43954	17932.6125
2442.21603	17948.3125
2444.99077	17926.1125
2447.76377	17901.6125
2450.53501	17869.4125
2453.30451	17853.3125
2456.07226	17866.6125
2458.83827	17906.1125
2461.60254	17904.9125
2464.36507	17911.8125
2467.12586	17886.1125
2469.88492	17886.5125
2472.64224	17878.8125
2475.39782	17943.7125
2478.15167	17935.2125
2480.90379	17927.0125
2483.65417	17984.6125
2486.40283	17969.3125
2489.14976	17976.1125
2491.89497	17952.2125
2494.63845	17963.1125
2497.3802	17971.1125
2500.12024	17957.9125
2502.85855	17937.3125
2505.59514	17908.6125
2508.33002	17890.5125
2511.06318	17895.6125
2513.79462	17883.9125
2516.52435	17875.9125
2519.25237	17884.0125
2521.97867	17899.3125
2524.70327	17885.1125
2527.42616	17867.2125
2530.14734	17868.2125
2532.86681	17816.9125
2535.58458	17829.6125
2538.30065	17823.5125
2541.01501	17813.9125
2543.72768	17782.8125
2546.43864	17797.5125
2549.14791	17823.9125
2551.85548	17829.1125
2554.56136	17800.3125
2557.26554	17776.2125
2559.96803	17742.8125
2562.66883	17747.8125
2565.36794	17696.9125
2568.06536	17698.4125
2570.7611	17689.3125
2573.45514	17662.0125
2576.14751	17654.2125
2578.83819	17656.2125
2581.52719	17651.3125
2584.21451	17634.9125
2586.90015	17638.9125
2589.58411	17627.6125
2592.2664	17627.6125
2594.94701	17615.5125
2597.62594	17585.3125
2600.30321	17551.5125
2602.9788	17583.2125
2605.65273	17575.3125
2608.32498	17601.2125
2610.99557	17589.9125
2613.66449	17592.7125
2616.33175	17605.6125
2618.99734	17603.9125
2621.66128	17587.7125
2624.32355	17582.0125
2626.98416	17545.0125
2629.64311	17513.5125
2632.30041	17511.6125
2634.95605	17497.2125
2637.61004	17465.5125
2640.26238	17423.9125
2642.91306	17466.6125
2645.56209	17483.4125
2648.20948	17488.8125
2650.85521	17480.5125
2653.4993	17533.2125
2656.14175	17500.9125
2658.78255	17508.8125
2661.42171	17515.7125
2664.05923	17580.4125
2666.6951	17587.6125
2669.32934	17576.0125
2671.96194	17560.2125
2674.59291	17579.8125
2677.22224	17583.8125
2679.84993	17591.9125
2682.476	17572.6125
2685.10043	17561.0125
2687.72324	17538.5125
2690.34441	17561.7125
2692.96396	17530.2125
2695.58188	17556.1125
2698.19818	17516.6125
2700.81285	17536.1125
2703.4259	17583.2125
2706.03733	17605.2125
2708.64714	17591.8125
2711.25533	17611.0125
2713.86191	17620.5125
2716.46687	17609.5125
2719.07021	17641.7125
2721.67194	17665.8125
2724.27206	17652.7125
2726.87057	17718.9125
2729.46747	17696.6125
2732.06276	17693.1125
2734.65644	17706.8125
2737.24852	17715.9125
2739.83899	17694.2125
2742.42786	17733.8125
2745.01513	17668.9125
2747.60079	17670.9125
2750.18486	17626.8125
2752.76733	17639.3125
2755.3482	17654.3125
2757.92747	17630.0125
2760.50515	17629.2125
2763.08123	17610.8125
2765.65573	17586.2125
2768.22863	17613.2125
2770.79994	17592.1125
2773.36967	17583.8125
2775.9378	17624.8125
2778.50435	17615.6125
2781.06932	17619.3125
2783.6327	17611.4125
2786.1945	17650.9125
2788.75471	17582.3125
2791.31335	17554.1125
2793.87041	17537.0125
2796.42589	17509.2125
2798.97979	17504.8125
2801.53212	17469.8125
2804.08288	17438.8125
2806.63206	17431.2125
2809.17967	17402.2125
2811.72571	17346.7125
2814.27018	17344.7125
2816.81308	17268.4125
2819.35442	17220.8125
2821.89419	17196.2125
2824.43239	17175.9125
2826.96904	17171.3125
2829.50412	17164.4125
2832.03763	17142.7125
2834.56959	17139.7125
2837.1	17128.3125
2839.62884	17158.8125
2842.15613	17128.7125
2844.68186	17150.9125
2847.20604	17129.8125
2849.72867	17181.0125
2852.24974	17136.8125
2854.76927	17119.3125
2857.28724	17091.3125
2859.80367	17061.1125
2862.31855	17044.1125
2864.83189	17013.1125
2867.34368	16998.3125
2869.85393	16999.1125
2872.36264	16998.3125
2874.8698	16991.8125
2877.37543	16967.1125
2879.87952	16991.2125
2882.38207	16986.3125
2884.88308	16979.9125
2887.38256	16986.0125
2889.88051	17012.5125
2892.37692	16987.5125
2894.8718	17005.2125
2897.36515	17072.0125
2899.85698	17050.9125
2902.34727	17129.2125
2904.83604	17082.2125
2907.32328	17162.4125
2909.809	17172.7125
2912.29319	17122.4125
2914.77587	17129.1125
2917.25702	17105.8125
2919.73665	17075.6125
2922.21476	17091.1125
2924.69136	17086.1125
2927.16644	17093.1125
2929.64	17061.6125
2932.11205	17052.2125
2934.58258	16995.4125
2937.05161	17030.7125
2939.51912	17052.2125
2941.98513	16996.6125
2944.44962	16958.0125
2946.91261	16914.7125
2949.37409	16994.6125
2951.83407	16934.0125
2954.29254	16939.2125
2956.74951	16882.7125
2959.20498	16933.4125
2961.65895	16890.1125
2964.11142	16939.2125
2966.56239	16886.9125
2969.01186	16896.3125
2971.45984	16846.7125
2973.90632	16874.1125
2976.35131	16817.7125
2978.7948	16768.9125
2981.23681	16712.7125
2983.67732	16677.1125
2986.11635	16641.6125
2988.55388	16603.4125
2990.98993	16597.8125
2993.4245	16566.2125
2995.85758	16515.0125
2998.28917	16477.8125
3000.71928	16457.4125
3003.14791	16448.9125
3005.57506	16435.3125
3008.00073	16398.9125
3010.42493	16195.3125
3012.84764	16276.1125
3015.26888	16270.9125
3017.68865	16208.5125
3020.10694	16213.0125
3022.52376	16182.0125
