Data from AgNP_FTO_APTES_UA_10uM_CRN_20uM_R6G_10uM_NaF_0.1M_Addition_RamanShift__14__16-19-10-750.txt Node

Date: Thu Feb 10 16:19:10 GMT 2022
User: TCL
Spectrometer: QEP01345
Trigger mode: 4
Integration Time (sec): 7.000000E0
Scans to average: 10
Electric dark correction enabled: true
Nonlinearity correction enabled: false
Boxcar width: 0
XAxis mode: Raman Shifts
Number of Pixels in Spectrum: 1044
>>>>>Begin Spectral Data<<<<<
46.04893	-0.575
50.45542	-0.375
54.85868	-1.475
59.25871	-1.175
63.6555	65.425
68.04907	68.625
72.43941	73.225
76.82654	68.225
81.21044	75.225
85.59113	73.825
89.96862	81.725
94.34289	87.625
98.71396	87.825
103.08183	93.325
107.4465	94.825
111.80798	93.525
116.16626	100.625
120.52136	101.225
124.87327	109.025
129.222	109.625
133.56755	116.925
137.90993	124.425
142.24913	136.925
146.58517	151.825
150.91804	181.825
155.24774	212.425
159.57429	263.825
163.89768	336.525
168.21792	438.725
172.53501	603.325
176.84895	836.625
181.15975	1186.025
185.46741	1662.825
189.77193	2304.525
194.07331	3089.325
198.37157	3986.125
202.6667	4954.425
206.9587	5868.725
211.24758	6800.225
215.53334	7696.725
219.81599	8643.225
224.09553	9636.225
228.37195	10798.725
232.64527	12023.925
236.91549	13358.225
241.18261	14756.425
245.44663	16046.825
249.70755	17257.025
253.96539	18330.925
258.22014	19222.825
262.4718	19949.925
266.72039	20434.125
270.96589	20736.325
275.20832	20815.325
279.44768	20771.325
283.68397	20679.425
287.91719	20571.425
292.14735	20435.625
296.37445	20402.225
300.59849	20445.925
304.81948	20465.725
309.03742	20351.825
313.25231	20196.725
317.46415	19808.625
321.67296	19415.925
325.87872	19088.225
330.08145	18967.125
334.28114	18972.725
338.47781	19098.225
342.67145	19304.625
346.86207	19535.425
351.04966	19773.825
355.23424	19993.925
359.4158	20200.925
363.59435	20361.225
367.76989	20516.925
371.94243	20617.725
376.11196	20719.225
380.27849	20764.925
384.44203	20845.125
388.60257	21028.125
392.76012	21249.825
396.91468	21492.625
401.06626	21789.125
405.21485	22005.625
409.36047	22005.325
413.50311	21803.425
417.64277	21647.725
421.77947	21590.125
425.9132	21699.925
430.04396	21871.125
434.17176	21935.925
438.2966	22096.625
442.41849	22292.225
446.53742	22616.825
450.6534	22992.125
454.76644	23276.125
458.87653	23434.925
462.98368	23481.225
467.08789	23508.225
471.18916	23385.625
475.2875	23246.325
479.38291	23145.925
483.4754	23063.525
487.56496	22904.725
491.6516	22691.125
495.73531	22463.825
499.81612	22316.425
503.89401	22360.825
507.96899	22417.025
512.04106	22468.725
516.11023	22421.625
520.1765	22282.225
524.23987	22130.925
528.30034	21981.125
532.35792	21826.025
536.41261	21645.725
540.46441	21597.125
544.51333	21655.625
548.55936	21872.425
552.60252	22183.925
556.64279	22553.625
560.6802	22821.525
564.71473	23015.425
568.7464	23323.725
572.7752	23858.525
576.80114	24519.925
580.82422	25054.125
584.84444	25376.725
588.86181	25445.425
592.87633	25405.725
596.888	25285.825
600.89682	25071.125
604.9028	25247.325
608.90594	26229.525
612.90624	27178.925
616.90371	25832.025
620.89834	23249.925
624.89015	22200.725
628.87913	22130.125
632.86528	22309.725
636.84862	22409.325
640.82913	22190.825
644.80683	21844.025
648.78172	21562.125
652.75379	21492.325
656.72306	21599.625
660.68952	21816.025
664.65319	21780.625
668.61405	21642.425
672.57211	21628.025
676.52738	21719.125
680.47986	21691.525
684.42955	21587.125
688.37646	21565.725
692.32058	21619.625
696.26192	21809.225
700.20048	21958.725
704.13626	22152.625
708.06928	22228.925
711.99952	22163.325
715.927	22127.225
719.85171	22019.125
723.77365	21956.425
727.69284	21771.425
731.60928	21561.225
735.52295	21417.125
739.43388	21349.725
743.34206	21374.625
747.24749	21470.925
751.15017	21593.625
755.05012	21900.625
758.94733	22373.625
762.8418	23084.725
766.73354	24237.525
770.62254	25211.025
774.50882	25307.925
778.39237	24523.225
782.27321	23349.525
786.15132	22510.525
790.02671	21903.025
793.89938	21517.325
797.76935	21355.425
801.6366	21255.625
805.50115	21158.625
809.36299	21068.025
813.22213	21006.225
817.07857	20985.825
820.93231	21036.725
824.78336	20991.325
828.63172	20939.925
832.47738	20866.325
836.32036	20878.025
840.16066	20849.925
843.99827	20840.625
847.8332	20817.825
851.66546	20846.825
855.49504	20878.225
859.32195	20908.125
863.1462	20867.925
866.96777	20827.325
870.78668	20829.925
874.60293	20815.325
878.41652	20841.925
882.22745	20880.025
886.03573	20922.625
889.84136	20898.125
893.64433	20883.725
897.44466	20810.325
901.24235	20805.025
905.0374	20783.825
908.8298	20780.625
912.61957	20883.325
916.40671	21041.025
920.19121	21189.325
923.97308	21307.025
927.75233	21190.525
931.52895	20986.425
935.30295	20787.425
939.07433	20505.625
942.84309	20334.725
946.60924	20223.325
950.37278	20161.425
954.13371	20147.225
957.89203	20128.425
961.64774	20112.825
965.40086	20127.825
969.15137	20061.525
972.89929	20007.625
976.64461	19950.125
980.38733	19916.425
984.12747	19922.825
987.86502	19980.925
991.59999	20044.825
995.33237	20130.225
999.06217	20259.825
1002.78939	20518.725
1006.51404	20726.425
1010.23611	20916.525
1013.95561	21072.325
1017.67255	21110.125
1021.38692	21003.025
1025.09872	20890.325
1028.80796	20685.625
1032.51465	20633.225
1036.21877	20595.325
1039.92035	20664.225
1043.61937	20750.925
1047.31584	20816.125
1051.00976	20894.925
1054.70114	21024.525
1058.38998	21247.025
1062.07627	21446.425
1065.76003	21708.125
1069.44126	21918.125
1073.11995	22155.925
1076.79611	22311.325
1080.46974	22394.825
1084.14085	22459.825
1087.80943	22546.725
1091.47549	22745.425
1095.13903	22755.225
1098.80005	22658.425
1102.45857	22305.825
1106.11456	21938.125
1109.76805	21697.725
1113.41903	21651.925
1117.06751	21660.825
1120.71348	21800.125
1124.35696	21954.925
1127.99793	22133.225
1131.63641	22222.325
1135.2724	22205.625
1138.90589	22139.925
1142.5369	22187.325
1146.16542	22271.825
1149.79145	22404.225
1153.415	22539.425
1157.03607	22809.025
1160.65467	23184.025
1164.27079	23788.225
1167.88443	24616.225
1171.49561	25472.525
1175.10432	26541.125
1178.71056	27806.525
1182.31434	29108.925
1185.91565	29951.125
1189.51451	30423.525
1193.11091	30336.325
1196.70485	29751.425
1200.29634	28873.725
1203.88538	28121.425
1207.47197	27587.025
1211.05612	27246.725
1214.63782	26831.025
1218.21708	26226.025
1221.79391	25581.325
1225.36829	25124.425
1228.94024	24852.425
1232.50976	24687.025
1236.07685	24686.825
1239.6415	24718.125
1243.20374	24750.625
1246.76355	24855.525
1250.32093	25073.825
1253.8759	25404.625
1257.42845	25900.925
1260.97859	26476.625
1264.52631	26940.025
1268.07163	27462.825
1271.61453	27958.625
1275.15503	28431.025
1278.69312	28883.525
1282.22882	29346.925
1285.76211	29917.025
1289.29301	30585.225
1292.82151	31418.325
1296.34761	32374.725
1299.87133	33448.025
1303.39266	34527.325
1306.9116	35495.125
1310.42815	36156.925
1313.94233	36503.525
1317.45412	36498.725
1320.96354	36482.925
1324.47058	36598.025
1327.97525	36825.425
1331.47754	37099.825
1334.97747	37430.225
1338.47502	37924.925
1341.97022	38395.625
1345.46305	38724.925
1348.95352	38681.325
1352.44163	38254.025
1355.92738	37646.625
1359.41078	37339.425
1362.89183	37103.725
1366.37053	36128.625
1369.84688	34278.025
1373.32088	32116.625
1376.79254	30596.725
1380.26186	29907.125
1383.72883	29772.925
1387.19347	29743.125
1390.65578	29613.425
1394.11575	29402.725
1397.57339	29340.925
1401.0287	29338.925
1404.48168	29309.125
1407.93234	29165.925
1411.38068	28738.525
1414.82669	28027.725
1418.27039	27199.025
1421.71177	26433.325
1425.15083	25844.225
1428.58758	25511.625
1432.02203	25549.825
1435.45416	25922.925
1438.88399	26405.125
1442.31151	26791.825
1445.73673	27129.625
1449.15965	27417.625
1452.58027	27762.725
1455.9986	28018.625
1459.41463	28326.225
1462.82837	28644.425
1466.23982	29003.925
1469.64898	29370.725
1473.05586	29562.425
1476.46045	29572.825
1479.86276	29477.325
1483.26279	29361.525
1486.66054	29341.925
1490.05602	29454.625
1493.44922	29730.725
1496.84016	30301.125
1500.22882	31067.825
1503.61521	32047.225
1506.99934	32976.625
1510.38121	33614.625
1513.76081	33628.225
1517.13816	33188.625
1520.51324	32593.325
1523.88607	32154.425
1527.25665	31854.325
1530.62498	31707.025
1533.99105	31522.725
1537.35488	31105.525
1540.71647	30464.725
1544.07581	29757.525
1547.4329	29094.925
1550.78776	28592.625
1554.14038	28231.225
1557.49077	28072.925
1560.83892	28026.425
1564.18484	28045.125
1567.52853	28095.825
1570.86999	28264.525
1574.20922	28572.525
1577.54624	28851.025
1580.88103	28890.025
1584.2136	28847.425
1587.54395	29050.525
1590.87208	29555.925
1594.19801	30290.425
1597.52172	31112.025
1600.84321	31185.725
1604.16251	30376.025
1607.47959	29131.425
1610.79447	27736.725
1614.10715	26269.325
1617.41763	24990.725
1620.7259	23950.925
1624.03199	23311.525
1627.33587	23150.125
1630.63757	23439.525
1633.93707	24277.125
1637.23439	25754.825
1640.52951	27911.525
1643.82246	30382.925
1647.11321	32436.325
1650.40179	33137.325
1653.68819	31922.925
1656.97241	29237.625
1660.25446	26321.625
1663.53433	23865.725
1666.81203	22128.825
1670.08756	20926.925
1673.36092	20164.225
1676.63211	19647.625
1679.90115	19297.825
1683.16801	19044.625
1686.43272	18799.825
1689.69527	18674.925
1692.95567	18541.825
1696.2139	18489.525
1699.46999	18448.725
1702.72392	18361.825
1705.97571	18283.525
1709.22535	18225.725
1712.47284	18188.525
1715.71819	18153.725
1718.96139	18093.525
1722.20246	18062.425
1725.44139	17977.125
1728.67818	17904.625
1731.91284	17802.525
1735.14537	17704.325
1738.37576	17647.725
1741.60403	17599.925
1744.83017	17531.925
1748.05418	17477.725
1751.27607	17441.425
1754.49584	17427.325
1757.71349	17451.325
1760.92903	17421.825
1764.14244	17374.625
1767.35375	17371.425
1770.56294	17344.625
1773.77002	17303.625
1776.97499	17292.425
1780.17785	17207.525
1783.37861	17186.925
1786.57727	17130.725
1789.77382	17127.925
1792.96828	17094.325
1796.16064	17071.125
1799.3509	17027.825
1802.53907	17011.125
1805.72514	16935.525
1808.90913	16880.625
1812.09102	16876.925
1815.27083	16806.825
1818.44856	16796.925
1821.6242	16763.025
1824.79776	16752.425
1827.96924	16733.125
1831.13864	16696.425
1834.30597	16721.225
1837.47122	16726.625
1840.6344	16738.625
1843.7955	16731.425
1846.95454	16709.425
1850.11151	16646.925
1853.26642	16709.525
1856.41926	16666.325
1859.57004	16637.925
1862.71876	16605.125
1865.86542	16556.625
1869.01003	16519.825
1872.15258	16549.025
1875.29308	16481.925
1878.43152	16445.525
1881.56792	16414.525
1884.70227	16419.325
1887.83457	16379.125
1890.96482	16337.225
1894.09304	16302.925
1897.21921	16319.125
1900.34335	16252.925
1903.46544	16255.025
1906.58551	16217.025
1909.70353	16212.625
1912.81953	16189.625
1915.93349	16156.825
1919.04543	16133.925
1922.15534	16079.325
1925.26322	16049.025
1928.36908	16019.225
1931.47292	15992.625
1934.57473	15920.425
1937.67453	15921.725
1940.77232	15893.725
1943.86808	15809.625
1946.96184	15760.125
1950.05358	15709.625
1953.14331	15692.925
1956.23103	15642.325
1959.31675	15583.425
1962.40046	15526.025
1965.48217	15510.325
1968.56188	15436.825
1971.63959	15393.725
1974.7153	15329.625
1977.78901	15285.225
1980.86073	15239.925
1983.93046	15203.525
1986.99819	15149.325
1990.06394	15070.425
1993.1277	15060.825
1996.18947	14988.725
1999.24925	14953.125
2002.30706	14904.625
2005.36288	14851.725
2008.41672	14839.825
2011.46859	14754.325
2014.51848	14731.525
2017.56639	14707.125
2020.61233	14674.925
2023.6563	14642.325
2026.6983	14604.125
2029.73833	14552.025
2032.7764	14519.325
2035.8125	14462.825
2038.84664	14417.325
2041.87881	14352.425
2044.90903	14329.625
2047.93729	14297.925
2050.96359	14255.425
2053.98794	14261.025
2057.01034	14264.725
2060.03078	14231.425
2063.04927	14207.625
2066.06582	14228.925
2069.08042	14242.725
2072.09307	14202.725
2075.10378	14177.925
2078.11255	14177.925
2081.11938	14166.725
2084.12426	14149.625
2087.12722	14151.325
2090.12824	14153.925
2093.12732	14134.025
2096.12447	14130.125
2099.11969	14136.525
2102.11299	14125.625
2105.10435	14123.425
2108.09379	14119.425
2111.08131	14130.125
2114.0669	14134.425
2117.05057	14138.425
2120.03233	14155.025
2123.01216	14172.425
2125.99008	14188.925
2128.96609	14167.325
2131.94018	14181.725
2134.91236	14208.125
2137.88263	14221.625
2140.851	14204.025
2143.81746	14214.525
2146.78201	14193.525
2149.74466	14204.925
2152.7054	14171.625
2155.66425	14193.025
2158.6212	14206.825
2161.57625	14197.825
2164.52941	14187.125
2167.48067	14143.925
2170.43004	14134.825
2173.37752	14108.325
2176.32311	14127.225
2179.26681	14150.625
2182.20863	14118.925
2185.14856	14116.025
2188.08661	14107.525
2191.02278	14129.525
2193.95707	14105.425
2196.88948	14100.125
2199.82001	14068.925
2202.74867	14055.325
2205.67545	14035.025
2208.60037	13997.225
2211.52341	13969.825
2214.44458	13955.825
2217.36388	13917.525
2220.28132	13895.925
2223.1969	13843.325
2226.11061	13841.325
2229.02246	13840.525
2231.93245	13768.425
2234.84058	13737.425
2237.74686	13708.025
2240.65128	13703.025
2243.55385	13717.225
2246.45456	13669.525
2249.35343	13655.525
2252.25044	13623.925
2255.14561	13604.325
2258.03893	13589.925
2260.93041	13561.825
2263.82004	13525.125
2266.70783	13467.425
2269.59378	13425.025
2272.4779	13368.825
2275.36017	13358.725
2278.24061	13358.025
2281.11922	13336.025
2283.996	13291.325
2286.87094	13293.125
2289.74405	13279.125
2292.61534	13246.325
2295.4848	13230.625
2298.35243	13214.725
2301.21824	13173.525
2304.08223	13180.525
2306.94439	13155.325
2309.80474	13151.225
2312.66327	13159.325
2315.51999	13117.425
2318.37489	13104.425
2321.22797	13080.325
2324.07925	13080.525
2326.92871	13049.425
2329.77637	13007.025
2332.62222	12990.225
2335.46626	12960.025
2338.3085	12943.125
2341.14893	12960.325
2343.98756	12944.325
2346.8244	12934.925
2349.65943	12925.125
2352.49267	12911.225
2355.32411	12888.925
2358.15376	12904.225
2360.98161	12912.125
2363.80768	12900.425
2366.63195	12901.725
2369.45444	12880.125
2372.27514	12852.825
2375.09405	12864.325
2377.91118	12817.625
2380.72652	12802.725
2383.54009	12751.025
2386.35187	12735.425
2389.16188	12701.325
2391.97011	12670.225
2394.77657	12615.725
2397.58125	12583.325
2400.38416	12607.125
2403.18529	12593.225
2405.98466	12576.925
2408.78226	12533.925
2411.57809	12523.025
2414.37216	12512.125
2417.16446	12506.225
2419.955	12488.325
2422.74378	12469.925
2425.5308	12444.825
2428.31606	12456.325
2431.09956	12442.425
2433.88131	12398.625
2436.6613	12454.425
2439.43954	12424.625
2442.21603	12411.125
2444.99077	12392.925
2447.76377	12365.125
2450.53501	12345.425
2453.30451	12317.525
2456.07226	12342.925
2458.83827	12325.725
2461.60254	12299.925
2464.36507	12285.725
2467.12586	12233.625
2469.88492	12252.625
2472.64224	12252.825
2475.39782	12240.625
2478.15167	12254.025
2480.90379	12254.025
2483.65417	12246.725
2486.40283	12225.925
2489.14976	12233.825
2491.89497	12231.125
2494.63845	12215.725
2497.3802	12235.425
2500.12024	12216.925
2502.85855	12189.425
2505.59514	12163.525
2508.33002	12154.825
2511.06318	12165.325
2513.79462	12143.825
2516.52435	12126.425
2519.25237	12113.825
2521.97867	12068.725
2524.70327	12082.025
2527.42616	12053.025
2530.14734	12076.925
2532.86681	12055.225
2535.58458	12042.225
2538.30065	12001.825
2541.01501	12012.725
2543.72768	11994.425
2546.43864	11982.925
2549.14791	11949.825
2551.85548	11957.925
2554.56136	11932.825
2557.26554	11897.125
2559.96803	11876.525
2562.66883	11850.125
2565.36794	11810.425
2568.06536	11816.225
2570.7611	11799.925
2573.45514	11761.025
2576.14751	11736.725
2578.83819	11717.925
2581.52719	11718.225
2584.21451	11692.525
2586.90015	11673.425
2589.58411	11660.925
2592.2664	11635.825
2594.94701	11621.725
2597.62594	11614.525
2600.30321	11583.825
2602.9788	11590.925
2605.65273	11554.825
2608.32498	11586.525
2610.99557	11557.425
2613.66449	11528.025
2616.33175	11522.825
2618.99734	11508.525
2621.66128	11503.725
2624.32355	11459.525
2626.98416	11470.625
2629.64311	11463.825
2632.30041	11437.025
2634.95605	11417.025
2637.61004	11409.125
2640.26238	11400.425
2642.91306	11379.525
2645.56209	11382.125
2648.20948	11375.125
2650.85521	11381.825
2653.4993	11370.325
2656.14175	11344.225
2658.78255	11380.725
2661.42171	11365.325
2664.05923	11378.925
2666.6951	11377.925
2669.32934	11406.525
2671.96194	11393.725
2674.59291	11394.425
2677.22224	11387.625
2679.84993	11393.425
2682.476	11365.925
2685.10043	11403.325
2687.72324	11381.725
2690.34441	11354.925
2692.96396	11376.325
2695.58188	11348.725
2698.19818	11344.425
2700.81285	11365.725
2703.4259	11369.825
2706.03733	11394.525
2708.64714	11333.725
2711.25533	11344.025
2713.86191	11347.125
2716.46687	11340.425
2719.07021	11350.225
2721.67194	11395.525
2724.27206	11350.225
2726.87057	11359.725
2729.46747	11362.825
2732.06276	11370.525
2734.65644	11347.025
2737.24852	11331.025
2739.83899	11328.225
2742.42786	11349.825
2745.01513	11314.625
2747.60079	11300.325
2750.18486	11279.525
2752.76733	11259.325
2755.3482	11224.225
2757.92747	11243.725
2760.50515	11199.625
2763.08123	11200.425
2765.65573	11189.425
2768.22863	11214.725
2770.79994	11174.225
2773.36967	11160.425
2775.9378	11190.325
2778.50435	11171.925
2781.06932	11140.625
2783.6327	11147.625
2786.1945	11131.825
2788.75471	11129.825
2791.31335	11079.825
2793.87041	11064.925
2796.42589	11044.325
2798.97979	11032.625
2801.53212	11036.725
2804.08288	11026.025
2806.63206	10963.125
2809.17967	10972.225
2811.72571	10948.325
2814.27018	10900.725
2816.81308	10868.325
2819.35442	10863.825
2821.89419	10818.625
2824.43239	10810.325
2826.96904	10760.625
2829.50412	10768.225
2832.03763	10761.925
2834.56959	10774.425
2837.1	10713.225
2839.62884	10723.125
2842.15613	10767.025
2844.68186	10745.825
2847.20604	10718.225
2849.72867	10742.925
2852.24974	10715.625
2854.76927	10716.725
2857.28724	10675.525
2859.80367	10659.725
2862.31855	10647.725
2864.83189	10629.225
2867.34368	10594.325
2869.85393	10585.125
2872.36264	10585.225
2874.8698	10572.325
2877.37543	10582.825
2879.87952	10561.325
2882.38207	10551.225
2884.88308	10535.225
2887.38256	10547.425
2889.88051	10527.725
2892.37692	10557.925
2894.8718	10541.125
2897.36515	10537.625
2899.85698	10556.825
2902.34727	10545.625
2904.83604	10547.525
2907.32328	10552.225
2909.809	10551.825
2912.29319	10558.725
2914.77587	10549.625
2917.25702	10537.625
2919.73665	10531.625
2922.21476	10541.125
2924.69136	10528.025
2927.16644	10526.325
2929.64	10498.825
2932.11205	10482.525
2934.58258	10429.425
2937.05161	10443.925
2939.51912	10457.825
2941.98513	10440.025
2944.44962	10417.225
2946.91261	10387.525
2949.37409	10429.925
2951.83407	10394.025
2954.29254	10399.925
2956.74951	10395.725
2959.20498	10390.325
2961.65895	10362.725
2964.11142	10379.325
2966.56239	10352.525
2969.01186	10354.325
2971.45984	10313.725
2973.90632	10316.525
2976.35131	10305.225
2978.7948	10287.125
2981.23681	10275.825
2983.67732	10252.225
2986.11635	10235.925
2988.55388	10203.025
2990.98993	10176.825
2993.4245	10164.325
2995.85758	10115.425
2998.28917	10105.625
3000.71928	10057.925
3003.14791	10068.425
3005.57506	10049.425
3008.00073	10004.925
3010.42493	9925.425
3012.84764	9942.125
3015.26888	9953.025
3017.68865	9905.125
3020.10694	9914.425
3022.52376	9903.125
3024.9391	9892.325
3027.35298	9886.025
3029.76539	9864.725
3032.17632	9861.025
3034.5858	9872.425
3036.9938	9849.025
3039.40034	9847.825
3041.80542	9844.725
3044.20903	9812.925
3046.61118	9805.825
3049.01187	9768.725
3051.4111	9753.825
3053.80888	9716.425
3056.20519	9711.625
3058.60005	9685.225
3060.99345	9669.525
3063.3854	9637.625
3065.7759	9618.225
3068.16494	9600.025
3070.55254	9584.125
3072.93868	9550.225
3075.32338	9508.325
3077.70662	9495.525
3080.08842	9461.425
3082.46878	9471.425
3084.84769	9479.325
3087.22515	9459.625
3089.60118	9467.125
3091.97576	9450.025
3094.3489	9451.925
3096.72061	9432.525
3099.09087	9441.125
3101.4597	9460.225
3103.82709	9443.325
3106.19305	9421.925
3108.55757	9383.625
3110.92066	9388.025
3113.28232	9383.025
3115.64255	9342.825
3118.00134	9327.325
3120.35871	9317.925
3122.71466	9295.625
3125.06917	9255.425
3127.42226	9235.525
3129.77393	9257.725
3132.12417	9221.525
3134.47299	9233.025
