Data from AgNP_FTO_APTES_UA_10uM_CRN_20uM_R6G_10uM_NaF_0.1M_Addition_RamanShift__8__16-12-10-741.txt Node

Date: Thu Feb 10 16:12:10 GMT 2022
User: TCL
Spectrometer: QEP01345
Trigger mode: 4
Integration Time (sec): 7.000000E0
Scans to average: 10
Electric dark correction enabled: true
Nonlinearity correction enabled: false
Boxcar width: 0
XAxis mode: Raman Shifts
Number of Pixels in Spectrum: 1044
>>>>>Begin Spectral Data<<<<<
46.04893	-0.075
50.45542	-1.375
54.85868	-1.175
59.25871	-1.575
63.6555	68.325
68.04907	72.725
72.43941	75.325
76.82654	76.325
81.21044	81.425
85.59113	80.825
89.96862	85.325
94.34289	89.625
98.71396	86.125
103.08183	97.225
107.4465	99.825
111.80798	99.425
116.16626	105.225
120.52136	108.025
124.87327	114.125
129.222	115.225
133.56755	123.925
137.90993	136.025
142.24913	144.025
146.58517	162.825
150.91804	194.825
155.24774	228.925
159.57429	287.825
163.89768	366.625
168.21792	484.425
172.53501	660.125
176.84895	922.625
181.15975	1295.125
185.46741	1814.525
189.77193	2516.825
194.07331	3356.225
198.37157	4311.025
202.6667	5316.425
206.9587	6333.525
211.24758	7283.125
215.53334	8277.525
219.81599	9312.625
224.09553	10437.925
228.37195	11704.125
232.64527	13044.725
236.91549	14492.025
241.18261	15932.825
245.44663	17233.125
249.70755	18513.625
253.96539	19610.825
258.22014	20472.625
262.4718	21243.925
266.72039	21770.325
270.96589	22052.825
275.20832	22112.225
279.44768	22022.225
283.68397	21909.125
287.91719	21727.125
292.14735	21653.925
296.37445	21652.925
300.59849	21716.725
304.81948	21826.425
309.03742	21787.125
313.25231	21641.425
317.46415	21325.225
321.67296	20865.625
325.87872	20453.125
330.08145	20258.725
334.28114	20240.425
338.47781	20355.425
342.67145	20603.625
346.86207	20882.725
351.04966	21206.625
355.23424	21491.725
359.4158	21784.525
363.59435	21992.925
367.76989	22203.725
371.94243	22306.925
376.11196	22375.125
380.27849	22379.325
384.44203	22499.425
388.60257	22681.325
392.76012	22945.225
396.91468	23340.825
401.06626	23647.725
405.21485	23889.025
409.36047	23812.025
413.50311	23573.525
417.64277	23482.025
421.77947	23592.825
425.9132	23720.625
430.04396	23890.225
434.17176	23965.925
438.2966	24096.025
442.41849	24354.825
446.53742	24858.925
450.6534	25457.625
454.76644	25928.125
458.87653	26126.325
462.98368	26089.225
467.08789	25862.125
471.18916	25575.125
475.2875	25292.225
479.38291	25136.425
483.4754	25012.625
487.56496	24795.625
491.6516	24367.025
495.73531	23970.425
499.81612	23733.225
503.89401	23809.125
507.96899	23950.125
512.04106	23975.425
516.11023	23852.125
520.1765	23577.625
524.23987	23315.725
528.30034	23109.325
532.35792	22859.025
536.41261	22637.525
540.46441	22443.125
544.51333	22502.425
548.55936	22741.825
552.60252	23174.125
556.64279	23694.425
560.6802	24116.725
564.71473	24403.125
568.7464	24931.125
572.7752	25796.525
576.80114	26777.825
580.82422	27700.325
584.84444	28626.825
588.86181	29674.125
592.87633	30487.125
596.888	30009.325
600.89682	28619.925
604.9028	28102.025
608.90594	29106.025
612.90624	30093.425
616.90371	28114.025
620.89834	24657.925
624.89015	23236.725
628.87913	23205.625
632.86528	23387.225
636.84862	23399.225
640.82913	22987.725
644.80683	22494.625
648.78172	22142.325
652.75379	22132.325
656.72306	22335.125
660.68952	22547.225
664.65319	22447.725
668.61405	22153.125
672.57211	22169.825
676.52738	22245.125
680.47986	22232.425
684.42955	22098.325
688.37646	22071.825
692.32058	22177.225
696.26192	22449.325
700.20048	22777.125
704.13626	22964.125
708.06928	23020.525
711.99952	22964.325
715.927	22920.025
719.85171	22889.025
723.77365	22774.025
727.69284	22446.325
731.60928	22179.225
735.52295	21984.625
739.43388	21909.025
743.34206	22022.425
747.24749	22135.825
751.15017	22391.525
755.05012	22830.025
758.94733	23525.825
762.8418	24485.025
766.73354	25888.425
770.62254	27022.025
774.50882	27017.125
778.39237	25878.525
782.27321	24367.425
786.15132	23273.625
790.02671	22560.325
793.89938	22191.025
797.76935	21961.525
801.6366	21896.225
805.50115	21828.025
809.36299	21754.725
813.22213	21629.725
817.07857	21559.125
820.93231	21504.525
824.78336	21360.125
828.63172	21274.825
832.47738	21209.225
836.32036	21159.525
840.16066	21220.725
843.99827	21242.825
847.8332	21196.525
851.66546	21232.025
855.49504	21306.025
859.32195	21295.125
863.1462	21208.625
866.96777	21155.325
870.78668	21117.725
874.60293	21138.725
878.41652	21152.325
882.22745	21170.725
886.03573	21198.325
889.84136	21195.725
893.64433	21142.425
897.44466	21052.825
901.24235	21001.225
905.0374	21001.225
908.8298	21012.725
912.61957	21091.825
916.40671	21288.125
920.19121	21613.725
923.97308	21850.725
927.75233	21770.225
931.52895	21437.825
935.30295	21092.925
939.07433	20765.425
942.84309	20484.325
946.60924	20395.925
950.37278	20349.725
954.13371	20397.325
957.89203	20353.825
961.64774	20393.125
965.40086	20389.125
969.15137	20305.325
972.89929	20237.025
976.64461	20167.725
980.38733	20113.325
984.12747	20144.425
987.86502	20216.125
991.59999	20332.225
995.33237	20519.225
999.06217	20789.425
1002.78939	21194.225
1006.51404	21560.425
1010.23611	21971.525
1013.95561	22177.825
1017.67255	22183.025
1021.38692	21959.025
1025.09872	21713.625
1028.80796	21476.425
1032.51465	21466.425
1036.21877	21626.225
1039.92035	21724.525
1043.61937	21741.225
1047.31584	21713.425
1051.00976	21652.825
1054.70114	21743.425
1058.38998	21892.625
1062.07627	22079.825
1065.76003	22417.325
1069.44126	22677.725
1073.11995	23011.425
1076.79611	23282.225
1080.46974	23420.725
1084.14085	23523.825
1087.80943	23793.025
1091.47549	23955.725
1095.13903	24034.625
1098.80005	23801.625
1102.45857	23198.525
1106.11456	22742.825
1109.76805	22516.125
1113.41903	22447.025
1117.06751	22554.625
1120.71348	22705.525
1124.35696	22912.025
1127.99793	23199.825
1131.63641	23320.225
1135.2724	23361.725
1138.90589	23318.425
1142.5369	23435.825
1146.16542	23677.325
1149.79145	23916.225
1153.415	24225.625
1157.03607	24654.525
1160.65467	25402.825
1164.27079	26559.325
1167.88443	27887.525
1171.49561	29246.125
1175.10432	30745.325
1178.71056	32657.525
1182.31434	34453.725
1185.91565	35487.825
1189.51451	35520.325
1193.11091	35025.825
1196.70485	34070.725
1200.29634	32998.225
1203.88538	32324.525
1207.47197	32092.225
1211.05612	31920.725
1214.63782	31479.925
1218.21708	30456.425
1221.79391	29345.825
1225.36829	28475.425
1228.94024	27990.225
1232.50976	27701.525
1236.07685	27411.025
1239.6415	27284.825
1243.20374	27289.625
1246.76355	27479.825
1250.32093	27882.925
1253.8759	28416.125
1257.42845	29185.225
1260.97859	30010.625
1264.52631	30837.125
1268.07163	31700.425
1271.61453	32554.325
1275.15503	33414.225
1278.69312	34333.125
1282.22882	35305.525
1285.76211	36541.825
1289.29301	37977.525
1292.82151	39812.225
1296.34761	41902.225
1299.87133	44299.025
1303.39266	46654.625
1306.9116	48424.625
1310.42815	49557.225
1313.94233	49960.525
1317.45412	49617.525
1320.96354	49124.825
1324.47058	49054.825
1327.97525	49079.525
1331.47754	49175.625
1334.97747	49180.425
1338.47502	48975.325
1341.97022	48574.025
1345.46305	47927.025
1348.95352	47130.025
1352.44163	46464.225
1355.92738	46451.925
1359.41078	47055.025
1362.89183	47687.725
1366.37053	46555.625
1369.84688	43497.025
1373.32088	39761.125
1376.79254	37071.525
1380.26186	36285.625
1383.72883	36622.725
1387.19347	36942.125
1390.65578	36808.125
1394.11575	36702.125
1397.57339	37058.525
1401.0287	37615.925
1404.48168	37951.125
1407.93234	37825.425
1411.38068	36914.625
1414.82669	35467.725
1418.27039	33842.025
1421.71177	32394.025
1425.15083	31266.125
1428.58758	30848.425
1432.02203	31221.525
1435.45416	32181.425
1438.88399	33258.325
1442.31151	34055.525
1445.73673	34547.125
1449.15965	34845.825
1452.58027	34978.425
1455.9986	34959.025
1459.41463	35254.925
1462.82837	35686.325
1466.23982	36196.225
1469.64898	36668.825
1473.05586	36852.625
1476.46045	36785.025
1479.86276	36408.525
1483.26279	35967.325
1486.66054	35759.325
1490.05602	35841.825
1493.44922	36050.425
1496.84016	36527.125
1500.22882	37125.925
1503.61521	37889.225
1506.99934	38736.425
1510.38121	39405.025
1513.76081	39507.025
1517.13816	39079.125
1520.51324	38552.325
1523.88607	38349.925
1527.25665	38513.125
1530.62498	38741.525
1533.99105	38714.425
1537.35488	38213.925
1540.71647	37161.425
1544.07581	35978.425
1547.4329	34805.025
1550.78776	33804.725
1554.14038	33214.525
1557.49077	32799.325
1560.83892	32542.625
1564.18484	32441.725
1567.52853	32436.925
1570.86999	32744.225
1574.20922	33467.625
1577.54624	34199.125
1580.88103	34692.725
1584.2136	35358.025
1587.54395	36459.125
1590.87208	38192.525
1594.19801	40127.925
1597.52172	41792.625
1600.84321	41742.125
1604.16251	39673.025
1607.47959	36578.925
1610.79447	33494.225
1614.10715	30794.325
1617.41763	28574.425
1620.7259	27073.725
1624.03199	26345.025
1627.33587	26350.825
1630.63757	27183.125
1633.93707	29044.325
1637.23439	32084.325
1640.52951	36402.925
1643.82246	41255.525
1647.11321	44805.725
1650.40179	45019.525
1653.68819	41449.625
1656.97241	35856.725
1660.25446	30662.525
1663.53433	26766.825
1666.81203	24241.525
1670.08756	22598.025
1673.36092	21605.425
1676.63211	20924.525
1679.90115	20477.925
1683.16801	20122.325
1686.43272	19877.225
1689.69527	19704.925
1692.95567	19527.825
1696.2139	19450.125
1699.46999	19403.225
1702.72392	19276.125
1705.97571	19206.525
1709.22535	19126.925
1712.47284	19080.325
1715.71819	19026.525
1718.96139	18991.925
1722.20246	18912.525
1725.44139	18825.525
1728.67818	18715.025
1731.91284	18601.725
1735.14537	18464.725
1738.37576	18408.625
1741.60403	18353.325
1744.83017	18236.925
1748.05418	18204.625
1751.27607	18167.425
1754.49584	18140.025
1757.71349	18140.425
1760.92903	18124.325
1764.14244	18090.425
1767.35375	18079.725
1770.56294	18053.225
1773.77002	18000.725
1776.97499	17963.425
1780.17785	17877.925
1783.37861	17864.825
1786.57727	17850.725
1789.77382	17806.925
1792.96828	17787.625
1796.16064	17762.925
1799.3509	17720.125
1802.53907	17673.925
1805.72514	17617.825
1808.90913	17562.125
1812.09102	17507.225
1815.27083	17493.825
1818.44856	17497.025
1821.6242	17463.225
1824.79776	17429.425
1827.96924	17416.125
1831.13864	17389.525
1834.30597	17407.025
1837.47122	17401.025
1840.6344	17424.725
1843.7955	17414.625
1846.95454	17395.925
1850.11151	17378.525
1853.26642	17361.625
1856.41926	17360.025
1859.57004	17335.925
1862.71876	17298.225
1865.86542	17265.225
1869.01003	17209.325
1872.15258	17229.725
1875.29308	17206.625
1878.43152	17183.625
1881.56792	17164.725
1884.70227	17146.725
1887.83457	17111.425
1890.96482	17088.825
1894.09304	17085.725
1897.21921	17034.325
1900.34335	16996.225
1903.46544	17002.725
1906.58551	16972.225
1909.70353	16933.625
1912.81953	16901.425
1915.93349	16891.325
1919.04543	16878.225
1922.15534	16806.725
1925.26322	16772.225
1928.36908	16732.625
1931.47292	16713.925
1934.57473	16650.725
1937.67453	16649.825
1940.77232	16602.225
1943.86808	16563.225
1946.96184	16529.425
1950.05358	16450.725
1953.14331	16386.525
1956.23103	16356.025
1959.31675	16302.225
1962.40046	16277.425
1965.48217	16222.525
1968.56188	16153.725
1971.63959	16071.125
1974.7153	16077.925
1977.78901	15990.825
1980.86073	15966.825
1983.93046	15927.725
1986.99819	15874.425
1990.06394	15842.825
1993.1277	15807.025
1996.18947	15734.925
1999.24925	15681.325
2002.30706	15647.325
2005.36288	15596.125
2008.41672	15547.025
2011.46859	15503.325
2014.51848	15462.425
2017.56639	15438.825
2020.61233	15373.525
2023.6563	15355.425
2026.6983	15304.625
2029.73833	15277.925
2032.7764	15263.425
2035.8125	15248.025
2038.84664	15167.925
2041.87881	15143.925
2044.90903	15072.725
2047.93729	15059.725
2050.96359	15079.825
2053.98794	15079.925
2057.01034	15038.825
2060.03078	15028.725
2063.04927	14988.125
2066.06582	15011.325
2069.08042	15007.225
2072.09307	15006.825
2075.10378	14958.625
2078.11255	14973.425
2081.11938	14957.625
2084.12426	14934.725
2087.12722	14962.925
2090.12824	14921.125
2093.12732	14912.725
2096.12447	14903.225
2099.11969	14915.725
2102.11299	14904.725
2105.10435	14920.625
2108.09379	14925.725
2111.08131	14939.425
2114.0669	14922.025
2117.05057	14922.225
2120.03233	14945.325
2123.01216	14966.225
2125.99008	14993.825
2128.96609	15001.625
2131.94018	15005.225
2134.91236	15005.425
2137.88263	15014.925
2140.851	15020.325
2143.81746	15031.625
2146.78201	14985.125
2149.74466	14983.325
2152.7054	14985.425
2155.66425	14964.625
2158.6212	14977.525
2161.57625	15006.925
2164.52941	14966.125
2167.48067	14984.025
2170.43004	14970.925
2173.37752	14927.325
2176.32311	14940.725
2179.26681	14946.925
2182.20863	14961.025
2185.14856	14952.325
2188.08661	14940.525
2191.02278	14941.625
2193.95707	14958.725
2196.88948	14928.425
2199.82001	14893.525
2202.74867	14883.025
2205.67545	14847.525
2208.60037	14817.425
2211.52341	14817.125
2214.44458	14816.625
2217.36388	14769.825
2220.28132	14752.325
2223.1969	14733.325
2226.11061	14714.225
2229.02246	14675.825
2231.93245	14642.225
2234.84058	14634.425
2237.74686	14615.925
2240.65128	14598.025
2243.55385	14574.625
2246.45456	14525.925
2249.35343	14534.825
2252.25044	14517.125
2255.14561	14465.625
2258.03893	14443.425
2260.93041	14375.325
2263.82004	14362.325
2266.70783	14323.025
2269.59378	14292.925
2272.4779	14224.225
2275.36017	14171.325
2278.24061	14214.925
2281.11922	14174.025
2283.996	14148.525
2286.87094	14172.925
2289.74405	14131.125
2292.61534	14109.125
2295.4848	14084.525
2298.35243	14097.825
2301.21824	14090.125
2304.08223	14081.025
2306.94439	14061.725
2309.80474	14053.425
2312.66327	14071.525
2315.51999	14038.825
2318.37489	14023.325
2321.22797	14017.325
2324.07925	14009.525
2326.92871	13980.925
2329.77637	13946.925
2332.62222	13923.025
2335.46626	13909.625
2338.3085	13879.925
2341.14893	13886.525
2343.98756	13906.125
2346.8244	13890.525
2349.65943	13898.925
2352.49267	13871.925
2355.32411	13873.225
2358.15376	13879.725
2360.98161	13898.925
2363.80768	13895.225
2366.63195	13865.825
2369.45444	13840.225
2372.27514	13807.425
2375.09405	13816.025
2377.91118	13775.725
2380.72652	13745.925
2383.54009	13700.125
2386.35187	13682.925
2389.16188	13664.025
2391.97011	13634.925
2394.77657	13607.125
2397.58125	13595.025
2400.38416	13576.525
2403.18529	13540.025
2405.98466	13551.125
2408.78226	13531.825
2411.57809	13490.025
2414.37216	13478.725
2417.16446	13495.025
2419.955	13488.225
2422.74378	13451.425
2425.5308	13434.925
2428.31606	13475.325
2431.09956	13480.525
2433.88131	13457.325
2436.6613	13428.825
2439.43954	13422.425
2442.21603	13427.525
2444.99077	13435.125
2447.76377	13435.725
2450.53501	13384.525
2453.30451	13389.425
2456.07226	13385.225
2458.83827	13372.125
2461.60254	13339.325
2464.36507	13338.125
2467.12586	13341.125
2469.88492	13318.225
2472.64224	13337.125
2475.39782	13361.525
2478.15167	13363.325
2480.90379	13321.025
2483.65417	13380.025
2486.40283	13361.725
2489.14976	13333.325
2491.89497	13355.925
2494.63845	13353.325
2497.3802	13329.025
2500.12024	13347.025
2502.85855	13351.225
2505.59514	13332.025
2508.33002	13321.725
2511.06318	13303.825
2513.79462	13309.725
2516.52435	13293.525
2519.25237	13267.525
2521.97867	13249.625
2524.70327	13266.725
2527.42616	13235.725
2530.14734	13238.225
2532.86681	13245.925
2535.58458	13234.725
2538.30065	13224.425
2541.01501	13222.325
2543.72768	13235.025
2546.43864	13181.825
2549.14791	13173.025
2551.85548	13187.325
2554.56136	13151.525
2557.26554	13126.625
2559.96803	13133.925
2562.66883	13081.025
2565.36794	13098.325
2568.06536	13078.825
2570.7611	13050.225
2573.45514	13077.725
2576.14751	13054.025
2578.83819	13017.225
2581.52719	13014.625
2584.21451	13011.825
2586.90015	12990.325
2589.58411	12991.825
2592.2664	12986.425
2594.94701	12993.025
2597.62594	12975.425
2600.30321	12953.125
2602.9788	12949.825
2605.65273	12923.025
2608.32498	12947.325
2610.99557	12924.325
2613.66449	12927.425
2616.33175	12913.825
2618.99734	12940.025
2621.66128	12929.725
2624.32355	12879.125
2626.98416	12867.925
2629.64311	12897.425
2632.30041	12874.225
2634.95605	12846.225
2637.61004	12831.225
2640.26238	12814.325
2642.91306	12821.325
2645.56209	12790.825
2648.20948	12818.225
2650.85521	12829.525
2653.4993	12821.625
2656.14175	12839.625
2658.78255	12854.925
2661.42171	12824.125
2664.05923	12841.125
2666.6951	12897.825
2669.32934	12902.725
2671.96194	12898.425
2674.59291	12890.825
2677.22224	12868.025
2679.84993	12900.625
2682.476	12867.625
2685.10043	12859.025
2687.72324	12846.325
2690.34441	12871.025
2692.96396	12882.925
2695.58188	12863.725
2698.19818	12860.225
2700.81285	12908.025
2703.4259	12893.625
2706.03733	12898.825
2708.64714	12884.825
2711.25533	12886.025
2713.86191	12881.525
2716.46687	12893.625
2719.07021	12923.225
2721.67194	12932.925
2724.27206	12928.425
2726.87057	12947.825
2729.46747	12951.625
2732.06276	12979.025
2734.65644	12963.925
2737.24852	12954.825
2739.83899	12917.725
2742.42786	12961.425
2745.01513	12967.225
2747.60079	12940.525
2750.18486	12893.325
2752.76733	12897.225
2755.3482	12875.925
2757.92747	12864.025
2760.50515	12846.225
2763.08123	12838.925
2765.65573	12833.725
2768.22863	12857.625
2770.79994	12824.925
2773.36967	12840.925
2775.9378	12845.425
2778.50435	12856.825
2781.06932	12849.925
2783.6327	12852.325
2786.1945	12857.225
2788.75471	12823.725
2791.31335	12805.025
2793.87041	12780.025
2796.42589	12756.525
2798.97979	12753.525
2801.53212	12749.725
2804.08288	12736.025
2806.63206	12716.825
2809.17967	12666.625
2811.72571	12667.925
2814.27018	12643.125
2816.81308	12593.025
2819.35442	12579.825
2821.89419	12498.725
2824.43239	12518.025
2826.96904	12486.225
2829.50412	12521.825
2832.03763	12489.825
2834.56959	12481.525
2837.1	12481.525
2839.62884	12459.225
2842.15613	12481.625
2844.68186	12478.325
2847.20604	12477.425
2849.72867	12468.425
2852.24974	12455.525
2854.76927	12443.025
2857.28724	12412.625
2859.80367	12408.325
2862.31855	12387.325
2864.83189	12390.325
2867.34368	12315.825
2869.85393	12355.625
2872.36264	12323.325
2874.8698	12328.125
2877.37543	12299.225
2879.87952	12299.925
2882.38207	12317.525
2884.88308	12298.325
2887.38256	12323.125
2889.88051	12312.025
2892.37692	12317.325
2894.8718	12333.225
2897.36515	12327.525
2899.85698	12332.225
2902.34727	12345.725
2904.83604	12338.025
2907.32328	12389.725
2909.809	12384.125
2912.29319	12387.725
2914.77587	12379.425
2917.25702	12350.825
2919.73665	12351.025
2922.21476	12359.425
2924.69136	12352.125
2927.16644	12338.625
2929.64	12337.025
2932.11205	12322.525
2934.58258	12276.825
2937.05161	12314.325
2939.51912	12278.025
2941.98513	12279.025
2944.44962	12231.925
2946.91261	12212.525
2949.37409	12234.925
2951.83407	12233.825
2954.29254	12223.425
2956.74951	12212.125
2959.20498	12200.525
2961.65895	12206.525
2964.11142	12209.625
2966.56239	12193.925
2969.01186	12179.625
2971.45984	12132.225
2973.90632	12127.925
2976.35131	12099.225
2978.7948	12087.125
2981.23681	12071.625
2983.67732	12042.525
2986.11635	11993.825
2988.55388	11958.025
2990.98993	11941.525
2993.4245	11934.125
2995.85758	11898.025
2998.28917	11845.825
3000.71928	11847.925
3003.14791	11811.925
3005.57506	11788.825
3008.00073	11738.425
3010.42493	11605.425
3012.84764	11701.025
3015.26888	11663.325
3017.68865	11642.625
3020.10694	11637.125
3022.52376	11594.625
3024.9391	11599.125
3027.35298	11579.125
3029.76539	11603.625
3032.17632	11606.025
3034.5858	11581.925
3036.9938	11578.625
3039.40034	11601.225
3041.80542	11573.525
3044.20903	11577.125
3046.61118	11548.525
3049.01187	11514.325
3051.4111	11488.225
3053.80888	11467.525
3056.20519	11431.725
3058.60005	11401.525
3060.99345	11385.825
3063.3854	11372.925
3065.7759	11299.325
3068.16494	11302.625
3070.55254	11265.525
3072.93868	11243.525
3075.32338	11194.825
3077.70662	11149.525
3080.08842	11147.625
3082.46878	11127.225
3084.84769	11124.925
3087.22515	11125.125
3089.60118	11115.825
3091.97576	11101.125
3094.3489	11092.625
3096.72061	11094.025
3099.09087	11097.425
3101.4597	11103.325
3103.82709	11060.925
3106.19305	11079.125
3108.55757	11036.625
3110.92066	11018.825
3113.28232	11000.525
3115.64255	10989.425
3118.00134	10956.025
3120.35871	10928.825
3122.71466	10911.125
3125.06917	10883.225
3127.42226	10869.925
