Data from AgNP_FTO_APTES_UA_10uM_CRN_500uM_R6G_10uM_NaF_0.1M_Addition_RamanShift__29__19-14-10-966.txt Node

Date: Thu Feb 10 19:14:10 GMT 2022
User: TCL
Spectrometer: QEP01345
Trigger mode: 4
Integration Time (sec): 7.000000E0
Scans to average: 10
Electric dark correction enabled: true
Nonlinearity correction enabled: false
Boxcar width: 0
XAxis mode: Raman Shifts
Number of Pixels in Spectrum: 1044
>>>>>Begin Spectral Data<<<<<
46.04893	0.275
50.45542	-0.925
54.85868	-1.025
59.25871	-1.025
63.6555	53.475
68.04907	54.575
72.43941	58.775
76.82654	57.275
81.21044	67.975
85.59113	62.075
89.96862	68.775
94.34289	70.275
98.71396	70.275
103.08183	72.675
107.4465	76.075
111.80798	70.975
116.16626	78.375
120.52136	81.875
124.87327	82.875
129.222	85.575
133.56755	92.075
137.90993	92.575
142.24913	97.675
146.58517	113.775
150.91804	128.875
155.24774	149.175
159.57429	183.075
163.89768	237.975
168.21792	312.775
172.53501	420.775
176.84895	585.275
181.15975	814.275
185.46741	1134.475
189.77193	1576.475
194.07331	2117.175
198.37157	2731.475
202.6667	3361.675
206.9587	4001.475
211.24758	4656.175
215.53334	5299.275
219.81599	6010.175
224.09553	6811.375
228.37195	7682.075
232.64527	8649.575
236.91549	9675.275
241.18261	10627.575
245.44663	11448.275
249.70755	12166.875
253.96539	12788.975
258.22014	13309.675
262.4718	13794.675
266.72039	14152.775
270.96589	14346.175
275.20832	14420.575
279.44768	14354.475
283.68397	14198.875
287.91719	14090.975
292.14735	14072.375
296.37445	14252.575
300.59849	14585.175
304.81948	14935.275
309.03742	15197.775
313.25231	15111.075
317.46415	14549.075
321.67296	13736.975
325.87872	13050.875
330.08145	12746.975
334.28114	12751.275
338.47781	12945.775
342.67145	13239.075
346.86207	13681.675
351.04966	14322.475
355.23424	15022.775
359.4158	15573.475
363.59435	15828.975
367.76989	15970.075
371.94243	15975.975
376.11196	16006.275
380.27849	15967.575
384.44203	15903.275
388.60257	15776.675
392.76012	15728.775
396.91468	15890.075
401.06626	16214.775
405.21485	16509.975
409.36047	16374.775
413.50311	15819.575
417.64277	15237.275
421.77947	14965.975
425.9132	14884.675
430.04396	14934.575
434.17176	15076.775
438.2966	15255.175
442.41849	15566.375
446.53742	15971.175
450.6534	16348.375
454.76644	16661.475
458.87653	16725.875
462.98368	16589.775
467.08789	16405.275
471.18916	16143.275
475.2875	15878.975
479.38291	15683.375
483.4754	15481.375
487.56496	15271.175
491.6516	15096.275
495.73531	14992.375
499.81612	14967.575
503.89401	15132.875
507.96899	15256.575
512.04106	15407.275
516.11023	15599.675
520.1765	15727.075
524.23987	15706.775
528.30034	15475.675
532.35792	15291.775
536.41261	15092.875
540.46441	14856.475
544.51333	14762.675
548.55936	14867.575
552.60252	15137.475
556.64279	15498.875
560.6802	15662.975
564.71473	15839.475
568.7464	16309.475
572.7752	16678.075
576.80114	16417.275
580.82422	15948.775
584.84444	15705.875
588.86181	15726.875
592.87633	15824.375
596.888	16027.675
600.89682	16300.375
604.9028	17411.875
608.90594	20723.175
612.90624	25316.375
616.90371	24769.575
620.89834	18845.275
624.89015	16005.375
628.87913	15474.775
632.86528	15465.675
636.84862	15555.275
640.82913	15451.475
644.80683	15000.575
648.78172	14687.675
652.75379	14731.075
656.72306	15126.975
660.68952	15698.675
664.65319	15637.775
668.61405	15160.775
672.57211	14884.975
676.52738	14864.875
680.47986	14922.875
684.42955	14882.875
688.37646	14849.575
692.32058	14903.875
696.26192	15015.975
700.20048	15158.875
704.13626	15294.075
708.06928	15265.975
711.99952	15136.475
715.927	15108.775
719.85171	15100.475
723.77365	15099.475
727.69284	14964.075
731.60928	14877.875
735.52295	14860.675
739.43388	14879.875
743.34206	14918.075
747.24749	15029.675
751.15017	15099.675
755.05012	15329.975
758.94733	15855.975
762.8418	16952.675
766.73354	18871.575
770.62254	20946.075
774.50882	22050.175
778.39237	21301.575
782.27321	19097.275
786.15132	16965.275
790.02671	15787.275
793.89938	15211.175
797.76935	15007.275
801.6366	14911.975
805.50115	14842.075
809.36299	14814.975
813.22213	14766.475
817.07857	14804.475
820.93231	14822.975
824.78336	14834.175
828.63172	14891.775
832.47738	14950.475
836.32036	14885.775
840.16066	14834.675
843.99827	14812.375
847.8332	14784.675
851.66546	14780.775
855.49504	14772.575
859.32195	14788.175
863.1462	14700.675
866.96777	14694.175
870.78668	14676.275
874.60293	14720.875
878.41652	14755.775
882.22745	14783.775
886.03573	14841.275
889.84136	14825.875
893.64433	14761.975
897.44466	14723.575
901.24235	14740.875
905.0374	14712.675
908.8298	14657.375
912.61957	14633.275
916.40671	14726.175
920.19121	14786.775
923.97308	14855.975
927.75233	14948.975
931.52895	15030.175
935.30295	14926.275
939.07433	14637.775
942.84309	14386.375
946.60924	14229.275
950.37278	14169.375
954.13371	14097.075
957.89203	14065.275
961.64774	14070.575
965.40086	14022.375
969.15137	13977.675
972.89929	13939.675
976.64461	13917.475
980.38733	13938.575
984.12747	13967.675
987.86502	14014.975
991.59999	14089.175
995.33237	14227.775
999.06217	14447.075
1002.78939	14750.775
1006.51404	15021.275
1010.23611	15215.375
1013.95561	15372.775
1017.67255	15366.775
1021.38692	15211.575
1025.09872	15042.875
1028.80796	14989.375
1032.51465	15088.775
1036.21877	15213.975
1039.92035	15280.075
1043.61937	15271.475
1047.31584	15146.775
1051.00976	15082.175
1054.70114	15033.875
1058.38998	15065.775
1062.07627	15137.175
1065.76003	15207.275
1069.44126	15261.075
1073.11995	15324.775
1076.79611	15446.075
1080.46974	15558.575
1084.14085	15782.075
1087.80943	16087.175
1091.47549	16220.475
1095.13903	16072.675
1098.80005	15692.475
1102.45857	15378.275
1106.11456	15260.275
1109.76805	15331.975
1113.41903	15539.675
1117.06751	15860.175
1120.71348	16308.475
1124.35696	16718.675
1127.99793	17079.575
1131.63641	17037.675
1135.2724	16542.675
1138.90589	16038.075
1142.5369	15733.675
1146.16542	15583.675
1149.79145	15482.275
1153.415	15507.175
1157.03607	15578.375
1160.65467	15800.975
1164.27079	16223.675
1167.88443	16819.975
1171.49561	17793.675
1175.10432	19338.175
1178.71056	21326.775
1182.31434	22849.975
1185.91565	23312.275
1189.51451	22916.275
1193.11091	21964.875
1196.70485	20843.875
1200.29634	19883.975
1203.88538	19202.375
1207.47197	18343.575
1211.05612	17668.575
1214.63782	17267.175
1218.21708	17157.275
1221.79391	17182.975
1225.36829	17169.575
1228.94024	17127.775
1232.50976	17064.275
1236.07685	17066.475
1239.6415	17129.575
1243.20374	17266.575
1246.76355	17369.575
1250.32093	17570.175
1253.8759	17846.375
1257.42845	18259.975
1260.97859	18650.375
1264.52631	19024.275
1268.07163	19338.275
1271.61453	19654.075
1275.15503	19901.275
1278.69312	20100.975
1282.22882	20170.375
1285.76211	20459.675
1289.29301	20937.575
1292.82151	21437.975
1296.34761	22040.975
1299.87133	22917.275
1303.39266	24281.475
1306.9116	26335.575
1310.42815	28707.775
1313.94233	30109.675
1317.45412	29829.075
1320.96354	28382.575
1324.47058	26711.275
1327.97525	25281.375
1331.47754	24468.875
1334.97747	24246.975
1338.47502	24581.375
1341.97022	25120.675
1345.46305	25720.775
1348.95352	26379.975
1352.44163	27319.475
1355.92738	28992.975
1359.41078	31766.175
1362.89183	34318.575
1366.37053	33431.575
1369.84688	29363.375
1373.32088	25370.775
1376.79254	22787.475
1380.26186	21514.275
1383.72883	20895.475
1387.19347	20564.775
1390.65578	20176.375
1394.11575	19812.575
1397.57339	19720.075
1401.0287	19867.175
1404.48168	20192.275
1407.93234	20477.275
1411.38068	20652.475
1414.82669	20589.775
1418.27039	20209.275
1421.71177	19695.775
1425.15083	19207.575
1428.58758	18927.175
1432.02203	18953.275
1435.45416	19081.175
1438.88399	19180.775
1442.31151	19155.475
1445.73673	19271.175
1449.15965	19402.975
1452.58027	19461.975
1455.9986	19424.775
1459.41463	19435.475
1462.82837	19611.275
1466.23982	19873.175
1469.64898	20190.775
1473.05586	20408.075
1476.46045	20563.275
1479.86276	20723.575
1483.26279	21013.975
1486.66054	21355.175
1490.05602	21787.375
1493.44922	22337.575
1496.84016	23205.675
1500.22882	24476.975
1503.61521	26338.775
1506.99934	28491.075
1510.38121	30585.775
1513.76081	31643.375
1517.13816	30572.375
1520.51324	27873.075
1523.88607	25039.775
1527.25665	23147.475
1530.62498	22118.175
1533.99105	21551.575
1537.35488	21227.975
1540.71647	21070.275
1544.07581	20990.075
1547.4329	20937.175
1550.78776	20826.575
1554.14038	20708.375
1557.49077	20771.175
1560.83892	20971.275
1564.18484	21302.775
1567.52853	21605.075
1570.86999	21833.175
1574.20922	21965.275
1577.54624	21818.375
1580.88103	21212.975
1584.2136	20375.475
1587.54395	20106.275
1590.87208	20424.575
1594.19801	21369.275
1597.52172	22596.375
1600.84321	23284.175
1604.16251	22817.675
1607.47959	21682.275
1610.79447	20276.975
1614.10715	18878.275
1617.41763	17757.775
1620.7259	17053.275
1624.03199	16688.975
1627.33587	16644.375
1630.63757	16872.175
1633.93707	17466.575
1637.23439	18340.175
1640.52951	19656.575
1643.82246	21306.575
1647.11321	23127.675
1650.40179	24400.975
1653.68819	23820.875
1656.97241	21429.475
1660.25446	18791.175
1663.53433	16890.575
1666.81203	15732.575
1670.08756	14990.075
1673.36092	14559.375
1676.63211	14281.275
1679.90115	14050.575
1683.16801	13884.975
1686.43272	13787.575
1689.69527	13725.875
1692.95567	13658.575
1696.2139	13609.975
1699.46999	13609.675
1702.72392	13586.175
1705.97571	13586.075
1709.22535	13517.575
1712.47284	13517.675
1715.71819	13491.275
1718.96139	13513.675
1722.20246	13526.875
1725.44139	13473.575
1728.67818	13388.375
1731.91284	13313.975
1735.14537	13229.075
1738.37576	13169.675
1741.60403	13138.675
1744.83017	13115.075
1748.05418	13101.775
1751.27607	13078.875
1754.49584	13084.875
1757.71349	13050.575
1760.92903	13063.575
1764.14244	13036.075
1767.35375	13040.175
1770.56294	13026.375
1773.77002	12969.975
1776.97499	12972.475
1780.17785	12937.175
1783.37861	12901.175
1786.57727	12861.375
1789.77382	12814.075
1792.96828	12845.375
1796.16064	12828.275
1799.3509	12831.175
1802.53907	12790.375
1805.72514	12747.975
1808.90913	12713.775
1812.09102	12718.875
1815.27083	12670.875
1818.44856	12665.475
1821.6242	12626.375
1824.79776	12598.375
1827.96924	12595.375
1831.13864	12581.575
1834.30597	12572.975
1837.47122	12561.875
1840.6344	12545.975
1843.7955	12546.875
1846.95454	12539.675
1850.11151	12521.875
1853.26642	12521.575
1856.41926	12506.475
1859.57004	12525.675
1862.71876	12528.075
1865.86542	12515.775
1869.01003	12510.575
1872.15258	12483.975
1875.29308	12497.275
1878.43152	12505.775
1881.56792	12477.075
1884.70227	12489.775
1887.83457	12480.775
1890.96482	12456.375
1894.09304	12424.775
1897.21921	12435.175
1900.34335	12432.975
1903.46544	12436.275
1906.58551	12438.275
1909.70353	12409.875
1912.81953	12416.675
1915.93349	12412.575
1919.04543	12399.275
1922.15534	12364.875
1925.26322	12324.275
1928.36908	12317.075
1931.47292	12310.675
1934.57473	12282.375
1937.67453	12235.675
1940.77232	12193.275
1943.86808	12162.075
1946.96184	12099.475
1950.05358	12093.175
1953.14331	12030.875
1956.23103	12008.575
1959.31675	12004.275
1962.40046	11942.975
1965.48217	11915.075
1968.56188	11875.975
1971.63959	11839.175
1974.7153	11820.375
1977.78901	11799.675
1980.86073	11720.975
1983.93046	11699.075
1986.99819	11652.575
1990.06394	11630.475
1993.1277	11635.575
1996.18947	11580.875
1999.24925	11537.775
2002.30706	11507.275
2005.36288	11471.475
2008.41672	11421.975
2011.46859	11392.275
2014.51848	11407.875
2017.56639	11359.075
2020.61233	11326.875
2023.6563	11313.375
2026.6983	11281.975
2029.73833	11236.775
2032.7764	11219.875
2035.8125	11185.775
2038.84664	11156.775
2041.87881	11123.475
2044.90903	11103.575
2047.93729	11095.075
2050.96359	11080.375
2053.98794	11064.075
2057.01034	11063.875
2060.03078	11028.075
2063.04927	11030.575
2066.06582	11021.675
2069.08042	11007.175
2072.09307	11021.075
2075.10378	11016.675
2078.11255	10987.975
2081.11938	10989.875
2084.12426	10995.775
2087.12722	10965.775
2090.12824	10949.675
2093.12732	10958.075
2096.12447	10956.375
2099.11969	10951.375
2102.11299	10948.575
2105.10435	10958.175
2108.09379	10977.675
2111.08131	10949.975
2114.0669	10958.775
2117.05057	10958.975
2120.03233	10980.375
2123.01216	10997.975
2125.99008	11044.575
2128.96609	11017.475
2131.94018	11024.775
2134.91236	11014.875
2137.88263	11033.175
2140.851	11027.275
2143.81746	11025.275
2146.78201	11026.275
2149.74466	11051.575
2152.7054	11031.575
2155.66425	11028.375
2158.6212	11030.475
2161.57625	11026.675
2164.52941	11009.575
2167.48067	10975.275
2170.43004	10991.475
2173.37752	10991.275
2176.32311	10988.475
2179.26681	11011.875
2182.20863	10974.075
2185.14856	10970.175
2188.08661	10967.275
2191.02278	11011.175
2193.95707	10964.375
2196.88948	10949.475
2199.82001	10974.275
2202.74867	10926.675
2205.67545	10938.075
2208.60037	10894.775
2211.52341	10906.175
2214.44458	10883.875
2217.36388	10875.575
2220.28132	10867.675
2223.1969	10823.375
2226.11061	10809.175
2229.02246	10781.675
2231.93245	10759.575
2234.84058	10750.775
2237.74686	10727.875
2240.65128	10688.375
2243.55385	10662.075
2246.45456	10669.475
2249.35343	10645.075
2252.25044	10658.075
2255.14561	10632.775
2258.03893	10631.975
2260.93041	10616.275
2263.82004	10583.475
2266.70783	10551.775
2269.59378	10539.275
2272.4779	10499.075
2275.36017	10470.875
2278.24061	10466.875
2281.11922	10426.775
2283.996	10429.275
2286.87094	10401.575
2289.74405	10401.575
2292.61534	10380.475
2295.4848	10375.175
2298.35243	10375.375
2301.21824	10361.775
2304.08223	10330.275
2306.94439	10342.975
2309.80474	10335.775
2312.66327	10322.175
2315.51999	10318.675
2318.37489	10300.675
2321.22797	10287.175
2324.07925	10277.875
2326.92871	10268.575
2329.77637	10242.175
2332.62222	10214.175
2335.46626	10214.375
2338.3085	10212.875
2341.14893	10202.175
2343.98756	10210.775
2346.8244	10216.575
2349.65943	10186.875
2352.49267	10205.375
2355.32411	10188.875
2358.15376	10228.275
2360.98161	10203.775
2363.80768	10198.075
2366.63195	10201.975
2369.45444	10186.475
2372.27514	10186.475
2375.09405	10170.575
2377.91118	10142.675
2380.72652	10095.475
2383.54009	10063.775
2386.35187	10047.975
2389.16188	9994.475
2391.97011	9970.975
2394.77657	9925.275
2397.58125	9937.375
2400.38416	9934.275
2403.18529	9910.975
2405.98466	9883.875
2408.78226	9863.675
2411.57809	9853.675
2414.37216	9836.975
2417.16446	9831.975
2419.955	9805.675
2422.74378	9788.375
2425.5308	9792.575
2428.31606	9796.575
2431.09956	9779.875
2433.88131	9774.575
2436.6613	9765.275
2439.43954	9743.775
2442.21603	9733.275
2444.99077	9708.675
2447.76377	9724.975
2450.53501	9723.975
2453.30451	9705.275
2456.07226	9733.775
2458.83827	9722.175
2461.60254	9701.375
2464.36507	9709.475
2467.12586	9673.875
2469.88492	9684.675
2472.64224	9674.675
2475.39782	9657.075
2478.15167	9691.075
2480.90379	9688.675
2483.65417	9717.875
2486.40283	9710.775
2489.14976	9676.475
2491.89497	9700.975
2494.63845	9687.675
2497.3802	9699.475
2500.12024	9678.175
2502.85855	9664.175
2505.59514	9643.575
2508.33002	9621.575
2511.06318	9592.075
2513.79462	9579.575
2516.52435	9539.375
2519.25237	9521.775
2521.97867	9500.275
2524.70327	9504.775
2527.42616	9479.975
2530.14734	9472.875
2532.86681	9462.375
2535.58458	9464.775
2538.30065	9466.875
2541.01501	9466.275
2543.72768	9441.775
2546.43864	9430.975
2549.14791	9421.475
2551.85548	9400.675
2554.56136	9399.275
2557.26554	9378.375
2559.96803	9337.975
2562.66883	9304.375
2565.36794	9320.675
2568.06536	9290.175
2570.7611	9277.775
2573.45514	9257.075
2576.14751	9250.275
2578.83819	9218.475
2581.52719	9248.775
2584.21451	9223.875
2586.90015	9224.975
2589.58411	9186.975
2592.2664	9182.675
2594.94701	9178.875
2597.62594	9154.875
2600.30321	9133.275
2602.9788	9127.475
2605.65273	9104.375
2608.32498	9123.675
2610.99557	9089.475
2613.66449	9089.775
2616.33175	9089.075
2618.99734	9112.775
2621.66128	9078.575
2624.32355	9063.275
2626.98416	9051.275
2629.64311	9038.575
2632.30041	9039.275
2634.95605	9035.775
2637.61004	8996.775
2640.26238	8998.175
2642.91306	8977.875
2645.56209	8980.775
2648.20948	8954.975
2650.85521	8947.275
2653.4993	8950.875
2656.14175	8939.575
2658.78255	8950.175
2661.42171	8967.975
2664.05923	8958.175
2666.6951	8961.975
2669.32934	8966.975
2671.96194	8957.775
2674.59291	8967.575
2677.22224	8972.575
2679.84993	9005.075
2682.476	8972.775
2685.10043	8969.175
2687.72324	8958.875
2690.34441	8946.275
2692.96396	8953.875
2695.58188	8960.475
2698.19818	8951.375
2700.81285	8950.775
2703.4259	8953.075
2706.03733	8958.875
2708.64714	8952.175
2711.25533	8948.375
2713.86191	8940.675
2716.46687	8947.875
2719.07021	8973.075
2721.67194	8975.375
2724.27206	8951.575
2726.87057	8940.575
2729.46747	8954.675
2732.06276	8980.075
2734.65644	8968.375
2737.24852	8954.675
2739.83899	8931.975
2742.42786	8933.275
2745.01513	8900.975
2747.60079	8912.275
2750.18486	8891.875
2752.76733	8887.875
2755.3482	8875.675
2757.92747	8845.475
2760.50515	8830.975
2763.08123	8790.275
2765.65573	8797.375
2768.22863	8800.775
2770.79994	8783.075
2773.36967	8791.875
2775.9378	8777.975
2778.50435	8769.675
2781.06932	8766.075
2783.6327	8752.675
2786.1945	8767.275
2788.75471	8751.675
2791.31335	8737.075
2793.87041	8706.375
2796.42589	8710.875
2798.97979	8702.775
2801.53212	8687.775
2804.08288	8679.675
2806.63206	8653.975
2809.17967	8647.575
2811.72571	8640.275
2814.27018	8622.575
2816.81308	8594.175
2819.35442	8603.875
2821.89419	8577.775
2824.43239	8583.175
2826.96904	8575.675
2829.50412	8582.275
2832.03763	8565.575
2834.56959	8583.975
2837.1	8554.675
2839.62884	8572.575
2842.15613	8578.075
2844.68186	8627.475
2847.20604	8702.075
2849.72867	8724.975
2852.24974	8708.975
2854.76927	8685.675
2857.28724	8696.575
2859.80367	8671.475
2862.31855	8629.275
2864.83189	8608.275
2867.34368	8601.075
2869.85393	8600.075
2872.36264	8572.675
2874.8698	8576.475
2877.37543	8576.575
2879.87952	8547.775
2882.38207	8548.075
2884.88308	8557.475
2887.38256	8537.475
2889.88051	8536.375
2892.37692	8544.975
2894.8718	8527.075
2897.36515	8566.975
2899.85698	8546.575
2902.34727	8566.075
2904.83604	8569.275
2907.32328	8577.175
2909.809	8578.475
2912.29319	8587.475
2914.77587	8572.275
2917.25702	8541.475
2919.73665	8525.575
2922.21476	8526.375
2924.69136	8535.575
2927.16644	8521.675
2929.64	8510.375
2932.11205	8495.675
2934.58258	8462.675
2937.05161	8472.975
2939.51912	8469.475
2941.98513	8427.775
2944.44962	8378.375
2946.91261	8343.375
2949.37409	8359.975
2951.83407	8337.975
2954.29254	8331.175
2956.74951	8299.675
2959.20498	8307.175
2961.65895	8276.175
2964.11142	8277.975
2966.56239	8267.275
2969.01186	8251.175
2971.45984	8216.275
2973.90632	8194.675
2976.35131	8207.475
2978.7948	8182.575
2981.23681	8143.475
2983.67732	8136.075
2986.11635	8127.875
2988.55388	8104.575
2990.98993	8082.575
2993.4245	8065.575
2995.85758	8043.275
2998.28917	8013.375
3000.71928	8002.275
3003.14791	7990.375
3005.57506	7994.475
3008.00073	7972.775
3010.42493	7974.475
3012.84764	7938.875
3015.26888	7928.675
3017.68865	7923.475
3020.10694	7910.175
3022.52376	7909.475
3024.9391	7884.075
3027.35298	7867.975
3029.76539	7856.475
3032.17632	7852.175
3034.5858	7833.975
3036.9938	7848.175
3039.40034	7831.275
3041.80542	7826.475
3044.20903	7812.675
3046.61118	7814.775
3049.01187	7794.775
3051.4111	7790.675
3053.80888	7759.875
3056.20519	7742.375
3058.60005	7715.875
3060.99345	7699.975
3063.3854	7675.875
3065.7759	7672.975
3068.16494	7662.775
3070.55254	7644.475
3072.93868	7603.275
3075.32338	7593.475
3077.70662	7585.175
3080.08842	7558.675
3082.46878	7551.275
3084.84769	7512.475
3087.22515	7531.775
3089.60118	7530.175
3091.97576	7528.675
3094.3489	7522.675
3096.72061	7528.375
3099.09087	7524.875
3101.4597	7499.375
3103.82709	7507.675
3106.19305	7489.875
3108.55757	7479.675
3110.92066	7488.975
3113.28232	7458.775
3115.64255	7459.475
3118.00134	7453.375
3120.35871	7433.175
3122.71466	7423.375
3125.06917	7405.275
3127.42226	7382.875
3129.77393	7378.675
3132.12417	7386.375
3134.47299	7373.475
3136.82039	7374.575
3139.16636	7383.775
3141.51092	7393.875
3143.85406	7384.575
3146.19579	7387.275
3148.53609	7382.775
3150.87499	7401.775
3153.21246	7368.775
3155.54853	7398.975
3157.88318	7401.575
3160.21642	7401.875
3162.54826	7382.075
