Data from AgNP_FTO_APTES_UA_10uM_CRN_200uM_R6G_10uM_NaF_0.1M_Addition_RamanShift__17__18-20-30-900.txt Node

Date: Thu Feb 10 18:20:30 GMT 2022
User: TCL
Spectrometer: QEP01345
Trigger mode: 4
Integration Time (sec): 7.000000E0
Scans to average: 10
Electric dark correction enabled: true
Nonlinearity correction enabled: false
Boxcar width: 0
XAxis mode: Raman Shifts
Number of Pixels in Spectrum: 1044
>>>>>Begin Spectral Data<<<<<
46.04893	-1.175
50.45542	-0.375
54.85868	-1.375
59.25871	-1.475
63.6555	58.825
68.04907	58.525
72.43941	63.925
76.82654	64.625
81.21044	69.025
85.59113	69.325
89.96862	71.725
94.34289	74.725
98.71396	79.125
103.08183	83.525
107.4465	85.325
111.80798	81.425
116.16626	87.525
120.52136	91.225
124.87327	94.725
129.222	100.125
133.56755	104.125
137.90993	109.925
142.24913	118.025
146.58517	130.225
150.91804	154.225
155.24774	180.225
159.57429	221.125
163.89768	280.925
168.21792	371.325
172.53501	502.025
176.84895	692.625
181.15975	978.925
185.46741	1367.725
189.77193	1905.225
194.07331	2543.125
198.37157	3280.925
202.6667	4060.825
206.9587	4832.625
211.24758	5568.525
215.53334	6315.625
219.81599	7109.125
224.09553	7957.225
228.37195	8913.825
232.64527	9941.725
236.91549	11057.725
241.18261	12187.925
245.44663	13251.425
249.70755	14263.325
253.96539	15144.525
258.22014	15901.725
262.4718	16517.525
266.72039	16988.325
270.96589	17228.525
275.20832	17278.325
279.44768	17241.225
283.68397	17079.425
287.91719	16932.825
292.14735	16836.525
296.37445	16789.025
300.59849	16798.125
304.81948	16821.825
309.03742	16668.525
313.25231	16486.025
317.46415	16158.325
321.67296	15809.625
325.87872	15540.325
330.08145	15431.625
334.28114	15475.325
338.47781	15600.225
342.67145	15730.925
346.86207	15947.725
351.04966	16211.125
355.23424	16458.525
359.4158	16713.625
363.59435	16929.125
367.76989	17081.125
371.94243	17243.925
376.11196	17363.025
380.27849	17471.525
384.44203	17580.925
388.60257	17739.025
392.76012	17864.425
396.91468	18036.525
401.06626	18230.125
405.21485	18338.225
409.36047	18316.925
413.50311	18145.125
417.64277	18012.525
421.77947	18010.325
425.9132	18077.425
430.04396	18181.525
434.17176	18294.725
438.2966	18395.925
442.41849	18636.425
446.53742	18997.725
450.6534	19372.225
454.76644	19681.225
458.87653	19832.225
462.98368	19802.425
467.08789	19698.525
471.18916	19597.325
475.2875	19497.925
479.38291	19503.025
483.4754	19422.025
487.56496	19212.425
491.6516	18987.025
495.73531	18725.425
499.81612	18613.225
503.89401	18671.025
507.96899	18706.725
512.04106	18703.125
516.11023	18684.725
520.1765	18592.725
524.23987	18459.325
528.30034	18313.025
532.35792	18233.325
536.41261	18122.025
540.46441	18066.425
544.51333	18111.225
548.55936	18197.825
552.60252	18498.425
556.64279	18784.025
560.6802	18977.825
564.71473	19111.525
568.7464	19308.825
572.7752	19630.825
576.80114	19798.125
580.82422	19956.025
584.84444	20097.025
588.86181	20305.525
592.87633	20461.425
596.888	20459.325
600.89682	20409.225
604.9028	20707.125
608.90594	21874.425
612.90624	23180.725
616.90371	22263.425
620.89834	19738.525
624.89015	18657.225
628.87913	18575.525
632.86528	18617.225
636.84862	18621.125
640.82913	18429.625
644.80683	18201.025
648.78172	17940.225
652.75379	17913.425
656.72306	18019.325
660.68952	18216.925
664.65319	18167.025
668.61405	17979.925
672.57211	17950.925
676.52738	18019.225
680.47986	18030.225
684.42955	18035.225
688.37646	17908.425
692.32058	17948.725
696.26192	18073.825
700.20048	18169.625
704.13626	18277.925
708.06928	18298.025
711.99952	18231.625
715.927	18172.425
719.85171	18191.625
723.77365	18183.525
727.69284	18087.025
731.60928	17989.725
735.52295	17897.525
739.43388	17910.925
743.34206	17935.725
747.24749	17990.725
751.15017	18054.825
755.05012	18207.125
758.94733	18576.025
762.8418	19148.925
766.73354	20101.225
770.62254	21021.025
774.50882	21298.125
778.39237	20724.425
782.27321	19603.125
786.15132	18736.725
790.02671	18162.325
793.89938	17960.025
797.76935	17826.425
801.6366	17813.425
805.50115	17795.225
809.36299	17693.725
813.22213	17649.525
817.07857	17611.525
820.93231	17607.025
824.78336	17522.525
828.63172	17502.625
832.47738	17469.125
836.32036	17478.725
840.16066	17531.425
843.99827	17569.025
847.8332	17535.325
851.66546	17530.325
855.49504	17513.025
859.32195	17533.425
863.1462	17515.025
866.96777	17490.725
870.78668	17476.225
874.60293	17433.725
878.41652	17450.625
882.22745	17478.025
886.03573	17498.625
889.84136	17514.525
893.64433	17469.825
897.44466	17434.925
901.24235	17357.925
905.0374	17294.425
908.8298	17262.725
912.61957	17296.925
916.40671	17368.225
920.19121	17482.925
923.97308	17603.325
927.75233	17605.225
931.52895	17579.025
935.30295	17432.125
939.07433	17250.725
942.84309	17028.825
946.60924	16965.025
950.37278	16889.725
954.13371	16847.225
957.89203	16821.025
961.64774	16748.525
965.40086	16727.825
969.15137	16688.825
972.89929	16635.725
976.64461	16620.825
980.38733	16595.725
984.12747	16649.225
987.86502	16738.825
991.59999	16869.725
995.33237	16972.225
999.06217	17266.225
1002.78939	17573.725
1006.51404	17729.425
1010.23611	17756.925
1013.95561	17845.525
1017.67255	17890.025
1021.38692	17799.525
1025.09872	17716.525
1028.80796	17748.225
1032.51465	17938.025
1036.21877	18189.125
1039.92035	18217.325
1043.61937	18119.125
1047.31584	17926.925
1051.00976	17700.525
1054.70114	17675.125
1058.38998	17696.525
1062.07627	17792.625
1065.76003	17884.525
1069.44126	17951.525
1073.11995	18004.825
1076.79611	18137.025
1080.46974	18191.925
1084.14085	18284.225
1087.80943	18386.925
1091.47549	18501.525
1095.13903	18516.325
1098.80005	18383.925
1102.45857	18169.525
1106.11456	17992.425
1109.76805	17947.625
1113.41903	18005.825
1117.06751	18095.425
1120.71348	18219.125
1124.35696	18356.825
1127.99793	18513.625
1131.63641	18657.525
1135.2724	18563.125
1138.90589	18431.325
1142.5369	18302.025
1146.16542	18320.325
1149.79145	18358.825
1153.415	18442.725
1157.03607	18633.125
1160.65467	18965.925
1164.27079	19533.525
1167.88443	20179.725
1171.49561	21045.225
1175.10432	22066.625
1178.71056	23423.525
1182.31434	24641.725
1185.91565	25419.325
1189.51451	25428.325
1193.11091	24929.225
1196.70485	24180.225
1200.29634	23410.325
1203.88538	22790.025
1207.47197	22335.825
1211.05612	21973.225
1214.63782	21619.625
1218.21708	21239.725
1221.79391	21064.625
1225.36829	20922.025
1228.94024	20719.425
1232.50976	20438.625
1236.07685	20221.925
1239.6415	20070.825
1243.20374	20159.425
1246.76355	20272.225
1250.32093	20453.225
1253.8759	20725.625
1257.42845	21107.825
1260.97859	21463.525
1264.52631	21832.325
1268.07163	22279.825
1271.61453	22705.525
1275.15503	23131.625
1278.69312	23651.625
1282.22882	24051.925
1285.76211	24480.525
1289.29301	25009.925
1292.82151	25712.825
1296.34761	26678.725
1299.87133	27885.025
1303.39266	29182.025
1306.9116	30526.525
1310.42815	31763.825
1313.94233	32581.025
1317.45412	32508.825
1320.96354	32040.025
1324.47058	31497.425
1327.97525	31041.125
1331.47754	30691.125
1334.97747	30538.325
1338.47502	30489.525
1341.97022	30520.825
1345.46305	30342.025
1348.95352	30128.325
1352.44163	29945.225
1355.92738	30109.125
1359.41078	30842.325
1362.89183	31481.225
1366.37053	30902.325
1369.84688	28835.325
1373.32088	26481.025
1376.79254	24848.225
1380.26186	24214.425
1383.72883	24146.025
1387.19347	24164.125
1390.65578	24130.525
1394.11575	24133.025
1397.57339	24321.925
1401.0287	24649.825
1404.48168	24868.825
1407.93234	24866.225
1411.38068	24446.625
1414.82669	23835.825
1418.27039	23105.225
1421.71177	22344.825
1425.15083	21674.825
1428.58758	21289.925
1432.02203	21300.825
1435.45416	21623.025
1438.88399	22014.125
1442.31151	22429.625
1445.73673	22727.225
1449.15965	22994.325
1452.58027	23243.825
1455.9986	23380.125
1459.41463	23586.425
1462.82837	23790.725
1466.23982	24089.925
1469.64898	24265.325
1473.05586	24383.425
1476.46045	24376.825
1479.86276	24194.825
1483.26279	23988.325
1486.66054	23834.125
1490.05602	23798.525
1493.44922	23864.525
1496.84016	24042.525
1500.22882	24476.825
1503.61521	25107.125
1506.99934	25931.225
1510.38121	26699.125
1513.76081	26956.425
1517.13816	26461.325
1520.51324	25683.125
1523.88607	24899.425
1527.25665	24497.625
1530.62498	24287.225
1533.99105	24221.525
1537.35488	24119.425
1540.71647	23903.725
1544.07581	23609.625
1547.4329	23270.925
1550.78776	22928.925
1554.14038	22695.925
1557.49077	22625.825
1560.83892	22517.125
1564.18484	22546.025
1567.52853	22582.425
1570.86999	22701.825
1574.20922	23008.225
1577.54624	23256.425
1580.88103	23302.825
1584.2136	23322.325
1587.54395	23696.125
1590.87208	24339.525
1594.19801	25320.925
1597.52172	26317.725
1600.84321	26692.625
1604.16251	25955.425
1607.47959	24539.925
1610.79447	23021.425
1614.10715	21591.625
1617.41763	20391.925
1620.7259	19488.925
1624.03199	18985.225
1627.33587	18906.525
1630.63757	19239.625
1633.93707	19977.825
1637.23439	21233.725
1640.52951	22987.625
1643.82246	24984.525
1647.11321	26577.825
1650.40179	26918.825
1653.68819	25647.625
1656.97241	23254.825
1660.25446	20821.725
1663.53433	18956.525
1666.81203	17708.325
1670.08756	16893.625
1673.36092	16383.525
1676.63211	16068.325
1679.90115	15777.425
1683.16801	15613.925
1686.43272	15450.125
1689.69527	15362.325
1692.95567	15283.425
1696.2139	15254.925
1699.46999	15226.825
1702.72392	15171.625
1705.97571	15121.025
1709.22535	15088.525
1712.47284	15039.725
1715.71819	15005.825
1718.96139	14997.125
1722.20246	14939.825
1725.44139	14914.825
1728.67818	14819.425
1731.91284	14787.425
1735.14537	14712.025
1738.37576	14624.525
1741.60403	14627.225
1744.83017	14598.925
1748.05418	14598.625
1751.27607	14565.925
1754.49584	14535.725
1757.71349	14577.025
1760.92903	14559.625
1764.14244	14484.825
1767.35375	14510.825
1770.56294	14462.825
1773.77002	14447.125
1776.97499	14395.125
1780.17785	14361.525
1783.37861	14348.925
1786.57727	14315.025
1789.77382	14297.025
1792.96828	14260.925
1796.16064	14262.325
1799.3509	14204.325
1802.53907	14167.725
1805.72514	14141.225
1808.90913	14104.725
1812.09102	14118.225
1815.27083	14030.425
1818.44856	14026.125
1821.6242	14010.825
1824.79776	14001.725
1827.96924	13948.725
1831.13864	13975.225
1834.30597	13946.425
1837.47122	13943.425
1840.6344	13951.125
1843.7955	13914.925
1846.95454	13882.525
1850.11151	13906.125
1853.26642	13904.125
1856.41926	13878.625
1859.57004	13886.725
1862.71876	13881.425
1865.86542	13859.125
1869.01003	13816.125
1872.15258	13834.525
1875.29308	13830.525
1878.43152	13806.925
1881.56792	13798.125
1884.70227	13747.225
1887.83457	13767.025
1890.96482	13729.025
1894.09304	13694.725
1897.21921	13702.825
1900.34335	13705.825
1903.46544	13659.825
1906.58551	13656.125
1909.70353	13636.125
1912.81953	13622.925
1915.93349	13623.625
1919.04543	13570.325
1922.15534	13545.125
1925.26322	13504.425
1928.36908	13492.825
1931.47292	13481.925
1934.57473	13468.525
1937.67453	13444.025
1940.77232	13403.025
1943.86808	13370.525
1946.96184	13322.525
1950.05358	13274.525
1953.14331	13235.025
1956.23103	13179.625
1959.31675	13131.325
1962.40046	13118.225
1965.48217	13089.525
1968.56188	13051.625
1971.63959	13008.125
1974.7153	12950.725
1977.78901	12937.625
1980.86073	12880.225
1983.93046	12848.925
1986.99819	12824.325
1990.06394	12811.225
1993.1277	12765.125
1996.18947	12718.425
1999.24925	12669.725
2002.30706	12641.825
2005.36288	12599.425
2008.41672	12562.425
2011.46859	12539.825
2014.51848	12528.425
2017.56639	12494.725
2020.61233	12443.125
2023.6563	12402.525
2026.6983	12406.525
2029.73833	12360.625
2032.7764	12323.025
2035.8125	12306.425
2038.84664	12257.725
2041.87881	12251.225
2044.90903	12223.725
2047.93729	12189.825
2050.96359	12187.125
2053.98794	12182.525
2057.01034	12162.825
2060.03078	12165.325
2063.04927	12153.125
2066.06582	12148.425
2069.08042	12145.225
2072.09307	12128.325
2075.10378	12123.325
2078.11255	12128.325
2081.11938	12102.125
2084.12426	12109.425
2087.12722	12122.125
2090.12824	12093.225
2093.12732	12073.725
2096.12447	12085.825
2099.11969	12088.925
2102.11299	12094.825
2105.10435	12057.025
2108.09379	12078.325
2111.08131	12092.025
2114.0669	12105.625
2117.05057	12122.625
2120.03233	12116.125
2123.01216	12140.425
2125.99008	12132.525
2128.96609	12119.525
2131.94018	12138.525
2134.91236	12129.125
2137.88263	12170.125
2140.851	12188.825
2143.81746	12184.325
2146.78201	12170.025
2149.74466	12181.825
2152.7054	12179.225
2155.66425	12150.225
2158.6212	12196.525
2161.57625	12174.125
2164.52941	12151.025
2167.48067	12165.925
2170.43004	12130.625
2173.37752	12144.925
2176.32311	12142.025
2179.26681	12166.025
2182.20863	12180.725
2185.14856	12165.625
2188.08661	12139.325
2191.02278	12161.425
2193.95707	12137.825
2196.88948	12131.425
2199.82001	12142.225
2202.74867	12117.425
2205.67545	12101.325
2208.60037	12097.425
2211.52341	12074.325
2214.44458	12065.025
2217.36388	12048.925
2220.28132	12014.025
2223.1969	11999.925
2226.11061	11985.525
2229.02246	11932.925
2231.93245	11931.025
2234.84058	11902.425
2237.74686	11896.725
2240.65128	11869.725
2243.55385	11826.725
2246.45456	11821.825
2249.35343	11825.825
2252.25044	11810.425
2255.14561	11792.725
2258.03893	11779.425
2260.93041	11786.925
2263.82004	11696.925
2266.70783	11679.725
2269.59378	11645.625
2272.4779	11630.125
2275.36017	11575.125
2278.24061	11561.125
2281.11922	11564.825
2283.996	11545.825
2286.87094	11531.625
2289.74405	11534.425
2292.61534	11532.025
2295.4848	11510.925
2298.35243	11526.425
2301.21824	11495.225
2304.08223	11519.825
2306.94439	11520.225
2309.80474	11507.425
2312.66327	11497.225
2315.51999	11471.425
2318.37489	11475.525
2321.22797	11426.425
2324.07925	11448.425
2326.92871	11411.325
2329.77637	11415.125
2332.62222	11387.625
2335.46626	11365.925
2338.3085	11394.225
2341.14893	11362.525
2343.98756	11344.025
2346.8244	11324.425
2349.65943	11355.125
2352.49267	11359.225
2355.32411	11334.025
2358.15376	11316.425
2360.98161	11308.325
2363.80768	11363.825
2366.63195	11301.825
2369.45444	11276.025
2372.27514	11255.025
2375.09405	11240.825
2377.91118	11254.325
2380.72652	11208.025
2383.54009	11180.225
2386.35187	11176.325
2389.16188	11121.825
2391.97011	11116.725
2394.77657	11078.625
2397.58125	11080.725
2400.38416	11049.925
2403.18529	11033.525
2405.98466	11023.825
2408.78226	10984.325
2411.57809	10961.025
2414.37216	10958.125
2417.16446	10948.825
2419.955	10921.925
2422.74378	10941.725
2425.5308	10932.925
2428.31606	10911.025
2431.09956	10923.725
2433.88131	10899.625
2436.6613	10890.025
2439.43954	10885.225
2442.21603	10878.725
2444.99077	10875.625
2447.76377	10880.425
2450.53501	10838.825
2453.30451	10875.225
2456.07226	10845.525
2458.83827	10846.725
2461.60254	10854.325
2464.36507	10830.925
2467.12586	10809.525
2469.88492	10788.925
2472.64224	10805.125
2475.39782	10785.425
2478.15167	10793.125
2480.90379	10807.525
2483.65417	10813.525
2486.40283	10807.825
2489.14976	10801.125
2491.89497	10811.025
2494.63845	10805.925
2497.3802	10793.525
2500.12024	10764.725
2502.85855	10785.325
2505.59514	10760.625
2508.33002	10740.225
2511.06318	10712.525
2513.79462	10719.425
2516.52435	10724.225
2519.25237	10699.525
2521.97867	10697.525
2524.70327	10680.725
2527.42616	10666.125
2530.14734	10661.225
2532.86681	10664.225
2535.58458	10673.525
2538.30065	10666.525
2541.01501	10639.225
2543.72768	10641.725
2546.43864	10625.525
2549.14791	10592.525
2551.85548	10591.225
2554.56136	10575.025
2557.26554	10551.825
2559.96803	10530.325
2562.66883	10517.125
2565.36794	10494.825
2568.06536	10469.225
2570.7611	10439.925
2573.45514	10446.625
2576.14751	10427.525
2578.83819	10444.725
2581.52719	10431.425
2584.21451	10420.725
2586.90015	10401.825
2589.58411	10371.725
2592.2664	10408.825
2594.94701	10375.625
2597.62594	10385.125
2600.30321	10345.725
2602.9788	10295.525
2605.65273	10283.525
2608.32498	10305.125
2610.99557	10275.825
2613.66449	10293.925
2616.33175	10271.725
2618.99734	10269.625
2621.66128	10252.925
2624.32355	10261.825
2626.98416	10258.325
2629.64311	10244.625
2632.30041	10224.425
2634.95605	10204.125
2637.61004	10199.725
2640.26238	10189.325
2642.91306	10192.425
2645.56209	10173.725
2648.20948	10175.225
2650.85521	10156.825
2653.4993	10161.225
2656.14175	10168.425
2658.78255	10159.925
2661.42171	10189.425
2664.05923	10168.925
2666.6951	10192.725
2669.32934	10212.125
2671.96194	10162.925
2674.59291	10183.425
2677.22224	10175.225
2679.84993	10189.825
2682.476	10168.525
2685.10043	10172.525
2687.72324	10143.925
2690.34441	10138.025
2692.96396	10144.925
2695.58188	10128.925
2698.19818	10111.225
2700.81285	10139.725
2703.4259	10143.125
2706.03733	10164.525
2708.64714	10122.625
2711.25533	10152.025
2713.86191	10124.925
2716.46687	10146.925
2719.07021	10142.325
2721.67194	10144.725
2724.27206	10144.525
2726.87057	10158.925
2729.46747	10152.825
2732.06276	10159.025
2734.65644	10154.925
2737.24852	10145.525
2739.83899	10111.525
2742.42786	10130.625
2745.01513	10092.325
2747.60079	10103.425
2750.18486	10078.925
2752.76733	10076.025
2755.3482	10066.925
2757.92747	10058.225
2760.50515	10044.825
2763.08123	10037.825
2765.65573	10017.125
2768.22863	10018.225
2770.79994	10014.825
2773.36967	10017.025
2775.9378	10000.725
2778.50435	10017.725
2781.06932	10007.025
2783.6327	9997.925
2786.1945	10010.125
2788.75471	9992.825
2791.31335	9958.025
2793.87041	9973.325
2796.42589	9944.825
2798.97979	9948.325
2801.53212	9925.325
2804.08288	9879.025
2806.63206	9854.825
2809.17967	9839.525
2811.72571	9804.025
2814.27018	9795.025
2816.81308	9786.325
2819.35442	9748.025
2821.89419	9713.325
2824.43239	9733.025
2826.96904	9721.125
2829.50412	9715.925
2832.03763	9708.825
2834.56959	9704.025
2837.1	9688.325
2839.62884	9679.425
2842.15613	9689.525
2844.68186	9705.725
2847.20604	9728.625
2849.72867	9741.125
2852.24974	9738.325
2854.76927	9732.325
2857.28724	9687.125
2859.80367	9690.325
2862.31855	9662.425
2864.83189	9656.725
2867.34368	9637.625
2869.85393	9634.125
2872.36264	9636.225
2874.8698	9626.925
2877.37543	9636.225
2879.87952	9610.725
2882.38207	9604.425
2884.88308	9592.825
2887.38256	9608.625
2889.88051	9608.825
2892.37692	9604.125
2894.8718	9618.425
2897.36515	9623.325
2899.85698	9628.325
2902.34727	9658.825
2904.83604	9647.725
2907.32328	9651.125
2909.809	9662.325
2912.29319	9634.425
2914.77587	9659.625
2917.25702	9650.325
2919.73665	9668.325
2922.21476	9680.225
2924.69136	9657.225
2927.16644	9646.825
2929.64	9634.325
2932.11205	9644.225
2934.58258	9598.625
2937.05161	9626.825
2939.51912	9619.325
2941.98513	9599.125
2944.44962	9578.325
2946.91261	9543.325
2949.37409	9553.025
2951.83407	9543.825
2954.29254	9545.725
2956.74951	9533.925
2959.20498	9529.125
2961.65895	9529.525
2964.11142	9498.125
2966.56239	9494.125
2969.01186	9504.525
2971.45984	9472.025
2973.90632	9463.225
2976.35131	9460.725
2978.7948	9437.825
2981.23681	9399.125
2983.67732	9385.725
2986.11635	9381.425
2988.55388	9333.825
2990.98993	9326.825
2993.4245	9315.925
2995.85758	9272.125
2998.28917	9261.325
3000.71928	9280.525
3003.14791	9235.525
3005.57506	9261.725
3008.00073	9216.325
3010.42493	9235.225
3012.84764	9195.925
3015.26888	9181.225
3017.68865	9151.325
3020.10694	9170.325
3022.52376	9142.925
3024.9391	9128.025
3027.35298	9097.625
3029.76539	9107.125
3032.17632	9118.325
3034.5858	9094.525
3036.9938	9123.225
3039.40034	9097.225
3041.80542	9111.325
3044.20903	9075.625
3046.61118	9068.925
3049.01187	9043.525
3051.4111	9050.725
3053.80888	9033.125
3056.20519	9008.125
3058.60005	8978.225
3060.99345	8988.125
3063.3854	8985.725
3065.7759	8961.125
3068.16494	8943.125
3070.55254	8926.925
3072.93868	8925.625
3075.32338	8884.925
3077.70662	8872.925
3080.08842	8864.425
3082.46878	8840.025
3084.84769	8842.025
3087.22515	8831.725
3089.60118	8834.925
3091.97576	8834.025
3094.3489	8830.225
3096.72061	8832.225
3099.09087	8841.925
3101.4597	8851.525
3103.82709	8852.125
3106.19305	8832.625
3108.55757	8826.325
3110.92066	8808.425
3113.28232	8808.825
3115.64255	8789.425
3118.00134	8772.025
3120.35871	8765.125
3122.71466	8737.525
3125.06917	8719.025
3127.42226	8701.325
3129.77393	8712.425
3132.12417	8687.525
3134.47299	8712.525
3136.82039	8699.725
3139.16636	8711.525
3141.51092	8705.325
3143.85406	8711.825
3146.19579	8678.725
