Data from AgNP_FTO_APTES_UA_10uM_CRN_50uM_R6G_10uM_NaF_0.1M_Addition_RamanShift__11__16-55-20-794.txt Node

Date: Thu Feb 10 16:55:20 GMT 2022
User: TCL
Spectrometer: QEP01345
Trigger mode: 4
Integration Time (sec): 7.000000E0
Scans to average: 10
Electric dark correction enabled: true
Nonlinearity correction enabled: false
Boxcar width: 0
XAxis mode: Raman Shifts
Number of Pixels in Spectrum: 1044
>>>>>Begin Spectral Data<<<<<
46.04893	0.425
50.45542	-0.075
54.85868	-1.875
59.25871	-1.175
63.6555	60.425
68.04907	62.325
72.43941	65.925
76.82654	65.225
81.21044	67.325
85.59113	70.525
89.96862	74.525
94.34289	77.525
98.71396	78.525
103.08183	82.525
107.4465	85.925
111.80798	83.125
116.16626	88.225
120.52136	90.925
124.87327	97.825
129.222	101.825
133.56755	106.925
137.90993	107.725
142.24913	118.525
146.58517	134.725
150.91804	157.225
155.24774	182.725
159.57429	227.425
163.89768	288.725
168.21792	386.925
172.53501	519.725
176.84895	718.425
181.15975	1014.825
185.46741	1421.825
189.77193	1973.425
194.07331	2634.625
198.37157	3386.725
202.6667	4190.125
206.9587	4974.925
211.24758	5754.525
215.53334	6507.425
219.81599	7336.825
224.09553	8199.125
228.37195	9151.425
232.64527	10221.325
236.91549	11327.925
241.18261	12506.925
245.44663	13652.725
249.70755	14613.125
253.96539	15515.125
258.22014	16276.725
262.4718	16894.125
266.72039	17324.125
270.96589	17576.225
275.20832	17642.125
279.44768	17648.025
283.68397	17569.025
287.91719	17454.325
292.14735	17424.625
296.37445	17401.225
300.59849	17417.625
304.81948	17443.325
309.03742	17378.625
313.25231	17200.925
317.46415	16920.325
321.67296	16523.525
325.87872	16244.425
330.08145	16107.525
334.28114	16125.625
338.47781	16243.225
342.67145	16354.425
346.86207	16561.525
351.04966	16701.625
355.23424	16900.425
359.4158	17043.625
363.59435	17204.125
367.76989	17326.125
371.94243	17385.825
376.11196	17482.625
380.27849	17471.825
384.44203	17579.025
388.60257	17699.625
392.76012	17875.325
396.91468	18148.025
401.06626	18390.925
405.21485	18612.725
409.36047	18554.525
413.50311	18424.525
417.64277	18326.625
421.77947	18367.425
425.9132	18439.525
430.04396	18586.525
434.17176	18666.125
438.2966	18710.025
442.41849	18900.925
446.53742	19223.125
450.6534	19539.725
454.76644	19796.025
458.87653	19949.725
462.98368	19982.525
467.08789	19950.825
471.18916	19890.425
475.2875	19772.125
479.38291	19743.425
483.4754	19662.425
487.56496	19494.025
491.6516	19273.925
495.73531	19027.125
499.81612	18902.425
503.89401	18893.325
507.96899	18944.525
512.04106	18989.325
516.11023	18951.225
520.1765	18803.225
524.23987	18644.225
528.30034	18477.425
532.35792	18320.825
536.41261	18246.025
540.46441	18138.925
544.51333	18230.125
548.55936	18426.325
552.60252	18767.925
556.64279	19091.225
560.6802	19350.925
564.71473	19510.825
568.7464	19786.225
572.7752	20345.925
576.80114	20995.525
580.82422	21539.325
584.84444	21841.525
588.86181	22014.825
592.87633	22089.625
596.888	21968.725
600.89682	21552.925
604.9028	21606.125
608.90594	22263.625
612.90624	22871.825
616.90371	21632.825
620.89834	19525.725
624.89015	18684.525
628.87913	18638.025
632.86528	18834.125
636.84862	18898.525
640.82913	18685.725
644.80683	18379.325
648.78172	18138.025
652.75379	18060.925
656.72306	18145.825
660.68952	18303.325
664.65319	18301.725
668.61405	18160.725
672.57211	18151.625
676.52738	18193.925
680.47986	18208.025
684.42955	18186.625
688.37646	18130.125
692.32058	18204.125
696.26192	18325.825
700.20048	18519.125
704.13626	18642.825
708.06928	18734.225
711.99952	18700.525
715.927	18607.325
719.85171	18566.025
723.77365	18435.325
727.69284	18300.325
731.60928	18092.125
735.52295	17966.525
739.43388	17940.525
743.34206	17987.125
747.24749	18066.025
751.15017	18194.825
755.05012	18489.225
758.94733	18857.725
762.8418	19572.225
766.73354	20555.325
770.62254	21317.625
774.50882	21365.425
778.39237	20570.625
782.27321	19612.925
786.15132	18819.825
790.02671	18304.625
793.89938	18047.025
797.76935	17865.325
801.6366	17824.725
805.50115	17756.425
809.36299	17701.725
813.22213	17619.525
817.07857	17635.325
820.93231	17623.625
824.78336	17578.025
828.63172	17544.525
832.47738	17488.825
836.32036	17429.025
840.16066	17385.425
843.99827	17409.525
847.8332	17433.725
851.66546	17458.725
855.49504	17470.325
859.32195	17503.025
863.1462	17498.725
866.96777	17446.825
870.78668	17427.425
874.60293	17454.825
878.41652	17422.625
882.22745	17456.925
886.03573	17472.025
889.84136	17485.225
893.64433	17448.225
897.44466	17440.525
901.24235	17406.925
905.0374	17389.025
908.8298	17407.425
912.61957	17476.325
916.40671	17631.925
920.19121	17825.525
923.97308	17937.525
927.75233	17769.325
931.52895	17615.625
935.30295	17369.525
939.07433	17138.725
942.84309	17001.425
946.60924	16921.525
950.37278	16853.825
954.13371	16842.325
957.89203	16833.625
961.64774	16825.225
965.40086	16822.825
969.15137	16760.725
972.89929	16685.325
976.64461	16634.325
980.38733	16610.725
984.12747	16654.125
987.86502	16630.525
991.59999	16707.025
995.33237	16749.925
999.06217	16896.525
1002.78939	17053.925
1006.51404	17226.525
1010.23611	17448.725
1013.95561	17596.325
1017.67255	17614.525
1021.38692	17524.025
1025.09872	17403.925
1028.80796	17275.625
1032.51465	17196.925
1036.21877	17207.525
1039.92035	17287.925
1043.61937	17310.925
1047.31584	17407.025
1051.00976	17548.325
1054.70114	17657.625
1058.38998	17733.925
1062.07627	17974.225
1065.76003	18181.625
1069.44126	18364.125
1073.11995	18596.925
1076.79611	18755.225
1080.46974	18779.925
1084.14085	18792.425
1087.80943	18903.925
1091.47549	19009.625
1095.13903	19111.425
1098.80005	19000.125
1102.45857	18649.925
1106.11456	18321.125
1109.76805	18107.025
1113.41903	17993.525
1117.06751	18071.525
1120.71348	18174.725
1124.35696	18298.225
1127.99793	18454.025
1131.63641	18589.725
1135.2724	18594.825
1138.90589	18564.825
1142.5369	18653.425
1146.16542	18753.325
1149.79145	18868.725
1153.415	19045.425
1157.03607	19233.225
1160.65467	19615.725
1164.27079	20221.425
1167.88443	20908.725
1171.49561	21729.425
1175.10432	22581.825
1178.71056	23674.025
1182.31434	24707.025
1185.91565	25405.025
1189.51451	25745.825
1193.11091	25669.625
1196.70485	25182.925
1200.29634	24446.025
1203.88538	23862.325
1207.47197	23486.025
1211.05612	23250.125
1214.63782	22900.325
1218.21708	22381.825
1221.79391	21782.225
1225.36829	21221.425
1228.94024	20978.425
1232.50976	20812.725
1236.07685	20746.925
1239.6415	20738.925
1243.20374	20840.125
1246.76355	20986.825
1250.32093	21190.325
1253.8759	21494.125
1257.42845	21981.025
1260.97859	22415.925
1264.52631	22883.125
1268.07163	23309.725
1271.61453	23759.425
1275.15503	24187.625
1278.69312	24651.125
1282.22882	25132.425
1285.76211	25706.925
1289.29301	26384.525
1292.82151	27221.025
1296.34761	28190.125
1299.87133	29260.225
1303.39266	30280.125
1306.9116	31101.225
1310.42815	31671.825
1313.94233	31960.125
1317.45412	31907.025
1320.96354	31871.925
1324.47058	32003.425
1327.97525	32232.725
1331.47754	32435.425
1334.97747	32670.925
1338.47502	32965.225
1341.97022	33253.125
1345.46305	33315.325
1348.95352	33183.725
1352.44163	32711.325
1355.92738	32260.925
1359.41078	32096.225
1362.89183	31850.625
1366.37053	31107.225
1369.84688	29541.625
1373.32088	27606.725
1376.79254	26230.625
1380.26186	25665.825
1383.72883	25641.225
1387.19347	25693.525
1390.65578	25574.825
1394.11575	25450.625
1397.57339	25414.025
1401.0287	25481.725
1404.48168	25469.525
1407.93234	25231.225
1411.38068	24760.025
1414.82669	24054.925
1418.27039	23188.525
1421.71177	22494.725
1425.15083	21886.125
1428.58758	21568.725
1432.02203	21619.725
1435.45416	22011.625
1438.88399	22423.225
1442.31151	22794.625
1445.73673	23132.325
1449.15965	23436.125
1452.58027	23669.325
1455.9986	23883.525
1459.41463	24138.225
1462.82837	24446.025
1466.23982	24780.325
1469.64898	25063.725
1473.05586	25187.325
1476.46045	25205.525
1479.86276	25135.425
1483.26279	24986.525
1486.66054	24929.025
1490.05602	25000.525
1493.44922	25245.925
1496.84016	25652.825
1500.22882	26211.925
1503.61521	26997.625
1506.99934	27762.425
1510.38121	28318.925
1513.76081	28393.325
1517.13816	28164.225
1520.51324	27806.225
1523.88607	27576.625
1527.25665	27441.225
1530.62498	27411.725
1533.99105	27175.825
1537.35488	26779.825
1540.71647	26180.225
1544.07581	25512.925
1547.4329	24858.325
1550.78776	24302.425
1554.14038	23951.325
1557.49077	23738.325
1560.83892	23701.825
1564.18484	23707.625
1567.52853	23743.425
1570.86999	23859.825
1574.20922	24191.625
1577.54624	24469.625
1580.88103	24591.725
1584.2136	24634.225
1587.54395	24879.225
1590.87208	25423.125
1594.19801	26217.925
1597.52172	26929.725
1600.84321	26942.425
1604.16251	26102.925
1607.47959	24851.425
1610.79447	23548.125
1614.10715	22244.225
1617.41763	21074.425
1620.7259	20164.325
1624.03199	19638.125
1627.33587	19465.625
1630.63757	19734.025
1633.93707	20523.725
1637.23439	21906.625
1640.52951	23881.525
1643.82246	26258.525
1647.11321	28269.225
1650.40179	28885.525
1653.68819	27738.025
1656.97241	25297.225
1660.25446	22565.225
1663.53433	20343.525
1666.81203	18711.025
1670.08756	17609.725
1673.36092	16884.925
1676.63211	16446.425
1679.90115	16121.125
1683.16801	15877.225
1686.43272	15704.125
1689.69527	15582.225
1692.95567	15470.325
1696.2139	15415.325
1699.46999	15354.325
1702.72392	15313.225
1705.97571	15224.125
1709.22535	15150.225
1712.47284	15146.625
1715.71819	15095.825
1718.96139	15077.925
1722.20246	15047.925
1725.44139	14943.525
1728.67818	14898.425
1731.91284	14810.925
1735.14537	14703.125
1738.37576	14682.725
1741.60403	14607.225
1744.83017	14559.625
1748.05418	14542.325
1751.27607	14529.725
1754.49584	14518.725
1757.71349	14542.225
1760.92903	14509.325
1764.14244	14500.725
1767.35375	14492.825
1770.56294	14456.725
1773.77002	14416.125
1776.97499	14393.025
1780.17785	14325.225
1783.37861	14312.025
1786.57727	14269.125
1789.77382	14226.525
1792.96828	14211.425
1796.16064	14191.125
1799.3509	14137.725
1802.53907	14104.125
1805.72514	14065.725
1808.90913	14021.325
1812.09102	14028.125
1815.27083	13978.925
1818.44856	13945.825
1821.6242	13926.825
1824.79776	13909.325
1827.96924	13914.525
1831.13864	13877.225
1834.30597	13901.025
1837.47122	13891.625
1840.6344	13877.125
1843.7955	13871.725
1846.95454	13851.725
1850.11151	13852.425
1853.26642	13842.525
1856.41926	13813.525
1859.57004	13816.525
1862.71876	13812.625
1865.86542	13764.825
1869.01003	13730.325
1872.15258	13706.825
1875.29308	13724.725
1878.43152	13694.525
1881.56792	13671.125
1884.70227	13637.225
1887.83457	13583.925
1890.96482	13566.425
1894.09304	13519.025
1897.21921	13540.925
1900.34335	13504.525
1903.46544	13487.125
1906.58551	13452.725
1909.70353	13433.225
1912.81953	13424.525
1915.93349	13406.025
1919.04543	13360.925
1922.15534	13345.925
1925.26322	13334.225
1928.36908	13327.325
1931.47292	13269.725
1934.57473	13242.025
1937.67453	13236.825
1940.77232	13191.725
1943.86808	13117.825
1946.96184	13080.125
1950.05358	13054.425
1953.14331	13022.025
1956.23103	12984.825
1959.31675	12956.425
1962.40046	12888.325
1965.48217	12861.925
1968.56188	12810.725
1971.63959	12750.625
1974.7153	12732.325
1977.78901	12696.325
1980.86073	12657.025
1983.93046	12630.825
1986.99819	12562.025
1990.06394	12539.525
1993.1277	12504.925
1996.18947	12477.725
1999.24925	12400.325
2002.30706	12382.225
2005.36288	12348.825
2008.41672	12329.625
2011.46859	12264.325
2014.51848	12275.525
2017.56639	12222.625
2020.61233	12188.725
2023.6563	12154.625
2026.6983	12093.525
2029.73833	12065.125
2032.7764	12006.125
2035.8125	12011.125
2038.84664	11976.825
2041.87881	11939.025
2044.90903	11926.225
2047.93729	11884.925
2050.96359	11879.625
2053.98794	11857.325
2057.01034	11862.625
2060.03078	11826.025
2063.04927	11821.025
2066.06582	11830.225
2069.08042	11829.725
2072.09307	11809.525
2075.10378	11793.425
2078.11255	11786.925
2081.11938	11800.525
2084.12426	11766.125
2087.12722	11750.325
2090.12824	11735.925
2093.12732	11720.825
2096.12447	11742.925
2099.11969	11710.825
2102.11299	11734.125
2105.10435	11728.625
2108.09379	11746.425
2111.08131	11756.925
2114.0669	11720.425
2117.05057	11753.725
2120.03233	11746.225
2123.01216	11771.825
2125.99008	11785.025
2128.96609	11768.525
2131.94018	11776.025
2134.91236	11805.825
2137.88263	11812.625
2140.851	11781.825
2143.81746	11779.825
2146.78201	11779.925
2149.74466	11788.125
2152.7054	11780.325
2155.66425	11798.125
2158.6212	11802.425
2161.57625	11772.425
2164.52941	11758.225
2167.48067	11753.525
2170.43004	11732.725
2173.37752	11739.025
2176.32311	11723.125
2179.26681	11701.825
2182.20863	11708.125
2185.14856	11696.025
2188.08661	11693.725
2191.02278	11682.125
2193.95707	11692.925
2196.88948	11692.225
2199.82001	11667.525
2202.74867	11657.525
2205.67545	11631.225
2208.60037	11604.925
2211.52341	11607.225
2214.44458	11583.025
2217.36388	11552.425
2220.28132	11529.425
2223.1969	11497.225
2226.11061	11472.425
2229.02246	11440.225
2231.93245	11439.325
2234.84058	11412.125
2237.74686	11395.625
2240.65128	11406.025
2243.55385	11385.025
2246.45456	11366.425
2249.35343	11328.525
2252.25044	11332.725
2255.14561	11294.325
2258.03893	11274.525
2260.93041	11205.125
2263.82004	11182.325
2266.70783	11192.625
2269.59378	11113.325
2272.4779	11098.825
2275.36017	11062.925
2278.24061	11091.325
2281.11922	11063.525
2283.996	11034.125
2286.87094	11040.225
2289.74405	10977.725
2292.61534	10984.825
2295.4848	10949.025
2298.35243	10946.225
2301.21824	10938.225
2304.08223	10921.125
2306.94439	10911.725
2309.80474	10917.125
2312.66327	10908.025
2315.51999	10896.325
2318.37489	10863.625
2321.22797	10853.925
2324.07925	10831.325
2326.92871	10805.025
2329.77637	10791.825
2332.62222	10798.625
2335.46626	10747.725
2338.3085	10734.325
2341.14893	10721.425
2343.98756	10734.125
2346.8244	10696.625
2349.65943	10696.425
2352.49267	10711.525
2355.32411	10707.325
2358.15376	10695.225
2360.98161	10698.325
2363.80768	10701.525
2366.63195	10672.925
2369.45444	10674.125
2372.27514	10652.125
2375.09405	10627.325
2377.91118	10621.025
2380.72652	10571.225
2383.54009	10569.525
2386.35187	10523.625
2389.16188	10496.325
2391.97011	10496.225
2394.77657	10425.025
2397.58125	10426.425
2400.38416	10421.025
2403.18529	10422.525
2405.98466	10395.125
2408.78226	10386.525
2411.57809	10364.025
2414.37216	10362.425
2417.16446	10365.325
2419.955	10354.825
2422.74378	10344.125
2425.5308	10309.325
2428.31606	10307.125
2431.09956	10311.125
2433.88131	10292.525
2436.6613	10269.525
2439.43954	10256.425
2442.21603	10257.125
2444.99077	10241.825
2447.76377	10234.125
2450.53501	10229.425
2453.30451	10228.625
2456.07226	10188.425
2458.83827	10199.225
2461.60254	10185.925
2464.36507	10172.225
2467.12586	10166.425
2469.88492	10167.525
2472.64224	10154.825
2475.39782	10140.525
2478.15167	10166.825
2480.90379	10140.425
2483.65417	10153.825
2486.40283	10116.325
2489.14976	10108.625
2491.89497	10109.025
2494.63845	10131.625
2497.3802	10098.825
2500.12024	10114.425
2502.85855	10101.425
2505.59514	10096.425
2508.33002	10071.625
2511.06318	10076.125
2513.79462	10059.125
2516.52435	10037.925
2519.25237	10011.725
2521.97867	10000.825
2524.70327	10018.025
2527.42616	10008.025
2530.14734	9987.125
2532.86681	9968.225
2535.58458	9957.125
2538.30065	9976.525
2541.01501	9954.025
2543.72768	9940.725
2546.43864	9919.625
2549.14791	9907.925
2551.85548	9923.525
2554.56136	9883.925
2557.26554	9871.725
2559.96803	9836.525
2562.66883	9824.625
2565.36794	9818.125
2568.06536	9784.225
2570.7611	9758.325
2573.45514	9750.825
2576.14751	9732.625
2578.83819	9716.025
2581.52719	9707.625
2584.21451	9701.925
2586.90015	9688.225
2589.58411	9665.125
2592.2664	9649.025
2594.94701	9629.625
2597.62594	9628.925
2600.30321	9599.525
2602.9788	9597.225
2605.65273	9561.325
2608.32498	9566.525
2610.99557	9557.825
2613.66449	9560.025
2616.33175	9540.625
2618.99734	9547.225
2621.66128	9537.325
2624.32355	9542.925
2626.98416	9510.625
2629.64311	9504.625
2632.30041	9490.525
2634.95605	9457.025
2637.61004	9452.925
2640.26238	9424.925
2642.91306	9419.125
2645.56209	9430.325
2648.20948	9440.625
2650.85521	9432.925
2653.4993	9444.825
2656.14175	9437.425
2658.78255	9418.525
2661.42171	9418.825
2664.05923	9412.525
2666.6951	9448.425
2669.32934	9437.125
2671.96194	9432.125
2674.59291	9448.825
2677.22224	9413.225
2679.84993	9428.725
2682.476	9417.925
2685.10043	9434.425
2687.72324	9388.825
2690.34441	9404.425
2692.96396	9430.325
2695.58188	9417.425
2698.19818	9381.125
2700.81285	9420.825
2703.4259	9414.525
2706.03733	9396.125
2708.64714	9393.125
2711.25533	9415.025
2713.86191	9416.325
2716.46687	9382.225
2719.07021	9403.625
2721.67194	9392.825
2724.27206	9421.625
2726.87057	9416.525
2729.46747	9438.125
2732.06276	9421.125
2734.65644	9413.625
2737.24852	9405.625
2739.83899	9372.225
2742.42786	9364.025
2745.01513	9328.425
2747.60079	9353.725
2750.18486	9334.725
2752.76733	9322.125
2755.3482	9296.925
2757.92747	9311.025
2760.50515	9289.025
2763.08123	9294.925
2765.65573	9259.425
2768.22863	9263.525
2770.79994	9261.525
2773.36967	9250.725
2775.9378	9237.325
2778.50435	9242.725
2781.06932	9233.325
2783.6327	9233.925
2786.1945	9214.325
2788.75471	9219.925
2791.31335	9195.125
2793.87041	9175.025
2796.42589	9148.225
2798.97979	9144.425
2801.53212	9150.625
2804.08288	9136.125
2806.63206	9075.725
2809.17967	9053.425
2811.72571	9031.825
2814.27018	9035.125
2816.81308	9009.725
2819.35442	8972.325
2821.89419	8973.125
2824.43239	8959.825
2826.96904	8949.925
2829.50412	8941.925
2832.03763	8922.625
2834.56959	8927.025
2837.1	8916.225
2839.62884	8887.625
2842.15613	8906.025
2844.68186	8886.425
2847.20604	8884.925
2849.72867	8930.325
2852.24974	8907.325
2854.76927	8880.425
2857.28724	8873.725
2859.80367	8869.525
2862.31855	8855.725
2864.83189	8828.725
2867.34368	8809.925
2869.85393	8808.325
2872.36264	8797.725
2874.8698	8753.525
2877.37543	8787.125
2879.87952	8758.925
2882.38207	8754.225
2884.88308	8754.425
2887.38256	8759.025
2889.88051	8749.125
2892.37692	8741.325
2894.8718	8741.425
2897.36515	8753.225
2899.85698	8740.425
2902.34727	8755.825
2904.83604	8760.525
2907.32328	8769.025
2909.809	8760.725
2912.29319	8772.025
2914.77587	8750.325
2917.25702	8738.125
2919.73665	8745.925
2922.21476	8753.225
2924.69136	8737.525
2927.16644	8747.525
2929.64	8709.125
2932.11205	8715.525
2934.58258	8688.925
2937.05161	8700.625
2939.51912	8705.625
2941.98513	8694.425
2944.44962	8654.725
2946.91261	8626.125
2949.37409	8642.725
2951.83407	8624.325
2954.29254	8621.925
2956.74951	8590.625
2959.20498	8604.225
2961.65895	8592.325
2964.11142	8618.625
2966.56239	8579.825
2969.01186	8581.225
2971.45984	8571.625
2973.90632	8586.525
2976.35131	8564.025
2978.7948	8548.625
2981.23681	8514.025
2983.67732	8497.925
2986.11635	8482.725
2988.55388	8461.325
2990.98993	8459.725
2993.4245	8405.725
2995.85758	8400.625
2998.28917	8371.725
3000.71928	8379.225
3003.14791	8345.425
3005.57506	8332.125
3008.00073	8312.925
3010.42493	8282.225
3012.84764	8282.425
3015.26888	8265.325
3017.68865	8230.525
3020.10694	8238.525
3022.52376	8236.925
3024.9391	8191.025
3027.35298	8194.125
3029.76539	8186.425
3032.17632	8182.025
3034.5858	8167.625
3036.9938	8164.625
3039.40034	8146.125
3041.80542	8146.025
3044.20903	8134.125
3046.61118	8142.625
3049.01187	8104.625
3051.4111	8101.025
3053.80888	8066.325
3056.20519	8065.125
3058.60005	8032.125
3060.99345	8023.725
3063.3854	8018.525
3065.7759	7982.825
3068.16494	7990.925
3070.55254	7963.925
3072.93868	7958.225
3075.32338	7921.825
3077.70662	7894.425
3080.08842	7893.325
3082.46878	7854.825
3084.84769	7858.325
3087.22515	7857.625
3089.60118	7848.925
3091.97576	7837.025
3094.3489	7821.425
3096.72061	7826.525
3099.09087	7824.925
3101.4597	7827.125
3103.82709	7835.225
3106.19305	7826.125
3108.55757	7813.125
3110.92066	7795.625
3113.28232	7795.125
3115.64255	7757.125
3118.00134	7744.425
3120.35871	7747.825
3122.71466	7723.825
3125.06917	7708.725
3127.42226	7696.625
3129.77393	7694.525
3132.12417	7670.325
3134.47299	7671.925
3136.82039	7678.825
3139.16636	7673.025
3141.51092	7660.025
3143.85406	7668.025
3146.19579	7647.025
3148.53609	7673.625
3150.87499	7644.625
3153.21246	7644.725
3155.54853	7682.525
