Data from AgNP_FTO_APTES_UA_10uM_CRN_500uM_R6G_10uM_NaF_0.1M_Addition_RamanShift__0__18-40-20-925.txt Node

Date: Thu Feb 10 18:40:20 GMT 2022
User: TCL
Spectrometer: QEP01345
Trigger mode: 4
Integration Time (sec): 7.000000E0
Scans to average: 10
Electric dark correction enabled: true
Nonlinearity correction enabled: false
Boxcar width: 0
XAxis mode: Raman Shifts
Number of Pixels in Spectrum: 1044
>>>>>Begin Spectral Data<<<<<
46.04893	0.7875
50.45542	-1.0125
54.85868	-1.3125
59.25871	-0.8125
63.6555	29.4875
68.04907	27.1875
72.43941	32.1875
76.82654	30.1875
81.21044	30.4875
85.59113	31.9875
89.96862	34.6875
94.34289	36.9875
98.71396	36.8875
103.08183	36.1875
107.4465	40.1875
111.80798	39.8875
116.16626	44.7875
120.52136	43.2875
124.87327	44.2875
129.222	44.4875
133.56755	50.9875
137.90993	51.6875
142.24913	53.9875
146.58517	62.8875
150.91804	74.7875
155.24774	86.3875
159.57429	109.3875
163.89768	134.1875
168.21792	182.6875
172.53501	245.4875
176.84895	342.9875
181.15975	487.2875
185.46741	677.7875
189.77193	940.1875
194.07331	1258.2875
198.37157	1624.0875
202.6667	2006.1875
206.9587	2398.9875
211.24758	2774.3875
215.53334	3153.5875
219.81599	3572.2875
224.09553	3998.9875
228.37195	4474.0875
232.64527	5005.6875
236.91549	5565.7875
241.18261	6126.8875
245.44663	6657.3875
249.70755	7160.3875
253.96539	7564.3875
258.22014	7923.5875
262.4718	8222.0875
266.72039	8436.9875
270.96589	8581.2875
275.20832	8606.6875
279.44768	8535.1875
283.68397	8415.9875
287.91719	8329.5875
292.14735	8273.4875
296.37445	8275.1875
300.59849	8311.5875
304.81948	8391.7875
309.03742	8415.1875
313.25231	8360.3875
317.46415	8208.8875
321.67296	8017.4875
325.87872	7857.6875
330.08145	7783.6875
334.28114	7798.2875
338.47781	7854.4875
342.67145	7971.2875
346.86207	8104.1875
351.04966	8281.9875
355.23424	8471.1875
359.4158	8619.0875
363.59435	8750.0875
367.76989	8847.3875
371.94243	8874.0875
376.11196	8952.1875
380.27849	8997.8875
384.44203	9031.2875
388.60257	9075.1875
392.76012	9117.4875
396.91468	9225.3875
401.06626	9385.0875
405.21485	9516.6875
409.36047	9518.6875
413.50311	9475.4875
417.64277	9473.9875
421.77947	9596.7875
425.9132	9838.3875
430.04396	10021.1875
434.17176	10065.7875
438.2966	9954.7875
442.41849	9894.4875
446.53742	9942.4875
450.6534	10048.8875
454.76644	10158.3875
458.87653	10152.6875
462.98368	10039.2875
467.08789	9962.9875
471.18916	9893.2875
475.2875	9820.7875
479.38291	9806.7875
483.4754	9821.8875
487.56496	9820.1875
491.6516	9771.0875
495.73531	9667.5875
499.81612	9564.7875
503.89401	9506.4875
507.96899	9499.5875
512.04106	9485.2875
516.11023	9492.6875
520.1765	9471.0875
524.23987	9430.1875
528.30034	9384.6875
532.35792	9347.6875
536.41261	9281.6875
540.46441	9196.7875
544.51333	9145.4875
548.55936	9180.5875
552.60252	9333.2875
556.64279	9484.4875
560.6802	9571.4875
564.71473	9629.7875
568.7464	9775.7875
572.7752	9944.6875
576.80114	9963.8875
580.82422	9971.5875
584.84444	10048.0875
588.86181	10217.4875
592.87633	10437.5875
596.888	10517.9875
600.89682	10397.2875
604.9028	10576.0875
608.90594	11396.9875
612.90624	12478.9875
616.90371	12076.1875
620.89834	10312.0875
624.89015	9489.9875
628.87913	9329.6875
632.86528	9365.1875
636.84862	9403.8875
640.82913	9353.3875
644.80683	9201.2875
648.78172	9089.8875
652.75379	9082.6875
656.72306	9200.0875
660.68952	9319.2875
664.65319	9302.3875
668.61405	9125.3875
672.57211	9098.2875
676.52738	9119.2875
680.47986	9140.2875
684.42955	9170.7875
688.37646	9182.5875
692.32058	9303.6875
696.26192	9509.0875
700.20048	9757.8875
704.13626	10000.6875
708.06928	10115.1875
711.99952	9994.2875
715.927	9833.5875
719.85171	9687.4875
723.77365	9586.1875
727.69284	9449.1875
731.60928	9348.9875
735.52295	9300.8875
739.43388	9299.7875
743.34206	9289.2875
747.24749	9310.6875
751.15017	9303.5875
755.05012	9376.2875
758.94733	9525.2875
762.8418	9860.0875
766.73354	10411.7875
770.62254	11025.8875
774.50882	11279.1875
778.39237	11002.3875
782.27321	10373.6875
786.15132	9811.7875
790.02671	9419.2875
793.89938	9263.6875
797.76935	9216.3875
801.6366	9201.0875
805.50115	9150.3875
809.36299	9142.2875
813.22213	9117.2875
817.07857	9113.8875
820.93231	9138.0875
824.78336	9131.5875
828.63172	9122.5875
832.47738	9139.2875
836.32036	9084.7875
840.16066	9092.7875
843.99827	9090.2875
847.8332	9099.5875
851.66546	9088.0875
855.49504	9099.0875
859.32195	9089.3875
863.1462	9083.6875
866.96777	9080.0875
870.78668	9065.0875
874.60293	9052.8875
878.41652	9074.8875
882.22745	9093.8875
886.03573	9103.3875
889.84136	9100.4875
893.64433	9070.8875
897.44466	9065.3875
901.24235	9032.0875
905.0374	9008.0875
908.8298	9010.6875
912.61957	8986.1875
916.40671	9048.5875
920.19121	9083.5875
923.97308	9117.4875
927.75233	9126.3875
931.52895	9117.9875
935.30295	9059.7875
939.07433	8960.0875
942.84309	8846.2875
946.60924	8814.7875
950.37278	8773.6875
954.13371	8742.3875
957.89203	8773.4875
961.64774	8725.2875
965.40086	8713.0875
969.15137	8698.0875
972.89929	8676.9875
976.64461	8676.8875
980.38733	8662.8875
984.12747	8685.6875
987.86502	8741.9875
991.59999	8761.5875
995.33237	8813.0875
999.06217	8889.8875
1002.78939	8983.7875
1006.51404	9065.2875
1010.23611	9132.0875
1013.95561	9210.6875
1017.67255	9208.8875
1021.38692	9147.5875
1025.09872	9075.0875
1028.80796	9015.1875
1032.51465	9048.9875
1036.21877	9092.4875
1039.92035	9126.9875
1043.61937	9113.3875
1047.31584	9105.1875
1051.00976	9070.6875
1054.70114	9096.8875
1058.38998	9113.8875
1062.07627	9128.1875
1065.76003	9173.7875
1069.44126	9217.5875
1073.11995	9292.8875
1076.79611	9376.5875
1080.46974	9450.7875
1084.14085	9497.0875
1087.80943	9597.1875
1091.47549	9666.1875
1095.13903	9679.8875
1098.80005	9623.4875
1102.45857	9492.4875
1106.11456	9418.2875
1109.76805	9390.8875
1113.41903	9409.2875
1117.06751	9483.7875
1120.71348	9582.6875
1124.35696	9696.0875
1127.99793	9791.7875
1131.63641	9827.4875
1135.2724	9725.9875
1138.90589	9561.2875
1142.5369	9502.9875
1146.16542	9479.4875
1149.79145	9504.0875
1153.415	9508.2875
1157.03607	9570.2875
1160.65467	9698.6875
1164.27079	9907.3875
1167.88443	10200.6875
1171.49561	10570.2875
1175.10432	11077.8875
1178.71056	11790.4875
1182.31434	12396.1875
1185.91565	12670.0875
1189.51451	12550.4875
1193.11091	12256.8875
1196.70485	11863.9875
1200.29634	11519.7875
1203.88538	11312.5875
1207.47197	11097.4875
1211.05612	10883.5875
1214.63782	10706.2875
1218.21708	10600.4875
1221.79391	10508.8875
1225.36829	10476.9875
1228.94024	10439.9875
1232.50976	10378.7875
1236.07685	10362.1875
1239.6415	10392.6875
1243.20374	10470.2875
1246.76355	10640.1875
1250.32093	10815.7875
1253.8759	11007.5875
1257.42845	11240.9875
1260.97859	11481.4875
1264.52631	11656.9875
1268.07163	11810.2875
1271.61453	11863.8875
1275.15503	11965.6875
1278.69312	11961.0875
1282.22882	12022.6875
1285.76211	12129.5875
1289.29301	12348.3875
1292.82151	12693.6875
1296.34761	13086.4875
1299.87133	13582.8875
1303.39266	14178.0875
1306.9116	14769.2875
1310.42815	15420.5875
1313.94233	15796.1875
1317.45412	15707.0875
1320.96354	15367.6875
1324.47058	15067.0875
1327.97525	14775.3875
1331.47754	14187.1875
1334.97747	13875.0875
1338.47502	13771.5875
1341.97022	13717.6875
1345.46305	13751.0875
1348.95352	13860.4875
1352.44163	14148.3875
1355.92738	14669.4875
1359.41078	15502.0875
1362.89183	16285.8875
1366.37053	16112.4875
1369.84688	14806.5875
1373.32088	13331.6875
1376.79254	12470.0875
1380.26186	12270.2875
1383.72883	12432.1875
1387.19347	12635.2875
1390.65578	12533.1875
1394.11575	12186.2875
1397.57339	11934.8875
1401.0287	11784.5875
1404.48168	11751.0875
1407.93234	11618.8875
1411.38068	11436.7875
1414.82669	11198.8875
1418.27039	10913.0875
1421.71177	10634.2875
1425.15083	10417.5875
1428.58758	10286.4875
1432.02203	10328.1875
1435.45416	10451.5875
1438.88399	10596.0875
1442.31151	10710.5875
1445.73673	10936.4875
1449.15965	11056.2875
1452.58027	10874.1875
1455.9986	10870.9875
1459.41463	10844.8875
1462.82837	10915.4875
1466.23982	11011.9875
1469.64898	11122.1875
1473.05586	11221.2875
1476.46045	11242.8875
1479.86276	11237.6875
1483.26279	11251.1875
1486.66054	11269.7875
1490.05602	11382.9875
1493.44922	11535.1875
1496.84016	11765.7875
1500.22882	12207.3875
1503.61521	12779.4875
1506.99934	13427.1875
1510.38121	14023.8875
1513.76081	14224.3875
1517.13816	13878.1875
1520.51324	13162.3875
1523.88607	12494.6875
1527.25665	12059.6875
1530.62498	11843.8875
1533.99105	11745.4875
1537.35488	11602.2875
1540.71647	11446.7875
1544.07581	11269.9875
1547.4329	11117.6875
1550.78776	10992.0875
1554.14038	10897.5875
1557.49077	10884.7875
1560.83892	10905.8875
1564.18484	10979.7875
1567.52853	11084.9875
1570.86999	11255.1875
1574.20922	11382.9875
1577.54624	11470.4875
1580.88103	11420.3875
1584.2136	11356.3875
1587.54395	11414.3875
1590.87208	11704.9875
1594.19801	12107.2875
1597.52172	12556.4875
1600.84321	12701.4875
1604.16251	12358.8875
1607.47959	11734.4875
1610.79447	11094.7875
1614.10715	10533.1875
1617.41763	10107.9875
1620.7259	9837.0875
1624.03199	9763.4875
1627.33587	9843.7875
1630.63757	10101.1875
1633.93707	10535.9875
1637.23439	11199.3875
1640.52951	12185.2875
1643.82246	13367.2875
1647.11321	14563.4875
1650.40179	15256.7875
1653.68819	15124.0875
1656.97241	14029.5875
1660.25446	12739.1875
1663.53433	11757.2875
1666.81203	11017.6875
1670.08756	10353.8875
1673.36092	9824.6875
1676.63211	9378.3875
1679.90115	9076.0875
1683.16801	8940.7875
1686.43272	8934.9875
1689.69527	9134.1875
1692.95567	9656.9875
1696.2139	10629.5875
1699.46999	11589.9875
1702.72392	11636.5875
1705.97571	10755.1875
1709.22535	9688.1875
1712.47284	8981.8875
1715.71819	8555.3875
1718.96139	8344.2875
1722.20246	8210.0875
1725.44139	8116.6875
1728.67818	8053.7875
1731.91284	8019.9875
1735.14537	8000.9875
1738.37576	8008.9875
1741.60403	8083.9875
1744.83017	8190.1875
1748.05418	8329.6875
1751.27607	8630.9875
1754.49584	9109.8875
1757.71349	9712.3875
1760.92903	10048.5875
1764.14244	10001.7875
1767.35375	9912.6875
1770.56294	9913.3875
1773.77002	9628.9875
1776.97499	9028.2875
1780.17785	8440.4875
1783.37861	8079.4875
1786.57727	7858.9875
1789.77382	7744.6875
1792.96828	7657.5875
1796.16064	7578.5875
1799.3509	7536.4875
1802.53907	7499.0875
1805.72514	7466.4875
1808.90913	7441.1875
1812.09102	7432.2875
1815.27083	7380.7875
1818.44856	7351.5875
1821.6242	7326.7875
1824.79776	7327.4875
1827.96924	7311.0875
1831.13864	7283.4875
1834.30597	7296.1875
1837.47122	7261.4875
1840.6344	7277.4875
1843.7955	7258.4875
1846.95454	7244.3875
1850.11151	7223.3875
1853.26642	7230.0875
1856.41926	7230.8875
1859.57004	7229.3875
1862.71876	7219.1875
1865.86542	7216.2875
1869.01003	7213.8875
1872.15258	7188.0875
1875.29308	7182.8875
1878.43152	7184.8875
1881.56792	7172.4875
1884.70227	7153.1875
1887.83457	7151.1875
1890.96482	7155.5875
1894.09304	7127.6875
1897.21921	7120.0875
1900.34335	7106.1875
1903.46544	7132.9875
1906.58551	7116.8875
1909.70353	7090.7875
1912.81953	7080.8875
1915.93349	7071.5875
1919.04543	7066.4875
1922.15534	7035.5875
1925.26322	7017.9875
1928.36908	7021.6875
1931.47292	7005.5875
1934.57473	6994.1875
1937.67453	6996.4875
1940.77232	6976.9875
1943.86808	6957.5875
1946.96184	6928.7875
1950.05358	6918.3875
1953.14331	6900.4875
1956.23103	6867.9875
1959.31675	6867.0875
1962.40046	6841.0875
1965.48217	6835.4875
1968.56188	6801.0875
1971.63959	6784.4875
1974.7153	6759.0875
1977.78901	6734.3875
1980.86073	6715.8875
1983.93046	6696.9875
1986.99819	6682.1875
1990.06394	6657.8875
1993.1277	6657.1875
1996.18947	6620.2875
1999.24925	6605.4875
2002.30706	6593.9875
2005.36288	6584.9875
2008.41672	6541.7875
2011.46859	6511.7875
2014.51848	6506.1875
2017.56639	6509.3875
2020.61233	6490.0875
2023.6563	6468.0875
2026.6983	6446.4875
2029.73833	6421.1875
2032.7764	6420.7875
2035.8125	6407.2875
2038.84664	6375.4875
2041.87881	6345.6875
2044.90903	6343.8875
2047.93729	6362.6875
2050.96359	6358.4875
2053.98794	6397.5875
2057.01034	6359.6875
2060.03078	6331.3875
2063.04927	6316.5875
2066.06582	6311.0875
2069.08042	6310.4875
2072.09307	6312.6875
2075.10378	6289.4875
2078.11255	6301.8875
2081.11938	6282.6875
2084.12426	6287.1875
2087.12722	6284.2875
2090.12824	6285.3875
2093.12732	6278.8875
2096.12447	6270.8875
2099.11969	6283.1875
2102.11299	6266.9875
2105.10435	6281.8875
2108.09379	6265.5875
2111.08131	6275.4875
2114.0669	6282.1875
2117.05057	6280.3875
2120.03233	6291.7875
2123.01216	6294.2875
2125.99008	6300.5875
2128.96609	6315.8875
2131.94018	6314.3875
2134.91236	6323.8875
2137.88263	6323.9875
2140.851	6305.6875
2143.81746	6315.1875
2146.78201	6300.8875
2149.74466	6323.5875
2152.7054	6323.6875
2155.66425	6323.8875
2158.6212	6307.0875
2161.57625	6328.6875
2164.52941	6318.5875
2167.48067	6306.1875
2170.43004	6319.3875
2173.37752	6278.6875
2176.32311	6291.1875
2179.26681	6288.5875
2182.20863	6299.8875
2185.14856	6281.4875
2188.08661	6294.6875
2191.02278	6294.1875
2193.95707	6289.6875
2196.88948	6290.6875
2199.82001	6283.6875
2202.74867	6279.2875
2205.67545	6270.8875
2208.60037	6257.8875
2211.52341	6247.8875
2214.44458	6237.0875
2217.36388	6234.3875
2220.28132	6227.7875
2223.1969	6185.1875
2226.11061	6214.7875
2229.02246	6200.9875
2231.93245	6179.8875
2234.84058	6152.7875
2237.74686	6149.3875
2240.65128	6139.0875
2243.55385	6123.3875
2246.45456	6124.4875
2249.35343	6125.0875
2252.25044	6119.9875
2255.14561	6105.8875
2258.03893	6233.9875
2260.93041	6424.1875
2263.82004	6240.1875
2266.70783	6162.7875
2269.59378	6067.8875
2272.4779	6040.0875
2275.36017	6006.8875
2278.24061	5997.7875
2281.11922	5988.6875
2283.996	5979.2875
2286.87094	5978.4875
2289.74405	5961.5875
2292.61534	5968.9875
2295.4848	5960.6875
2298.35243	5948.8875
2301.21824	5936.3875
2304.08223	5951.7875
2306.94439	5952.7875
2309.80474	5936.0875
2312.66327	5933.1875
2315.51999	5924.7875
2318.37489	5943.8875
2321.22797	5947.8875
2324.07925	5948.2875
2326.92871	5939.7875
2329.77637	5943.1875
2332.62222	5934.4875
2335.46626	5933.5875
2338.3085	5936.5875
2341.14893	5924.9875
2343.98756	5920.2875
2346.8244	5913.0875
2349.65943	5902.0875
2352.49267	5886.7875
2355.32411	5857.8875
2358.15376	5858.0875
2360.98161	5858.8875
2363.80768	5852.4875
2366.63195	5838.8875
2369.45444	5808.7875
2372.27514	5802.1875
2375.09405	5790.6875
2377.91118	5792.9875
2380.72652	5772.6875
2383.54009	5763.0875
2386.35187	5749.0875
2389.16188	5723.1875
2391.97011	5708.5875
2394.77657	5717.8875
2397.58125	5700.2875
2400.38416	5705.5875
2403.18529	5709.1875
2405.98466	5697.1875
2408.78226	5697.1875
2411.57809	5692.9875
2414.37216	5693.4875
2417.16446	5707.1875
2419.955	5666.3875
2422.74378	5648.0875
2425.5308	5640.5875
2428.31606	5642.1875
2431.09956	5626.9875
2433.88131	5613.6875
2436.6613	5608.3875
2439.43954	5596.1875
2442.21603	5587.8875
2444.99077	5578.7875
2447.76377	5585.6875
2450.53501	5591.8875
2453.30451	5579.7875
2456.07226	5566.7875
2458.83827	5570.4875
2461.60254	5586.1875
2464.36507	5563.0875
2467.12586	5559.1875
2469.88492	5547.9875
2472.64224	5555.3875
2475.39782	5748.2875
2478.15167	5817.8875
2480.90379	5669.5875
2483.65417	5637.5875
2486.40283	5591.7875
2489.14976	5574.6875
2491.89497	5577.2875
2494.63845	5780.3875
2497.3802	5826.7875
2500.12024	5643.3875
2502.85855	5583.7875
2505.59514	5564.1875
2508.33002	5533.4875
2511.06318	5503.5875
2513.79462	5494.8875
2516.52435	5472.8875
2519.25237	5465.9875
2521.97867	5463.3875
2524.70327	5468.6875
2527.42616	5465.2875
2530.14734	5441.9875
2532.86681	5424.6875
2535.58458	5441.9875
2538.30065	5431.2875
2541.01501	5417.3875
2543.72768	5420.6875
2546.43864	5402.1875
2549.14791	5400.4875
2551.85548	5390.0875
2554.56136	5387.1875
2557.26554	5364.5875
2559.96803	5361.1875
2562.66883	5347.6875
2565.36794	5337.4875
2568.06536	5326.6875
2570.7611	5305.6875
2573.45514	5321.5875
2576.14751	5293.2875
2578.83819	5282.1875
2581.52719	5285.4875
2584.21451	5275.3875
2586.90015	5285.3875
2589.58411	5253.5875
2592.2664	5233.1875
2594.94701	5256.3875
2597.62594	5239.3875
2600.30321	5230.2875
2602.9788	5219.0875
2605.65273	5204.8875
2608.32498	5200.5875
2610.99557	5217.9875
2613.66449	5209.7875
2616.33175	5191.0875
2618.99734	5194.6875
2621.66128	5196.5875
2624.32355	5190.8875
2626.98416	5182.3875
2629.64311	5162.6875
2632.30041	5159.6875
2634.95605	5152.0875
2637.61004	5130.8875
2640.26238	5124.8875
2642.91306	5132.4875
2645.56209	5140.8875
2648.20948	5178.1875
2650.85521	5155.1875
2653.4993	5126.4875
2656.14175	5121.4875
2658.78255	5110.9875
2661.42171	5120.0875
2664.05923	5101.9875
2666.6951	5112.4875
2669.32934	5107.5875
2671.96194	5110.9875
2674.59291	5101.7875
2677.22224	5104.2875
2679.84993	5115.3875
2682.476	5110.8875
2685.10043	5119.2875
2687.72324	5115.1875
2690.34441	5120.4875
2692.96396	5100.2875
2695.58188	5107.8875
2698.19818	5105.5875
2700.81285	5151.9875
2703.4259	5593.0875
2706.03733	6516.3875
2708.64714	5899.1875
2711.25533	5492.4875
2713.86191	5359.3875
2716.46687	5309.0875
2719.07021	5240.0875
2721.67194	5172.8875
2724.27206	5128.2875
2726.87057	5101.9875
2729.46747	5112.2875
2732.06276	5103.7875
2734.65644	5097.8875
2737.24852	5098.3875
2739.83899	5073.4875
2742.42786	5100.2875
2745.01513	5069.7875
2747.60079	5068.0875
2750.18486	5061.5875
2752.76733	5061.2875
2755.3482	5038.0875
2757.92747	5038.7875
2760.50515	5024.3875
2763.08123	5021.0875
2765.65573	5013.9875
2768.22863	5026.7875
2770.79994	5002.9875
2773.36967	5014.1875
2775.9378	4999.6875
2778.50435	4983.5875
2781.06932	4993.3875
2783.6327	4983.9875
2786.1945	4979.1875
2788.75471	4970.4875
2791.31335	4958.7875
2793.87041	4950.5875
2796.42589	4957.9875
2798.97979	4957.9875
2801.53212	4946.5875
2804.08288	4940.5875
2806.63206	4929.7875
2809.17967	4911.4875
2811.72571	4909.9875
2814.27018	4881.3875
2816.81308	4874.8875
2819.35442	4869.3875
2821.89419	4848.1875
2824.43239	4835.7875
2826.96904	4836.6875
2829.50412	4856.2875
2832.03763	4817.9875
2834.56959	4829.3875
2837.1	4843.1875
2839.62884	4824.3875
2842.15613	4856.3875
2844.68186	4850.7875
2847.20604	4839.3875
2849.72867	4861.8875
2852.24974	4872.1875
2854.76927	5044.7875
2857.28724	5282.5875
2859.80367	5052.5875
2862.31855	4944.1875
2864.83189	4920.0875
2867.34368	4895.6875
2869.85393	4850.5875
2872.36264	4832.0875
2874.8698	4807.3875
2877.37543	4799.8875
2879.87952	4789.4875
2882.38207	4774.7875
2884.88308	4779.5875
2887.38256	4777.7875
2889.88051	4762.2875
2892.37692	4769.4875
2894.8718	4775.2875
2897.36515	4770.6875
2899.85698	4774.0875
2902.34727	4787.6875
2904.83604	4793.7875
2907.32328	4792.2875
2909.809	4774.2875
2912.29319	4790.0875
2914.77587	4775.6875
2917.25702	4770.6875
2919.73665	4771.0875
2922.21476	4783.9875
2924.69136	4758.5875
2927.16644	4769.1875
2929.64	4754.9875
2932.11205	4763.9875
2934.58258	4743.5875
2937.05161	4754.4875
2939.51912	4758.1875
2941.98513	4737.5875
2944.44962	4728.9875
2946.91261	4717.6875
2949.37409	4724.3875
2951.83407	4708.1875
2954.29254	4707.5875
2956.74951	4681.3875
2959.20498	4710.2875
2961.65895	4696.1875
2964.11142	4691.4875
2966.56239	4694.9875
2969.01186	4669.9875
2971.45984	4667.4875
2973.90632	4690.8875
2976.35131	4664.9875
2978.7948	4657.2875
2981.23681	4633.1875
2983.67732	4623.3875
2986.11635	4630.2875
2988.55388	4609.7875
2990.98993	4591.9875
2993.4245	4580.5875
2995.85758	4562.0875
2998.28917	4579.6875
3000.71928	4557.7875
3003.14791	4553.6875
3005.57506	4557.0875
3008.00073	4542.4875
3010.42493	4542.4875
3012.84764	4526.8875
3015.26888	4510.0875
3017.68865	4511.9875
3020.10694	4513.2875
3022.52376	4495.3875
3024.9391	4516.6875
3027.35298	4492.4875
3029.76539	4478.3875
3032.17632	4477.6875
3034.5858	4481.2875
3036.9938	4472.2875
3039.40034	4486.0875
3041.80542	4471.1875
3044.20903	4459.3875
3046.61118	4450.2875
3049.01187	4462.2875
3051.4111	4427.8875
3053.80888	4424.0875
3056.20519	4417.8875
3058.60005	4401.8875
3060.99345	4409.5875
3063.3854	4396.9875
3065.7759	4386.9875
3068.16494	4373.7875
3070.55254	4372.9875
3072.93868	4383.4875
3075.32338	4358.2875
3077.70662	4353.8875
3080.08842	4328.4875
3082.46878	4330.3875
3084.84769	4326.1875
3087.22515	4324.6875
3089.60118	4320.0875
3091.97576	4311.4875
3094.3489	4326.2875
3096.72061	4313.4875
3099.09087	4309.9875
3101.4597	4306.3875
3103.82709	4280.1875
3106.19305	4309.5875
