Data from AgNP_FTO_APTES_UA_10uM_CRN_100uM_R6G_10uM_NaF_0.1M_Addition_RamanShift__0__17-24-30-831.txt Node

Date: Thu Feb 10 17:24:30 GMT 2022
User: TCL
Spectrometer: QEP01345
Trigger mode: 4
Integration Time (sec): 7.000000E0
Scans to average: 10
Electric dark correction enabled: true
Nonlinearity correction enabled: false
Boxcar width: 0
XAxis mode: Raman Shifts
Number of Pixels in Spectrum: 1044
>>>>>Begin Spectral Data<<<<<
46.04893	-0.225
50.45542	-1.125
54.85868	-0.725
59.25871	-1.825
63.6555	60.075
68.04907	64.475
72.43941	71.375
76.82654	69.775
81.21044	76.075
85.59113	76.675
89.96862	80.275
94.34289	85.775
98.71396	85.175
103.08183	87.775
107.4465	91.475
111.80798	92.675
116.16626	95.575
120.52136	99.375
124.87327	102.675
129.222	109.775
133.56755	116.075
137.90993	118.275
142.24913	132.275
146.58517	145.275
150.91804	170.275
155.24774	196.875
159.57429	242.675
163.89768	309.075
168.21792	412.675
172.53501	562.475
176.84895	781.175
181.15975	1098.575
185.46741	1553.275
189.77193	2130.975
194.07331	2855.475
198.37157	3679.775
202.6667	4536.175
206.9587	5397.575
211.24758	6226.375
215.53334	7060.575
219.81599	7951.675
224.09553	8910.875
228.37195	9963.475
232.64527	11122.375
236.91549	12354.575
241.18261	13630.175
245.44663	14819.475
249.70755	15931.275
253.96539	16872.575
258.22014	17703.975
262.4718	18392.475
266.72039	18895.475
270.96589	19135.775
275.20832	19201.875
279.44768	19090.475
283.68397	18914.875
287.91719	18725.375
292.14735	18587.675
296.37445	18598.575
300.59849	18622.475
304.81948	18667.775
309.03742	18636.475
313.25231	18461.175
317.46415	18168.375
321.67296	17761.975
325.87872	17516.175
330.08145	17370.175
334.28114	17349.775
338.47781	17486.475
342.67145	17706.375
346.86207	17961.375
351.04966	18211.275
355.23424	18527.075
359.4158	18808.275
363.59435	19042.075
367.76989	19254.075
371.94243	19381.675
376.11196	19539.275
380.27849	19610.575
384.44203	19733.075
388.60257	19917.875
392.76012	20081.475
396.91468	20276.875
401.06626	20556.475
405.21485	20748.975
409.36047	20709.175
413.50311	20540.175
417.64277	20444.775
421.77947	20438.075
425.9132	20483.875
430.04396	20605.175
434.17176	20668.475
438.2966	20791.175
442.41849	21080.875
446.53742	21534.675
450.6534	22037.375
454.76644	22424.675
458.87653	22591.775
462.98368	22490.675
467.08789	22256.975
471.18916	22055.675
475.2875	21876.575
479.38291	21749.875
483.4754	21619.675
487.56496	21403.275
491.6516	21138.775
495.73531	20897.175
499.81612	20759.475
503.89401	20879.575
507.96899	20934.475
512.04106	20894.975
516.11023	20840.675
520.1765	20683.275
524.23987	20562.775
528.30034	20434.575
532.35792	20307.175
536.41261	20135.475
540.46441	19990.075
544.51333	20031.675
548.55936	20203.875
552.60252	20541.775
556.64279	20929.475
560.6802	21155.975
564.71473	21303.475
568.7464	21528.175
572.7752	21987.275
576.80114	22417.375
580.82422	22827.375
584.84444	23321.875
588.86181	23956.275
592.87633	24478.875
596.888	24274.875
600.89682	23639.175
604.9028	23716.475
608.90594	25027.475
612.90624	26421.675
616.90371	25125.275
620.89834	22154.475
624.89015	20845.275
628.87913	20704.275
632.86528	20757.175
636.84862	20724.975
640.82913	20476.475
644.80683	20101.175
648.78172	19925.475
652.75379	19921.975
656.72306	20107.575
660.68952	20292.675
664.65319	20198.375
668.61405	19960.875
672.57211	19968.875
676.52738	19967.075
680.47986	20018.175
684.42955	19935.375
688.37646	19892.975
692.32058	19993.975
696.26192	20186.075
700.20048	20439.075
704.13626	20523.075
708.06928	20558.575
711.99952	20441.275
715.927	20439.575
719.85171	20454.575
723.77365	20442.475
727.69284	20259.475
731.60928	20090.475
735.52295	19992.375
739.43388	20013.575
743.34206	20066.075
747.24749	20087.875
751.15017	20237.375
755.05012	20562.075
758.94733	20955.675
762.8418	21716.875
766.73354	22744.675
770.62254	23734.575
774.50882	23965.375
778.39237	23227.975
782.27321	21986.175
786.15132	21040.975
790.02671	20436.075
793.89938	20103.575
797.76935	20021.075
801.6366	19970.375
805.50115	19931.175
809.36299	19833.375
813.22213	19759.475
817.07857	19695.075
820.93231	19658.675
824.78336	19587.175
828.63172	19593.775
832.47738	19576.375
836.32036	19612.475
840.16066	19681.275
843.99827	19701.975
847.8332	19711.875
851.66546	19636.975
855.49504	19664.475
859.32195	19664.875
863.1462	19629.075
866.96777	19569.575
870.78668	19541.275
874.60293	19539.575
878.41652	19550.775
882.22745	19586.875
886.03573	19621.475
889.84136	19614.175
893.64433	19544.875
897.44466	19502.375
901.24235	19450.975
905.0374	19396.575
908.8298	19401.675
912.61957	19469.975
916.40671	19589.475
920.19121	19771.775
923.97308	19904.275
927.75233	19954.275
931.52895	19791.375
935.30295	19620.475
939.07433	19374.775
942.84309	19235.375
946.60924	19141.375
950.37278	19101.775
954.13371	19022.375
957.89203	19034.475
961.64774	18978.675
965.40086	18976.275
969.15137	18910.775
972.89929	18857.275
976.64461	18824.275
980.38733	18871.775
984.12747	18938.475
987.86502	19046.175
991.59999	19212.675
995.33237	19452.475
999.06217	19740.275
1002.78939	20159.975
1006.51404	20371.075
1010.23611	20538.675
1013.95561	20660.275
1017.67255	20653.575
1021.38692	20544.875
1025.09872	20347.775
1028.80796	20400.075
1032.51465	20777.375
1036.21877	21187.075
1039.92035	21291.175
1043.61937	21114.275
1047.31584	20821.575
1051.00976	20522.275
1054.70114	20324.275
1058.38998	20307.475
1062.07627	20422.975
1065.76003	20532.075
1069.44126	20616.875
1073.11995	20804.275
1076.79611	20999.375
1080.46974	21101.275
1084.14085	21233.675
1087.80943	21383.775
1091.47549	21526.675
1095.13903	21526.075
1098.80005	21310.675
1102.45857	21049.875
1106.11456	20803.475
1109.76805	20751.275
1113.41903	20744.775
1117.06751	20797.775
1120.71348	20924.575
1124.35696	21023.575
1127.99793	21204.875
1131.63641	21333.075
1135.2724	21250.275
1138.90589	21140.975
1142.5369	21168.775
1146.16542	21235.875
1149.79145	21329.775
1153.415	21444.175
1157.03607	21700.775
1160.65467	22211.975
1164.27079	22999.875
1167.88443	23982.875
1171.49561	24952.675
1175.10432	26128.175
1178.71056	27696.975
1182.31434	29147.375
1185.91565	29898.875
1189.51451	29759.675
1193.11091	29002.375
1196.70485	28138.575
1200.29634	27392.075
1203.88538	26963.375
1207.47197	26714.075
1211.05612	26370.675
1214.63782	25884.175
1218.21708	25337.375
1221.79391	24821.575
1225.36829	24423.275
1228.94024	24093.675
1232.50976	23736.575
1236.07685	23481.075
1239.6415	23406.475
1243.20374	23514.575
1246.76355	23700.875
1250.32093	24024.475
1253.8759	24437.175
1257.42845	24944.475
1260.97859	25428.975
1264.52631	25948.475
1268.07163	26589.375
1271.61453	27201.975
1275.15503	27854.475
1278.69312	28469.775
1282.22882	29040.075
1285.76211	29694.875
1289.29301	30488.775
1292.82151	31659.875
1296.34761	33110.275
1299.87133	34961.175
1303.39266	36851.575
1306.9116	38569.775
1310.42815	39896.375
1313.94233	40366.475
1317.45412	39892.275
1320.96354	39098.275
1324.47058	38351.375
1327.97525	37835.675
1331.47754	37453.475
1334.97747	37158.175
1338.47502	36871.675
1341.97022	36491.475
1345.46305	35918.175
1348.95352	35613.175
1352.44163	35717.275
1355.92738	36501.975
1359.41078	37815.275
1362.89183	38798.875
1366.37053	38047.975
1369.84688	35302.075
1373.32088	32068.975
1376.79254	29891.475
1380.26186	29186.175
1383.72883	29226.675
1387.19347	29285.475
1390.65578	29049.675
1394.11575	28999.375
1397.57339	29243.175
1401.0287	29619.275
1404.48168	29998.475
1407.93234	29924.175
1411.38068	29410.075
1414.82669	28607.775
1418.27039	27655.175
1421.71177	26663.075
1425.15083	25866.575
1428.58758	25453.175
1432.02203	25572.475
1435.45416	26162.775
1438.88399	26827.775
1442.31151	27303.675
1445.73673	27685.375
1449.15965	27859.875
1452.58027	27897.875
1455.9986	27835.975
1459.41463	27946.975
1462.82837	28193.975
1466.23982	28642.575
1469.64898	29089.475
1473.05586	29420.475
1476.46045	29512.175
1479.86276	29349.275
1483.26279	29113.275
1486.66054	28906.675
1490.05602	28911.375
1493.44922	29093.575
1496.84016	29356.575
1500.22882	29754.375
1503.61521	30424.675
1506.99934	31337.275
1510.38121	32086.075
1513.76081	32164.175
1517.13816	31661.975
1520.51324	30797.075
1523.88607	30112.075
1527.25665	29829.175
1530.62498	29804.275
1533.99105	29733.775
1537.35488	29503.975
1540.71647	29023.775
1544.07581	28430.675
1547.4329	27829.175
1550.78776	27328.975
1554.14038	26935.075
1557.49077	26746.375
1560.83892	26593.975
1564.18484	26593.875
1567.52853	26649.575
1570.86999	26851.775
1574.20922	27272.875
1577.54624	27662.875
1580.88103	27838.675
1584.2136	28175.675
1587.54395	28889.975
1590.87208	30196.475
1594.19801	31687.475
1597.52172	33006.475
1600.84321	33192.775
1604.16251	31889.875
1607.47959	29662.475
1610.79447	27469.975
1614.10715	25497.775
1617.41763	23990.275
1620.7259	23047.875
1624.03199	22603.275
1627.33587	22649.675
1630.63757	23220.275
1633.93707	24382.775
1637.23439	26102.675
1640.52951	28728.375
1643.82246	31684.675
1647.11321	34007.075
1650.40179	34302.275
1653.68819	32137.075
1656.97241	28577.675
1660.25446	25139.375
1663.53433	22683.175
1666.81203	21132.775
1670.08756	20067.275
1673.36092	19440.475
1676.63211	19011.175
1679.90115	18735.475
1683.16801	18508.875
1686.43272	18341.875
1689.69527	18224.875
1692.95567	18124.375
1696.2139	18078.375
1699.46999	18016.475
1702.72392	17977.875
1705.97571	17950.475
1709.22535	17906.675
1712.47284	17854.375
1715.71819	17837.775
1718.96139	17836.175
1722.20246	17792.275
1725.44139	17748.875
1728.67818	17640.275
1731.91284	17550.575
1735.14537	17459.375
1738.37576	17407.575
1741.60403	17385.075
1744.83017	17303.575
1748.05418	17309.275
1751.27607	17271.675
1754.49584	17291.775
1757.71349	17283.875
1760.92903	17231.775
1764.14244	17244.375
1767.35375	17230.875
1770.56294	17196.675
1773.77002	17178.075
1776.97499	17151.675
1780.17785	17119.875
1783.37861	17098.975
1786.57727	17053.375
1789.77382	17039.075
1792.96828	17004.875
1796.16064	16951.275
1799.3509	16937.875
1802.53907	16925.075
1805.72514	16911.275
1808.90913	16866.175
1812.09102	16829.175
1815.27083	16801.375
1818.44856	16796.775
1821.6242	16776.275
1824.79776	16749.975
1827.96924	16699.975
1831.13864	16742.175
1834.30597	16718.575
1837.47122	16738.275
1840.6344	16684.475
1843.7955	16691.975
1846.95454	16650.475
1850.11151	16656.875
1853.26642	16621.875
1856.41926	16669.875
1859.57004	16659.075
1862.71876	16642.675
1865.86542	16605.975
1869.01003	16571.375
1872.15258	16598.575
1875.29308	16599.975
1878.43152	16542.675
1881.56792	16539.675
1884.70227	16543.575
1887.83457	16501.175
1890.96482	16471.775
1894.09304	16454.975
1897.21921	16423.175
1900.34335	16421.775
1903.46544	16407.675
1906.58551	16408.875
1909.70353	16375.475
1912.81953	16370.575
1915.93349	16379.475
1919.04543	16285.275
1922.15534	16260.775
1925.26322	16219.975
1928.36908	16220.575
1931.47292	16217.675
1934.57473	16164.575
1937.67453	16144.475
1940.77232	16095.475
1943.86808	16070.875
1946.96184	15996.175
1950.05358	15980.675
1953.14331	15925.575
1956.23103	15875.675
1959.31675	15823.675
1962.40046	15810.675
1965.48217	15753.575
1968.56188	15710.475
1971.63959	15682.375
1974.7153	15664.575
1977.78901	15584.775
1980.86073	15537.775
1983.93046	15523.275
1986.99819	15478.275
1990.06394	15484.075
1993.1277	15382.275
1996.18947	15337.875
1999.24925	15318.275
2002.30706	15275.575
2005.36288	15231.275
2008.41672	15172.275
2011.46859	15173.175
2014.51848	15139.075
2017.56639	15099.175
2020.61233	15050.175
2023.6563	15014.875
2026.6983	14992.675
2029.73833	14940.975
2032.7764	14912.575
2035.8125	14909.575
2038.84664	14838.675
2041.87881	14830.075
2044.90903	14801.275
2047.93729	14807.475
2050.96359	14758.975
2053.98794	14753.475
2057.01034	14770.575
2060.03078	14742.875
2063.04927	14714.475
2066.06582	14720.275
2069.08042	14694.975
2072.09307	14702.375
2075.10378	14653.575
2078.11255	14646.075
2081.11938	14668.975
2084.12426	14657.675
2087.12722	14668.875
2090.12824	14668.875
2093.12732	14615.375
2096.12447	14633.075
2099.11969	14657.475
2102.11299	14604.275
2105.10435	14657.875
2108.09379	14678.375
2111.08131	14685.375
2114.0669	14695.775
2117.05057	14711.075
2120.03233	14696.375
2123.01216	14718.675
2125.99008	14744.775
2128.96609	14742.475
2131.94018	14759.275
2134.91236	14766.775
2137.88263	14809.475
2140.851	14791.875
2143.81746	14817.575
2146.78201	14823.375
2149.74466	14846.675
2152.7054	14833.475
2155.66425	14836.075
2158.6212	14822.275
2161.57625	14826.575
2164.52941	14806.675
2167.48067	14796.175
2170.43004	14796.575
2173.37752	14812.075
2176.32311	14821.475
2179.26681	14798.775
2182.20863	14790.675
2185.14856	14792.175
2188.08661	14810.775
2191.02278	14829.375
2193.95707	14826.175
2196.88948	14809.775
2199.82001	14843.675
2202.74867	14790.475
2205.67545	14785.175
2208.60037	14742.775
2211.52341	14760.275
2214.44458	14754.875
2217.36388	14714.475
2220.28132	14707.075
2223.1969	14670.275
2226.11061	14661.275
2229.02246	14585.075
2231.93245	14567.675
2234.84058	14577.075
2237.74686	14563.875
2240.65128	14554.875
2243.55385	14512.975
2246.45456	14482.675
2249.35343	14482.675
2252.25044	14453.175
2255.14561	14451.375
2258.03893	14407.775
2260.93041	14366.975
2263.82004	14339.275
2266.70783	14305.275
2269.59378	14270.675
2272.4779	14223.575
2275.36017	14206.675
2278.24061	14207.275
2281.11922	14190.175
2283.996	14188.975
2286.87094	14183.175
2289.74405	14149.075
2292.61534	14142.875
2295.4848	14130.675
2298.35243	14134.675
2301.21824	14092.775
2304.08223	14127.375
2306.94439	14115.075
2309.80474	14123.375
2312.66327	14136.275
2315.51999	14141.775
2318.37489	14126.975
2321.22797	14094.375
2324.07925	14058.575
2326.92871	14050.675
2329.77637	14060.575
2332.62222	14018.775
2335.46626	14021.075
2338.3085	14034.675
2341.14893	14023.075
2343.98756	13985.875
2346.8244	14000.075
2349.65943	13965.975
2352.49267	13983.975
2355.32411	13981.475
2358.15376	13968.975
2360.98161	13980.975
2363.80768	13968.775
2366.63195	13963.175
2369.45444	13903.875
2372.27514	13916.875
2375.09405	13884.875
2377.91118	13856.975
2380.72652	13827.575
2383.54009	13786.175
2386.35187	13767.675
2389.16188	13745.275
2391.97011	13713.675
2394.77657	13688.675
2397.58125	13678.575
2400.38416	13670.375
2403.18529	13652.875
2405.98466	13620.075
2408.78226	13631.375
2411.57809	13608.575
2414.37216	13602.675
2417.16446	13606.675
2419.955	13586.175
2422.74378	13577.675
2425.5308	13561.275
2428.31606	13574.975
2431.09956	13542.975
2433.88131	13509.275
2436.6613	13543.275
2439.43954	13502.675
2442.21603	13515.875
2444.99077	13515.175
2447.76377	13498.475
2450.53501	13486.275
2453.30451	13483.575
2456.07226	13466.275
2458.83827	13468.275
2461.60254	13467.675
2464.36507	13449.275
2467.12586	13461.075
2469.88492	13440.675
2472.64224	13425.375
2475.39782	13468.875
2478.15167	13459.175
2480.90379	13464.775
2483.65417	13461.475
2486.40283	13479.875
2489.14976	13471.875
2491.89497	13460.875
2494.63845	13469.475
2497.3802	13488.175
2500.12024	13480.175
2502.85855	13436.075
2505.59514	13414.575
2508.33002	13442.675
2511.06318	13423.875
2513.79462	13421.175
2516.52435	13391.975
2519.25237	13353.775
2521.97867	13381.675
2524.70327	13396.775
2527.42616	13374.475
2530.14734	13370.475
2532.86681	13372.175
2535.58458	13390.175
2538.30065	13342.475
2541.01501	13376.375
2543.72768	13328.575
2546.43864	13322.975
2549.14791	13323.875
2551.85548	13306.575
2554.56136	13291.875
2557.26554	13243.375
2559.96803	13236.675
2562.66883	13242.075
2565.36794	13223.775
2568.06536	13210.675
2570.7611	13171.075
2573.45514	13179.675
2576.14751	13159.475
2578.83819	13133.175
2581.52719	13151.875
2584.21451	13141.975
2586.90015	13124.875
2589.58411	13121.675
2592.2664	13097.075
2594.94701	13106.075
2597.62594	13098.975
2600.30321	13069.375
2602.9788	13057.975
2605.65273	13039.575
2608.32498	13033.975
2610.99557	13029.675
2613.66449	13024.775
2616.33175	13019.375
2618.99734	13016.575
2621.66128	13004.875
2624.32355	13007.275
2626.98416	12988.975
2629.64311	12969.275
2632.30041	12980.375
2634.95605	12946.875
2637.61004	12934.375
2640.26238	12919.975
2642.91306	12914.075
2645.56209	12893.875
2648.20948	12894.775
2650.85521	12903.075
2653.4993	12901.775
2656.14175	12909.375
2658.78255	12893.075
2661.42171	12926.675
2664.05923	12951.575
2666.6951	12947.075
2669.32934	12970.575
2671.96194	12935.675
2674.59291	12970.175
2677.22224	12954.375
2679.84993	12956.175
2682.476	12913.175
2685.10043	12931.975
2687.72324	12892.575
2690.34441	12916.175
2692.96396	12903.775
2695.58188	12890.475
2698.19818	12913.875
2700.81285	12944.975
2703.4259	12937.775
2706.03733	12929.875
2708.64714	12936.175
2711.25533	12937.975
2713.86191	12947.175
2716.46687	12973.875
2719.07021	12959.875
2721.67194	13005.675
2724.27206	12969.975
2726.87057	13023.475
2729.46747	13008.275
2732.06276	13032.575
2734.65644	13009.875
2737.24852	13001.075
2739.83899	13007.575
2742.42786	12978.275
2745.01513	12932.975
2747.60079	12929.675
2750.18486	12933.875
2752.76733	12926.575
2755.3482	12917.675
2757.92747	12939.675
2760.50515	12908.075
2763.08123	12897.775
2765.65573	12860.275
2768.22863	12882.175
2770.79994	12870.175
2773.36967	12922.375
2775.9378	12896.375
2778.50435	12882.475
2781.06932	12894.775
2783.6327	12910.475
2786.1945	12892.575
2788.75471	12848.575
2791.31335	12859.275
2793.87041	12833.275
2796.42589	12808.675
2798.97979	12793.375
2801.53212	12773.975
2804.08288	12775.075
2806.63206	12743.175
2809.17967	12693.675
2811.72571	12681.875
2814.27018	12622.275
2816.81308	12640.975
2819.35442	12611.575
2821.89419	12596.875
2824.43239	12580.375
2826.96904	12547.775
2829.50412	12588.275
2832.03763	12568.775
2834.56959	12561.675
2837.1	12546.775
2839.62884	12521.575
2842.15613	12558.075
2844.68186	12540.175
2847.20604	12561.775
2849.72867	12584.175
2852.24974	12578.175
2854.76927	12558.275
2857.28724	12541.875
2859.80367	12514.575
2862.31855	12512.575
2864.83189	12512.575
2867.34368	12489.175
2869.85393	12469.075
2872.36264	12460.775
2874.8698	12463.975
2877.37543	12441.975
2879.87952	12450.075
2882.38207	12465.175
2884.88308	12444.275
2887.38256	12477.275
2889.88051	12480.875
2892.37692	12447.175
2894.8718	12458.875
2897.36515	12487.675
2899.85698	12485.275
2902.34727	12527.775
2904.83604	12506.975
2907.32328	12561.375
2909.809	12530.675
2912.29319	12559.975
2914.77587	12524.475
2917.25702	12532.675
2919.73665	12515.375
2922.21476	12552.675
2924.69136	12503.075
2927.16644	12529.175
2929.64	12522.175
2932.11205	12476.375
2934.58258	12455.575
2937.05161	12482.675
2939.51912	12486.475
2941.98513	12473.275
2944.44962	12434.175
2946.91261	12415.175
2949.37409	12438.875
2951.83407	12413.975
2954.29254	12394.575
2956.74951	12415.475
2959.20498	12386.175
2961.65895	12401.675
2964.11142	12425.075
2966.56239	12409.075
2969.01186	12401.075
2971.45984	12374.775
2973.90632	12352.175
2976.35131	12348.175
2978.7948	12338.675
2981.23681	12297.275
2983.67732	12309.875
2986.11635	12279.275
2988.55388	12251.275
2990.98993	12250.175
2993.4245	12225.175
2995.85758	12206.575
2998.28917	12166.275
3000.71928	12152.875
3003.14791	12111.475
3005.57506	12099.575
3008.00073	12067.875
3010.42493	12048.075
3012.84764	12051.075
3015.26888	12064.675
3017.68865	12007.775
3020.10694	12003.475
3022.52376	11988.575
3024.9391	11968.575
3027.35298	11968.075
3029.76539	11993.375
3032.17632	11959.475
3034.5858	11954.675
3036.9938	11966.075
3039.40034	11953.675
3041.80542	11960.275
3044.20903	11901.075
3046.61118	11917.375
3049.01187	11891.775
3051.4111	11878.675
3053.80888	11849.475
3056.20519	11841.375
3058.60005	11810.075
3060.99345	11813.675
3063.3854	11772.975
3065.7759	11743.075
3068.16494	11744.675
3070.55254	11744.975
3072.93868	11710.875
3075.32338	11665.075
3077.70662	11642.275
3080.08842	11633.575
3082.46878	11616.475
3084.84769	11599.675
3087.22515	11611.475
3089.60118	11604.175
3091.97576	11617.775
3094.3489	11605.475
3096.72061	11613.475
3099.09087	11605.975
3101.4597	11619.575
3103.82709	11593.075
3106.19305	11577.475
3108.55757	11617.975
3110.92066	11587.775
3113.28232	11577.675
3115.64255	11549.775
3118.00134	11544.775
3120.35871	11496.675
3122.71466	11481.475
3125.06917	11478.075
3127.42226	11442.275
