Data from AgNP_FTO_APTES_UA_10uM_CRN_100uM_R6G_10uM_NaF_0.1M_Addition_RamanShift__6__17-31-30-839.txt Node

Date: Thu Feb 10 17:31:30 GMT 2022
User: TCL
Spectrometer: QEP01345
Trigger mode: 4
Integration Time (sec): 7.000000E0
Scans to average: 10
Electric dark correction enabled: true
Nonlinearity correction enabled: false
Boxcar width: 0
XAxis mode: Raman Shifts
Number of Pixels in Spectrum: 1044
>>>>>Begin Spectral Data<<<<<
46.04893	-0.025
50.45542	-0.625
54.85868	-1.525
59.25871	-1.125
63.6555	56.275
68.04907	61.975
72.43941	65.775
76.82654	66.275
81.21044	68.375
85.59113	67.875
89.96862	75.375
94.34289	77.675
98.71396	77.075
103.08183	83.675
107.4465	83.775
111.80798	80.575
116.16626	89.275
120.52136	91.475
124.87327	94.875
129.222	96.675
133.56755	104.075
137.90993	108.375
142.24913	118.375
146.58517	133.875
150.91804	153.575
155.24774	181.675
159.57429	220.375
163.89768	282.375
168.21792	361.875
172.53501	502.975
176.84895	699.975
181.15975	982.475
185.46741	1373.175
189.77193	1908.775
194.07331	2556.275
198.37157	3293.075
202.6667	4068.675
206.9587	4838.675
211.24758	5592.175
215.53334	6311.475
219.81599	7123.175
224.09553	7947.275
228.37195	8882.775
232.64527	9938.775
236.91549	11013.475
241.18261	12152.075
245.44663	13250.775
249.70755	14264.375
253.96539	15129.775
258.22014	15895.275
262.4718	16507.775
266.72039	16943.875
270.96589	17178.575
275.20832	17233.875
279.44768	17180.475
283.68397	17045.775
287.91719	16937.275
292.14735	16841.775
296.37445	16796.375
300.59849	16796.775
304.81948	16830.875
309.03742	16802.675
313.25231	16631.075
317.46415	16376.275
321.67296	16050.975
325.87872	15790.775
330.08145	15666.275
334.28114	15693.775
338.47781	15813.175
342.67145	15986.075
346.86207	16153.875
351.04966	16367.075
355.23424	16589.875
359.4158	16812.975
363.59435	16978.075
367.76989	17096.375
371.94243	17204.575
376.11196	17321.875
380.27849	17418.575
384.44203	17527.675
388.60257	17629.175
392.76012	17793.475
396.91468	18021.975
401.06626	18257.475
405.21485	18420.175
409.36047	18394.875
413.50311	18302.275
417.64277	18151.575
421.77947	18242.575
425.9132	18344.575
430.04396	18446.975
434.17176	18512.075
438.2966	18612.875
442.41849	18774.875
446.53742	19100.175
450.6534	19434.975
454.76644	19725.475
458.87653	19876.675
462.98368	19864.575
467.08789	19788.475
471.18916	19677.875
475.2875	19586.475
479.38291	19530.475
483.4754	19478.975
487.56496	19308.875
491.6516	19017.175
495.73531	18796.675
499.81612	18645.375
503.89401	18697.775
507.96899	18818.075
512.04106	18790.575
516.11023	18722.675
520.1765	18592.275
524.23987	18491.375
528.30034	18349.175
532.35792	18235.975
536.41261	18119.675
540.46441	18009.275
544.51333	18062.975
548.55936	18258.175
552.60252	18560.475
556.64279	18840.675
560.6802	19021.975
564.71473	19188.975
568.7464	19397.475
572.7752	19831.275
576.80114	20337.175
580.82422	20760.675
584.84444	21183.475
588.86181	21663.175
592.87633	22004.575
596.888	21838.175
600.89682	21253.975
604.9028	21190.775
608.90594	21911.375
612.90624	22746.875
616.90371	21671.975
620.89834	19440.675
624.89015	18546.775
628.87913	18473.575
632.86528	18598.875
636.84862	18657.375
640.82913	18461.975
644.80683	18209.175
648.78172	18030.375
652.75379	18046.775
656.72306	18125.575
660.68952	18266.775
664.65319	18220.375
668.61405	18057.875
672.57211	18048.075
676.52738	18087.775
680.47986	18154.475
684.42955	18057.275
688.37646	18023.775
692.32058	18069.375
696.26192	18229.875
700.20048	18383.675
704.13626	18535.475
708.06928	18562.675
711.99952	18513.975
715.927	18485.075
719.85171	18484.975
723.77365	18435.075
727.69284	18272.475
731.60928	18102.775
735.52295	17990.275
739.43388	17978.575
743.34206	18053.475
747.24749	18122.875
751.15017	18268.075
755.05012	18482.875
758.94733	18849.675
762.8418	19456.975
766.73354	20279.975
770.62254	21068.975
774.50882	21199.675
778.39237	20559.975
782.27321	19562.875
786.15132	18803.075
790.02671	18327.575
793.89938	18049.475
797.76935	17957.875
801.6366	17904.875
805.50115	17876.875
809.36299	17812.075
813.22213	17756.575
817.07857	17724.875
820.93231	17707.175
824.78336	17630.075
828.63172	17608.875
832.47738	17609.875
836.32036	17537.275
840.16066	17535.375
843.99827	17549.775
847.8332	17532.675
851.66546	17562.375
855.49504	17598.875
859.32195	17591.975
863.1462	17575.675
866.96777	17534.175
870.78668	17551.975
874.60293	17565.175
878.41652	17578.875
882.22745	17579.875
886.03573	17589.075
889.84136	17595.775
893.64433	17604.475
897.44466	17554.075
901.24235	17544.775
905.0374	17494.175
908.8298	17476.675
912.61957	17499.275
916.40671	17652.875
920.19121	17802.275
923.97308	17901.675
927.75233	17812.575
931.52895	17629.075
935.30295	17489.775
939.07433	17275.075
942.84309	17142.175
946.60924	17025.175
950.37278	17015.475
954.13371	16984.175
957.89203	16963.075
961.64774	16965.175
965.40086	16963.275
969.15137	16897.375
972.89929	16846.275
976.64461	16800.675
980.38733	16773.275
984.12747	16779.875
987.86502	16848.575
991.59999	16883.375
995.33237	16966.175
999.06217	17111.975
1002.78939	17279.375
1006.51404	17432.475
1010.23611	17649.575
1013.95561	17758.975
1017.67255	17786.675
1021.38692	17743.875
1025.09872	17593.275
1028.80796	17439.975
1032.51465	17404.875
1036.21877	17446.375
1039.92035	17477.875
1043.61937	17517.575
1047.31584	17599.375
1051.00976	17611.675
1054.70114	17690.075
1058.38998	17769.575
1062.07627	17924.975
1065.76003	18088.175
1069.44126	18243.375
1073.11995	18410.275
1076.79611	18574.775
1080.46974	18616.275
1084.14085	18681.175
1087.80943	18765.575
1091.47549	18881.575
1095.13903	18916.075
1098.80005	18779.475
1102.45857	18493.275
1106.11456	18250.775
1109.76805	18098.975
1113.41903	18100.975
1117.06751	18110.575
1120.71348	18237.875
1124.35696	18351.575
1127.99793	18543.175
1131.63641	18638.275
1135.2724	18589.675
1138.90589	18543.475
1142.5369	18573.875
1146.16542	18698.175
1149.79145	18807.375
1153.415	18919.675
1157.03607	19137.575
1160.65467	19493.975
1164.27079	20153.275
1167.88443	20900.075
1171.49561	21615.975
1175.10432	22500.275
1178.71056	23580.275
1182.31434	24615.675
1185.91565	25191.275
1189.51451	25234.175
1193.11091	24965.375
1196.70485	24425.575
1200.29634	23792.475
1203.88538	23382.675
1207.47197	23161.175
1211.05612	22985.875
1214.63782	22614.175
1218.21708	22050.775
1221.79391	21442.975
1225.36829	20992.075
1228.94024	20734.175
1232.50976	20591.075
1236.07685	20461.475
1239.6415	20456.175
1243.20374	20488.675
1246.76355	20634.775
1250.32093	20850.875
1253.8759	21129.575
1257.42845	21526.975
1260.97859	21920.575
1264.52631	22322.375
1268.07163	22749.775
1271.61453	23150.575
1275.15503	23554.975
1278.69312	24067.975
1282.22882	24548.875
1285.76211	25137.375
1289.29301	25920.975
1292.82151	26901.975
1296.34761	28051.875
1299.87133	29340.075
1303.39266	30483.575
1306.9116	31448.875
1310.42815	32104.875
1313.94233	32421.475
1317.45412	32310.975
1320.96354	32056.275
1324.47058	31935.075
1327.97525	31905.875
1331.47754	31851.075
1334.97747	31806.375
1338.47502	31716.275
1341.97022	31570.175
1345.46305	31373.275
1348.95352	31135.575
1352.44163	30965.775
1355.92738	31037.375
1359.41078	31502.275
1362.89183	31862.675
1366.37053	31306.875
1369.84688	29476.475
1373.32088	27251.775
1376.79254	25654.375
1380.26186	25143.175
1383.72883	25219.275
1387.19347	25251.175
1390.65578	25123.875
1394.11575	25069.275
1397.57339	25154.775
1401.0287	25366.675
1404.48168	25504.875
1407.93234	25369.575
1411.38068	24830.375
1414.82669	24101.475
1418.27039	23227.775
1421.71177	22445.975
1425.15083	21833.175
1428.58758	21514.575
1432.02203	21632.875
1435.45416	22050.175
1438.88399	22588.075
1442.31151	22972.675
1445.73673	23272.675
1449.15965	23447.275
1452.58027	23527.175
1455.9986	23633.675
1459.41463	23756.775
1462.82837	24003.775
1466.23982	24271.175
1469.64898	24571.775
1473.05586	24727.275
1476.46045	24708.075
1479.86276	24606.475
1483.26279	24376.075
1486.66054	24258.075
1490.05602	24351.275
1493.44922	24495.075
1496.84016	24802.375
1500.22882	25250.475
1503.61521	25896.575
1506.99934	26637.575
1510.38121	27189.075
1513.76081	27309.575
1517.13816	27028.275
1520.51324	26530.675
1523.88607	26250.275
1527.25665	26123.575
1530.62498	26187.075
1533.99105	26033.375
1537.35488	25707.375
1540.71647	25227.475
1544.07581	24609.175
1547.4329	24019.975
1550.78776	23482.475
1554.14038	23157.775
1557.49077	22951.375
1560.83892	22870.075
1564.18484	22818.875
1567.52853	22889.875
1570.86999	23090.975
1574.20922	23500.875
1577.54624	23841.375
1580.88103	24075.875
1584.2136	24220.275
1587.54395	24627.375
1590.87208	25362.775
1594.19801	26304.975
1597.52172	27115.975
1600.84321	27171.175
1604.16251	26183.075
1607.47959	24740.275
1610.79447	23220.975
1614.10715	21859.075
1617.41763	20709.675
1620.7259	19837.475
1624.03199	19358.575
1627.33587	19357.375
1630.63757	19741.275
1633.93707	20601.275
1637.23439	22045.975
1640.52951	24211.875
1643.82246	26691.775
1647.11321	28559.875
1650.40179	28910.775
1653.68819	27312.475
1656.97241	24493.875
1660.25446	21700.775
1663.53433	19638.675
1666.81203	18228.375
1670.08756	17306.375
1673.36092	16732.475
1676.63211	16369.475
1679.90115	16123.775
1683.16801	15894.775
1686.43272	15769.875
1689.69527	15649.375
1692.95567	15569.675
1696.2139	15492.775
1699.46999	15452.275
1702.72392	15405.975
1705.97571	15348.075
1709.22535	15301.875
1712.47284	15254.275
1715.71819	15243.475
1718.96139	15203.075
1722.20246	15231.475
1725.44139	15149.275
1728.67818	15032.375
1731.91284	14972.775
1735.14537	14926.675
1738.37576	14846.575
1741.60403	14821.875
1744.83017	14772.475
1748.05418	14748.075
1751.27607	14725.075
1754.49584	14729.975
1757.71349	14728.875
1760.92903	14677.875
1764.14244	14674.175
1767.35375	14657.975
1770.56294	14631.075
1773.77002	14611.275
1776.97499	14566.975
1780.17785	14556.075
1783.37861	14522.375
1786.57727	14472.775
1789.77382	14441.275
1792.96828	14413.975
1796.16064	14385.875
1799.3509	14356.175
1802.53907	14343.275
1805.72514	14290.475
1808.90913	14257.475
1812.09102	14236.975
1815.27083	14187.875
1818.44856	14212.275
1821.6242	14177.575
1824.79776	14140.175
1827.96924	14165.975
1831.13864	14100.275
1834.30597	14125.575
1837.47122	14133.675
1840.6344	14089.875
1843.7955	14105.075
1846.95454	14066.975
1850.11151	14049.975
1853.26642	14067.275
1856.41926	14027.775
1859.57004	14065.075
1862.71876	13994.875
1865.86542	13974.775
1869.01003	13969.675
1872.15258	13927.475
1875.29308	13957.375
1878.43152	13910.475
1881.56792	13892.375
1884.70227	13903.475
1887.83457	13852.775
1890.96482	13839.175
1894.09304	13803.875
1897.21921	13768.575
1900.34335	13770.075
1903.46544	13764.975
1906.58551	13727.375
1909.70353	13725.475
1912.81953	13688.975
1915.93349	13677.575
1919.04543	13625.075
1922.15534	13603.775
1925.26322	13581.375
1928.36908	13545.075
1931.47292	13523.375
1934.57473	13527.675
1937.67453	13489.175
1940.77232	13448.475
1943.86808	13404.375
1946.96184	13351.475
1950.05358	13333.075
1953.14331	13314.875
1956.23103	13265.675
1959.31675	13206.875
1962.40046	13162.275
1965.48217	13099.775
1968.56188	13072.075
1971.63959	13034.175
1974.7153	12996.675
1977.78901	12982.775
1980.86073	12953.175
1983.93046	12876.175
1986.99819	12859.975
1990.06394	12830.575
1993.1277	12803.775
1996.18947	12760.575
1999.24925	12730.475
2002.30706	12687.575
2005.36288	12635.275
2008.41672	12582.075
2011.46859	12599.875
2014.51848	12542.675
2017.56639	12509.875
2020.61233	12486.375
2023.6563	12438.275
2026.6983	12407.175
2029.73833	12358.775
2032.7764	12350.575
2035.8125	12320.375
2038.84664	12280.375
2041.87881	12246.975
2044.90903	12205.275
2047.93729	12194.175
2050.96359	12176.375
2053.98794	12164.375
2057.01034	12154.975
2060.03078	12156.975
2063.04927	12111.175
2066.06582	12128.775
2069.08042	12114.975
2072.09307	12088.575
2075.10378	12086.475
2078.11255	12078.075
2081.11938	12074.675
2084.12426	12031.875
2087.12722	12048.175
2090.12824	12026.775
2093.12732	12041.875
2096.12447	12052.675
2099.11969	12031.475
2102.11299	12044.275
2105.10435	12058.075
2108.09379	12078.275
2111.08131	12067.275
2114.0669	12065.675
2117.05057	12054.975
2120.03233	12059.575
2123.01216	12071.975
2125.99008	12102.875
2128.96609	12101.375
2131.94018	12114.775
2134.91236	12100.975
2137.88263	12120.075
2140.851	12119.575
2143.81746	12122.475
2146.78201	12103.175
2149.74466	12152.475
2152.7054	12105.875
2155.66425	12122.075
2158.6212	12124.675
2161.57625	12119.675
2164.52941	12101.875
2167.48067	12067.475
2170.43004	12078.075
2173.37752	12082.475
2176.32311	12089.675
2179.26681	12079.975
2182.20863	12047.475
2185.14856	12063.175
2188.08661	12058.775
2191.02278	12036.475
2193.95707	12050.375
2196.88948	12005.875
2199.82001	12035.275
2202.74867	12011.975
2205.67545	11992.275
2208.60037	11983.775
2211.52341	11955.375
2214.44458	11935.175
2217.36388	11933.375
2220.28132	11894.375
2223.1969	11882.075
2226.11061	11845.175
2229.02246	11833.875
2231.93245	11777.675
2234.84058	11762.375
2237.74686	11771.475
2240.65128	11759.575
2243.55385	11708.675
2246.45456	11693.375
2249.35343	11704.475
2252.25044	11659.475
2255.14561	11656.875
2258.03893	11632.975
2260.93041	11601.675
2263.82004	11575.175
2266.70783	11541.975
2269.59378	11510.875
2272.4779	11471.375
2275.36017	11427.675
2278.24061	11421.075
2281.11922	11389.775
2283.996	11391.075
2286.87094	11361.175
2289.74405	11376.175
2292.61534	11359.775
2295.4848	11328.275
2298.35243	11330.175
2301.21824	11297.875
2304.08223	11302.775
2306.94439	11305.575
2309.80474	11275.875
2312.66327	11280.775
2315.51999	11278.575
2318.37489	11268.275
2321.22797	11233.675
2324.07925	11199.075
2326.92871	11171.775
2329.77637	11172.875
2332.62222	11165.775
2335.46626	11163.875
2338.3085	11128.975
2341.14893	11119.975
2343.98756	11111.375
2346.8244	11093.775
2349.65943	11097.875
2352.49267	11074.575
2355.32411	11085.875
2358.15376	11105.075
2360.98161	11101.875
2363.80768	11073.575
2366.63195	11051.775
2369.45444	11054.375
2372.27514	11019.475
2375.09405	11031.975
2377.91118	11001.475
2380.72652	10952.075
2383.54009	10938.375
2386.35187	10916.175
2389.16188	10879.675
2391.97011	10852.275
2394.77657	10795.575
2397.58125	10819.275
2400.38416	10832.175
2403.18529	10801.475
2405.98466	10765.175
2408.78226	10769.075
2411.57809	10752.875
2414.37216	10743.975
2417.16446	10726.075
2419.955	10732.375
2422.74378	10717.075
2425.5308	10703.775
2428.31606	10697.675
2431.09956	10685.675
2433.88131	10679.475
2436.6613	10666.875
2439.43954	10662.275
2442.21603	10663.075
2444.99077	10622.275
2447.76377	10617.775
2450.53501	10610.675
2453.30451	10592.975
2456.07226	10566.775
2458.83827	10578.875
2461.60254	10566.975
2464.36507	10561.575
2467.12586	10557.675
2469.88492	10552.375
2472.64224	10525.375
2475.39782	10522.675
2478.15167	10537.375
2480.90379	10533.575
2483.65417	10521.475
2486.40283	10533.775
2489.14976	10531.875
2491.89497	10502.075
2494.63845	10530.775
2497.3802	10494.375
2500.12024	10503.375
2502.85855	10477.475
2505.59514	10461.675
2508.33002	10468.675
2511.06318	10457.075
2513.79462	10435.575
2516.52435	10404.175
2519.25237	10392.675
2521.97867	10372.175
2524.70327	10412.275
2527.42616	10384.575
2530.14734	10385.775
2532.86681	10366.875
2535.58458	10369.875
2538.30065	10352.775
2541.01501	10350.475
2543.72768	10333.375
2546.43864	10347.075
2549.14791	10326.975
2551.85548	10309.375
2554.56136	10269.475
2557.26554	10239.575
2559.96803	10232.275
2562.66883	10224.975
2565.36794	10186.975
2568.06536	10190.275
2570.7611	10174.975
2573.45514	10147.575
2576.14751	10134.575
2578.83819	10104.175
2581.52719	10100.675
2584.21451	10079.775
2586.90015	10096.975
2589.58411	10065.375
2592.2664	10067.275
2594.94701	10033.775
2597.62594	10029.175
2600.30321	9988.475
2602.9788	9991.375
2605.65273	9970.575
2608.32498	9984.575
2610.99557	9946.375
2613.66449	9934.675
2616.33175	9937.975
2618.99734	9940.175
2621.66128	9927.175
2624.32355	9919.875
2626.98416	9921.975
2629.64311	9887.475
2632.30041	9872.575
2634.95605	9849.175
2637.61004	9831.775
2640.26238	9822.075
2642.91306	9830.075
2645.56209	9825.875
2648.20948	9845.775
2650.85521	9821.275
2653.4993	9830.975
2656.14175	9820.275
2658.78255	9807.075
2661.42171	9807.775
2664.05923	9840.175
2666.6951	9843.775
2669.32934	9821.675
2671.96194	9816.175
2674.59291	9839.975
2677.22224	9815.475
2679.84993	9806.475
2682.476	9820.075
2685.10043	9811.775
2687.72324	9804.275
2690.34441	9802.175
2692.96396	9808.875
2695.58188	9779.375
2698.19818	9772.975
2700.81285	9805.275
2703.4259	9802.975
2706.03733	9797.775
2708.64714	9772.175
2711.25533	9791.575
2713.86191	9789.575
2716.46687	9799.675
2719.07021	9805.775
2721.67194	9800.175
2724.27206	9779.175
2726.87057	9829.175
2729.46747	9816.275
2732.06276	9828.275
2734.65644	9819.775
2737.24852	9812.775
2739.83899	9794.375
2742.42786	9785.975
2745.01513	9748.375
2747.60079	9714.975
2750.18486	9739.475
2752.76733	9717.775
2755.3482	9719.375
2757.92747	9713.475
2760.50515	9687.375
2763.08123	9696.775
2765.65573	9652.175
2768.22863	9656.075
2770.79994	9662.575
2773.36967	9684.075
2775.9378	9655.775
2778.50435	9650.875
2781.06932	9637.775
2783.6327	9638.375
2786.1945	9652.975
2788.75471	9604.775
2791.31335	9591.575
2793.87041	9578.775
2796.42589	9549.575
2798.97979	9538.275
2801.53212	9519.575
2804.08288	9517.675
2806.63206	9478.875
2809.17967	9478.175
2811.72571	9414.975
2814.27018	9436.075
2816.81308	9388.775
2819.35442	9392.975
2821.89419	9389.075
2824.43239	9354.875
2826.96904	9344.175
2829.50412	9344.775
2832.03763	9314.775
2834.56959	9311.875
2837.1	9307.675
2839.62884	9310.875
2842.15613	9298.375
2844.68186	9318.075
2847.20604	9340.375
2849.72867	9331.775
2852.24974	9308.875
2854.76927	9299.975
2857.28724	9276.275
2859.80367	9259.275
2862.31855	9252.875
2864.83189	9239.675
2867.34368	9220.275
2869.85393	9219.475
2872.36264	9213.775
2874.8698	9217.075
2877.37543	9184.075
2879.87952	9189.875
2882.38207	9190.475
2884.88308	9164.275
2887.38256	9173.975
2889.88051	9198.275
2892.37692	9163.775
2894.8718	9172.275
2897.36515	9158.775
2899.85698	9180.975
2902.34727	9183.975
2904.83604	9176.275
2907.32328	9196.975
2909.809	9211.175
2912.29319	9190.975
2914.77587	9182.875
2917.25702	9194.975
2919.73665	9183.975
2922.21476	9196.975
2924.69136	9177.775
2927.16644	9182.675
2929.64	9153.575
2932.11205	9135.275
2934.58258	9109.675
2937.05161	9109.975
2939.51912	9141.675
2941.98513	9119.875
2944.44962	9102.675
2946.91261	9041.075
2949.37409	9087.175
2951.83407	9042.775
2954.29254	9057.775
2956.74951	9026.775
2959.20498	9042.375
2961.65895	9032.575
2964.11142	9037.775
2966.56239	9008.075
2969.01186	9023.175
2971.45984	8992.575
2973.90632	8966.575
2976.35131	8975.775
2978.7948	8930.675
2981.23681	8919.375
2983.67732	8927.275
2986.11635	8898.775
2988.55388	8872.675
2990.98993	8879.675
2993.4245	8837.475
2995.85758	8812.275
2998.28917	8790.175
3000.71928	8766.175
3003.14791	8758.875
3005.57506	8749.775
3008.00073	8747.975
3010.42493	8721.675
3012.84764	8715.075
3015.26888	8695.875
3017.68865	8671.775
3020.10694	8654.475
3022.52376	8664.375
3024.9391	8619.875
3027.35298	8626.575
3029.76539	8605.675
3032.17632	8614.275
3034.5858	8622.775
3036.9938	8599.175
3039.40034	8587.775
3041.80542	8575.575
3044.20903	8549.475
3046.61118	8536.975
3049.01187	8559.875
3051.4111	8546.175
3053.80888	8517.375
3056.20519	8478.275
3058.60005	8467.075
3060.99345	8463.175
3063.3854	8435.675
3065.7759	8426.475
3068.16494	8418.875
3070.55254	8395.675
3072.93868	8384.275
3075.32338	8350.075
3077.70662	8324.875
3080.08842	8296.075
3082.46878	8315.675
3084.84769	8299.775
3087.22515	8287.375
3089.60118	8281.375
3091.97576	8286.175
3094.3489	8269.275
3096.72061	8256.975
3099.09087	8290.675
3101.4597	8274.275
3103.82709	8262.075
3106.19305	8252.375
3108.55757	8254.275
3110.92066	8236.075
3113.28232	8230.575
3115.64255	8218.475
3118.00134	8185.475
3120.35871	8200.975
3122.71466	8163.775
3125.06917	8147.975
3127.42226	8110.975
3129.77393	8133.775
3132.12417	8109.775
3134.47299	8111.775
3136.82039	8096.375
3139.16636	8121.975
3141.51092	8118.275
3143.85406	8116.175
3146.19579	8095.075
3148.53609	8095.075
3150.87499	8099.375
3153.21246	8097.475
