Data from AgNP_FTO_APTES_UA_10uM_CRN_2uM_R6G_10uM_NaF_0.1M_Addition_RamanShift__16__14-15-30-597.txt Node

Date: Thu Feb 10 14:15:30 GMT 2022
User: TCL
Spectrometer: QEP01345
Trigger mode: 4
Integration Time (sec): 7.000000E0
Scans to average: 10
Electric dark correction enabled: true
Nonlinearity correction enabled: false
Boxcar width: 0
XAxis mode: Raman Shifts
Number of Pixels in Spectrum: 1044
>>>>>Begin Spectral Data<<<<<
46.04893	1.2125
50.45542	-2.1875
54.85868	-1.0875
59.25871	-1.0875
63.6555	70.9125
68.04907	70.4125
72.43941	78.1125
76.82654	76.6125
81.21044	81.8125
85.59113	81.2125
89.96862	86.0125
94.34289	90.2125
98.71396	91.8125
103.08183	97.9125
107.4465	103.8125
111.80798	97.2125
116.16626	105.0125
120.52136	107.4125
124.87327	114.4125
129.222	114.7125
133.56755	128.1125
137.90993	136.4125
142.24913	149.7125
146.58517	168.3125
150.91804	199.1125
155.24774	235.6125
159.57429	292.1125
163.89768	372.9125
168.21792	497.1125
172.53501	684.5125
176.84895	949.0125
181.15975	1343.7125
185.46741	1887.4125
189.77193	2625.8125
194.07331	3501.9125
198.37157	4511.2125
202.6667	5591.9125
206.9587	6641.8125
211.24758	7695.8125
215.53334	8749.2125
219.81599	9842.3125
224.09553	11068.6125
228.37195	12386.1125
232.64527	13852.0125
236.91549	15418.4125
241.18261	16964.9125
245.44663	18391.2125
249.70755	19626.8125
253.96539	20791.5125
258.22014	21731.2125
262.4718	22507.9125
266.72039	23062.8125
270.96589	23333.0125
275.20832	23447.9125
279.44768	23349.2125
283.68397	23130.9125
287.91719	22923.9125
292.14735	22896.0125
296.37445	22900.8125
300.59849	23006.4125
304.81948	23164.8125
309.03742	23215.2125
313.25231	22986.6125
317.46415	22462.6125
321.67296	21749.6125
325.87872	21147.1125
330.08145	20919.0125
334.28114	20893.0125
338.47781	21050.1125
342.67145	21374.8125
346.86207	21743.6125
351.04966	22151.3125
355.23424	22626.9125
359.4158	23021.2125
363.59435	23283.9125
367.76989	23523.4125
371.94243	23611.3125
376.11196	23649.0125
380.27849	23722.3125
384.44203	23765.4125
388.60257	23916.1125
392.76012	24100.4125
396.91468	24333.8125
401.06626	24750.5125
405.21485	24928.9125
409.36047	24803.0125
413.50311	24326.8125
417.64277	23968.7125
421.77947	23814.3125
425.9132	23830.8125
430.04396	23889.2125
434.17176	24007.2125
438.2966	24093.4125
442.41849	24374.8125
446.53742	24873.6125
450.6534	25363.9125
454.76644	25736.7125
458.87653	25912.4125
462.98368	25904.9125
467.08789	25833.9125
471.18916	25651.1125
475.2875	25444.7125
479.38291	25269.2125
483.4754	25146.0125
487.56496	24893.9125
491.6516	24612.0125
495.73531	24308.0125
499.81612	24128.3125
503.89401	24220.1125
507.96899	24331.7125
512.04106	24421.3125
516.11023	24422.9125
520.1765	24282.1125
524.23987	24115.9125
528.30034	23874.6125
532.35792	23677.9125
536.41261	23410.3125
540.46441	23192.4125
544.51333	23203.3125
548.55936	23508.3125
552.60252	23931.4125
556.64279	24429.8125
560.6802	24790.4125
564.71473	25006.8125
568.7464	25398.6125
572.7752	26003.2125
576.80114	26481.8125
580.82422	26821.7125
584.84444	27147.7125
588.86181	27359.4125
592.87633	27424.5125
596.888	27165.8125
600.89682	27012.2125
604.9028	27716.1125
608.90594	30197.7125
612.90624	32997.6125
616.90371	31231.4125
620.89834	26271.3125
624.89015	24057.6125
628.87913	23732.7125
632.86528	23911.4125
636.84862	24111.2125
640.82913	23839.2125
644.80683	23298.8125
648.78172	22856.8125
652.75379	22834.6125
656.72306	23082.2125
660.68952	23467.4125
664.65319	23398.6125
668.61405	22980.4125
672.57211	22922.0125
676.52738	22936.6125
680.47986	22918.3125
684.42955	22749.4125
688.37646	22653.9125
692.32058	22760.1125
696.26192	22995.6125
700.20048	23274.2125
704.13626	23430.5125
708.06928	23452.4125
711.99952	23375.3125
715.927	23252.6125
719.85171	23254.7125
723.77365	23236.2125
727.69284	22961.4125
731.60928	22724.3125
735.52295	22598.1125
739.43388	22587.6125
743.34206	22616.5125
747.24749	22713.0125
751.15017	22881.2125
755.05012	23221.5125
758.94733	23883.5125
762.8418	25066.5125
766.73354	26946.1125
770.62254	28709.4125
774.50882	29184.5125
778.39237	28033.5125
782.27321	26123.2125
786.15132	24565.8125
790.02671	23531.1125
793.89938	22990.6125
797.76935	22712.8125
801.6366	22634.1125
805.50115	22514.3125
809.36299	22419.4125
813.22213	22292.1125
817.07857	22227.6125
820.93231	22208.9125
824.78336	22146.4125
828.63172	22066.6125
832.47738	22024.3125
836.32036	22004.6125
840.16066	21955.7125
843.99827	21950.2125
847.8332	21940.4125
851.66546	21951.6125
855.49504	21993.2125
859.32195	21994.1125
863.1462	21951.3125
866.96777	21910.5125
870.78668	21889.2125
874.60293	21958.2125
878.41652	21944.9125
882.22745	22003.4125
886.03573	22040.5125
889.84136	22023.5125
893.64433	22046.2125
897.44466	21982.3125
901.24235	21930.2125
905.0374	21854.4125
908.8298	21789.3125
912.61957	21803.9125
916.40671	21909.3125
920.19121	22088.6125
923.97308	22273.0125
927.75233	22286.7125
931.52895	22162.3125
935.30295	21938.5125
939.07433	21589.4125
942.84309	21317.4125
946.60924	21115.0125
950.37278	21045.6125
954.13371	21068.8125
957.89203	21012.4125
961.64774	20942.3125
965.40086	20957.8125
969.15137	20953.2125
972.89929	20889.9125
976.64461	20868.9125
980.38733	20820.1125
984.12747	20847.1125
987.86502	20941.6125
991.59999	21045.3125
995.33237	21192.6125
999.06217	21412.5125
1002.78939	21719.4125
1006.51404	22002.7125
1010.23611	22300.4125
1013.95561	22499.0125
1017.67255	22538.4125
1021.38692	22427.8125
1025.09872	22162.2125
1028.80796	21984.4125
1032.51465	21969.3125
1036.21877	22082.6125
1039.92035	22186.5125
1043.61937	22222.3125
1047.31584	22216.8125
1051.00976	22181.8125
1054.70114	22224.4125
1058.38998	22347.9125
1062.07627	22509.6125
1065.76003	22747.2125
1069.44126	23021.5125
1073.11995	23284.7125
1076.79611	23634.4125
1080.46974	23797.8125
1084.14085	23964.2125
1087.80943	24197.5125
1091.47549	24415.8125
1095.13903	24408.0125
1098.80005	24196.9125
1102.45857	23740.6125
1106.11456	23375.6125
1109.76805	23180.0125
1113.41903	23142.6125
1117.06751	23252.6125
1120.71348	23523.9125
1124.35696	23806.9125
1127.99793	24135.9125
1131.63641	24247.5125
1135.2724	24083.9125
1138.90589	23877.4125
1142.5369	23741.0125
1146.16542	23685.3125
1149.79145	23689.9125
1153.415	23832.0125
1157.03607	24146.4125
1160.65467	24659.7125
1164.27079	25484.1125
1167.88443	26599.8125
1171.49561	27961.7125
1175.10432	29775.5125
1178.71056	32028.3125
1182.31434	34126.6125
1185.91565	35328.0125
1189.51451	35534.0125
1193.11091	34876.0125
1196.70485	33653.1125
1200.29634	32263.1125
1203.88538	31108.7125
1207.47197	30202.3125
1211.05612	29507.7125
1214.63782	28830.5125
1218.21708	28202.0125
1221.79391	27606.3125
1225.36829	27236.1125
1228.94024	26947.3125
1232.50976	26751.1125
1236.07685	26614.3125
1239.6415	26562.4125
1243.20374	26531.7125
1246.76355	26613.9125
1250.32093	26883.5125
1253.8759	27298.7125
1257.42845	27925.0125
1260.97859	28661.9125
1264.52631	29432.7125
1268.07163	30175.2125
1271.61453	30858.3125
1275.15503	31405.8125
1278.69312	31995.3125
1282.22882	32535.9125
1285.76211	33256.0125
1289.29301	34198.6125
1292.82151	35328.5125
1296.34761	36655.6125
1299.87133	38321.5125
1303.39266	40194.3125
1306.9116	42229.8125
1310.42815	44017.8125
1313.94233	45073.7125
1317.45412	44898.5125
1320.96354	44271.0125
1324.47058	43728.5125
1327.97525	43198.4125
1331.47754	42883.1125
1334.97747	42789.2125
1338.47502	42855.0125
1341.97022	43046.9125
1345.46305	43334.4125
1348.95352	43553.7125
1352.44163	43493.5125
1355.92738	43702.5125
1359.41078	44786.5125
1362.89183	45980.5125
1366.37053	44928.2125
1369.84688	41274.6125
1373.32088	37230.5125
1376.79254	34507.4125
1380.26186	33374.8125
1383.72883	32948.8125
1387.19347	32831.3125
1390.65578	32537.3125
1394.11575	32317.1125
1397.57339	32248.2125
1401.0287	32363.7125
1404.48168	32480.3125
1407.93234	32301.8125
1411.38068	31839.6125
1414.82669	31044.1125
1418.27039	30076.0125
1421.71177	29182.7125
1425.15083	28510.5125
1428.58758	28086.4125
1432.02203	28283.9125
1435.45416	28808.5125
1438.88399	29353.9125
1442.31151	29816.2125
1445.73673	30217.1125
1449.15965	30517.5125
1452.58027	30736.2125
1455.9986	30945.4125
1459.41463	31205.7125
1462.82837	31539.7125
1466.23982	31925.9125
1469.64898	32272.5125
1473.05586	32481.0125
1476.46045	32484.6125
1479.86276	32373.0125
1483.26279	32217.9125
1486.66054	32324.2125
1490.05602	32677.5125
1493.44922	33304.6125
1496.84016	34257.5125
1500.22882	35851.8125
1503.61521	37896.2125
1506.99934	40082.5125
1510.38121	41649.2125
1513.76081	41771.3125
1517.13816	40391.7125
1520.51324	38219.4125
1523.88607	36239.3125
1527.25665	35069.7125
1530.62498	34514.7125
1533.99105	34155.2125
1537.35488	33692.6125
1540.71647	33034.7125
1544.07581	32282.7125
1547.4329	31584.3125
1550.78776	31031.2125
1554.14038	30813.6125
1557.49077	30666.7125
1560.83892	30759.0125
1564.18484	30885.2125
1567.52853	31142.8125
1570.86999	31422.1125
1574.20922	31899.5125
1577.54624	32184.6125
1580.88103	31950.9125
1584.2136	31639.8125
1587.54395	31737.6125
1590.87208	32361.0125
1594.19801	33544.5125
1597.52172	34868.1125
1600.84321	35169.7125
1604.16251	34130.8125
1607.47959	32478.3125
1610.79447	30502.5125
1614.10715	28524.4125
1617.41763	26696.5125
1620.7259	25386.3125
1624.03199	24579.4125
1627.33587	24463.5125
1630.63757	24942.9125
1633.93707	26215.6125
1637.23439	28287.3125
1640.52951	31317.8125
1643.82246	34882.3125
1647.11321	37879.9125
1650.40179	38970.8125
1653.68819	37075.6125
1656.97241	32918.2125
1660.25446	28591.8125
1663.53433	25285.3125
1666.81203	23132.1125
1670.08756	21753.2125
1673.36092	20902.7125
1676.63211	20342.9125
1679.90115	19974.8125
1683.16801	19673.0125
1686.43272	19446.1125
1689.69527	19278.4125
1692.95567	19143.8125
1696.2139	19037.2125
1699.46999	18992.4125
1702.72392	18966.2125
1705.97571	18875.5125
1709.22535	18828.4125
1712.47284	18768.1125
1715.71819	18747.1125
1718.96139	18708.3125
1722.20246	18646.6125
1725.44139	18565.7125
1728.67818	18447.8125
1731.91284	18328.5125
1735.14537	18272.4125
1738.37576	18158.0125
1741.60403	18095.4125
1744.83017	18006.0125
1748.05418	17981.3125
1751.27607	17933.6125
1754.49584	17908.7125
1757.71349	17930.1125
1760.92903	17870.9125
1764.14244	17864.7125
1767.35375	17824.2125
1770.56294	17799.7125
1773.77002	17771.9125
1776.97499	17712.0125
1780.17785	17645.2125
1783.37861	17654.6125
1786.57727	17619.3125
1789.77382	17543.3125
1792.96828	17516.4125
1796.16064	17477.2125
1799.3509	17458.5125
1802.53907	17455.9125
1805.72514	17384.1125
1808.90913	17324.9125
1812.09102	17294.2125
1815.27083	17259.9125
1818.44856	17246.7125
1821.6242	17173.6125
1824.79776	17174.6125
1827.96924	17159.1125
1831.13864	17155.8125
1834.30597	17151.3125
1837.47122	17124.6125
1840.6344	17108.6125
1843.7955	17126.9125
1846.95454	17110.6125
1850.11151	17059.1125
1853.26642	17050.7125
1856.41926	17086.6125
1859.57004	17092.5125
1862.71876	17020.3125
1865.86542	16982.3125
1869.01003	16996.4125
1872.15258	16946.9125
1875.29308	16916.5125
1878.43152	16901.7125
1881.56792	16854.7125
1884.70227	16845.3125
1887.83457	16778.6125
1890.96482	16773.8125
1894.09304	16727.2125
1897.21921	16685.1125
1900.34335	16702.0125
1903.46544	16627.5125
1906.58551	16624.3125
1909.70353	16560.2125
1912.81953	16582.4125
1915.93349	16560.3125
1919.04543	16524.1125
1922.15534	16474.5125
1925.26322	16424.4125
1928.36908	16439.6125
1931.47292	16405.9125
1934.57473	16348.3125
1937.67453	16307.7125
1940.77232	16262.2125
1943.86808	16198.6125
1946.96184	16151.9125
1950.05358	16109.3125
1953.14331	16020.6125
1956.23103	16005.0125
1959.31675	15962.6125
1962.40046	15882.3125
1965.48217	15871.7125
1968.56188	15797.8125
1971.63959	15751.4125
1974.7153	15694.5125
1977.78901	15687.0125
1980.86073	15602.2125
1983.93046	15572.1125
1986.99819	15510.5125
1990.06394	15494.3125
1993.1277	15433.7125
1996.18947	15396.2125
1999.24925	15317.8125
2002.30706	15256.6125
2005.36288	15185.9125
2008.41672	15148.8125
2011.46859	15118.8125
2014.51848	15092.9125
2017.56639	15073.1125
2020.61233	15000.5125
2023.6563	14970.4125
2026.6983	14962.1125
2029.73833	14892.1125
2032.7764	14876.2125
2035.8125	14821.0125
2038.84664	14777.6125
2041.87881	14718.7125
2044.90903	14694.3125
2047.93729	14652.7125
2050.96359	14672.6125
2053.98794	14655.0125
2057.01034	14634.1125
2060.03078	14594.6125
2063.04927	14584.8125
2066.06582	14581.8125
2069.08042	14605.9125
2072.09307	14573.2125
2075.10378	14578.8125
2078.11255	14544.6125
2081.11938	14518.1125
2084.12426	14508.9125
2087.12722	14527.1125
2090.12824	14482.8125
2093.12732	14511.0125
2096.12447	14486.3125
2099.11969	14472.5125
2102.11299	14483.9125
2105.10435	14500.9125
2108.09379	14501.5125
2111.08131	14515.2125
2114.0669	14495.9125
2117.05057	14514.4125
2120.03233	14538.3125
2123.01216	14529.7125
2125.99008	14580.6125
2128.96609	14545.1125
2131.94018	14567.9125
2134.91236	14563.5125
2137.88263	14573.2125
2140.851	14536.2125
2143.81746	14610.5125
2146.78201	14573.5125
2149.74466	14593.8125
2152.7054	14576.8125
2155.66425	14549.0125
2158.6212	14544.7125
2161.57625	14530.8125
2164.52941	14515.8125
2167.48067	14503.0125
2170.43004	14533.5125
2173.37752	14486.4125
2176.32311	14454.3125
2179.26681	14472.0125
2182.20863	14462.6125
2185.14856	14476.2125
2188.08661	14464.5125
2191.02278	14485.1125
2193.95707	14472.8125
2196.88948	14454.1125
2199.82001	14421.2125
2202.74867	14407.8125
2205.67545	14378.3125
2208.60037	14357.6125
2211.52341	14336.5125
2214.44458	14314.4125
2217.36388	14307.2125
2220.28132	14291.0125
2223.1969	14221.9125
2226.11061	14211.4125
2229.02246	14204.0125
2231.93245	14132.6125
2234.84058	14083.1125
2237.74686	14062.2125
2240.65128	14094.0125
2243.55385	14065.1125
2246.45456	14040.7125
2249.35343	14017.2125
2252.25044	13999.3125
2255.14561	13978.8125
2258.03893	13976.5125
2260.93041	13911.2125
2263.82004	13894.4125
2266.70783	13858.4125
2269.59378	13779.4125
2272.4779	13768.6125
2275.36017	13763.8125
2278.24061	13706.4125
2281.11922	13699.4125
2283.996	13652.2125
2286.87094	13637.7125
2289.74405	13649.7125
2292.61534	13597.4125
2295.4848	13590.1125
2298.35243	13599.6125
2301.21824	13591.5125
2304.08223	13538.6125
2306.94439	13541.2125
2309.80474	13512.4125
2312.66327	13507.7125
2315.51999	13510.8125
2318.37489	13512.4125
2321.22797	13472.8125
2324.07925	13456.2125
2326.92871	13439.8125
2329.77637	13438.2125
2332.62222	13395.1125
2335.46626	13398.5125
2338.3085	13380.0125
2341.14893	13391.7125
2343.98756	13349.8125
2346.8244	13360.5125
2349.65943	13311.8125
2352.49267	13331.0125
2355.32411	13316.7125
2358.15376	13327.5125
2360.98161	13313.5125
2363.80768	13303.1125
2366.63195	13326.9125
2369.45444	13314.7125
2372.27514	13251.5125
2375.09405	13244.0125
2377.91118	13223.4125
2380.72652	13209.4125
2383.54009	13153.8125
2386.35187	13143.4125
2389.16188	13089.9125
2391.97011	13032.3125
2394.77657	13026.0125
2397.58125	13012.6125
2400.38416	13007.6125
2403.18529	12951.6125
2405.98466	12960.7125
2408.78226	12923.1125
2411.57809	12920.4125
2414.37216	12898.4125
2417.16446	12894.9125
2419.955	12842.3125
2422.74378	12844.7125
2425.5308	12825.4125
2428.31606	12862.7125
2431.09956	12847.2125
2433.88131	12817.7125
2436.6613	12806.9125
2439.43954	12802.1125
2442.21603	12833.6125
2444.99077	12795.7125
2447.76377	12767.3125
2450.53501	12737.3125
2453.30451	12752.8125
2456.07226	12717.4125
2458.83827	12735.7125
2461.60254	12696.5125
2464.36507	12701.2125
2467.12586	12704.7125
2469.88492	12684.1125
2472.64224	12680.0125
2475.39782	12700.5125
2478.15167	12700.8125
2480.90379	12686.0125
2483.65417	12696.6125
2486.40283	12688.9125
2489.14976	12689.5125
2491.89497	12649.8125
2494.63845	12669.0125
2497.3802	12648.5125
2500.12024	12665.4125
2502.85855	12630.1125
2505.59514	12604.0125
2508.33002	12583.8125
2511.06318	12571.7125
2513.79462	12552.5125
2516.52435	12530.5125
2519.25237	12547.3125
2521.97867	12504.2125
2524.70327	12505.5125
2527.42616	12463.2125
2530.14734	12479.8125
2532.86681	12436.9125
2535.58458	12435.1125
2538.30065	12449.3125
2541.01501	12409.6125
2543.72768	12402.9125
2546.43864	12364.7125
2549.14791	12376.5125
2551.85548	12377.2125
2554.56136	12342.6125
2557.26554	12330.5125
2559.96803	12296.7125
2562.66883	12273.4125
2565.36794	12272.4125
2568.06536	12269.4125
2570.7611	12216.1125
2573.45514	12196.6125
2576.14751	12177.6125
2578.83819	12166.6125
2581.52719	12134.5125
2584.21451	12126.8125
2586.90015	12124.0125
2589.58411	12113.4125
2592.2664	12082.8125
2594.94701	12077.4125
2597.62594	12055.1125
2600.30321	12011.8125
2602.9788	12017.7125
2605.65273	12011.6125
2608.32498	12011.2125
2610.99557	11993.7125
2613.66449	12000.5125
2616.33175	11946.3125
2618.99734	11949.9125
2621.66128	11951.2125
2624.32355	11912.8125
2626.98416	11918.6125
2629.64311	11879.9125
2632.30041	11867.6125
2634.95605	11866.0125
2637.61004	11867.5125
2640.26238	11854.2125
2642.91306	11820.8125
2645.56209	11828.0125
2648.20948	11829.8125
2650.85521	11798.4125
2653.4993	11821.3125
2656.14175	11797.9125
2658.78255	11812.7125
2661.42171	11810.0125
2664.05923	11849.0125
2666.6951	11842.6125
2669.32934	11836.0125
2671.96194	11823.4125
2674.59291	11844.2125
2677.22224	11828.5125
2679.84993	11801.9125
2682.476	11831.9125
2685.10043	11829.5125
2687.72324	11807.8125
2690.34441	11800.6125
2692.96396	11803.6125
2695.58188	11828.2125
2698.19818	11787.8125
2700.81285	11816.2125
2703.4259	11782.5125
2706.03733	11805.1125
2708.64714	11770.2125
2711.25533	11812.3125
2713.86191	11796.7125
2716.46687	11844.0125
2719.07021	11817.2125
2721.67194	11859.2125
2724.27206	11840.5125
2726.87057	11820.2125
2729.46747	11825.5125
2732.06276	11809.9125
2734.65644	11822.5125
2737.24852	11815.2125
2739.83899	11819.0125
2742.42786	11818.6125
2745.01513	11752.4125
2747.60079	11747.1125
2750.18486	11718.3125
2752.76733	11711.1125
2755.3482	11688.6125
2757.92747	11675.1125
2760.50515	11661.3125
2763.08123	11672.4125
2765.65573	11626.7125
2768.22863	11652.8125
2770.79994	11623.4125
2773.36967	11607.6125
2775.9378	11610.8125
2778.50435	11606.8125
2781.06932	11602.4125
2783.6327	11621.0125
2786.1945	11582.8125
2788.75471	11577.4125
2791.31335	11530.3125
2793.87041	11521.4125
2796.42589	11516.7125
2798.97979	11488.2125
2801.53212	11485.5125
2804.08288	11487.6125
2806.63206	11447.0125
2809.17967	11409.6125
2811.72571	11396.7125
2814.27018	11377.4125
2816.81308	11327.6125
2819.35442	11333.5125
2821.89419	11299.6125
2824.43239	11284.4125
2826.96904	11279.3125
2829.50412	11292.2125
2832.03763	11242.1125
2834.56959	11247.6125
2837.1	11234.8125
2839.62884	11275.1125
2842.15613	11246.2125
2844.68186	11249.8125
2847.20604	11261.2125
2849.72867	11255.2125
2852.24974	11241.4125
2854.76927	11213.3125
2857.28724	11192.5125
2859.80367	11167.6125
2862.31855	11147.1125
2864.83189	11147.8125
2867.34368	11131.3125
2869.85393	11126.7125
2872.36264	11112.2125
2874.8698	11103.9125
2877.37543	11097.2125
2879.87952	11098.4125
2882.38207	11075.9125
2884.88308	11066.7125
2887.38256	11058.6125
2889.88051	11079.6125
2892.37692	11078.9125
2894.8718	11032.5125
2897.36515	11081.5125
2899.85698	11083.8125
2902.34727	11095.3125
2904.83604	11104.4125
2907.32328	11122.5125
2909.809	11127.8125
2912.29319	11124.2125
2914.77587	11077.3125
2917.25702	11088.4125
2919.73665	11067.8125
2922.21476	11087.6125
2924.69136	11083.7125
2927.16644	11055.7125
2929.64	11033.5125
2932.11205	11037.7125
2934.58258	10981.7125
2937.05161	11022.9125
2939.51912	11004.7125
2941.98513	10965.0125
2944.44962	10954.1125
2946.91261	10935.1125
2949.37409	10948.8125
2951.83407	10947.7125
2954.29254	10910.4125
2956.74951	10888.4125
2959.20498	10909.8125
2961.65895	10878.9125
2964.11142	10877.6125
2966.56239	10891.1125
2969.01186	10869.8125
2971.45984	10846.4125
2973.90632	10843.6125
2976.35131	10827.6125
2978.7948	10775.9125
2981.23681	10789.6125
2983.67732	10757.9125
2986.11635	10730.9125
2988.55388	10693.8125
2990.98993	10677.7125
2993.4245	10650.4125
2995.85758	10648.7125
2998.28917	10580.0125
3000.71928	10582.5125
3003.14791	10574.6125
3005.57506	10575.2125
3008.00073	10545.9125
3010.42493	10391.5125
3012.84764	10475.1125
3015.26888	10458.6125
3017.68865	10426.4125
3020.10694	10428.8125
3022.52376	10402.8125
3024.9391	10396.8125
