Data from AgNP_FTO_APTES_UA_10uM_CRN_1uM_R6G_10uM_NaF_0.1M_Addition_RamanShift__28__13-25-20-533.txt Node

Date: Thu Feb 10 13:25:20 GMT 2022
User: TCL
Spectrometer: QEP01345
Trigger mode: 4
Integration Time (sec): 7.000000E0
Scans to average: 10
Electric dark correction enabled: true
Nonlinearity correction enabled: false
Boxcar width: 0
XAxis mode: Raman Shifts
Number of Pixels in Spectrum: 1044
>>>>>Begin Spectral Data<<<<<
46.04893	-0.325
50.45542	-0.025
54.85868	-1.825
59.25871	-1.625
63.6555	62.275
68.04907	66.775
72.43941	69.475
76.82654	69.575
81.21044	77.175
85.59113	77.575
89.96862	81.375
94.34289	83.575
98.71396	86.275
103.08183	92.175
107.4465	92.175
111.80798	91.475
116.16626	94.875
120.52136	98.275
124.87327	103.575
129.222	106.675
133.56755	113.675
137.90993	116.375
142.24913	126.075
146.58517	139.975
150.91804	165.475
155.24774	196.875
159.57429	239.675
163.89768	305.775
168.21792	404.475
172.53501	551.975
176.84895	756.775
181.15975	1057.175
185.46741	1463.675
189.77193	2028.775
194.07331	2719.575
198.37157	3498.375
202.6667	4314.975
206.9587	5135.775
211.24758	5937.575
215.53334	6796.675
219.81599	7739.675
224.09553	8779.375
228.37195	9930.975
232.64527	11164.875
236.91549	12458.175
241.18261	13628.575
245.44663	14651.875
249.70755	15507.375
253.96539	16261.675
258.22014	16947.075
262.4718	17567.675
266.72039	18021.075
270.96589	18299.375
275.20832	18308.375
279.44768	18235.375
283.68397	18085.575
287.91719	17951.475
292.14735	17945.775
296.37445	18183.275
300.59849	18559.375
304.81948	19052.975
309.03742	19406.175
313.25231	19298.675
317.46415	18536.775
321.67296	17407.275
325.87872	16460.975
330.08145	15993.075
334.28114	16010.875
338.47781	16222.675
342.67145	16583.675
346.86207	17168.275
351.04966	18017.775
355.23424	18971.075
359.4158	19703.675
363.59435	20070.775
367.76989	20171.475
371.94243	20159.075
376.11196	20095.075
380.27849	20010.575
384.44203	19909.375
388.60257	19746.375
392.76012	19743.475
396.91468	20005.775
401.06626	20477.875
405.21485	20925.975
409.36047	20707.275
413.50311	19962.375
417.64277	19278.675
421.77947	18945.875
425.9132	18877.175
430.04396	18947.475
434.17176	19043.475
438.2966	19286.075
442.41849	19761.775
446.53742	20460.075
450.6534	21107.175
454.76644	21623.375
458.87653	21727.975
462.98368	21574.875
467.08789	21240.175
471.18916	20719.775
475.2875	20202.275
479.38291	19854.875
483.4754	19587.975
487.56496	19315.175
491.6516	19006.175
495.73531	18808.175
499.81612	18688.875
503.89401	18851.775
507.96899	18947.775
512.04106	19119.175
516.11023	19218.875
520.1765	19261.675
524.23987	19178.475
528.30034	18893.775
532.35792	18592.475
536.41261	18216.175
540.46441	17873.375
544.51333	17730.175
548.55936	17942.675
552.60252	18390.275
556.64279	18858.875
560.6802	19188.175
564.71473	19518.875
568.7464	20224.175
572.7752	20824.075
576.80114	20631.775
580.82422	20283.075
584.84444	20214.975
588.86181	20314.675
592.87633	20515.675
596.888	20798.975
600.89682	21266.875
604.9028	23007.875
608.90594	27622.875
612.90624	33475.475
616.90371	31844.575
620.89834	23635.175
624.89015	19865.875
628.87913	19246.975
632.86528	19241.375
636.84862	19197.275
640.82913	18826.175
644.80683	18063.475
648.78172	17542.275
652.75379	17572.475
656.72306	18154.375
660.68952	18901.075
664.65319	18828.775
668.61405	18150.075
672.57211	17777.375
676.52738	17732.575
680.47986	17739.375
684.42955	17640.575
688.37646	17635.375
692.32058	17713.575
696.26192	17909.975
700.20048	18128.475
704.13626	18325.775
708.06928	18271.775
711.99952	18076.775
715.927	17998.275
719.85171	18030.875
723.77365	17936.475
727.69284	17740.375
731.60928	17529.875
735.52295	17522.775
739.43388	17639.175
743.34206	17739.875
747.24749	17895.975
751.15017	18108.275
755.05012	18485.575
758.94733	19310.375
762.8418	20910.575
766.73354	23693.175
770.62254	26457.675
774.50882	27617.575
778.39237	26289.475
782.27321	23313.575
786.15132	20571.775
790.02671	18919.775
793.89938	18191.875
797.76935	17908.175
801.6366	17764.975
805.50115	17650.475
809.36299	17552.975
813.22213	17470.675
817.07857	17451.075
820.93231	17420.775
824.78336	17508.775
828.63172	17574.175
832.47738	17641.375
836.32036	17660.875
840.16066	17655.375
843.99827	17644.175
847.8332	17555.475
851.66546	17494.375
855.49504	17445.175
859.32195	17400.075
863.1462	17282.775
866.96777	17204.975
870.78668	17179.175
874.60293	17194.875
878.41652	17212.475
882.22745	17337.475
886.03573	17398.475
889.84136	17361.475
893.64433	17258.975
897.44466	17235.075
901.24235	17207.975
905.0374	17194.975
908.8298	17163.175
912.61957	17136.875
916.40671	17279.675
920.19121	17520.675
923.97308	17785.675
927.75233	17975.575
931.52895	18096.175
935.30295	17870.475
939.07433	17358.775
942.84309	16965.275
946.60924	16814.575
950.37278	16695.475
954.13371	16574.875
957.89203	16484.575
961.64774	16417.975
965.40086	16347.975
969.15137	16299.775
972.89929	16261.175
976.64461	16221.675
980.38733	16240.775
984.12747	16359.175
987.86502	16532.175
991.59999	16747.975
995.33237	17167.575
999.06217	17797.775
1002.78939	18606.575
1006.51404	19228.275
1010.23611	19615.575
1013.95561	19877.175
1017.67255	19853.475
1021.38692	19547.675
1025.09872	19319.675
1028.80796	19465.275
1032.51465	20045.375
1036.21877	20575.875
1039.92035	20616.775
1043.61937	20283.975
1047.31584	19670.375
1051.00976	19012.075
1054.70114	18695.275
1058.38998	18601.075
1062.07627	18632.775
1065.76003	18698.775
1069.44126	18826.575
1073.11995	19034.175
1076.79611	19274.075
1080.46974	19465.575
1084.14085	19823.775
1087.80943	20253.875
1091.47549	20427.475
1095.13903	20139.275
1098.80005	19548.875
1102.45857	19043.875
1106.11456	18789.375
1109.76805	18783.575
1113.41903	19036.375
1117.06751	19425.575
1120.71348	19963.375
1124.35696	20540.075
1127.99793	21081.375
1131.63641	21158.375
1135.2724	20591.575
1138.90589	19954.375
1142.5369	19572.975
1146.16542	19342.575
1149.79145	19258.575
1153.415	19341.475
1157.03607	19537.975
1160.65467	19979.875
1164.27079	20696.275
1167.88443	21805.275
1171.49561	23516.075
1175.10432	26124.675
1178.71056	29482.475
1182.31434	32259.275
1185.91565	33605.575
1189.51451	33356.975
1193.11091	31779.375
1196.70485	29557.975
1200.29634	27641.675
1203.88538	26172.975
1207.47197	24835.575
1211.05612	23735.075
1214.63782	23202.975
1218.21708	23124.175
1221.79391	23291.175
1225.36829	23503.475
1228.94024	23518.375
1232.50976	23410.575
1236.07685	23268.175
1239.6415	23146.675
1243.20374	23056.575
1246.76355	23080.175
1250.32093	23403.175
1253.8759	24048.375
1257.42845	24885.475
1260.97859	25710.175
1264.52631	26432.575
1268.07163	27162.475
1271.61453	27908.775
1275.15503	28703.275
1278.69312	29458.175
1282.22882	30046.575
1285.76211	30745.975
1289.29301	31525.975
1292.82151	32439.175
1296.34761	33429.375
1299.87133	34938.075
1303.39266	37323.475
1306.9116	40777.975
1310.42815	44804.475
1313.94233	47615.775
1317.45412	47691.975
1320.96354	45802.475
1324.47058	43469.875
1327.97525	41297.175
1331.47754	39893.375
1334.97747	39322.175
1338.47502	39487.275
1341.97022	39892.275
1345.46305	40096.975
1348.95352	40349.875
1352.44163	41070.875
1355.92738	43045.975
1359.41078	46881.375
1362.89183	50942.975
1366.37053	49983.575
1369.84688	44002.975
1373.32088	37696.375
1376.79254	33634.775
1380.26186	31774.675
1383.72883	30850.775
1387.19347	30233.375
1390.65578	29548.975
1394.11575	29200.975
1397.57339	29401.375
1401.0287	29999.375
1404.48168	30811.075
1407.93234	31498.975
1411.38068	31954.675
1414.82669	31642.375
1418.27039	30693.775
1421.71177	29471.975
1425.15083	28475.675
1428.58758	27891.075
1432.02203	27830.275
1435.45416	28020.575
1438.88399	28259.675
1442.31151	28463.775
1445.73673	28701.975
1449.15965	29016.875
1452.58027	29088.175
1455.9986	29082.575
1459.41463	29137.575
1462.82837	29410.375
1466.23982	29957.875
1469.64898	30555.975
1473.05586	30926.875
1476.46045	31153.675
1479.86276	31340.875
1483.26279	31683.875
1486.66054	32153.675
1490.05602	32792.275
1493.44922	33583.975
1496.84016	34562.775
1500.22882	35984.675
1503.61521	38043.575
1506.99934	40703.575
1510.38121	43502.075
1513.76081	45107.775
1517.13816	43995.175
1520.51324	40538.775
1523.88607	36807.375
1527.25665	34111.775
1530.62498	32489.975
1533.99105	31463.875
1537.35488	30826.075
1540.71647	30473.375
1544.07581	30275.775
1547.4329	29929.575
1550.78776	29592.275
1554.14038	29422.575
1557.49077	29432.075
1560.83892	29697.175
1564.18484	29955.675
1567.52853	30182.175
1570.86999	30324.875
1574.20922	30487.675
1577.54624	30401.775
1580.88103	29776.475
1584.2136	29005.475
1587.54395	29236.075
1590.87208	30609.475
1594.19801	32956.475
1597.52172	35558.275
1600.84321	36724.275
1604.16251	35357.775
1607.47959	32613.875
1610.79447	29491.175
1614.10715	26694.775
1617.41763	24553.075
1620.7259	23257.175
1624.03199	22654.175
1627.33587	22716.975
1630.63757	23485.275
1633.93707	24925.375
1637.23439	27062.775
1640.52951	29786.175
1643.82246	32736.275
1647.11321	35469.075
1650.40179	36691.575
1653.68819	35089.475
1656.97241	30740.575
1660.25446	26085.375
1663.53433	22618.275
1666.81203	20458.775
1670.08756	19203.275
1673.36092	18402.775
1676.63211	17901.975
1679.90115	17563.375
1683.16801	17292.075
1686.43272	17141.975
1689.69527	16977.175
1692.95567	16893.075
1696.2139	16855.275
1699.46999	16808.275
1702.72392	16746.475
1705.97571	16726.675
1709.22535	16712.575
1712.47284	16663.275
1715.71819	16694.175
1718.96139	16692.675
1722.20246	16654.975
1725.44139	16548.075
1728.67818	16477.475
1731.91284	16345.575
1735.14537	16233.375
1738.37576	16180.575
1741.60403	16139.775
1744.83017	16111.975
1748.05418	16043.475
1751.27607	15998.875
1754.49584	15974.375
1757.71349	15987.475
1760.92903	15996.075
1764.14244	15981.275
1767.35375	15968.975
1770.56294	15911.475
1773.77002	15892.775
1776.97499	15859.375
1780.17785	15840.475
1783.37861	15819.875
1786.57727	15812.975
1789.77382	15779.275
1792.96828	15776.875
1796.16064	15741.775
1799.3509	15742.175
1802.53907	15722.575
1805.72514	15694.975
1808.90913	15656.075
1812.09102	15623.675
1815.27083	15582.275
1818.44856	15574.975
1821.6242	15532.775
1824.79776	15510.175
1827.96924	15524.475
1831.13864	15502.675
1834.30597	15525.775
1837.47122	15506.475
1840.6344	15503.975
1843.7955	15481.375
1846.95454	15484.675
1850.11151	15530.275
1853.26642	15477.775
1856.41926	15541.175
1859.57004	15588.875
1862.71876	15577.275
1865.86542	15590.175
1869.01003	15615.875
1872.15258	15615.675
1875.29308	15641.575
1878.43152	15662.975
1881.56792	15689.775
1884.70227	15691.975
1887.83457	15691.275
1890.96482	15728.175
1894.09304	15695.875
1897.21921	15705.475
1900.34335	15727.275
1903.46544	15725.975
1906.58551	15749.575
1909.70353	15728.275
1912.81953	15744.175
1915.93349	15747.575
1919.04543	15754.475
1922.15534	15710.575
1925.26322	15643.975
1928.36908	15603.775
1931.47292	15573.075
1934.57473	15486.675
1937.67453	15445.475
1940.77232	15362.475
1943.86808	15267.175
1946.96184	15202.275
1950.05358	15121.175
1953.14331	15070.875
1956.23103	15023.275
1959.31675	14924.175
1962.40046	14896.075
1965.48217	14834.275
1968.56188	14823.875
1971.63959	14782.775
1974.7153	14695.075
1977.78901	14676.175
1980.86073	14632.975
1983.93046	14584.175
1986.99819	14537.275
1990.06394	14501.675
1993.1277	14429.575
1996.18947	14388.875
1999.24925	14383.775
2002.30706	14350.775
2005.36288	14310.075
2008.41672	14254.575
2011.46859	14213.875
2014.51848	14166.175
2017.56639	14166.975
2020.61233	14131.675
2023.6563	14088.075
2026.6983	14078.775
2029.73833	14037.275
2032.7764	13997.075
2035.8125	13984.175
2038.84664	13969.375
2041.87881	13955.075
2044.90903	13928.975
2047.93729	13906.975
2050.96359	13875.875
2053.98794	13864.075
2057.01034	13858.275
2060.03078	13860.275
2063.04927	13805.475
2066.06582	13813.275
2069.08042	13792.475
2072.09307	13800.375
2075.10378	13766.775
2078.11255	13774.775
2081.11938	13763.575
2084.12426	13718.875
2087.12722	13744.275
2090.12824	13730.275
2093.12732	13699.475
2096.12447	13697.675
2099.11969	13677.175
2102.11299	13703.375
2105.10435	13718.175
2108.09379	13725.375
2111.08131	13713.775
2114.0669	13723.675
2117.05057	13715.875
2120.03233	13754.975
2123.01216	13758.475
2125.99008	13733.475
2128.96609	13777.375
2131.94018	13773.575
2134.91236	13810.175
2137.88263	13810.775
2140.851	13805.175
2143.81746	13810.675
2146.78201	13819.275
2149.74466	13815.375
2152.7054	13800.675
2155.66425	13802.475
2158.6212	13761.575
2161.57625	13762.075
2164.52941	13777.775
2167.48067	13759.475
2170.43004	13751.875
2173.37752	13757.175
2176.32311	13802.175
2179.26681	13797.775
2182.20863	13793.575
2185.14856	13771.475
2188.08661	13778.975
2191.02278	13783.875
2193.95707	13796.875
2196.88948	13794.375
2199.82001	13781.875
2202.74867	13781.875
2205.67545	13816.875
2208.60037	13779.175
2211.52341	13770.675
2214.44458	13747.875
2217.36388	13719.875
2220.28132	13724.175
2223.1969	13670.975
2226.11061	13675.775
2229.02246	13635.975
2231.93245	13633.375
2234.84058	13601.775
2237.74686	13525.475
2240.65128	13532.075
2243.55385	13518.575
2246.45456	13532.675
2249.35343	13479.175
2252.25044	13501.775
2255.14561	13467.975
2258.03893	13478.075
2260.93041	13437.975
2263.82004	13404.375
2266.70783	13377.675
2269.59378	13348.275
2272.4779	13333.575
2275.36017	13230.075
2278.24061	13252.475
2281.11922	13238.875
2283.996	13226.775
2286.87094	13202.575
2289.74405	13187.175
2292.61534	13152.775
2295.4848	13162.675
2298.35243	13166.075
2301.21824	13189.675
2304.08223	13184.875
2306.94439	13180.775
2309.80474	13184.875
2312.66327	13236.075
2315.51999	13205.775
2318.37489	13233.575
2321.22797	13230.075
2324.07925	13193.575
2326.92871	13195.875
2329.77637	13203.075
2332.62222	13178.975
2335.46626	13163.775
2338.3085	13183.575
2341.14893	13172.175
2343.98756	13209.775
2346.8244	13213.975
2349.65943	13222.275
2352.49267	13232.275
2355.32411	13217.675
2358.15376	13247.275
2360.98161	13236.575
2363.80768	13201.775
2366.63195	13217.475
2369.45444	13173.875
2372.27514	13159.475
2375.09405	13144.975
2377.91118	13098.075
2380.72652	13059.075
2383.54009	13018.475
2386.35187	12993.375
2389.16188	12953.575
2391.97011	12918.475
2394.77657	12891.875
2397.58125	12877.775
2400.38416	12858.875
2403.18529	12823.475
2405.98466	12784.175
2408.78226	12766.175
2411.57809	12769.875
2414.37216	12727.275
2417.16446	12721.875
2419.955	12692.375
2422.74378	12682.375
2425.5308	12637.875
2428.31606	12665.575
2431.09956	12661.075
2433.88131	12659.775
2436.6613	12678.775
2439.43954	12647.375
2442.21603	12665.575
2444.99077	12644.575
2447.76377	12650.375
2450.53501	12619.575
2453.30451	12622.675
2456.07226	12630.575
2458.83827	12647.175
2461.60254	12659.775
2464.36507	12640.175
2467.12586	12602.675
2469.88492	12629.175
2472.64224	12656.275
2475.39782	12641.175
2478.15167	12654.675
2480.90379	12677.975
2483.65417	12711.875
2486.40283	12715.975
2489.14976	12722.275
2491.89497	12736.475
2494.63845	12744.475
2497.3802	12722.775
2500.12024	12738.275
2502.85855	12731.175
2505.59514	12713.075
2508.33002	12679.275
2511.06318	12680.575
2513.79462	12649.175
2516.52435	12642.975
2519.25237	12600.375
2521.97867	12598.175
2524.70327	12577.075
2527.42616	12573.075
2530.14734	12570.175
2532.86681	12540.775
2535.58458	12554.075
2538.30065	12561.775
2541.01501	12551.375
2543.72768	12552.875
2546.43864	12582.975
2549.14791	12565.175
2551.85548	12552.575
2554.56136	12541.275
2557.26554	12495.575
2559.96803	12492.275
2562.66883	12454.375
2565.36794	12422.375
2568.06536	12444.275
2570.7611	12418.475
2573.45514	12416.275
2576.14751	12469.775
2578.83819	12418.575
2581.52719	12441.075
2584.21451	12406.775
2586.90015	12434.175
2589.58411	12415.375
2592.2664	12431.175
2594.94701	12409.175
2597.62594	12433.575
2600.30321	12406.375
2602.9788	12398.475
2605.65273	12383.375
2608.32498	12402.775
2610.99557	12418.075
2613.66449	12413.375
2616.33175	12411.075
2618.99734	12407.275
2621.66128	12440.175
2624.32355	12388.875
2626.98416	12436.275
2629.64311	12428.475
2632.30041	12422.775
2634.95605	12388.175
2637.61004	12379.575
2640.26238	12352.475
2642.91306	12344.775
2645.56209	12337.275
2648.20948	12331.375
2650.85521	12302.375
2653.4993	12302.575
2656.14175	12285.875
2658.78255	12304.375
2661.42171	12308.675
2664.05923	12348.275
2666.6951	12367.775
2669.32934	12378.975
2671.96194	12383.475
2674.59291	12415.275
2677.22224	12397.875
2679.84993	12378.375
2682.476	12370.875
2685.10043	12406.275
2687.72324	12355.475
2690.34441	12370.675
2692.96396	12348.375
2695.58188	12337.375
2698.19818	12324.275
2700.81285	12331.675
2703.4259	12308.875
2706.03733	12327.975
2708.64714	12338.475
2711.25533	12340.575
2713.86191	12349.475
2716.46687	12359.075
2719.07021	12373.475
2721.67194	12374.575
2724.27206	12375.975
2726.87057	12385.775
2729.46747	12381.475
2732.06276	12402.875
2734.65644	12394.575
2737.24852	12393.175
2739.83899	12359.775
2742.42786	12363.875
2745.01513	12354.175
2747.60079	12382.475
2750.18486	12360.775
2752.76733	12330.475
2755.3482	12355.975
2757.92747	12348.575
2760.50515	12322.675
2763.08123	12345.875
2765.65573	12300.975
2768.22863	12295.375
2770.79994	12301.975
2773.36967	12289.475
2775.9378	12290.675
2778.50435	12288.475
2781.06932	12293.075
2783.6327	12298.775
2786.1945	12287.575
2788.75471	12277.075
2791.31335	12260.175
2793.87041	12254.575
2796.42589	12231.475
2798.97979	12231.475
2801.53212	12220.075
2804.08288	12201.575
2806.63206	12157.975
2809.17967	12142.175
2811.72571	12107.775
2814.27018	12112.675
2816.81308	12094.975
2819.35442	12077.475
2821.89419	12087.775
2824.43239	12109.075
2826.96904	12107.375
2829.50412	12105.075
2832.03763	12093.475
2834.56959	12103.275
2837.1	12094.375
2839.62884	12082.575
2842.15613	12138.875
2844.68186	12155.675
2847.20604	12170.475
2849.72867	12197.975
2852.24974	12202.475
2854.76927	12200.875
2857.28724	12193.175
2859.80367	12151.475
2862.31855	12129.375
2864.83189	12131.775
2867.34368	12124.875
2869.85393	12092.675
2872.36264	12076.875
2874.8698	12075.775
2877.37543	12077.275
2879.87952	12078.575
2882.38207	12089.875
2884.88308	12046.475
2887.38256	12097.875
2889.88051	12060.875
2892.37692	12066.375
2894.8718	12080.175
2897.36515	12114.975
2899.85698	12116.475
2902.34727	12115.675
2904.83604	12120.775
2907.32328	12152.175
2909.809	12144.475
2912.29319	12148.175
2914.77587	12150.875
2917.25702	12138.475
2919.73665	12110.575
2922.21476	12099.375
2924.69136	12085.975
2927.16644	12065.875
2929.64	12063.375
2932.11205	12052.475
2934.58258	12021.375
2937.05161	12032.175
2939.51912	12003.775
2941.98513	11984.075
2944.44962	11928.175
2946.91261	11875.175
2949.37409	11898.875
2951.83407	11889.275
2954.29254	11886.575
2956.74951	11852.375
2959.20498	11847.375
2961.65895	11830.575
2964.11142	11801.575
2966.56239	11807.575
2969.01186	11783.075
2971.45984	11760.575
2973.90632	11734.075
2976.35131	11693.275
2978.7948	11676.375
2981.23681	11652.175
2983.67732	11593.375
2986.11635	11588.875
2988.55388	11593.375
2990.98993	11538.575
2993.4245	11511.275
2995.85758	11479.775
2998.28917	11438.075
3000.71928	11432.675
3003.14791	11418.975
3005.57506	11417.575
3008.00073	11381.475
3010.42493	11261.075
3012.84764	11327.575
3015.26888	11335.075
3017.68865	11263.875
3020.10694	11254.775
3022.52376	11205.175
3024.9391	11208.875
3027.35298	11227.475
3029.76539	11189.475
3032.17632	11207.975
3034.5858	11153.975
3036.9938	11152.775
3039.40034	11167.475
3041.80542	11147.775
3044.20903	11143.675
3046.61118	11137.375
3049.01187	11103.275
3051.4111	11076.975
3053.80888	11048.275
3056.20519	11035.675
3058.60005	10989.275
3060.99345	10979.175
3063.3854	10948.675
3065.7759	10902.775
3068.16494	10894.275
3070.55254	10819.975
3072.93868	10826.875
3075.32338	10792.975
3077.70662	10767.775
3080.08842	10732.175
3082.46878	10730.975
3084.84769	10713.875
3087.22515	10711.175
3089.60118	10694.875
3091.97576	10694.375
3094.3489	10668.075
3096.72061	10672.975
3099.09087	10679.275
3101.4597	10643.375
3103.82709	10651.475
3106.19305	10634.375
3108.55757	10629.675
3110.92066	10604.475
3113.28232	10592.075
3115.64255	10557.975
3118.00134	10529.075
3120.35871	10528.375
3122.71466	10504.975
3125.06917	10489.475
3127.42226	10451.675
