Data from AgNP_FTO_APTES_UA_10uM_CRN_50uM_R6G_10uM_NaF_0.1M_Addition_RamanShift__6__16-49-30-787.txt Node

Date: Thu Feb 10 16:49:30 GMT 2022
User: TCL
Spectrometer: QEP01345
Trigger mode: 4
Integration Time (sec): 7.000000E0
Scans to average: 10
Electric dark correction enabled: true
Nonlinearity correction enabled: false
Boxcar width: 0
XAxis mode: Raman Shifts
Number of Pixels in Spectrum: 1044
>>>>>Begin Spectral Data<<<<<
46.04893	-0.6875
50.45542	-0.4875
54.85868	-1.9875
59.25871	-0.5875
63.6555	66.2125
68.04907	67.8125
72.43941	73.5125
76.82654	72.5125
81.21044	78.1125
85.59113	78.7125
89.96862	82.9125
94.34289	86.2125
98.71396	87.9125
103.08183	92.7125
107.4465	94.0125
111.80798	98.5125
116.16626	97.7125
120.52136	104.9125
124.87327	108.7125
129.222	115.4125
133.56755	117.2125
137.90993	129.7125
142.24913	145.7125
146.58517	159.5125
150.91804	183.6125
155.24774	221.8125
159.57429	273.4125
163.89768	348.4125
168.21792	467.3125
172.53501	629.5125
176.84895	874.4125
181.15975	1240.7125
185.46741	1731.9125
189.77193	2405.4125
194.07331	3193.4125
198.37157	4120.9125
202.6667	5063.1125
206.9587	6018.6125
211.24758	6936.4125
215.53334	7872.2125
219.81599	8859.8125
224.09553	9938.5125
228.37195	11132.5125
232.64527	12432.8125
236.91549	13774.8125
241.18261	15131.0125
245.44663	16452.0125
249.70755	17605.1125
253.96539	18666.8125
258.22014	19559.0125
262.4718	20297.1125
266.72039	20849.3125
270.96589	21150.3125
275.20832	21192.0125
279.44768	21151.4125
283.68397	21020.5125
287.91719	20860.1125
292.14735	20717.5125
296.37445	20755.0125
300.59849	20849.6125
304.81948	20922.0125
309.03742	20837.9125
313.25231	20633.4125
317.46415	20279.5125
321.67296	19821.1125
325.87872	19433.5125
330.08145	19267.9125
334.28114	19243.0125
338.47781	19374.3125
342.67145	19610.3125
346.86207	19815.9125
351.04966	20092.2125
355.23424	20352.2125
359.4158	20637.1125
363.59435	20851.6125
367.76989	21017.6125
371.94243	21177.9125
376.11196	21224.9125
380.27849	21259.4125
384.44203	21408.4125
388.60257	21580.3125
392.76012	21849.8125
396.91468	22132.8125
401.06626	22463.6125
405.21485	22630.2125
409.36047	22574.2125
413.50311	22367.6125
417.64277	22285.0125
421.77947	22386.8125
425.9132	22513.0125
430.04396	22684.6125
434.17176	22714.6125
438.2966	22833.0125
442.41849	23144.6125
446.53742	23739.2125
450.6534	24366.0125
454.76644	24810.4125
458.87653	25033.2125
462.98368	24946.9125
467.08789	24708.7125
471.18916	24461.8125
475.2875	24284.6125
479.38291	24239.3125
483.4754	24155.9125
487.56496	23884.5125
491.6516	23453.4125
495.73531	22929.8125
499.81612	22669.4125
503.89401	22704.7125
507.96899	22791.2125
512.04106	22776.6125
516.11023	22688.9125
520.1765	22373.3125
524.23987	22096.1125
528.30034	21906.1125
532.35792	21686.9125
536.41261	21497.6125
540.46441	21357.3125
544.51333	21418.0125
548.55936	21665.7125
552.60252	22141.9125
556.64279	22591.2125
560.6802	23049.6125
564.71473	23347.5125
568.7464	23842.0125
572.7752	24650.2125
576.80114	25546.1125
580.82422	26239.9125
584.84444	26984.4125
588.86181	27908.4125
592.87633	28597.8125
596.888	28131.2125
600.89682	26899.3125
604.9028	26521.9125
608.90594	27427.6125
612.90624	28326.5125
616.90371	26538.4125
620.89834	23316.8125
624.89015	21963.6125
628.87913	21904.4125
632.86528	22052.1125
636.84862	22018.7125
640.82913	21668.4125
644.80683	21240.0125
648.78172	20917.4125
652.75379	20904.7125
656.72306	21046.7125
660.68952	21281.7125
664.65319	21174.3125
668.61405	20887.3125
672.57211	20843.2125
676.52738	20949.0125
680.47986	20966.3125
684.42955	20875.0125
688.37646	20824.6125
692.32058	20922.1125
696.26192	21163.5125
700.20048	21437.3125
704.13626	21686.9125
708.06928	21679.3125
711.99952	21647.9125
715.927	21628.6125
719.85171	21668.5125
723.77365	21542.9125
727.69284	21244.8125
731.60928	20971.0125
735.52295	20860.1125
739.43388	20805.0125
743.34206	20875.6125
747.24749	21030.2125
751.15017	21247.0125
755.05012	21667.4125
758.94733	22257.9125
762.8418	23172.0125
766.73354	24478.4125
770.62254	25455.1125
774.50882	25384.4125
778.39237	24295.5125
782.27321	22930.1125
786.15132	21849.6125
790.02671	21218.7125
793.89938	20863.6125
797.76935	20732.6125
801.6366	20717.1125
805.50115	20675.0125
809.36299	20578.5125
813.22213	20435.3125
817.07857	20401.5125
820.93231	20346.5125
824.78336	20255.5125
828.63172	20087.2125
832.47738	20039.6125
836.32036	20038.2125
840.16066	20042.6125
843.99827	20065.5125
847.8332	20078.1125
851.66546	20079.3125
855.49504	20103.3125
859.32195	20106.0125
863.1462	20015.1125
866.96777	19977.1125
870.78668	19972.8125
874.60293	19953.4125
878.41652	19962.9125
882.22745	20007.8125
886.03573	20004.7125
889.84136	19989.3125
893.64433	19968.1125
897.44466	19876.8125
901.24235	19858.9125
905.0374	19825.9125
908.8298	19830.4125
912.61957	19900.3125
916.40671	20116.5125
920.19121	20414.9125
923.97308	20606.2125
927.75233	20507.0125
931.52895	20244.0125
935.30295	19892.9125
939.07433	19581.8125
942.84309	19373.4125
946.60924	19290.5125
950.37278	19250.2125
954.13371	19247.3125
957.89203	19247.9125
961.64774	19252.3125
965.40086	19230.3125
969.15137	19180.2125
972.89929	19106.4125
976.64461	19000.9125
980.38733	18977.4125
984.12747	19007.7125
987.86502	19052.3125
991.59999	19159.9125
995.33237	19328.4125
999.06217	19612.6125
1002.78939	19942.7125
1006.51404	20280.3125
1010.23611	20585.8125
1013.95561	20812.8125
1017.67255	20835.6125
1021.38692	20647.8125
1025.09872	20339.8125
1028.80796	20216.1125
1032.51465	20288.3125
1036.21877	20480.8125
1039.92035	20530.2125
1043.61937	20523.7125
1047.31584	20465.1125
1051.00976	20426.0125
1054.70114	20438.3125
1058.38998	20549.4125
1062.07627	20748.8125
1065.76003	21003.5125
1069.44126	21223.4125
1073.11995	21528.1125
1076.79611	21737.4125
1080.46974	21823.5125
1084.14085	21950.0125
1087.80943	22103.8125
1091.47549	22330.5125
1095.13903	22391.3125
1098.80005	22152.1125
1102.45857	21724.8125
1106.11456	21284.5125
1109.76805	21110.7125
1113.41903	21067.7125
1117.06751	21127.3125
1120.71348	21311.0125
1124.35696	21518.1125
1127.99793	21704.3125
1131.63641	21854.1125
1135.2724	21863.6125
1138.90589	21894.5125
1142.5369	22040.4125
1146.16542	22298.7125
1149.79145	22533.4125
1153.415	22815.7125
1157.03607	23232.0125
1160.65467	24021.2125
1164.27079	25157.9125
1167.88443	26469.5125
1171.49561	27764.2125
1175.10432	29216.0125
1178.71056	30961.1125
1182.31434	32627.8125
1185.91565	33375.4125
1189.51451	33271.3125
1193.11091	32696.6125
1196.70485	31797.6125
1200.29634	30872.0125
1203.88538	30350.5125
1207.47197	30253.0125
1211.05612	30155.2125
1214.63782	29641.5125
1218.21708	28681.1125
1221.79391	27655.2125
1225.36829	26780.2125
1228.94024	26293.1125
1232.50976	25867.1125
1236.07685	25589.9125
1239.6415	25484.6125
1243.20374	25555.9125
1246.76355	25800.8125
1250.32093	26199.7125
1253.8759	26713.9125
1257.42845	27399.0125
1260.97859	28062.3125
1264.52631	28795.7125
1268.07163	29540.1125
1271.61453	30327.0125
1275.15503	31112.2125
1278.69312	32061.4125
1282.22882	33097.2125
1285.76211	34317.0125
1289.29301	35827.3125
1292.82151	37724.3125
1296.34761	39903.6125
1299.87133	42415.2125
1303.39266	44611.2125
1306.9116	46351.6125
1310.42815	47399.5125
1313.94233	47800.7125
1317.45412	47545.4125
1320.96354	47128.0125
1324.47058	46920.6125
1327.97525	46936.3125
1331.47754	46867.3125
1334.97747	46639.7125
1338.47502	46316.6125
1341.97022	45559.9125
1345.46305	44632.2125
1348.95352	43708.7125
1352.44163	43046.9125
1355.92738	43148.7125
1359.41078	43990.7125
1362.89183	44582.6125
1366.37053	43687.1125
1369.84688	40819.1125
1373.32088	37240.7125
1376.79254	34857.6125
1380.26186	34160.3125
1383.72883	34662.4125
1387.19347	35058.7125
1390.65578	34999.4125
1394.11575	35032.2125
1397.57339	35431.7125
1401.0287	36032.7125
1404.48168	36425.3125
1407.93234	36141.6125
1411.38068	35171.0125
1414.82669	33697.8125
1418.27039	32029.6125
1421.71177	30487.9125
1425.15083	29278.9125
1428.58758	28735.7125
1432.02203	29024.2125
1435.45416	29889.1125
1438.88399	30989.6125
1442.31151	31833.4125
1445.73673	32419.2125
1449.15965	32822.4125
1452.58027	33005.4125
1455.9986	33011.8125
1459.41463	33166.9125
1462.82837	33509.3125
1466.23982	33977.4125
1469.64898	34426.9125
1473.05586	34660.6125
1476.46045	34597.5125
1479.86276	34221.4125
1483.26279	33672.1125
1486.66054	33352.9125
1490.05602	33359.4125
1493.44922	33517.3125
1496.84016	33751.9125
1500.22882	34121.0125
1503.61521	34703.9125
1506.99934	35489.3125
1510.38121	36079.4125
1513.76081	36220.4125
1517.13816	35958.5125
1520.51324	35549.9125
1523.88607	35415.2125
1527.25665	35581.9125
1530.62498	35942.7125
1533.99105	35891.6125
1537.35488	35396.6125
1540.71647	34496.7125
1544.07581	33399.4125
1547.4329	32319.9125
1550.78776	31375.1125
1554.14038	30724.9125
1557.49077	30350.3125
1560.83892	30138.5125
1564.18484	30068.3125
1567.52853	30086.0125
1570.86999	30430.0125
1574.20922	31163.3125
1577.54624	31957.1125
1580.88103	32567.8125
1584.2136	33318.0125
1587.54395	34522.3125
1590.87208	36155.4125
1594.19801	38072.8125
1597.52172	39521.8125
1600.84321	39333.2125
1604.16251	37237.4125
1607.47959	34154.2125
1610.79447	31185.2125
1614.10715	28603.6125
1617.41763	26548.5125
1620.7259	25139.9125
1624.03199	24510.8125
1627.33587	24595.3125
1630.63757	25472.5125
1633.93707	27226.8125
1637.23439	30159.2125
1640.52951	34216.4125
1643.82246	38971.1125
1647.11321	42332.8125
1650.40179	42564.0125
1653.68819	39064.1125
1656.97241	33719.3125
1660.25446	28693.4125
1663.53433	25025.0125
1666.81203	22597.1125
1670.08756	21086.0125
1673.36092	20145.3125
1676.63211	19507.4125
1679.90115	19077.4125
1683.16801	18733.8125
1686.43272	18535.1125
1689.69527	18358.7125
1692.95567	18202.6125
1696.2139	18085.5125
1699.46999	18051.4125
1702.72392	17967.9125
1705.97571	17914.1125
1709.22535	17824.4125
1712.47284	17769.4125
1715.71819	17719.9125
1718.96139	17689.2125
1722.20246	17592.7125
1725.44139	17521.2125
1728.67818	17425.8125
1731.91284	17279.4125
1735.14537	17214.6125
1738.37576	17127.4125
1741.60403	17093.7125
1744.83017	17038.2125
1748.05418	17000.0125
1751.27607	16982.3125
1754.49584	16936.2125
1757.71349	16937.9125
1760.92903	16914.1125
1764.14244	16883.4125
1767.35375	16891.2125
1770.56294	16849.6125
1773.77002	16820.1125
1776.97499	16765.7125
1780.17785	16719.3125
1783.37861	16682.1125
1786.57727	16628.9125
1789.77382	16617.5125
1792.96828	16608.6125
1796.16064	16522.1125
1799.3509	16508.5125
1802.53907	16468.6125
1805.72514	16411.3125
1808.90913	16392.3125
1812.09102	16364.3125
1815.27083	16324.2125
1818.44856	16290.7125
1821.6242	16276.5125
1824.79776	16208.0125
1827.96924	16244.9125
1831.13864	16209.7125
1834.30597	16252.4125
1837.47122	16221.0125
1840.6344	16222.7125
1843.7955	16200.5125
1846.95454	16176.4125
1850.11151	16155.9125
1853.26642	16150.5125
1856.41926	16178.8125
1859.57004	16157.2125
1862.71876	16132.5125
1865.86542	16090.3125
1869.01003	16059.9125
1872.15258	16068.6125
1875.29308	16072.8125
1878.43152	16022.8125
1881.56792	16002.3125
1884.70227	15955.8125
1887.83457	15942.7125
1890.96482	15905.6125
1894.09304	15889.8125
1897.21921	15870.4125
1900.34335	15822.2125
1903.46544	15826.9125
1906.58551	15792.8125
1909.70353	15773.5125
1912.81953	15754.4125
1915.93349	15735.4125
1919.04543	15691.0125
1922.15534	15662.8125
1925.26322	15636.4125
1928.36908	15596.6125
1931.47292	15562.7125
1934.57473	15556.9125
1937.67453	15504.1125
1940.77232	15463.8125
1943.86808	15404.3125
1946.96184	15353.8125
1950.05358	15317.1125
1953.14331	15334.9125
1956.23103	15235.9125
1959.31675	15200.8125
1962.40046	15147.7125
1965.48217	15081.5125
1968.56188	15055.6125
1971.63959	14988.0125
1974.7153	14950.6125
1977.78901	14919.7125
1980.86073	14854.7125
1983.93046	14828.3125
1986.99819	14782.2125
1990.06394	14746.7125
1993.1277	14718.8125
1996.18947	14675.6125
1999.24925	14615.4125
2002.30706	14587.6125
2005.36288	14508.5125
2008.41672	14460.9125
2011.46859	14437.0125
2014.51848	14434.9125
2017.56639	14401.8125
2020.61233	14343.6125
2023.6563	14311.5125
2026.6983	14284.1125
2029.73833	14271.3125
2032.7764	14207.4125
2035.8125	14165.4125
2038.84664	14134.6125
2041.87881	14126.2125
2044.90903	14076.9125
2047.93729	14039.0125
2050.96359	14043.2125
2053.98794	14027.7125
2057.01034	14012.7125
2060.03078	13985.0125
2063.04927	14010.9125
2066.06582	14024.9125
2069.08042	13984.5125
2072.09307	13966.1125
2075.10378	13953.7125
2078.11255	13954.2125
2081.11938	13943.7125
2084.12426	13920.7125
2087.12722	13913.9125
2090.12824	13892.4125
2093.12732	13889.5125
2096.12447	13878.6125
2099.11969	13853.2125
2102.11299	13896.4125
2105.10435	13909.1125
2108.09379	13915.9125
2111.08131	13941.9125
2114.0669	13921.1125
2117.05057	13897.9125
2120.03233	13942.6125
2123.01216	13914.3125
2125.99008	13962.9125
2128.96609	13950.7125
2131.94018	13954.0125
2134.91236	13923.8125
2137.88263	13987.0125
2140.851	13971.8125
2143.81746	13968.6125
2146.78201	13986.8125
2149.74466	13968.7125
2152.7054	13953.4125
2155.66425	13959.2125
2158.6212	13976.6125
2161.57625	13964.0125
2164.52941	13932.0125
2167.48067	13942.5125
2170.43004	13932.1125
2173.37752	13904.4125
2176.32311	13921.5125
2179.26681	13904.3125
2182.20863	13905.4125
2185.14856	13901.7125
2188.08661	13897.0125
2191.02278	13921.0125
2193.95707	13913.9125
2196.88948	13913.4125
2199.82001	13906.9125
2202.74867	13877.5125
2205.67545	13856.2125
2208.60037	13811.9125
2211.52341	13812.7125
2214.44458	13796.4125
2217.36388	13770.4125
2220.28132	13739.3125
2223.1969	13723.9125
2226.11061	13721.4125
2229.02246	13706.1125
2231.93245	13644.3125
2234.84058	13653.7125
2237.74686	13646.0125
2240.65128	13601.6125
2243.55385	13602.5125
2246.45456	13571.5125
2249.35343	13542.3125
2252.25044	13518.2125
2255.14561	13489.8125
2258.03893	13454.8125
2260.93041	13423.0125
2263.82004	13362.7125
2266.70783	13347.4125
2269.59378	13280.1125
2272.4779	13275.5125
2275.36017	13241.6125
2278.24061	13212.2125
2281.11922	13198.4125
2283.996	13176.0125
2286.87094	13171.0125
2289.74405	13140.2125
2292.61534	13145.2125
2295.4848	13127.7125
2298.35243	13107.0125
2301.21824	13094.4125
2304.08223	13117.8125
2306.94439	13093.3125
2309.80474	13095.2125
2312.66327	13094.4125
2315.51999	13092.4125
2318.37489	13074.0125
2321.22797	13061.1125
2324.07925	13033.7125
2326.92871	13003.1125
2329.77637	13002.3125
2332.62222	12990.9125
2335.46626	12955.8125
2338.3085	12946.5125
2341.14893	12948.1125
2343.98756	12981.7125
2346.8244	12966.8125
2349.65943	12916.0125
2352.49267	12923.7125
2355.32411	12938.9125
2358.15376	12954.7125
2360.98161	12904.4125
2363.80768	12930.0125
2366.63195	12903.2125
2369.45444	12879.4125
2372.27514	12871.1125
2375.09405	12838.7125
2377.91118	12827.5125
2380.72652	12767.6125
2383.54009	12717.8125
2386.35187	12727.7125
2389.16188	12687.6125
2391.97011	12659.8125
2394.77657	12654.8125
2397.58125	12613.1125
2400.38416	12595.1125
2403.18529	12584.3125
2405.98466	12597.9125
2408.78226	12568.6125
2411.57809	12548.1125
2414.37216	12542.4125
2417.16446	12560.9125
2419.955	12515.1125
2422.74378	12554.2125
2425.5308	12519.1125
2428.31606	12504.9125
2431.09956	12519.2125
2433.88131	12496.9125
2436.6613	12460.1125
2439.43954	12471.1125
2442.21603	12486.6125
2444.99077	12462.5125
2447.76377	12434.9125
2450.53501	12432.5125
2453.30451	12458.0125
2456.07226	12435.2125
2458.83827	12425.7125
2461.60254	12419.0125
2464.36507	12381.2125
2467.12586	12392.1125
2469.88492	12419.3125
2472.64224	12417.6125
2475.39782	12433.7125
2478.15167	12429.0125
2480.90379	12399.3125
2483.65417	12423.0125
2486.40283	12437.7125
2489.14976	12406.0125
2491.89497	12391.6125
2494.63845	12435.9125
2497.3802	12426.1125
2500.12024	12423.7125
2502.85855	12409.0125
2505.59514	12385.1125
2508.33002	12368.7125
2511.06318	12353.3125
2513.79462	12378.6125
2516.52435	12347.5125
2519.25237	12331.6125
2521.97867	12357.6125
2524.70327	12336.1125
2527.42616	12346.1125
2530.14734	12319.9125
2532.86681	12310.2125
2535.58458	12305.2125
2538.30065	12290.5125
2541.01501	12344.1125
2543.72768	12312.7125
2546.43864	12278.8125
2549.14791	12273.6125
2551.85548	12250.0125
2554.56136	12273.5125
2557.26554	12214.2125
2559.96803	12196.8125
2562.66883	12179.3125
2565.36794	12170.4125
2568.06536	12172.7125
2570.7611	12160.6125
2573.45514	12157.9125
2576.14751	12115.6125
2578.83819	12098.4125
2581.52719	12068.2125
2584.21451	12086.2125
2586.90015	12070.1125
2589.58411	12087.9125
2592.2664	12086.8125
2594.94701	12067.2125
2597.62594	12046.0125
2600.30321	12013.6125
2602.9788	12021.0125
2605.65273	12019.3125
2608.32498	12025.3125
2610.99557	12034.3125
2613.66449	12021.0125
2616.33175	12036.9125
2618.99734	12021.3125
2621.66128	12028.8125
2624.32355	11995.3125
2626.98416	11984.7125
2629.64311	11954.5125
2632.30041	11958.8125
2634.95605	11959.8125
2637.61004	11963.6125
2640.26238	11931.3125
2642.91306	11945.2125
2645.56209	11919.9125
2648.20948	11895.6125
2650.85521	11920.0125
2653.4993	11952.8125
2656.14175	11940.5125
2658.78255	11948.7125
2661.42171	11962.7125
2664.05923	11957.6125
2666.6951	11978.2125
2669.32934	11976.4125
2671.96194	11966.9125
2674.59291	12002.0125
2677.22224	11962.8125
2679.84993	11966.7125
2682.476	11961.1125
2685.10043	11949.3125
2687.72324	11955.7125
2690.34441	12003.7125
2692.96396	11968.2125
2695.58188	11951.3125
2698.19818	11930.7125
2700.81285	11969.1125
2703.4259	11994.6125
2706.03733	11995.0125
2708.64714	11982.0125
2711.25533	11976.2125
2713.86191	11986.3125
2716.46687	11999.4125
2719.07021	12006.5125
2721.67194	12010.7125
2724.27206	12020.3125
2726.87057	12018.8125
2729.46747	12028.8125
2732.06276	12051.7125
2734.65644	12060.6125
2737.24852	12025.1125
2739.83899	12004.5125
2742.42786	12039.7125
2745.01513	11994.4125
2747.60079	11992.0125
2750.18486	11994.5125
2752.76733	11986.0125
2755.3482	11974.3125
2757.92747	11978.1125
2760.50515	11923.8125
2763.08123	11938.7125
2765.65573	11910.7125
2768.22863	11967.1125
2770.79994	11909.5125
2773.36967	11926.6125
2775.9378	11965.1125
2778.50435	11985.0125
2781.06932	11981.0125
2783.6327	11920.1125
2786.1945	11971.3125
2788.75471	11919.6125
2791.31335	11886.8125
2793.87041	11930.9125
2796.42589	11876.0125
2798.97979	11866.8125
2801.53212	11841.9125
2804.08288	11845.9125
2806.63206	11805.6125
2809.17967	11780.9125
2811.72571	11724.5125
2814.27018	11732.7125
2816.81308	11707.9125
2819.35442	11702.3125
2821.89419	11680.1125
2824.43239	11673.6125
2826.96904	11635.5125
2829.50412	11632.4125
2832.03763	11608.4125
2834.56959	11596.9125
2837.1	11603.1125
2839.62884	11586.4125
2842.15613	11614.2125
2844.68186	11583.3125
2847.20604	11611.7125
2849.72867	11610.2125
2852.24974	11615.5125
2854.76927	11589.2125
2857.28724	11584.6125
2859.80367	11575.5125
2862.31855	11543.5125
2864.83189	11525.8125
2867.34368	11517.3125
2869.85393	11493.5125
2872.36264	11455.2125
2874.8698	11470.0125
2877.37543	11451.5125
2879.87952	11471.1125
2882.38207	11461.5125
2884.88308	11436.0125
2887.38256	11465.7125
2889.88051	11466.1125
2892.37692	11495.4125
2894.8718	11484.6125
2897.36515	11462.3125
2899.85698	11472.9125
2902.34727	11500.0125
2904.83604	11504.0125
2907.32328	11534.1125
2909.809	11523.1125
2912.29319	11530.2125
2914.77587	11532.8125
2917.25702	11550.9125
2919.73665	11537.0125
2922.21476	11536.4125
2924.69136	11509.0125
2927.16644	11509.7125
2929.64	11501.5125
2932.11205	11488.6125
2934.58258	11446.1125
2937.05161	11482.2125
2939.51912	11478.9125
2941.98513	11471.4125
2944.44962	11433.8125
2946.91261	11397.6125
2949.37409	11396.7125
2951.83407	11393.5125
2954.29254	11393.9125
2956.74951	11361.6125
2959.20498	11375.7125
2961.65895	11372.2125
2964.11142	11377.6125
2966.56239	11348.6125
2969.01186	11351.3125
2971.45984	11342.9125
2973.90632	11327.6125
2976.35131	11325.1125
2978.7948	11275.4125
2981.23681	11245.6125
2983.67732	11246.0125
2986.11635	11210.3125
2988.55388	11192.6125
2990.98993	11161.4125
2993.4245	11155.8125
2995.85758	11097.4125
2998.28917	11092.3125
3000.71928	11059.0125
3003.14791	11041.6125
3005.57506	11008.0125
3008.00073	10985.0125
3010.42493	10950.0125
3012.84764	10940.1125
3015.26888	10925.5125
3017.68865	10873.1125
3020.10694	10890.9125
3022.52376	10857.8125
3024.9391	10856.8125
