Data from AgNP_FTO_APTES_UA_10uM_CRN_200uM_R6G_10uM_NaF_0.1M_Addition_RamanShift__6__18-07-40-884.txt Node

Date: Thu Feb 10 18:07:40 GMT 2022
User: TCL
Spectrometer: QEP01345
Trigger mode: 4
Integration Time (sec): 7.000000E0
Scans to average: 10
Electric dark correction enabled: true
Nonlinearity correction enabled: false
Boxcar width: 0
XAxis mode: Raman Shifts
Number of Pixels in Spectrum: 1044
>>>>>Begin Spectral Data<<<<<
46.04893	0.1875
50.45542	-0.6125
54.85868	-2.4125
59.25871	-1.7125
63.6555	58.6875
68.04907	62.4875
72.43941	68.6875
76.82654	65.7875
81.21044	70.9875
85.59113	73.0875
89.96862	74.9875
94.34289	77.5875
98.71396	81.7875
103.08183	85.9875
107.4465	88.4875
111.80798	84.9875
116.16626	93.0875
120.52136	94.7875
124.87327	98.7875
129.222	99.9875
133.56755	108.6875
137.90993	113.0875
142.24913	121.3875
146.58517	137.2875
150.91804	159.0875
155.24774	189.1875
159.57429	232.3875
163.89768	295.0875
168.21792	391.5875
172.53501	526.0875
176.84895	734.3875
181.15975	1039.4875
185.46741	1458.6875
189.77193	2014.9875
194.07331	2696.1875
198.37157	3488.3875
202.6667	4297.6875
206.9587	5107.5875
211.24758	5896.4875
215.53334	6686.5875
219.81599	7516.7875
224.09553	8394.9875
228.37195	9396.5875
232.64527	10506.7875
236.91549	11677.4875
241.18261	12856.8875
245.44663	14006.3875
249.70755	15021.9875
253.96539	15995.0875
258.22014	16797.4875
262.4718	17428.7875
266.72039	17874.5875
270.96589	18076.4875
275.20832	18158.0875
279.44768	18063.1875
283.68397	17874.5875
287.91719	17701.7875
292.14735	17558.3875
296.37445	17531.4875
300.59849	17550.2875
304.81948	17534.9875
309.03742	17485.9875
313.25231	17357.0875
317.46415	17124.2875
321.67296	16865.3875
325.87872	16586.0875
330.08145	16488.4875
334.28114	16497.7875
338.47781	16624.1875
342.67145	16813.7875
346.86207	17011.7875
351.04966	17277.6875
355.23424	17507.0875
359.4158	17752.1875
363.59435	17983.4875
367.76989	18166.7875
371.94243	18271.3875
376.11196	18423.7875
380.27849	18518.4875
384.44203	18668.1875
388.60257	18801.2875
392.76012	18970.2875
396.91468	19186.4875
401.06626	19417.6875
405.21485	19517.9875
409.36047	19497.3875
413.50311	19364.5875
417.64277	19295.5875
421.77947	19366.5875
425.9132	19489.9875
430.04396	19592.3875
434.17176	19703.7875
438.2966	19785.7875
442.41849	20045.4875
446.53742	20388.6875
450.6534	20821.2875
454.76644	21141.7875
458.87653	21236.7875
462.98368	21165.8875
467.08789	20990.4875
471.18916	20794.5875
475.2875	20589.0875
479.38291	20544.8875
483.4754	20461.5875
487.56496	20284.9875
491.6516	20072.8875
495.73531	19821.0875
499.81612	19735.8875
503.89401	19805.1875
507.96899	19889.7875
512.04106	19909.6875
516.11023	19801.5875
520.1765	19664.0875
524.23987	19521.4875
528.30034	19396.1875
532.35792	19308.4875
536.41261	19215.7875
540.46441	19063.0875
544.51333	19082.2875
548.55936	19266.4875
552.60252	19549.4875
556.64279	19901.2875
560.6802	20161.6875
564.71473	20246.6875
568.7464	20465.6875
572.7752	20854.7875
576.80114	21304.7875
580.82422	21735.4875
584.84444	22265.7875
588.86181	23021.5875
592.87633	23542.1875
596.888	23347.6875
600.89682	22593.8875
604.9028	22340.4875
608.90594	23192.5875
612.90624	24276.7875
616.90371	23160.1875
620.89834	20730.1875
624.89015	19674.2875
628.87913	19612.7875
632.86528	19686.8875
636.84862	19685.5875
640.82913	19527.1875
644.80683	19262.1875
648.78172	19074.4875
652.75379	19053.1875
656.72306	19192.7875
660.68952	19390.2875
664.65319	19298.3875
668.61405	19061.5875
672.57211	19018.6875
676.52738	19115.9875
680.47986	19136.2875
684.42955	19090.8875
688.37646	19008.5875
692.32058	19101.5875
696.26192	19252.6875
700.20048	19463.0875
704.13626	19587.1875
708.06928	19569.8875
711.99952	19528.6875
715.927	19512.7875
719.85171	19568.2875
723.77365	19522.9875
727.69284	19376.5875
731.60928	19201.3875
735.52295	19143.7875
739.43388	19116.2875
743.34206	19158.1875
747.24749	19214.2875
751.15017	19342.7875
755.05012	19565.9875
758.94733	19947.6875
762.8418	20525.3875
766.73354	21395.1875
770.62254	22232.6875
774.50882	22381.0875
778.39237	21764.8875
782.27321	20787.3875
786.15132	19950.8875
790.02671	19443.6875
793.89938	19162.1875
797.76935	19091.3875
801.6366	19047.6875
805.50115	19029.5875
809.36299	18923.7875
813.22213	18878.8875
817.07857	18850.4875
820.93231	18787.1875
824.78336	18725.3875
828.63172	18669.4875
832.47738	18637.2875
836.32036	18659.6875
840.16066	18692.9875
843.99827	18736.2875
847.8332	18733.3875
851.66546	18699.5875
855.49504	18692.2875
859.32195	18715.3875
863.1462	18702.3875
866.96777	18632.8875
870.78668	18637.1875
874.60293	18615.1875
878.41652	18665.2875
882.22745	18699.4875
886.03573	18732.0875
889.84136	18754.9875
893.64433	18688.0875
897.44466	18628.3875
901.24235	18581.8875
905.0374	18521.6875
908.8298	18537.4875
912.61957	18509.2875
916.40671	18636.2875
920.19121	18799.4875
923.97308	18925.4875
927.75233	18916.3875
931.52895	18764.9875
935.30295	18557.0875
939.07433	18369.8875
942.84309	18193.9875
946.60924	18110.8875
950.37278	18074.8875
954.13371	18054.1875
957.89203	18047.0875
961.64774	18033.5875
965.40086	18003.1875
969.15137	17947.7875
972.89929	17886.9875
976.64461	17873.1875
980.38733	17845.2875
984.12747	17869.7875
987.86502	17929.9875
991.59999	18005.9875
995.33237	18131.0875
999.06217	18311.7875
1002.78939	18564.7875
1006.51404	18752.8875
1010.23611	18932.4875
1013.95561	19102.8875
1017.67255	19139.9875
1021.38692	19018.6875
1025.09872	18860.6875
1028.80796	18723.6875
1032.51465	18776.0875
1036.21877	18855.5875
1039.92035	18962.1875
1043.61937	18938.0875
1047.31584	18871.8875
1051.00976	18783.7875
1054.70114	18834.7875
1058.38998	18874.6875
1062.07627	18983.6875
1065.76003	19124.2875
1069.44126	19244.5875
1073.11995	19425.3875
1076.79611	19577.6875
1080.46974	19671.0875
1084.14085	19699.3875
1087.80943	19799.0875
1091.47549	19919.3875
1095.13903	19933.2875
1098.80005	19826.1875
1102.45857	19590.0875
1106.11456	19303.5875
1109.76805	19177.7875
1113.41903	19223.4875
1117.06751	19270.0875
1120.71348	19374.9875
1124.35696	19544.7875
1127.99793	19760.7875
1131.63641	19879.1875
1135.2724	19765.7875
1138.90589	19698.3875
1142.5369	19692.9875
1146.16542	19736.5875
1149.79145	19853.8875
1153.415	19979.1875
1157.03607	20183.8875
1160.65467	20580.8875
1164.27079	21317.3875
1167.88443	22110.0875
1171.49561	22938.7875
1175.10432	23908.4875
1178.71056	25179.0875
1182.31434	26337.8875
1185.91565	26938.5875
1189.51451	26823.1875
1193.11091	26286.6875
1196.70485	25616.5875
1200.29634	25000.7875
1203.88538	24568.9875
1207.47197	24342.1875
1211.05612	24079.4875
1214.63782	23710.6875
1218.21708	23180.2875
1221.79391	22653.9875
1225.36829	22307.3875
1228.94024	22075.4875
1232.50976	21820.6875
1236.07685	21657.6875
1239.6415	21559.6875
1243.20374	21581.1875
1246.76355	21716.6875
1250.32093	21960.7875
1253.8759	22230.1875
1257.42845	22661.9875
1260.97859	23112.9875
1264.52631	23582.2875
1268.07163	24004.2875
1271.61453	24486.7875
1275.15503	24933.9875
1278.69312	25423.2875
1282.22882	25974.6875
1285.76211	26650.7875
1289.29301	27517.9875
1292.82151	28571.5875
1296.34761	29833.4875
1299.87133	31381.6875
1303.39266	32829.7875
1306.9116	34050.7875
1310.42815	34991.3875
1313.94233	35367.6875
1317.45412	35155.9875
1320.96354	34560.1875
1324.47058	34035.8875
1327.97525	33632.7875
1331.47754	33314.2875
1334.97747	33122.0875
1338.47502	32783.4875
1341.97022	32452.5875
1345.46305	32074.9875
1348.95352	31837.4875
1352.44163	31942.6875
1355.92738	32625.9875
1359.41078	33660.5875
1362.89183	34388.2875
1366.37053	33783.0875
1369.84688	31592.0875
1373.32088	28826.3875
1376.79254	26992.0875
1380.26186	26360.0875
1383.72883	26432.2875
1387.19347	26471.0875
1390.65578	26345.3875
1394.11575	26223.7875
1397.57339	26453.1875
1401.0287	26823.6875
1404.48168	27103.1875
1407.93234	27036.8875
1411.38068	26515.3875
1414.82669	25745.0875
1418.27039	24862.8875
1421.71177	24034.2875
1425.15083	23333.6875
1428.58758	22982.1875
1432.02203	23137.7875
1435.45416	23592.9875
1438.88399	24126.9875
1442.31151	24596.9875
1445.73673	24863.8875
1449.15965	25038.5875
1452.58027	25060.9875
1455.9986	24987.8875
1459.41463	25087.0875
1462.82837	25296.4875
1466.23982	25611.5875
1469.64898	25943.9875
1473.05586	26161.4875
1476.46045	26229.2875
1479.86276	26117.5875
1483.26279	25839.4875
1486.66054	25681.2875
1490.05602	25720.5875
1493.44922	25877.5875
1496.84016	26128.3875
1500.22882	26537.1875
1503.61521	27141.1875
1506.99934	27817.1875
1510.38121	28394.9875
1513.76081	28486.7875
1517.13816	28069.8875
1520.51324	27430.7875
1523.88607	26969.7875
1527.25665	26840.0875
1530.62498	26884.8875
1533.99105	26773.9875
1537.35488	26532.5875
1540.71647	26130.4875
1544.07581	25573.8875
1547.4329	24975.3875
1550.78776	24486.3875
1554.14038	24092.9875
1557.49077	23893.0875
1560.83892	23787.8875
1564.18484	23728.7875
1567.52853	23782.2875
1570.86999	24012.6875
1574.20922	24373.8875
1577.54624	24766.1875
1580.88103	24938.8875
1584.2136	25180.5875
1587.54395	25745.2875
1590.87208	26709.7875
1594.19801	27854.5875
1597.52172	29005.4875
1600.84321	29182.4875
1604.16251	28171.1875
1607.47959	26399.6875
1610.79447	24538.4875
1614.10715	22883.2875
1617.41763	21581.1875
1620.7259	20716.7875
1624.03199	20294.9875
1627.33587	20299.4875
1630.63757	20767.6875
1633.93707	21703.3875
1637.23439	23399.4875
1640.52951	25723.8875
1643.82246	28587.7875
1647.11321	30759.3875
1650.40179	30950.2875
1653.68819	28897.2875
1656.97241	25697.5875
1660.25446	22649.4875
1663.53433	20487.3875
1666.81203	19070.9875
1670.08756	18183.4875
1673.36092	17648.6875
1676.63211	17271.6875
1679.90115	16991.9875
1683.16801	16801.9875
1686.43272	16644.4875
1689.69527	16544.2875
1692.95567	16468.4875
1696.2139	16430.6875
1699.46999	16404.2875
1702.72392	16355.9875
1705.97571	16296.9875
1709.22535	16233.6875
1712.47284	16220.1875
1715.71819	16194.9875
1718.96139	16164.0875
1722.20246	16174.0875
1725.44139	16077.7875
1728.67818	15991.1875
1731.91284	15939.6875
1735.14537	15863.5875
1738.37576	15807.6875
1741.60403	15773.4875
1744.83017	15746.7875
1748.05418	15678.9875
1751.27607	15696.5875
1754.49584	15663.4875
1757.71349	15692.5875
1760.92903	15670.4875
1764.14244	15644.6875
1767.35375	15620.1875
1770.56294	15576.5875
1773.77002	15569.4875
1776.97499	15539.6875
1780.17785	15497.4875
1783.37861	15456.6875
1786.57727	15435.5875
1789.77382	15437.4875
1792.96828	15363.0875
1796.16064	15342.4875
1799.3509	15342.6875
1802.53907	15276.0875
1805.72514	15249.4875
1808.90913	15251.0875
1812.09102	15200.7875
1815.27083	15163.6875
1818.44856	15149.5875
1821.6242	15103.1875
1824.79776	15092.1875
1827.96924	15110.2875
1831.13864	15090.4875
1834.30597	15041.8875
1837.47122	15072.7875
1840.6344	15071.6875
1843.7955	15063.5875
1846.95454	15013.5875
1850.11151	15013.5875
1853.26642	14989.3875
1856.41926	15006.8875
1859.57004	15006.3875
1862.71876	14976.5875
1865.86542	14946.7875
1869.01003	14947.5875
1872.15258	14937.4875
1875.29308	14888.4875
1878.43152	14889.6875
1881.56792	14843.9875
1884.70227	14841.5875
1887.83457	14823.9875
1890.96482	14796.0875
1894.09304	14768.3875
1897.21921	14775.9875
1900.34335	14743.2875
1903.46544	14733.5875
1906.58551	14688.3875
1909.70353	14710.8875
1912.81953	14659.0875
1915.93349	14644.6875
1919.04543	14589.4875
1922.15534	14570.7875
1925.26322	14547.7875
1928.36908	14520.5875
1931.47292	14532.2875
1934.57473	14493.8875
1937.67453	14438.4875
1940.77232	14414.5875
1943.86808	14362.7875
1946.96184	14314.4875
1950.05358	14281.6875
1953.14331	14241.6875
1956.23103	14194.6875
1959.31675	14170.7875
1962.40046	14132.6875
1965.48217	14088.1875
1968.56188	14044.5875
1971.63959	13984.4875
1974.7153	13938.9875
1977.78901	13888.8875
1980.86073	13885.8875
1983.93046	13833.4875
1986.99819	13787.9875
1990.06394	13774.3875
1993.1277	13738.9875
1996.18947	13680.8875
1999.24925	13628.6875
2002.30706	13609.2875
2005.36288	13542.0875
2008.41672	13535.3875
2011.46859	13481.3875
2014.51848	13477.8875
2017.56639	13431.3875
2020.61233	13389.2875
2023.6563	13348.5875
2026.6983	13344.6875
2029.73833	13272.9875
2032.7764	13262.4875
2035.8125	13219.1875
2038.84664	13196.1875
2041.87881	13168.2875
2044.90903	13129.8875
2047.93729	13126.9875
2050.96359	13107.4875
2053.98794	13060.8875
2057.01034	13074.5875
2060.03078	13047.6875
2063.04927	13040.8875
2066.06582	13056.7875
2069.08042	13044.6875
2072.09307	13038.7875
2075.10378	13020.4875
2078.11255	13021.3875
2081.11938	13010.5875
2084.12426	12989.4875
2087.12722	12985.9875
2090.12824	12978.5875
2093.12732	12951.8875
2096.12447	12998.8875
2099.11969	12981.0875
2102.11299	12960.0875
2105.10435	12963.6875
2108.09379	12994.5875
2111.08131	12969.2875
2114.0669	12985.7875
2117.05057	12994.4875
2120.03233	13010.3875
2123.01216	13021.6875
2125.99008	13016.4875
2128.96609	13012.3875
2131.94018	13029.3875
2134.91236	13043.4875
2137.88263	13057.6875
2140.851	13053.6875
2143.81746	13054.2875
2146.78201	13066.3875
2149.74466	13074.6875
2152.7054	13018.3875
2155.66425	13042.4875
2158.6212	13034.4875
2161.57625	13053.6875
2164.52941	13047.1875
2167.48067	13037.8875
2170.43004	13018.3875
2173.37752	13007.2875
2176.32311	13004.8875
2179.26681	13033.7875
2182.20863	13061.9875
2185.14856	13051.6875
2188.08661	13029.3875
2191.02278	13025.2875
2193.95707	13034.0875
2196.88948	13014.5875
2199.82001	13013.8875
2202.74867	12990.4875
2205.67545	12966.4875
2208.60037	12905.3875
2211.52341	12933.8875
2214.44458	12918.2875
2217.36388	12875.9875
2220.28132	12849.4875
2223.1969	12831.3875
2226.11061	12791.6875
2229.02246	12764.2875
2231.93245	12761.3875
2234.84058	12727.4875
2237.74686	12733.7875
2240.65128	12713.8875
2243.55385	12664.7875
2246.45456	12651.2875
2249.35343	12635.2875
2252.25044	12603.0875
2255.14561	12601.3875
2258.03893	12557.6875
2260.93041	12565.5875
2263.82004	12513.7875
2266.70783	12493.6875
2269.59378	12453.3875
2272.4779	12389.3875
2275.36017	12371.2875
2278.24061	12356.6875
2281.11922	12355.2875
2283.996	12325.6875
2286.87094	12338.8875
2289.74405	12308.3875
2292.61534	12305.3875
2295.4848	12310.1875
2298.35243	12302.1875
2301.21824	12273.1875
2304.08223	12300.8875
2306.94439	12272.6875
2309.80474	12282.3875
2312.66327	12266.0875
2315.51999	12226.6875
2318.37489	12214.7875
2321.22797	12201.5875
2324.07925	12162.5875
2326.92871	12196.5875
2329.77637	12144.0875
2332.62222	12136.4875
2335.46626	12119.0875
2338.3085	12103.0875
2341.14893	12083.1875
2343.98756	12090.9875
2346.8244	12096.3875
2349.65943	12062.6875
2352.49267	12064.9875
2355.32411	12080.4875
2358.15376	12074.3875
2360.98161	12057.1875
2363.80768	12033.3875
2366.63195	12016.1875
2369.45444	11977.9875
2372.27514	11985.0875
2375.09405	11954.5875
2377.91118	11969.5875
2380.72652	11938.2875
2383.54009	11902.2875
2386.35187	11868.3875
2389.16188	11835.5875
2391.97011	11820.3875
2394.77657	11796.3875
2397.58125	11769.3875
2400.38416	11755.7875
2403.18529	11758.8875
2405.98466	11738.2875
2408.78226	11701.8875
2411.57809	11705.4875
2414.37216	11682.5875
2417.16446	11658.6875
2419.955	11654.5875
2422.74378	11650.0875
2425.5308	11646.9875
2428.31606	11649.6875
2431.09956	11631.1875
2433.88131	11621.2875
2436.6613	11641.4875
2439.43954	11583.6875
2442.21603	11577.7875
2444.99077	11583.2875
2447.76377	11557.7875
2450.53501	11571.7875
2453.30451	11554.5875
2456.07226	11538.0875
2458.83827	11535.2875
2461.60254	11539.5875
2464.36507	11521.8875
2467.12586	11486.5875
2469.88492	11494.7875
2472.64224	11508.4875
2475.39782	11504.6875
2478.15167	11490.9875
2480.90379	11472.2875
2483.65417	11490.7875
2486.40283	11500.0875
2489.14976	11503.0875
2491.89497	11482.9875
2494.63845	11476.9875
2497.3802	11448.5875
2500.12024	11460.2875
2502.85855	11431.9875
2505.59514	11444.3875
2508.33002	11415.5875
2511.06318	11396.7875
2513.79462	11381.4875
2516.52435	11376.8875
2519.25237	11377.7875
2521.97867	11351.2875
2524.70327	11365.0875
2527.42616	11354.6875
2530.14734	11335.1875
2532.86681	11322.4875
2535.58458	11314.2875
2538.30065	11308.5875
2541.01501	11291.4875
2543.72768	11266.5875
2546.43864	11281.9875
2549.14791	11249.5875
2551.85548	11265.8875
2554.56136	11237.1875
2557.26554	11219.9875
2559.96803	11199.0875
2562.66883	11183.8875
2565.36794	11137.0875
2568.06536	11117.9875
2570.7611	11117.9875
2573.45514	11106.5875
2576.14751	11086.4875
2578.83819	11089.0875
2581.52719	11061.5875
2584.21451	11059.8875
2586.90015	11050.5875
2589.58411	11011.5875
2592.2664	11025.9875
2594.94701	10994.0875
2597.62594	10992.0875
2600.30321	10950.7875
2602.9788	10955.5875
2605.65273	10923.8875
2608.32498	10925.7875
2610.99557	10915.9875
2613.66449	10922.4875
2616.33175	10899.1875
2618.99734	10879.7875
2621.66128	10856.8875
2624.32355	10859.5875
2626.98416	10875.8875
2629.64311	10860.2875
2632.30041	10814.5875
2634.95605	10818.7875
2637.61004	10795.5875
2640.26238	10785.2875
2642.91306	10801.3875
2645.56209	10784.4875
2648.20948	10758.5875
2650.85521	10751.8875
2653.4993	10765.4875
2656.14175	10787.8875
2658.78255	10787.6875
2661.42171	10788.9875
2664.05923	10784.5875
2666.6951	10805.2875
2669.32934	10836.5875
2671.96194	10810.7875
2674.59291	10789.3875
2677.22224	10784.9875
2679.84993	10782.9875
2682.476	10775.6875
2685.10043	10782.3875
2687.72324	10731.0875
2690.34441	10762.9875
2692.96396	10751.5875
2695.58188	10744.4875
2698.19818	10738.7875
2700.81285	10747.1875
2703.4259	10759.7875
2706.03733	10781.3875
2708.64714	10742.9875
2711.25533	10772.0875
2713.86191	10746.4875
2716.46687	10751.5875
2719.07021	10762.3875
2721.67194	10774.8875
2724.27206	10771.1875
2726.87057	10768.1875
2729.46747	10792.2875
2732.06276	10779.9875
2734.65644	10759.4875
2737.24852	10772.4875
2739.83899	10743.0875
2742.42786	10763.8875
2745.01513	10708.4875
2747.60079	10725.6875
2750.18486	10698.9875
2752.76733	10674.5875
2755.3482	10665.5875
2757.92747	10685.4875
2760.50515	10640.5875
2763.08123	10648.3875
2765.65573	10626.9875
2768.22863	10618.0875
2770.79994	10622.9875
2773.36967	10604.1875
2775.9378	10612.4875
2778.50435	10582.9875
2781.06932	10600.6875
2783.6327	10602.2875
2786.1945	10582.0875
2788.75471	10573.8875
2791.31335	10596.6875
2793.87041	10545.3875
2796.42589	10496.6875
2798.97979	10532.3875
2801.53212	10480.6875
2804.08288	10467.7875
2806.63206	10447.2875
2809.17967	10429.6875
2811.72571	10362.0875
2814.27018	10366.7875
2816.81308	10341.9875
2819.35442	10316.3875
2821.89419	10322.5875
2824.43239	10292.1875
2826.96904	10280.2875
2829.50412	10260.7875
2832.03763	10271.3875
2834.56959	10264.4875
2837.1	10252.5875
2839.62884	10252.7875
2842.15613	10240.9875
2844.68186	10291.6875
2847.20604	10303.0875
2849.72867	10294.2875
2852.24974	10289.7875
2854.76927	10268.1875
2857.28724	10270.0875
2859.80367	10232.0875
2862.31855	10232.0875
2864.83189	10227.2875
2867.34368	10163.4875
2869.85393	10189.8875
2872.36264	10158.3875
2874.8698	10192.1875
2877.37543	10154.4875
2879.87952	10181.4875
2882.38207	10146.3875
2884.88308	10132.3875
2887.38256	10172.6875
2889.88051	10170.5875
2892.37692	10164.8875
2894.8718	10167.2875
2897.36515	10144.4875
2899.85698	10183.7875
2902.34727	10192.1875
2904.83604	10181.6875
2907.32328	10208.0875
2909.809	10197.1875
2912.29319	10189.2875
2914.77587	10182.0875
2917.25702	10175.8875
2919.73665	10184.9875
2922.21476	10172.1875
2924.69136	10163.2875
2927.16644	10158.6875
2929.64	10132.1875
2932.11205	10143.6875
2934.58258	10133.5875
2937.05161	10131.4875
2939.51912	10127.0875
2941.98513	10126.8875
2944.44962	10119.2875
2946.91261	10070.6875
2949.37409	10064.1875
2951.83407	10075.1875
2954.29254	10048.5875
2956.74951	10054.0875
2959.20498	10038.4875
2961.65895	10033.5875
2964.11142	10000.1875
2966.56239	9993.5875
2969.01186	10006.8875
2971.45984	9972.0875
2973.90632	9972.9875
2976.35131	9950.9875
2978.7948	9946.7875
2981.23681	9892.3875
2983.67732	9894.7875
2986.11635	9864.6875
2988.55388	9830.4875
2990.98993	9845.2875
2993.4245	9811.3875
2995.85758	9801.8875
2998.28917	9739.4875
3000.71928	9758.6875
3003.14791	9710.4875
3005.57506	9713.7875
3008.00073	9722.6875
3010.42493	9691.9875
3012.84764	9680.4875
3015.26888	9656.5875
3017.68865	9623.0875
3020.10694	9635.2875
3022.52376	9631.8875
3024.9391	9607.1875
3027.35298	9578.1875
