Data from AgNP_FTO_APTES_UA_10uM_CRN_1000uM_R6G_10uM_NaF_0.1M_Addition_RamanShift__13__19-36-20-993.txt Node

Date: Thu Feb 10 19:36:20 GMT 2022
User: TCL
Spectrometer: QEP01345
Trigger mode: 4
Integration Time (sec): 7.000000E0
Scans to average: 10
Electric dark correction enabled: true
Nonlinearity correction enabled: false
Boxcar width: 0
XAxis mode: Raman Shifts
Number of Pixels in Spectrum: 1044
>>>>>Begin Spectral Data<<<<<
46.04893	0.6875
50.45542	-1.2125
54.85868	-0.3125
59.25871	-0.3125
63.6555	45.8875
68.04907	51.0875
72.43941	51.1875
76.82654	50.6875
81.21044	57.5875
85.59113	54.5875
89.96862	59.7875
94.34289	61.6875
98.71396	62.8875
103.08183	64.3875
107.4465	66.8875
111.80798	67.0875
116.16626	69.1875
120.52136	75.1875
124.87327	78.5875
129.222	78.4875
133.56755	82.1875
137.90993	86.3875
142.24913	93.5875
146.58517	102.6875
150.91804	122.3875
155.24774	140.9875
159.57429	174.4875
163.89768	219.6875
168.21792	292.7875
172.53501	392.1875
176.84895	545.1875
181.15975	766.1875
185.46741	1077.8875
189.77193	1492.9875
194.07331	2005.5875
198.37157	2589.4875
202.6667	3218.4875
206.9587	3843.0875
211.24758	4457.5875
215.53334	5040.7875
219.81599	5654.9875
224.09553	6317.3875
228.37195	7067.3875
232.64527	7886.6875
236.91549	8750.6875
241.18261	9672.6875
245.44663	10539.1875
249.70755	11336.5875
253.96539	12015.9875
258.22014	12593.4875
262.4718	13059.3875
266.72039	13365.6875
270.96589	13532.0875
275.20832	13582.0875
279.44768	13531.4875
283.68397	13431.4875
287.91719	13319.3875
292.14735	13227.2875
296.37445	13181.4875
300.59849	13158.8875
304.81948	13165.2875
309.03742	13100.8875
313.25231	12971.2875
317.46415	12796.1875
321.67296	12546.6875
325.87872	12347.2875
330.08145	12271.9875
334.28114	12254.9875
338.47781	12349.7875
342.67145	12434.7875
346.86207	12604.1875
351.04966	12730.7875
355.23424	12908.8875
359.4158	13089.5875
363.59435	13186.4875
367.76989	13318.7875
371.94243	13394.2875
376.11196	13462.8875
380.27849	13505.2875
384.44203	13573.9875
388.60257	13680.8875
392.76012	13780.4875
396.91468	13928.9875
401.06626	14104.3875
405.21485	14248.1875
409.36047	14207.7875
413.50311	14150.9875
417.64277	14024.5875
421.77947	14032.7875
425.9132	14099.8875
430.04396	14200.6875
434.17176	14284.0875
438.2966	14406.8875
442.41849	14520.8875
446.53742	14743.8875
450.6534	14985.1875
454.76644	15135.6875
458.87653	15235.6875
462.98368	15297.1875
467.08789	15326.8875
471.18916	15260.3875
475.2875	15178.3875
479.38291	15181.5875
483.4754	15141.0875
487.56496	15045.8875
491.6516	14948.1875
495.73531	14794.5875
499.81612	14711.9875
503.89401	14684.5875
507.96899	14691.5875
512.04106	14719.1875
516.11023	14736.0875
520.1765	14658.2875
524.23987	14553.2875
528.30034	14470.3875
532.35792	14412.1875
536.41261	14336.1875
540.46441	14279.5875
544.51333	14318.4875
548.55936	14461.4875
552.60252	14623.4875
556.64279	14850.1875
560.6802	15028.3875
564.71473	15162.6875
568.7464	15334.9875
572.7752	15673.8875
576.80114	15997.6875
580.82422	16283.5875
584.84444	16409.2875
588.86181	16467.0875
592.87633	16543.3875
596.888	16464.1875
600.89682	16296.4875
604.9028	16365.6875
608.90594	16954.0875
612.90624	17620.1875
616.90371	16973.8875
620.89834	15423.7875
624.89015	14729.1875
628.87913	14676.9875
632.86528	14775.2875
636.84862	14888.4875
640.82913	14769.7875
644.80683	14589.0875
648.78172	14413.0875
652.75379	14368.5875
656.72306	14432.4875
660.68952	14554.7875
664.65319	14551.2875
668.61405	14459.3875
672.57211	14499.8875
676.52738	14537.7875
680.47986	14565.9875
684.42955	14556.1875
688.37646	14499.4875
692.32058	14497.9875
696.26192	14618.4875
700.20048	14686.4875
704.13626	14771.9875
708.06928	14844.0875
711.99952	14820.3875
715.927	14785.1875
719.85171	14728.2875
723.77365	14687.4875
727.69284	14555.9875
731.60928	14447.4875
735.52295	14374.5875
739.43388	14340.5875
743.34206	14374.2875
747.24749	14415.5875
751.15017	14497.3875
755.05012	14622.4875
758.94733	14914.1875
762.8418	15312.1875
766.73354	15988.4875
770.62254	16576.2875
774.50882	16755.1875
778.39237	16315.7875
782.27321	15634.1875
786.15132	15053.1875
790.02671	14658.7875
793.89938	14426.5875
797.76935	14325.5875
801.6366	14284.0875
805.50115	14245.2875
809.36299	14190.6875
813.22213	14135.3875
817.07857	14165.5875
820.93231	14169.2875
824.78336	14124.9875
828.63172	14077.7875
832.47738	14070.9875
836.32036	14046.4875
840.16066	14027.6875
843.99827	14070.6875
847.8332	14023.2875
851.66546	14048.0875
855.49504	14063.0875
859.32195	14059.6875
863.1462	14056.3875
866.96777	14044.8875
870.78668	14036.7875
874.60293	14036.4875
878.41652	14065.5875
882.22745	14063.9875
886.03573	14087.4875
889.84136	14129.3875
893.64433	14076.4875
897.44466	14108.6875
901.24235	14086.0875
905.0374	14076.6875
908.8298	14034.4875
912.61957	14026.5875
916.40671	14089.7875
920.19121	14203.8875
923.97308	14265.4875
927.75233	14247.3875
931.52895	14115.7875
935.30295	14019.0875
939.07433	13841.5875
942.84309	13709.4875
946.60924	13633.0875
950.37278	13555.1875
954.13371	13561.9875
957.89203	13548.9875
961.64774	13545.4875
965.40086	13524.7875
969.15137	13459.6875
972.89929	13423.5875
976.64461	13389.4875
980.38733	13324.9875
984.12747	13321.9875
987.86502	13347.6875
991.59999	13385.6875
995.33237	13425.8875
999.06217	13478.0875
1002.78939	13584.3875
1006.51404	13681.5875
1010.23611	13790.1875
1013.95561	13905.1875
1017.67255	13941.5875
1021.38692	13940.7875
1025.09872	13865.6875
1028.80796	13777.0875
1032.51465	13719.6875
1036.21877	13695.8875
1039.92035	13707.7875
1043.61937	13801.3875
1047.31584	13800.7875
1051.00976	13875.8875
1054.70114	13916.8875
1058.38998	13979.4875
1062.07627	14102.7875
1065.76003	14208.9875
1069.44126	14262.8875
1073.11995	14399.5875
1076.79611	14465.7875
1080.46974	14528.8875
1084.14085	14562.6875
1087.80943	14628.3875
1091.47549	14699.0875
1095.13903	14760.7875
1098.80005	14749.4875
1102.45857	14555.8875
1106.11456	14370.0875
1109.76805	14229.2875
1113.41903	14181.8875
1117.06751	14206.8875
1120.71348	14294.1875
1124.35696	14400.9875
1127.99793	14579.4875
1131.63641	14671.0875
1135.2724	14616.2875
1138.90589	14519.0875
1142.5369	14508.9875
1146.16542	14509.5875
1149.79145	14601.2875
1153.415	14659.9875
1157.03607	14812.0875
1160.65467	15015.6875
1164.27079	15356.4875
1167.88443	15749.4875
1171.49561	16262.2875
1175.10432	16824.0875
1178.71056	17533.6875
1182.31434	18299.9875
1185.91565	18808.4875
1189.51451	19053.8875
1193.11091	19082.3875
1196.70485	18845.5875
1200.29634	18429.6875
1203.88538	17993.3875
1207.47197	17650.5875
1211.05612	17358.1875
1214.63782	17084.5875
1218.21708	16802.3875
1221.79391	16464.8875
1225.36829	16170.5875
1228.94024	15985.5875
1232.50976	15883.3875
1236.07685	15820.4875
1239.6415	15795.2875
1243.20374	15841.4875
1246.76355	15861.8875
1250.32093	15956.2875
1253.8759	16081.3875
1257.42845	16322.9875
1260.97859	16614.4875
1264.52631	16920.6875
1268.07163	17169.3875
1271.61453	17440.6875
1275.15503	17656.8875
1278.69312	17909.3875
1282.22882	18222.6875
1285.76211	18543.3875
1289.29301	18956.2875
1292.82151	19442.6875
1296.34761	20043.0875
1299.87133	20729.9875
1303.39266	21379.5875
1306.9116	21976.7875
1310.42815	22421.9875
1313.94233	22666.7875
1317.45412	22638.5875
1320.96354	22451.9875
1324.47058	22334.5875
1327.97525	22277.6875
1331.47754	22280.9875
1334.97747	22372.9875
1338.47502	22511.8875
1341.97022	22727.0875
1345.46305	22925.1875
1348.95352	22992.4875
1352.44163	22942.8875
1355.92738	22899.5875
1359.41078	22867.7875
1362.89183	22883.4875
1366.37053	22414.8875
1369.84688	21296.3875
1373.32088	19881.4875
1376.79254	18917.2875
1380.26186	18493.6875
1383.72883	18371.2875
1387.19347	18321.4875
1390.65578	18269.0875
1394.11575	18202.9875
1397.57339	18184.3875
1401.0287	18205.7875
1404.48168	18148.1875
1407.93234	17975.0875
1411.38068	17693.5875
1414.82669	17286.2875
1418.27039	16827.1875
1421.71177	16392.0875
1425.15083	15955.0875
1428.58758	15746.0875
1432.02203	15715.8875
1435.45416	15865.8875
1438.88399	16053.9875
1442.31151	16253.5875
1445.73673	16419.0875
1449.15965	16541.3875
1452.58027	16691.1875
1455.9986	16826.6875
1459.41463	16967.8875
1462.82837	17136.7875
1466.23982	17289.4875
1469.64898	17461.0875
1473.05586	17526.6875
1476.46045	17532.2875
1479.86276	17479.6875
1483.26279	17458.4875
1486.66054	17447.5875
1490.05602	17559.5875
1493.44922	17754.8875
1496.84016	18086.7875
1500.22882	18600.0875
1503.61521	19210.4875
1506.99934	19857.1875
1510.38121	20303.6875
1513.76081	20373.1875
1517.13816	20108.9875
1520.51324	19665.6875
1523.88607	19328.1875
1527.25665	19132.4875
1530.62498	19041.4875
1533.99105	18947.6875
1537.35488	18793.9875
1540.71647	18502.4875
1544.07581	18161.5875
1547.4329	17794.3875
1550.78776	17483.0875
1554.14038	17210.9875
1557.49077	17117.6875
1560.83892	17066.4875
1564.18484	17055.9875
1567.52853	17118.6875
1570.86999	17213.5875
1574.20922	17399.0875
1577.54624	17528.0875
1580.88103	17520.7875
1584.2136	17418.3875
1587.54395	17524.9875
1590.87208	17732.8875
1594.19801	18101.5875
1597.52172	18601.8875
1600.84321	18706.7875
1604.16251	18370.6875
1607.47959	17747.9875
1610.79447	16999.5875
1614.10715	16197.1875
1617.41763	15454.3875
1620.7259	14854.4875
1624.03199	14418.1875
1627.33587	14250.7875
1630.63757	14344.1875
1633.93707	14701.9875
1637.23439	15385.0875
1640.52951	16401.3875
1643.82246	17681.3875
1647.11321	18870.9875
1650.40179	19492.5875
1653.68819	19127.0875
1656.97241	17827.1875
1660.25446	16224.8875
1663.53433	14913.5875
1666.81203	13893.6875
1670.08756	13165.4875
1673.36092	12739.2875
1676.63211	12445.9875
1679.90115	12239.9875
1683.16801	12065.2875
1686.43272	11960.6875
1689.69527	11868.6875
1692.95567	11783.2875
1696.2139	11766.8875
1699.46999	11733.1875
1702.72392	11693.4875
1705.97571	11624.2875
1709.22535	11593.9875
1712.47284	11555.0875
1715.71819	11555.5875
1718.96139	11527.5875
1722.20246	11495.5875
1725.44139	11407.0875
1728.67818	11396.8875
1731.91284	11327.5875
1735.14537	11266.9875
1738.37576	11199.6875
1741.60403	11149.7875
1744.83017	11154.6875
1748.05418	11112.8875
1751.27607	11131.2875
1754.49584	11104.1875
1757.71349	11109.2875
1760.92903	11107.7875
1764.14244	11078.3875
1767.35375	11097.0875
1770.56294	11080.4875
1773.77002	11025.9875
1776.97499	11000.2875
1780.17785	10970.8875
1783.37861	10923.3875
1786.57727	10898.0875
1789.77382	10851.7875
1792.96828	10840.7875
1796.16064	10817.5875
1799.3509	10798.2875
1802.53907	10773.6875
1805.72514	10721.7875
1808.90913	10693.4875
1812.09102	10661.2875
1815.27083	10644.1875
1818.44856	10616.4875
1821.6242	10595.5875
1824.79776	10571.2875
1827.96924	10551.7875
1831.13864	10520.6875
1834.30597	10513.2875
1837.47122	10529.4875
1840.6344	10491.3875
1843.7955	10495.0875
1846.95454	10487.2875
1850.11151	10448.3875
1853.26642	10452.3875
1856.41926	10454.8875
1859.57004	10458.3875
1862.71876	10418.7875
1865.86542	10389.0875
1869.01003	10375.4875
1872.15258	10369.6875
1875.29308	10354.6875
1878.43152	10316.4875
1881.56792	10297.5875
1884.70227	10315.6875
1887.83457	10279.4875
1890.96482	10250.3875
1894.09304	10220.1875
1897.21921	10196.5875
1900.34335	10193.5875
1903.46544	10178.7875
1906.58551	10182.9875
1909.70353	10158.0875
1912.81953	10126.4875
1915.93349	10103.3875
1919.04543	10097.5875
1922.15534	10065.1875
1925.26322	10036.4875
1928.36908	10042.2875
1931.47292	10022.1875
1934.57473	9970.2875
1937.67453	9938.6875
1940.77232	9917.8875
1943.86808	9879.6875
1946.96184	9885.3875
1950.05358	9828.4875
1953.14331	9796.6875
1956.23103	9763.8875
1959.31675	9746.1875
1962.40046	9708.6875
1965.48217	9685.6875
1968.56188	9648.7875
1971.63959	9603.1875
1974.7153	9561.4875
1977.78901	9534.9875
1980.86073	9523.5875
1983.93046	9498.0875
1986.99819	9460.8875
1990.06394	9414.6875
1993.1277	9392.4875
1996.18947	9355.2875
1999.24925	9329.6875
2002.30706	9295.2875
2005.36288	9256.4875
2008.41672	9225.5875
2011.46859	9184.9875
2014.51848	9161.1875
2017.56639	9140.6875
2020.61233	9118.4875
2023.6563	9097.9875
2026.6983	9079.1875
2029.73833	9020.2875
2032.7764	9013.6875
2035.8125	8982.6875
2038.84664	8940.6875
2041.87881	8911.4875
2044.90903	8873.6875
2047.93729	8872.1875
2050.96359	8885.4875
2053.98794	8849.5875
2057.01034	8844.9875
2060.03078	8817.4875
2063.04927	8793.4875
2066.06582	8826.1875
2069.08042	8820.9875
2072.09307	8828.0875
2075.10378	8796.6875
2078.11255	8785.9875
2081.11938	8805.5875
2084.12426	8772.7875
2087.12722	8775.4875
2090.12824	8742.0875
2093.12732	8744.8875
2096.12447	8741.3875
2099.11969	8731.7875
2102.11299	8731.3875
2105.10435	8736.4875
2108.09379	8729.5875
2111.08131	8720.2875
2114.0669	8734.0875
2117.05057	8718.6875
2120.03233	8730.7875
2123.01216	8750.4875
2125.99008	8742.6875
2128.96609	8751.6875
2131.94018	8758.3875
2134.91236	8771.2875
2137.88263	8755.8875
2140.851	8770.1875
2143.81746	8779.4875
2146.78201	8754.3875
2149.74466	8728.2875
2152.7054	8741.6875
2155.66425	8749.3875
2158.6212	8724.4875
2161.57625	8724.6875
2164.52941	8708.2875
2167.48067	8700.1875
2170.43004	8713.3875
2173.37752	8694.5875
2176.32311	8712.6875
2179.26681	8674.3875
2182.20863	8669.9875
2185.14856	8659.4875
2188.08661	8662.2875
2191.02278	8653.1875
2193.95707	8658.5875
2196.88948	8643.7875
2199.82001	8632.4875
2202.74867	8589.8875
2205.67545	8592.4875
2208.60037	8554.7875
2211.52341	8584.3875
2214.44458	8560.6875
2217.36388	8523.4875
2220.28132	8506.8875
2223.1969	8473.7875
2226.11061	8437.1875
2229.02246	8432.6875
2231.93245	8418.8875
2234.84058	8398.4875
2237.74686	8394.4875
2240.65128	8353.3875
2243.55385	8343.1875
2246.45456	8325.8875
2249.35343	8292.7875
2252.25044	8326.9875
2255.14561	8306.4875
2258.03893	8281.3875
2260.93041	8251.4875
2263.82004	8225.5875
2266.70783	8202.1875
2269.59378	8165.5875
2272.4779	8151.8875
2275.36017	8115.4875
2278.24061	8132.7875
2281.11922	8099.3875
2283.996	8091.0875
2286.87094	8088.7875
2289.74405	8063.3875
2292.61534	8043.1875
2295.4848	8049.2875
2298.35243	8007.7875
2301.21824	7997.2875
2304.08223	7998.9875
2306.94439	7993.7875
2309.80474	7976.8875
2312.66327	7984.4875
2315.51999	7956.3875
2318.37489	7941.5875
2321.22797	7941.5875
2324.07925	7918.0875
2326.92871	7894.7875
2329.77637	7896.9875
2332.62222	7841.3875
2335.46626	7843.3875
2338.3085	7828.6875
2341.14893	7825.6875
2343.98756	7799.7875
2346.8244	7793.9875
2349.65943	7796.1875
2352.49267	7776.6875
2355.32411	7777.5875
2358.15376	7749.0875
2360.98161	7759.7875
2363.80768	7751.6875
2366.63195	7761.4875
2369.45444	7750.1875
2372.27514	7702.7875
2375.09405	7733.6875
2377.91118	7717.5875
2380.72652	7670.3875
2383.54009	7643.0875
2386.35187	7608.8875
2389.16188	7592.2875
2391.97011	7597.8875
2394.77657	7567.7875
2397.58125	7553.4875
2400.38416	7556.9875
2403.18529	7543.6875
2405.98466	7531.6875
2408.78226	7504.8875
2411.57809	7479.4875
2414.37216	7473.9875
2417.16446	7460.0875
2419.955	7450.4875
2422.74378	7440.5875
2425.5308	7439.1875
2428.31606	7437.0875
2431.09956	7438.0875
2433.88131	7391.8875
2436.6613	7395.5875
2439.43954	7390.2875
2442.21603	7375.8875
2444.99077	7356.2875
2447.76377	7362.2875
2450.53501	7344.1875
2453.30451	7344.7875
2456.07226	7319.0875
2458.83827	7303.2875
2461.60254	7313.5875
2464.36507	7300.8875
2467.12586	7286.7875
2469.88492	7259.0875
2472.64224	7251.5875
2475.39782	7244.1875
2478.15167	7262.4875
2480.90379	7251.7875
2483.65417	7261.2875
2486.40283	7263.5875
2489.14976	7231.9875
2491.89497	7212.4875
2494.63845	7211.4875
2497.3802	7195.3875
2500.12024	7170.8875
2502.85855	7189.9875
2505.59514	7177.3875
2508.33002	7170.2875
2511.06318	7161.3875
2513.79462	7162.8875
2516.52435	7121.5875
2519.25237	7125.5875
2521.97867	7114.7875
2524.70327	7105.2875
2527.42616	7107.4875
2530.14734	7080.9875
2532.86681	7047.6875
2535.58458	7071.7875
2538.30065	7086.3875
2541.01501	7053.0875
2543.72768	7037.9875
2546.43864	7021.1875
2549.14791	7009.6875
2551.85548	7005.7875
2554.56136	6982.5875
2557.26554	6955.2875
2559.96803	6930.1875
2562.66883	6914.4875
2565.36794	6879.2875
2568.06536	6885.4875
2570.7611	6871.2875
2573.45514	6861.7875
2576.14751	6847.1875
2578.83819	6823.8875
2581.52719	6832.5875
2584.21451	6796.7875
2586.90015	6791.7875
2589.58411	6764.7875
2592.2664	6757.3875
2594.94701	6755.7875
2597.62594	6749.2875
2600.30321	6730.8875
2602.9788	6727.1875
2605.65273	6701.5875
2608.32498	6699.1875
2610.99557	6688.8875
2613.66449	6686.5875
2616.33175	6677.7875
2618.99734	6668.7875
2621.66128	6645.2875
2624.32355	6636.3875
2626.98416	6647.1875
2629.64311	6614.8875
2632.30041	6607.6875
2634.95605	6583.2875
2637.61004	6562.0875
2640.26238	6555.4875
2642.91306	6560.9875
2645.56209	6566.1875
2648.20948	6557.8875
2650.85521	6564.0875
2653.4993	6537.1875
2656.14175	6557.5875
2658.78255	6554.8875
2661.42171	6534.8875
2664.05923	6534.4875
2666.6951	6529.6875
2669.32934	6527.9875
2671.96194	6520.2875
2674.59291	6529.3875
2677.22224	6509.1875
2679.84993	6531.3875
2682.476	6510.6875
2685.10043	6500.9875
2687.72324	6500.5875
2690.34441	6500.7875
2692.96396	6504.0875
2695.58188	6505.8875
2698.19818	6470.2875
2700.81285	6479.7875
2703.4259	6484.9875
2706.03733	6493.3875
2708.64714	6469.6875
2711.25533	6477.3875
2713.86191	6480.4875
2716.46687	6470.1875
2719.07021	6485.4875
2721.67194	6486.3875
2724.27206	6490.8875
2726.87057	6470.2875
2729.46747	6459.0875
2732.06276	6463.8875
2734.65644	6451.2875
2737.24852	6467.4875
2739.83899	6440.1875
2742.42786	6446.9875
2745.01513	6438.9875
2747.60079	6405.8875
2750.18486	6395.1875
2752.76733	6388.5875
2755.3482	6375.6875
2757.92747	6382.6875
2760.50515	6364.8875
2763.08123	6351.8875
2765.65573	6346.0875
2768.22863	6329.9875
2770.79994	6322.5875
2773.36967	6298.4875
2775.9378	6296.6875
2778.50435	6298.1875
2781.06932	6289.5875
2783.6327	6266.6875
2786.1945	6280.3875
2788.75471	6279.7875
2791.31335	6261.8875
2793.87041	6249.8875
2796.42589	6239.0875
2798.97979	6228.5875
2801.53212	6204.0875
2804.08288	6206.7875
2806.63206	6164.2875
2809.17967	6153.1875
2811.72571	6148.2875
2814.27018	6139.1875
2816.81308	6122.9875
2819.35442	6115.7875
2821.89419	6073.5875
2824.43239	6080.1875
2826.96904	6066.6875
2829.50412	6059.6875
2832.03763	6063.0875
2834.56959	6048.0875
2837.1	6049.2875
2839.62884	6048.5875
2842.15613	6044.0875
2844.68186	6069.3875
2847.20604	6098.3875
2849.72867	6103.8875
2852.24974	6099.8875
2854.76927	6088.1875
2857.28724	6069.9875
2859.80367	6025.0875
2862.31855	6035.3875
2864.83189	6027.7875
2867.34368	6006.6875
2869.85393	6002.5875
2872.36264	5980.7875
2874.8698	5987.6875
2877.37543	5982.3875
2879.87952	5982.4875
2882.38207	5983.3875
2884.88308	5958.8875
2887.38256	5979.3875
2889.88051	5957.7875
2892.37692	5960.6875
2894.8718	5952.6875
2897.36515	5969.2875
2899.85698	5956.2875
2902.34727	5976.7875
2904.83604	5956.9875
2907.32328	5982.0875
2909.809	5954.3875
2912.29319	5949.8875
2914.77587	5955.4875
2917.25702	5951.8875
2919.73665	5956.6875
2922.21476	5928.0875
2924.69136	5939.5875
2927.16644	5925.8875
2929.64	5930.1875
2932.11205	5927.3875
2934.58258	5921.8875
2937.05161	5915.5875
2939.51912	5926.4875
2941.98513	5884.9875
2944.44962	5889.5875
2946.91261	5859.6875
2949.37409	5863.0875
2951.83407	5857.8875
2954.29254	5826.0875
2956.74951	5830.1875
2959.20498	5809.8875
2961.65895	5803.6875
2964.11142	5834.4875
2966.56239	5819.8875
2969.01186	5818.2875
2971.45984	5775.1875
2973.90632	5768.9875
2976.35131	5747.9875
2978.7948	5738.5875
2981.23681	5719.8875
2983.67732	5698.9875
2986.11635	5678.3875
2988.55388	5685.2875
2990.98993	5659.5875
2993.4245	5645.7875
2995.85758	5611.9875
2998.28917	5602.1875
3000.71928	5597.9875
3003.14791	5573.8875
3005.57506	5569.4875
3008.00073	5565.2875
3010.42493	5541.3875
3012.84764	5535.4875
3015.26888	5516.5875
3017.68865	5522.5875
3020.10694	5502.1875
3022.52376	5494.7875
3024.9391	5509.7875
3027.35298	5479.5875
3029.76539	5474.5875
3032.17632	5483.3875
3034.5858	5478.6875
3036.9938	5472.2875
3039.40034	5455.2875
3041.80542	5464.9875
3044.20903	5442.2875
3046.61118	5434.9875
3049.01187	5432.9875
3051.4111	5420.9875
3053.80888	5408.9875
3056.20519	5389.4875
3058.60005	5397.5875
3060.99345	5371.9875
3063.3854	5347.1875
3065.7759	5331.3875
3068.16494	5343.8875
3070.55254	5330.6875
