Data from AgNP_FTO_APTES_UA_10uM_CRN_2uM_R6G_10uM_NaF_0.1M_Addition_RamanShift__26__14-27-10-612.txt Node

Date: Thu Feb 10 14:27:10 GMT 2022
User: TCL
Spectrometer: QEP01345
Trigger mode: 4
Integration Time (sec): 7.000000E0
Scans to average: 10
Electric dark correction enabled: true
Nonlinearity correction enabled: false
Boxcar width: 0
XAxis mode: Raman Shifts
Number of Pixels in Spectrum: 1044
>>>>>Begin Spectral Data<<<<<
46.04893	0.1125
50.45542	-0.8875
54.85868	-2.2875
59.25871	-0.8875
63.6555	69.3125
68.04907	72.3125
72.43941	76.1125
76.82654	77.3125
81.21044	81.4125
85.59113	81.8125
89.96862	86.6125
94.34289	88.6125
98.71396	90.7125
103.08183	94.2125
107.4465	100.7125
111.80798	98.7125
116.16626	99.9125
120.52136	106.7125
124.87327	108.8125
129.222	112.5125
133.56755	118.8125
137.90993	124.9125
142.24913	133.4125
146.58517	151.4125
150.91804	178.1125
155.24774	210.1125
159.57429	262.5125
163.89768	332.6125
168.21792	442.2125
172.53501	603.1125
176.84895	837.2125
181.15975	1170.3125
185.46741	1637.0125
189.77193	2270.0125
194.07331	3008.2125
198.37157	3875.9125
202.6667	4778.3125
206.9587	5689.9125
211.24758	6592.2125
215.53334	7483.5125
219.81599	8491.9125
224.09553	9593.9125
228.37195	10860.5125
232.64527	12229.8125
236.91549	13625.2125
241.18261	14962.3125
245.44663	16146.4125
249.70755	17150.9125
253.96539	18065.0125
258.22014	18834.0125
262.4718	19488.1125
266.72039	19999.0125
270.96589	20350.7125
275.20832	20469.2125
279.44768	20405.6125
283.68397	20252.4125
287.91719	20116.2125
292.14735	20136.3125
296.37445	20371.4125
300.59849	20661.6125
304.81948	21030.5125
309.03742	21225.7125
313.25231	20925.7125
317.46415	20144.1125
321.67296	19048.1125
325.87872	18152.8125
330.08145	17743.2125
334.28114	17697.2125
338.47781	17968.3125
342.67145	18315.9125
346.86207	18876.7125
351.04966	19659.2125
355.23424	20481.7125
359.4158	21150.7125
363.59435	21478.0125
367.76989	21641.5125
371.94243	21683.8125
376.11196	21671.3125
380.27849	21634.8125
384.44203	21571.4125
388.60257	21519.3125
392.76012	21526.9125
396.91468	21805.4125
401.06626	22276.8125
405.21485	22697.2125
409.36047	22469.9125
413.50311	21745.1125
417.64277	21073.0125
421.77947	20793.6125
425.9132	20740.6125
430.04396	20817.5125
434.17176	20900.5125
438.2966	21131.5125
442.41849	21546.3125
446.53742	22195.6125
450.6534	22880.7125
454.76644	23393.0125
458.87653	23529.7125
462.98368	23427.9125
467.08789	23127.8125
471.18916	22664.7125
475.2875	22207.0125
479.38291	21948.9125
483.4754	21687.0125
487.56496	21363.5125
491.6516	21016.1125
495.73531	20744.9125
499.81612	20689.6125
503.89401	20803.0125
507.96899	20931.8125
512.04106	21009.0125
516.11023	21088.5125
520.1765	21145.5125
524.23987	21076.0125
528.30034	20777.4125
532.35792	20476.9125
536.41261	20122.3125
540.46441	19763.1125
544.51333	19707.0125
548.55936	19993.4125
552.60252	20531.5125
556.64279	21048.1125
560.6802	21366.5125
564.71473	21583.2125
568.7464	22142.9125
572.7752	22710.0125
576.80114	22603.2125
580.82422	22351.4125
584.84444	22341.3125
588.86181	22374.2125
592.87633	22585.3125
596.888	22864.2125
600.89682	23456.8125
604.9028	25214.7125
608.90594	29664.1125
612.90624	35033.4125
616.90371	32958.3125
620.89834	25130.7125
624.89015	21821.8125
628.87913	21424.6125
632.86528	21370.3125
636.84862	21187.0125
640.82913	20711.9125
644.80683	19879.0125
648.78172	19434.1125
652.75379	19425.6125
656.72306	19951.6125
660.68952	20661.7125
664.65319	20600.4125
668.61405	19940.5125
672.57211	19580.8125
676.52738	19570.5125
680.47986	19561.7125
684.42955	19483.8125
688.37646	19462.2125
692.32058	19559.3125
696.26192	19733.4125
700.20048	20021.2125
704.13626	20223.6125
708.06928	20147.8125
711.99952	19933.7125
715.927	19866.2125
719.85171	19861.4125
723.77365	19735.7125
727.69284	19520.5125
731.60928	19337.6125
735.52295	19304.7125
739.43388	19365.5125
743.34206	19462.0125
747.24749	19617.4125
751.15017	19822.0125
755.05012	20268.4125
758.94733	21124.4125
762.8418	22784.4125
766.73354	25529.5125
770.62254	28295.4125
774.50882	29321.4125
778.39237	27717.0125
782.27321	24719.1125
786.15132	22081.0125
790.02671	20582.9125
793.89938	19912.5125
797.76935	19655.6125
801.6366	19560.3125
805.50115	19417.5125
809.36299	19290.0125
813.22213	19181.8125
817.07857	19112.3125
820.93231	19112.3125
824.78336	19157.8125
828.63172	19205.4125
832.47738	19258.5125
836.32036	19318.5125
840.16066	19325.9125
843.99827	19402.0125
847.8332	19312.8125
851.66546	19190.6125
855.49504	19179.0125
859.32195	19155.0125
863.1462	19001.8125
866.96777	18901.6125
870.78668	18813.5125
874.60293	18838.5125
878.41652	18892.6125
882.22745	18956.6125
886.03573	19038.1125
889.84136	18969.2125
893.64433	18901.2125
897.44466	18796.1125
901.24235	18786.5125
905.0374	18763.2125
908.8298	18742.1125
912.61957	18759.4125
916.40671	18978.6125
920.19121	19243.5125
923.97308	19544.3125
927.75233	19715.0125
931.52895	19773.0125
935.30295	19555.2125
939.07433	19076.1125
942.84309	18637.7125
946.60924	18432.3125
950.37278	18338.6125
954.13371	18203.8125
957.89203	18059.3125
961.64774	18003.5125
965.40086	17936.6125
969.15137	17909.6125
972.89929	17825.8125
976.64461	17799.3125
980.38733	17853.3125
984.12747	17957.1125
987.86502	18147.5125
991.59999	18415.3125
995.33237	18893.8125
999.06217	19644.4125
1002.78939	20472.3125
1006.51404	20953.9125
1010.23611	21219.3125
1013.95561	21497.2125
1017.67255	21507.8125
1021.38692	21243.3125
1025.09872	21098.5125
1028.80796	21439.6125
1032.51465	22274.2125
1036.21877	22969.6125
1039.92035	22970.6125
1043.61937	22448.8125
1047.31584	21691.3125
1051.00976	20903.5125
1054.70114	20551.9125
1058.38998	20478.6125
1062.07627	20546.7125
1065.76003	20604.8125
1069.44126	20640.9125
1073.11995	20840.6125
1076.79611	21056.2125
1080.46974	21256.2125
1084.14085	21554.7125
1087.80943	21921.3125
1091.47549	22079.1125
1095.13903	21793.3125
1098.80005	21283.6125
1102.45857	20757.7125
1106.11456	20524.5125
1109.76805	20516.5125
1113.41903	20784.6125
1117.06751	21216.4125
1120.71348	21678.2125
1124.35696	22214.9125
1127.99793	22676.1125
1131.63641	22720.3125
1135.2724	22171.8125
1138.90589	21675.7125
1142.5369	21264.2125
1146.16542	21052.5125
1149.79145	20987.9125
1153.415	21087.3125
1157.03607	21368.9125
1160.65467	21871.1125
1164.27079	22707.3125
1167.88443	23870.1125
1171.49561	25648.8125
1175.10432	28302.7125
1178.71056	31696.7125
1182.31434	34594.3125
1185.91565	35956.4125
1189.51451	35835.0125
1193.11091	34209.1125
1196.70485	32005.5125
1200.29634	30005.5125
1203.88538	28466.5125
1207.47197	27050.9125
1211.05612	25958.4125
1214.63782	25382.4125
1218.21708	25263.7125
1221.79391	25433.1125
1225.36829	25694.7125
1228.94024	25673.7125
1232.50976	25385.6125
1236.07685	25115.9125
1239.6415	24940.7125
1243.20374	24925.8125
1246.76355	25075.2125
1250.32093	25451.8125
1253.8759	26106.0125
1257.42845	26984.5125
1260.97859	27774.1125
1264.52631	28553.9125
1268.07163	29337.5125
1271.61453	30206.9125
1275.15503	31134.3125
1278.69312	32047.0125
1282.22882	32694.0125
1285.76211	33349.7125
1289.29301	33993.6125
1292.82151	34745.6125
1296.34761	35914.2125
1299.87133	37641.3125
1303.39266	40329.6125
1306.9116	44018.3125
1310.42815	48211.7125
1313.94233	50984.6125
1317.45412	50834.2125
1320.96354	48748.9125
1324.47058	46259.8125
1327.97525	44032.1125
1331.47754	42645.8125
1334.97747	42177.1125
1338.47502	42373.3125
1341.97022	42934.4125
1345.46305	43328.0125
1348.95352	43455.3125
1352.44163	43902.5125
1355.92738	45573.1125
1359.41078	49353.1125
1362.89183	53018.7125
1366.37053	51571.4125
1369.84688	45483.3125
1373.32088	39344.2125
1376.79254	35387.8125
1380.26186	33560.9125
1383.72883	32741.5125
1387.19347	32155.0125
1390.65578	31627.4125
1394.11575	31427.7125
1397.57339	31624.9125
1401.0287	32227.1125
1404.48168	32937.6125
1407.93234	33495.0125
1411.38068	33665.3125
1414.82669	33296.2125
1418.27039	32256.9125
1421.71177	31062.2125
1425.15083	30034.0125
1428.58758	29369.4125
1432.02203	29264.8125
1435.45416	29555.0125
1438.88399	29866.3125
1442.31151	30124.3125
1445.73673	30428.7125
1449.15965	30760.9125
1452.58027	30950.0125
1455.9986	30990.1125
1459.41463	31208.9125
1462.82837	31625.5125
1466.23982	32264.5125
1469.64898	32866.7125
1473.05586	33278.4125
1476.46045	33397.0125
1479.86276	33601.3125
1483.26279	33821.4125
1486.66054	34147.2125
1490.05602	34656.9125
1493.44922	35388.9125
1496.84016	36316.7125
1500.22882	37874.9125
1503.61521	39958.0125
1506.99934	42716.3125
1510.38121	45421.6125
1513.76081	46806.0125
1517.13816	45696.8125
1520.51324	42395.5125
1523.88607	38889.2125
1527.25665	36350.4125
1530.62498	34825.4125
1533.99105	33909.9125
1537.35488	33336.5125
1540.71647	33004.7125
1544.07581	32682.6125
1547.4329	32382.5125
1550.78776	32106.9125
1554.14038	31917.9125
1557.49077	31989.3125
1560.83892	32192.1125
1564.18484	32450.7125
1567.52853	32543.3125
1570.86999	32577.2125
1574.20922	32685.1125
1577.54624	32653.5125
1580.88103	32002.7125
1584.2136	31336.3125
1587.54395	31533.8125
1590.87208	32859.2125
1594.19801	35161.5125
1597.52172	37863.5125
1600.84321	38942.9125
1604.16251	37568.0125
1607.47959	34715.2125
1610.79447	31663.2125
1614.10715	28829.8125
1617.41763	26632.3125
1620.7259	25150.1125
1624.03199	24484.3125
1627.33587	24556.4125
1630.63757	25307.0125
1633.93707	26840.5125
1637.23439	29006.7125
1640.52951	31721.5125
1643.82246	34659.8125
1647.11321	37365.3125
1650.40179	38533.9125
1653.68819	36779.4125
1656.97241	32361.7125
1660.25446	27644.9125
1663.53433	24194.1125
1666.81203	22024.0125
1670.08756	20722.2125
1673.36092	19883.6125
1676.63211	19373.2125
1679.90115	18983.6125
1683.16801	18713.4125
1686.43272	18539.5125
1689.69527	18316.6125
1692.95567	18274.8125
1696.2139	18177.0125
1699.46999	18147.5125
1702.72392	18081.1125
1705.97571	18050.0125
1709.22535	18018.4125
1712.47284	18007.8125
1715.71819	17995.0125
1718.96139	17972.2125
1722.20246	17926.4125
1725.44139	17879.2125
1728.67818	17761.3125
1731.91284	17648.5125
1735.14537	17549.8125
1738.37576	17471.3125
1741.60403	17393.1125
1744.83017	17361.4125
1748.05418	17319.2125
1751.27607	17261.4125
1754.49584	17242.2125
1757.71349	17282.6125
1760.92903	17236.0125
1764.14244	17258.6125
1767.35375	17242.2125
1770.56294	17201.2125
1773.77002	17182.7125
1776.97499	17136.6125
1780.17785	17099.7125
1783.37861	17059.4125
1786.57727	17052.9125
1789.77382	17043.7125
1792.96828	17004.7125
1796.16064	16993.3125
1799.3509	17015.7125
1802.53907	16970.6125
1805.72514	16886.7125
1808.90913	16890.1125
1812.09102	16894.5125
1815.27083	16824.2125
1818.44856	16811.5125
1821.6242	16773.2125
1824.79776	16738.6125
1827.96924	16721.8125
1831.13864	16715.9125
1834.30597	16726.9125
1837.47122	16722.0125
1840.6344	16695.5125
1843.7955	16715.2125
1846.95454	16714.5125
1850.11151	16709.9125
1853.26642	16719.3125
1856.41926	16736.6125
1859.57004	16792.4125
1862.71876	16771.6125
1865.86542	16771.3125
1869.01003	16765.5125
1872.15258	16788.3125
1875.29308	16811.5125
1878.43152	16755.4125
1881.56792	16819.4125
1884.70227	16810.8125
1887.83457	16825.4125
1890.96482	16824.8125
1894.09304	16789.3125
1897.21921	16776.9125
1900.34335	16794.2125
1903.46544	16813.0125
1906.58551	16827.1125
1909.70353	16823.8125
1912.81953	16832.7125
1915.93349	16867.3125
1919.04543	16832.5125
1922.15534	16802.8125
1925.26322	16737.5125
1928.36908	16718.6125
1931.47292	16667.2125
1934.57473	16579.6125
1937.67453	16576.3125
1940.77232	16459.7125
1943.86808	16416.9125
1946.96184	16338.3125
1950.05358	16251.5125
1953.14331	16194.7125
1956.23103	16121.0125
1959.31675	16067.9125
1962.40046	16039.1125
1965.48217	15995.1125
1968.56188	15964.5125
1971.63959	15908.8125
1974.7153	15866.1125
1977.78901	15830.0125
1980.86073	15791.8125
1983.93046	15726.2125
1986.99819	15674.6125
1990.06394	15641.6125
1993.1277	15614.4125
1996.18947	15540.2125
1999.24925	15513.1125
2002.30706	15445.1125
2005.36288	15363.3125
2008.41672	15364.7125
2011.46859	15325.6125
2014.51848	15294.8125
2017.56639	15281.2125
2020.61233	15225.0125
2023.6563	15187.4125
2026.6983	15154.0125
2029.73833	15112.3125
2032.7764	15112.4125
2035.8125	15098.8125
2038.84664	15060.9125
2041.87881	15035.0125
2044.90903	15007.9125
2047.93729	14991.2125
2050.96359	15004.6125
2053.98794	14955.0125
2057.01034	14964.0125
2060.03078	14953.2125
2063.04927	14935.4125
2066.06582	14932.6125
2069.08042	14915.0125
2072.09307	14914.5125
2075.10378	14858.6125
2078.11255	14840.6125
2081.11938	14815.6125
2084.12426	14813.0125
2087.12722	14829.6125
2090.12824	14806.6125
2093.12732	14799.6125
2096.12447	14809.9125
2099.11969	14801.3125
2102.11299	14776.0125
2105.10435	14794.8125
2108.09379	14814.0125
2111.08131	14817.7125
2114.0669	14827.9125
2117.05057	14822.5125
2120.03233	14831.2125
2123.01216	14883.2125
2125.99008	14888.1125
2128.96609	14875.8125
2131.94018	14905.9125
2134.91236	14898.1125
2137.88263	14931.9125
2140.851	14933.1125
2143.81746	14940.8125
2146.78201	14941.7125
2149.74466	14963.8125
2152.7054	14941.9125
2155.66425	14937.2125
2158.6212	14901.4125
2161.57625	14924.3125
2164.52941	14919.9125
2167.48067	14915.4125
2170.43004	14909.2125
2173.37752	14887.0125
2176.32311	14906.2125
2179.26681	14877.6125
2182.20863	14898.1125
2185.14856	14905.5125
2188.08661	14915.9125
2191.02278	14946.1125
2193.95707	14947.8125
2196.88948	14919.6125
2199.82001	14941.4125
2202.74867	14918.3125
2205.67545	14896.1125
2208.60037	14924.9125
2211.52341	14896.0125
2214.44458	14929.6125
2217.36388	14869.9125
2220.28132	14852.3125
2223.1969	14848.2125
2226.11061	14834.1125
2229.02246	14777.8125
2231.93245	14775.0125
2234.84058	14698.3125
2237.74686	14701.2125
2240.65128	14664.6125
2243.55385	14662.5125
2246.45456	14638.8125
2249.35343	14615.7125
2252.25044	14627.8125
2255.14561	14609.7125
2258.03893	14607.9125
2260.93041	14584.4125
2263.82004	14518.4125
2266.70783	14501.5125
2269.59378	14428.2125
2272.4779	14407.8125
2275.36017	14351.1125
2278.24061	14341.5125
2281.11922	14333.1125
2283.996	14309.7125
2286.87094	14302.1125
2289.74405	14297.4125
2292.61534	14287.0125
2295.4848	14297.5125
2298.35243	14289.1125
2301.21824	14291.2125
2304.08223	14303.3125
2306.94439	14294.8125
2309.80474	14337.1125
2312.66327	14345.5125
2315.51999	14357.5125
2318.37489	14387.9125
2321.22797	14360.7125
2324.07925	14338.3125
2326.92871	14295.9125
2329.77637	14303.3125
2332.62222	14317.4125
2335.46626	14301.8125
2338.3085	14310.4125
2341.14893	14354.8125
2343.98756	14394.1125
2346.8244	14390.2125
2349.65943	14384.4125
2352.49267	14378.3125
2355.32411	14380.9125
2358.15376	14383.4125
2360.98161	14373.5125
2363.80768	14346.8125
2366.63195	14336.2125
2369.45444	14277.0125
2372.27514	14260.4125
2375.09405	14220.3125
2377.91118	14219.2125
2380.72652	14156.1125
2383.54009	14093.0125
2386.35187	14112.0125
2389.16188	14036.5125
2391.97011	14022.1125
2394.77657	13999.3125
2397.58125	13968.3125
2400.38416	13938.1125
2403.18529	13932.8125
2405.98466	13891.2125
2408.78226	13859.5125
2411.57809	13830.0125
2414.37216	13792.1125
2417.16446	13792.2125
2419.955	13768.8125
2422.74378	13747.9125
2425.5308	13751.2125
2428.31606	13752.4125
2431.09956	13740.5125
2433.88131	13727.7125
2436.6613	13736.3125
2439.43954	13755.9125
2442.21603	13737.4125
2444.99077	13741.6125
2447.76377	13705.9125
2450.53501	13696.5125
2453.30451	13737.1125
2456.07226	13681.5125
2458.83827	13684.9125
2461.60254	13703.9125
2464.36507	13684.2125
2467.12586	13682.1125
2469.88492	13682.0125
2472.64224	13682.7125
2475.39782	13704.6125
2478.15167	13733.3125
2480.90379	13751.6125
2483.65417	13794.1125
2486.40283	13799.1125
2489.14976	13830.3125
2491.89497	13834.2125
2494.63845	13843.0125
2497.3802	13827.7125
2500.12024	13841.2125
2502.85855	13832.4125
2505.59514	13782.0125
2508.33002	13769.1125
2511.06318	13749.9125
2513.79462	13716.7125
2516.52435	13703.5125
2519.25237	13693.0125
2521.97867	13670.4125
2524.70327	13633.1125
2527.42616	13647.8125
2530.14734	13644.0125
2532.86681	13607.2125
2535.58458	13626.8125
2538.30065	13624.6125
2541.01501	13648.5125
2543.72768	13626.3125
2546.43864	13608.8125
2549.14791	13619.4125
2551.85548	13623.3125
2554.56136	13591.2125
2557.26554	13586.0125
2559.96803	13559.5125
2562.66883	13515.3125
2565.36794	13527.1125
2568.06536	13520.0125
2570.7611	13501.5125
2573.45514	13477.8125
2576.14751	13479.0125
2578.83819	13479.2125
2581.52719	13491.7125
2584.21451	13473.9125
2586.90015	13483.9125
2589.58411	13474.3125
2592.2664	13537.3125
2594.94701	13499.4125
2597.62594	13494.8125
2600.30321	13449.6125
2602.9788	13446.8125
2605.65273	13463.8125
2608.32498	13481.9125
2610.99557	13495.5125
2613.66449	13462.8125
2616.33175	13458.2125
2618.99734	13516.2125
2621.66128	13494.9125
2624.32355	13521.1125
2626.98416	13540.3125
2629.64311	13526.9125
2632.30041	13512.2125
2634.95605	13481.1125
2637.61004	13474.4125
2640.26238	13449.0125
2642.91306	13428.4125
2645.56209	13411.0125
2648.20948	13401.0125
2650.85521	13384.9125
2653.4993	13365.5125
2656.14175	13364.7125
2658.78255	13353.3125
2661.42171	13396.6125
2664.05923	13420.5125
2666.6951	13434.7125
2669.32934	13450.0125
2671.96194	13436.8125
2674.59291	13477.4125
2677.22224	13470.4125
2679.84993	13488.6125
2682.476	13456.4125
2685.10043	13435.3125
2687.72324	13388.1125
2690.34441	13426.2125
2692.96396	13388.9125
2695.58188	13437.8125
2698.19818	13377.5125
2700.81285	13364.7125
2703.4259	13381.7125
2706.03733	13435.8125
2708.64714	13394.1125
2711.25533	13418.3125
2713.86191	13407.6125
2716.46687	13413.5125
2719.07021	13427.6125
2721.67194	13453.5125
2724.27206	13467.0125
2726.87057	13481.8125
2729.46747	13457.6125
2732.06276	13473.1125
2734.65644	13466.3125
2737.24852	13450.4125
2739.83899	13461.4125
2742.42786	13456.2125
2745.01513	13422.3125
2747.60079	13404.6125
2750.18486	13387.7125
2752.76733	13387.9125
2755.3482	13373.6125
2757.92747	13371.9125
2760.50515	13370.5125
2763.08123	13369.2125
2765.65573	13348.8125
2768.22863	13348.5125
2770.79994	13340.8125
2773.36967	13350.2125
2775.9378	13351.6125
2778.50435	13354.8125
2781.06932	13337.6125
2783.6327	13354.1125
2786.1945	13358.1125
2788.75471	13357.6125
2791.31335	13324.4125
2793.87041	13308.3125
2796.42589	13288.4125
2798.97979	13278.9125
2801.53212	13251.2125
2804.08288	13274.3125
2806.63206	13229.0125
2809.17967	13211.2125
2811.72571	13187.9125
2814.27018	13209.5125
2816.81308	13178.0125
2819.35442	13143.5125
2821.89419	13154.7125
2824.43239	13142.5125
2826.96904	13136.9125
2829.50412	13152.4125
2832.03763	13148.4125
2834.56959	13125.4125
2837.1	13098.0125
2839.62884	13130.9125
2842.15613	13162.4125
2844.68186	13194.2125
2847.20604	13163.1125
2849.72867	13200.3125
2852.24974	13199.2125
2854.76927	13162.7125
2857.28724	13138.9125
2859.80367	13139.2125
2862.31855	13114.4125
2864.83189	13082.3125
2867.34368	13102.7125
2869.85393	13084.4125
2872.36264	13068.9125
2874.8698	13100.5125
2877.37543	13100.7125
2879.87952	13095.2125
2882.38207	13072.3125
2884.88308	13085.9125
2887.38256	13073.2125
2889.88051	13061.4125
2892.37692	13059.2125
2894.8718	13061.9125
2897.36515	13083.2125
2899.85698	13119.0125
2902.34727	13131.5125
2904.83604	13169.9125
2907.32328	13175.1125
2909.809	13201.5125
2912.29319	13195.4125
2914.77587	13181.9125
2917.25702	13133.6125
2919.73665	13142.8125
2922.21476	13150.9125
2924.69136	13132.8125
2927.16644	13092.0125
2929.64	13083.5125
2932.11205	13057.0125
2934.58258	13036.8125
2937.05161	13048.0125
2939.51912	13008.2125
2941.98513	12978.8125
2944.44962	12970.7125
2946.91261	12941.3125
2949.37409	12967.6125
2951.83407	12916.9125
2954.29254	12924.4125
2956.74951	12897.7125
2959.20498	12900.7125
2961.65895	12883.3125
2964.11142	12888.0125
2966.56239	12858.8125
2969.01186	12853.5125
2971.45984	12821.8125
2973.90632	12822.3125
2976.35131	12781.2125
2978.7948	12739.1125
2981.23681	12689.4125
2983.67732	12665.6125
2986.11635	12654.7125
2988.55388	12641.1125
2990.98993	12613.0125
2993.4245	12594.1125
2995.85758	12575.5125
2998.28917	12542.3125
3000.71928	12502.3125
3003.14791	12498.4125
3005.57506	12502.1125
3008.00073	12465.1125
3010.42493	12325.4125
3012.84764	12388.6125
3015.26888	12399.6125
3017.68865	12355.4125
3020.10694	12336.1125
3022.52376	12317.5125
3024.9391	12285.4125
