Data from AgNP_FTO_APTES_UA_10uM_CRN_100uM_R6G_10uM_NaF_0.1M_Addition_RamanShift__28__17-57-10-871.txt Node

Date: Thu Feb 10 17:57:10 GMT 2022
User: TCL
Spectrometer: QEP01345
Trigger mode: 4
Integration Time (sec): 7.000000E0
Scans to average: 10
Electric dark correction enabled: true
Nonlinearity correction enabled: false
Boxcar width: 0
XAxis mode: Raman Shifts
Number of Pixels in Spectrum: 1044
>>>>>Begin Spectral Data<<<<<
46.04893	-0.425
50.45542	0.875
54.85868	-1.325
59.25871	-1.225
63.6555	42.975
68.04907	44.775
72.43941	50.975
76.82654	49.175
81.21044	55.475
85.59113	54.575
89.96862	57.375
94.34289	59.875
98.71396	60.275
103.08183	64.875
107.4465	67.475
111.80798	63.675
116.16626	69.075
120.52136	68.675
124.87327	73.075
129.222	74.575
133.56755	76.975
137.90993	80.675
142.24913	82.675
146.58517	88.975
150.91804	104.475
155.24774	120.875
159.57429	143.275
163.89768	181.675
168.21792	237.675
172.53501	317.775
176.84895	432.775
181.15975	603.075
185.46741	836.475
189.77193	1156.275
194.07331	1544.775
198.37157	1995.575
202.6667	2460.775
206.9587	2916.075
211.24758	3385.275
215.53334	3849.375
219.81599	4388.075
224.09553	4989.075
228.37195	5669.175
232.64527	6377.075
236.91549	7130.275
241.18261	7837.075
245.44663	8397.675
249.70755	8862.275
253.96539	9250.175
258.22014	9643.075
262.4718	9989.575
266.72039	10245.075
270.96589	10410.575
275.20832	10453.375
279.44768	10392.775
283.68397	10250.975
287.91719	10165.475
292.14735	10177.175
296.37445	10375.275
300.59849	10717.975
304.81948	11097.575
309.03742	11374.675
313.25231	11303.375
317.46415	10806.675
321.67296	10008.975
325.87872	9394.675
330.08145	9093.075
334.28114	9118.875
338.47781	9249.275
342.67145	9510.675
346.86207	9908.775
351.04966	10462.675
355.23424	11110.775
359.4158	11570.875
363.59435	11802.075
367.76989	11886.875
371.94243	11901.275
376.11196	11873.675
380.27849	11831.175
384.44203	11751.975
388.60257	11602.775
392.76012	11522.575
396.91468	11627.875
401.06626	11924.075
405.21485	12147.175
409.36047	11955.475
413.50311	11379.575
417.64277	10860.175
421.77947	10552.275
425.9132	10447.375
430.04396	10446.275
434.17176	10493.475
438.2966	10640.575
442.41849	10826.875
446.53742	11144.675
450.6534	11453.375
454.76644	11613.975
458.87653	11654.175
462.98368	11576.675
467.08789	11403.375
471.18916	11207.775
475.2875	10963.775
479.38291	10769.275
483.4754	10625.475
487.56496	10484.575
491.6516	10373.175
495.73531	10333.475
499.81612	10346.275
503.89401	10474.175
507.96899	10588.375
512.04106	10761.275
516.11023	10972.975
520.1765	11100.675
524.23987	11081.075
528.30034	10864.475
532.35792	10660.675
536.41261	10449.475
540.46441	10270.075
544.51333	10198.075
548.55936	10250.875
552.60252	10466.175
556.64279	10720.575
560.6802	10830.575
564.71473	10934.075
568.7464	11328.475
572.7752	11594.675
576.80114	11319.475
580.82422	10912.275
584.84444	10738.675
588.86181	10685.175
592.87633	10747.075
596.888	10851.475
600.89682	11181.775
604.9028	12325.175
608.90594	15500.375
612.90624	19865.175
616.90371	19174.175
620.89834	13703.175
624.89015	11146.175
628.87913	10679.275
632.86528	10705.575
636.84862	10859.675
640.82913	10728.775
644.80683	10391.275
648.78172	10102.775
652.75379	10156.275
656.72306	10535.775
660.68952	11030.775
664.65319	10955.975
668.61405	10477.975
672.57211	10233.875
676.52738	10244.475
680.47986	10270.975
684.42955	10214.275
688.37646	10172.775
692.32058	10208.375
696.26192	10276.175
700.20048	10427.175
704.13626	10483.675
708.06928	10468.175
711.99952	10405.275
715.927	10382.875
719.85171	10398.175
723.77365	10392.475
727.69284	10330.875
731.60928	10244.775
735.52295	10215.875
739.43388	10253.275
743.34206	10288.575
747.24749	10325.175
751.15017	10425.275
755.05012	10597.275
758.94733	11026.475
762.8418	12000.075
766.73354	13751.875
770.62254	15672.375
774.50882	16741.875
778.39237	16068.475
782.27321	14038.075
786.15132	12132.675
790.02671	11066.175
793.89938	10597.575
797.76935	10390.075
801.6366	10281.875
805.50115	10224.775
809.36299	10210.175
813.22213	10162.975
817.07857	10157.975
820.93231	10141.975
824.78336	10194.775
828.63172	10265.975
832.47738	10241.275
836.32036	10260.975
840.16066	10200.475
843.99827	10139.475
847.8332	10124.175
851.66546	10126.675
855.49504	10116.175
859.32195	10127.875
863.1462	10101.675
866.96777	10056.875
870.78668	10070.675
874.60293	10075.875
878.41652	10112.375
882.22745	10179.975
886.03573	10213.775
889.84136	10154.575
893.64433	10117.175
897.44466	10098.975
901.24235	10093.975
905.0374	10097.275
908.8298	10090.675
912.61957	10085.375
916.40671	10118.475
920.19121	10168.075
923.97308	10214.875
927.75233	10273.775
931.52895	10361.975
935.30295	10300.475
939.07433	10100.775
942.84309	9859.275
946.60924	9726.475
950.37278	9657.975
954.13371	9615.875
957.89203	9580.175
961.64774	9545.575
965.40086	9556.475
969.15137	9519.375
972.89929	9491.575
976.64461	9488.275
980.38733	9500.675
984.12747	9504.475
987.86502	9548.075
991.59999	9617.175
995.33237	9683.175
999.06217	9842.475
1002.78939	10019.875
1006.51404	10162.475
1010.23611	10366.675
1013.95561	10518.075
1017.67255	10502.975
1021.38692	10374.775
1025.09872	10272.575
1028.80796	10221.175
1032.51465	10254.675
1036.21877	10324.175
1039.92035	10384.875
1043.61937	10387.375
1047.31584	10387.375
1051.00976	10342.575
1054.70114	10319.975
1058.38998	10332.475
1062.07627	10380.075
1065.76003	10433.575
1069.44126	10457.375
1073.11995	10517.675
1076.79611	10625.675
1080.46974	10736.275
1084.14085	10962.775
1087.80943	11238.275
1091.47549	11329.675
1095.13903	11166.075
1098.80005	10860.975
1102.45857	10591.275
1106.11456	10500.475
1109.76805	10578.575
1113.41903	10773.975
1117.06751	11052.675
1120.71348	11425.275
1124.35696	11824.775
1127.99793	12163.675
1131.63641	12143.475
1135.2724	11685.675
1138.90589	11186.175
1142.5369	10920.575
1146.16542	10748.375
1149.79145	10612.175
1153.415	10624.675
1157.03607	10698.275
1160.65467	10897.375
1164.27079	11192.875
1167.88443	11656.975
1171.49561	12435.675
1175.10432	13789.175
1178.71056	15544.375
1182.31434	16784.275
1185.91565	17044.875
1189.51451	16562.475
1193.11091	15584.775
1196.70485	14490.375
1200.29634	13665.375
1203.88538	13153.475
1207.47197	12468.875
1211.05612	11876.675
1214.63782	11555.075
1218.21708	11487.375
1221.79391	11457.375
1225.36829	11497.275
1228.94024	11524.775
1232.50976	11532.675
1236.07685	11589.375
1239.6415	11677.275
1243.20374	11751.075
1246.76355	11853.275
1250.32093	12006.975
1253.8759	12227.875
1257.42845	12536.075
1260.97859	12855.975
1264.52631	13144.675
1268.07163	13395.575
1271.61453	13676.675
1275.15503	13851.275
1278.69312	13896.775
1282.22882	13895.475
1285.76211	14070.575
1289.29301	14434.475
1292.82151	14809.075
1296.34761	15200.375
1299.87133	15801.075
1303.39266	16893.875
1306.9116	18583.175
1310.42815	20603.775
1313.94233	21787.075
1317.45412	21453.275
1320.96354	20092.375
1324.47058	18574.375
1327.97525	17279.275
1331.47754	16519.875
1334.97747	16313.075
1338.47502	16505.175
1341.97022	16969.375
1345.46305	17548.675
1348.95352	18402.275
1352.44163	19565.775
1355.92738	21297.575
1359.41078	24076.075
1362.89183	26877.075
1366.37053	26114.275
1369.84688	22290.275
1373.32088	18542.175
1376.79254	16170.875
1380.26186	14994.775
1383.72883	14463.975
1387.19347	14074.675
1390.65578	13633.675
1394.11575	13242.275
1397.57339	13039.375
1401.0287	13011.475
1404.48168	13168.375
1407.93234	13384.775
1411.38068	13566.775
1414.82669	13640.675
1418.27039	13452.675
1421.71177	13224.375
1425.15083	12957.575
1428.58758	12815.075
1432.02203	12852.975
1435.45416	12934.475
1438.88399	12987.075
1442.31151	12977.075
1445.73673	13043.575
1449.15965	13074.875
1452.58027	13057.275
1455.9986	12941.775
1459.41463	12934.975
1462.82837	13063.575
1466.23982	13247.475
1469.64898	13518.975
1473.05586	13712.875
1476.46045	13835.575
1479.86276	14090.875
1483.26279	14431.675
1486.66054	14776.975
1490.05602	15271.575
1493.44922	15846.275
1496.84016	16734.875
1500.22882	18062.875
1503.61521	19965.075
1506.99934	22116.175
1510.38121	24305.475
1513.76081	25394.375
1517.13816	24408.475
1520.51324	21656.375
1523.88607	18834.875
1527.25665	16889.975
1530.62498	15767.575
1533.99105	15117.075
1537.35488	14700.275
1540.71647	14491.775
1544.07581	14385.175
1547.4329	14371.175
1550.78776	14307.175
1554.14038	14278.975
1557.49077	14401.675
1560.83892	14616.075
1564.18484	14997.675
1567.52853	15367.475
1570.86999	15622.075
1574.20922	15753.375
1577.54624	15673.475
1580.88103	15034.075
1584.2136	14172.875
1587.54395	13697.275
1590.87208	13792.775
1594.19801	14463.675
1597.52172	15346.275
1600.84321	15805.175
1604.16251	15427.575
1607.47959	14628.975
1610.79447	13702.475
1614.10715	12818.875
1617.41763	12056.975
1620.7259	11604.175
1624.03199	11373.175
1627.33587	11354.075
1630.63757	11533.675
1633.93707	11913.475
1637.23439	12598.975
1640.52951	13508.375
1643.82246	14818.375
1647.11321	16434.575
1650.40179	17738.575
1653.68819	17536.175
1656.97241	15594.975
1660.25446	13357.475
1663.53433	11750.475
1666.81203	10816.275
1670.08756	10278.675
1673.36092	9916.575
1676.63211	9708.875
1679.90115	9568.475
1683.16801	9434.075
1686.43272	9373.275
1689.69527	9333.675
1692.95567	9283.175
1696.2139	9255.875
1699.46999	9251.275
1702.72392	9243.275
1705.97571	9211.575
1709.22535	9189.875
1712.47284	9185.175
1715.71819	9205.475
1718.96139	9176.475
1722.20246	9173.575
1725.44139	9151.675
1728.67818	9094.875
1731.91284	8997.475
1735.14537	8987.275
1738.37576	8928.275
1741.60403	8911.175
1744.83017	8886.375
1748.05418	8866.775
1751.27607	8860.575
1754.49584	8849.875
1757.71349	8834.175
1760.92903	8816.475
1764.14244	8837.075
1767.35375	8795.775
1770.56294	8789.275
1773.77002	8793.775
1776.97499	8730.475
1780.17785	8724.675
1783.37861	8689.575
1786.57727	8673.075
1789.77382	8659.275
1792.96828	8644.075
1796.16064	8629.275
1799.3509	8655.075
1802.53907	8610.075
1805.72514	8605.075
1808.90913	8573.975
1812.09102	8549.875
1815.27083	8531.075
1818.44856	8497.175
1821.6242	8503.775
1824.79776	8474.275
1827.96924	8468.775
1831.13864	8443.875
1834.30597	8465.475
1837.47122	8457.175
1840.6344	8445.475
1843.7955	8456.875
1846.95454	8421.975
1850.11151	8441.175
1853.26642	8433.075
1856.41926	8435.375
1859.57004	8446.675
1862.71876	8412.975
1865.86542	8437.175
1869.01003	8393.375
1872.15258	8403.975
1875.29308	8421.675
1878.43152	8423.875
1881.56792	8406.375
1884.70227	8410.275
1887.83457	8406.875
1890.96482	8368.575
1894.09304	8366.875
1897.21921	8351.975
1900.34335	8374.975
1903.46544	8365.475
1906.58551	8355.375
1909.70353	8344.075
1912.81953	8358.775
1915.93349	8360.475
1919.04543	8338.875
1922.15534	8313.575
1925.26322	8312.075
1928.36908	8290.975
1931.47292	8275.275
1934.57473	8263.775
1937.67453	8234.775
1940.77232	8205.975
1943.86808	8169.675
1946.96184	8140.275
1950.05358	8131.875
1953.14331	8102.975
1956.23103	8069.175
1959.31675	8045.975
1962.40046	8025.875
1965.48217	8013.175
1968.56188	7989.575
1971.63959	7953.275
1974.7153	7922.175
1977.78901	7922.475
1980.86073	7876.375
1983.93046	7864.075
1986.99819	7819.175
1990.06394	7811.275
1993.1277	7796.875
1996.18947	7778.175
1999.24925	7753.575
2002.30706	7710.075
2005.36288	7692.875
2008.41672	7675.275
2011.46859	7656.675
2014.51848	7659.275
2017.56639	7597.475
2020.61233	7600.875
2023.6563	7565.575
2026.6983	7547.775
2029.73833	7543.375
2032.7764	7487.275
2035.8125	7490.075
2038.84664	7469.575
2041.87881	7452.975
2044.90903	7432.875
2047.93729	7435.575
2050.96359	7415.775
2053.98794	7415.175
2057.01034	7421.975
2060.03078	7414.375
2063.04927	7390.275
2066.06582	7385.075
2069.08042	7375.275
2072.09307	7355.675
2075.10378	7355.775
2078.11255	7332.375
2081.11938	7356.275
2084.12426	7337.175
2087.12722	7342.275
2090.12824	7330.875
2093.12732	7327.675
2096.12447	7322.575
2099.11969	7310.975
2102.11299	7320.175
2105.10435	7321.475
2108.09379	7335.075
2111.08131	7337.575
2114.0669	7339.975
2117.05057	7336.775
2120.03233	7356.675
2123.01216	7364.775
2125.99008	7347.975
2128.96609	7368.075
2131.94018	7360.175
2134.91236	7364.175
2137.88263	7383.975
2140.851	7384.275
2143.81746	7385.975
2146.78201	7381.175
2149.74466	7383.175
2152.7054	7376.275
2155.66425	7387.475
2158.6212	7363.675
2161.57625	7357.875
2164.52941	7370.975
2167.48067	7339.475
2170.43004	7330.575
2173.37752	7340.375
2176.32311	7356.575
2179.26681	7346.675
2182.20863	7337.675
2185.14856	7310.875
2188.08661	7328.575
2191.02278	7333.675
2193.95707	7340.875
2196.88948	7330.575
2199.82001	7317.475
2202.74867	7304.475
2205.67545	7284.975
2208.60037	7290.375
2211.52341	7272.275
2214.44458	7285.075
2217.36388	7250.675
2220.28132	7234.875
2223.1969	7224.675
2226.11061	7199.975
2229.02246	7178.875
2231.93245	7166.975
2234.84058	7132.475
2237.74686	7143.875
2240.65128	7138.175
2243.55385	7124.375
2246.45456	7124.175
2249.35343	7109.975
2252.25044	7110.775
2255.14561	7087.675
2258.03893	7102.775
2260.93041	7095.175
2263.82004	7065.375
2266.70783	7045.875
2269.59378	7044.975
2272.4779	7011.175
2275.36017	6987.575
2278.24061	6969.875
2281.11922	6977.775
2283.996	6958.475
2286.87094	6934.275
2289.74405	6918.075
2292.61534	6925.175
2295.4848	6903.075
2298.35243	6902.175
2301.21824	6895.075
2304.08223	6892.175
2306.94439	6893.575
2309.80474	6869.775
2312.66327	6896.675
2315.51999	6873.675
2318.37489	6883.275
2321.22797	6867.275
2324.07925	6860.475
2326.92871	6844.875
2329.77637	6832.175
2332.62222	6818.675
2335.46626	6795.175
2338.3085	6799.075
2341.14893	6777.275
2343.98756	6812.375
2346.8244	6818.075
2349.65943	6784.675
2352.49267	6793.575
2355.32411	6822.975
2358.15376	6796.675
2360.98161	6824.675
2363.80768	6814.575
2366.63195	6825.975
2369.45444	6811.275
2372.27514	6801.675
2375.09405	6792.375
2377.91118	6766.575
2380.72652	6748.875
2383.54009	6723.075
2386.35187	6681.175
2389.16188	6657.375
2391.97011	6634.575
2394.77657	6630.875
2397.58125	6627.975
2400.38416	6602.375
2403.18529	6595.175
2405.98466	6563.875
2408.78226	6555.375
2411.57809	6537.975
2414.37216	6543.375
2417.16446	6533.475
2419.955	6523.475
2422.74378	6521.675
2425.5308	6512.675
2428.31606	6512.075
2431.09956	6521.275
2433.88131	6502.175
2436.6613	6486.175
2439.43954	6489.975
2442.21603	6479.675
2444.99077	6503.975
2447.76377	6491.575
2450.53501	6474.475
2453.30451	6484.875
2456.07226	6474.975
2458.83827	6457.475
2461.60254	6452.175
2464.36507	6451.975
2467.12586	6443.375
2469.88492	6426.775
2472.64224	6425.275
2475.39782	6433.775
2478.15167	6436.775
2480.90379	6448.375
2483.65417	6452.975
2486.40283	6464.575
2489.14976	6463.675
2491.89497	6469.775
2494.63845	6474.175
2497.3802	6462.775
2500.12024	6468.075
2502.85855	6439.375
2505.59514	6413.175
2508.33002	6409.275
2511.06318	6393.575
2513.79462	6378.275
2516.52435	6323.775
2519.25237	6317.175
2521.97867	6307.175
2524.70327	6316.975
2527.42616	6297.775
2530.14734	6301.175
2532.86681	6279.075
2535.58458	6287.475
2538.30065	6289.675
2541.01501	6268.775
2543.72768	6271.875
2546.43864	6262.675
2549.14791	6271.575
2551.85548	6259.775
2554.56136	6257.875
2557.26554	6238.575
2559.96803	6209.875
2562.66883	6207.075
2565.36794	6187.775
2568.06536	6177.875
2570.7611	6152.875
2573.45514	6155.575
2576.14751	6131.175
2578.83819	6140.175
2581.52719	6110.375
2584.21451	6128.975
2586.90015	6111.875
2589.58411	6100.175
2592.2664	6105.175
2594.94701	6081.475
2597.62594	6077.375
2600.30321	6070.775
2602.9788	6061.475
2605.65273	6041.975
2608.32498	6055.575
2610.99557	6065.375
2613.66449	6032.575
2616.33175	6035.575
2618.99734	6045.275
2621.66128	6023.275
2624.32355	6003.975
2626.98416	6018.575
2629.64311	5996.975
2632.30041	5997.875
2634.95605	5993.675
2637.61004	5963.375
2640.26238	5935.175
2642.91306	5948.375
2645.56209	5946.875
2648.20948	5950.875
2650.85521	5934.275
2653.4993	5942.675
2656.14175	5933.175
2658.78255	5929.075
2661.42171	5932.775
2664.05923	5941.775
2666.6951	5949.975
2669.32934	5954.475
2671.96194	5957.575
2674.59291	5954.675
2677.22224	5969.575
2679.84993	5967.475
2682.476	5966.975
2685.10043	5935.675
2687.72324	5918.875
2690.34441	5939.775
2692.96396	5954.475
2695.58188	5939.675
2698.19818	5930.575
2700.81285	5940.975
2703.4259	5948.475
2706.03733	5954.875
2708.64714	5923.375
2711.25533	5943.875
2713.86191	5946.175
2716.46687	5962.275
2719.07021	5941.975
2721.67194	5955.975
2724.27206	5927.975
2726.87057	5950.275
2729.46747	5957.475
2732.06276	5958.075
2734.65644	5930.975
2737.24852	5953.875
2739.83899	5918.175
2742.42786	5911.475
2745.01513	5885.375
2747.60079	5893.375
2750.18486	5883.375
2752.76733	5866.375
2755.3482	5872.875
2757.92747	5868.475
2760.50515	5867.075
2763.08123	5862.975
2765.65573	5827.675
2768.22863	5820.675
2770.79994	5821.675
2773.36967	5813.675
2775.9378	5805.975
2778.50435	5812.575
2781.06932	5819.075
2783.6327	5799.475
2786.1945	5806.275
2788.75471	5810.275
2791.31335	5794.375
2793.87041	5776.275
2796.42589	5778.675
2798.97979	5767.675
2801.53212	5763.975
2804.08288	5755.175
2806.63206	5721.675
2809.17967	5692.475
2811.72571	5714.775
2814.27018	5707.775
2816.81308	5707.275
2819.35442	5708.675
2821.89419	5702.275
2824.43239	5698.375
2826.96904	5697.075
2829.50412	5700.275
2832.03763	5690.275
2834.56959	5703.775
2837.1	5690.875
2839.62884	5708.975
2842.15613	5710.375
2844.68186	5748.175
2847.20604	5786.075
2849.72867	5816.075
2852.24974	5823.775
2854.76927	5800.075
2857.28724	5805.375
2859.80367	5771.675
2862.31855	5763.175
2864.83189	5761.575
2867.34368	5736.275
2869.85393	5722.675
2872.36264	5736.475
2874.8698	5732.375
2877.37543	5717.075
2879.87952	5707.375
2882.38207	5705.975
2884.88308	5688.875
2887.38256	5725.875
2889.88051	5703.575
2892.37692	5687.675
2894.8718	5699.375
2897.36515	5689.575
2899.85698	5698.575
2902.34727	5705.775
2904.83604	5703.875
2907.32328	5724.975
2909.809	5717.375
2912.29319	5710.075
2914.77587	5705.875
2917.25702	5701.275
2919.73665	5701.875
2922.21476	5700.175
2924.69136	5691.575
2927.16644	5685.775
2929.64	5659.175
2932.11205	5646.975
2934.58258	5644.575
2937.05161	5628.875
2939.51912	5642.575
2941.98513	5616.275
2944.44962	5590.675
2946.91261	5553.475
2949.37409	5547.275
2951.83407	5526.275
2954.29254	5524.475
2956.74951	5527.775
2959.20498	5492.575
2961.65895	5492.475
2964.11142	5505.375
2966.56239	5466.575
2969.01186	5480.975
2971.45984	5463.475
2973.90632	5479.375
2976.35131	5425.975
2978.7948	5427.575
2981.23681	5406.375
2983.67732	5403.475
2986.11635	5393.375
2988.55388	5383.575
2990.98993	5379.175
2993.4245	5358.775
2995.85758	5344.575
2998.28917	5333.775
3000.71928	5311.975
3003.14791	5293.075
3005.57506	5300.675
3008.00073	5287.075
3010.42493	5289.275
3012.84764	5265.075
3015.26888	5280.075
3017.68865	5254.575
3020.10694	5267.375
3022.52376	5254.875
3024.9391	5236.975
3027.35298	5233.175
3029.76539	5237.075
3032.17632	5219.375
3034.5858	5219.875
3036.9938	5221.775
3039.40034	5220.875
3041.80542	5217.575
3044.20903	5182.175
3046.61118	5186.875
3049.01187	5169.775
3051.4111	5162.475
3053.80888	5166.275
3056.20519	5141.675
3058.60005	5133.475
3060.99345	5132.275
3063.3854	5119.075
3065.7759	5102.875
3068.16494	5117.775
3070.55254	5085.875
3072.93868	5098.275
3075.32338	5066.075
3077.70662	5053.375
3080.08842	5037.075
3082.46878	5032.375
3084.84769	5026.875
3087.22515	5021.875
3089.60118	5023.175
3091.97576	5018.375
3094.3489	5021.175
3096.72061	4999.275
3099.09087	5010.175
3101.4597	5002.675
3103.82709	5007.075
3106.19305	4998.575
3108.55757	4988.775
3110.92066	4984.475
3113.28232	4976.275
3115.64255	4958.275
3118.00134	4954.175
3120.35871	4965.875
3122.71466	4952.975
3125.06917	4946.575
3127.42226	4935.275
3129.77393	4936.175
3132.12417	4935.275
3134.47299	4932.775
3136.82039	4943.875
3139.16636	4940.075
3141.51092	4949.075
3143.85406	4970.175
3146.19579	4947.775
3148.53609	4937.875
3150.87499	4938.175
3153.21246	4962.075
3155.54853	4972.375
3157.88318	4974.475
3160.21642	4969.275
3162.54826	4957.875
3164.87868	4965.675
3167.2077	4984.675
3169.5353	4979.275
3171.86151	4984.675
3174.18631	4983.775
3176.5097	4976.775
3178.83169	4975.175
3181.15228	4954.775
3183.47147	4954.975
3185.78926	4955.075
3188.10565	4971.675
3190.42065	4948.775
3192.73424	4941.475
3195.04645	4935.575
