Data from AgNP_FTO_APTES_UA_10uM_CRN_1uM_R6G_10uM_NaF_0.1M_Addition_RamanShift__9__13-03-10-504.txt Node

Date: Thu Feb 10 13:03:10 GMT 2022
User: TCL
Spectrometer: QEP01345
Trigger mode: 4
Integration Time (sec): 7.000000E0
Scans to average: 10
Electric dark correction enabled: true
Nonlinearity correction enabled: false
Boxcar width: 0
XAxis mode: Raman Shifts
Number of Pixels in Spectrum: 1044
>>>>>Begin Spectral Data<<<<<
46.04893	-0.725
50.45542	-0.025
54.85868	-2.125
59.25871	-0.425
63.6555	78.375
68.04907	80.275
72.43941	83.775
76.82654	82.075
81.21044	90.575
85.59113	88.175
89.96862	94.675
94.34289	99.875
98.71396	103.375
103.08183	108.375
107.4465	107.875
111.80798	107.975
116.16626	112.375
120.52136	120.875
124.87327	123.775
129.222	127.675
133.56755	140.475
137.90993	148.375
142.24913	164.875
146.58517	186.775
150.91804	221.875
155.24774	261.875
159.57429	328.075
163.89768	418.675
168.21792	564.175
172.53501	773.775
176.84895	1080.475
181.15975	1516.875
185.46741	2132.075
189.77193	2946.875
194.07331	3948.375
198.37157	5069.775
202.6667	6303.275
206.9587	7447.875
211.24758	8628.675
215.53334	9814.375
219.81599	11039.375
224.09553	12418.575
228.37195	13932.675
232.64527	15602.175
236.91549	17341.175
241.18261	19057.375
245.44663	20643.175
249.70755	22049.275
253.96539	23273.575
258.22014	24301.075
262.4718	25108.575
266.72039	25670.375
270.96589	25958.875
275.20832	25958.075
279.44768	25740.075
283.68397	25432.175
287.91719	25185.775
292.14735	25028.975
296.37445	24998.775
300.59849	25121.375
304.81948	25322.075
309.03742	25391.575
313.25231	25298.175
317.46415	24968.375
321.67296	24439.075
325.87872	23940.675
330.08145	23716.075
334.28114	23700.575
338.47781	23836.675
342.67145	24099.075
346.86207	24517.075
351.04966	25061.875
355.23424	25560.275
359.4158	26041.875
363.59435	26343.475
367.76989	26534.875
371.94243	26645.875
376.11196	26724.675
380.27849	26686.575
384.44203	26790.975
388.60257	27016.575
392.76012	27274.675
396.91468	27644.275
401.06626	28171.375
405.21485	28402.775
409.36047	28326.675
413.50311	27990.075
417.64277	27898.675
421.77947	28016.675
425.9132	28225.975
430.04396	28354.775
434.17176	28394.875
438.2966	28440.975
442.41849	28724.075
446.53742	29381.975
450.6534	30159.775
454.76644	30704.375
458.87653	30775.675
462.98368	30553.075
467.08789	30237.675
471.18916	29699.175
475.2875	29147.175
479.38291	28762.175
483.4754	28517.475
487.56496	28278.875
491.6516	27985.575
495.73531	27733.375
499.81612	27629.175
503.89401	27803.675
507.96899	28009.475
512.04106	28016.975
516.11023	27888.575
520.1765	27573.375
524.23987	27291.475
528.30034	27016.275
532.35792	26720.775
536.41261	26365.575
540.46441	26073.875
544.51333	26021.875
548.55936	26217.375
552.60252	26792.875
556.64279	27366.775
560.6802	27839.175
564.71473	28169.175
568.7464	28632.975
572.7752	29554.975
576.80114	30673.875
580.82422	31971.075
584.84444	33595.775
588.86181	35686.075
592.87633	37414.275
596.888	36980.775
600.89682	34564.775
604.9028	33411.875
608.90594	35043.475
612.90624	37244.375
616.90371	34962.975
620.89834	29655.675
624.89015	27354.575
628.87913	27068.775
632.86528	27377.275
636.84862	27317.675
640.82913	26760.475
644.80683	26057.175
648.78172	25599.975
652.75379	25600.375
656.72306	25941.275
660.68952	26385.075
664.65319	26242.575
668.61405	25754.875
672.57211	25683.375
676.52738	25853.075
680.47986	25859.575
684.42955	25614.775
688.37646	25513.775
692.32058	25725.575
696.26192	26167.475
700.20048	26620.775
704.13626	26817.175
708.06928	26800.275
711.99952	26662.975
715.927	26651.575
719.85171	26752.475
723.77365	26603.775
727.69284	26045.675
731.60928	25593.775
735.52295	25408.275
739.43388	25395.075
743.34206	25532.075
747.24749	25694.975
751.15017	26032.075
755.05012	26530.375
758.94733	27281.175
762.8418	28600.075
766.73354	30528.075
770.62254	32251.075
774.50882	32494.675
778.39237	31122.075
782.27321	29212.175
786.15132	27584.475
790.02671	26505.475
793.89938	25935.475
797.76935	25742.175
801.6366	25587.275
805.50115	25568.775
809.36299	25417.375
813.22213	25252.275
817.07857	25043.175
820.93231	24910.375
824.78336	24793.175
828.63172	24629.875
832.47738	24582.075
836.32036	24565.475
840.16066	24583.375
843.99827	24565.775
847.8332	24590.475
851.66546	24643.075
855.49504	24656.275
859.32195	24694.275
863.1462	24594.775
866.96777	24567.075
870.78668	24479.075
874.60293	24515.175
878.41652	24545.075
882.22745	24633.175
886.03573	24772.875
889.84136	24755.275
893.64433	24674.875
897.44466	24592.075
901.24235	24530.675
905.0374	24464.475
908.8298	24412.775
912.61957	24381.375
916.40671	24630.775
920.19121	24915.275
923.97308	25237.475
927.75233	25368.875
931.52895	25122.675
935.30295	24685.475
939.07433	24177.475
942.84309	23825.275
946.60924	23719.375
950.37278	23670.575
954.13371	23724.275
957.89203	23681.975
961.64774	23672.875
965.40086	23693.575
969.15137	23665.975
972.89929	23587.475
976.64461	23509.075
980.38733	23475.875
984.12747	23552.875
987.86502	23652.175
991.59999	23809.175
995.33237	24051.575
999.06217	24472.475
1002.78939	24993.875
1006.51404	25721.175
1010.23611	26270.175
1013.95561	26637.275
1017.67255	26695.875
1021.38692	26349.675
1025.09872	25836.075
1028.80796	25447.075
1032.51465	25428.975
1036.21877	25542.475
1039.92035	25655.275
1043.61937	25737.975
1047.31584	25683.175
1051.00976	25581.075
1054.70114	25548.875
1058.38998	25699.675
1062.07627	25939.275
1065.76003	26245.075
1069.44126	26634.275
1073.11995	27201.175
1076.79611	27713.875
1080.46974	27988.675
1084.14085	28258.675
1087.80943	28606.975
1091.47549	28941.175
1095.13903	28928.675
1098.80005	28474.975
1102.45857	27709.175
1106.11456	27129.475
1109.76805	26837.575
1113.41903	26725.575
1117.06751	26808.075
1120.71348	27052.275
1124.35696	27367.275
1127.99793	27670.475
1131.63641	27865.075
1135.2724	27836.075
1138.90589	27768.275
1142.5369	27805.675
1146.16542	28041.975
1149.79145	28283.075
1153.415	28495.775
1157.03607	28846.775
1160.65467	29607.775
1164.27079	30999.875
1167.88443	32703.775
1171.49561	34522.375
1175.10432	36627.675
1178.71056	39440.175
1182.31434	42043.875
1185.91565	43464.475
1189.51451	43359.975
1193.11091	42375.675
1196.70485	40897.275
1200.29634	39316.275
1203.88538	38235.575
1207.47197	37803.375
1211.05612	37488.175
1214.63782	36826.175
1218.21708	35697.275
1221.79391	34495.975
1225.36829	33709.675
1228.94024	33356.775
1232.50976	32995.475
1236.07685	32510.075
1239.6415	32147.075
1243.20374	32031.975
1246.76355	32250.875
1250.32093	32730.475
1253.8759	33485.475
1257.42845	34497.375
1260.97859	35630.075
1264.52631	36891.475
1268.07163	38116.175
1271.61453	39245.175
1275.15503	40370.075
1278.69312	41433.075
1282.22882	42603.275
1285.76211	43996.775
1289.29301	45694.875
1292.82151	47713.575
1296.34761	50187.575
1299.87133	53104.375
1303.39266	56317.575
1306.9116	59232.975
1310.42815	61436.075
1313.94233	62309.275
1317.45412	61547.175
1320.96354	60012.075
1324.47058	59085.775
1327.97525	58648.475
1331.47754	58422.275
1334.97747	58179.775
1338.47502	57710.075
1341.97022	56932.575
1345.46305	56142.275
1348.95352	55485.575
1352.44163	55281.375
1355.92738	56255.475
1359.41078	58348.275
1362.89183	60361.575
1366.37053	59676.775
1369.84688	55322.475
1373.32088	49270.375
1376.79254	44982.475
1380.26186	43287.675
1383.72883	43255.975
1387.19347	43242.675
1390.65578	42684.675
1394.11575	42493.775
1397.57339	42996.675
1401.0287	43736.175
1404.48168	44472.575
1407.93234	44606.275
1411.38068	43858.575
1414.82669	42403.175
1418.27039	40699.575
1421.71177	39080.875
1425.15083	37892.975
1428.58758	37519.175
1432.02203	38193.775
1435.45416	39474.575
1438.88399	40806.675
1442.31151	41527.175
1445.73673	41791.575
1449.15965	41768.175
1452.58027	41586.675
1455.9986	41441.475
1459.41463	41756.275
1462.82837	42482.275
1466.23982	43348.175
1469.64898	43995.575
1473.05586	44278.475
1476.46045	44199.975
1479.86276	43768.875
1483.26279	43355.275
1486.66054	43210.275
1490.05602	43551.375
1493.44922	44070.975
1496.84016	44681.875
1500.22882	45572.875
1503.61521	46842.575
1506.99934	48276.275
1510.38121	49221.675
1513.76081	49154.875
1517.13816	48080.275
1520.51324	46641.975
1523.88607	45732.075
1527.25665	45378.675
1530.62498	45383.475
1533.99105	45099.875
1537.35488	44445.275
1540.71647	43366.075
1544.07581	41987.175
1547.4329	40795.575
1550.78776	39739.475
1554.14038	39018.475
1557.49077	38582.775
1560.83892	38348.875
1564.18484	38271.575
1567.52853	38351.675
1570.86999	38699.275
1574.20922	39383.975
1577.54624	40027.475
1580.88103	40287.475
1584.2136	40790.775
1587.54395	42259.575
1590.87208	44752.375
1594.19801	47878.275
1597.52172	50574.075
1600.84321	51025.975
1604.16251	48351.575
1607.47959	44222.975
1610.79447	40030.675
1614.10715	36244.475
1617.41763	33258.475
1620.7259	31384.375
1624.03199	30459.175
1627.33587	30535.975
1630.63757	31650.075
1633.93707	33980.875
1637.23439	38040.475
1640.52951	43904.275
1643.82246	50821.775
1647.11321	55935.475
1650.40179	56254.975
1653.68819	51033.175
1656.97241	43180.475
1660.25446	36125.475
1663.53433	31184.675
1666.81203	28108.875
1670.08756	26312.075
1673.36092	25166.775
1676.63211	24385.575
1679.90115	23844.575
1683.16801	23474.375
1686.43272	23180.475
1689.69527	22929.075
1692.95567	22730.275
1696.2139	22661.875
1699.46999	22580.575
1702.72392	22474.375
1705.97571	22400.275
1709.22535	22379.275
1712.47284	22317.575
1715.71819	22263.475
1718.96139	22236.375
1722.20246	22129.975
1725.44139	22014.675
1728.67818	21866.675
1731.91284	21697.275
1735.14537	21542.175
1738.37576	21493.075
1741.60403	21425.675
1744.83017	21300.775
1748.05418	21271.775
1751.27607	21197.475
1754.49584	21134.175
1757.71349	21147.275
1760.92903	21131.775
1764.14244	21118.175
1767.35375	21106.175
1770.56294	21042.875
1773.77002	20994.375
1776.97499	20950.975
1780.17785	20901.475
1783.37861	20860.475
1786.57727	20845.875
1789.77382	20770.675
1792.96828	20773.075
1796.16064	20724.275
1799.3509	20660.675
1802.53907	20645.275
1805.72514	20557.975
1808.90913	20499.075
1812.09102	20492.375
1815.27083	20404.475
1818.44856	20401.275
1821.6242	20351.875
1824.79776	20362.175
1827.96924	20356.275
1831.13864	20382.275
1834.30597	20367.575
1837.47122	20425.475
1840.6344	20426.375
1843.7955	20378.875
1846.95454	20391.575
1850.11151	20392.875
1853.26642	20357.675
1856.41926	20376.875
1859.57004	20341.775
1862.71876	20315.175
1865.86542	20271.475
1869.01003	20238.975
1872.15258	20241.575
1875.29308	20184.475
1878.43152	20155.875
1881.56792	20139.275
1884.70227	20103.875
1887.83457	20082.575
1890.96482	20036.075
1894.09304	19978.375
1897.21921	19975.775
1900.34335	19927.375
1903.46544	19924.075
1906.58551	19869.175
1909.70353	19828.275
1912.81953	19824.475
1915.93349	19779.975
1919.04543	19732.975
1922.15534	19676.975
1925.26322	19652.175
1928.36908	19591.375
1931.47292	19549.875
1934.57473	19504.775
1937.67453	19445.175
1940.77232	19391.575
1943.86808	19347.575
1946.96184	19312.175
1950.05358	19186.475
1953.14331	19181.575
1956.23103	19144.775
1959.31675	19042.475
1962.40046	19019.875
1965.48217	18946.675
1968.56188	18908.775
1971.63959	18830.775
1974.7153	18794.975
1977.78901	18731.475
1980.86073	18661.075
1983.93046	18606.075
1986.99819	18563.775
1990.06394	18459.375
1993.1277	18450.275
1996.18947	18409.375
1999.24925	18363.475
2002.30706	18310.475
2005.36288	18241.675
2008.41672	18160.875
2011.46859	18086.575
2014.51848	18061.875
2017.56639	18047.775
2020.61233	18016.375
2023.6563	18011.875
2026.6983	17950.475
2029.73833	17867.475
2032.7764	17829.275
2035.8125	17814.175
2038.84664	17719.675
2041.87881	17715.275
2044.90903	17723.075
2047.93729	17698.975
2050.96359	17660.675
2053.98794	17615.875
2057.01034	17623.975
2060.03078	17587.575
2063.04927	17595.775
2066.06582	17579.175
2069.08042	17535.375
2072.09307	17510.775
2075.10378	17515.475
2078.11255	17536.475
2081.11938	17501.575
2084.12426	17473.075
2087.12722	17490.175
2090.12824	17479.875
2093.12732	17469.575
2096.12447	17469.175
2099.11969	17468.975
2102.11299	17467.075
2105.10435	17516.475
2108.09379	17505.075
2111.08131	17511.175
2114.0669	17492.975
2117.05057	17503.575
2120.03233	17531.675
2123.01216	17567.975
2125.99008	17541.575
2128.96609	17571.875
2131.94018	17603.975
2134.91236	17629.275
2137.88263	17604.975
2140.851	17592.075
2143.81746	17594.875
2146.78201	17581.575
2149.74466	17574.575
2152.7054	17571.675
2155.66425	17544.475
2158.6212	17539.475
2161.57625	17544.775
2164.52941	17514.975
2167.48067	17503.575
2170.43004	17459.975
2173.37752	17520.275
2176.32311	17523.675
2179.26681	17533.675
2182.20863	17538.175
2185.14856	17537.175
2188.08661	17513.675
2191.02278	17519.375
2193.95707	17527.875
2196.88948	17519.175
2199.82001	17505.075
2202.74867	17495.275
2205.67545	17443.575
2208.60037	17439.475
2211.52341	17423.675
2214.44458	17384.675
2217.36388	17359.375
2220.28132	17293.175
2223.1969	17270.275
2226.11061	17245.575
2229.02246	17216.275
2231.93245	17220.875
2234.84058	17202.875
2237.74686	17160.975
2240.65128	17130.775
2243.55385	17127.875
2246.45456	17095.975
2249.35343	17040.275
2252.25044	17044.175
2255.14561	17003.875
2258.03893	16930.375
2260.93041	16950.675
2263.82004	16841.875
2266.70783	16862.875
2269.59378	16789.975
2272.4779	16760.375
2275.36017	16731.575
2278.24061	16705.675
2281.11922	16668.975
2283.996	16655.775
2286.87094	16629.375
2289.74405	16605.175
2292.61534	16587.175
2295.4848	16565.575
2298.35243	16586.275
2301.21824	16583.475
2304.08223	16574.675
2306.94439	16556.675
2309.80474	16548.875
2312.66327	16572.375
2315.51999	16559.575
2318.37489	16557.875
2321.22797	16493.075
2324.07925	16496.375
2326.92871	16478.975
2329.77637	16450.675
2332.62222	16426.475
2335.46626	16426.575
2338.3085	16402.075
2341.14893	16379.975
2343.98756	16388.075
2346.8244	16431.875
2349.65943	16430.375
2352.49267	16393.875
2355.32411	16407.775
2358.15376	16406.475
2360.98161	16382.975
2363.80768	16412.775
2366.63195	16369.475
2369.45444	16366.475
2372.27514	16347.375
2375.09405	16326.875
2377.91118	16332.875
2380.72652	16245.475
2383.54009	16196.775
2386.35187	16184.275
2389.16188	16151.175
2391.97011	16102.275
2394.77657	16075.475
2397.58125	16032.275
2400.38416	16036.775
2403.18529	16009.075
2405.98466	16025.475
2408.78226	15941.075
2411.57809	15949.975
2414.37216	15965.775
2417.16446	15963.075
2419.955	15885.875
2422.74378	15904.275
2425.5308	15865.375
2428.31606	15884.175
2431.09956	15900.075
2433.88131	15888.475
2436.6613	15911.675
2439.43954	15891.375
2442.21603	15886.675
2444.99077	15861.775
2447.76377	15854.275
2450.53501	15846.375
2453.30451	15870.475
2456.07226	15821.275
2458.83827	15820.975
2461.60254	15845.475
2464.36507	15835.875
2467.12586	15808.275
2469.88492	15792.675
2472.64224	15822.875
2475.39782	15820.375
2478.15167	15815.175
2480.90379	15814.175
2483.65417	15837.875
2486.40283	15835.075
2489.14976	15828.975
2491.89497	15824.875
2494.63845	15817.075
2497.3802	15778.775
2500.12024	15840.275
2502.85855	15801.475
2505.59514	15791.975
2508.33002	15757.875
2511.06318	15757.075
2513.79462	15736.575
2516.52435	15721.975
2519.25237	15707.775
2521.97867	15698.875
2524.70327	15708.375
2527.42616	15707.775
2530.14734	15685.175
2532.86681	15683.575
2535.58458	15680.475
2538.30065	15699.775
2541.01501	15668.375
2543.72768	15703.975
2546.43864	15658.575
2549.14791	15618.475
2551.85548	15650.675
2554.56136	15617.575
2557.26554	15592.675
2559.96803	15536.275
2562.66883	15542.275
2565.36794	15514.475
2568.06536	15531.475
2570.7611	15490.875
2573.45514	15496.175
2576.14751	15499.875
2578.83819	15463.275
2581.52719	15442.475
2584.21451	15438.275
2586.90015	15419.175
2589.58411	15431.375
2592.2664	15399.375
2594.94701	15397.475
2597.62594	15382.575
2600.30321	15377.675
2602.9788	15366.975
2605.65273	15366.175
2608.32498	15348.975
2610.99557	15367.775
2613.66449	15372.275
2616.33175	15345.775
2618.99734	15333.175
2621.66128	15303.275
2624.32355	15297.475
2626.98416	15276.275
2629.64311	15264.275
2632.30041	15252.975
2634.95605	15228.875
2637.61004	15201.075
2640.26238	15193.675
2642.91306	15232.975
2645.56209	15243.275
2648.20948	15239.275
2650.85521	15227.375
2653.4993	15206.175
2656.14175	15250.175
2658.78255	15274.275
2661.42171	15266.775
2664.05923	15310.975
2666.6951	15329.675
2669.32934	15340.375
2671.96194	15295.075
2674.59291	15326.375
2677.22224	15320.875
2679.84993	15318.175
2682.476	15298.375
2685.10043	15335.475
2687.72324	15262.475
2690.34441	15281.975
2692.96396	15268.275
2695.58188	15263.675
2698.19818	15287.075
2700.81285	15267.975
2703.4259	15270.675
2706.03733	15300.875
2708.64714	15277.275
2711.25533	15313.575
2713.86191	15308.075
2716.46687	15341.475
2719.07021	15348.475
2721.67194	15363.275
2724.27206	15368.075
2726.87057	15369.675
2729.46747	15372.975
2732.06276	15424.575
2734.65644	15391.275
2737.24852	15400.575
2739.83899	15388.075
2742.42786	15374.775
2745.01513	15353.375
2747.60079	15356.475
2750.18486	15345.275
2752.76733	15343.975
2755.3482	15313.075
2757.92747	15327.075
2760.50515	15315.975
2763.08123	15297.475
2765.65573	15243.275
2768.22863	15293.175
2770.79994	15250.275
2773.36967	15278.775
2775.9378	15243.275
2778.50435	15233.175
2781.06932	15263.075
2783.6327	15258.775
2786.1945	15260.075
2788.75471	15202.075
2791.31335	15178.475
2793.87041	15177.175
2796.42589	15144.475
2798.97979	15143.475
2801.53212	15125.375
2804.08288	15133.175
2806.63206	15053.675
2809.17967	15047.375
2811.72571	15006.375
2814.27018	14971.375
2816.81308	14941.075
2819.35442	14891.375
2821.89419	14899.475
2824.43239	14863.575
2826.96904	14882.075
2829.50412	14853.675
2832.03763	14809.775
2834.56959	14829.275
2837.1	14760.775
2839.62884	14784.775
2842.15613	14772.875
2844.68186	14801.675
2847.20604	14806.275
2849.72867	14828.775
2852.24974	14824.375
2854.76927	14792.975
2857.28724	14794.675
2859.80367	14746.775
2862.31855	14755.075
2864.83189	14740.075
2867.34368	14704.775
2869.85393	14679.375
2872.36264	14655.175
2874.8698	14655.575
2877.37543	14679.175
2879.87952	14699.575
2882.38207	14668.175
2884.88308	14664.775
2887.38256	14636.575
2889.88051	14664.375
2892.37692	14681.975
2894.8718	14671.975
2897.36515	14694.975
2899.85698	14680.375
2902.34727	14732.275
2904.83604	14718.175
2907.32328	14748.875
2909.809	14743.575
2912.29319	14715.975
2914.77587	14735.775
2917.25702	14718.275
2919.73665	14718.175
2922.21476	14675.975
2924.69136	14675.375
2927.16644	14661.275
2929.64	14676.775
2932.11205	14657.775
2934.58258	14622.575
2937.05161	14612.075
2939.51912	14604.875
2941.98513	14597.275
2944.44962	14594.375
2946.91261	14522.375
2949.37409	14535.275
2951.83407	14508.975
2954.29254	14548.375
2956.74951	14532.375
2959.20498	14501.375
2961.65895	14451.875
2964.11142	14484.775
2966.56239	14426.475
2969.01186	14436.375
2971.45984	14419.475
2973.90632	14405.375
2976.35131	14328.475
2978.7948	14319.575
2981.23681	14312.875
2983.67732	14256.575
2986.11635	14263.575
2988.55388	14229.275
2990.98993	14158.875
2993.4245	14118.275
2995.85758	14072.775
2998.28917	14054.175
3000.71928	14006.975
3003.14791	13988.875
3005.57506	13972.675
3008.00073	13956.575
3010.42493	13885.475
3012.84764	13892.875
3015.26888	13860.575
3017.68865	13785.275
3020.10694	13765.875
3022.52376	13759.175
3024.9391	13742.675
3027.35298	13746.075
3029.76539	13727.175
3032.17632	13712.975
3034.5858	13710.375
3036.9938	13697.975
3039.40034	13711.475
3041.80542	13696.475
3044.20903	13635.875
3046.61118	13665.475
3049.01187	13589.075
3051.4111	13593.975
3053.80888	13574.675
3056.20519	13532.075
3058.60005	13500.775
3060.99345	13492.375
3063.3854	13451.575
3065.7759	13390.975
3068.16494	13366.175
3070.55254	13298.875
3072.93868	13277.375
3075.32338	13255.075
3077.70662	13224.875
3080.08842	13200.475
3082.46878	13190.275
3084.84769	13145.175
3087.22515	13135.775
3089.60118	13122.475
3091.97576	13117.875
3094.3489	13100.175
3096.72061	13072.875
3099.09087	13063.575
3101.4597	13082.375
3103.82709	13056.575
3106.19305	13049.375
3108.55757	13022.075
3110.92066	12984.675
3113.28232	12999.775
3115.64255	12949.375
3118.00134	12919.375
3120.35871	12894.675
3122.71466	12870.375
3125.06917	12858.975
3127.42226	12793.475
