Data from AgNP_FTO_APTES_UA_10uM_CRN_5uM_R6G_10uM_NaF_0.1M_Addition_RamanShift__18__15-03-20-656.txt Node

Date: Thu Feb 10 15:03:20 GMT 2022
User: TCL
Spectrometer: QEP01345
Trigger mode: 4
Integration Time (sec): 7.000000E0
Scans to average: 10
Electric dark correction enabled: true
Nonlinearity correction enabled: false
Boxcar width: 0
XAxis mode: Raman Shifts
Number of Pixels in Spectrum: 1044
>>>>>Begin Spectral Data<<<<<
46.04893	0.125
50.45542	-0.075
54.85868	-3.075
59.25871	-1.575
63.6555	68.525
68.04907	73.425
72.43941	77.925
76.82654	79.225
81.21044	84.625
85.59113	82.325
89.96862	85.125
94.34289	91.325
98.71396	92.525
103.08183	96.325
107.4465	103.325
111.80798	101.325
116.16626	104.225
120.52136	109.725
124.87327	113.225
129.222	119.325
133.56755	128.125
137.90993	136.325
142.24913	149.925
146.58517	167.525
150.91804	198.425
155.24774	232.425
159.57429	292.625
163.89768	374.225
168.21792	500.325
172.53501	679.325
176.84895	942.425
181.15975	1325.625
185.46741	1849.825
189.77193	2567.125
194.07331	3433.725
198.37157	4409.725
202.6667	5415.425
206.9587	6434.125
211.24758	7433.225
215.53334	8419.125
219.81599	9487.225
224.09553	10677.025
228.37195	11961.425
232.64527	13425.625
236.91549	14959.225
241.18261	16452.425
245.44663	17769.625
249.70755	19015.325
253.96539	20139.525
258.22014	21065.325
262.4718	21854.525
266.72039	22455.425
270.96589	22759.025
275.20832	22839.725
279.44768	22808.625
283.68397	22678.025
287.91719	22534.825
292.14735	22450.425
296.37445	22484.225
300.59849	22541.425
304.81948	22579.325
309.03742	22521.225
313.25231	22198.725
317.46415	21637.025
321.67296	21002.325
325.87872	20471.825
330.08145	20198.425
334.28114	20204.325
338.47781	20289.425
342.67145	20594.825
346.86207	20911.425
351.04966	21345.125
355.23424	21780.125
359.4158	22089.225
363.59435	22364.925
367.76989	22528.525
371.94243	22682.625
376.11196	22785.825
380.27849	22911.025
384.44203	23006.225
388.60257	23159.325
392.76012	23437.925
396.91468	23645.225
401.06626	24027.525
405.21485	24225.625
409.36047	24098.225
413.50311	23755.825
417.64277	23470.725
421.77947	23486.525
425.9132	23609.325
430.04396	23782.125
434.17176	23913.125
438.2966	24113.525
442.41849	24530.125
446.53742	25180.225
450.6534	25933.425
454.76644	26536.025
458.87653	26763.825
462.98368	26602.825
467.08789	26357.425
471.18916	25962.825
475.2875	25613.525
479.38291	25479.325
483.4754	25337.325
487.56496	24948.925
491.6516	24453.825
495.73531	24042.325
499.81612	23833.425
503.89401	23998.825
507.96899	24088.025
512.04106	24011.225
516.11023	23839.125
520.1765	23581.725
524.23987	23326.625
528.30034	23103.825
532.35792	22812.825
536.41261	22537.625
540.46441	22282.625
544.51333	22320.825
548.55936	22696.725
552.60252	23279.525
556.64279	23859.725
560.6802	24360.825
564.71473	24601.825
568.7464	25041.425
572.7752	25675.425
576.80114	26249.325
580.82422	26757.525
584.84444	27181.125
588.86181	27583.625
592.87633	27963.925
596.888	27966.925
600.89682	27679.525
604.9028	28324.625
608.90594	30504.625
612.90624	32581.625
616.90371	30255.625
620.89834	25449.725
624.89015	23536.425
628.87913	23401.625
632.86528	23411.825
636.84862	23191.125
640.82913	22742.825
644.80683	22178.925
648.78172	21680.225
652.75379	21585.725
656.72306	21848.825
660.68952	22202.025
664.65319	22061.325
668.61405	21665.825
672.57211	21578.425
676.52738	21574.025
680.47986	21539.225
684.42955	21424.325
688.37646	21400.425
692.32058	21562.225
696.26192	21832.625
700.20048	22149.425
704.13626	22259.225
708.06928	22227.725
711.99952	22060.525
715.927	22006.825
719.85171	22049.925
723.77365	21980.525
727.69284	21723.325
731.60928	21455.825
735.52295	21383.725
739.43388	21374.025
743.34206	21444.625
747.24749	21562.725
751.15017	21786.125
755.05012	22237.125
758.94733	22982.325
762.8418	24250.125
766.73354	26136.525
770.62254	27818.425
774.50882	27984.225
778.39237	26441.825
782.27321	24474.925
786.15132	22904.525
790.02671	21999.425
793.89938	21594.825
797.76935	21467.225
801.6366	21463.225
805.50115	21353.325
809.36299	21209.925
813.22213	20991.925
817.07857	20901.525
820.93231	20822.225
824.78336	20709.625
828.63172	20603.725
832.47738	20576.225
836.32036	20629.725
840.16066	20681.125
843.99827	20799.825
847.8332	20745.325
851.66546	20596.825
855.49504	20582.325
859.32195	20563.725
863.1462	20532.925
866.96777	20427.125
870.78668	20366.225
874.60293	20343.925
878.41652	20331.825
882.22745	20393.825
886.03573	20433.425
889.84136	20417.625
893.64433	20323.625
897.44466	20241.525
901.24235	20178.525
905.0374	20110.825
908.8298	20071.225
912.61957	20124.725
916.40671	20313.025
920.19121	20648.125
923.97308	20920.525
927.75233	20978.725
931.52895	20816.225
935.30295	20514.725
939.07433	20130.925
942.84309	19749.825
946.60924	19643.325
950.37278	19592.825
954.13371	19581.825
957.89203	19485.725
961.64774	19434.225
965.40086	19388.025
969.15137	19314.825
972.89929	19234.825
976.64461	19196.925
980.38733	19163.225
984.12747	19278.325
987.86502	19463.625
991.59999	19781.125
995.33237	20195.725
999.06217	20886.625
1002.78939	21636.925
1006.51404	22068.225
1010.23611	22271.325
1013.95561	22521.425
1017.67255	22491.025
1021.38692	22170.225
1025.09872	21886.325
1028.80796	22016.625
1032.51465	22662.725
1036.21877	23277.025
1039.92035	23381.825
1043.61937	23023.125
1047.31584	22422.125
1051.00976	21814.125
1054.70114	21571.725
1058.38998	21592.425
1062.07627	21775.025
1065.76003	21893.825
1069.44126	22080.625
1073.11995	22317.925
1076.79611	22610.825
1080.46974	22813.925
1084.14085	23034.325
1087.80943	23297.425
1091.47549	23546.225
1095.13903	23477.325
1098.80005	23175.725
1102.45857	22694.025
1106.11456	22312.525
1109.76805	22197.125
1113.41903	22248.125
1117.06751	22391.525
1120.71348	22572.225
1124.35696	22802.625
1127.99793	23086.925
1131.63641	23256.325
1135.2724	23186.025
1138.90589	23046.625
1142.5369	23045.525
1146.16542	23063.925
1149.79145	23222.625
1153.415	23463.925
1157.03607	23959.225
1160.65467	24728.425
1164.27079	25944.425
1167.88443	27481.025
1171.49561	29334.825
1175.10432	31738.525
1178.71056	34733.425
1182.31434	37475.625
1185.91565	38967.025
1189.51451	38892.825
1193.11091	37701.525
1196.70485	36015.725
1200.29634	34284.525
1203.88538	33059.425
1207.47197	32197.825
1211.05612	31536.625
1214.63782	30903.525
1218.21708	30339.425
1221.79391	29978.625
1225.36829	29730.125
1228.94024	29297.425
1232.50976	28627.225
1236.07685	28027.725
1239.6415	27751.025
1243.20374	27649.025
1246.76355	27794.825
1250.32093	28295.125
1253.8759	29040.825
1257.42845	29922.025
1260.97859	30861.425
1264.52631	31835.825
1268.07163	32872.825
1271.61453	33986.925
1275.15503	35164.225
1278.69312	36330.425
1282.22882	37346.625
1285.76211	38271.025
1289.29301	39252.925
1292.82151	40655.125
1296.34761	42620.725
1299.87133	45163.525
1303.39266	48136.425
1306.9116	51400.925
1310.42815	54438.325
1313.94233	56320.925
1317.45412	56460.625
1320.96354	55574.525
1324.47058	54577.225
1327.97525	53718.825
1331.47754	53102.725
1334.97747	52948.825
1338.47502	52959.225
1341.97022	52723.225
1345.46305	52016.225
1348.95352	50812.825
1352.44163	49693.625
1355.92738	49653.225
1359.41078	50970.025
1362.89183	52105.125
1366.37053	50672.525
1369.84688	46550.025
1373.32088	41921.025
1376.79254	38800.225
1380.26186	37735.025
1383.72883	37745.925
1387.19347	37907.025
1390.65578	37766.225
1394.11575	37882.325
1397.57339	38492.025
1401.0287	39429.225
1404.48168	40230.425
1407.93234	40438.425
1411.38068	39839.525
1414.82669	38490.525
1418.27039	36679.125
1421.71177	34831.825
1425.15083	33352.225
1428.58758	32622.925
1432.02203	32754.825
1435.45416	33614.525
1438.88399	34773.225
1442.31151	35779.625
1445.73673	36515.925
1449.15965	37110.625
1452.58027	37530.925
1455.9986	37766.925
1459.41463	38149.425
1462.82837	38841.125
1466.23982	39629.025
1469.64898	40317.925
1473.05586	40641.725
1476.46045	40434.825
1479.86276	39923.625
1483.26279	39209.525
1486.66054	38740.325
1490.05602	38503.525
1493.44922	38518.425
1496.84016	38632.725
1500.22882	39112.025
1503.61521	40075.925
1506.99934	41282.525
1510.38121	42355.725
1513.76081	42583.625
1517.13816	41754.825
1520.51324	40285.325
1523.88607	39101.225
1527.25665	38473.225
1530.62498	38370.625
1533.99105	38345.525
1537.35488	38256.725
1540.71647	37839.225
1544.07581	37193.125
1547.4329	36343.925
1550.78776	35630.225
1554.14038	35096.025
1557.49077	34741.425
1560.83892	34508.725
1564.18484	34381.625
1567.52853	34320.725
1570.86999	34479.925
1574.20922	34973.925
1577.54624	35454.925
1580.88103	35668.525
1584.2136	36113.525
1587.54395	37328.325
1590.87208	39330.325
1594.19801	42026.225
1597.52172	44742.525
1600.84321	45517.225
1604.16251	43522.125
1607.47959	39933.425
1610.79447	36139.925
1614.10715	32643.925
1617.41763	29764.325
1620.7259	27789.225
1624.03199	26764.125
1627.33587	26690.225
1630.63757	27692.325
1633.93707	29765.825
1637.23439	33160.925
1640.52951	37509.325
1643.82246	42266.125
1647.11321	45486.525
1650.40179	45423.125
1653.68819	41677.525
1656.97241	35824.525
1660.25446	30280.525
1663.53433	26237.425
1666.81203	23536.425
1670.08756	21893.925
1673.36092	20852.125
1676.63211	20137.125
1679.90115	19634.525
1683.16801	19267.425
1686.43272	18987.325
1689.69527	18791.925
1692.95567	18663.825
1696.2139	18569.625
1699.46999	18481.625
1702.72392	18409.725
1705.97571	18302.425
1709.22535	18240.225
1712.47284	18173.725
1715.71819	18153.625
1718.96139	18087.525
1722.20246	17982.125
1725.44139	17918.025
1728.67818	17771.825
1731.91284	17618.425
1735.14537	17526.825
1738.37576	17458.625
1741.60403	17398.825
1744.83017	17318.425
1748.05418	17252.825
1751.27607	17240.625
1754.49584	17195.525
1757.71349	17229.025
1760.92903	17207.925
1764.14244	17181.725
1767.35375	17149.525
1770.56294	17138.825
1773.77002	17093.025
1776.97499	17038.925
1780.17785	16988.925
1783.37861	16949.125
1786.57727	16919.425
1789.77382	16878.725
1792.96828	16811.025
1796.16064	16779.925
1799.3509	16768.025
1802.53907	16741.825
1805.72514	16687.825
1808.90913	16662.025
1812.09102	16617.825
1815.27083	16579.725
1818.44856	16529.425
1821.6242	16540.625
1824.79776	16507.825
1827.96924	16490.225
1831.13864	16484.325
1834.30597	16515.325
1837.47122	16482.625
1840.6344	16478.125
1843.7955	16517.025
1846.95454	16536.925
1850.11151	16511.425
1853.26642	16504.125
1856.41926	16537.925
1859.57004	16508.225
1862.71876	16485.425
1865.86542	16453.025
1869.01003	16463.325
1872.15258	16426.425
1875.29308	16422.425
1878.43152	16396.025
1881.56792	16432.225
1884.70227	16363.425
1887.83457	16402.725
1890.96482	16355.825
1894.09304	16349.225
1897.21921	16354.325
1900.34335	16312.525
1903.46544	16283.725
1906.58551	16258.025
1909.70353	16239.525
1912.81953	16231.225
1915.93349	16206.625
1919.04543	16151.525
1922.15534	16105.725
1925.26322	16052.825
1928.36908	16031.225
1931.47292	15981.625
1934.57473	15945.925
1937.67453	15882.325
1940.77232	15847.025
1943.86808	15774.125
1946.96184	15731.325
1950.05358	15680.125
1953.14331	15597.325
1956.23103	15545.825
1959.31675	15516.225
1962.40046	15471.625
1965.48217	15414.825
1968.56188	15384.425
1971.63959	15309.425
1974.7153	15298.925
1977.78901	15255.025
1980.86073	15173.425
1983.93046	15142.925
1986.99819	15076.025
1990.06394	15076.025
1993.1277	15016.725
1996.18947	14964.925
1999.24925	14896.025
2002.30706	14885.025
2005.36288	14816.025
2008.41672	14795.725
2011.46859	14753.925
2014.51848	14714.325
2017.56639	14688.225
2020.61233	14673.725
2023.6563	14602.525
2026.6983	14584.925
2029.73833	14552.325
2032.7764	14535.125
2035.8125	14517.925
2038.84664	14491.425
2041.87881	14473.225
2044.90903	14436.025
2047.93729	14415.725
2050.96359	14404.525
2053.98794	14391.825
2057.01034	14386.925
2060.03078	14370.425
2063.04927	14353.225
2066.06582	14339.825
2069.08042	14340.625
2072.09307	14319.025
2075.10378	14310.125
2078.11255	14269.925
2081.11938	14285.825
2084.12426	14259.325
2087.12722	14279.025
2090.12824	14246.725
2093.12732	14266.825
2096.12447	14217.925
2099.11969	14237.525
2102.11299	14254.425
2105.10435	14251.525
2108.09379	14245.325
2111.08131	14263.525
2114.0669	14249.425
2117.05057	14268.125
2120.03233	14280.825
2123.01216	14294.725
2125.99008	14302.325
2128.96609	14304.025
2131.94018	14330.825
2134.91236	14346.325
2137.88263	14343.325
2140.851	14344.225
2143.81746	14377.425
2146.78201	14365.025
2149.74466	14365.225
2152.7054	14367.625
2155.66425	14357.625
2158.6212	14343.225
2161.57625	14342.425
2164.52941	14347.125
2167.48067	14300.625
2170.43004	14319.825
2173.37752	14305.925
2176.32311	14286.425
2179.26681	14314.825
2182.20863	14302.925
2185.14856	14292.425
2188.08661	14322.925
2191.02278	14332.025
2193.95707	14326.525
2196.88948	14274.325
2199.82001	14315.825
2202.74867	14304.325
2205.67545	14293.225
2208.60037	14273.325
2211.52341	14261.725
2214.44458	14261.225
2217.36388	14232.525
2220.28132	14212.925
2223.1969	14157.125
2226.11061	14181.025
2229.02246	14140.825
2231.93245	14100.925
2234.84058	14052.625
2237.74686	14053.825
2240.65128	14007.325
2243.55385	14009.225
2246.45456	13967.725
2249.35343	13959.725
2252.25044	13950.525
2255.14561	13935.725
2258.03893	13927.325
2260.93041	13904.925
2263.82004	13847.225
2266.70783	13789.425
2269.59378	13756.925
2272.4779	13712.125
2275.36017	13656.125
2278.24061	13668.825
2281.11922	13679.225
2283.996	13626.925
2286.87094	13652.025
2289.74405	13636.825
2292.61534	13588.425
2295.4848	13620.025
2298.35243	13635.125
2301.21824	13621.125
2304.08223	13622.425
2306.94439	13617.025
2309.80474	13651.625
2312.66327	13646.725
2315.51999	13653.625
2318.37489	13638.225
2321.22797	13612.425
2324.07925	13636.225
2326.92871	13603.825
2329.77637	13609.325
2332.62222	13585.025
2335.46626	13582.825
2338.3085	13589.825
2341.14893	13610.525
2343.98756	13629.225
2346.8244	13650.125
2349.65943	13643.625
2352.49267	13616.525
2355.32411	13611.225
2358.15376	13613.425
2360.98161	13622.125
2363.80768	13594.625
2366.63195	13600.925
2369.45444	13540.925
2372.27514	13518.525
2375.09405	13505.225
2377.91118	13448.825
2380.72652	13412.225
2383.54009	13395.325
2386.35187	13373.325
2389.16188	13356.925
2391.97011	13323.925
2394.77657	13305.425
2397.58125	13271.325
2400.38416	13281.625
2403.18529	13270.925
2405.98466	13228.625
2408.78226	13203.725
2411.57809	13165.025
2414.37216	13163.025
2417.16446	13133.925
2419.955	13141.425
2422.74378	13152.125
2425.5308	13075.425
2428.31606	13105.925
2431.09956	13099.725
2433.88131	13067.425
2436.6613	13124.825
2439.43954	13114.625
2442.21603	13097.425
2444.99077	13105.425
2447.76377	13078.225
2450.53501	13057.825
2453.30451	13065.425
2456.07226	13051.325
2458.83827	13062.725
2461.60254	13093.525
2464.36507	13059.125
2467.12586	13075.725
2469.88492	13079.925
2472.64224	13075.825
2475.39782	13105.425
2478.15167	13119.825
2480.90379	13124.525
2483.65417	13163.625
2486.40283	13157.025
2489.14976	13162.525
2491.89497	13156.725
2494.63845	13182.425
2497.3802	13197.425
2500.12024	13157.925
2502.85855	13141.025
2505.59514	13121.725
2508.33002	13102.525
2511.06318	13123.925
2513.79462	13095.225
2516.52435	13116.925
2519.25237	13119.225
2521.97867	13076.025
2524.70327	13094.725
2527.42616	13089.825
2530.14734	13102.625
2532.86681	13107.925
2535.58458	13066.225
2538.30065	13102.225
2541.01501	13073.025
2543.72768	13042.925
2546.43864	13045.825
2549.14791	13074.925
2551.85548	13083.125
2554.56136	13072.325
2557.26554	13022.725
2559.96803	13003.225
2562.66883	12992.425
2565.36794	12986.625
2568.06536	12977.025
2570.7611	12971.825
2573.45514	12978.825
2576.14751	12973.425
2578.83819	12964.125
2581.52719	12938.325
2584.21451	12943.725
2586.90015	12976.425
2589.58411	12946.425
2592.2664	12945.625
2594.94701	12952.025
2597.62594	12933.625
2600.30321	12923.825
2602.9788	12927.925
2605.65273	12953.025
2608.32498	12959.525
2610.99557	12947.925
2613.66449	12935.325
2616.33175	12969.425
2618.99734	12980.425
2621.66128	12969.825
2624.32355	12998.325
2626.98416	12965.125
2629.64311	12961.725
2632.30041	12962.625
2634.95605	12936.225
2637.61004	12941.625
2640.26238	12903.625
2642.91306	12910.925
2645.56209	12916.825
2648.20948	12929.425
2650.85521	12900.125
2653.4993	12920.525
2656.14175	12911.725
2658.78255	12921.025
2661.42171	12954.325
2664.05923	12960.925
2666.6951	12961.825
2669.32934	12972.225
2671.96194	12974.125
2674.59291	12990.625
2677.22224	12987.625
2679.84993	12958.825
2682.476	12968.925
2685.10043	12926.025
2687.72324	12953.425
2690.34441	12959.325
2692.96396	12922.725
2695.58188	12908.525
2698.19818	12884.425
2700.81285	12900.725
2703.4259	12917.125
2706.03733	12960.825
2708.64714	12925.125
2711.25533	12953.725
2713.86191	12960.225
2716.46687	12957.825
2719.07021	12995.125
2721.67194	12975.225
2724.27206	12987.125
2726.87057	12986.125
2729.46747	12997.125
2732.06276	13003.625
2734.65644	13012.125
2737.24852	13001.625
2739.83899	12985.725
2742.42786	13005.625
2745.01513	12986.625
2747.60079	12978.425
2750.18486	12972.225
2752.76733	12946.425
2755.3482	12948.125
2757.92747	12947.125
2760.50515	12936.425
2763.08123	12937.825
2765.65573	12906.325
2768.22863	12940.325
2770.79994	12927.525
2773.36967	12964.625
2775.9378	12955.825
2778.50435	12957.025
2781.06932	12952.925
2783.6327	12952.425
2786.1945	12974.225
2788.75471	12956.525
2791.31335	12938.425
2793.87041	12916.925
2796.42589	12883.125
2798.97979	12873.525
2801.53212	12858.325
2804.08288	12853.625
2806.63206	12834.425
2809.17967	12841.325
2811.72571	12782.025
2814.27018	12762.725
2816.81308	12734.925
2819.35442	12689.725
2821.89419	12668.325
2824.43239	12654.525
2826.96904	12654.725
2829.50412	12662.725
2832.03763	12635.225
2834.56959	12646.725
2837.1	12600.825
2839.62884	12631.625
2842.15613	12620.925
2844.68186	12648.925
2847.20604	12627.725
2849.72867	12648.525
2852.24974	12638.025
2854.76927	12600.925
2857.28724	12579.425
2859.80367	12579.625
2862.31855	12578.725
2864.83189	12539.925
2867.34368	12525.625
2869.85393	12545.525
2872.36264	12558.425
2874.8698	12531.825
2877.37543	12538.225
2879.87952	12531.625
2882.38207	12548.525
2884.88308	12527.525
2887.38256	12550.125
2889.88051	12533.825
2892.37692	12541.825
2894.8718	12531.825
2897.36515	12616.725
2899.85698	12608.925
2902.34727	12628.125
2904.83604	12662.925
2907.32328	12670.925
2909.809	12698.125
2912.29319	12676.825
2914.77587	12665.125
2917.25702	12660.425
2919.73665	12652.725
2922.21476	12654.825
2924.69136	12640.625
2927.16644	12616.625
2929.64	12616.625
2932.11205	12606.125
2934.58258	12531.925
2937.05161	12578.125
2939.51912	12578.325
2941.98513	12530.125
2944.44962	12507.525
2946.91261	12505.625
2949.37409	12510.825
2951.83407	12498.525
2954.29254	12459.325
2956.74951	12449.725
2959.20498	12439.225
2961.65895	12465.625
2964.11142	12443.425
2966.56239	12422.425
2969.01186	12410.525
2971.45984	12395.025
2973.90632	12392.225
2976.35131	12349.925
2978.7948	12313.225
2981.23681	12292.225
2983.67732	12253.925
2986.11635	12212.825
2988.55388	12152.025
2990.98993	12147.725
2993.4245	12131.125
2995.85758	12093.725
2998.28917	12096.425
3000.71928	12066.725
3003.14791	12029.825
3005.57506	12022.025
3008.00073	11986.225
3010.42493	11859.725
3012.84764	11932.425
3015.26888	11934.025
3017.68865	11865.525
3020.10694	11907.225
3022.52376	11860.025
3024.9391	11824.125
3027.35298	11832.125
3029.76539	11829.025
3032.17632	11847.125
3034.5858	11852.625
3036.9938	11807.225
3039.40034	11818.225
3041.80542	11809.225
3044.20903	11796.125
3046.61118	11787.425
3049.01187	11737.725
3051.4111	11757.225
3053.80888	11741.125
3056.20519	11700.625
3058.60005	11694.525
3060.99345	11658.225
3063.3854	11622.625
3065.7759	11595.225
3068.16494	11532.825
3070.55254	11532.825
3072.93868	11493.125
3075.32338	11456.625
3077.70662	11434.725
3080.08842	11413.225
3082.46878	11390.225
3084.84769	11396.525
3087.22515	11386.825
3089.60118	11401.325
3091.97576	11381.225
3094.3489	11355.625
3096.72061	11362.725
3099.09087	11379.625
3101.4597	11342.325
3103.82709	11354.025
3106.19305	11344.325
3108.55757	11355.125
3110.92066	11267.925
3113.28232	11262.825
3115.64255	11263.625
3118.00134	11231.825
3120.35871	11226.325
3122.71466	11174.625
3125.06917	11144.725
3127.42226	11163.225
