Data from AgNP_FTO_APTES_UA_10uM_CRN_100uM_R6G_10uM_NaF_0.1M_Addition_RamanShift__27__17-56-00-870.txt Node

Date: Thu Feb 10 17:56:00 GMT 2022
User: TCL
Spectrometer: QEP01345
Trigger mode: 4
Integration Time (sec): 7.000000E0
Scans to average: 10
Electric dark correction enabled: true
Nonlinearity correction enabled: false
Boxcar width: 0
XAxis mode: Raman Shifts
Number of Pixels in Spectrum: 1044
>>>>>Begin Spectral Data<<<<<
46.04893	0.0875
50.45542	0.6875
54.85868	-2.7125
59.25871	-1.2125
63.6555	49.9875
68.04907	49.0875
72.43941	54.4875
76.82654	52.4875
81.21044	57.7875
85.59113	57.5875
89.96862	62.8875
94.34289	64.3875
98.71396	64.2875
103.08183	68.9875
107.4465	71.9875
111.80798	69.1875
116.16626	67.8875
120.52136	73.0875
124.87327	77.6875
129.222	77.0875
133.56755	83.2875
137.90993	82.1875
142.24913	90.6875
146.58517	96.2875
150.91804	114.9875
155.24774	132.5875
159.57429	155.9875
163.89768	194.7875
168.21792	258.5875
172.53501	343.1875
176.84895	469.3875
181.15975	662.4875
185.46741	921.6875
189.77193	1271.3875
194.07331	1697.5875
198.37157	2192.1875
202.6667	2708.1875
206.9587	3218.8875
211.24758	3723.5875
215.53334	4249.8875
219.81599	4830.7875
224.09553	5461.4875
228.37195	6181.9875
232.64527	6976.0875
236.91549	7785.5875
241.18261	8553.0875
245.44663	9224.8875
249.70755	9766.5875
253.96539	10229.2875
258.22014	10669.0875
262.4718	11061.0875
266.72039	11351.0875
270.96589	11573.2875
275.20832	11626.5875
279.44768	11524.9875
283.68397	11411.6875
287.91719	11339.1875
292.14735	11316.5875
296.37445	11487.0875
300.59849	11809.3875
304.81948	12171.3875
309.03742	12379.1875
313.25231	12266.5875
317.46415	11796.3875
321.67296	11065.5875
325.87872	10438.5875
330.08145	10188.7875
334.28114	10204.9875
338.47781	10375.8875
342.67145	10628.0875
346.86207	11035.3875
351.04966	11569.9875
355.23424	12159.3875
359.4158	12617.7875
363.59435	12890.4875
367.76989	13013.3875
371.94243	12995.1875
376.11196	13024.6875
380.27849	12983.2875
384.44203	12954.7875
388.60257	12807.1875
392.76012	12765.1875
396.91468	12878.9875
401.06626	13182.4875
405.21485	13413.1875
409.36047	13263.8875
413.50311	12740.0875
417.64277	12242.9875
421.77947	11968.3875
425.9132	11887.0875
430.04396	11924.5875
434.17176	11989.9875
438.2966	12118.3875
442.41849	12357.5875
446.53742	12707.9875
450.6534	12996.4875
454.76644	13228.9875
458.87653	13291.9875
462.98368	13214.6875
467.08789	13027.6875
471.18916	12807.5875
475.2875	12592.1875
479.38291	12388.5875
483.4754	12249.9875
487.56496	12111.1875
491.6516	11958.9875
495.73531	11901.2875
499.81612	11937.4875
503.89401	12037.1875
507.96899	12165.4875
512.04106	12337.7875
516.11023	12546.8875
520.1765	12650.8875
524.23987	12595.9875
528.30034	12391.6875
532.35792	12215.6875
536.41261	12022.1875
540.46441	11839.9875
544.51333	11816.7875
548.55936	11888.6875
552.60252	12100.6875
556.64279	12346.0875
560.6802	12472.8875
564.71473	12562.1875
568.7464	12927.2875
572.7752	13190.9875
576.80114	12953.9875
580.82422	12606.0875
584.84444	12469.4875
588.86181	12431.6875
592.87633	12471.0875
596.888	12574.2875
600.89682	12919.3875
604.9028	14041.6875
608.90594	17095.6875
612.90624	21176.4875
616.90371	20523.1875
620.89834	15276.3875
624.89015	12901.0875
628.87913	12414.9875
632.86528	12418.3875
636.84862	12550.0875
640.82913	12469.2875
644.80683	12034.8875
648.78172	11829.3875
652.75379	11899.3875
656.72306	12244.4875
660.68952	12693.2875
664.65319	12625.6875
668.61405	12161.7875
672.57211	11980.9875
676.52738	11950.9875
680.47986	11992.0875
684.42955	11962.4875
688.37646	11922.4875
692.32058	11981.5875
696.26192	12073.2875
700.20048	12201.5875
704.13626	12289.9875
708.06928	12275.6875
711.99952	12187.5875
715.927	12156.7875
719.85171	12180.5875
723.77365	12165.7875
727.69284	12078.0875
731.60928	12005.4875
735.52295	12002.8875
739.43388	12055.9875
743.34206	12104.6875
747.24749	12141.6875
751.15017	12200.3875
755.05012	12402.0875
758.94733	12893.3875
762.8418	13827.9875
766.73354	15473.4875
770.62254	17305.1875
774.50882	18350.3875
778.39237	17679.3875
782.27321	15672.9875
786.15132	13869.4875
790.02671	12843.6875
793.89938	12380.4875
797.76935	12192.1875
801.6366	12099.6875
805.50115	12032.8875
809.36299	11983.2875
813.22213	11967.4875
817.07857	11992.4875
820.93231	11969.2875
824.78336	11999.5875
828.63172	12074.1875
832.47738	12066.9875
836.32036	12063.6875
840.16066	12035.3875
843.99827	11984.1875
847.8332	11955.3875
851.66546	11972.1875
855.49504	11966.0875
859.32195	11965.3875
863.1462	11910.1875
866.96777	11900.3875
870.78668	11899.6875
874.60293	11928.6875
878.41652	11997.3875
882.22745	12027.0875
886.03573	12071.4875
889.84136	12022.1875
893.64433	11976.4875
897.44466	11996.5875
901.24235	11941.6875
905.0374	11932.3875
908.8298	11951.1875
912.61957	11927.6875
916.40671	11953.1875
920.19121	12048.7875
923.97308	12099.5875
927.75233	12166.0875
931.52895	12249.1875
935.30295	12168.4875
939.07433	11909.6875
942.84309	11720.2875
946.60924	11592.4875
950.37278	11562.5875
954.13371	11480.6875
957.89203	11443.7875
961.64774	11431.5875
965.40086	11414.0875
969.15137	11363.3875
972.89929	11345.4875
976.64461	11346.8875
980.38733	11359.9875
984.12747	11407.5875
987.86502	11409.9875
991.59999	11488.2875
995.33237	11561.6875
999.06217	11779.7875
1002.78939	11998.0875
1006.51404	12172.4875
1010.23611	12348.1875
1013.95561	12517.1875
1017.67255	12526.3875
1021.38692	12428.1875
1025.09872	12283.2875
1028.80796	12236.5875
1032.51465	12312.8875
1036.21877	12439.9875
1039.92035	12495.5875
1043.61937	12453.4875
1047.31584	12408.0875
1051.00976	12339.9875
1054.70114	12310.9875
1058.38998	12373.6875
1062.07627	12420.3875
1065.76003	12452.6875
1069.44126	12481.9875
1073.11995	12584.9875
1076.79611	12653.8875
1080.46974	12774.5875
1084.14085	12979.2875
1087.80943	13199.8875
1091.47549	13328.7875
1095.13903	13127.1875
1098.80005	12808.5875
1102.45857	12580.8875
1106.11456	12508.7875
1109.76805	12549.8875
1113.41903	12716.1875
1117.06751	12994.4875
1120.71348	13392.5875
1124.35696	13726.1875
1127.99793	14043.3875
1131.63641	14038.6875
1135.2724	13598.9875
1138.90589	13126.8875
1142.5369	12881.5875
1146.16542	12678.9875
1149.79145	12621.5875
1153.415	12608.7875
1157.03607	12697.5875
1160.65467	12865.2875
1164.27079	13188.8875
1167.88443	13683.8875
1171.49561	14462.9875
1175.10432	15795.4875
1178.71056	17476.5875
1182.31434	18764.9875
1185.91565	19052.3875
1189.51451	18685.9875
1193.11091	17772.4875
1196.70485	16665.6875
1200.29634	15856.9875
1203.88538	15269.5875
1207.47197	14632.8875
1211.05612	14040.8875
1214.63782	13698.3875
1218.21708	13584.8875
1221.79391	13607.1875
1225.36829	13644.4875
1228.94024	13701.6875
1232.50976	13735.0875
1236.07685	13788.8875
1239.6415	13845.9875
1243.20374	13946.1875
1246.76355	14035.1875
1250.32093	14217.7875
1253.8759	14477.4875
1257.42845	14823.0875
1260.97859	15125.5875
1264.52631	15394.7875
1268.07163	15677.9875
1271.61453	15928.5875
1275.15503	16154.0875
1278.69312	16236.8875
1282.22882	16320.1875
1285.76211	16516.6875
1289.29301	16835.3875
1292.82151	17219.4875
1296.34761	17647.9875
1299.87133	18266.2875
1303.39266	19356.2875
1306.9116	21056.6875
1310.42815	22991.9875
1313.94233	24208.1875
1317.45412	23833.3875
1320.96354	22562.9875
1324.47058	21090.4875
1327.97525	19922.3875
1331.47754	19165.2875
1334.97747	19050.5875
1338.47502	19307.5875
1341.97022	19834.3875
1345.46305	20404.7875
1348.95352	21124.3875
1352.44163	22141.4875
1355.92738	23687.9875
1359.41078	26294.1875
1362.89183	28753.6875
1366.37053	28033.0875
1369.84688	24328.1875
1373.32088	20733.3875
1376.79254	18458.0875
1380.26186	17319.8875
1383.72883	16782.7875
1387.19347	16422.9875
1390.65578	15999.4875
1394.11575	15639.5875
1397.57339	15426.8875
1401.0287	15440.2875
1404.48168	15633.1875
1407.93234	15907.9875
1411.38068	16155.3875
1414.82669	16193.9875
1418.27039	15973.8875
1421.71177	15682.1875
1425.15083	15390.7875
1428.58758	15231.5875
1432.02203	15288.3875
1435.45416	15340.6875
1438.88399	15388.2875
1442.31151	15376.8875
1445.73673	15431.3875
1449.15965	15509.3875
1452.58027	15423.6875
1455.9986	15346.2875
1459.41463	15338.9875
1462.82837	15441.5875
1466.23982	15671.2875
1469.64898	15941.1875
1473.05586	16145.6875
1476.46045	16304.7875
1479.86276	16592.2875
1483.26279	16908.3875
1486.66054	17296.7875
1490.05602	17777.6875
1493.44922	18357.4875
1496.84016	19200.9875
1500.22882	20499.9875
1503.61521	22243.5875
1506.99934	24265.0875
1510.38121	26274.8875
1513.76081	27263.6875
1517.13816	26276.1875
1520.51324	23660.3875
1523.88607	21078.1875
1527.25665	19215.2875
1530.62498	18172.8875
1533.99105	17546.7875
1537.35488	17180.2875
1540.71647	16969.6875
1544.07581	16936.5875
1547.4329	16844.4875
1550.78776	16798.1875
1554.14038	16746.2875
1557.49077	16870.5875
1560.83892	17058.0875
1564.18484	17380.5875
1567.52853	17689.6875
1570.86999	17929.4875
1574.20922	18021.2875
1577.54624	17906.9875
1580.88103	17302.6875
1584.2136	16516.2875
1587.54395	16154.0875
1590.87208	16328.2875
1594.19801	17053.3875
1597.52172	18080.6875
1600.84321	18560.3875
1604.16251	18171.8875
1607.47959	17283.0875
1610.79447	16245.8875
1614.10715	15207.0875
1617.41763	14430.7875
1620.7259	13912.5875
1624.03199	13632.7875
1627.33587	13646.8875
1630.63757	13833.4875
1633.93707	14288.7875
1637.23439	15007.6875
1640.52951	15978.8875
1643.82246	17264.2875
1647.11321	18791.8875
1650.40179	19959.3875
1653.68819	19637.1875
1656.97241	17677.6875
1660.25446	15476.5875
1663.53433	13892.3875
1666.81203	12918.8875
1670.08756	12353.0875
1673.36092	12001.6875
1676.63211	11794.5875
1679.90115	11609.9875
1683.16801	11504.1875
1686.43272	11426.8875
1689.69527	11351.4875
1692.95567	11296.7875
1696.2139	11302.1875
1699.46999	11299.5875
1702.72392	11274.8875
1705.97571	11247.8875
1709.22535	11208.1875
1712.47284	11226.7875
1715.71819	11216.8875
1718.96139	11226.1875
1722.20246	11219.6875
1725.44139	11176.1875
1728.67818	11121.6875
1731.91284	11048.1875
1735.14537	10984.2875
1738.37576	10939.3875
1741.60403	10920.6875
1744.83017	10898.6875
1748.05418	10879.2875
1751.27607	10859.1875
1754.49584	10847.4875
1757.71349	10842.7875
1760.92903	10844.8875
1764.14244	10821.0875
1767.35375	10850.3875
1770.56294	10816.1875
1773.77002	10779.3875
1776.97499	10782.0875
1780.17785	10764.2875
1783.37861	10723.3875
1786.57727	10682.0875
1789.77382	10691.7875
1792.96828	10680.8875
1796.16064	10656.9875
1799.3509	10637.3875
1802.53907	10644.3875
1805.72514	10595.9875
1808.90913	10586.5875
1812.09102	10568.6875
1815.27083	10532.9875
1818.44856	10545.2875
1821.6242	10499.2875
1824.79776	10475.9875
1827.96924	10480.2875
1831.13864	10476.9875
1834.30597	10480.4875
1837.47122	10452.2875
1840.6344	10471.2875
1843.7955	10450.6875
1846.95454	10425.3875
1850.11151	10449.2875
1853.26642	10435.6875
1856.41926	10457.1875
1859.57004	10432.9875
1862.71876	10436.1875
1865.86542	10432.7875
1869.01003	10425.8875
1872.15258	10440.7875
1875.29308	10414.0875
1878.43152	10427.4875
1881.56792	10403.7875
1884.70227	10400.9875
1887.83457	10400.9875
1890.96482	10393.2875
1894.09304	10379.5875
1897.21921	10365.4875
1900.34335	10344.1875
1903.46544	10372.8875
1906.58551	10385.3875
1909.70353	10349.4875
1912.81953	10344.4875
1915.93349	10350.7875
1919.04543	10334.5875
1922.15534	10318.6875
1925.26322	10302.4875
1928.36908	10268.3875
1931.47292	10268.9875
1934.57473	10224.3875
1937.67453	10204.8875
1940.77232	10210.0875
1943.86808	10146.2875
1946.96184	10102.5875
1950.05358	10095.5875
1953.14331	10064.1875
1956.23103	10027.4875
1959.31675	10002.0875
1962.40046	9954.8875
1965.48217	9924.0875
1968.56188	9911.8875
1971.63959	9878.0875
1974.7153	9846.6875
1977.78901	9822.3875
1980.86073	9795.0875
1983.93046	9759.7875
1986.99819	9735.4875
1990.06394	9724.3875
1993.1277	9698.5875
1996.18947	9679.5875
1999.24925	9615.8875
2002.30706	9590.7875
2005.36288	9570.8875
2008.41672	9556.7875
2011.46859	9533.0875
2014.51848	9503.0875
2017.56639	9480.5875
2020.61233	9462.6875
2023.6563	9446.5875
2026.6983	9406.2875
2029.73833	9374.1875
2032.7764	9355.8875
2035.8125	9348.0875
2038.84664	9333.0875
2041.87881	9302.2875
2044.90903	9290.7875
2047.93729	9264.5875
2050.96359	9256.0875
2053.98794	9235.4875
2057.01034	9220.1875
2060.03078	9219.1875
2063.04927	9199.3875
2066.06582	9226.4875
2069.08042	9187.2875
2072.09307	9196.6875
2075.10378	9183.7875
2078.11255	9166.8875
2081.11938	9153.5875
2084.12426	9150.6875
2087.12722	9140.4875
2090.12824	9119.5875
2093.12732	9148.1875
2096.12447	9126.1875
2099.11969	9155.2875
2102.11299	9132.2875
2105.10435	9148.5875
2108.09379	9159.3875
2111.08131	9154.2875
2114.0669	9148.1875
2117.05057	9175.6875
2120.03233	9173.8875
2123.01216	9177.0875
2125.99008	9202.5875
2128.96609	9195.7875
2131.94018	9207.1875
2134.91236	9192.8875
2137.88263	9223.5875
2140.851	9195.8875
2143.81746	9198.9875
2146.78201	9208.5875
2149.74466	9226.7875
2152.7054	9190.2875
2155.66425	9203.0875
2158.6212	9208.7875
2161.57625	9201.4875
2164.52941	9174.1875
2167.48067	9179.4875
2170.43004	9168.9875
2173.37752	9168.9875
2176.32311	9174.5875
2179.26681	9193.7875
2182.20863	9181.5875
2185.14856	9156.1875
2188.08661	9157.4875
2191.02278	9171.2875
2193.95707	9167.7875
2196.88948	9161.2875
2199.82001	9173.0875
2202.74867	9138.1875
2205.67545	9146.3875
2208.60037	9137.9875
2211.52341	9116.0875
2214.44458	9118.7875
2217.36388	9100.1875
2220.28132	9066.8875
2223.1969	9052.5875
2226.11061	9035.4875
2229.02246	9008.4875
2231.93245	8985.3875
2234.84058	8967.6875
2237.74686	8950.1875
2240.65128	8951.9875
2243.55385	8930.2875
2246.45456	8928.9875
2249.35343	8906.9875
2252.25044	8904.9875
2255.14561	8900.8875
2258.03893	8905.5875
2260.93041	8875.3875
2263.82004	8854.8875
2266.70783	8842.3875
2269.59378	8818.3875
2272.4779	8780.8875
2275.36017	8769.0875
2278.24061	8766.9875
2281.11922	8716.1875
2283.996	8725.4875
2286.87094	8688.0875
2289.74405	8690.5875
2292.61534	8689.1875
2295.4848	8675.6875
2298.35243	8661.2875
2301.21824	8638.7875
2304.08223	8662.7875
2306.94439	8653.3875
2309.80474	8638.4875
2312.66327	8635.0875
2315.51999	8643.5875
2318.37489	8645.7875
2321.22797	8627.4875
2324.07925	8602.7875
2326.92871	8568.8875
2329.77637	8580.0875
2332.62222	8571.5875
2335.46626	8536.3875
2338.3085	8549.4875
2341.14893	8540.7875
2343.98756	8542.4875
2346.8244	8531.2875
2349.65943	8537.0875
2352.49267	8536.9875
2355.32411	8546.7875
2358.15376	8542.1875
2360.98161	8553.8875
2363.80768	8550.1875
2366.63195	8543.6875
2369.45444	8541.5875
2372.27514	8493.3875
2375.09405	8509.9875
2377.91118	8495.7875
2380.72652	8446.5875
2383.54009	8399.4875
2386.35187	8373.5875
2389.16188	8342.1875
2391.97011	8343.1875
2394.77657	8324.1875
2397.58125	8312.5875
2400.38416	8306.8875
2403.18529	8269.2875
2405.98466	8247.9875
2408.78226	8221.1875
2411.57809	8232.0875
2414.37216	8226.6875
2417.16446	8227.3875
2419.955	8213.2875
2422.74378	8214.1875
2425.5308	8188.9875
2428.31606	8178.3875
2431.09956	8196.5875
2433.88131	8180.4875
2436.6613	8186.1875
2439.43954	8167.1875
2442.21603	8151.8875
2444.99077	8133.1875
2447.76377	8160.8875
2450.53501	8144.2875
2453.30451	8122.4875
2456.07226	8125.4875
2458.83827	8130.4875
2461.60254	8133.5875
2464.36507	8105.1875
2467.12586	8084.2875
2469.88492	8062.6875
2472.64224	8077.0875
2475.39782	8072.8875
2478.15167	8090.3875
2480.90379	8086.3875
2483.65417	8105.7875
2486.40283	8115.0875
2489.14976	8107.4875
2491.89497	8101.9875
2494.63845	8120.7875
2497.3802	8116.3875
2500.12024	8077.3875
2502.85855	8049.6875
2505.59514	8048.0875
2508.33002	8040.7875
2511.06318	8027.2875
2513.79462	8003.2875
2516.52435	7983.4875
2519.25237	7959.1875
2521.97867	7940.3875
2524.70327	7940.5875
2527.42616	7930.4875
2530.14734	7932.5875
2532.86681	7911.5875
2535.58458	7921.4875
2538.30065	7913.8875
2541.01501	7928.2875
2543.72768	7884.2875
2546.43864	7902.5875
2549.14791	7873.6875
2551.85548	7881.0875
2554.56136	7870.9875
2557.26554	7841.4875
2559.96803	7805.1875
2562.66883	7789.0875
2565.36794	7785.2875
2568.06536	7786.6875
2570.7611	7758.8875
2573.45514	7743.6875
2576.14751	7732.1875
2578.83819	7723.5875
2581.52719	7716.5875
2584.21451	7711.5875
2586.90015	7706.0875
2589.58411	7697.5875
2592.2664	7674.4875
2594.94701	7661.6875
2597.62594	7667.2875
2600.30321	7652.5875
2602.9788	7634.1875
2605.65273	7612.9875
2608.32498	7612.8875
2610.99557	7610.3875
2613.66449	7610.7875
2616.33175	7616.2875
2618.99734	7604.0875
2621.66128	7595.3875
2624.32355	7605.3875
2626.98416	7579.0875
2629.64311	7569.7875
2632.30041	7559.5875
2634.95605	7541.2875
2637.61004	7540.0875
2640.26238	7509.9875
2642.91306	7519.4875
2645.56209	7481.9875
2648.20948	7496.0875
2650.85521	7499.5875
2653.4993	7482.1875
2656.14175	7471.6875
2658.78255	7477.3875
2661.42171	7491.1875
2664.05923	7484.0875
2666.6951	7495.1875
2669.32934	7510.8875
2671.96194	7515.0875
2674.59291	7532.7875
2677.22224	7499.3875
2679.84993	7502.8875
2682.476	7508.2875
2685.10043	7497.3875
2687.72324	7494.6875
2690.34441	7484.1875
2692.96396	7483.3875
2695.58188	7477.9875
2698.19818	7469.8875
2700.81285	7486.6875
2703.4259	7491.6875
2706.03733	7496.4875
2708.64714	7472.7875
2711.25533	7478.3875
2713.86191	7475.4875
2716.46687	7483.9875
2719.07021	7475.2875
2721.67194	7484.3875
2724.27206	7480.0875
2726.87057	7503.9875
2729.46747	7502.0875
2732.06276	7503.4875
2734.65644	7485.0875
2737.24852	7466.8875
2739.83899	7463.8875
2742.42786	7466.8875
2745.01513	7431.8875
2747.60079	7423.5875
2750.18486	7400.3875
2752.76733	7404.9875
2755.3482	7419.3875
2757.92747	7407.5875
2760.50515	7376.4875
2763.08123	7380.4875
2765.65573	7360.6875
2768.22863	7367.8875
2770.79994	7350.3875
2773.36967	7350.4875
2775.9378	7346.5875
2778.50435	7362.6875
2781.06932	7340.8875
2783.6327	7317.2875
2786.1945	7331.0875
2788.75471	7322.5875
2791.31335	7290.5875
2793.87041	7284.1875
2796.42589	7284.8875
2798.97979	7270.0875
2801.53212	7256.8875
2804.08288	7264.4875
2806.63206	7215.8875
2809.17967	7213.2875
2811.72571	7196.4875
2814.27018	7207.2875
2816.81308	7194.0875
2819.35442	7183.5875
2821.89419	7169.4875
2824.43239	7178.3875
2826.96904	7168.6875
2829.50412	7197.5875
2832.03763	7143.9875
2834.56959	7166.3875
2837.1	7152.2875
2839.62884	7189.4875
2842.15613	7176.2875
2844.68186	7214.7875
2847.20604	7237.6875
2849.72867	7269.6875
2852.24974	7272.7875
2854.76927	7259.9875
2857.28724	7242.9875
2859.80367	7227.0875
2862.31855	7210.8875
2864.83189	7199.8875
2867.34368	7169.5875
2869.85393	7166.2875
2872.36264	7169.5875
2874.8698	7165.3875
2877.37543	7156.5875
2879.87952	7137.5875
2882.38207	7160.3875
2884.88308	7141.2875
2887.38256	7141.9875
2889.88051	7155.6875
2892.37692	7120.1875
2894.8718	7133.5875
2897.36515	7142.5875
2899.85698	7139.8875
2902.34727	7158.9875
2904.83604	7144.1875
2907.32328	7169.1875
2909.809	7150.4875
2912.29319	7172.7875
2914.77587	7131.5875
2917.25702	7140.1875
2919.73665	7132.2875
2922.21476	7146.3875
2924.69136	7138.3875
2927.16644	7108.4875
2929.64	7104.8875
2932.11205	7092.9875
2934.58258	7078.8875
2937.05161	7080.9875
2939.51912	7074.7875
2941.98513	7033.2875
2944.44962	7027.1875
2946.91261	6981.3875
2949.37409	6970.6875
2951.83407	6938.9875
2954.29254	6938.6875
2956.74951	6953.1875
2959.20498	6930.7875
2961.65895	6923.2875
2964.11142	6930.6875
2966.56239	6914.9875
2969.01186	6884.8875
2971.45984	6871.7875
2973.90632	6872.3875
2976.35131	6867.2875
2978.7948	6857.4875
2981.23681	6834.5875
2983.67732	6798.1875
2986.11635	6801.3875
2988.55388	6789.3875
2990.98993	6767.3875
2993.4245	6748.9875
2995.85758	6740.0875
2998.28917	6717.2875
3000.71928	6712.1875
3003.14791	6718.1875
3005.57506	6683.3875
3008.00073	6690.2875
3010.42493	6647.0875
3012.84764	6653.1875
3015.26888	6658.6875
3017.68865	6629.1875
3020.10694	6618.3875
3022.52376	6619.0875
3024.9391	6606.1875
3027.35298	6600.9875
3029.76539	6587.5875
3032.17632	6608.7875
3034.5858	6579.8875
3036.9938	6580.9875
3039.40034	6559.6875
3041.80542	6551.7875
3044.20903	6520.3875
3046.61118	6551.8875
3049.01187	6517.1875
3051.4111	6534.0875
3053.80888	6507.4875
3056.20519	6485.6875
3058.60005	6474.2875
3060.99345	6468.8875
3063.3854	6455.4875
3065.7759	6435.6875
3068.16494	6423.2875
3070.55254	6411.9875
