Data from AgNP_FTO_APTES_UA_10uM_CRN_50uM_R6G_10uM_NaF_0.1M_Addition_RamanShift__30__17-17-30-822.txt Node

Date: Thu Feb 10 17:17:30 GMT 2022
User: TCL
Spectrometer: QEP01345
Trigger mode: 4
Integration Time (sec): 7.000000E0
Scans to average: 10
Electric dark correction enabled: true
Nonlinearity correction enabled: false
Boxcar width: 0
XAxis mode: Raman Shifts
Number of Pixels in Spectrum: 1044
>>>>>Begin Spectral Data<<<<<
46.04893	0.225
50.45542	-0.675
54.85868	-2.275
59.25871	0.125
63.6555	46.425
68.04907	49.325
72.43941	51.125
76.82654	52.725
81.21044	57.125
85.59113	54.825
89.96862	62.225
94.34289	65.225
98.71396	64.625
103.08183	67.325
107.4465	69.625
111.80798	64.825
116.16626	68.325
120.52136	71.325
124.87327	71.825
129.222	74.425
133.56755	80.825
137.90993	80.825
142.24913	85.425
146.58517	92.725
150.91804	110.725
155.24774	122.225
159.57429	152.025
163.89768	185.325
168.21792	241.925
172.53501	321.225
176.84895	445.225
181.15975	610.025
185.46741	857.625
189.77193	1181.725
194.07331	1567.225
198.37157	2019.625
202.6667	2499.525
206.9587	2962.225
211.24758	3413.225
215.53334	3908.325
219.81599	4429.125
224.09553	5042.125
228.37195	5711.825
232.64527	6443.525
236.91549	7189.825
241.18261	7898.425
245.44663	8499.125
249.70755	8966.125
253.96539	9406.825
258.22014	9754.725
262.4718	10112.425
266.72039	10388.325
270.96589	10566.825
275.20832	10616.525
279.44768	10584.625
283.68397	10465.925
287.91719	10387.725
292.14735	10423.225
296.37445	10617.325
300.59849	10921.325
304.81948	11242.725
309.03742	11483.225
313.25231	11373.525
317.46415	10861.325
321.67296	10100.725
325.87872	9501.125
330.08145	9222.325
334.28114	9237.825
338.47781	9361.625
342.67145	9642.225
346.86207	10014.925
351.04966	10526.925
355.23424	11108.525
359.4158	11568.725
363.59435	11806.825
367.76989	11851.825
371.94243	11879.625
376.11196	11873.725
380.27849	11819.325
384.44203	11765.325
388.60257	11637.425
392.76012	11582.625
396.91468	11683.125
401.06626	11970.525
405.21485	12189.225
409.36047	12013.525
413.50311	11488.225
417.64277	10957.925
421.77947	10676.625
425.9132	10600.525
430.04396	10589.525
434.17176	10653.025
438.2966	10774.825
442.41849	10990.425
446.53742	11280.325
450.6534	11553.425
454.76644	11732.925
458.87653	11807.525
462.98368	11739.925
467.08789	11571.725
471.18916	11356.525
475.2875	11128.725
479.38291	10956.625
483.4754	10786.025
487.56496	10661.325
491.6516	10528.925
495.73531	10499.825
499.81612	10517.625
503.89401	10628.025
507.96899	10756.525
512.04106	10918.025
516.11023	11091.225
520.1765	11182.825
524.23987	11161.525
528.30034	10961.425
532.35792	10755.625
536.41261	10558.025
540.46441	10377.025
544.51333	10330.625
548.55936	10398.125
552.60252	10624.125
556.64279	10893.925
560.6802	10985.025
564.71473	11085.425
568.7464	11410.425
572.7752	11658.625
576.80114	11414.725
580.82422	11083.225
584.84444	10935.525
588.86181	10875.925
592.87633	10915.725
596.888	11020.325
600.89682	11343.125
604.9028	12516.925
608.90594	15610.625
612.90624	19717.525
616.90371	18960.125
620.89834	13689.325
624.89015	11299.125
628.87913	10826.325
632.86528	10851.425
636.84862	11002.725
640.82913	10857.125
644.80683	10509.425
648.78172	10264.625
652.75379	10294.925
656.72306	10669.025
660.68952	11141.825
664.65319	11053.225
668.61405	10596.625
672.57211	10344.625
676.52738	10357.925
680.47986	10376.125
684.42955	10345.725
688.37646	10307.525
692.32058	10357.725
696.26192	10423.225
700.20048	10563.125
704.13626	10655.625
708.06928	10601.725
711.99952	10530.625
715.927	10514.225
719.85171	10521.425
723.77365	10515.125
727.69284	10424.825
731.60928	10356.725
735.52295	10332.225
739.43388	10365.425
743.34206	10391.525
747.24749	10440.725
751.15017	10522.725
755.05012	10729.325
758.94733	11154.425
762.8418	12151.325
766.73354	13841.825
770.62254	15688.625
774.50882	16654.325
778.39237	15997.025
782.27321	13980.925
786.15132	12132.825
790.02671	11106.325
793.89938	10671.625
797.76935	10495.125
801.6366	10382.925
805.50115	10343.925
809.36299	10295.425
813.22213	10275.325
817.07857	10252.425
820.93231	10249.625
824.78336	10299.425
828.63172	10324.425
832.47738	10361.825
836.32036	10336.625
840.16066	10289.325
843.99827	10265.125
847.8332	10227.825
851.66546	10218.825
855.49504	10218.225
859.32195	10221.725
863.1462	10174.125
866.96777	10147.725
870.78668	10148.125
874.60293	10160.125
878.41652	10197.525
882.22745	10239.525
886.03573	10276.525
889.84136	10232.325
893.64433	10202.225
897.44466	10173.025
901.24235	10172.925
905.0374	10178.025
908.8298	10158.125
912.61957	10151.625
916.40671	10205.325
920.19121	10284.425
923.97308	10309.325
927.75233	10385.925
931.52895	10459.025
935.30295	10376.925
939.07433	10165.025
942.84309	9943.525
946.60924	9822.425
950.37278	9767.825
954.13371	9718.825
957.89203	9686.725
961.64774	9644.925
965.40086	9634.725
969.15137	9610.925
972.89929	9579.925
976.64461	9563.325
980.38733	9576.625
984.12747	9600.025
987.86502	9623.425
991.59999	9666.725
995.33237	9789.525
999.06217	9957.025
1002.78939	10135.125
1006.51404	10313.525
1010.23611	10512.025
1013.95561	10656.125
1017.67255	10653.325
1021.38692	10530.725
1025.09872	10442.825
1028.80796	10371.025
1032.51465	10447.025
1036.21877	10572.225
1039.92035	10641.125
1043.61937	10603.925
1047.31584	10544.925
1051.00976	10517.425
1054.70114	10480.225
1058.38998	10470.925
1062.07627	10545.525
1065.76003	10583.625
1069.44126	10615.425
1073.11995	10705.525
1076.79611	10809.925
1080.46974	10928.625
1084.14085	11113.525
1087.80943	11372.125
1091.47549	11460.525
1095.13903	11322.125
1098.80005	11027.725
1102.45857	10726.025
1106.11456	10625.825
1109.76805	10688.325
1113.41903	10854.725
1117.06751	11133.025
1120.71348	11507.625
1124.35696	11882.525
1127.99793	12199.625
1131.63641	12176.225
1135.2724	11733.225
1138.90589	11275.825
1142.5369	11015.325
1146.16542	10838.625
1149.79145	10747.225
1153.415	10749.625
1157.03607	10831.625
1160.65467	11018.125
1164.27079	11345.225
1167.88443	11807.525
1171.49561	12582.025
1175.10432	13915.125
1178.71056	15620.725
1182.31434	16865.725
1185.91565	17141.625
1189.51451	16748.725
1193.11091	15774.625
1196.70485	14647.325
1200.29634	13845.225
1203.88538	13277.625
1207.47197	12628.525
1211.05612	12050.825
1214.63782	11699.525
1218.21708	11607.425
1221.79391	11623.725
1225.36829	11660.425
1228.94024	11701.225
1232.50976	11742.225
1236.07685	11791.525
1239.6415	11868.925
1243.20374	11958.825
1246.76355	12039.025
1250.32093	12204.725
1253.8759	12454.725
1257.42845	12797.225
1260.97859	13125.925
1264.52631	13397.225
1268.07163	13673.425
1271.61453	13942.825
1275.15503	14151.725
1278.69312	14254.225
1282.22882	14256.425
1285.76211	14451.725
1289.29301	14747.325
1292.82151	15146.825
1296.34761	15517.025
1299.87133	16114.425
1303.39266	17195.225
1306.9116	18861.725
1310.42815	20820.625
1313.94233	21987.825
1317.45412	21694.825
1320.96354	20408.825
1324.47058	18936.425
1327.97525	17737.625
1331.47754	17004.925
1334.97747	16866.925
1338.47502	17095.425
1341.97022	17551.525
1345.46305	18095.725
1348.95352	18847.825
1352.44163	19895.225
1355.92738	21508.625
1359.41078	24191.425
1362.89183	26851.325
1366.37053	26168.625
1369.84688	22418.125
1373.32088	18767.025
1376.79254	16477.325
1380.26186	15330.825
1383.72883	14770.825
1387.19347	14403.525
1390.65578	13960.925
1394.11575	13548.625
1397.57339	13330.825
1401.0287	13338.425
1404.48168	13496.425
1407.93234	13731.925
1411.38068	13979.125
1414.82669	14030.325
1418.27039	13843.325
1421.71177	13573.125
1425.15083	13305.525
1428.58758	13114.725
1432.02203	13138.725
1435.45416	13250.125
1438.88399	13282.425
1442.31151	13272.425
1445.73673	13344.725
1449.15965	13386.925
1452.58027	13357.725
1455.9986	13283.425
1459.41463	13270.725
1462.82837	13370.925
1466.23982	13582.925
1469.64898	13864.625
1473.05586	14042.925
1476.46045	14240.625
1479.86276	14490.725
1483.26279	14797.825
1486.66054	15213.825
1490.05602	15650.025
1493.44922	16249.925
1496.84016	17117.925
1500.22882	18434.225
1503.61521	20263.525
1506.99934	22395.825
1510.38121	24522.525
1513.76081	25519.425
1517.13816	24566.725
1520.51324	21911.125
1523.88607	19222.825
1527.25665	17311.725
1530.62498	16185.325
1533.99105	15515.525
1537.35488	15060.825
1540.71647	14844.625
1544.07581	14718.125
1547.4329	14683.325
1550.78776	14627.925
1554.14038	14579.725
1557.49077	14727.425
1560.83892	14955.725
1564.18484	15303.325
1567.52853	15633.025
1570.86999	15889.225
1574.20922	15997.625
1577.54624	15917.325
1580.88103	15282.225
1584.2136	14436.025
1587.54395	14036.325
1590.87208	14204.125
1594.19801	14840.125
1597.52172	15816.225
1600.84321	16250.525
1604.16251	15791.725
1607.47959	14943.925
1610.79447	14004.325
1614.10715	13072.025
1617.41763	12332.825
1620.7259	11850.225
1624.03199	11629.525
1627.33587	11596.525
1630.63757	11796.025
1633.93707	12255.825
1637.23439	12926.925
1640.52951	13881.925
1643.82246	15188.025
1647.11321	16766.525
1650.40179	18011.125
1653.68819	17750.925
1656.97241	15840.925
1660.25446	13598.825
1663.53433	11988.625
1666.81203	11021.425
1670.08756	10448.225
1673.36092	10115.325
1676.63211	9838.725
1679.90115	9710.025
1683.16801	9610.125
1686.43272	9494.025
1689.69527	9452.625
1692.95567	9406.025
1696.2139	9393.025
1699.46999	9390.525
1702.72392	9394.825
1705.97571	9343.925
1709.22535	9329.625
1712.47284	9296.725
1715.71819	9294.325
1718.96139	9312.325
1722.20246	9284.425
1725.44139	9255.425
1728.67818	9168.625
1731.91284	9128.625
1735.14537	9088.225
1738.37576	9032.125
1741.60403	8993.425
1744.83017	8991.725
1748.05418	8964.925
1751.27607	8947.325
1754.49584	8975.625
1757.71349	8947.625
1760.92903	8954.625
1764.14244	8930.125
1767.35375	8931.625
1770.56294	8901.625
1773.77002	8887.225
1776.97499	8849.425
1780.17785	8818.225
1783.37861	8798.225
1786.57727	8768.525
1789.77382	8757.425
1792.96828	8769.325
1796.16064	8758.525
1799.3509	8739.525
1802.53907	8728.125
1805.72514	8697.125
1808.90913	8642.925
1812.09102	8659.825
1815.27083	8640.425
1818.44856	8629.625
1821.6242	8593.625
1824.79776	8569.825
1827.96924	8596.825
1831.13864	8578.525
1834.30597	8579.425
1837.47122	8570.625
1840.6344	8575.025
1843.7955	8549.325
1846.95454	8542.825
1850.11151	8541.125
1853.26642	8559.125
1856.41926	8562.325
1859.57004	8537.225
1862.71876	8544.525
1865.86542	8530.625
1869.01003	8508.325
1872.15258	8512.625
1875.29308	8539.125
1878.43152	8517.125
1881.56792	8516.225
1884.70227	8504.025
1887.83457	8518.025
1890.96482	8511.325
1894.09304	8486.725
1897.21921	8463.525
1900.34335	8462.325
1903.46544	8470.825
1906.58551	8485.725
1909.70353	8465.025
1912.81953	8461.425
1915.93349	8470.625
1919.04543	8482.925
1922.15534	8434.125
1925.26322	8424.825
1928.36908	8438.025
1931.47292	8400.825
1934.57473	8379.625
1937.67453	8353.825
1940.77232	8372.625
1943.86808	8328.625
1946.96184	8248.625
1950.05358	8230.225
1953.14331	8209.825
1956.23103	8187.125
1959.31675	8154.225
1962.40046	8123.825
1965.48217	8089.725
1968.56188	8089.125
1971.63959	8045.825
1974.7153	8022.525
1977.78901	8009.625
1980.86073	7966.925
1983.93046	7974.925
1986.99819	7949.125
1990.06394	7899.625
1993.1277	7905.925
1996.18947	7867.825
1999.24925	7831.325
2002.30706	7806.925
2005.36288	7813.625
2008.41672	7772.725
2011.46859	7734.225
2014.51848	7746.925
2017.56639	7731.725
2020.61233	7674.925
2023.6563	7676.225
2026.6983	7643.525
2029.73833	7626.025
2032.7764	7608.125
2035.8125	7599.125
2038.84664	7567.025
2041.87881	7566.325
2044.90903	7554.325
2047.93729	7518.525
2050.96359	7500.925
2053.98794	7516.025
2057.01034	7500.125
2060.03078	7504.925
2063.04927	7493.025
2066.06582	7478.325
2069.08042	7474.325
2072.09307	7443.525
2075.10378	7455.225
2078.11255	7452.625
2081.11938	7452.625
2084.12426	7420.725
2087.12722	7416.125
2090.12824	7440.225
2093.12732	7413.225
2096.12447	7419.525
2099.11969	7423.825
2102.11299	7392.825
2105.10435	7414.925
2108.09379	7404.825
2111.08131	7416.225
2114.0669	7415.725
2117.05057	7430.125
2120.03233	7434.125
2123.01216	7448.625
2125.99008	7431.825
2128.96609	7433.925
2131.94018	7454.525
2134.91236	7454.325
2137.88263	7460.725
2140.851	7479.925
2143.81746	7475.725
2146.78201	7464.425
2149.74466	7457.625
2152.7054	7452.825
2155.66425	7449.525
2158.6212	7433.025
2161.57625	7452.825
2164.52941	7439.125
2167.48067	7437.925
2170.43004	7436.825
2173.37752	7414.725
2176.32311	7429.425
2179.26681	7437.325
2182.20863	7416.625
2185.14856	7416.125
2188.08661	7424.425
2191.02278	7415.425
2193.95707	7414.725
2196.88948	7424.725
2199.82001	7412.425
2202.74867	7414.925
2205.67545	7385.625
2208.60037	7395.725
2211.52341	7373.225
2214.44458	7360.425
2217.36388	7347.325
2220.28132	7325.825
2223.1969	7330.725
2226.11061	7311.325
2229.02246	7272.325
2231.93245	7287.725
2234.84058	7245.825
2237.74686	7242.825
2240.65128	7243.025
2243.55385	7211.725
2246.45456	7212.325
2249.35343	7187.425
2252.25044	7209.925
2255.14561	7194.525
2258.03893	7204.525
2260.93041	7190.225
2263.82004	7149.325
2266.70783	7141.925
2269.59378	7131.825
2272.4779	7103.225
2275.36017	7076.525
2278.24061	7076.125
2281.11922	7067.025
2283.996	7048.825
2286.87094	7047.325
2289.74405	7015.925
2292.61534	7013.425
2295.4848	7015.825
2298.35243	6999.025
2301.21824	6968.625
2304.08223	6990.825
2306.94439	6981.425
2309.80474	6980.225
2312.66327	6975.525
2315.51999	6978.925
2318.37489	6967.225
2321.22797	6958.025
2324.07925	6942.925
2326.92871	6935.825
2329.77637	6933.725
2332.62222	6924.525
2335.46626	6921.725
2338.3085	6913.925
2341.14893	6900.225
2343.98756	6907.125
2346.8244	6913.325
2349.65943	6917.025
2352.49267	6894.325
2355.32411	6925.325
2358.15376	6913.625
2360.98161	6936.725
2363.80768	6928.125
2366.63195	6917.525
2369.45444	6928.725
2372.27514	6908.525
2375.09405	6891.425
2377.91118	6871.925
2380.72652	6828.225
2383.54009	6810.425
2386.35187	6783.825
2389.16188	6753.025
2391.97011	6738.425
2394.77657	6749.625
2397.58125	6709.925
2400.38416	6709.325
2403.18529	6700.025
2405.98466	6675.825
2408.78226	6680.825
2411.57809	6649.325
2414.37216	6646.325
2417.16446	6634.325
2419.955	6641.025
2422.74378	6623.425
2425.5308	6618.525
2428.31606	6622.025
2431.09956	6616.925
2433.88131	6611.325
2436.6613	6603.125
2439.43954	6599.525
2442.21603	6588.425
2444.99077	6571.025
2447.76377	6599.125
2450.53501	6582.725
2453.30451	6583.125
2456.07226	6582.425
2458.83827	6601.425
2461.60254	6561.225
2464.36507	6560.525
2467.12586	6557.725
2469.88492	6540.225
2472.64224	6538.925
2475.39782	6551.025
2478.15167	6547.225
2480.90379	6555.125
2483.65417	6555.725
2486.40283	6579.025
2489.14976	6564.125
2491.89497	6589.725
2494.63845	6608.125
2497.3802	6584.025
2500.12024	6565.025
2502.85855	6569.125
2505.59514	6562.925
2508.33002	6523.825
2511.06318	6491.625
2513.79462	6479.525
2516.52435	6459.125
2519.25237	6453.225
2521.97867	6431.725
2524.70327	6423.325
2527.42616	6413.525
2530.14734	6399.625
2532.86681	6402.425
2535.58458	6409.425
2538.30065	6404.525
2541.01501	6396.325
2543.72768	6396.125
2546.43864	6408.225
2549.14791	6380.825
2551.85548	6373.925
2554.56136	6369.725
2557.26554	6359.625
2559.96803	6327.625
2562.66883	6334.325
2565.36794	6313.825
2568.06536	6309.125
2570.7611	6298.125
2573.45514	6268.025
2576.14751	6274.425
2578.83819	6260.125
2581.52719	6268.325
2584.21451	6221.425
2586.90015	6251.625
2589.58411	6232.025
2592.2664	6223.325
2594.94701	6219.425
2597.62594	6211.925
2600.30321	6195.025
2602.9788	6190.025
2605.65273	6179.825
2608.32498	6196.825
2610.99557	6177.925
2613.66449	6165.425
2616.33175	6179.625
2618.99734	6168.625
2621.66128	6161.425
2624.32355	6172.425
2626.98416	6142.125
2629.64311	6134.125
2632.30041	6134.625
2634.95605	6119.625
2637.61004	6107.425
2640.26238	6110.425
2642.91306	6097.225
2645.56209	6107.325
2648.20948	6086.025
2650.85521	6075.025
2653.4993	6076.725
2656.14175	6057.125
2658.78255	6081.425
2661.42171	6076.825
2664.05923	6108.325
2666.6951	6093.725
2669.32934	6100.125
2671.96194	6091.925
2674.59291	6104.225
2677.22224	6108.925
2679.84993	6105.225
2682.476	6109.525
2685.10043	6078.825
2687.72324	6090.625
2690.34441	6080.025
2692.96396	6096.725
2695.58188	6093.125
2698.19818	6078.425
2700.81285	6105.325
2703.4259	6095.625
2706.03733	6101.825
2708.64714	6086.825
2711.25533	6081.525
2713.86191	6086.925
2716.46687	6085.025
2719.07021	6089.825
2721.67194	6119.725
2724.27206	6101.325
2726.87057	6099.225
2729.46747	6113.025
2732.06276	6107.725
2734.65644	6108.425
2737.24852	6092.825
2739.83899	6066.025
2742.42786	6070.925
2745.01513	6064.725
2747.60079	6044.025
2750.18486	6030.325
2752.76733	6033.425
2755.3482	6038.525
2757.92747	6017.525
2760.50515	6008.325
2763.08123	5997.125
2765.65573	5994.825
2768.22863	5998.725
2770.79994	5963.825
2773.36967	5957.425
2775.9378	5976.325
2778.50435	5974.225
2781.06932	5979.825
2783.6327	5966.725
2786.1945	5961.725
2788.75471	5955.625
2791.31335	5944.525
2793.87041	5933.325
2796.42589	5922.525
2798.97979	5911.525
2801.53212	5919.725
2804.08288	5907.925
2806.63206	5899.125
2809.17967	5886.425
2811.72571	5884.725
2814.27018	5866.825
2816.81308	5869.725
2819.35442	5865.025
2821.89419	5865.825
2824.43239	5870.725
2826.96904	5875.725
2829.50412	5861.525
2832.03763	5861.425
2834.56959	5860.025
2837.1	5854.425
2839.62884	5870.825
2842.15613	5896.025
2844.68186	5901.725
2847.20604	5926.925
2849.72867	5963.525
2852.24974	5968.025
2854.76927	5982.425
2857.28724	5935.225
2859.80367	5918.225
2862.31855	5916.325
2864.83189	5900.825
2867.34368	5897.725
2869.85393	5887.625
2872.36264	5885.525
2874.8698	5862.125
2877.37543	5879.425
2879.87952	5855.825
2882.38207	5870.925
2884.88308	5839.625
2887.38256	5860.225
2889.88051	5854.925
2892.37692	5846.825
2894.8718	5851.425
2897.36515	5852.525
2899.85698	5855.425
2902.34727	5843.325
2904.83604	5863.325
2907.32328	5862.625
2909.809	5876.225
2912.29319	5865.025
2914.77587	5864.625
2917.25702	5837.125
2919.73665	5838.925
2922.21476	5858.025
2924.69136	5838.925
2927.16644	5851.925
2929.64	5813.525
2932.11205	5809.425
2934.58258	5795.625
2937.05161	5799.425
2939.51912	5790.125
2941.98513	5752.625
2944.44962	5740.325
2946.91261	5702.925
2949.37409	5701.625
2951.83407	5678.125
2954.29254	5684.225
2956.74951	5686.525
2959.20498	5648.225
2961.65895	5658.425
2964.11142	5649.725
2966.56239	5628.825
2969.01186	5629.625
2971.45984	5623.325
2973.90632	5626.825
2976.35131	5608.725
2978.7948	5593.225
2981.23681	5580.725
2983.67732	5582.525
2986.11635	5554.425
2988.55388	5543.925
2990.98993	5534.125
2993.4245	5513.525
2995.85758	5512.725
2998.28917	5491.225
3000.71928	5485.525
3003.14791	5470.225
3005.57506	5475.825
3008.00073	5457.125
3010.42493	5435.925
3012.84764	5432.625
3015.26888	5432.725
3017.68865	5397.425
3020.10694	5406.925
3022.52376	5418.225
3024.9391	5409.925
3027.35298	5383.825
3029.76539	5374.725
3032.17632	5389.725
3034.5858	5380.425
3036.9938	5369.325
3039.40034	5344.525
3041.80542	5358.325
3044.20903	5326.525
3046.61118	5345.025
3049.01187	5332.725
3051.4111	5338.025
3053.80888	5302.225
3056.20519	5289.625
3058.60005	5273.325
3060.99345	5276.325
3063.3854	5267.425
3065.7759	5273.325
3068.16494	5244.025
3070.55254	5236.025
3072.93868	5238.625
3075.32338	5214.625
3077.70662	5177.525
3080.08842	5193.025
3082.46878	5173.225
3084.84769	5170.425
3087.22515	5156.525
3089.60118	5155.425
3091.97576	5152.025
3094.3489	5156.225
3096.72061	5150.725
3099.09087	5158.225
3101.4597	5146.125
3103.82709	5163.725
3106.19305	5143.325
3108.55757	5136.025
3110.92066	5126.725
3113.28232	5130.525
3115.64255	5110.825
3118.00134	5119.925
3120.35871	5094.325
3122.71466	5095.625
3125.06917	5081.825
3127.42226	5080.625
3129.77393	5080.925
3132.12417	5063.925
3134.47299	5073.725
3136.82039	5080.825
3139.16636	5077.925
3141.51092	5083.025
3143.85406	5082.825
3146.19579	5076.725
3148.53609	5087.625
3150.87499	5095.825
3153.21246	5105.925
3155.54853	5105.625
3157.88318	5114.325
3160.21642	5097.225
3162.54826	5107.825
3164.87868	5109.925
3167.2077	5126.425
3169.5353	5118.525
3171.86151	5126.725
3174.18631	5126.825
3176.5097	5116.025
3178.83169	5115.225
3181.15228	5093.025
3183.47147	5101.925
3185.78926	5110.625
3188.10565	5094.625
3190.42065	5091.425
3192.73424	5073.825
3195.04645	5078.425
