Data from AgNP_FTO_APTES_UA_10uM_CRN_2uM_R6G_10uM_NaF_0.1M_Addition_RamanShift__23__14-23-40-607.txt Node

Date: Thu Feb 10 14:23:40 GMT 2022
User: TCL
Spectrometer: QEP01345
Trigger mode: 4
Integration Time (sec): 7.000000E0
Scans to average: 10
Electric dark correction enabled: true
Nonlinearity correction enabled: false
Boxcar width: 0
XAxis mode: Raman Shifts
Number of Pixels in Spectrum: 1044
>>>>>Begin Spectral Data<<<<<
46.04893	-0.725
50.45542	-0.125
54.85868	-2.425
59.25871	-1.325
63.6555	72.275
68.04907	78.475
72.43941	83.675
76.82654	82.275
81.21044	89.075
85.59113	86.275
89.96862	90.775
94.34289	94.475
98.71396	97.375
103.08183	102.375
107.4465	109.975
111.80798	107.075
116.16626	114.275
120.52136	112.475
124.87327	118.875
129.222	124.475
133.56755	132.275
137.90993	146.375
142.24913	152.675
146.58517	173.675
150.91804	205.075
155.24774	244.675
159.57429	301.575
163.89768	388.375
168.21792	510.575
172.53501	705.275
176.84895	984.575
181.15975	1382.975
185.46741	1935.275
189.77193	2660.775
194.07331	3552.775
198.37157	4574.475
202.6667	5637.275
206.9587	6687.775
211.24758	7742.775
215.53334	8820.375
219.81599	9970.275
224.09553	11230.875
228.37195	12658.375
232.64527	14194.275
236.91549	15825.475
241.18261	17405.275
245.44663	18793.475
249.70755	20051.375
253.96539	21164.675
258.22014	22138.275
262.4718	22945.575
266.72039	23556.975
270.96589	23924.375
275.20832	24010.775
279.44768	23927.575
283.68397	23791.375
287.91719	23576.175
292.14735	23514.175
296.37445	23671.075
300.59849	23871.975
304.81948	24110.375
309.03742	24170.375
313.25231	23798.375
317.46415	23050.575
321.67296	22071.875
325.87872	21274.475
330.08145	20929.675
334.28114	20879.875
338.47781	21075.175
342.67145	21449.275
346.86207	21966.575
351.04966	22640.275
355.23424	23309.675
359.4158	23864.475
363.59435	24218.875
367.76989	24429.475
371.94243	24521.275
376.11196	24582.375
380.27849	24678.475
384.44203	24700.875
388.60257	24733.675
392.76012	24876.775
396.91468	25150.275
401.06626	25659.275
405.21485	25965.375
409.36047	25755.575
413.50311	25110.775
417.64277	24616.575
421.77947	24427.175
425.9132	24519.675
430.04396	24584.375
434.17176	24734.375
438.2966	24955.575
442.41849	25493.675
446.53742	26195.075
450.6534	27065.175
454.76644	27688.275
458.87653	27828.375
462.98368	27712.575
467.08789	27389.675
471.18916	26862.575
475.2875	26458.875
479.38291	26196.975
483.4754	25969.875
487.56496	25573.375
491.6516	25103.675
495.73531	24692.075
499.81612	24489.375
503.89401	24626.275
507.96899	24706.775
512.04106	24676.675
516.11023	24639.075
520.1765	24617.675
524.23987	24525.275
528.30034	24247.775
532.35792	23910.775
536.41261	23555.475
540.46441	23220.675
544.51333	23198.275
548.55936	23486.975
552.60252	24072.575
556.64279	24679.375
560.6802	25041.775
564.71473	25307.975
568.7464	25860.175
572.7752	26430.775
576.80114	26600.675
580.82422	26655.075
584.84444	26827.175
588.86181	27063.875
592.87633	27430.475
596.888	27799.175
600.89682	28095.275
604.9028	29528.975
608.90594	33330.675
612.90624	37747.675
616.90371	35413.475
620.89834	28190.075
624.89015	25189.475
628.87913	24835.375
632.86528	24725.875
636.84862	24532.675
640.82913	23987.175
644.80683	23133.275
648.78172	22589.575
652.75379	22487.675
656.72306	22936.775
660.68952	23517.075
664.65319	23410.875
668.61405	22852.075
672.57211	22542.175
676.52738	22521.975
680.47986	22554.775
684.42955	22383.175
688.37646	22369.075
692.32058	22498.675
696.26192	22709.675
700.20048	23058.575
704.13626	23159.075
708.06928	23120.775
711.99952	22885.375
715.927	22793.875
719.85171	22791.875
723.77365	22686.675
727.69284	22419.975
731.60928	22226.075
735.52295	22189.875
739.43388	22261.975
743.34206	22332.675
747.24749	22486.975
751.15017	22706.875
755.05012	23156.875
758.94733	23999.875
762.8418	25605.575
766.73354	28275.075
770.62254	30831.675
774.50882	31602.475
778.39237	29909.075
782.27321	27067.675
786.15132	24694.675
790.02671	23283.875
793.89938	22669.675
797.76935	22399.875
801.6366	22310.775
805.50115	22203.575
809.36299	22056.275
813.22213	21878.575
817.07857	21823.875
820.93231	21815.775
824.78336	21765.975
828.63172	21771.075
832.47738	21808.075
836.32036	21842.375
840.16066	21934.375
843.99827	22027.175
847.8332	21960.475
851.66546	21815.975
855.49504	21744.475
859.32195	21732.475
863.1462	21591.375
866.96777	21437.175
870.78668	21379.875
874.60293	21355.475
878.41652	21384.175
882.22745	21419.575
886.03573	21489.075
889.84136	21453.175
893.64433	21357.875
897.44466	21278.775
901.24235	21203.075
905.0374	21170.875
908.8298	21103.475
912.61957	21150.175
916.40671	21364.175
920.19121	21725.475
923.97308	22072.875
927.75233	22236.675
931.52895	22232.975
935.30295	21990.775
939.07433	21448.975
942.84309	20992.775
946.60924	20773.375
950.37278	20657.475
954.13371	20562.675
957.89203	20386.475
961.64774	20321.275
965.40086	20272.675
969.15137	20142.775
972.89929	20086.175
976.64461	20071.575
980.38733	20052.875
984.12747	20175.175
987.86502	20410.175
991.59999	20829.675
995.33237	21358.275
999.06217	22281.475
1002.78939	23290.475
1006.51404	23841.775
1010.23611	24038.675
1013.95561	24265.175
1017.67255	24251.275
1021.38692	23924.875
1025.09872	23730.775
1028.80796	24186.675
1032.51465	25249.575
1036.21877	26172.975
1039.92035	26295.975
1043.61937	25684.975
1047.31584	24727.475
1051.00976	23618.575
1054.70114	23112.075
1058.38998	23003.975
1062.07627	22998.775
1065.76003	23049.375
1069.44126	23095.575
1073.11995	23318.475
1076.79611	23578.975
1080.46974	23797.175
1084.14085	24079.475
1087.80943	24411.575
1091.47549	24603.275
1095.13903	24429.475
1098.80005	23933.375
1102.45857	23395.675
1106.11456	23104.075
1109.76805	23114.575
1113.41903	23357.175
1117.06751	23681.475
1120.71348	24085.475
1124.35696	24504.975
1127.99793	24948.075
1131.63641	25043.475
1135.2724	24695.975
1138.90589	24253.475
1142.5369	23944.475
1146.16542	23793.275
1149.79145	23786.475
1153.415	23906.975
1157.03607	24312.575
1160.65467	24900.075
1164.27079	25949.375
1167.88443	27432.775
1171.49561	29506.475
1175.10432	32466.775
1178.71056	36158.175
1182.31434	39477.175
1185.91565	41188.375
1189.51451	41059.775
1193.11091	39400.275
1196.70485	37025.875
1200.29634	34870.175
1203.88538	33193.875
1207.47197	31805.575
1211.05612	30720.875
1214.63782	30063.075
1218.21708	29884.575
1221.79391	29993.775
1225.36829	30138.675
1228.94024	29904.275
1232.50976	29254.375
1236.07685	28795.075
1239.6415	28563.275
1243.20374	28441.075
1246.76355	28595.775
1250.32093	29056.675
1253.8759	29862.575
1257.42845	30894.575
1260.97859	31896.875
1264.52631	32791.775
1268.07163	33866.275
1271.61453	34926.475
1275.15503	36142.775
1278.69312	37341.275
1282.22882	38306.475
1285.76211	39109.675
1289.29301	39900.975
1292.82151	41044.975
1296.34761	42592.575
1299.87133	44909.375
1303.39266	48100.175
1306.9116	52159.875
1310.42815	56393.775
1313.94233	59054.175
1317.45412	59040.375
1320.96354	57104.675
1324.47058	54857.175
1327.97525	52782.175
1331.47754	51380.175
1334.97747	50874.475
1338.47502	51041.875
1341.97022	51490.075
1345.46305	51472.375
1348.95352	50978.775
1352.44163	50739.575
1355.92738	51862.575
1359.41078	54952.975
1362.89183	58017.675
1366.37053	56543.875
1369.84688	50677.475
1373.32088	44341.675
1376.79254	40163.575
1380.26186	38372.775
1383.72883	37753.475
1387.19347	37395.675
1390.65578	37042.975
1394.11575	37111.375
1397.57339	37613.275
1401.0287	38492.475
1404.48168	39426.775
1407.93234	39961.775
1411.38068	39914.375
1414.82669	39073.475
1418.27039	37622.875
1421.71177	35924.575
1425.15083	34603.875
1428.58758	33700.075
1432.02203	33658.675
1435.45416	34133.975
1438.88399	34753.275
1442.31151	35377.675
1445.73673	35979.675
1449.15965	36541.175
1452.58027	36946.075
1455.9986	37139.675
1459.41463	37525.475
1462.82837	38130.775
1466.23982	38930.075
1469.64898	39741.975
1473.05586	40071.975
1476.46045	40090.875
1479.86276	39976.975
1483.26279	39744.575
1486.66054	39756.075
1490.05602	40029.275
1493.44922	40498.275
1496.84016	41059.775
1500.22882	42094.675
1503.61521	43771.475
1506.99934	46126.775
1510.38121	48359.275
1513.76081	49275.375
1517.13816	48024.775
1520.51324	45165.875
1523.88607	42289.275
1527.25665	40258.375
1530.62498	39167.375
1533.99105	38528.375
1537.35488	38163.075
1540.71647	37848.275
1544.07581	37388.775
1547.4329	36899.075
1550.78776	36445.475
1554.14038	36204.375
1557.49077	36135.875
1560.83892	36164.775
1564.18484	36153.275
1567.52853	36218.675
1570.86999	36182.375
1574.20922	36391.275
1577.54624	36650.975
1580.88103	36354.175
1584.2136	36116.875
1587.54395	36843.675
1590.87208	38690.575
1594.19801	41479.375
1597.52172	44572.875
1600.84321	45661.675
1604.16251	43870.175
1607.47959	40362.775
1610.79447	36557.475
1614.10715	33065.775
1617.41763	30271.975
1620.7259	28371.275
1624.03199	27447.675
1627.33587	27467.775
1630.63757	28463.775
1633.93707	30422.475
1637.23439	33275.375
1640.52951	36923.175
1643.82246	40854.775
1647.11321	44039.575
1650.40179	44760.175
1653.68819	42021.175
1656.97241	36473.975
1660.25446	30919.975
1663.53433	26825.975
1666.81203	24279.775
1670.08756	22665.175
1673.36092	21610.875
1676.63211	20966.775
1679.90115	20506.675
1683.16801	20103.675
1686.43272	19914.175
1689.69527	19734.875
1692.95567	19568.775
1696.2139	19512.775
1699.46999	19384.975
1702.72392	19342.575
1705.97571	19280.675
1709.22535	19230.675
1712.47284	19174.475
1715.71819	19164.975
1718.96139	19133.475
1722.20246	19072.975
1725.44139	18960.775
1728.67818	18850.675
1731.91284	18725.675
1735.14537	18615.075
1738.37576	18527.375
1741.60403	18461.875
1744.83017	18406.675
1748.05418	18360.875
1751.27607	18330.975
1754.49584	18296.175
1757.71349	18262.975
1760.92903	18266.775
1764.14244	18280.175
1767.35375	18226.475
1770.56294	18182.675
1773.77002	18184.075
1776.97499	18151.975
1780.17785	18105.875
1783.37861	18074.375
1786.57727	17989.875
1789.77382	18014.175
1792.96828	17964.775
1796.16064	17930.475
1799.3509	17930.675
1802.53907	17926.275
1805.72514	17832.575
1808.90913	17787.075
1812.09102	17778.475
1815.27083	17731.275
1818.44856	17688.475
1821.6242	17663.275
1824.79776	17652.375
1827.96924	17618.275
1831.13864	17631.975
1834.30597	17632.675
1837.47122	17608.275
1840.6344	17619.275
1843.7955	17613.675
1846.95454	17616.175
1850.11151	17607.175
1853.26642	17607.975
1856.41926	17632.175
1859.57004	17678.775
1862.71876	17624.175
1865.86542	17619.975
1869.01003	17623.575
1872.15258	17602.875
1875.29308	17633.475
1878.43152	17635.275
1881.56792	17630.975
1884.70227	17666.575
1887.83457	17634.375
1890.96482	17651.775
1894.09304	17638.075
1897.21921	17611.275
1900.34335	17600.375
1903.46544	17612.075
1906.58551	17582.775
1909.70353	17602.775
1912.81953	17595.275
1915.93349	17571.675
1919.04543	17542.275
1922.15534	17530.775
1925.26322	17470.575
1928.36908	17405.775
1931.47292	17396.175
1934.57473	17339.475
1937.67453	17254.275
1940.77232	17186.675
1943.86808	17116.375
1946.96184	17027.175
1950.05358	16968.375
1953.14331	16899.775
1956.23103	16835.575
1959.31675	16782.475
1962.40046	16742.775
1965.48217	16700.075
1968.56188	16646.975
1971.63959	16594.475
1974.7153	16584.875
1977.78901	16528.775
1980.86073	16445.275
1983.93046	16385.075
1986.99819	16337.775
1990.06394	16288.075
1993.1277	16250.875
1996.18947	16183.575
1999.24925	16133.675
2002.30706	16105.275
2005.36288	16050.475
2008.41672	16001.275
2011.46859	15957.875
2014.51848	15905.675
2017.56639	15903.275
2020.61233	15836.675
2023.6563	15811.575
2026.6983	15777.575
2029.73833	15780.975
2032.7764	15744.475
2035.8125	15715.075
2038.84664	15679.575
2041.87881	15660.375
2044.90903	15655.375
2047.93729	15612.875
2050.96359	15629.775
2053.98794	15582.175
2057.01034	15561.175
2060.03078	15584.175
2063.04927	15559.975
2066.06582	15544.975
2069.08042	15520.075
2072.09307	15515.275
2075.10378	15502.675
2078.11255	15466.575
2081.11938	15456.275
2084.12426	15422.075
2087.12722	15424.775
2090.12824	15375.175
2093.12732	15384.875
2096.12447	15390.975
2099.11969	15358.575
2102.11299	15389.775
2105.10435	15411.275
2108.09379	15396.275
2111.08131	15407.575
2114.0669	15411.175
2117.05057	15422.575
2120.03233	15434.175
2123.01216	15441.075
2125.99008	15457.275
2128.96609	15450.975
2131.94018	15443.275
2134.91236	15479.575
2137.88263	15508.475
2140.851	15497.175
2143.81746	15516.275
2146.78201	15534.175
2149.74466	15514.475
2152.7054	15507.975
2155.66425	15506.975
2158.6212	15482.475
2161.57625	15509.175
2164.52941	15486.275
2167.48067	15470.275
2170.43004	15444.275
2173.37752	15453.575
2176.32311	15455.675
2179.26681	15466.975
2182.20863	15451.775
2185.14856	15489.275
2188.08661	15469.575
2191.02278	15505.475
2193.95707	15509.675
2196.88948	15508.875
2199.82001	15506.975
2202.74867	15482.375
2205.67545	15462.175
2208.60037	15480.175
2211.52341	15473.575
2214.44458	15473.075
2217.36388	15484.575
2220.28132	15394.375
2223.1969	15389.075
2226.11061	15403.475
2229.02246	15350.475
2231.93245	15322.075
2234.84058	15280.775
2237.74686	15252.575
2240.65128	15235.375
2243.55385	15225.075
2246.45456	15177.475
2249.35343	15168.475
2252.25044	15173.975
2255.14561	15136.575
2258.03893	15133.275
2260.93041	15076.775
2263.82004	15039.475
2266.70783	15012.375
2269.59378	14939.375
2272.4779	14921.475
2275.36017	14838.975
2278.24061	14837.875
2281.11922	14829.175
2283.996	14815.175
2286.87094	14813.775
2289.74405	14822.175
2292.61534	14799.875
2295.4848	14801.075
2298.35243	14806.475
2301.21824	14823.775
2304.08223	14835.175
2306.94439	14820.175
2309.80474	14846.975
2312.66327	14891.875
2315.51999	14883.975
2318.37489	14877.575
2321.22797	14891.175
2324.07925	14835.875
2326.92871	14822.575
2329.77637	14818.575
2332.62222	14848.475
2335.46626	14830.575
2338.3085	14817.175
2341.14893	14872.675
2343.98756	14894.875
2346.8244	14919.675
2349.65943	14916.075
2352.49267	14866.475
2355.32411	14890.875
2358.15376	14881.975
2360.98161	14912.175
2363.80768	14882.075
2366.63195	14844.975
2369.45444	14764.475
2372.27514	14768.275
2375.09405	14739.475
2377.91118	14683.975
2380.72652	14610.375
2383.54009	14589.575
2386.35187	14583.975
2389.16188	14507.475
2391.97011	14515.975
2394.77657	14504.375
2397.58125	14473.375
2400.38416	14469.975
2403.18529	14412.375
2405.98466	14406.775
2408.78226	14375.875
2411.57809	14328.475
2414.37216	14299.975
2417.16446	14293.475
2419.955	14251.575
2422.74378	14232.875
2425.5308	14213.075
2428.31606	14210.375
2431.09956	14229.875
2433.88131	14189.275
2436.6613	14235.575
2439.43954	14220.675
2442.21603	14224.375
2444.99077	14221.375
2447.76377	14191.275
2450.53501	14160.675
2453.30451	14176.475
2456.07226	14185.775
2458.83827	14191.675
2461.60254	14187.375
2464.36507	14192.475
2467.12586	14168.475
2469.88492	14181.375
2472.64224	14212.275
2475.39782	14198.675
2478.15167	14244.175
2480.90379	14267.975
2483.65417	14305.475
2486.40283	14318.675
2489.14976	14322.875
2491.89497	14338.175
2494.63845	14334.875
2497.3802	14373.575
2500.12024	14350.175
2502.85855	14313.575
2505.59514	14286.275
2508.33002	14277.575
2511.06318	14275.275
2513.79462	14236.875
2516.52435	14226.975
2519.25237	14210.475
2521.97867	14152.475
2524.70327	14173.775
2527.42616	14176.575
2530.14734	14178.175
2532.86681	14170.575
2535.58458	14156.575
2538.30065	14140.875
2541.01501	14166.175
2543.72768	14147.975
2546.43864	14147.775
2549.14791	14139.375
2551.85548	14149.675
2554.56136	14128.375
2557.26554	14110.775
2559.96803	14091.875
2562.66883	14058.775
2565.36794	14046.275
2568.06536	14033.875
2570.7611	14044.575
2573.45514	14020.175
2576.14751	14035.375
2578.83819	14020.375
2581.52719	14022.675
2584.21451	14060.575
2586.90015	14046.075
2589.58411	14053.575
2592.2664	14063.175
2594.94701	14062.775
2597.62594	14040.975
2600.30321	14016.275
2602.9788	14043.775
2605.65273	14045.675
2608.32498	14039.275
2610.99557	14047.875
2613.66449	14030.275
2616.33175	14043.975
2618.99734	14081.375
2621.66128	14070.275
2624.32355	14082.575
2626.98416	14101.875
2629.64311	14088.575
2632.30041	14107.475
2634.95605	14096.075
2637.61004	14077.175
2640.26238	14011.375
2642.91306	14012.275
2645.56209	14009.375
2648.20948	13990.175
2650.85521	13971.875
2653.4993	13986.375
2656.14175	13980.075
2658.78255	13961.975
2661.42171	13993.475
2664.05923	14025.575
2666.6951	14012.075
2669.32934	14063.875
2671.96194	14042.175
2674.59291	14038.375
2677.22224	14041.175
2679.84993	14055.375
2682.476	14055.175
2685.10043	14047.175
2687.72324	13972.875
2690.34441	13968.675
2692.96396	13956.375
2695.58188	13971.675
2698.19818	13949.375
2700.81285	13962.075
2703.4259	13952.975
2706.03733	13956.675
2708.64714	13925.775
2711.25533	13968.375
2713.86191	13974.075
2716.46687	13988.475
2719.07021	13973.775
2721.67194	14020.175
2724.27206	14015.775
2726.87057	14038.275
2729.46747	13994.775
2732.06276	14048.775
2734.65644	14015.375
2737.24852	14024.875
2739.83899	14023.775
2742.42786	14008.475
2745.01513	13982.575
2747.60079	14007.375
2750.18486	13987.275
2752.76733	13959.875
2755.3482	13970.975
2757.92747	13980.975
2760.50515	13973.375
2763.08123	13934.575
2765.65573	13942.575
2768.22863	13950.875
2770.79994	13958.675
2773.36967	13946.075
2775.9378	13959.575
2778.50435	13974.875
2781.06932	13970.875
2783.6327	13975.075
2786.1945	13960.575
2788.75471	13968.075
2791.31335	13943.175
2793.87041	13920.475
2796.42589	13907.575
2798.97979	13897.075
2801.53212	13868.975
2804.08288	13866.075
2806.63206	13839.075
2809.17967	13814.775
2811.72571	13807.075
2814.27018	13798.675
2816.81308	13753.075
2819.35442	13747.675
2821.89419	13738.975
2824.43239	13727.875
2826.96904	13742.375
2829.50412	13747.275
2832.03763	13695.275
2834.56959	13706.275
2837.1	13699.875
2839.62884	13713.075
2842.15613	13727.475
2844.68186	13743.175
2847.20604	13733.075
2849.72867	13754.775
2852.24974	13743.775
2854.76927	13707.175
2857.28724	13652.075
2859.80367	13635.675
2862.31855	13623.875
2864.83189	13627.375
2867.34368	13612.275
2869.85393	13625.975
2872.36264	13644.175
2874.8698	13642.375
2877.37543	13623.375
2879.87952	13628.175
2882.38207	13636.275
2884.88308	13633.175
2887.38256	13668.075
2889.88051	13622.175
2892.37692	13620.175
2894.8718	13641.475
2897.36515	13677.075
2899.85698	13687.275
2902.34727	13711.775
2904.83604	13727.275
2907.32328	13799.875
2909.809	13786.575
2912.29319	13764.475
2914.77587	13734.175
2917.25702	13734.775
2919.73665	13721.375
2922.21476	13738.575
2924.69136	13681.775
2927.16644	13651.075
2929.64	13647.375
2932.11205	13641.175
2934.58258	13595.675
2937.05161	13621.075
2939.51912	13590.475
2941.98513	13581.375
2944.44962	13559.975
2946.91261	13522.075
2949.37409	13563.675
2951.83407	13523.575
2954.29254	13500.575
2956.74951	13493.475
2959.20498	13473.775
2961.65895	13472.075
2964.11142	13466.375
2966.56239	13459.375
2969.01186	13442.875
2971.45984	13417.875
2973.90632	13404.575
2976.35131	13352.475
2978.7948	13306.975
2981.23681	13259.075
2983.67732	13263.075
2986.11635	13213.575
2988.55388	13169.275
2990.98993	13160.775
2993.4245	13146.975
2995.85758	13111.375
2998.28917	13064.475
3000.71928	13066.375
3003.14791	13013.675
3005.57506	13029.275
3008.00073	12992.175
3010.42493	12827.175
3012.84764	12919.575
3015.26888	12912.275
3017.68865	12877.975
3020.10694	12860.175
3022.52376	12801.175
3024.9391	12805.075
3027.35298	12786.575
3029.76539	12802.675
3032.17632	12813.275
3034.5858	12789.875
3036.9938	12768.375
3039.40034	12766.775
3041.80542	12779.075
3044.20903	12731.675
3046.61118	12749.075
3049.01187	12686.975
3051.4111	12689.775
3053.80888	12657.275
3056.20519	12639.375
3058.60005	12611.075
3060.99345	12608.875
3063.3854	12549.575
3065.7759	12494.175
3068.16494	12462.675
3070.55254	12433.875
3072.93868	12428.475
3075.32338	12366.275
3077.70662	12345.575
3080.08842	12332.975
3082.46878	12292.775
3084.84769	12278.575
3087.22515	12289.275
3089.60118	12251.475
3091.97576	12253.375
3094.3489	12280.475
3096.72061	12284.775
3099.09087	12259.975
3101.4597	12227.575
3103.82709	12243.275
3106.19305	12207.975
3108.55757	12235.775
3110.92066	12192.575
3113.28232	12168.775
3115.64255	12127.475
3118.00134	12112.375
3120.35871	12102.975
3122.71466	12083.775
3125.06917	12033.475
3127.42226	12033.075
