Data from AgNP_FTO_APTES_UA_10uM_CRN_500uM_R6G_10uM_NaF_0.1M_Addition_RamanShift__12__18-54-20-942.txt Node

Date: Thu Feb 10 18:54:20 GMT 2022
User: TCL
Spectrometer: QEP01345
Trigger mode: 4
Integration Time (sec): 7.000000E0
Scans to average: 10
Electric dark correction enabled: true
Nonlinearity correction enabled: false
Boxcar width: 0
XAxis mode: Raman Shifts
Number of Pixels in Spectrum: 1044
>>>>>Begin Spectral Data<<<<<
46.04893	0.6375
50.45542	-0.3625
54.85868	-0.6625
59.25871	-1.1625
63.6555	51.2375
68.04907	52.5375
72.43941	58.5375
76.82654	56.5375
81.21044	61.6375
85.59113	62.6375
89.96862	65.3375
94.34289	67.7375
98.71396	65.8375
103.08183	74.0375
107.4465	71.8375
111.80798	73.0375
116.16626	73.3375
120.52136	80.7375
124.87327	79.9375
129.222	82.2375
133.56755	87.3375
137.90993	94.0375
142.24913	99.2375
146.58517	111.7375
150.91804	127.8375
155.24774	149.7375
159.57429	182.6375
163.89768	228.7375
168.21792	302.2375
172.53501	410.8375
176.84895	570.6375
181.15975	805.2375
185.46741	1123.8375
189.77193	1574.5375
194.07331	2085.8375
198.37157	2706.1375
202.6667	3355.9375
206.9587	4002.7375
211.24758	4611.7375
215.53334	5232.3375
219.81599	5889.7375
224.09553	6554.5375
228.37195	7328.4375
232.64527	8201.7375
236.91549	9102.4375
241.18261	10036.0375
245.44663	10960.0375
249.70755	11769.4375
253.96539	12505.7375
258.22014	13138.6375
262.4718	13629.4375
266.72039	13971.8375
270.96589	14186.9375
275.20832	14214.8375
279.44768	14181.3375
283.68397	14061.8375
287.91719	13956.6375
292.14735	13845.6375
296.37445	13830.3375
300.59849	13830.8375
304.81948	13809.9375
309.03742	13767.9375
313.25231	13619.8375
317.46415	13455.2375
321.67296	13215.6375
325.87872	13027.7375
330.08145	12930.2375
334.28114	12935.7375
338.47781	13019.2375
342.67145	13154.6375
346.86207	13317.0375
351.04966	13475.8375
355.23424	13631.8375
359.4158	13781.7375
363.59435	13911.8375
367.76989	14001.8375
371.94243	14113.2375
376.11196	14208.0375
380.27849	14278.2375
384.44203	14322.7375
388.60257	14438.3375
392.76012	14569.2375
396.91468	14739.6375
401.06626	14891.9375
405.21485	15044.8375
409.36047	15018.9375
413.50311	14923.3375
417.64277	14867.4375
421.77947	14882.3375
425.9132	14952.3375
430.04396	15067.4375
434.17176	15192.4375
438.2966	15243.3375
442.41849	15423.3375
446.53742	15617.1375
450.6534	15872.8375
454.76644	16017.9375
458.87653	16180.4375
462.98368	16207.7375
467.08789	16159.6375
471.18916	16152.8375
475.2875	16050.6375
479.38291	16002.2375
483.4754	15954.8375
487.56496	15868.2375
491.6516	15709.9375
495.73531	15574.7375
499.81612	15447.4375
503.89401	15443.0375
507.96899	15515.8375
512.04106	15541.2375
516.11023	15526.5375
520.1765	15483.2375
524.23987	15356.1375
528.30034	15283.2375
532.35792	15209.7375
536.41261	15158.6375
540.46441	15084.6375
544.51333	15143.4375
548.55936	15215.0375
552.60252	15437.8375
556.64279	15694.1375
560.6802	15841.6375
564.71473	15946.3375
568.7464	16123.1375
572.7752	16402.9375
576.80114	16770.7375
580.82422	17091.7375
584.84444	17299.8375
588.86181	17471.2375
592.87633	17648.2375
596.888	17569.0375
600.89682	17324.3375
604.9028	17304.4375
608.90594	17828.3375
612.90624	18531.0375
616.90371	17875.9375
620.89834	16250.1375
624.89015	15526.8375
628.87913	15472.7375
632.86528	15566.1375
636.84862	15675.6375
640.82913	15578.5375
644.80683	15349.1375
648.78172	15208.7375
652.75379	15144.0375
656.72306	15227.8375
660.68952	15378.6375
664.65319	15346.2375
668.61405	15245.9375
672.57211	15204.8375
676.52738	15256.2375
680.47986	15299.4375
684.42955	15265.2375
688.37646	15251.6375
692.32058	15262.6375
696.26192	15356.3375
700.20048	15471.2375
704.13626	15569.9375
708.06928	15594.9375
711.99952	15626.2375
715.927	15572.7375
719.85171	15515.9375
723.77365	15456.5375
727.69284	15348.7375
731.60928	15246.8375
735.52295	15171.2375
739.43388	15158.0375
743.34206	15152.6375
747.24749	15241.3375
751.15017	15285.8375
755.05012	15465.1375
758.94733	15716.7375
762.8418	16160.6375
766.73354	16812.9375
770.62254	17454.7375
774.50882	17589.7375
778.39237	17153.7375
782.27321	16421.6375
786.15132	15857.2375
790.02671	15463.8375
793.89938	15255.3375
797.76935	15143.1375
801.6366	15094.2375
805.50115	15053.3375
809.36299	14982.1375
813.22213	14940.2375
817.07857	14954.3375
820.93231	14978.5375
824.78336	14931.0375
828.63172	14907.0375
832.47738	14881.3375
836.32036	14812.3375
840.16066	14847.2375
843.99827	14837.3375
847.8332	14840.8375
851.66546	14880.9375
855.49504	14910.9375
859.32195	14876.5375
863.1462	14899.2375
866.96777	14866.3375
870.78668	14863.3375
874.60293	14871.3375
878.41652	14879.9375
882.22745	14893.4375
886.03573	14914.9375
889.84136	14898.0375
893.64433	14924.9375
897.44466	14890.7375
901.24235	14862.4375
905.0374	14833.9375
908.8298	14824.5375
912.61957	14796.1375
916.40671	14907.3375
920.19121	15033.4375
923.97308	15102.9375
927.75233	15044.7375
931.52895	14938.4375
935.30295	14799.3375
939.07433	14639.6375
942.84309	14538.8375
946.60924	14434.5375
950.37278	14359.2375
954.13371	14330.3375
957.89203	14323.2375
961.64774	14299.7375
965.40086	14282.0375
969.15137	14289.7375
972.89929	14237.7375
976.64461	14186.6375
980.38733	14166.1375
984.12747	14157.3375
987.86502	14169.4375
991.59999	14198.4375
995.33237	14218.8375
999.06217	14323.4375
1002.78939	14415.4375
1006.51404	14527.9375
1010.23611	14660.9375
1013.95561	14781.2375
1017.67255	14786.4375
1021.38692	14767.1375
1025.09872	14699.3375
1028.80796	14571.8375
1032.51465	14516.9375
1036.21877	14506.4375
1039.92035	14525.9375
1043.61937	14588.9375
1047.31584	14612.4375
1051.00976	14669.4375
1054.70114	14751.5375
1058.38998	14822.4375
1062.07627	14928.4375
1065.76003	15044.1375
1069.44126	15101.3375
1073.11995	15247.6375
1076.79611	15360.4375
1080.46974	15405.0375
1084.14085	15408.9375
1087.80943	15478.0375
1091.47549	15587.0375
1095.13903	15653.1375
1098.80005	15568.4375
1102.45857	15390.1375
1106.11456	15221.8375
1109.76805	15096.6375
1113.41903	15045.0375
1117.06751	15078.8375
1120.71348	15160.1375
1124.35696	15276.5375
1127.99793	15412.8375
1131.63641	15514.2375
1135.2724	15431.2375
1138.90589	15358.7375
1142.5369	15349.3375
1146.16542	15372.9375
1149.79145	15440.0375
1153.415	15530.2375
1157.03607	15623.7375
1160.65467	15878.9375
1164.27079	16232.8375
1167.88443	16655.9375
1171.49561	17191.4375
1175.10432	17767.6375
1178.71056	18506.5375
1182.31434	19251.1375
1185.91565	19828.9375
1189.51451	20096.3375
1193.11091	20064.1375
1196.70485	19775.2375
1200.29634	19334.0375
1203.88538	18885.5375
1207.47197	18576.5375
1211.05612	18306.2375
1214.63782	18036.4375
1218.21708	17717.8375
1221.79391	17380.5375
1225.36829	17054.7375
1228.94024	16858.2375
1232.50976	16725.3375
1236.07685	16658.8375
1239.6415	16629.3375
1243.20374	16689.5375
1246.76355	16752.1375
1250.32093	16858.6375
1253.8759	16996.8375
1257.42845	17258.9375
1260.97859	17547.9375
1264.52631	17836.4375
1268.07163	18155.8375
1271.61453	18383.4375
1275.15503	18631.0375
1278.69312	18951.9375
1282.22882	19242.2375
1285.76211	19551.8375
1289.29301	19996.4375
1292.82151	20532.0375
1296.34761	21240.1375
1299.87133	21956.6375
1303.39266	22728.9375
1306.9116	23339.3375
1310.42815	23838.7375
1313.94233	24133.3375
1317.45412	24067.7375
1320.96354	23902.8375
1324.47058	23724.6375
1327.97525	23636.6375
1331.47754	23573.2375
1334.97747	23628.7375
1338.47502	23703.3375
1341.97022	23916.8375
1345.46305	24108.7375
1348.95352	24199.7375
1352.44163	24181.7375
1355.92738	24118.2375
1359.41078	24195.0375
1362.89183	24255.1375
1366.37053	23827.2375
1369.84688	22581.1375
1373.32088	21068.0375
1376.79254	20028.1375
1380.26186	19550.6375
1383.72883	19435.4375
1387.19347	19427.0375
1390.65578	19341.5375
1394.11575	19307.0375
1397.57339	19274.2375
1401.0287	19343.3375
1404.48168	19346.6375
1407.93234	19187.3375
1411.38068	18866.2375
1414.82669	18437.6375
1418.27039	17913.5375
1421.71177	17472.9375
1425.15083	17046.1375
1428.58758	16816.5375
1432.02203	16814.4375
1435.45416	16956.2375
1438.88399	17208.9375
1442.31151	17336.2375
1445.73673	17525.1375
1449.15965	17668.1375
1452.58027	17827.6375
1455.9986	17950.3375
1459.41463	18088.7375
1462.82837	18258.9375
1466.23982	18396.3375
1469.64898	18600.8375
1473.05586	18714.7375
1476.46045	18760.2375
1479.86276	18658.1375
1483.26279	18627.1375
1486.66054	18614.4375
1490.05602	18714.1375
1493.44922	18897.9375
1496.84016	19210.6375
1500.22882	19708.3375
1503.61521	20284.0375
1506.99934	20875.9375
1510.38121	21311.3375
1513.76081	21425.5375
1517.13816	21154.6375
1520.51324	20764.8375
1523.88607	20443.7375
1527.25665	20276.8375
1530.62498	20255.6375
1533.99105	20134.0375
1537.35488	19947.1375
1540.71647	19658.1375
1544.07581	19310.9375
1547.4329	18901.3375
1550.78776	18574.4375
1554.14038	18253.0375
1557.49077	18147.2375
1560.83892	18065.9375
1564.18484	18035.8375
1567.52853	18069.3375
1570.86999	18150.4375
1574.20922	18356.9375
1577.54624	18556.0375
1580.88103	18529.1375
1584.2136	18468.9375
1587.54395	18578.0375
1590.87208	18896.9375
1594.19801	19393.2375
1597.52172	19886.6375
1600.84321	20079.0375
1604.16251	19754.7375
1607.47959	19020.4375
1610.79447	18171.8375
1614.10715	17288.9375
1617.41763	16462.1375
1620.7259	15830.9375
1624.03199	15375.5375
1627.33587	15239.3375
1630.63757	15334.2375
1633.93707	15763.8375
1637.23439	16500.8375
1640.52951	17659.2375
1643.82246	19116.8375
1647.11321	20449.9375
1650.40179	21064.9375
1653.68819	20536.6375
1656.97241	19125.0375
1660.25446	17400.7375
1663.53433	15951.7375
1666.81203	14869.0375
1670.08756	14103.1375
1673.36092	13615.3375
1676.63211	13315.1375
1679.90115	13074.4375
1683.16801	12907.2375
1686.43272	12812.6375
1689.69527	12708.1375
1692.95567	12633.9375
1696.2139	12587.9375
1699.46999	12572.8375
1702.72392	12524.6375
1705.97571	12469.5375
1709.22535	12419.9375
1712.47284	12414.4375
1715.71819	12388.8375
1718.96139	12349.4375
1722.20246	12318.6375
1725.44139	12253.9375
1728.67818	12222.4375
1731.91284	12184.8375
1735.14537	12089.2375
1738.37576	12034.9375
1741.60403	11977.1375
1744.83017	11954.7375
1748.05418	11991.5375
1751.27607	11964.2375
1754.49584	11930.7375
1757.71349	11941.2375
1760.92903	11919.5375
1764.14244	11918.9375
1767.35375	11897.3375
1770.56294	11862.0375
1773.77002	11840.6375
1776.97499	11810.3375
1780.17785	11750.5375
1783.37861	11726.5375
1786.57727	11686.3375
1789.77382	11674.6375
1792.96828	11650.0375
1796.16064	11637.1375
1799.3509	11606.2375
1802.53907	11587.1375
1805.72514	11538.1375
1808.90913	11521.7375
1812.09102	11493.1375
1815.27083	11440.9375
1818.44856	11401.5375
1821.6242	11417.5375
1824.79776	11400.5375
1827.96924	11370.2375
1831.13864	11359.7375
1834.30597	11339.0375
1837.47122	11322.1375
1840.6344	11312.8375
1843.7955	11328.8375
1846.95454	11306.2375
1850.11151	11310.2375
1853.26642	11273.1375
1856.41926	11270.5375
1859.57004	11238.9375
1862.71876	11212.8375
1865.86542	11225.2375
1869.01003	11178.3375
1872.15258	11192.3375
1875.29308	11160.3375
1878.43152	11169.3375
1881.56792	11144.0375
1884.70227	11082.2375
1887.83457	11078.3375
1890.96482	11063.2375
1894.09304	11041.9375
1897.21921	11032.8375
1900.34335	11025.3375
1903.46544	11021.7375
1906.58551	10995.4375
1909.70353	10950.0375
1912.81953	10941.9375
1915.93349	10912.6375
1919.04543	10903.9375
1922.15534	10878.7375
1925.26322	10866.5375
1928.36908	10833.4375
1931.47292	10842.9375
1934.57473	10784.7375
1937.67453	10776.7375
1940.77232	10729.5375
1943.86808	10695.4375
1946.96184	10663.6375
1950.05358	10645.4375
1953.14331	10593.6375
1956.23103	10581.1375
1959.31675	10531.0375
1962.40046	10543.6375
1965.48217	10455.7375
1968.56188	10436.5375
1971.63959	10421.8375
1974.7153	10379.9375
1977.78901	10324.9375
1980.86073	10280.5375
1983.93046	10278.3375
1986.99819	10241.8375
1990.06394	10209.5375
1993.1277	10185.1375
1996.18947	10131.2375
1999.24925	10113.1375
2002.30706	10067.6375
2005.36288	10039.8375
2008.41672	10018.5375
2011.46859	9976.3375
2014.51848	9945.2375
2017.56639	9903.6375
2020.61233	9898.2375
2023.6563	9845.5375
2026.6983	9821.9375
2029.73833	9784.1375
2032.7764	9811.5375
2035.8125	9769.8375
2038.84664	9727.8375
2041.87881	9691.4375
2044.90903	9628.5375
2047.93729	9656.5375
2050.96359	9652.6375
2053.98794	9622.0375
2057.01034	9596.7375
2060.03078	9583.1375
2063.04927	9599.7375
2066.06582	9577.0375
2069.08042	9578.1375
2072.09307	9562.5375
2075.10378	9575.6375
2078.11255	9547.7375
2081.11938	9541.4375
2084.12426	9530.8375
2087.12722	9534.2375
2090.12824	9508.1375
2093.12732	9522.6375
2096.12447	9485.1375
2099.11969	9464.7375
2102.11299	9468.6375
2105.10435	9491.9375
2108.09379	9478.0375
2111.08131	9497.8375
2114.0669	9489.2375
2117.05057	9475.1375
2120.03233	9495.2375
2123.01216	9503.8375
2125.99008	9489.3375
2128.96609	9498.8375
2131.94018	9511.4375
2134.91236	9518.0375
2137.88263	9501.7375
2140.851	9509.8375
2143.81746	9503.5375
2146.78201	9519.2375
2149.74466	9501.8375
2152.7054	9519.5375
2155.66425	9471.2375
2158.6212	9476.8375
2161.57625	9500.3375
2164.52941	9489.5375
2167.48067	9444.0375
2170.43004	9456.1375
2173.37752	9443.2375
2176.32311	9450.0375
2179.26681	9445.5375
2182.20863	9420.0375
2185.14856	9427.0375
2188.08661	9425.6375
2191.02278	9440.0375
2193.95707	9443.5375
2196.88948	9411.6375
2199.82001	9397.0375
2202.74867	9374.2375
2205.67545	9348.4375
2208.60037	9330.7375
2211.52341	9327.6375
2214.44458	9327.2375
2217.36388	9295.9375
2220.28132	9264.1375
2223.1969	9238.5375
2226.11061	9225.4375
2229.02246	9216.8375
2231.93245	9197.4375
2234.84058	9168.9375
2237.74686	9149.3375
2240.65128	9159.3375
2243.55385	9111.9375
2246.45456	9096.0375
2249.35343	9076.0375
2252.25044	9060.2375
2255.14561	9052.0375
2258.03893	9038.6375
2260.93041	8984.8375
2263.82004	8973.6375
2266.70783	8955.7375
2269.59378	8927.9375
2272.4779	8898.9375
2275.36017	8874.3375
2278.24061	8866.4375
2281.11922	8840.9375
2283.996	8825.0375
2286.87094	8839.0375
2289.74405	8807.0375
2292.61534	8792.5375
2295.4848	8770.6375
2298.35243	8794.9375
2301.21824	8732.1375
2304.08223	8732.6375
2306.94439	8738.7375
2309.80474	8730.9375
2312.66327	8708.9375
2315.51999	8703.6375
2318.37489	8683.3375
2321.22797	8669.0375
2324.07925	8660.2375
2326.92871	8639.2375
2329.77637	8624.9375
2332.62222	8583.7375
2335.46626	8546.5375
2338.3085	8580.7375
2341.14893	8565.3375
2343.98756	8537.7375
2346.8244	8548.9375
2349.65943	8521.7375
2352.49267	8524.5375
2355.32411	8500.9375
2358.15376	8518.8375
2360.98161	8509.5375
2363.80768	8500.5375
2366.63195	8502.8375
2369.45444	8474.9375
2372.27514	8459.6375
2375.09405	8459.5375
2377.91118	8443.0375
2380.72652	8422.3375
2383.54009	8400.0375
2386.35187	8373.7375
2389.16188	8321.1375
2391.97011	8315.5375
2394.77657	8298.1375
2397.58125	8287.5375
2400.38416	8260.1375
2403.18529	8211.7375
2405.98466	8246.8375
2408.78226	8248.5375
2411.57809	8232.6375
2414.37216	8218.0375
2417.16446	8196.5375
2419.955	8172.3375
2422.74378	8162.5375
2425.5308	8159.6375
2428.31606	8147.2375
2431.09956	8147.4375
2433.88131	8128.3375
2436.6613	8120.1375
2439.43954	8112.8375
2442.21603	8070.9375
2444.99077	8074.4375
2447.76377	8060.1375
2450.53501	8055.6375
2453.30451	8052.4375
2456.07226	8036.8375
2458.83827	8043.5375
2461.60254	8033.0375
2464.36507	8029.5375
2467.12586	8015.2375
2469.88492	8000.1375
2472.64224	7993.6375
2475.39782	8005.7375
2478.15167	7991.5375
2480.90379	7977.7375
2483.65417	7974.1375
2486.40283	7970.6375
2489.14976	7963.0375
2491.89497	7933.0375
2494.63845	7966.6375
2497.3802	7927.4375
2500.12024	7947.0375
2502.85855	7928.8375
2505.59514	7896.4375
2508.33002	7903.7375
2511.06318	7907.4375
2513.79462	7892.3375
2516.52435	7856.7375
2519.25237	7844.3375
2521.97867	7829.8375
2524.70327	7821.9375
2527.42616	7813.1375
2530.14734	7795.1375
2532.86681	7773.8375
2535.58458	7774.7375
2538.30065	7765.2375
2541.01501	7777.0375
2543.72768	7732.0375
2546.43864	7717.3375
2549.14791	7733.0375
2551.85548	7705.2375
2554.56136	7688.1375
2557.26554	7658.6375
2559.96803	7638.0375
2562.66883	7615.8375
2565.36794	7611.9375
2568.06536	7599.5375
2570.7611	7578.4375
2573.45514	7552.8375
2576.14751	7543.7375
2578.83819	7528.7375
2581.52719	7521.1375
2584.21451	7496.1375
2586.90015	7480.5375
2589.58411	7468.7375
2592.2664	7461.5375
2594.94701	7430.3375
2597.62594	7429.8375
2600.30321	7417.7375
2602.9788	7420.3375
2605.65273	7377.8375
2608.32498	7385.5375
2610.99557	7364.1375
2613.66449	7376.3375
2616.33175	7363.6375
2618.99734	7358.2375
2621.66128	7334.5375
2624.32355	7325.9375
2626.98416	7308.4375
2629.64311	7282.2375
2632.30041	7281.7375
2634.95605	7273.6375
2637.61004	7257.6375
2640.26238	7272.5375
2642.91306	7243.2375
2645.56209	7233.8375
2648.20948	7251.9375
2650.85521	7234.0375
2653.4993	7252.3375
2656.14175	7216.1375
2658.78255	7223.7375
2661.42171	7218.5375
2664.05923	7209.4375
2666.6951	7228.8375
2669.32934	7224.4375
2671.96194	7220.1375
2674.59291	7212.2375
2677.22224	7206.1375
2679.84993	7210.8375
2682.476	7197.0375
2685.10043	7194.5375
2687.72324	7170.5375
2690.34441	7172.6375
2692.96396	7186.4375
2695.58188	7157.1375
2698.19818	7148.5375
2700.81285	7159.0375
2703.4259	7153.9375
2706.03733	7169.2375
2708.64714	7154.1375
2711.25533	7173.1375
2713.86191	7149.2375
2716.46687	7174.1375
2719.07021	7171.4375
2721.67194	7165.3375
2724.27206	7144.1375
2726.87057	7151.6375
2729.46747	7175.2375
2732.06276	7152.1375
2734.65644	7127.5375
2737.24852	7127.3375
2739.83899	7123.3375
2742.42786	7129.5375
2745.01513	7100.6375
2747.60079	7096.5375
2750.18486	7096.6375
2752.76733	7074.9375
2755.3482	7072.1375
2757.92747	7058.3375
2760.50515	7027.9375
2763.08123	7002.2375
2765.65573	7001.7375
2768.22863	7008.1375
2770.79994	6994.7375
2773.36967	6995.7375
2775.9378	6989.5375
2778.50435	6980.8375
2781.06932	6966.2375
2783.6327	6950.0375
2786.1945	6927.9375
2788.75471	6952.5375
2791.31335	6930.5375
2793.87041	6909.5375
2796.42589	6912.7375
2798.97979	6892.8375
2801.53212	6857.4375
2804.08288	6876.7375
2806.63206	6842.8375
2809.17967	6837.8375
2811.72571	6800.1375
2814.27018	6801.4375
2816.81308	6772.1375
2819.35442	6750.5375
2821.89419	6731.7375
2824.43239	6730.6375
2826.96904	6712.6375
2829.50412	6711.4375
2832.03763	6711.1375
2834.56959	6704.1375
2837.1	6690.2375
2839.62884	6706.7375
2842.15613	6719.8375
2844.68186	6736.9375
2847.20604	6731.4375
2849.72867	6732.5375
2852.24974	6729.5375
2854.76927	6715.2375
2857.28724	6698.3375
2859.80367	6678.5375
2862.31855	6665.9375
2864.83189	6669.6375
2867.34368	6634.8375
2869.85393	6624.4375
2872.36264	6612.1375
2874.8698	6626.5375
2877.37543	6610.0375
2879.87952	6619.4375
2882.38207	6608.1375
2884.88308	6579.2375
2887.38256	6590.5375
2889.88051	6579.6375
2892.37692	6579.9375
2894.8718	6584.5375
2897.36515	6597.6375
2899.85698	6583.2375
2902.34727	6613.2375
2904.83604	6599.5375
2907.32328	6603.4375
2909.809	6588.4375
2912.29319	6604.3375
2914.77587	6600.2375
2917.25702	6585.2375
2919.73665	6587.6375
2922.21476	6565.0375
2924.69136	6579.0375
2927.16644	6570.0375
2929.64	6559.8375
2932.11205	6549.7375
2934.58258	6540.3375
2937.05161	6553.2375
2939.51912	6551.1375
2941.98513	6535.3375
2944.44962	6505.4375
2946.91261	6487.9375
2949.37409	6496.9375
2951.83407	6472.3375
2954.29254	6463.1375
2956.74951	6454.3375
2959.20498	6455.5375
2961.65895	6463.0375
2964.11142	6445.6375
2966.56239	6439.0375
2969.01186	6422.4375
2971.45984	6408.1375
2973.90632	6384.4375
2976.35131	6385.0375
2978.7948	6367.8375
2981.23681	6348.5375
2983.67732	6328.2375
2986.11635	6323.5375
2988.55388	6361.8375
2990.98993	6275.5375
2993.4245	6280.8375
2995.85758	6235.8375
2998.28917	6235.4375
3000.71928	6224.1375
3003.14791	6204.7375
3005.57506	6206.0375
3008.00073	6196.3375
3010.42493	6176.4375
3012.84764	6153.2375
3015.26888	6160.1375
3017.68865	6137.3375
3020.10694	6139.1375
3022.52376	6116.6375
3024.9391	6104.4375
3027.35298	6101.6375
3029.76539	6091.5375
3032.17632	6079.3375
3034.5858	6081.3375
3036.9938	6097.9375
3039.40034	6073.8375
3041.80542	6069.2375
3044.20903	6036.0375
3046.61118	6042.1375
3049.01187	6026.3375
3051.4111	6062.0375
3053.80888	6025.0375
3056.20519	6008.7375
3058.60005	5988.5375
3060.99345	5997.2375
3063.3854	5972.7375
3065.7759	5953.1375
3068.16494	5939.8375
