Data from AgNP_FTO_APTES_UA_10uM_CRN_0uM_R6G_10uM_NaF_0.1M_Addition_RamanShift__8__12-17-40-443.txt Node

Date: Thu Feb 10 12:17:40 GMT 2022
User: TCL
Spectrometer: QEP01345
Trigger mode: 4
Integration Time (sec): 7.000000E0
Scans to average: 10
Electric dark correction enabled: true
Nonlinearity correction enabled: false
Boxcar width: 0
XAxis mode: Raman Shifts
Number of Pixels in Spectrum: 1044
>>>>>Begin Spectral Data<<<<<
46.04893	0.1
50.45542	-0.3
54.85868	-1.3
59.25871	-1.7
63.6555	56.7
68.04907	62.2
72.43941	63.9
76.82654	64.2
81.21044	67
85.59113	69.8
89.96862	71.3
94.34289	73.2
98.71396	75.8
103.08183	78.7
107.4465	84.3
111.80798	80.5
116.16626	87.7
120.52136	90.1
124.87327	95
129.222	96.1
133.56755	109.3
137.90993	113.6
142.24913	123
146.58517	138.1
150.91804	161
155.24774	199.9
159.57429	243.9
163.89768	315.4
168.21792	421.5
172.53501	578.8
176.84895	810.2
181.15975	1136.5
185.46741	1601.2
189.77193	2225.5
194.07331	2972
198.37157	3832.5
202.6667	4738.3
206.9587	5662.1
211.24758	6568.6
215.53334	7495.1
219.81599	8425.7
224.09553	9499
228.37195	10695.3
232.64527	11965.2
236.91549	13332.8
241.18261	14672
245.44663	15858.2
249.70755	16872.3
253.96539	17789.8
258.22014	18529.1
262.4718	19138
266.72039	19549.4
270.96589	19743
275.20832	19684.6
279.44768	19442.3
283.68397	19122.2
287.91719	18888.9
292.14735	18761.2
296.37445	18798
300.59849	18934.2
304.81948	19189.6
309.03742	19320.2
313.25231	19293.2
317.46415	18976.3
321.67296	18361.5
325.87872	17860.1
330.08145	17574.6
334.28114	17545.1
338.47781	17629.9
342.67145	17910.5
346.86207	18271.5
351.04966	18759.3
355.23424	19310.6
359.4158	19751.6
363.59435	20033.7
367.76989	20178.3
371.94243	20222.3
376.11196	20126.8
380.27849	20150.3
384.44203	20137.1
388.60257	20213.5
392.76012	20374.9
396.91468	20683.8
401.06626	21017.9
405.21485	21221.3
409.36047	21028.9
413.50311	20541.1
417.64277	20166
421.77947	20110
425.9132	20204.2
430.04396	20249
434.17176	20253.3
438.2966	20279.5
442.41849	20477.4
446.53742	20894.7
450.6534	21323.2
454.76644	21536.2
458.87653	21586.8
462.98368	21486.3
467.08789	21300
471.18916	20994.1
475.2875	20644
479.38291	20380.4
483.4754	20243.4
487.56496	20128
491.6516	19986.8
495.73531	19859.6
499.81612	19812.5
503.89401	19928.4
507.96899	20119.7
512.04106	20159.5
516.11023	20162.9
520.1765	20042.9
524.23987	19902.7
528.30034	19742.5
532.35792	19557.3
536.41261	19286.3
540.46441	18979
544.51333	18868.6
548.55936	19013.9
552.60252	19367.7
556.64279	19847.3
560.6802	20147.9
564.71473	20264.5
568.7464	20591.1
572.7752	21103.8
576.80114	21573.4
580.82422	22150.2
584.84444	22956.1
588.86181	24104.4
592.87633	25073
596.888	25101.2
600.89682	23993
604.9028	23822.6
608.90594	26139.1
612.90624	29347.2
616.90371	27889.7
620.89834	22512.8
624.89015	19923.5
628.87913	19497.8
632.86528	19760.9
636.84862	19875.5
640.82913	19582.2
644.80683	19010.9
648.78172	18609.3
652.75379	18588.2
656.72306	18854.7
660.68952	19291.1
664.65319	19171.8
668.61405	18712.7
672.57211	18527.8
676.52738	18613
680.47986	18560.8
684.42955	18398.4
688.37646	18286.2
692.32058	18308.4
696.26192	18564.2
700.20048	18891.1
704.13626	19063.3
708.06928	19086.9
711.99952	19006.1
715.927	18989.3
719.85171	18993.8
723.77365	18911.6
727.69284	18622.8
731.60928	18297.4
735.52295	18230.9
739.43388	18243.8
743.34206	18315.8
747.24749	18432
751.15017	18599.2
755.05012	18870
758.94733	19446.9
762.8418	20599.4
766.73354	22538.8
770.62254	24355.4
774.50882	24819.1
778.39237	23801.7
782.27321	22053.9
786.15132	20458.8
790.02671	19354.5
793.89938	18766.2
797.76935	18489.6
801.6366	18361.2
805.50115	18266.9
809.36299	18188.6
813.22213	18039.6
817.07857	17865
820.93231	17771.3
824.78336	17763.7
828.63172	17693.9
832.47738	17679.8
836.32036	17612
840.16066	17610.8
843.99827	17590
847.8332	17574.9
851.66546	17580
855.49504	17671.8
859.32195	17644.5
863.1462	17620
866.96777	17560
870.78668	17566.8
874.60293	17571.1
878.41652	17595
882.22745	17725.9
886.03573	17820.4
889.84136	17806.4
893.64433	17796.4
897.44466	17792.5
901.24235	17822.1
905.0374	17750
908.8298	17646.8
912.61957	17630.8
916.40671	17687.6
920.19121	17854.7
923.97308	18125.7
927.75233	18285.4
931.52895	18217.8
935.30295	17924.7
939.07433	17479.7
942.84309	17129.4
946.60924	16972.2
950.37278	16883.2
954.13371	16872
957.89203	16882.6
961.64774	16826
965.40086	16803.7
969.15137	16722.8
972.89929	16679.8
976.64461	16595.6
980.38733	16577.6
984.12747	16587.7
987.86502	16612.1
991.59999	16712.3
995.33237	16816
999.06217	17042.9
1002.78939	17390
1006.51404	17774
1010.23611	18178.4
1013.95561	18431
1017.67255	18477
1021.38692	18288.9
1025.09872	17976.9
1028.80796	17655.7
1032.51465	17516.2
1036.21877	17504.8
1039.92035	17548
1043.61937	17590.2
1047.31584	17655.2
1051.00976	17684.8
1054.70114	17742
1058.38998	17806.4
1062.07627	17921
1065.76003	18093.8
1069.44126	18309.6
1073.11995	18729.9
1076.79611	19146.4
1080.46974	19422
1084.14085	19651.4
1087.80943	19950.2
1091.47549	20140.3
1095.13903	20098.6
1098.80005	19729.3
1102.45857	19187.4
1106.11456	18774
1109.76805	18550.2
1113.41903	18545.1
1117.06751	18702.9
1120.71348	18991.7
1124.35696	19327.1
1127.99793	19699.8
1131.63641	19835.6
1135.2724	19661.2
1138.90589	19398
1142.5369	19264.6
1146.16542	19220.8
1149.79145	19228.2
1153.415	19276.4
1157.03607	19466.7
1160.65467	19977.9
1164.27079	20891.2
1167.88443	22074.9
1171.49561	23449.3
1175.10432	25349.9
1178.71056	27693.3
1182.31434	29898.1
1185.91565	31008.2
1189.51451	30847.8
1193.11091	29873.7
1196.70485	28370.2
1200.29634	26788.7
1203.88538	25543.6
1207.47197	24685.6
1211.05612	24120.5
1214.63782	23537.7
1218.21708	22940.6
1221.79391	22416.3
1225.36829	22152.6
1228.94024	22026.3
1232.50976	21876.2
1236.07685	21686.9
1239.6415	21510.2
1243.20374	21397.5
1246.76355	21412.7
1250.32093	21601.5
1253.8759	21982.4
1257.42845	22753.3
1260.97859	23526.1
1264.52631	24454.2
1268.07163	25311.3
1271.61453	26058.3
1275.15503	26723.5
1278.69312	27276.2
1282.22882	27976
1285.76211	28781.7
1289.29301	29829
1292.82151	30966.6
1296.34761	32275.1
1299.87133	33997.3
1303.39266	35985.4
1306.9116	38128.3
1310.42815	40151.4
1313.94233	41255.1
1317.45412	40814.1
1320.96354	39488.7
1324.47058	38339.8
1327.97525	37501.6
1331.47754	36966.6
1334.97747	36446.3
1338.47502	36063.2
1341.97022	35784.6
1345.46305	35805.8
1348.95352	36198.2
1352.44163	36857.3
1355.92738	38029.7
1359.41078	40154.2
1362.89183	42435.1
1366.37053	42293.7
1369.84688	38532.9
1373.32088	33426.6
1376.79254	29802.6
1380.26186	28211.8
1383.72883	27627.9
1387.19347	27113.2
1390.65578	26513.6
1394.11575	26234.3
1397.57339	26386.3
1401.0287	26707.6
1404.48168	26979.1
1407.93234	26854.9
1411.38068	26384
1414.82669	25725.5
1418.27039	24989.9
1421.71177	24374.9
1425.15083	23743.2
1428.58758	23527.9
1432.02203	23832
1435.45416	24446.6
1438.88399	24905.5
1442.31151	25193.7
1445.73673	25339
1449.15965	25483.9
1452.58027	25476.9
1455.9986	25433.3
1459.41463	25612.5
1462.82837	26041.4
1466.23982	26522.1
1469.64898	26976.7
1473.05586	27172.6
1476.46045	27224.2
1479.86276	27190.5
1483.26279	27247.2
1486.66054	27458.3
1490.05602	28019.8
1493.44922	28840.5
1496.84016	29953.6
1500.22882	31454.9
1503.61521	33357.9
1506.99934	35387.3
1510.38121	37063.1
1513.76081	37365.9
1517.13816	35925.1
1520.51324	33529.2
1523.88607	31387.5
1527.25665	30019
1530.62498	29141
1533.99105	28511.8
1537.35488	27776.1
1540.71647	27030
1544.07581	26222.2
1547.4329	25560.2
1550.78776	25051
1554.14038	24765.3
1557.49077	24751.5
1560.83892	24865.2
1564.18484	25081
1567.52853	25425.8
1570.86999	25833.6
1574.20922	26221.8
1577.54624	26472.6
1580.88103	26216.9
1584.2136	25834.8
1587.54395	26009.5
1590.87208	26960.7
1594.19801	28508.3
1597.52172	30011.8
1600.84321	30314.9
1604.16251	28952.5
1607.47959	26865.2
1610.79447	24778.4
1614.10715	22744.3
1617.41763	21028.8
1620.7259	19880.8
1624.03199	19302.9
1627.33587	19338.6
1630.63757	19962.2
1633.93707	21356.7
1637.23439	23709
1640.52951	27260.1
1643.82246	31536.4
1647.11321	35274.6
1650.40179	36398.3
1653.68819	33864.4
1656.97241	28925.4
1660.25446	24043.1
1663.53433	20598.8
1666.81203	18426.8
1670.08756	17221.9
1673.36092	16481.4
1676.63211	16009.2
1679.90115	15676.9
1683.16801	15428.1
1686.43272	15258.9
1689.69527	15107.8
1692.95567	14994.9
1696.2139	14934.3
1699.46999	14860.6
1702.72392	14789.9
1705.97571	14781
1709.22535	14784.6
1712.47284	14720.1
1715.71819	14700.8
1718.96139	14682.4
1722.20246	14596.7
1725.44139	14543.6
1728.67818	14421
1731.91284	14318.9
1735.14537	14201.7
1738.37576	14150.3
1741.60403	14090.1
1744.83017	14034.1
1748.05418	14000.8
1751.27607	13977.1
1754.49584	13928
1757.71349	13894.3
1760.92903	13881.1
1764.14244	13880.8
1767.35375	13837.5
1770.56294	13827.2
1773.77002	13796.1
1776.97499	13787.2
1780.17785	13693.9
1783.37861	13712.5
1786.57727	13675.5
1789.77382	13641.2
1792.96828	13603.6
1796.16064	13577
1799.3509	13557
1802.53907	13536.9
1805.72514	13473.8
1808.90913	13398.6
1812.09102	13428.6
1815.27083	13390.4
1818.44856	13380.2
1821.6242	13343.5
1824.79776	13359.3
1827.96924	13372.7
1831.13864	13353.2
1834.30597	13385.5
1837.47122	13396.3
1840.6344	13417.5
1843.7955	13422.5
1846.95454	13407.2
1850.11151	13372.6
1853.26642	13381.4
1856.41926	13388
1859.57004	13394.1
1862.71876	13338.5
1865.86542	13313.2
1869.01003	13275.7
1872.15258	13253.1
1875.29308	13220.9
1878.43152	13207.9
1881.56792	13181
1884.70227	13130.8
1887.83457	13119.4
1890.96482	13087.4
1894.09304	13029.5
1897.21921	12991.4
1900.34335	12996.2
1903.46544	12951.1
1906.58551	12912.9
1909.70353	12905.8
1912.81953	12880.1
1915.93349	12889.4
1919.04543	12828.8
1922.15534	12745
1925.26322	12719
1928.36908	12672.3
1931.47292	12615.6
1934.57473	12611.6
1937.67453	12570
1940.77232	12542.7
1943.86808	12471.1
1946.96184	12415.1
1950.05358	12385.2
1953.14331	12357.4
1956.23103	12323.5
1959.31675	12300.5
1962.40046	12276
1965.48217	12197.6
1968.56188	12161.3
1971.63959	12119.5
1974.7153	12087.6
1977.78901	12066.4
1980.86073	12002.2
1983.93046	11945.3
1986.99819	11910.8
1990.06394	11938.4
1993.1277	11861.3
1996.18947	11780.4
1999.24925	11795.5
2002.30706	11705.4
2005.36288	11697.8
2008.41672	11673.7
2011.46859	11626.3
2014.51848	11600.6
2017.56639	11571.7
2020.61233	11517
2023.6563	11499.1
2026.6983	11458.9
2029.73833	11433.7
2032.7764	11387.1
2035.8125	11369.2
2038.84664	11364.1
2041.87881	11305.7
2044.90903	11302.4
2047.93729	11278.9
2050.96359	11274.2
2053.98794	11236.5
2057.01034	11236.5
2060.03078	11207.9
2063.04927	11200
2066.06582	11194.3
2069.08042	11201.1
2072.09307	11203.3
2075.10378	11196.5
2078.11255	11157.1
2081.11938	11143.8
2084.12426	11151.1
2087.12722	11142.9
2090.12824	11158.4
2093.12732	11143.7
2096.12447	11142.4
2099.11969	11145.4
2102.11299	11118.9
2105.10435	11141.2
2108.09379	11158.5
2111.08131	11157
2114.0669	11167.7
2117.05057	11173.6
2120.03233	11160.2
2123.01216	11173.2
2125.99008	11188.8
2128.96609	11173.6
2131.94018	11178.9
2134.91236	11193
2137.88263	11176.9
2140.851	11157.2
2143.81746	11176.4
2146.78201	11131.8
2149.74466	11131.1
2152.7054	11099.4
2155.66425	11117.3
2158.6212	11113.1
2161.57625	11116.3
2164.52941	11086.5
2167.48067	11109.7
2170.43004	11095.3
2173.37752	11072.5
2176.32311	11073.3
2179.26681	11073.1
2182.20863	11065.7
2185.14856	11074.9
2188.08661	11063.5
2191.02278	11035.3
2193.95707	11044.4
2196.88948	11011.4
2199.82001	11016.9
2202.74867	10962.7
2205.67545	10959.7
2208.60037	10957.3
2211.52341	10936.4
2214.44458	10929.7
2217.36388	10905.5
2220.28132	10875.2
2223.1969	10836.3
2226.11061	10823.5
2229.02246	10802.7
2231.93245	10813.8
2234.84058	10755.8
2237.74686	10776.6
2240.65128	10756.5
2243.55385	10732.9
2246.45456	10705.8
2249.35343	10690.8
2252.25044	10676.5
2255.14561	10664
2258.03893	10635.2
2260.93041	10622
2263.82004	10577.9
2266.70783	10563.9
2269.59378	10526.1
2272.4779	10497.6
2275.36017	10467.5
2278.24061	10460.5
2281.11922	10449.6
2283.996	10436.4
2286.87094	10400.4
2289.74405	10375.8
2292.61534	10370.1
2295.4848	10363.9
2298.35243	10327.8
2301.21824	10328
2304.08223	10355.1
2306.94439	10325.3
2309.80474	10286
2312.66327	10297.2
2315.51999	10283.8
2318.37489	10263.8
2321.22797	10257.2
2324.07925	10237.9
2326.92871	10220.3
2329.77637	10199.7
2332.62222	10183.8
2335.46626	10171.9
2338.3085	10182.2
2341.14893	10174.2
2343.98756	10158.5
2346.8244	10165.4
2349.65943	10172.4
2352.49267	10162.6
2355.32411	10138
2358.15376	10155.5
2360.98161	10185.3
2363.80768	10174.4
2366.63195	10169.4
2369.45444	10162.4
2372.27514	10112.5
2375.09405	10105.2
2377.91118	10088.5
2380.72652	10060.5
2383.54009	10014.4
2386.35187	10015.3
2389.16188	9982.5
2391.97011	9932.4
2394.77657	9906.2
2397.58125	9859.4
2400.38416	9857
2403.18529	9867
2405.98466	9869.3
2408.78226	9816.3
2411.57809	9823.8
2414.37216	9786.4
2417.16446	9796
2419.955	9762.7
2422.74378	9791.1
2425.5308	9777.4
2428.31606	9766
2431.09956	9766.9
2433.88131	9760.3
2436.6613	9754.8
2439.43954	9748.8
2442.21603	9773.8
2444.99077	9727.1
2447.76377	9731.7
2450.53501	9717.1
2453.30451	9741.2
2456.07226	9704.9
2458.83827	9696.3
2461.60254	9693.8
2464.36507	9676.8
2467.12586	9680.2
2469.88492	9664.1
2472.64224	9687
2475.39782	9662.6
2478.15167	9688.7
2480.90379	9687
2483.65417	9706.2
2486.40283	9694.9
2489.14976	9691.9
2491.89497	9680.6
2494.63845	9686.5
2497.3802	9649.4
2500.12024	9665.6
2502.85855	9642.1
2505.59514	9622.4
2508.33002	9611.6
2511.06318	9568.6
2513.79462	9563.8
2516.52435	9566.2
2519.25237	9540.4
2521.97867	9525.9
2524.70327	9539.4
2527.42616	9509.1
2530.14734	9508
2532.86681	9481.4
2535.58458	9478
2538.30065	9480.6
2541.01501	9492.9
2543.72768	9459.9
2546.43864	9462.4
2549.14791	9450.5
2551.85548	9432.8
2554.56136	9425.4
2557.26554	9395.3
2559.96803	9393.3
2562.66883	9383.9
2565.36794	9347.8
2568.06536	9330.9
2570.7611	9332.1
2573.45514	9308.6
2576.14751	9290.9
2578.83819	9252.5
2581.52719	9276.2
2584.21451	9263.4
2586.90015	9253.4
2589.58411	9220.6
2592.2664	9221.6
2594.94701	9211.9
2597.62594	9207.7
2600.30321	9191.8
2602.9788	9185.1
2605.65273	9184.6
2608.32498	9179.8
2610.99557	9174.1
2613.66449	9160.6
2616.33175	9118.4
2618.99734	9148.3
2621.66128	9122.2
2624.32355	9132.9
2626.98416	9102.2
2629.64311	9081.4
2632.30041	9080.2
2634.95605	9057.7
2637.61004	9038.1
2640.26238	9032.9
2642.91306	9041.7
2645.56209	9029.7
2648.20948	9029.6
2650.85521	9088.9
2653.4993	9043.9
2656.14175	9047
2658.78255	9039.8
2661.42171	9041.1
2664.05923	9050.5
2666.6951	9077.9
2669.32934	9045.6
2671.96194	9068.6
2674.59291	9078.3
2677.22224	9058.7
2679.84993	9055.3
2682.476	9020.6
2685.10043	9029.9
2687.72324	9039.6
2690.34441	9029.8
2692.96396	9006
2695.58188	9022.9
2698.19818	9022.8
2700.81285	8996.6
2703.4259	8970.1
2706.03733	8978.1
2708.64714	8972.5
2711.25533	9012.6
2713.86191	9020.4
2716.46687	9018.9
2719.07021	9039.8
2721.67194	9045.4
2724.27206	9056.2
2726.87057	9046.2
2729.46747	9060.6
2732.06276	9044.5
2734.65644	9060.5
2737.24852	9065.1
2739.83899	9028
2742.42786	9023
2745.01513	9008.9
2747.60079	9005.8
2750.18486	8987.5
2752.76733	8966.6
2755.3482	8946.1
2757.92747	8936.1
2760.50515	8947.3
2763.08123	8915.7
2765.65573	8931.4
2768.22863	8908.8
2770.79994	8889
2773.36967	8907.5
2775.9378	8901.3
2778.50435	8869
2781.06932	8849.6
2783.6327	8861.8
2786.1945	8867.1
2788.75471	8855.4
2791.31335	8845.7
2793.87041	8848.8
2796.42589	8816.1
2798.97979	8797.4
2801.53212	8785.1
2804.08288	8783.2
2806.63206	8765.8
2809.17967	8726.6
2811.72571	8713.6
2814.27018	8706
2816.81308	8689.9
2819.35442	8689.2
2821.89419	8674.3
2824.43239	8652.3
2826.96904	8649.9
2829.50412	8659.6
2832.03763	8644
2834.56959	8645.4
2837.1	8628.4
2839.62884	8638.8
2842.15613	8636.6
2844.68186	8636.2
2847.20604	8651.8
2849.72867	8660.6
2852.24974	8640.3
2854.76927	8635.2
2857.28724	8643.4
2859.80367	8602.9
2862.31855	8610.4
2864.83189	8606.9
2867.34368	8619.5
2869.85393	8575.7
2872.36264	8588
2874.8698	8586.7
2877.37543	8582.4
2879.87952	8583.3
2882.38207	8581.9
2884.88308	8575.9
2887.38256	8564.1
2889.88051	8586.7
2892.37692	8566.3
2894.8718	8586.4
2897.36515	8587.2
2899.85698	8579.5
2902.34727	8603.4
2904.83604	8605.3
2907.32328	8623.1
2909.809	8621.6
2912.29319	8583.8
2914.77587	8602.5
2917.25702	8557.8
2919.73665	8586.7
2922.21476	8598.2
2924.69136	8576.3
2927.16644	8576.7
2929.64	8557.3
2932.11205	8511.2
2934.58258	8500.3
2937.05161	8517.8
2939.51912	8486.6
2941.98513	8505.1
2944.44962	8458.8
2946.91261	8450.4
2949.37409	8446.8
2951.83407	8428.1
2954.29254	8430
2956.74951	8417
2959.20498	8383.6
2961.65895	8415.6
2964.11142	8395.7
2966.56239	8376.7
2969.01186	8361.3
2971.45984	8333.3
2973.90632	8329.3
2976.35131	8324.2
2978.7948	8291.8
2981.23681	8280.5
2983.67732	8244.2
2986.11635	8215.3
2988.55388	8187.7
2990.98993	8183.8
2993.4245	8168
2995.85758	8159.5
2998.28917	8143.1
3000.71928	8114.5
3003.14791	8114.1
3005.57506	8093.4
3008.00073	8076.7
3010.42493	8068.4
3012.84764	8023.9
3015.26888	8032.1
3017.68865	7997.5
3020.10694	7986.9
3022.52376	7975.4
3024.9391	7964.3
3027.35298	7965.1
3029.76539	7941.5
3032.17632	7937.8
3034.5858	7924.3
3036.9938	7941.4
3039.40034	7910.6
3041.80542	7916
3044.20903	7879.2
3046.61118	7872
3049.01187	7860.7
3051.4111	7837.6
3053.80888	7828.1
3056.20519	7828.3
3058.60005	7818.5
3060.99345	7775.9
3063.3854	7763.9
3065.7759	7772.8
3068.16494	7760.3
3070.55254	7743.9
3072.93868	7714.7
3075.32338	7685.7
3077.70662	7646
3080.08842	7642.5
3082.46878	7640.6
3084.84769	7599
3087.22515	7617
3089.60118	7616.9
3091.97576	7621.7
3094.3489	7621.6
3096.72061	7598.3
3099.09087	7597
3101.4597	7606.4
3103.82709	7571.1
3106.19305	7559.8
3108.55757	7562.5
3110.92066	7566.3
3113.28232	7533.7
3115.64255	7506.4
3118.00134	7516
3120.35871	7513.8
3122.71466	7481.9
3125.06917	7444.6
3127.42226	7454.2
3129.77393	7443.4
3132.12417	7440.2
3134.47299	7442
3136.82039	7451.3
3139.16636	7442.9
3141.51092	7431
3143.85406	7422.8
3146.19579	7422.1
3148.53609	7433.6
3150.87499	7431.2
3153.21246	7425.4
3155.54853	7446.8
3157.88318	7445.5
3160.21642	7452.2
3162.54826	7453
3164.87868	7450.9
3167.2077	7459.1
3169.5353	7480.3
3171.86151	7445.1
3174.18631	7428.4
3176.5097	7426.3
3178.83169	7418.4
3181.15228	7400.8
3183.47147	7406.4
3185.78926	7392.6
3188.10565	7388.1
3190.42065	7398
3192.73424	7394.9
3195.04645	7383.7
3197.35725	7362.6
3199.66667	7372.9
3201.97469	7374.3
3204.28132	7352.3
3206.58656	7360.2
3208.8904	7347
3211.19287	7377.8
3213.49394	7372.1
3215.79363	7383.8
3218.09193	7366.8
3220.38884	7374.7
3222.68438	7372.1
3224.97853	7382.9
3227.2713	7373.8
3229.56269	7363.4
3231.8527	7378.5
3234.14133	7320.2
3236.42858	7325.7
3238.71446	7305.6
3240.99896	7296.7
3243.28209	7278.7
3245.56384	7272.3
3247.84423	7286.3
3250.12324	7276.7
3252.40088	7261.4
3254.67715	7245.3
3256.95205	7242.6
3259.22558	7220.3
3261.49775	7217.3
3263.76855	7215.5
3266.03799	7206.5
3268.30606	7189.9
3270.57277	7165.9
3272.83812	7159.4
3275.10211	7120.4
3277.36474	7128.3
3279.62601	7110.7
3281.88593	7102
3284.14448	7115.7
3286.40168	7120.7
3288.65753	7152.5
3290.91202	7121.5
3293.16516	7106.9
3295.41695	7087.8
3297.66738	7055
3299.91647	7002.3
3302.16421	6984.5
3304.4106	6926.5
3306.65564	6880.7
3308.89933	6835.7
3311.14169	6784.9
3313.38269	6718.7
3315.62236	6677.3
3317.86068	6624.1
3320.09766	6563.7
3322.3333	6526.9
3324.5676	6480.7
3326.80056	6350.3
3329.03219	6330.9
3331.26248	3.6
3333.49143	0
3335.71905	-0.5
