Data from AgNP_FTO_APTES_UA_10uM_CRN_10uM_R6G_10uM_NaF_0.1M_Addition_RamanShift__22__15-50-00-713.txt Node

Date: Thu Feb 10 15:50:00 GMT 2022
User: TCL
Spectrometer: QEP01345
Trigger mode: 4
Integration Time (sec): 7.000000E0
Scans to average: 10
Electric dark correction enabled: true
Nonlinearity correction enabled: false
Boxcar width: 0
XAxis mode: Raman Shifts
Number of Pixels in Spectrum: 1044
>>>>>Begin Spectral Data<<<<<
46.04893	0.3125
50.45542	-0.5875
54.85868	-1.5875
59.25871	-1.5875
63.6555	75.4125
68.04907	76.3125
72.43941	80.9125
76.82654	83.3125
81.21044	91.1125
85.59113	86.6125
89.96862	93.8125
94.34289	95.5125
98.71396	97.1125
103.08183	100.5125
107.4465	108.8125
111.80798	105.3125
116.16626	112.4125
120.52136	117.6125
124.87327	123.1125
129.222	127.4125
133.56755	134.9125
137.90993	144.6125
142.24913	156.2125
146.58517	182.4125
150.91804	209.3125
155.24774	247.4125
159.57429	309.5125
163.89768	394.7125
168.21792	517.2125
172.53501	710.1125
176.84895	988.1125
181.15975	1393.1125
185.46741	1947.2125
189.77193	2688.8125
194.07331	3592.8125
198.37157	4608.0125
202.6667	5694.7125
206.9587	6751.2125
211.24758	7819.9125
215.53334	8890.8125
219.81599	9968.7125
224.09553	11244.2125
228.37195	12613.5125
232.64527	14161.1125
236.91549	15767.9125
241.18261	17360.4125
245.44663	18800.9125
249.70755	20116.8125
253.96539	21308.5125
258.22014	22335.1125
262.4718	23179.5125
266.72039	23853.9125
270.96589	24247.8125
275.20832	24402.8125
279.44768	24426.7125
283.68397	24288.7125
287.91719	24161.2125
292.14735	24124.1125
296.37445	24162.2125
300.59849	24274.2125
304.81948	24325.8125
309.03742	24200.4125
313.25231	23833.2125
317.46415	23161.5125
321.67296	22402.0125
325.87872	21777.3125
330.08145	21490.5125
334.28114	21515.1125
338.47781	21672.8125
342.67145	21972.8125
346.86207	22410.2125
351.04966	22956.7125
355.23424	23488.4125
359.4158	23985.9125
363.59435	24242.4125
367.76989	24450.8125
371.94243	24588.3125
376.11196	24693.7125
380.27849	24768.0125
384.44203	24887.9125
388.60257	24960.1125
392.76012	25172.4125
396.91468	25499.3125
401.06626	25915.4125
405.21485	26187.9125
409.36047	26064.5125
413.50311	25613.4125
417.64277	25240.7125
421.77947	25191.1125
425.9132	25278.1125
430.04396	25476.5125
434.17176	25645.4125
438.2966	25919.3125
442.41849	26352.3125
446.53742	27030.1125
450.6534	27803.5125
454.76644	28466.6125
458.87653	28714.9125
462.98368	28650.0125
467.08789	28366.1125
471.18916	27960.5125
475.2875	27570.3125
479.38291	27345.7125
483.4754	27133.2125
487.56496	26748.4125
491.6516	26241.2125
495.73531	25858.1125
499.81612	25697.9125
503.89401	25780.2125
507.96899	25832.0125
512.04106	25824.9125
516.11023	25594.6125
520.1765	25446.0125
524.23987	25276.1125
528.30034	24975.1125
532.35792	24740.6125
536.41261	24449.6125
540.46441	24221.4125
544.51333	24256.8125
548.55936	24624.6125
552.60252	25214.1125
556.64279	25782.5125
560.6802	26157.0125
564.71473	26373.9125
568.7464	26817.6125
572.7752	27413.3125
576.80114	27692.8125
580.82422	27875.8125
584.84444	28057.9125
588.86181	28185.8125
592.87633	28491.8125
596.888	28782.3125
600.89682	28996.7125
604.9028	30081.5125
608.90594	33086.5125
612.90624	36172.6125
616.90371	33786.4125
620.89834	28048.6125
624.89015	25704.1125
628.87913	25457.6125
632.86528	25426.5125
636.84862	25277.1125
640.82913	24827.1125
644.80683	24136.2125
648.78172	23599.6125
652.75379	23534.2125
656.72306	23842.6125
660.68952	24339.4125
664.65319	24227.7125
668.61405	23788.4125
672.57211	23647.4125
676.52738	23646.8125
680.47986	23644.4125
684.42955	23563.4125
688.37646	23542.6125
692.32058	23605.5125
696.26192	23903.4125
700.20048	24194.7125
704.13626	24387.9125
708.06928	24299.7125
711.99952	24098.0125
715.927	23977.7125
719.85171	23968.2125
723.77365	23924.3125
727.69284	23666.6125
731.60928	23469.2125
735.52295	23422.5125
739.43388	23373.5125
743.34206	23498.0125
747.24749	23623.9125
751.15017	23852.0125
755.05012	24329.4125
758.94733	25150.9125
762.8418	26546.6125
766.73354	28773.2125
770.62254	30739.1125
774.50882	31111.6125
778.39237	29535.4125
782.27321	27121.5125
786.15132	25217.5125
790.02671	24122.8125
793.89938	23625.8125
797.76935	23430.8125
801.6366	23349.4125
805.50115	23287.2125
809.36299	23122.3125
813.22213	22984.4125
817.07857	22952.9125
820.93231	22911.4125
824.78336	22844.0125
828.63172	22817.8125
832.47738	22796.1125
836.32036	22832.2125
840.16066	22925.8125
843.99827	23027.2125
847.8332	22959.3125
851.66546	22852.8125
855.49504	22798.1125
859.32195	22735.6125
863.1462	22608.9125
866.96777	22518.7125
870.78668	22422.3125
874.60293	22403.8125
878.41652	22482.0125
882.22745	22502.9125
886.03573	22550.3125
889.84136	22541.3125
893.64433	22428.4125
897.44466	22365.2125
901.24235	22277.7125
905.0374	22252.9125
908.8298	22240.8125
912.61957	22312.2125
916.40671	22490.0125
920.19121	22814.1125
923.97308	23107.7125
927.75233	23162.0125
931.52895	23064.0125
935.30295	22743.2125
939.07433	22316.6125
942.84309	21989.0125
946.60924	21838.4125
950.37278	21825.7125
954.13371	21679.7125
957.89203	21566.9125
961.64774	21499.1125
965.40086	21477.8125
969.15137	21380.1125
972.89929	21286.5125
976.64461	21214.6125
980.38733	21229.2125
984.12747	21323.9125
987.86502	21571.4125
991.59999	21858.6125
995.33237	22354.3125
999.06217	23150.7125
1002.78939	24004.7125
1006.51404	24556.3125
1010.23611	24814.7125
1013.95561	25022.7125
1017.67255	25016.5125
1021.38692	24688.8125
1025.09872	24485.2125
1028.80796	24773.0125
1032.51465	25574.5125
1036.21877	26297.9125
1039.92035	26458.8125
1043.61937	25995.6125
1047.31584	25234.2125
1051.00976	24408.9125
1054.70114	24011.8125
1058.38998	23976.3125
1062.07627	24095.0125
1065.76003	24205.2125
1069.44126	24275.5125
1073.11995	24515.8125
1076.79611	24720.7125
1080.46974	24910.9125
1084.14085	25129.0125
1087.80943	25438.0125
1091.47549	25675.4125
1095.13903	25530.1125
1098.80005	25181.0125
1102.45857	24627.5125
1106.11456	24323.2125
1109.76805	24270.2125
1113.41903	24447.9125
1117.06751	24714.1125
1120.71348	25024.4125
1124.35696	25271.0125
1127.99793	25567.1125
1131.63641	25687.5125
1135.2724	25510.3125
1138.90589	25238.6125
1142.5369	25128.4125
1146.16542	25095.4125
1149.79145	25207.5125
1153.415	25419.7125
1157.03607	25855.2125
1160.65467	26527.1125
1164.27079	27607.0125
1167.88443	29038.4125
1171.49561	30938.7125
1175.10432	33508.8125
1178.71056	36688.7125
1182.31434	39595.7125
1185.91565	41208.7125
1189.51451	41390.4125
1193.11091	40163.8125
1196.70485	38219.6125
1200.29634	36386.0125
1203.88538	34881.6125
1207.47197	33750.7125
1211.05612	32799.8125
1214.63782	32146.4125
1218.21708	31738.0125
1221.79391	31639.6125
1225.36829	31565.8125
1228.94024	31267.7125
1232.50976	30760.4125
1236.07685	30355.3125
1239.6415	30170.9125
1243.20374	30131.5125
1246.76355	30256.6125
1250.32093	30744.5125
1253.8759	31495.8125
1257.42845	32465.9125
1260.97859	33397.2125
1264.52631	34195.2125
1268.07163	35101.9125
1271.61453	36152.1125
1275.15503	37322.5125
1278.69312	38491.4125
1282.22882	39413.8125
1285.76211	40208.5125
1289.29301	41078.7125
1292.82151	42299.0125
1296.34761	43982.2125
1299.87133	46248.1125
1303.39266	49154.0125
1306.9116	52497.1125
1310.42815	55880.4125
1313.94233	57969.5125
1317.45412	58271.6125
1320.96354	57301.2125
1324.47058	56092.6125
1327.97525	54897.1125
1331.47754	54090.8125
1334.97747	53954.5125
1338.47502	54359.6125
1341.97022	54655.6125
1345.46305	54260.3125
1348.95352	53248.7125
1352.44163	52210.1125
1355.92738	52346.3125
1359.41078	54180.5125
1362.89183	56020.7125
1366.37053	54534.7125
1369.84688	49770.3125
1373.32088	44702.9125
1376.79254	41306.8125
1380.26186	39935.9125
1383.72883	39645.0125
1387.19347	39515.3125
1390.65578	39278.4125
1394.11575	39396.7125
1397.57339	40046.4125
1401.0287	40996.7125
1404.48168	42018.6125
1407.93234	42626.1125
1411.38068	42545.4125
1414.82669	41584.0125
1418.27039	39924.5125
1421.71177	38008.0125
1425.15083	36450.7125
1428.58758	35453.6125
1432.02203	35399.9125
1435.45416	35898.4125
1438.88399	36642.6125
1442.31151	37375.7125
1445.73673	38034.6125
1449.15965	38722.8125
1452.58027	39187.6125
1455.9986	39488.4125
1459.41463	39841.3125
1462.82837	40516.9125
1466.23982	41324.3125
1469.64898	42101.8125
1473.05586	42459.0125
1476.46045	42400.0125
1479.86276	42122.2125
1483.26279	41776.0125
1486.66054	41639.6125
1490.05602	41677.3125
1493.44922	41900.2125
1496.84016	42071.0125
1500.22882	42611.8125
1503.61521	43594.1125
1506.99934	45020.0125
1510.38121	46557.4125
1513.76081	47168.4125
1517.13816	46407.2125
1520.51324	44563.0125
1523.88607	42689.9125
1527.25665	41449.3125
1530.62498	40857.4125
1533.99105	40672.2125
1537.35488	40433.2125
1540.71647	40079.0125
1544.07581	39643.9125
1547.4329	38963.8125
1550.78776	38355.8125
1554.14038	37946.9125
1557.49077	37769.6125
1560.83892	37700.2125
1564.18484	37638.2125
1567.52853	37515.7125
1570.86999	37509.6125
1574.20922	37789.3125
1577.54624	38151.0125
1580.88103	38205.0125
1584.2136	38389.8125
1587.54395	39450.4125
1590.87208	41432.2125
1594.19801	44054.2125
1597.52172	46694.3125
1600.84321	47555.1125
1604.16251	45688.8125
1607.47959	42224.6125
1610.79447	38576.0125
1614.10715	35121.6125
1617.41763	32335.9125
1620.7259	30366.3125
1624.03199	29419.7125
1627.33587	29367.6125
1630.63757	30226.5125
1633.93707	32140.4125
1637.23439	35032.8125
1640.52951	38800.2125
1643.82246	42688.7125
1647.11321	45430.9125
1650.40179	45634.4125
1653.68819	42614.8125
1656.97241	37399.4125
1660.25446	32149.1125
1663.53433	28322.6125
1666.81203	25749.3125
1670.08756	24134.0125
1673.36092	23145.9125
1676.63211	22448.2125
1679.90115	21918.5125
1683.16801	21567.7125
1686.43272	21324.8125
1689.69527	21111.7125
1692.95567	20960.4125
1696.2139	20839.7125
1699.46999	20812.3125
1702.72392	20696.5125
1705.97571	20634.5125
1709.22535	20541.8125
1712.47284	20495.8125
1715.71819	20471.7125
1718.96139	20421.7125
1722.20246	20344.4125
1725.44139	20231.3125
1728.67818	20142.6125
1731.91284	19984.8125
1735.14537	19915.0125
1738.37576	19819.9125
1741.60403	19696.9125
1744.83017	19689.9125
1748.05418	19614.6125
1751.27607	19591.7125
1754.49584	19570.1125
1757.71349	19558.0125
1760.92903	19524.6125
1764.14244	19515.8125
1767.35375	19485.3125
1770.56294	19475.7125
1773.77002	19447.7125
1776.97499	19383.3125
1780.17785	19329.8125
1783.37861	19312.9125
1786.57727	19277.3125
1789.77382	19244.8125
1792.96828	19221.7125
1796.16064	19211.5125
1799.3509	19156.6125
1802.53907	19162.2125
1805.72514	19031.7125
1808.90913	19035.5125
1812.09102	18994.6125
1815.27083	18969.5125
1818.44856	18971.4125
1821.6242	18888.0125
1824.79776	18849.0125
1827.96924	18866.3125
1831.13864	18867.3125
1834.30597	18892.3125
1837.47122	18878.3125
1840.6344	18876.6125
1843.7955	18883.2125
1846.95454	18881.0125
1850.11151	18887.5125
1853.26642	18897.6125
1856.41926	18910.8125
1859.57004	18934.3125
1862.71876	18846.9125
1865.86542	18875.8125
1869.01003	18862.2125
1872.15258	18886.0125
1875.29308	18874.2125
1878.43152	18903.5125
1881.56792	18881.1125
1884.70227	18887.4125
1887.83457	18900.4125
1890.96482	18883.9125
1894.09304	18890.5125
1897.21921	18865.8125
1900.34335	18878.0125
1903.46544	18866.5125
1906.58551	18867.5125
1909.70353	18855.6125
1912.81953	18839.9125
1915.93349	18842.8125
1919.04543	18793.4125
1922.15534	18736.2125
1925.26322	18701.2125
1928.36908	18639.4125
1931.47292	18606.7125
1934.57473	18510.3125
1937.67453	18442.6125
1940.77232	18397.3125
1943.86808	18282.7125
1946.96184	18211.7125
1950.05358	18156.8125
1953.14331	18083.3125
1956.23103	17991.4125
1959.31675	17945.4125
1962.40046	17891.1125
1965.48217	17854.4125
1968.56188	17792.1125
1971.63959	17760.3125
1974.7153	17653.5125
1977.78901	17618.2125
1980.86073	17582.7125
1983.93046	17519.7125
1986.99819	17468.9125
1990.06394	17448.9125
1993.1277	17365.7125
1996.18947	17316.3125
1999.24925	17274.3125
2002.30706	17187.8125
2005.36288	17175.8125
2008.41672	17112.5125
2011.46859	17051.3125
2014.51848	17014.4125
2017.56639	17022.1125
2020.61233	16965.2125
2023.6563	16899.5125
2026.6983	16893.4125
2029.73833	16863.0125
2032.7764	16846.1125
2035.8125	16811.0125
2038.84664	16785.6125
2041.87881	16744.5125
2044.90903	16699.2125
2047.93729	16696.0125
2050.96359	16639.1125
2053.98794	16632.9125
2057.01034	16633.3125
2060.03078	16599.1125
2063.04927	16609.0125
2066.06582	16623.3125
2069.08042	16578.2125
2072.09307	16592.2125
2075.10378	16550.7125
2078.11255	16553.9125
2081.11938	16554.4125
2084.12426	16496.9125
2087.12722	16498.1125
2090.12824	16463.7125
2093.12732	16490.2125
2096.12447	16491.8125
2099.11969	16463.9125
2102.11299	16428.5125
2105.10435	16446.3125
2108.09379	16479.6125
2111.08131	16449.9125
2114.0669	16448.5125
2117.05057	16476.3125
2120.03233	16500.8125
2123.01216	16514.3125
2125.99008	16508.6125
2128.96609	16531.7125
2131.94018	16544.0125
2134.91236	16542.4125
2137.88263	16561.0125
2140.851	16584.4125
2143.81746	16598.4125
2146.78201	16609.1125
2149.74466	16551.9125
2152.7054	16580.6125
2155.66425	16582.8125
2158.6212	16589.3125
2161.57625	16600.1125
2164.52941	16577.2125
2167.48067	16581.2125
2170.43004	16569.3125
2173.37752	16523.0125
2176.32311	16535.9125
2179.26681	16565.8125
2182.20863	16543.6125
2185.14856	16540.1125
2188.08661	16569.2125
2191.02278	16557.6125
2193.95707	16581.1125
2196.88948	16586.4125
2199.82001	16564.9125
2202.74867	16510.0125
2205.67545	16530.3125
2208.60037	16554.6125
2211.52341	16516.7125
2214.44458	16524.7125
2217.36388	16524.1125
2220.28132	16490.5125
2223.1969	16454.4125
2226.11061	16452.3125
2229.02246	16376.9125
2231.93245	16316.4125
2234.84058	16259.8125
2237.74686	16269.7125
2240.65128	16230.1125
2243.55385	16201.0125
2246.45456	16212.5125
2249.35343	16155.3125
2252.25044	16171.9125
2255.14561	16130.0125
2258.03893	16103.4125
2260.93041	16089.5125
2263.82004	16039.4125
2266.70783	16001.6125
2269.59378	15931.8125
2272.4779	15881.3125
2275.36017	15850.1125
2278.24061	15842.0125
2281.11922	15816.6125
2283.996	15794.8125
2286.87094	15784.7125
2289.74405	15762.4125
2292.61534	15770.1125
2295.4848	15771.8125
2298.35243	15761.6125
2301.21824	15775.5125
2304.08223	15807.4125
2306.94439	15786.6125
2309.80474	15795.9125
2312.66327	15814.5125
2315.51999	15817.0125
2318.37489	15798.2125
2321.22797	15799.4125
2324.07925	15783.0125
2326.92871	15774.5125
2329.77637	15752.2125
2332.62222	15740.0125
2335.46626	15747.4125
2338.3085	15754.0125
2341.14893	15754.9125
2343.98756	15750.4125
2346.8244	15812.3125
2349.65943	15777.6125
2352.49267	15754.3125
2355.32411	15805.9125
2358.15376	15755.7125
2360.98161	15749.2125
2363.80768	15764.8125
2366.63195	15740.0125
2369.45444	15672.9125
2372.27514	15672.4125
2375.09405	15619.6125
2377.91118	15574.4125
2380.72652	15568.9125
2383.54009	15510.2125
2386.35187	15462.0125
2389.16188	15418.8125
2391.97011	15408.3125
2394.77657	15362.3125
2397.58125	15353.0125
2400.38416	15394.4125
2403.18529	15319.0125
2405.98466	15287.8125
2408.78226	15244.7125
2411.57809	15236.9125
2414.37216	15211.2125
2417.16446	15181.6125
2419.955	15152.1125
2422.74378	15149.5125
2425.5308	15134.8125
2428.31606	15134.1125
2431.09956	15144.1125
2433.88131	15110.8125
2436.6613	15103.6125
2439.43954	15118.2125
2442.21603	15112.9125
2444.99077	15116.4125
2447.76377	15086.3125
2450.53501	15060.4125
2453.30451	15077.6125
2456.07226	15089.9125
2458.83827	15083.7125
2461.60254	15089.9125
2464.36507	15071.1125
2467.12586	15039.0125
2469.88492	15043.3125
2472.64224	15080.3125
2475.39782	15084.7125
2478.15167	15117.4125
2480.90379	15108.7125
2483.65417	15140.5125
2486.40283	15142.5125
2489.14976	15168.5125
2491.89497	15178.5125
2494.63845	15216.2125
2497.3802	15211.5125
2500.12024	15187.5125
2502.85855	15190.0125
2505.59514	15184.3125
2508.33002	15136.9125
2511.06318	15159.4125
2513.79462	15125.6125
2516.52435	15089.7125
2519.25237	15087.3125
2521.97867	15057.2125
2524.70327	15062.0125
2527.42616	15038.3125
2530.14734	15061.1125
2532.86681	15061.7125
2535.58458	15043.4125
2538.30065	15038.9125
2541.01501	15062.2125
2543.72768	15045.3125
2546.43864	15041.6125
2549.14791	15011.0125
2551.85548	15001.5125
2554.56136	14986.4125
2557.26554	14975.8125
2559.96803	14945.3125
2562.66883	14927.1125
2565.36794	14904.0125
2568.06536	14913.5125
2570.7611	14915.5125
2573.45514	14910.5125
2576.14751	14920.9125
2578.83819	14903.0125
2581.52719	14912.4125
2584.21451	14901.5125
2586.90015	14886.8125
2589.58411	14879.1125
2592.2664	14882.2125
2594.94701	14890.0125
2597.62594	14922.8125
2600.30321	14878.7125
2602.9788	14860.0125
2605.65273	14871.0125
2608.32498	14893.8125
2610.99557	14875.9125
2613.66449	14911.7125
2616.33175	14884.4125
2618.99734	14923.0125
2621.66128	14939.7125
2624.32355	14901.7125
2626.98416	14928.3125
2629.64311	14932.2125
2632.30041	14904.4125
2634.95605	14903.7125
2637.61004	14876.3125
2640.26238	14857.6125
2642.91306	14812.6125
2645.56209	14823.6125
2648.20948	14805.3125
2650.85521	14799.0125
2653.4993	14805.2125
2656.14175	14802.7125
2658.78255	14833.6125
2661.42171	14821.2125
2664.05923	14843.8125
2666.6951	14862.6125
2669.32934	14911.1125
2671.96194	14907.5125
2674.59291	14903.7125
2677.22224	14903.1125
2679.84993	14925.7125
2682.476	14889.9125
2685.10043	14884.6125
2687.72324	14828.0125
2690.34441	14846.5125
2692.96396	14836.1125
2695.58188	14824.6125
2698.19818	14807.2125
2700.81285	14843.2125
2703.4259	14833.7125
2706.03733	14866.8125
2708.64714	14840.5125
2711.25533	14819.5125
2713.86191	14822.9125
2716.46687	14835.7125
2719.07021	14839.9125
2721.67194	14896.3125
2724.27206	14885.8125
2726.87057	14870.0125
2729.46747	14905.0125
2732.06276	14952.2125
2734.65644	14901.0125
2737.24852	14901.9125
2739.83899	14878.6125
2742.42786	14923.0125
2745.01513	14872.8125
2747.60079	14870.0125
2750.18486	14872.5125
2752.76733	14884.8125
2755.3482	14872.3125
2757.92747	14875.9125
2760.50515	14843.8125
2763.08123	14864.2125
2765.65573	14829.4125
2768.22863	14831.3125
2770.79994	14826.3125
2773.36967	14822.2125
2775.9378	14850.9125
2778.50435	14820.9125
2781.06932	14849.9125
2783.6327	14866.0125
2786.1945	14834.2125
2788.75471	14834.9125
2791.31335	14812.1125
2793.87041	14791.8125
2796.42589	14795.9125
2798.97979	14792.5125
2801.53212	14763.9125
2804.08288	14757.9125
2806.63206	14691.8125
2809.17967	14691.2125
2811.72571	14646.3125
2814.27018	14620.9125
2816.81308	14600.8125
2819.35442	14583.4125
2821.89419	14548.5125
2824.43239	14562.6125
2826.96904	14555.8125
2829.50412	14567.7125
2832.03763	14516.4125
2834.56959	14504.8125
2837.1	14463.2125
2839.62884	14504.5125
2842.15613	14495.7125
2844.68186	14477.9125
2847.20604	14474.3125
2849.72867	14504.2125
2852.24974	14478.2125
2854.76927	14448.0125
2857.28724	14438.0125
2859.80367	14417.0125
2862.31855	14402.9125
2864.83189	14360.9125
2867.34368	14371.7125
2869.85393	14370.7125
2872.36264	14357.6125
2874.8698	14344.3125
2877.37543	14389.7125
2879.87952	14384.4125
2882.38207	14388.5125
2884.88308	14363.9125
2887.38256	14376.2125
2889.88051	14398.8125
2892.37692	14374.9125
2894.8718	14400.0125
2897.36515	14409.3125
2899.85698	14440.0125
2902.34727	14458.0125
2904.83604	14441.2125
2907.32328	14504.2125
2909.809	14502.4125
2912.29319	14513.3125
2914.77587	14508.3125
2917.25702	14479.4125
2919.73665	14466.6125
2922.21476	14487.2125
2924.69136	14447.5125
2927.16644	14443.6125
2929.64	14424.9125
2932.11205	14387.0125
2934.58258	14316.9125
2937.05161	14346.0125
2939.51912	14369.2125
2941.98513	14332.6125
2944.44962	14290.7125
2946.91261	14279.6125
2949.37409	14276.9125
2951.83407	14279.5125
2954.29254	14284.3125
2956.74951	14271.4125
2959.20498	14245.9125
2961.65895	14242.4125
2964.11142	14230.4125
2966.56239	14234.7125
2969.01186	14201.7125
2971.45984	14148.8125
2973.90632	14163.6125
2976.35131	14124.7125
2978.7948	14089.1125
2981.23681	14088.7125
2983.67732	14028.3125
2986.11635	13978.3125
2988.55388	13966.6125
2990.98993	13913.5125
2993.4245	13898.6125
2995.85758	13852.9125
2998.28917	13812.0125
3000.71928	13808.6125
3003.14791	13758.6125
3005.57506	13759.5125
3008.00073	13704.4125
3010.42493	13571.7125
3012.84764	13644.0125
3015.26888	13620.6125
3017.68865	13580.7125
3020.10694	13618.2125
3022.52376	13546.7125
3024.9391	13557.0125
