Data from AgNP_FTO_APTES_UA_10uM_CRN_0uM_R6G_10uM_NaF_0.1M_Addition_RamanShift__20__12-31-40-462.txt Node

Date: Thu Feb 10 12:31:40 GMT 2022
User: TCL
Spectrometer: QEP01345
Trigger mode: 4
Integration Time (sec): 7.000000E0
Scans to average: 10
Electric dark correction enabled: true
Nonlinearity correction enabled: false
Boxcar width: 0
XAxis mode: Raman Shifts
Number of Pixels in Spectrum: 1044
>>>>>Begin Spectral Data<<<<<
46.04893	-0.1125
50.45542	0.2875
54.85868	-2.1125
59.25871	-1.7125
63.6555	62.0875
68.04907	67.0875
72.43941	69.2875
76.82654	69.1875
81.21044	74.3875
85.59113	73.6875
89.96862	77.8875
94.34289	81.5875
98.71396	82.6875
103.08183	83.6875
107.4465	88.2875
111.80798	87.7875
116.16626	93.2875
120.52136	97.0875
124.87327	102.2875
129.222	105.4875
133.56755	111.7875
137.90993	121.8875
142.24913	129.6875
146.58517	144.9875
150.91804	171.8875
155.24774	203.0875
159.57429	250.2875
163.89768	325.8875
168.21792	435.7875
172.53501	596.0875
176.84895	833.4875
181.15975	1173.2875
185.46741	1645.6875
189.77193	2263.7875
194.07331	3032.5875
198.37157	3902.3875
202.6667	4837.1875
206.9587	5747.9875
211.24758	6658.5875
215.53334	7573.1875
219.81599	8588.6875
224.09553	9697.7875
228.37195	10932.1875
232.64527	12290.1875
236.91549	13683.9875
241.18261	15023.3875
245.44663	16208.3875
249.70755	17236.7875
253.96539	18103.1875
258.22014	18854.4875
262.4718	19526.3875
266.72039	20029.0875
270.96589	20259.8875
275.20832	20264.7875
279.44768	20117.7875
283.68397	19910.7875
287.91719	19722.2875
292.14735	19686.7875
296.37445	19781.0875
300.59849	20051.1875
304.81948	20377.9875
309.03742	20586.3875
313.25231	20420.9875
317.46415	19746.8875
321.67296	18808.1875
325.87872	17996.4875
330.08145	17621.0875
334.28114	17619.8875
338.47781	17795.1875
342.67145	18096.0875
346.86207	18561.3875
351.04966	19206.3875
355.23424	20002.1875
359.4158	20625.9875
363.59435	21014.3875
367.76989	21206.7875
371.94243	21240.5875
376.11196	21274.3875
380.27849	21311.9875
384.44203	21309.0875
388.60257	21351.7875
392.76012	21397.8875
396.91468	21600.2875
401.06626	22119.6875
405.21485	22443.9875
409.36047	22213.0875
413.50311	21565.5875
417.64277	21051.1875
421.77947	20806.3875
425.9132	20763.7875
430.04396	20872.8875
434.17176	20924.7875
438.2966	21098.8875
442.41849	21573.0875
446.53742	22190.8875
450.6534	22850.8875
454.76644	23366.4875
458.87653	23445.4875
462.98368	23262.9875
467.08789	22862.5875
471.18916	22341.3875
475.2875	21902.8875
479.38291	21632.2875
483.4754	21445.8875
487.56496	21241.8875
491.6516	20980.1875
495.73531	20781.5875
499.81612	20682.2875
503.89401	20772.0875
507.96899	20910.4875
512.04106	20958.5875
516.11023	21007.6875
520.1765	20977.5875
524.23987	20859.5875
528.30034	20577.8875
532.35792	20327.0875
536.41261	19935.0875
540.46441	19498.6875
544.51333	19399.5875
548.55936	19601.5875
552.60252	20063.8875
556.64279	20562.2875
560.6802	20837.5875
564.71473	21038.8875
568.7464	21562.4875
572.7752	22196.7875
576.80114	22317.5875
580.82422	22348.1875
584.84444	22507.4875
588.86181	22773.1875
592.87633	23058.4875
596.888	23355.2875
600.89682	23605.1875
604.9028	24910.5875
608.90594	28733.3875
612.90624	33494.2875
616.90371	31864.5875
620.89834	24662.1875
624.89015	21419.5875
628.87913	21010.2875
632.86528	20977.7875
636.84862	20865.1875
640.82913	20421.1875
644.80683	19666.7875
648.78172	19106.1875
652.75379	19004.6875
656.72306	19398.8875
660.68952	20023.2875
664.65319	19969.2875
668.61405	19421.2875
672.57211	19088.2875
676.52738	19076.2875
680.47986	19052.4875
684.42955	18960.6875
688.37646	18887.6875
692.32058	18946.8875
696.26192	19142.8875
700.20048	19392.5875
704.13626	19573.6875
708.06928	19512.6875
711.99952	19334.0875
715.927	19220.7875
719.85171	19217.1875
723.77365	19137.5875
727.69284	18912.3875
731.60928	18686.8875
735.52295	18645.5875
739.43388	18729.5875
743.34206	18868.1875
747.24749	18954.8875
751.15017	19130.0875
755.05012	19504.9875
758.94733	20215.7875
762.8418	21650.5875
766.73354	24136.0875
770.62254	26759.7875
774.50882	27792.8875
778.39237	26460.3875
782.27321	23780.7875
786.15132	21372.7875
790.02671	19920.5875
793.89938	19219.3875
797.76935	18955.7875
801.6366	18883.3875
805.50115	18790.9875
809.36299	18620.9875
813.22213	18434.4875
817.07857	18306.2875
820.93231	18302.6875
824.78336	18271.3875
828.63172	18276.9875
832.47738	18370.0875
836.32036	18384.7875
840.16066	18475.7875
843.99827	18559.0875
847.8332	18525.3875
851.66546	18390.3875
855.49504	18355.9875
859.32195	18314.3875
863.1462	18187.9875
866.96777	18050.5875
870.78668	18024.7875
874.60293	18003.4875
878.41652	18002.6875
882.22745	18086.1875
886.03573	18172.9875
889.84136	18185.3875
893.64433	18094.4875
897.44466	18073.1875
901.24235	17984.8875
905.0374	17914.0875
908.8298	17852.0875
912.61957	17815.9875
916.40671	17961.7875
920.19121	18217.2875
923.97308	18566.1875
927.75233	18831.0875
931.52895	18933.0875
935.30295	18706.3875
939.07433	18131.3875
942.84309	17708.0875
946.60924	17504.1875
950.37278	17406.2875
954.13371	17286.2875
957.89203	17129.9875
961.64774	17067.9875
965.40086	16967.2875
969.15137	16887.2875
972.89929	16828.7875
976.64461	16778.7875
980.38733	16829.0875
984.12747	16912.8875
987.86502	17091.6875
991.59999	17425.2875
995.33237	17899.0875
999.06217	18683.9875
1002.78939	19643.7875
1006.51404	20214.5875
1010.23611	20468.7875
1013.95561	20618.8875
1017.67255	20620.3875
1021.38692	20334.0875
1025.09872	20118.4875
1028.80796	20408.2875
1032.51465	21287.4875
1036.21877	22071.6875
1039.92035	22127.1875
1043.61937	21583.7875
1047.31584	20769.4875
1051.00976	19875.3875
1054.70114	19400.3875
1058.38998	19238.9875
1062.07627	19204.0875
1065.76003	19200.4875
1069.44126	19285.6875
1073.11995	19544.0875
1076.79611	19799.0875
1080.46974	20031.4875
1084.14085	20313.3875
1087.80943	20715.5875
1091.47549	20901.3875
1095.13903	20701.4875
1098.80005	20200.8875
1102.45857	19652.5875
1106.11456	19281.0875
1109.76805	19299.7875
1113.41903	19459.0875
1117.06751	19736.6875
1120.71348	20164.9875
1124.35696	20637.8875
1127.99793	21103.6875
1131.63641	21234.1875
1135.2724	20881.6875
1138.90589	20392.6875
1142.5369	20053.3875
1146.16542	19818.7875
1149.79145	19671.9875
1153.415	19717.3875
1157.03607	19933.8875
1160.65467	20436.9875
1164.27079	21297.8875
1167.88443	22561.2875
1171.49561	24398.4875
1175.10432	27075.4875
1178.71056	30493.0875
1182.31434	33643.4875
1185.91565	35292.8875
1189.51451	35140.8875
1193.11091	33443.8875
1196.70485	31042.8875
1200.29634	28835.6875
1203.88538	27129.1875
1207.47197	25811.1875
1211.05612	24810.4875
1214.63782	24262.8875
1218.21708	24200.5875
1221.79391	24466.2875
1225.36829	24744.6875
1228.94024	24732.1875
1232.50976	24395.6875
1236.07685	24029.3875
1239.6415	23704.3875
1243.20374	23496.5875
1246.76355	23440.8875
1250.32093	23728.3875
1253.8759	24350.4875
1257.42845	25281.9875
1260.97859	26204.6875
1264.52631	27111.7875
1268.07163	28091.2875
1271.61453	29201.8875
1275.15503	30303.1875
1278.69312	31361.2875
1282.22882	32160.3875
1285.76211	32882.1875
1289.29301	33511.6875
1292.82151	34285.1875
1296.34761	35378.9875
1299.87133	37143.9875
1303.39266	39786.8875
1306.9116	43415.5875
1310.42815	47473.5875
1313.94233	50300.4875
1317.45412	50373.8875
1320.96354	48464.7875
1324.47058	46017.8875
1327.97525	43848.2875
1331.47754	42383.5875
1334.97747	41560.4875
1338.47502	41344.5875
1341.97022	41504.1875
1345.46305	41460.5875
1348.95352	41323.6875
1352.44163	41647.7875
1355.92738	43254.2875
1359.41078	46677.8875
1362.89183	50288.9875
1366.37053	49739.9875
1369.84688	44380.6875
1373.32088	38294.0875
1376.79254	34055.0875
1380.26186	31949.5875
1383.72883	31016.7875
1387.19347	30337.1875
1390.65578	29712.9875
1394.11575	29564.7875
1397.57339	29860.6875
1401.0287	30586.3875
1404.48168	31336.1875
1407.93234	31793.2875
1411.38068	31773.3875
1414.82669	31353.8875
1418.27039	30380.3875
1421.71177	29252.8875
1425.15083	28234.1875
1428.58758	27595.0875
1432.02203	27541.2875
1435.45416	27835.3875
1438.88399	28262.6875
1442.31151	28589.3875
1445.73673	28926.7875
1449.15965	29337.4875
1452.58027	29603.5875
1455.9986	29613.7875
1459.41463	29824.9875
1462.82837	30351.3875
1466.23982	31005.2875
1469.64898	31613.5875
1473.05586	31956.7875
1476.46045	31993.2875
1479.86276	31958.1875
1483.26279	31985.7875
1486.66054	32268.9875
1490.05602	32765.5875
1493.44922	33503.7875
1496.84016	34322.3875
1500.22882	35547.7875
1503.61521	37357.3875
1506.99934	39851.2875
1510.38121	42328.8875
1513.76081	43381.9875
1517.13816	42025.6875
1520.51324	38868.7875
1523.88607	35641.2875
1527.25665	33381.9875
1530.62498	32015.8875
1533.99105	31145.0875
1537.35488	30634.5875
1540.71647	30227.4875
1544.07581	29941.5875
1547.4329	29588.4875
1550.78776	29334.4875
1554.14038	29127.3875
1557.49077	29189.0875
1560.83892	29269.4875
1564.18484	29459.2875
1567.52853	29529.5875
1570.86999	29629.3875
1574.20922	29764.3875
1577.54624	29901.5875
1580.88103	29409.7875
1584.2136	28905.2875
1587.54395	29274.6875
1590.87208	30713.4875
1594.19801	33079.1875
1597.52172	35823.3875
1600.84321	36890.5875
1604.16251	35428.0875
1607.47959	32500.8875
1610.79447	29308.7875
1614.10715	26429.4875
1617.41763	24192.6875
1620.7259	22729.8875
1624.03199	22060.0875
1627.33587	22108.7875
1630.63757	22959.2875
1633.93707	24608.5875
1637.23439	27011.7875
1640.52951	30123.1875
1643.82246	33461.5875
1647.11321	36267.4875
1650.40179	37211.7875
1653.68819	35132.7875
1656.97241	30586.3875
1660.25446	25706.5875
1663.53433	22128.7875
1666.81203	19880.0875
1670.08756	18532.1875
1673.36092	17733.2875
1676.63211	17193.2875
1679.90115	16808.7875
1683.16801	16541.3875
1686.43272	16342.0875
1689.69527	16188.7875
1692.95567	16085.6875
1696.2139	15996.1875
1699.46999	15958.5875
1702.72392	15920.1875
1705.97571	15884.4875
1709.22535	15851.5875
1712.47284	15783.8875
1715.71819	15788.7875
1718.96139	15740.6875
1722.20246	15701.3875
1725.44139	15611.7875
1728.67818	15519.2875
1731.91284	15366.5875
1735.14537	15307.6875
1738.37576	15268.1875
1741.60403	15191.6875
1744.83017	15122.1875
1748.05418	15081.0875
1751.27607	15067.3875
1754.49584	15021.9875
1757.71349	14979.7875
1760.92903	14975.6875
1764.14244	14987.2875
1767.35375	15003.2875
1770.56294	14942.7875
1773.77002	14905.0875
1776.97499	14890.3875
1780.17785	14866.3875
1783.37861	14838.7875
1786.57727	14822.3875
1789.77382	14798.1875
1792.96828	14752.4875
1796.16064	14758.3875
1799.3509	14731.3875
1802.53907	14702.8875
1805.72514	14674.2875
1808.90913	14590.8875
1812.09102	14596.5875
1815.27083	14590.2875
1818.44856	14546.7875
1821.6242	14517.3875
1824.79776	14512.0875
1827.96924	14484.7875
1831.13864	14489.6875
1834.30597	14488.2875
1837.47122	14500.9875
1840.6344	14522.9875
1843.7955	14526.0875
1846.95454	14534.5875
1850.11151	14534.8875
1853.26642	14565.9875
1856.41926	14561.9875
1859.57004	14578.0875
1862.71876	14606.3875
1865.86542	14572.3875
1869.01003	14593.1875
1872.15258	14622.2875
1875.29308	14623.5875
1878.43152	14640.8875
1881.56792	14660.7875
1884.70227	14658.9875
1887.83457	14687.9875
1890.96482	14648.0875
1894.09304	14632.3875
1897.21921	14683.5875
1900.34335	14693.4875
1903.46544	14681.6875
1906.58551	14685.3875
1909.70353	14710.1875
1912.81953	14694.3875
1915.93349	14671.3875
1919.04543	14646.6875
1922.15534	14597.0875
1925.26322	14487.7875
1928.36908	14433.5875
1931.47292	14379.8875
1934.57473	14313.5875
1937.67453	14232.1875
1940.77232	14194.6875
1943.86808	14082.5875
1946.96184	14015.9875
1950.05358	13925.8875
1953.14331	13890.2875
1956.23103	13798.7875
1959.31675	13759.1875
1962.40046	13748.1875
1965.48217	13699.8875
1968.56188	13632.9875
1971.63959	13620.4875
1974.7153	13551.5875
1977.78901	13535.5875
1980.86073	13477.6875
1983.93046	13403.9875
1986.99819	13385.5875
1990.06394	13373.2875
1993.1277	13311.5875
1996.18947	13255.8875
1999.24925	13199.1875
2002.30706	13149.8875
2005.36288	13149.2875
2008.41672	13113.8875
2011.46859	13069.5875
2014.51848	13055.9875
2017.56639	13040.7875
2020.61233	12974.4875
2023.6563	12962.2875
2026.6983	12919.7875
2029.73833	12898.5875
2032.7764	12863.4875
2035.8125	12878.9875
2038.84664	12869.8875
2041.87881	12850.8875
2044.90903	12815.0875
2047.93729	12785.7875
2050.96359	12793.3875
2053.98794	12770.4875
2057.01034	12746.5875
2060.03078	12720.2875
2063.04927	12717.9875
2066.06582	12733.1875
2069.08042	12701.2875
2072.09307	12726.9875
2075.10378	12683.4875
2078.11255	12644.2875
2081.11938	12692.0875
2084.12426	12632.0875
2087.12722	12616.2875
2090.12824	12601.4875
2093.12732	12584.8875
2096.12447	12591.9875
2099.11969	12621.9875
2102.11299	12618.8875
2105.10435	12602.8875
2108.09379	12592.2875
2111.08131	12626.0875
2114.0669	12624.2875
2117.05057	12612.2875
2120.03233	12614.4875
2123.01216	12656.6875
2125.99008	12662.4875
2128.96609	12671.3875
2131.94018	12657.5875
2134.91236	12667.2875
2137.88263	12674.1875
2140.851	12672.1875
2143.81746	12660.7875
2146.78201	12654.2875
2149.74466	12653.7875
2152.7054	12675.9875
2155.66425	12663.0875
2158.6212	12671.1875
2161.57625	12638.8875
2164.52941	12625.3875
2167.48067	12644.3875
2170.43004	12665.9875
2173.37752	12640.1875
2176.32311	12645.5875
2179.26681	12652.3875
2182.20863	12651.6875
2185.14856	12642.3875
2188.08661	12623.5875
2191.02278	12622.6875
2193.95707	12661.1875
2196.88948	12659.9875
2199.82001	12649.4875
2202.74867	12644.3875
2205.67545	12658.7875
2208.60037	12656.3875
2211.52341	12650.9875
2214.44458	12635.5875
2217.36388	12627.2875
2220.28132	12608.7875
2223.1969	12597.2875
2226.11061	12560.5875
2229.02246	12515.5875
2231.93245	12503.8875
2234.84058	12457.7875
2237.74686	12471.0875
2240.65128	12441.6875
2243.55385	12393.4875
2246.45456	12377.6875
2249.35343	12372.1875
2252.25044	12361.3875
2255.14561	12331.5875
2258.03893	12314.7875
2260.93041	12317.7875
2263.82004	12283.7875
2266.70783	12240.0875
2269.59378	12205.4875
2272.4779	12182.5875
2275.36017	12139.8875
2278.24061	12155.3875
2281.11922	12104.4875
2283.996	12099.0875
2286.87094	12090.1875
2289.74405	12074.7875
2292.61534	12060.9875
2295.4848	12057.9875
2298.35243	12094.2875
2301.21824	12097.6875
2304.08223	12115.0875
2306.94439	12103.7875
2309.80474	12109.9875
2312.66327	12133.4875
2315.51999	12152.5875
2318.37489	12150.9875
2321.22797	12123.3875
2324.07925	12131.5875
2326.92871	12106.5875
2329.77637	12087.7875
2332.62222	12117.5875
2335.46626	12107.7875
2338.3085	12110.3875
2341.14893	12130.7875
2343.98756	12179.9875
2346.8244	12150.9875
2349.65943	12195.4875
2352.49267	12187.8875
2355.32411	12169.6875
2358.15376	12162.6875
2360.98161	12177.1875
2363.80768	12158.9875
2366.63195	12128.3875
2369.45444	12088.1875
2372.27514	12085.4875
2375.09405	12044.0875
2377.91118	12000.2875
2380.72652	11959.2875
2383.54009	11927.1875
2386.35187	11903.9875
2389.16188	11877.5875
2391.97011	11852.4875
2394.77657	11814.7875
2397.58125	11825.3875
2400.38416	11779.2875
2403.18529	11782.4875
2405.98466	11754.3875
2408.78226	11690.4875
2411.57809	11667.1875
2414.37216	11667.7875
2417.16446	11635.0875
2419.955	11609.8875
2422.74378	11601.2875
2425.5308	11594.1875
2428.31606	11616.2875
2431.09956	11586.5875
2433.88131	11610.5875
2436.6613	11587.4875
2439.43954	11590.9875
2442.21603	11558.9875
2444.99077	11561.4875
2447.76377	11584.8875
2450.53501	11550.3875
2453.30451	11558.5875
2456.07226	11585.1875
2458.83827	11572.8875
2461.60254	11576.4875
2464.36507	11568.2875
2467.12586	11578.5875
2469.88492	11549.5875
2472.64224	11620.5875
2475.39782	11605.0875
2478.15167	11639.9875
2480.90379	11631.5875
2483.65417	11657.6875
2486.40283	11679.8875
2489.14976	11691.1875
2491.89497	11674.2875
2494.63845	11715.3875
2497.3802	11709.2875
2500.12024	11714.3875
2502.85855	11703.0875
2505.59514	11697.7875
2508.33002	11656.9875
2511.06318	11618.6875
2513.79462	11614.8875
2516.52435	11613.8875
2519.25237	11573.2875
2521.97867	11560.5875
2524.70327	11570.9875
2527.42616	11530.4875
2530.14734	11543.4875
2532.86681	11534.9875
2535.58458	11550.8875
2538.30065	11550.6875
2541.01501	11528.4875
2543.72768	11532.6875
2546.43864	11549.1875
2549.14791	11528.7875
2551.85548	11549.9875
2554.56136	11536.1875
2557.26554	11492.8875
2559.96803	11483.0875
2562.66883	11489.6875
2565.36794	11480.8875
2568.06536	11464.9875
2570.7611	11456.9875
2573.45514	11442.9875
2576.14751	11411.6875
2578.83819	11416.6875
2581.52719	11427.4875
2584.21451	11425.4875
2586.90015	11446.4875
2589.58411	11436.3875
2592.2664	11432.2875
2594.94701	11441.5875
2597.62594	11456.0875
2600.30321	11412.6875
2602.9788	11437.2875
2605.65273	11411.0875
2608.32498	11429.1875
2610.99557	11421.5875
2613.66449	11420.1875
2616.33175	11421.8875
2618.99734	11434.6875
2621.66128	11421.1875
2624.32355	11448.6875
2626.98416	11471.3875
2629.64311	11453.1875
2632.30041	11477.2875
2634.95605	11430.3875
2637.61004	11421.0875
2640.26238	11405.5875
2642.91306	11400.4875
2645.56209	11376.2875
2648.20948	11348.9875
2650.85521	11318.8875
2653.4993	11372.4875
2656.14175	11329.2875
2658.78255	11362.2875
2661.42171	11345.8875
2664.05923	11367.6875
2666.6951	11406.2875
2669.32934	11411.8875
2671.96194	11389.6875
2674.59291	11428.5875
2677.22224	11412.4875
2679.84993	11406.8875
2682.476	11369.4875
2685.10043	11378.6875
2687.72324	11338.5875
2690.34441	11341.3875
2692.96396	11285.7875
2695.58188	11318.0875
2698.19818	11290.1875
2700.81285	11275.2875
2703.4259	11276.7875
2706.03733	11308.7875
2708.64714	11273.6875
2711.25533	11302.1875
2713.86191	11292.9875
2716.46687	11292.3875
2719.07021	11310.4875
2721.67194	11345.9875
2724.27206	11381.2875
2726.87057	11358.4875
2729.46747	11375.5875
2732.06276	11372.1875
2734.65644	11373.3875
2737.24852	11378.7875
2739.83899	11372.7875
2742.42786	11355.9875
2745.01513	11317.2875
2747.60079	11316.9875
2750.18486	11309.3875
2752.76733	11276.9875
2755.3482	11292.9875
2757.92747	11264.0875
2760.50515	11261.7875
2763.08123	11279.9875
2765.65573	11249.0875
2768.22863	11261.1875
2770.79994	11277.3875
2773.36967	11269.3875
2775.9378	11254.5875
2778.50435	11278.8875
2781.06932	11266.4875
2783.6327	11246.4875
2786.1945	11274.0875
2788.75471	11265.5875
2791.31335	11241.1875
2793.87041	11245.0875
2796.42589	11225.8875
2798.97979	11211.7875
2801.53212	11206.2875
2804.08288	11190.0875
2806.63206	11140.2875
2809.17967	11126.8875
2811.72571	11138.4875
2814.27018	11121.5875
2816.81308	11120.9875
2819.35442	11102.0875
2821.89419	11075.3875
2824.43239	11108.2875
2826.96904	11074.6875
2829.50412	11101.2875
2832.03763	11085.6875
2834.56959	11061.4875
2837.1	11080.8875
2839.62884	11066.6875
2842.15613	11087.2875
2844.68186	11106.2875
2847.20604	11109.8875
2849.72867	11152.7875
2852.24974	11129.5875
2854.76927	11126.3875
2857.28724	11103.4875
2859.80367	11107.3875
2862.31855	11100.7875
2864.83189	11094.3875
2867.34368	11093.4875
2869.85393	11089.4875
2872.36264	11083.2875
2874.8698	11078.9875
2877.37543	11082.0875
2879.87952	11086.8875
2882.38207	11077.8875
2884.88308	11090.4875
2887.38256	11081.7875
2889.88051	11074.3875
2892.37692	11095.3875
2894.8718	11097.3875
2897.36515	11126.7875
2899.85698	11120.8875
2902.34727	11137.7875
2904.83604	11139.4875
2907.32328	11179.9875
2909.809	11187.0875
2912.29319	11154.0875
2914.77587	11165.0875
2917.25702	11142.9875
2919.73665	11149.6875
2922.21476	11173.2875
2924.69136	11146.4875
2927.16644	11152.8875
2929.64	11091.5875
2932.11205	11054.7875
2934.58258	10999.5875
2937.05161	11014.8875
2939.51912	11029.6875
2941.98513	11038.0875
2944.44962	10982.4875
2946.91261	10953.3875
2949.37409	10936.1875
2951.83407	10944.8875
2954.29254	10941.8875
2956.74951	10907.7875
2959.20498	10909.8875
2961.65895	10906.8875
2964.11142	10913.3875
2966.56239	10878.7875
2969.01186	10844.7875
2971.45984	10805.8875
2973.90632	10778.3875
2976.35131	10775.5875
2978.7948	10716.9875
2981.23681	10684.0875
2983.67732	10675.0875
2986.11635	10654.7875
2988.55388	10616.6875
2990.98993	10589.4875
2993.4245	10580.2875
2995.85758	10544.2875
2998.28917	10530.8875
3000.71928	10521.1875
3003.14791	10507.9875
3005.57506	10508.7875
3008.00073	10469.9875
3010.42493	10465.9875
3012.84764	10414.5875
3015.26888	10391.5875
3017.68865	10372.9875
3020.10694	10356.7875
3022.52376	10346.7875
3024.9391	10342.7875
