Data from AgNP_FTO_APTES_UA_10uM_CRN_2uM_R6G_10uM_NaF_0.1M_Addition_RamanShift__28__14-29-30-614.txt Node

Date: Thu Feb 10 14:29:30 GMT 2022
User: TCL
Spectrometer: QEP01345
Trigger mode: 4
Integration Time (sec): 7.000000E0
Scans to average: 10
Electric dark correction enabled: true
Nonlinearity correction enabled: false
Boxcar width: 0
XAxis mode: Raman Shifts
Number of Pixels in Spectrum: 1044
>>>>>Begin Spectral Data<<<<<
46.04893	-0.975
50.45542	-0.275
54.85868	-2.275
59.25871	-0.775
63.6555	60.925
68.04907	62.825
72.43941	65.525
76.82654	67.425
81.21044	72.425
85.59113	72.925
89.96862	76.925
94.34289	81.525
98.71396	80.825
103.08183	87.425
107.4465	87.825
111.80798	88.925
116.16626	93.825
120.52136	91.725
124.87327	101.125
129.222	98.725
133.56755	108.725
137.90993	115.225
142.24913	118.825
146.58517	133.325
150.91804	158.325
155.24774	186.025
159.57429	232.425
163.89768	290.325
168.21792	381.025
172.53501	523.425
176.84895	726.225
181.15975	1011.525
185.46741	1407.725
189.77193	1940.925
194.07331	2588.725
198.37157	3335.425
202.6667	4121.225
206.9587	4891.525
211.24758	5667.125
215.53334	6458.125
219.81599	7346.825
224.09553	8332.625
228.37195	9420.925
232.64527	10612.625
236.91549	11838.925
241.18261	12977.925
245.44663	13952.225
249.70755	14772.025
253.96539	15499.325
258.22014	16160.825
262.4718	16700.925
266.72039	17148.625
270.96589	17421.325
275.20832	17493.625
279.44768	17437.725
283.68397	17313.225
287.91719	17219.725
292.14735	17270.625
296.37445	17490.025
300.59849	17847.825
304.81948	18248.525
309.03742	18514.925
313.25231	18329.325
317.46415	17483.925
321.67296	16390.125
325.87872	15501.825
330.08145	15051.825
334.28114	15006.725
338.47781	15244.025
342.67145	15598.825
346.86207	16151.725
351.04966	16893.825
355.23424	17782.725
359.4158	18437.525
363.59435	18717.325
367.76989	18817.725
371.94243	18839.025
376.11196	18748.425
380.27849	18670.625
384.44203	18539.425
388.60257	18446.125
392.76012	18453.325
396.91468	18654.725
401.06626	19093.025
405.21485	19483.725
409.36047	19208.425
413.50311	18450.625
417.64277	17746.325
421.77947	17425.225
425.9132	17346.725
430.04396	17371.625
434.17176	17482.625
438.2966	17662.825
442.41849	18065.725
446.53742	18595.125
450.6534	19251.125
454.76644	19645.625
458.87653	19761.225
462.98368	19617.125
467.08789	19372.225
471.18916	18965.125
475.2875	18568.725
479.38291	18310.425
483.4754	18060.925
487.56496	17749.125
491.6516	17461.825
495.73531	17193.625
499.81612	17150.625
503.89401	17301.925
507.96899	17413.925
512.04106	17497.725
516.11023	17600.525
520.1765	17704.525
524.23987	17586.025
528.30034	17307.825
532.35792	16973.925
536.41261	16699.125
540.46441	16347.025
544.51333	16275.725
548.55936	16505.025
552.60252	16944.725
556.64279	17453.725
560.6802	17729.425
564.71473	18035.425
568.7464	18635.725
572.7752	19148.025
576.80114	18983.525
580.82422	18617.725
584.84444	18529.225
588.86181	18515.425
592.87633	18656.325
596.888	18930.525
600.89682	19439.525
604.9028	21151.925
608.90594	25580.625
612.90624	31040.425
616.90371	29184.225
620.89834	21394.725
624.89015	17997.425
628.87913	17454.225
632.86528	17495.625
636.84862	17518.625
640.82913	17112.125
644.80683	16393.525
648.78172	15896.725
652.75379	15918.125
656.72306	16443.325
660.68952	17129.425
664.65319	17003.625
668.61405	16377.025
672.57211	16034.225
676.52738	16025.325
680.47986	16012.825
684.42955	15901.625
688.37646	15842.425
692.32058	15945.925
696.26192	16132.025
700.20048	16332.325
704.13626	16535.625
708.06928	16503.525
711.99952	16360.625
715.927	16290.425
719.85171	16257.725
723.77365	16185.025
727.69284	15975.425
731.60928	15808.425
735.52295	15790.925
739.43388	15817.125
743.34206	15903.425
747.24749	16030.825
751.15017	16215.025
755.05012	16628.225
758.94733	17405.825
762.8418	19046.125
766.73354	21765.425
770.62254	24473.425
774.50882	25514.925
778.39237	24049.725
782.27321	21130.125
786.15132	18516.125
790.02671	17004.525
793.89938	16322.825
797.76935	16043.325
801.6366	15898.825
805.50115	15801.325
809.36299	15681.225
813.22213	15613.025
817.07857	15590.025
820.93231	15546.525
824.78336	15585.425
828.63172	15642.225
832.47738	15692.825
836.32036	15710.525
840.16066	15683.925
843.99827	15673.425
847.8332	15620.625
851.66546	15562.825
855.49504	15554.825
859.32195	15496.525
863.1462	15413.925
866.96777	15278.825
870.78668	15253.725
874.60293	15283.525
878.41652	15321.125
882.22745	15424.825
886.03573	15478.725
889.84136	15425.625
893.64433	15334.125
897.44466	15304.225
901.24235	15250.025
905.0374	15226.525
908.8298	15188.525
912.61957	15231.625
916.40671	15384.025
920.19121	15603.425
923.97308	15843.725
927.75233	15979.225
931.52895	16045.825
935.30295	15866.725
939.07433	15396.725
942.84309	15008.325
946.60924	14824.225
950.37278	14720.225
954.13371	14637.125
957.89203	14544.625
961.64774	14507.825
965.40086	14438.225
969.15137	14392.025
972.89929	14339.625
976.64461	14304.425
980.38733	14368.625
984.12747	14443.625
987.86502	14572.025
991.59999	14808.525
995.33237	15095.025
999.06217	15643.425
1002.78939	16303.325
1006.51404	16770.525
1010.23611	17097.925
1013.95561	17363.525
1017.67255	17276.725
1021.38692	17044.525
1025.09872	16873.225
1028.80796	17008.425
1032.51465	17512.425
1036.21877	17997.125
1039.92035	18025.625
1043.61937	17726.725
1047.31584	17202.625
1051.00976	16706.025
1054.70114	16471.725
1058.38998	16433.825
1062.07627	16487.625
1065.76003	16599.125
1069.44126	16673.825
1073.11995	16849.725
1076.79611	17061.225
1080.46974	17261.825
1084.14085	17541.825
1087.80943	17933.325
1091.47549	18076.325
1095.13903	17814.825
1098.80005	17337.425
1102.45857	16827.125
1106.11456	16591.325
1109.76805	16613.625
1113.41903	16853.225
1117.06751	17246.225
1120.71348	17759.525
1124.35696	18295.025
1127.99793	18813.425
1131.63641	18797.825
1135.2724	18273.125
1138.90589	17699.525
1142.5369	17320.525
1146.16542	17097.225
1149.79145	17063.525
1153.415	17138.325
1157.03607	17380.925
1160.65467	17819.925
1164.27079	18547.525
1167.88443	19611.625
1171.49561	21177.125
1175.10432	23600.725
1178.71056	26745.425
1182.31434	29295.925
1185.91565	30412.225
1189.51451	30142.125
1193.11091	28682.025
1196.70485	26653.425
1200.29634	24969.625
1203.88538	23577.125
1207.47197	22259.125
1211.05612	21224.225
1214.63782	20692.725
1218.21708	20583.925
1221.79391	20722.125
1225.36829	20856.825
1228.94024	20795.425
1232.50976	20638.925
1236.07685	20511.925
1239.6415	20438.025
1243.20374	20389.325
1246.76355	20466.925
1250.32093	20796.625
1253.8759	21339.625
1257.42845	22077.725
1260.97859	22790.625
1264.52631	23474.025
1268.07163	24152.325
1271.61453	24881.325
1275.15503	25591.125
1278.69312	26194.025
1282.22882	26713.325
1285.76211	27283.225
1289.29301	27945.425
1292.82151	28746.025
1296.34761	29732.025
1299.87133	31253.025
1303.39266	33583.825
1306.9116	36795.725
1310.42815	40555.225
1313.94233	43037.225
1317.45412	43025.025
1320.96354	41184.925
1324.47058	38973.325
1327.97525	36965.125
1331.47754	35687.325
1334.97747	35156.825
1338.47502	35314.925
1341.97022	35757.625
1345.46305	36128.325
1348.95352	36478.325
1352.44163	37147.825
1355.92738	38957.725
1359.41078	42678.825
1362.89183	46393.925
1366.37053	45291.425
1369.84688	39584.225
1373.32088	33674.125
1376.79254	29965.925
1380.26186	28213.125
1383.72883	27484.625
1387.19347	26944.925
1390.65578	26411.325
1394.11575	26117.525
1397.57339	26310.525
1401.0287	26775.625
1404.48168	27380.525
1407.93234	27903.325
1411.38068	28036.025
1414.82669	27668.725
1418.27039	26772.325
1421.71177	25748.425
1425.15083	24830.625
1428.58758	24268.925
1432.02203	24185.625
1435.45416	24418.425
1438.88399	24651.925
1442.31151	24871.925
1445.73673	25187.225
1449.15965	25485.225
1452.58027	25670.225
1455.9986	25709.925
1459.41463	25864.925
1462.82837	26211.425
1466.23982	26710.425
1469.64898	27267.025
1473.05586	27582.525
1476.46045	27722.825
1479.86276	27877.625
1483.26279	28143.825
1486.66054	28438.725
1490.05602	28965.525
1493.44922	29683.025
1496.84016	30626.925
1500.22882	32208.725
1503.61521	34372.325
1506.99934	37145.825
1510.38121	39924.725
1513.76081	41439.825
1517.13816	40341.525
1520.51324	36996.425
1523.88607	33410.325
1527.25665	30817.125
1530.62498	29270.725
1533.99105	28364.225
1537.35488	27816.725
1540.71647	27404.725
1544.07581	27065.625
1547.4329	26783.225
1550.78776	26554.525
1554.14038	26445.925
1557.49077	26523.025
1560.83892	26832.225
1564.18484	27132.225
1567.52853	27375.025
1570.86999	27482.725
1574.20922	27618.125
1577.54624	27542.325
1580.88103	26883.425
1584.2136	26073.725
1587.54395	26101.825
1590.87208	27127.825
1594.19801	29063.925
1597.52172	31263.425
1600.84321	32181.425
1604.16251	30933.325
1607.47959	28600.625
1610.79447	26001.425
1614.10715	23615.025
1617.41763	21733.425
1620.7259	20493.625
1624.03199	19901.725
1627.33587	19939.625
1630.63757	20622.825
1633.93707	21888.925
1637.23439	23790.725
1640.52951	26222.125
1643.82246	28995.325
1647.11321	31706.025
1650.40179	33119.525
1653.68819	31726.725
1656.97241	27670.025
1660.25446	23310.825
1663.53433	20067.725
1666.81203	18048.725
1670.08756	16833.325
1673.36092	16102.425
1676.63211	15609.925
1679.90115	15309.725
1683.16801	15002.925
1686.43272	14865.825
1689.69527	14766.525
1692.95567	14654.025
1696.2139	14567.125
1699.46999	14559.925
1702.72392	14499.125
1705.97571	14462.525
1709.22535	14429.625
1712.47284	14402.625
1715.71819	14414.825
1718.96139	14412.825
1722.20246	14356.525
1725.44139	14313.225
1728.67818	14199.825
1731.91284	14109.025
1735.14537	14038.225
1738.37576	13947.125
1741.60403	13927.525
1744.83017	13843.425
1748.05418	13837.825
1751.27607	13774.225
1754.49584	13810.925
1757.71349	13767.725
1760.92903	13765.725
1764.14244	13754.725
1767.35375	13745.225
1770.56294	13707.225
1773.77002	13673.925
1776.97499	13635.025
1780.17785	13606.325
1783.37861	13604.025
1786.57727	13566.725
1789.77382	13539.125
1792.96828	13538.225
1796.16064	13536.525
1799.3509	13512.925
1802.53907	13500.525
1805.72514	13452.225
1808.90913	13416.125
1812.09102	13398.525
1815.27083	13364.525
1818.44856	13316.625
1821.6242	13331.525
1824.79776	13319.025
1827.96924	13282.225
1831.13864	13262.225
1834.30597	13285.225
1837.47122	13269.325
1840.6344	13294.725
1843.7955	13315.925
1846.95454	13281.125
1850.11151	13276.225
1853.26642	13296.125
1856.41926	13290.825
1859.57004	13306.325
1862.71876	13331.525
1865.86542	13287.325
1869.01003	13304.625
1872.15258	13335.625
1875.29308	13315.625
1878.43152	13299.625
1881.56792	13341.325
1884.70227	13347.025
1887.83457	13375.525
1890.96482	13382.525
1894.09304	13382.025
1897.21921	13355.625
1900.34335	13364.025
1903.46544	13355.225
1906.58551	13379.925
1909.70353	13372.225
1912.81953	13376.625
1915.93349	13379.625
1919.04543	13365.125
1922.15534	13334.225
1925.26322	13300.125
1928.36908	13288.025
1931.47292	13279.425
1934.57473	13208.925
1937.67453	13153.825
1940.77232	13085.925
1943.86808	13035.825
1946.96184	12961.725
1950.05358	12905.625
1953.14331	12826.225
1956.23103	12804.925
1959.31675	12741.925
1962.40046	12726.425
1965.48217	12672.225
1968.56188	12646.225
1971.63959	12621.025
1974.7153	12586.425
1977.78901	12545.225
1980.86073	12470.625
1983.93046	12457.525
1986.99819	12399.625
1990.06394	12377.525
1993.1277	12340.725
1996.18947	12288.925
1999.24925	12253.825
2002.30706	12225.225
2005.36288	12174.625
2008.41672	12165.425
2011.46859	12107.925
2014.51848	12093.925
2017.56639	12056.125
2020.61233	12038.425
2023.6563	12013.825
2026.6983	12024.125
2029.73833	11970.725
2032.7764	11941.325
2035.8125	11950.925
2038.84664	11919.625
2041.87881	11873.825
2044.90903	11842.625
2047.93729	11845.825
2050.96359	11850.325
2053.98794	11812.525
2057.01034	11815.725
2060.03078	11786.125
2063.04927	11784.625
2066.06582	11804.525
2069.08042	11776.925
2072.09307	11760.325
2075.10378	11739.525
2078.11255	11731.725
2081.11938	11711.825
2084.12426	11693.625
2087.12722	11710.925
2090.12824	11698.425
2093.12732	11671.125
2096.12447	11693.225
2099.11969	11664.425
2102.11299	11672.825
2105.10435	11685.925
2108.09379	11688.125
2111.08131	11702.625
2114.0669	11698.725
2117.05057	11698.725
2120.03233	11714.825
2123.01216	11745.625
2125.99008	11738.325
2128.96609	11747.625
2131.94018	11751.425
2134.91236	11768.625
2137.88263	11748.225
2140.851	11784.725
2143.81746	11771.925
2146.78201	11793.125
2149.74466	11788.625
2152.7054	11788.425
2155.66425	11756.725
2158.6212	11761.325
2161.57625	11755.825
2164.52941	11775.725
2167.48067	11753.525
2170.43004	11754.125
2173.37752	11754.525
2176.32311	11760.225
2179.26681	11727.025
2182.20863	11725.425
2185.14856	11764.625
2188.08661	11757.225
2191.02278	11754.425
2193.95707	11756.525
2196.88948	11738.225
2199.82001	11755.025
2202.74867	11725.425
2205.67545	11725.925
2208.60037	11726.125
2211.52341	11708.625
2214.44458	11742.725
2217.36388	11700.925
2220.28132	11686.625
2223.1969	11620.625
2226.11061	11653.425
2229.02246	11618.825
2231.93245	11604.825
2234.84058	11532.925
2237.74686	11543.125
2240.65128	11552.725
2243.55385	11529.425
2246.45456	11516.225
2249.35343	11481.625
2252.25044	11486.025
2255.14561	11478.825
2258.03893	11491.725
2260.93041	11430.325
2263.82004	11411.725
2266.70783	11381.025
2269.59378	11330.425
2272.4779	11320.025
2275.36017	11301.125
2278.24061	11299.425
2281.11922	11273.825
2283.996	11252.125
2286.87094	11256.525
2289.74405	11254.525
2292.61534	11211.525
2295.4848	11205.525
2298.35243	11211.125
2301.21824	11231.225
2304.08223	11243.425
2306.94439	11230.825
2309.80474	11242.525
2312.66327	11241.025
2315.51999	11254.425
2318.37489	11245.425
2321.22797	11250.125
2324.07925	11237.325
2326.92871	11232.725
2329.77637	11211.825
2332.62222	11215.125
2335.46626	11211.825
2338.3085	11204.025
2341.14893	11235.325
2343.98756	11260.825
2346.8244	11284.825
2349.65943	11252.225
2352.49267	11239.025
2355.32411	11270.525
2358.15376	11263.425
2360.98161	11289.725
2363.80768	11275.025
2366.63195	11252.625
2369.45444	11216.725
2372.27514	11188.425
2375.09405	11192.725
2377.91118	11164.625
2380.72652	11130.825
2383.54009	11078.925
2386.35187	11056.625
2389.16188	11002.525
2391.97011	10957.525
2394.77657	10954.625
2397.58125	10939.925
2400.38416	10940.625
2403.18529	10924.825
2405.98466	10891.225
2408.78226	10868.725
2411.57809	10842.625
2414.37216	10834.625
2417.16446	10824.425
2419.955	10803.225
2422.74378	10788.525
2425.5308	10781.625
2428.31606	10774.925
2431.09956	10798.025
2433.88131	10784.625
2436.6613	10757.625
2439.43954	10751.825
2442.21603	10778.425
2444.99077	10765.525
2447.76377	10759.125
2450.53501	10739.725
2453.30451	10713.225
2456.07226	10733.025
2458.83827	10743.425
2461.60254	10736.925
2464.36507	10743.625
2467.12586	10721.825
2469.88492	10756.025
2472.64224	10754.625
2475.39782	10775.425
2478.15167	10769.225
2480.90379	10796.625
2483.65417	10830.125
2486.40283	10849.225
2489.14976	10857.925
2491.89497	10859.825
2494.63845	10874.025
2497.3802	10875.825
2500.12024	10854.725
2502.85855	10862.825
2505.59514	10846.825
2508.33002	10811.025
2511.06318	10786.125
2513.79462	10753.825
2516.52435	10738.025
2519.25237	10742.725
2521.97867	10694.825
2524.70327	10691.225
2527.42616	10697.525
2530.14734	10698.425
2532.86681	10670.125
2535.58458	10683.225
2538.30065	10689.025
2541.01501	10678.725
2543.72768	10666.225
2546.43864	10659.825
2549.14791	10662.825
2551.85548	10669.025
2554.56136	10647.725
2557.26554	10651.325
2559.96803	10623.225
2562.66883	10590.825
2565.36794	10587.025
2568.06536	10601.025
2570.7611	10569.025
2573.45514	10566.825
2576.14751	10557.625
2578.83819	10550.525
2581.52719	10587.225
2584.21451	10560.825
2586.90015	10569.325
2589.58411	10572.625
2592.2664	10551.225
2594.94701	10558.825
2597.62594	10548.625
2600.30321	10548.625
2602.9788	10547.025
2605.65273	10543.525
2608.32498	10568.125
2610.99557	10556.825
2613.66449	10575.425
2616.33175	10535.225
2618.99734	10577.425
2621.66128	10571.425
2624.32355	10572.925
2626.98416	10579.625
2629.64311	10570.225
2632.30041	10543.525
2634.95605	10546.625
2637.61004	10532.225
2640.26238	10526.925
2642.91306	10498.325
2645.56209	10509.025
2648.20948	10479.725
2650.85521	10460.025
2653.4993	10457.825
2656.14175	10466.325
2658.78255	10464.425
2661.42171	10470.325
2664.05923	10499.225
2666.6951	10519.625
2669.32934	10531.425
2671.96194	10527.225
2674.59291	10543.725
2677.22224	10543.725
2679.84993	10538.025
2682.476	10524.125
2685.10043	10526.425
2687.72324	10520.025
2690.34441	10517.725
2692.96396	10514.525
2695.58188	10529.525
2698.19818	10503.525
2700.81285	10496.425
2703.4259	10491.125
2706.03733	10520.825
2708.64714	10495.125
2711.25533	10515.225
2713.86191	10516.625
2716.46687	10533.925
2719.07021	10538.625
2721.67194	10558.925
2724.27206	10548.525
2726.87057	10536.825
2729.46747	10559.125
2732.06276	10557.825
2734.65644	10548.925
2737.24852	10554.425
2739.83899	10568.625
2742.42786	10543.625
2745.01513	10526.525
2747.60079	10514.825
2750.18486	10503.225
2752.76733	10499.325
2755.3482	10495.725
2757.92747	10500.625
2760.50515	10472.825
2763.08123	10487.325
2765.65573	10469.725
2768.22863	10462.525
2770.79994	10454.825
2773.36967	10472.425
2775.9378	10459.025
2778.50435	10457.425
2781.06932	10470.525
2783.6327	10460.725
2786.1945	10480.225
2788.75471	10458.125
2791.31335	10460.325
2793.87041	10428.525
2796.42589	10404.325
2798.97979	10403.625
2801.53212	10405.525
2804.08288	10397.725
2806.63206	10370.125
2809.17967	10372.925
2811.72571	10358.325
2814.27018	10344.325
2816.81308	10341.125
2819.35442	10335.225
2821.89419	10300.925
2824.43239	10318.425
2826.96904	10298.525
2829.50412	10321.125
2832.03763	10313.525
2834.56959	10342.725
2837.1	10334.825
2839.62884	10335.625
2842.15613	10357.225
2844.68186	10354.425
2847.20604	10394.525
2849.72867	10420.225
2852.24974	10418.825
2854.76927	10368.225
2857.28724	10369.625
2859.80367	10346.925
2862.31855	10310.225
2864.83189	10329.025
2867.34368	10302.525
2869.85393	10303.225
2872.36264	10316.125
2874.8698	10343.325
2877.37543	10320.325
2879.87952	10319.125
2882.38207	10318.125
2884.88308	10286.925
2887.38256	10316.025
2889.88051	10296.525
2892.37692	10311.125
2894.8718	10313.125
2897.36515	10328.125
2899.85698	10315.525
2902.34727	10355.725
2904.83604	10342.825
2907.32328	10380.925
2909.809	10382.725
2912.29319	10378.625
2914.77587	10380.925
2917.25702	10350.725
2919.73665	10314.925
2922.21476	10351.725
2924.69136	10349.425
2927.16644	10331.325
2929.64	10315.625
2932.11205	10283.425
2934.58258	10232.525
2937.05161	10257.625
2939.51912	10253.425
2941.98513	10209.325
2944.44962	10190.825
2946.91261	10156.425
2949.37409	10182.925
2951.83407	10160.125
2954.29254	10145.425
2956.74951	10117.325
2959.20498	10115.525
2961.65895	10109.125
2964.11142	10108.325
2966.56239	10081.025
2969.01186	10072.125
2971.45984	10070.625
2973.90632	10042.425
2976.35131	10024.425
2978.7948	9981.325
2981.23681	9941.825
2983.67732	9945.225
2986.11635	9908.225
2988.55388	9893.025
2990.98993	9864.025
2993.4245	9868.625
2995.85758	9848.125
2998.28917	9818.725
3000.71928	9789.025
3003.14791	9775.725
3005.57506	9776.725
3008.00073	9759.225
3010.42493	9589.925
3012.84764	9710.325
3015.26888	9698.325
3017.68865	9670.225
3020.10694	9671.225
3022.52376	9647.925
3024.9391	9606.525
3027.35298	9580.825
3029.76539	9604.025
3032.17632	9617.825
3034.5858	9576.525
3036.9938	9605.025
3039.40034	9584.725
3041.80542	9569.525
3044.20903	9557.025
3046.61118	9547.625
3049.01187	9515.725
3051.4111	9510.225
3053.80888	9490.725
3056.20519	9458.125
3058.60005	9428.025
3060.99345	9407.325
3063.3854	9402.825
3065.7759	9368.025
3068.16494	9352.725
3070.55254	9321.525
3072.93868	9287.225
3075.32338	9259.125
3077.70662	9242.825
3080.08842	9219.025
3082.46878	9210.725
3084.84769	9185.125
3087.22515	9217.625
3089.60118	9188.525
3091.97576	9181.225
3094.3489	9176.025
3096.72061	9170.825
3099.09087	9185.525
3101.4597	9152.925
3103.82709	9140.025
3106.19305	9149.425
3108.55757	9142.925
3110.92066	9120.725
3113.28232	9117.825
3115.64255	9068.625
3118.00134	9051.825
3120.35871	9033.525
3122.71466	9030.725
3125.06917	9023.225
3127.42226	9006.325
3129.77393	9014.825
3132.12417	9000.125
3134.47299	8964.025
3136.82039	9002.825
