Data from AgNP_FTO_APTES_UA_10uM_CRN_50uM_R6G_10uM_NaF_0.1M_Addition_RamanShift__18__17-03-30-805.txt Node

Date: Thu Feb 10 17:03:30 GMT 2022
User: TCL
Spectrometer: QEP01345
Trigger mode: 4
Integration Time (sec): 7.000000E0
Scans to average: 10
Electric dark correction enabled: true
Nonlinearity correction enabled: false
Boxcar width: 0
XAxis mode: Raman Shifts
Number of Pixels in Spectrum: 1044
>>>>>Begin Spectral Data<<<<<
46.04893	0.775
50.45542	-0.625
54.85868	-3.325
59.25871	-0.625
63.6555	57.175
68.04907	61.175
72.43941	68.775
76.82654	65.175
81.21044	70.275
85.59113	69.775
89.96862	73.775
94.34289	80.675
98.71396	80.575
103.08183	83.175
107.4465	86.175
111.80798	83.775
116.16626	88.575
120.52136	92.975
124.87327	94.275
129.222	97.475
133.56755	105.475
137.90993	109.675
142.24913	121.475
146.58517	133.275
150.91804	152.275
155.24774	181.275
159.57429	225.275
163.89768	282.475
168.21792	371.175
172.53501	505.475
176.84895	695.375
181.15975	994.975
185.46741	1379.175
189.77193	1921.175
194.07331	2562.475
198.37157	3294.475
202.6667	4070.475
206.9587	4827.475
211.24758	5568.475
215.53334	6337.975
219.81599	7115.775
224.09553	7985.775
228.37195	8907.975
232.64527	9951.275
236.91549	11093.075
241.18261	12196.375
245.44663	13295.775
249.70755	14311.875
253.96539	15187.175
258.22014	15967.475
262.4718	16585.275
266.72039	17035.875
270.96589	17338.575
275.20832	17399.975
279.44768	17386.975
283.68397	17282.075
287.91719	17152.675
292.14735	17086.675
296.37445	17050.775
300.59849	17069.175
304.81948	17022.075
309.03742	16879.175
313.25231	16617.275
317.46415	16282.675
321.67296	15886.975
325.87872	15587.675
330.08145	15505.975
334.28114	15497.975
338.47781	15625.275
342.67145	15790.175
346.86207	16025.075
351.04966	16219.975
355.23424	16496.275
359.4158	16697.175
363.59435	16857.275
367.76989	17016.675
371.94243	17143.475
376.11196	17223.275
380.27849	17340.575
384.44203	17419.075
388.60257	17580.875
392.76012	17765.375
396.91468	17949.175
401.06626	18171.975
405.21485	18346.075
409.36047	18323.075
413.50311	18146.275
417.64277	17984.675
421.77947	17966.375
425.9132	18005.275
430.04396	18129.075
434.17176	18218.275
438.2966	18355.775
442.41849	18600.175
446.53742	18962.475
450.6534	19343.575
454.76644	19747.575
458.87653	19901.075
462.98368	19892.475
467.08789	19828.575
471.18916	19706.575
475.2875	19609.575
479.38291	19604.775
483.4754	19488.675
487.56496	19232.175
491.6516	18905.875
495.73531	18666.075
499.81612	18547.975
503.89401	18611.175
507.96899	18677.375
512.04106	18620.675
516.11023	18539.475
520.1765	18422.875
524.23987	18246.575
528.30034	18141.075
532.35792	18059.875
536.41261	17917.875
540.46441	17837.375
544.51333	17904.875
548.55936	18104.675
552.60252	18468.075
556.64279	18775.175
560.6802	18939.175
564.71473	19029.975
568.7464	19176.375
572.7752	19470.375
576.80114	19726.175
580.82422	19984.975
584.84444	20154.875
588.86181	20271.775
592.87633	20345.175
596.888	20436.275
600.89682	20533.775
604.9028	21009.975
608.90594	22190.775
612.90624	23235.475
616.90371	22015.075
620.89834	19533.475
624.89015	18574.675
628.87913	18619.975
632.86528	18634.275
636.84862	18531.575
640.82913	18277.775
644.80683	17962.975
648.78172	17712.975
652.75379	17638.875
656.72306	17755.075
660.68952	17914.175
664.65319	17886.375
668.61405	17701.975
672.57211	17659.875
676.52738	17663.375
680.47986	17674.775
684.42955	17656.575
688.37646	17645.975
692.32058	17721.175
696.26192	17812.275
700.20048	17997.875
704.13626	18072.675
708.06928	18028.575
711.99952	17947.375
715.927	17903.875
719.85171	17902.975
723.77365	17878.775
727.69284	17755.675
731.60928	17660.675
735.52295	17569.475
739.43388	17546.175
743.34206	17590.175
747.24749	17664.975
751.15017	17789.175
755.05012	18010.175
758.94733	18375.775
762.8418	19069.875
766.73354	20082.975
770.62254	20977.075
774.50882	21121.475
778.39237	20334.775
782.27321	19231.275
786.15132	18359.675
790.02671	17817.675
793.89938	17574.175
797.76935	17481.975
801.6366	17460.975
805.50115	17437.475
809.36299	17350.175
813.22213	17273.475
817.07857	17204.475
820.93231	17187.475
824.78336	17144.275
828.63172	17114.975
832.47738	17117.775
836.32036	17129.575
840.16066	17191.275
843.99827	17263.475
847.8332	17238.575
851.66546	17156.875
855.49504	17136.175
859.32195	17161.375
863.1462	17147.375
866.96777	17087.575
870.78668	17040.975
874.60293	17039.775
878.41652	17018.175
882.22745	17049.775
886.03573	17059.275
889.84136	17059.075
893.64433	17016.275
897.44466	16929.275
901.24235	16910.775
905.0374	16853.475
908.8298	16863.175
912.61957	16924.775
916.40671	17049.275
920.19121	17241.375
923.97308	17377.175
927.75233	17336.775
931.52895	17272.075
935.30295	17131.575
939.07433	16911.775
942.84309	16706.875
946.60924	16625.875
950.37278	16589.775
954.13371	16497.475
957.89203	16456.175
961.64774	16435.075
965.40086	16373.775
969.15137	16341.275
972.89929	16286.275
976.64461	16230.575
980.38733	16252.875
984.12747	16315.675
987.86502	16442.475
991.59999	16571.875
995.33237	16815.275
999.06217	17197.075
1002.78939	17581.075
1006.51404	17725.475
1010.23611	17773.675
1013.95561	17851.975
1017.67255	17888.075
1021.38692	17759.775
1025.09872	17702.275
1028.80796	17866.075
1032.51465	18272.875
1036.21877	18727.175
1039.92035	18775.575
1043.61937	18546.075
1047.31584	18167.575
1051.00976	17850.675
1054.70114	17715.975
1058.38998	17732.675
1062.07627	17836.875
1065.76003	17905.975
1069.44126	17940.475
1073.11995	18055.175
1076.79611	18200.275
1080.46974	18262.875
1084.14085	18338.175
1087.80943	18471.375
1091.47549	18594.875
1095.13903	18583.275
1098.80005	18461.475
1102.45857	18185.275
1106.11456	18000.375
1109.76805	17983.475
1113.41903	17958.275
1117.06751	18050.375
1120.71348	18147.675
1124.35696	18241.475
1127.99793	18378.475
1131.63641	18497.075
1135.2724	18446.275
1138.90589	18369.575
1142.5369	18330.775
1146.16542	18360.075
1149.79145	18416.575
1153.415	18536.475
1157.03607	18775.075
1160.65467	19173.575
1164.27079	19803.375
1167.88443	20611.575
1171.49561	21555.675
1175.10432	22729.275
1178.71056	24168.875
1182.31434	25540.275
1185.91565	26371.975
1189.51451	26426.575
1193.11091	25878.475
1196.70485	24989.275
1200.29634	24134.075
1203.88538	23489.475
1207.47197	22998.875
1211.05612	22590.075
1214.63782	22215.775
1218.21708	21919.575
1221.79391	21672.275
1225.36829	21494.875
1228.94024	21252.975
1232.50976	20945.675
1236.07685	20653.175
1239.6415	20611.875
1243.20374	20633.775
1246.76355	20796.375
1250.32093	21052.775
1253.8759	21427.575
1257.42845	21892.075
1260.97859	22285.775
1264.52631	22684.675
1268.07163	23124.775
1271.61453	23673.475
1275.15503	24293.875
1278.69312	24958.975
1282.22882	25503.175
1285.76211	25940.675
1289.29301	26378.975
1292.82151	27103.975
1296.34761	28087.175
1299.87133	29385.475
1303.39266	30834.875
1306.9116	32346.575
1310.42815	33781.775
1313.94233	34670.175
1317.45412	34672.675
1320.96354	34172.075
1324.47058	33729.775
1327.97525	33347.775
1331.47754	33094.775
1334.97747	33030.675
1338.47502	33069.375
1341.97022	33204.175
1345.46305	32991.475
1348.95352	32553.875
1352.44163	32048.975
1355.92738	31977.675
1359.41078	32464.775
1362.89183	33013.775
1366.37053	32175.575
1369.84688	30070.075
1373.32088	27714.675
1376.79254	26113.675
1380.26186	25465.275
1383.72883	25420.875
1387.19347	25448.375
1390.65578	25390.475
1394.11575	25360.775
1397.57339	25564.575
1401.0287	25913.275
1404.48168	26209.875
1407.93234	26250.075
1411.38068	25872.975
1414.82669	25168.475
1418.27039	24305.875
1421.71177	23412.575
1425.15083	22688.375
1428.58758	22262.375
1432.02203	22216.375
1435.45416	22531.475
1438.88399	22993.175
1442.31151	23463.375
1445.73673	23863.175
1449.15965	24206.775
1452.58027	24507.875
1455.9986	24678.075
1459.41463	24925.275
1462.82837	25254.175
1466.23982	25670.575
1469.64898	26022.375
1473.05586	26210.375
1476.46045	26225.575
1479.86276	26083.975
1483.26279	25745.475
1486.66054	25502.175
1490.05602	25402.575
1493.44922	25411.275
1496.84016	25543.575
1500.22882	25867.275
1503.61521	26455.375
1506.99934	27231.875
1510.38121	27927.475
1513.76081	28145.375
1517.13816	27803.075
1520.51324	27152.675
1523.88607	26498.375
1527.25665	26164.175
1530.62498	26029.475
1533.99105	25973.475
1537.35488	25848.975
1540.71647	25565.175
1544.07581	25267.675
1547.4329	24780.175
1550.78776	24378.175
1554.14038	24159.375
1557.49077	24028.175
1560.83892	23966.675
1564.18484	23872.775
1567.52853	23876.775
1570.86999	23989.675
1574.20922	24217.375
1577.54624	24466.575
1580.88103	24565.175
1584.2136	24711.175
1587.54395	25147.975
1590.87208	25985.975
1594.19801	27218.275
1597.52172	28424.075
1600.84321	28798.775
1604.16251	27850.375
1607.47959	26229.075
1610.79447	24473.975
1614.10715	22824.475
1617.41763	21408.275
1620.7259	20477.675
1624.03199	19915.575
1627.33587	19833.775
1630.63757	20229.275
1633.93707	21122.075
1637.23439	22538.075
1640.52951	24517.275
1643.82246	26620.775
1647.11321	28226.375
1650.40179	28357.575
1653.68819	26952.275
1656.97241	24386.375
1660.25446	21764.775
1663.53433	19708.375
1666.81203	18276.175
1670.08756	17383.175
1673.36092	16735.175
1676.63211	16368.075
1679.90115	16060.975
1683.16801	15806.475
1686.43272	15668.475
1689.69527	15555.375
1692.95567	15465.875
1696.2139	15407.775
1699.46999	15371.975
1702.72392	15349.975
1705.97571	15275.375
1709.22535	15248.075
1712.47284	15171.575
1715.71819	15155.475
1718.96139	15104.475
1722.20246	15078.075
1725.44139	15015.375
1728.67818	14949.875
1731.91284	14888.475
1735.14537	14826.475
1738.37576	14760.175
1741.60403	14745.675
1744.83017	14689.175
1748.05418	14670.675
1751.27607	14670.175
1754.49584	14666.475
1757.71349	14644.975
1760.92903	14624.175
1764.14244	14571.475
1767.35375	14632.275
1770.56294	14576.375
1773.77002	14538.875
1776.97499	14519.475
1780.17785	14460.875
1783.37861	14450.475
1786.57727	14411.775
1789.77382	14393.075
1792.96828	14376.175
1796.16064	14363.075
1799.3509	14327.975
1802.53907	14286.375
1805.72514	14273.275
1808.90913	14222.575
1812.09102	14202.575
1815.27083	14191.875
1818.44856	14163.975
1821.6242	14147.175
1824.79776	14113.075
1827.96924	14094.175
1831.13864	14100.775
1834.30597	14133.275
1837.47122	14100.675
1840.6344	14059.275
1843.7955	14099.575
1846.95454	14036.875
1850.11151	14058.975
1853.26642	14062.975
1856.41926	14078.875
1859.57004	14074.575
1862.71876	14033.475
1865.86542	14026.375
1869.01003	14010.175
1872.15258	13977.975
1875.29308	14009.475
1878.43152	13987.575
1881.56792	13960.375
1884.70227	13941.775
1887.83457	13930.175
1890.96482	13926.275
1894.09304	13881.775
1897.21921	13858.075
1900.34335	13848.875
1903.46544	13837.775
1906.58551	13842.075
1909.70353	13791.875
1912.81953	13802.975
1915.93349	13786.375
1919.04543	13777.275
1922.15534	13738.975
1925.26322	13716.875
1928.36908	13699.575
1931.47292	13670.575
1934.57473	13636.575
1937.67453	13630.875
1940.77232	13611.875
1943.86808	13541.475
1946.96184	13481.775
1950.05358	13470.075
1953.14331	13445.775
1956.23103	13400.375
1959.31675	13349.575
1962.40046	13324.575
1965.48217	13256.775
1968.56188	13228.775
1971.63959	13163.375
1974.7153	13145.575
1977.78901	13123.475
1980.86073	13093.675
1983.93046	13075.975
1986.99819	13028.675
1990.06394	12987.075
1993.1277	12955.375
1996.18947	12921.075
1999.24925	12878.475
2002.30706	12825.875
2005.36288	12806.575
2008.41672	12781.175
2011.46859	12726.775
2014.51848	12707.275
2017.56639	12691.375
2020.61233	12657.275
2023.6563	12626.975
2026.6983	12612.775
2029.73833	12550.075
2032.7764	12553.475
2035.8125	12535.175
2038.84664	12483.075
2041.87881	12448.875
2044.90903	12428.675
2047.93729	12424.575
2050.96359	12407.075
2053.98794	12405.075
2057.01034	12392.875
2060.03078	12374.275
2063.04927	12377.175
2066.06582	12372.975
2069.08042	12380.375
2072.09307	12369.075
2075.10378	12319.875
2078.11255	12321.875
2081.11938	12322.675
2084.12426	12302.875
2087.12722	12319.075
2090.12824	12310.775
2093.12732	12281.675
2096.12447	12287.075
2099.11969	12271.575
2102.11299	12272.675
2105.10435	12320.575
2108.09379	12304.375
2111.08131	12315.175
2114.0669	12316.775
2117.05057	12325.975
2120.03233	12339.275
2123.01216	12332.975
2125.99008	12380.275
2128.96609	12375.275
2131.94018	12399.375
2134.91236	12411.575
2137.88263	12402.075
2140.851	12404.775
2143.81746	12442.075
2146.78201	12415.375
2149.74466	12453.075
2152.7054	12421.175
2155.66425	12402.275
2158.6212	12435.075
2161.57625	12400.275
2164.52941	12403.475
2167.48067	12394.175
2170.43004	12424.175
2173.37752	12392.775
2176.32311	12417.275
2179.26681	12396.375
2182.20863	12402.575
2185.14856	12409.175
2188.08661	12382.675
2191.02278	12399.275
2193.95707	12413.075
2196.88948	12402.375
2199.82001	12409.375
2202.74867	12383.975
2205.67545	12388.275
2208.60037	12345.475
2211.52341	12358.575
2214.44458	12354.575
2217.36388	12368.675
2220.28132	12329.375
2223.1969	12318.975
2226.11061	12293.475
2229.02246	12235.475
2231.93245	12255.275
2234.84058	12179.875
2237.74686	12188.475
2240.65128	12187.375
2243.55385	12137.875
2246.45456	12123.575
2249.35343	12128.275
2252.25044	12080.575
2255.14561	12074.175
2258.03893	12081.575
2260.93041	12023.475
2263.82004	11988.175
2266.70783	11970.575
2269.59378	11927.675
2272.4779	11970.175
2275.36017	11862.675
2278.24061	11850.075
2281.11922	11856.075
2283.996	11838.375
2286.87094	11852.575
2289.74405	11796.975
2292.61534	11817.875
2295.4848	11806.575
2298.35243	11804.975
2301.21824	11783.875
2304.08223	11802.275
2306.94439	11806.775
2309.80474	11816.475
2312.66327	11820.975
2315.51999	11811.975
2318.37489	11834.675
2321.22797	11786.775
2324.07925	11760.175
2326.92871	11735.275
2329.77637	11750.575
2332.62222	11722.775
2335.46626	11736.775
2338.3085	11723.975
2341.14893	11734.475
2343.98756	11747.475
2346.8244	11717.675
2349.65943	11719.275
2352.49267	11728.475
2355.32411	11720.675
2358.15376	11713.475
2360.98161	11694.175
2363.80768	11705.075
2366.63195	11679.675
2369.45444	11658.775
2372.27514	11610.475
2375.09405	11613.275
2377.91118	11591.575
2380.72652	11547.675
2383.54009	11515.775
2386.35187	11507.875
2389.16188	11463.875
2391.97011	11440.775
2394.77657	11445.575
2397.58125	11426.975
2400.38416	11428.975
2403.18529	11407.075
2405.98466	11396.175
2408.78226	11376.875
2411.57809	11357.675
2414.37216	11351.075
2417.16446	11330.275
2419.955	11330.175
2422.74378	11303.875
2425.5308	11306.875
2428.31606	11289.975
2431.09956	11299.275
2433.88131	11270.375
2436.6613	11275.775
2439.43954	11254.975
2442.21603	11255.975
2444.99077	11266.575
2447.76377	11255.275
2450.53501	11234.175
2453.30451	11225.275
2456.07226	11228.775
2458.83827	11210.975
2461.60254	11233.575
2464.36507	11213.975
2467.12586	11207.475
2469.88492	11191.775
2472.64224	11203.775
2475.39782	11215.475
2478.15167	11226.475
2480.90379	11202.375
2483.65417	11221.375
2486.40283	11245.075
2489.14976	11244.675
2491.89497	11215.075
2494.63845	11227.475
2497.3802	11220.575
2500.12024	11236.675
2502.85855	11215.575
2505.59514	11208.575
2508.33002	11189.175
2511.06318	11182.175
2513.79462	11171.575
2516.52435	11153.275
2519.25237	11145.975
2521.97867	11135.875
2524.70327	11146.075
2527.42616	11131.875
2530.14734	11134.775
2532.86681	11105.075
2535.58458	11139.675
2538.30065	11142.875
2541.01501	11122.675
2543.72768	11092.975
2546.43864	11095.075
2549.14791	11105.175
2551.85548	11075.675
2554.56136	11079.675
2557.26554	11025.475
2559.96803	11016.875
2562.66883	11017.775
2565.36794	10982.575
2568.06536	10969.175
2570.7611	10974.075
2573.45514	10957.775
2576.14751	10955.875
2578.83819	10949.575
2581.52719	10923.875
2584.21451	10905.075
2586.90015	10922.975
2589.58411	10892.275
2592.2664	10902.075
2594.94701	10899.175
2597.62594	10893.275
2600.30321	10858.975
2602.9788	10851.275
2605.65273	10826.575
2608.32498	10850.575
2610.99557	10817.375
2613.66449	10826.875
2616.33175	10831.375
2618.99734	10840.375
2621.66128	10854.975
2624.32355	10818.275
2626.98416	10841.975
2629.64311	10852.475
2632.30041	10828.875
2634.95605	10811.175
2637.61004	10799.975
2640.26238	10772.875
2642.91306	10782.475
2645.56209	10741.375
2648.20948	10774.475
2650.85521	10762.475
2653.4993	10766.375
2656.14175	10755.175
2658.78255	10742.775
2661.42171	10777.475
2664.05923	10784.275
2666.6951	10780.975
2669.32934	10775.775
2671.96194	10796.775
2674.59291	10789.975
2677.22224	10778.775
2679.84993	10784.075
2682.476	10765.975
2685.10043	10761.675
2687.72324	10721.975
2690.34441	10723.675
2692.96396	10711.675
2695.58188	10728.875
2698.19818	10707.475
2700.81285	10718.875
2703.4259	10731.175
2706.03733	10739.975
2708.64714	10727.975
2711.25533	10766.675
2713.86191	10738.375
2716.46687	10756.575
2719.07021	10756.575
2721.67194	10778.375
2724.27206	10787.875
2726.87057	10784.875
2729.46747	10776.375
2732.06276	10790.175
2734.65644	10789.475
2737.24852	10767.875
2739.83899	10754.275
2742.42786	10757.875
2745.01513	10721.375
2747.60079	10752.575
2750.18486	10723.575
2752.76733	10709.675
2755.3482	10707.075
2757.92747	10730.375
2760.50515	10683.275
2763.08123	10690.975
2765.65573	10667.375
2768.22863	10669.175
2770.79994	10665.675
2773.36967	10676.775
2775.9378	10672.975
2778.50435	10677.075
2781.06932	10718.375
2783.6327	10685.675
2786.1945	10670.475
2788.75471	10654.975
2791.31335	10655.875
2793.87041	10618.675
2796.42589	10603.275
2798.97979	10623.775
2801.53212	10583.975
2804.08288	10575.375
2806.63206	10560.975
2809.17967	10528.475
2811.72571	10492.675
2814.27018	10481.375
2816.81308	10476.675
2819.35442	10481.975
2821.89419	10429.475
2824.43239	10421.875
2826.96904	10420.475
2829.50412	10403.875
2832.03763	10378.475
2834.56959	10410.075
2837.1	10373.075
2839.62884	10391.975
2842.15613	10386.075
2844.68186	10411.775
2847.20604	10371.975
2849.72867	10414.975
2852.24974	10368.875
2854.76927	10381.875
2857.28724	10374.075
2859.80367	10325.575
2862.31855	10323.375
2864.83189	10304.575
2867.34368	10301.575
2869.85393	10307.775
2872.36264	10297.875
2874.8698	10276.875
2877.37543	10291.275
2879.87952	10278.875
2882.38207	10277.975
2884.88308	10285.675
2887.38256	10312.175
2889.88051	10307.675
2892.37692	10301.275
2894.8718	10290.975
2897.36515	10307.575
2899.85698	10330.975
2902.34727	10334.575
2904.83604	10354.175
2907.32328	10374.075
2909.809	10361.375
2912.29319	10368.075
2914.77587	10375.075
2917.25702	10362.875
2919.73665	10359.375
2922.21476	10366.875
2924.69136	10373.375
2927.16644	10358.375
2929.64	10329.675
2932.11205	10333.475
2934.58258	10292.975
2937.05161	10304.475
2939.51912	10312.075
2941.98513	10324.275
2944.44962	10296.675
2946.91261	10257.475
2949.37409	10273.175
2951.83407	10260.775
2954.29254	10240.975
2956.74951	10233.775
2959.20498	10229.875
2961.65895	10250.675
2964.11142	10251.875
2966.56239	10210.175
2969.01186	10255.775
2971.45984	10188.375
2973.90632	10227.375
2976.35131	10201.575
2978.7948	10178.975
2981.23681	10145.075
2983.67732	10167.175
2986.11635	10133.175
2988.55388	10101.175
2990.98993	10100.775
2993.4245	10064.775
2995.85758	10038.375
2998.28917	10010.075
3000.71928	10004.175
3003.14791	9989.175
3005.57506	9974.475
3008.00073	9971.075
3010.42493	9923.775
3012.84764	9930.775
3015.26888	9917.075
3017.68865	9881.275
3020.10694	9892.675
3022.52376	9875.375
3024.9391	9875.875
3027.35298	9826.575
3029.76539	9824.075
3032.17632	9861.075
3034.5858	9860.575
3036.9938	9833.075
3039.40034	9834.875
3041.80542	9836.275
3044.20903	9820.575
3046.61118	9821.175
3049.01187	9806.675
3051.4111	9793.575
3053.80888	9771.775
3056.20519	9758.975
3058.60005	9716.575
3060.99345	9716.275
3063.3854	9722.775
3065.7759	9686.175
3068.16494	9684.675
3070.55254	9646.775
3072.93868	9644.575
3075.32338	9606.375
3077.70662	9590.475
3080.08842	9593.675
3082.46878	9574.175
3084.84769	9587.075
3087.22515	9577.575
3089.60118	9566.775
3091.97576	9571.775
3094.3489	9559.675
3096.72061	9564.975
3099.09087	9572.075
3101.4597	9572.775
3103.82709	9567.075
3106.19305	9555.275
3108.55757	9576.175
3110.92066	9551.575
3113.28232	9540.175
3115.64255	9538.675
3118.00134	9525.075
3120.35871	9502.275
3122.71466	9455.175
3125.06917	9459.275
3127.42226	9456.075
3129.77393	9453.275
3132.12417	9438.975
3134.47299	9422.875
