Data from AgNP_FTO_APTES_UA_10uM_CRN_0uM_R6G_10uM_NaF_0.1M_Addition_RamanShift__26__12-38-40-471.txt Node

Date: Thu Feb 10 12:38:40 GMT 2022
User: TCL
Spectrometer: QEP01345
Trigger mode: 4
Integration Time (sec): 7.000000E0
Scans to average: 10
Electric dark correction enabled: true
Nonlinearity correction enabled: false
Boxcar width: 0
XAxis mode: Raman Shifts
Number of Pixels in Spectrum: 1044
>>>>>Begin Spectral Data<<<<<
46.04893	-0.625
50.45542	-0.225
54.85868	-1.825
59.25871	-0.625
63.6555	51.175
68.04907	51.975
72.43941	57.175
76.82654	54.575
81.21044	59.275
85.59113	59.175
89.96862	63.375
94.34289	67.075
98.71396	63.375
103.08183	71.775
107.4465	75.175
111.80798	67.975
116.16626	72.975
120.52136	77.175
124.87327	81.075
129.222	79.875
133.56755	88.375
137.90993	91.275
142.24913	98.275
146.58517	108.375
150.91804	122.975
155.24774	147.775
159.57429	178.975
163.89768	225.875
168.21792	298.575
172.53501	407.075
176.84895	564.175
181.15975	787.375
185.46741	1092.275
189.77193	1516.775
194.07331	2014.875
198.37157	2602.975
202.6667	3223.275
206.9587	3824.075
211.24758	4431.875
215.53334	5068.375
219.81599	5739.175
224.09553	6504.875
228.37195	7328.275
232.64527	8262.275
236.91549	9202.175
241.18261	10069.275
245.44663	10844.675
249.70755	11503.275
253.96539	12078.475
258.22014	12578.375
262.4718	12980.075
266.72039	13313.275
270.96589	13465.475
275.20832	13498.275
279.44768	13406.575
283.68397	13260.275
287.91719	13126.875
292.14735	13131.875
296.37445	13229.875
300.59849	13489.375
304.81948	13783.775
309.03742	14030.875
313.25231	13912.875
317.46415	13404.075
321.67296	12623.575
325.87872	11980.675
330.08145	11715.775
334.28114	11722.675
338.47781	11868.075
342.67145	12120.475
346.86207	12529.275
351.04966	13112.075
355.23424	13785.375
359.4158	14339.575
363.59435	14648.675
367.76989	14779.375
371.94243	14750.375
376.11196	14730.575
380.27849	14715.775
384.44203	14692.675
388.60257	14588.875
392.76012	14583.375
396.91468	14734.075
401.06626	15093.475
405.21485	15386.675
409.36047	15238.675
413.50311	14675.475
417.64277	14172.575
421.77947	13940.775
425.9132	13874.575
430.04396	13913.875
434.17176	14014.175
438.2966	14221.075
442.41849	14611.275
446.53742	15112.275
450.6534	15612.375
454.76644	15935.075
458.87653	16008.075
462.98368	15803.675
467.08789	15557.775
471.18916	15226.675
475.2875	14877.875
479.38291	14645.775
483.4754	14437.375
487.56496	14259.075
491.6516	14066.575
495.73531	13933.075
499.81612	13878.675
503.89401	13971.675
507.96899	14093.375
512.04106	14155.975
516.11023	14255.275
520.1765	14324.275
524.23987	14251.275
528.30034	14089.575
532.35792	13859.075
536.41261	13579.575
540.46441	13287.175
544.51333	13159.075
548.55936	13281.275
552.60252	13542.975
556.64279	13912.175
560.6802	14106.675
564.71473	14345.875
568.7464	14874.675
572.7752	15332.975
576.80114	15240.875
580.82422	15050.375
584.84444	15041.775
588.86181	15172.875
592.87633	15351.075
596.888	15594.675
600.89682	15943.575
604.9028	17069.075
608.90594	20171.175
612.90624	24189.675
616.90371	23125.875
620.89834	17465.875
624.89015	14790.575
628.87913	14358.575
632.86528	14354.975
636.84862	14414.575
640.82913	14104.575
644.80683	13524.175
648.78172	13130.275
652.75379	13116.475
656.72306	13476.675
660.68952	14054.975
664.65319	14023.375
668.61405	13518.975
672.57211	13268.575
676.52738	13238.575
680.47986	13207.375
684.42955	13129.175
688.37646	13103.175
692.32058	13150.375
696.26192	13292.775
700.20048	13446.175
704.13626	13580.375
708.06928	13579.675
711.99952	13461.875
715.927	13378.875
719.85171	13354.575
723.77365	13314.075
727.69284	13167.375
731.60928	13025.475
735.52295	13022.375
739.43388	13082.475
743.34206	13192.475
747.24749	13280.875
751.15017	13439.575
755.05012	13697.475
758.94733	14217.775
762.8418	15323.375
766.73354	17233.975
770.62254	19232.275
774.50882	20170.175
778.39237	19332.875
782.27321	17283.475
786.15132	15301.775
790.02671	14087.175
793.89938	13523.075
797.76935	13319.075
801.6366	13217.475
805.50115	13171.975
809.36299	13095.175
813.22213	13016.375
817.07857	12961.175
820.93231	12960.775
824.78336	12987.575
828.63172	13033.575
832.47738	13069.875
836.32036	13107.675
840.16066	13081.575
843.99827	13071.575
847.8332	13043.775
851.66546	12971.775
855.49504	12958.675
859.32195	12915.275
863.1462	12874.675
866.96777	12790.675
870.78668	12791.375
874.60293	12801.575
878.41652	12855.475
882.22745	12940.275
886.03573	13027.475
889.84136	12990.275
893.64433	12944.775
897.44466	12865.075
901.24235	12828.575
905.0374	12785.775
908.8298	12758.075
912.61957	12722.475
916.40671	12776.675
920.19121	12928.575
923.97308	13142.875
927.75233	13308.575
931.52895	13374.675
935.30295	13237.575
939.07433	12874.475
942.84309	12581.675
946.60924	12432.075
950.37278	12384.675
954.13371	12301.175
957.89203	12227.075
961.64774	12194.475
965.40086	12147.975
969.15137	12110.475
972.89929	12106.375
976.64461	12055.675
980.38733	12112.275
984.12747	12156.775
987.86502	12272.075
991.59999	12401.775
995.33237	12663.175
999.06217	13118.275
1002.78939	13652.775
1006.51404	14153.875
1010.23611	14426.475
1013.95561	14598.875
1017.67255	14668.175
1021.38692	14429.375
1025.09872	14188.475
1028.80796	14132.975
1032.51465	14370.975
1036.21877	14601.575
1039.92035	14666.375
1043.61937	14490.475
1047.31584	14152.075
1051.00976	13831.175
1054.70114	13650.175
1058.38998	13601.775
1062.07627	13624.875
1065.76003	13697.075
1069.44126	13809.475
1073.11995	14013.075
1076.79611	14196.375
1080.46974	14304.275
1084.14085	14552.375
1087.80943	14831.275
1091.47549	14959.675
1095.13903	14746.475
1098.80005	14330.175
1102.45857	13934.075
1106.11456	13734.975
1109.76805	13751.875
1113.41903	13935.775
1117.06751	14231.775
1120.71348	14635.075
1124.35696	15072.775
1127.99793	15491.275
1131.63641	15579.875
1135.2724	15178.875
1138.90589	14722.975
1142.5369	14421.475
1146.16542	14205.775
1149.79145	14111.975
1153.415	14123.075
1157.03607	14276.375
1160.65467	14553.475
1164.27079	15119.975
1167.88443	15898.275
1171.49561	17063.075
1175.10432	18956.175
1178.71056	21358.275
1182.31434	23499.775
1185.91565	24546.675
1189.51451	24464.075
1193.11091	23341.875
1196.70485	21679.975
1200.29634	20204.375
1203.88538	18976.075
1207.47197	17956.075
1211.05612	17191.775
1214.63782	16806.775
1218.21708	16794.375
1221.79391	17008.575
1225.36829	17217.875
1228.94024	17281.875
1232.50976	17266.575
1236.07685	17170.375
1239.6415	17015.375
1243.20374	16880.375
1246.76355	16822.175
1250.32093	16933.375
1253.8759	17299.975
1257.42845	17879.775
1260.97859	18491.075
1264.52631	19043.375
1268.07163	19627.475
1271.61453	20271.375
1275.15503	20840.675
1278.69312	21328.075
1282.22882	21786.975
1285.76211	22279.875
1289.29301	22938.275
1292.82151	23561.675
1296.34761	24280.875
1299.87133	25374.675
1303.39266	27018.075
1306.9116	29427.975
1310.42815	32261.975
1313.94233	34327.275
1317.45412	34443.275
1320.96354	33198.675
1324.47058	31507.475
1327.97525	29949.575
1331.47754	28798.375
1334.97747	28264.275
1338.47502	28271.975
1341.97022	28416.175
1345.46305	28592.275
1348.95352	28821.575
1352.44163	29524.375
1355.92738	30991.375
1359.41078	33718.675
1362.89183	36429.875
1366.37053	35979.175
1369.84688	32039.375
1373.32088	27674.375
1376.79254	24720.375
1380.26186	23238.075
1383.72883	22463.775
1387.19347	21859.775
1390.65578	21314.375
1394.11575	21131.275
1397.57339	21269.475
1401.0287	21716.175
1404.48168	22318.375
1407.93234	22801.575
1411.38068	22969.575
1414.82669	22752.675
1418.27039	21986.275
1421.71177	21197.075
1425.15083	20490.975
1428.58758	20097.675
1432.02203	20045.875
1435.45416	20171.775
1438.88399	20353.175
1442.31151	20423.975
1445.73673	20619.375
1449.15965	20835.675
1452.58027	20934.275
1455.9986	20868.875
1459.41463	20970.775
1462.82837	21274.175
1466.23982	21658.275
1469.64898	22040.575
1473.05586	22263.775
1476.46045	22301.775
1479.86276	22406.975
1483.26279	22573.775
1486.66054	22904.475
1490.05602	23399.475
1493.44922	23991.575
1496.84016	24689.775
1500.22882	25785.075
1503.61521	27310.875
1506.99934	29190.875
1510.38121	31116.875
1513.76081	32001.975
1517.13816	31053.575
1520.51324	28504.975
1523.88607	25858.275
1527.25665	24006.075
1530.62498	22917.175
1533.99105	22352.575
1537.35488	21924.675
1540.71647	21677.275
1544.07581	21557.675
1547.4329	21371.575
1550.78776	21203.175
1554.14038	21039.675
1557.49077	21042.575
1560.83892	21168.875
1564.18484	21361.675
1567.52853	21483.975
1570.86999	21589.575
1574.20922	21780.575
1577.54624	21749.975
1580.88103	21272.075
1584.2136	20677.575
1587.54395	20716.475
1590.87208	21613.975
1594.19801	23283.575
1597.52172	25159.675
1600.84321	26050.275
1604.16251	25286.175
1607.47959	23409.675
1610.79447	21184.775
1614.10715	19155.875
1617.41763	17633.375
1620.7259	16697.175
1624.03199	16271.775
1627.33587	16333.375
1630.63757	16886.675
1633.93707	17923.875
1637.23439	19523.575
1640.52951	21566.475
1643.82246	23786.775
1647.11321	25708.175
1650.40179	26532.575
1653.68819	25291.775
1656.97241	22194.375
1660.25446	18817.075
1663.53433	16410.775
1666.81203	14882.375
1670.08756	13967.575
1673.36092	13438.775
1676.63211	13082.775
1679.90115	12848.675
1683.16801	12635.475
1686.43272	12532.975
1689.69527	12435.775
1692.95567	12367.475
1696.2139	12327.475
1699.46999	12298.175
1702.72392	12251.675
1705.97571	12218.075
1709.22535	12224.275
1712.47284	12181.575
1715.71819	12191.675
1718.96139	12209.775
1722.20246	12144.675
1725.44139	12105.175
1728.67818	12016.475
1731.91284	11954.175
1735.14537	11884.375
1738.37576	11830.475
1741.60403	11791.675
1744.83017	11764.975
1748.05418	11721.575
1751.27607	11705.875
1754.49584	11675.775
1757.71349	11665.475
1760.92903	11639.275
1764.14244	11657.575
1767.35375	11659.275
1770.56294	11655.875
1773.77002	11619.575
1776.97499	11606.575
1780.17785	11575.475
1783.37861	11586.375
1786.57727	11566.875
1789.77382	11546.275
1792.96828	11531.675
1796.16064	11536.075
1799.3509	11515.575
1802.53907	11505.475
1805.72514	11465.375
1808.90913	11404.075
1812.09102	11409.975
1815.27083	11411.875
1818.44856	11397.375
1821.6242	11340.075
1824.79776	11345.475
1827.96924	11350.275
1831.13864	11347.375
1834.30597	11317.675
1837.47122	11329.675
1840.6344	11322.475
1843.7955	11337.875
1846.95454	11338.375
1850.11151	11333.975
1853.26642	11347.675
1856.41926	11380.275
1859.57004	11389.675
1862.71876	11400.975
1865.86542	11400.475
1869.01003	11410.075
1872.15258	11437.275
1875.29308	11445.275
1878.43152	11442.775
1881.56792	11464.375
1884.70227	11513.075
1887.83457	11496.175
1890.96482	11531.875
1894.09304	11498.875
1897.21921	11514.775
1900.34335	11539.275
1903.46544	11531.875
1906.58551	11547.075
1909.70353	11566.875
1912.81953	11584.375
1915.93349	11577.675
1919.04543	11569.575
1922.15534	11547.975
1925.26322	11486.575
1928.36908	11440.375
1931.47292	11402.675
1934.57473	11336.475
1937.67453	11269.775
1940.77232	11218.375
1943.86808	11149.175
1946.96184	11100.675
1950.05358	11048.875
1953.14331	11011.675
1956.23103	10946.775
1959.31675	10893.075
1962.40046	10879.675
1965.48217	10868.275
1968.56188	10806.975
1971.63959	10746.175
1974.7153	10735.275
1977.78901	10724.175
1980.86073	10618.575
1983.93046	10608.675
1986.99819	10612.075
1990.06394	10575.075
1993.1277	10561.575
1996.18947	10494.375
1999.24925	10454.675
2002.30706	10460.075
2005.36288	10408.175
2008.41672	10390.575
2011.46859	10364.375
2014.51848	10329.075
2017.56639	10331.975
2020.61233	10308.875
2023.6563	10268.275
2026.6983	10259.175
2029.73833	10202.275
2032.7764	10231.275
2035.8125	10183.975
2038.84664	10184.075
2041.87881	10187.575
2044.90903	10139.975
2047.93729	10132.975
2050.96359	10123.675
2053.98794	10102.875
2057.01034	10107.275
2060.03078	10082.375
2063.04927	10088.075
2066.06582	10059.175
2069.08042	10062.275
2072.09307	10072.075
2075.10378	10071.575
2078.11255	10038.975
2081.11938	10048.375
2084.12426	10025.275
2087.12722	10035.375
2090.12824	10027.275
2093.12732	10017.575
2096.12447	10011.375
2099.11969	10005.975
2102.11299	10022.275
2105.10435	10032.275
2108.09379	10016.275
2111.08131	10025.975
2114.0669	10022.775
2117.05057	10027.675
2120.03233	10020.075
2123.01216	10044.875
2125.99008	10072.475
2128.96609	10087.775
2131.94018	10063.675
2134.91236	10085.375
2137.88263	10086.775
2140.851	10071.475
2143.81746	10085.175
2146.78201	10066.575
2149.74466	10076.075
2152.7054	10078.675
2155.66425	10083.675
2158.6212	10054.475
2161.57625	10064.175
2164.52941	10068.975
2167.48067	10084.375
2170.43004	10065.575
2173.37752	10076.775
2176.32311	10044.575
2179.26681	10072.075
2182.20863	10049.775
2185.14856	10056.675
2188.08661	10044.875
2191.02278	10057.475
2193.95707	10060.875
2196.88948	10054.675
2199.82001	10055.475
2202.74867	10046.875
2205.67545	10052.275
2208.60037	10043.975
2211.52341	10027.975
2214.44458	10029.475
2217.36388	10007.575
2220.28132	9994.875
2223.1969	9975.775
2226.11061	9942.375
2229.02246	9942.375
2231.93245	9925.475
2234.84058	9883.675
2237.74686	9873.175
2240.65128	9889.275
2243.55385	9869.375
2246.45456	9838.475
2249.35343	9830.675
2252.25044	9849.275
2255.14561	9841.275
2258.03893	9822.875
2260.93041	9767.075
2263.82004	9777.375
2266.70783	9747.175
2269.59378	9718.375
2272.4779	9695.075
2275.36017	9660.475
2278.24061	9675.675
2281.11922	9657.075
2283.996	9659.075
2286.87094	9616.575
2289.74405	9601.875
2292.61534	9607.575
2295.4848	9596.675
2298.35243	9610.275
2301.21824	9608.775
2304.08223	9614.775
2306.94439	9623.575
2309.80474	9592.175
2312.66327	9606.775
2315.51999	9608.975
2318.37489	9614.575
2321.22797	9604.875
2324.07925	9567.875
2326.92871	9579.975
2329.77637	9571.575
2332.62222	9581.675
2335.46626	9562.375
2338.3085	9538.975
2341.14893	9571.275
2343.98756	9605.975
2346.8244	9556.175
2349.65943	9592.375
2352.49267	9589.175
2355.32411	9605.575
2358.15376	9578.075
2360.98161	9620.775
2363.80768	9582.275
2366.63195	9584.375
2369.45444	9572.975
2372.27514	9563.775
2375.09405	9530.075
2377.91118	9538.675
2380.72652	9464.375
2383.54009	9443.375
2386.35187	9425.875
2389.16188	9391.275
2391.97011	9376.375
2394.77657	9359.175
2397.58125	9357.975
2400.38416	9317.075
2403.18529	9325.575
2405.98466	9288.375
2408.78226	9298.575
2411.57809	9264.875
2414.37216	9230.475
2417.16446	9246.875
2419.955	9213.475
2422.74378	9219.475
2425.5308	9236.575
2428.31606	9219.575
2431.09956	9218.375
2433.88131	9220.775
2436.6613	9217.875
2439.43954	9186.175
2442.21603	9184.575
2444.99077	9201.875
2447.76377	9183.075
2450.53501	9180.175
2453.30451	9181.475
2456.07226	9163.475
2458.83827	9211.875
2461.60254	9177.675
2464.36507	9178.675
2467.12586	9172.375
2469.88492	9193.675
2472.64224	9189.975
2475.39782	9173.175
2478.15167	9206.475
2480.90379	9207.375
2483.65417	9224.475
2486.40283	9232.675
2489.14976	9241.175
2491.89497	9231.975
2494.63845	9249.775
2497.3802	9246.275
2500.12024	9244.075
2502.85855	9234.075
2505.59514	9219.875
2508.33002	9199.175
2511.06318	9201.975
2513.79462	9180.675
2516.52435	9152.975
2519.25237	9155.575
2521.97867	9128.975
2524.70327	9142.175
2527.42616	9111.575
2530.14734	9105.075
2532.86681	9119.475
2535.58458	9115.875
2538.30065	9115.675
2541.01501	9099.875
2543.72768	9100.075
2546.43864	9079.175
2549.14791	9110.275
2551.85548	9108.475
2554.56136	9083.675
2557.26554	9077.475
2559.96803	9046.375
2562.66883	9055.675
2565.36794	9045.475
2568.06536	9028.075
2570.7611	9018.275
2573.45514	8997.175
2576.14751	8982.975
2578.83819	8996.275
2581.52719	9006.275
2584.21451	8996.775
2586.90015	8992.075
2589.58411	8991.775
2592.2664	9003.775
2594.94701	8972.475
2597.62594	8999.475
2600.30321	8981.175
2602.9788	8976.375
2605.65273	8990.075
2608.32498	8980.175
2610.99557	8976.775
2613.66449	8971.475
2616.33175	8973.275
2618.99734	8976.275
2621.66128	8987.275
2624.32355	8955.475
2626.98416	8976.775
2629.64311	8974.475
2632.30041	8967.375
2634.95605	8941.575
2637.61004	8952.875
2640.26238	8956.875
2642.91306	8928.975
2645.56209	8933.375
2648.20948	8927.375
2650.85521	8905.075
2653.4993	8898.675
2656.14175	8919.775
2658.78255	8926.075
2661.42171	8908.975
2664.05923	8924.875
2666.6951	8941.975
2669.32934	8950.075
2671.96194	8952.475
2674.59291	8966.575
2677.22224	8974.875
2679.84993	8950.175
2682.476	8965.775
2685.10043	8966.675
2687.72324	8933.975
2690.34441	8931.775
2692.96396	8930.775
2695.58188	8926.575
2698.19818	8934.075
2700.81285	8925.375
2703.4259	8926.075
2706.03733	8929.475
2708.64714	8926.275
2711.25533	8937.675
2713.86191	8917.175
2716.46687	8920.075
2719.07021	8953.075
2721.67194	9000.475
2724.27206	8986.075
2726.87057	8989.775
2729.46747	8986.375
2732.06276	8984.475
2734.65644	9004.875
2737.24852	8986.175
2739.83899	8977.975
2742.42786	8989.975
2745.01513	8950.075
2747.60079	8954.875
2750.18486	8934.975
2752.76733	8938.075
2755.3482	8921.575
2757.92747	8929.175
2760.50515	8913.675
2763.08123	8893.475
2765.65573	8901.975
2768.22863	8933.075
2770.79994	8890.975
2773.36967	8910.175
2775.9378	8895.075
2778.50435	8871.275
2781.06932	8900.475
2783.6327	8892.975
2786.1945	8907.275
2788.75471	8910.375
2791.31335	8878.075
2793.87041	8904.975
2796.42589	8883.675
2798.97979	8854.075
2801.53212	8860.675
2804.08288	8831.675
2806.63206	8824.375
2809.17967	8809.175
2811.72571	8802.175
2814.27018	8791.775
2816.81308	8782.675
2819.35442	8774.575
2821.89419	8766.075
2824.43239	8787.375
2826.96904	8786.275
2829.50412	8781.975
2832.03763	8788.375
2834.56959	8812.075
2837.1	8771.175
2839.62884	8802.875
2842.15613	8809.375
2844.68186	8837.475
2847.20604	8884.475
2849.72867	8915.875
2852.24974	8935.975
2854.76927	8926.075
2857.28724	8891.275
2859.80367	8899.775
2862.31855	8856.975
2864.83189	8874.475
2867.34368	8824.775
2869.85393	8842.175
2872.36264	8830.075
2874.8698	8837.175
2877.37543	8801.775
2879.87952	8816.475
2882.38207	8831.475
2884.88308	8804.975
2887.38256	8829.175
2889.88051	8819.875
2892.37692	8826.375
2894.8718	8805.075
2897.36515	8847.075
2899.85698	8837.475
2902.34727	8858.275
2904.83604	8866.075
2907.32328	8898.975
2909.809	8867.675
2912.29319	8854.375
2914.77587	8856.475
2917.25702	8839.075
2919.73665	8840.075
2922.21476	8843.775
2924.69136	8828.875
2927.16644	8839.475
2929.64	8801.575
2932.11205	8795.275
2934.58258	8749.675
2937.05161	8754.275
2939.51912	8766.575
2941.98513	8719.075
2944.44962	8696.775
2946.91261	8663.775
2949.37409	8655.475
2951.83407	8648.575
2954.29254	8620.175
2956.74951	8629.175
2959.20498	8608.875
2961.65895	8577.975
2964.11142	8596.175
2966.56239	8554.975
2969.01186	8530.775
2971.45984	8508.575
2973.90632	8507.175
2976.35131	8492.575
2978.7948	8459.475
2981.23681	8444.375
2983.67732	8421.375
2986.11635	8389.275
2988.55388	8375.075
2990.98993	8364.075
2993.4245	8338.475
2995.85758	8315.875
2998.28917	8320.075
3000.71928	8300.075
3003.14791	8287.675
3005.57506	8279.875
3008.00073	8248.075
3010.42493	8239.775
3012.84764	8222.275
3015.26888	8201.075
3017.68865	8185.575
3020.10694	8162.475
3022.52376	8169.675
3024.9391	8149.875
3027.35298	8140.875
3029.76539	8113.975
3032.17632	8127.375
3034.5858	8142.375
3036.9938	8126.775
3039.40034	8118.175
3041.80542	8143.075
3044.20903	8105.675
3046.61118	8083.075
3049.01187	8041.875
3051.4111	8058.875
3053.80888	8030.975
3056.20519	8033.075
3058.60005	8000.375
3060.99345	8000.275
3063.3854	7962.275
3065.7759	7954.375
3068.16494	7933.875
3070.55254	7908.775
3072.93868	7860.975
3075.32338	7868.675
3077.70662	7845.875
3080.08842	7839.675
3082.46878	7808.275
3084.84769	7810.575
3087.22515	7803.575
3089.60118	7799.175
3091.97576	7782.675
3094.3489	7785.775
3096.72061	7804.375
3099.09087	7796.975
3101.4597	7770.875
3103.82709	7777.975
3106.19305	7774.375
3108.55757	7765.675
3110.92066	7760.075
3113.28232	7727.075
3115.64255	7702.775
3118.00134	7711.275
3120.35871	7699.875
3122.71466	7692.375
3125.06917	7683.675
3127.42226	7663.575
3129.77393	7651.575
3132.12417	7652.775
3134.47299	7660.475
3136.82039	7662.975
3139.16636	7665.775
3141.51092	7661.875
3143.85406	7651.075
3146.19579	7654.575
3148.53609	7667.575
3150.87499	7663.775
3153.21246	7642.875
3155.54853	7681.175
3157.88318	7689.875
3160.21642	7679.375
3162.54826	7676.575
3164.87868	7679.375
3167.2077	7672.375
3169.5353	7714.875
