Data from AgNP_FTO_APTES_UA_10uM_CRN_5uM_R6G_10uM_NaF_0.1M_Addition_RamanShift__12__14-56-20-647.txt Node

Date: Thu Feb 10 14:56:20 GMT 2022
User: TCL
Spectrometer: QEP01345
Trigger mode: 4
Integration Time (sec): 7.000000E0
Scans to average: 10
Electric dark correction enabled: true
Nonlinearity correction enabled: false
Boxcar width: 0
XAxis mode: Raman Shifts
Number of Pixels in Spectrum: 1044
>>>>>Begin Spectral Data<<<<<
46.04893	0.925
50.45542	-0.375
54.85868	-2.175
59.25871	-0.875
63.6555	73.725
68.04907	74.125
72.43941	78.225
76.82654	80.025
81.21044	85.525
85.59113	87.125
89.96862	90.725
94.34289	94.125
98.71396	95.125
103.08183	100.625
107.4465	108.225
111.80798	102.625
116.16626	108.725
120.52136	113.625
124.87327	119.625
129.222	122.725
133.56755	136.725
137.90993	142.925
142.24913	159.125
146.58517	181.725
150.91804	210.525
155.24774	251.425
159.57429	311.425
163.89768	393.225
168.21792	529.025
172.53501	723.225
176.84895	1010.225
181.15975	1419.825
185.46741	2003.825
189.77193	2753.025
194.07331	3678.925
198.37157	4755.425
202.6667	5860.525
206.9587	6970.125
211.24758	8049.125
215.53334	9144.825
219.81599	10273.825
224.09553	11473.825
228.37195	12866.325
232.64527	14345.725
236.91549	15994.425
241.18261	17592.325
245.44663	19121.325
249.70755	20473.025
253.96539	21741.225
258.22014	22776.025
262.4718	23512.425
266.72039	24116.525
270.96589	24414.725
275.20832	24493.025
279.44768	24350.225
283.68397	24202.125
287.91719	24037.425
292.14735	23883.425
296.37445	23867.025
300.59849	23887.425
304.81948	23898.525
309.03742	23919.525
313.25231	23771.525
317.46415	23424.825
321.67296	22980.825
325.87872	22595.325
330.08145	22410.525
334.28114	22415.325
338.47781	22580.025
342.67145	22814.225
346.86207	23111.725
351.04966	23387.225
355.23424	23693.525
359.4158	24036.125
363.59435	24227.925
367.76989	24365.125
371.94243	24472.825
376.11196	24568.625
380.27849	24609.325
384.44203	24676.625
388.60257	24891.325
392.76012	25159.425
396.91468	25535.925
401.06626	25965.425
405.21485	26187.725
409.36047	26128.425
413.50311	25876.725
417.64277	25796.425
421.77947	25922.925
425.9132	26115.425
430.04396	26322.025
434.17176	26386.125
438.2966	26435.925
442.41849	26705.525
446.53742	27144.225
450.6534	27716.225
454.76644	28114.225
458.87653	28301.725
462.98368	28242.825
467.08789	28107.525
471.18916	27862.725
475.2875	27533.225
479.38291	27381.925
483.4754	27233.625
487.56496	27049.725
491.6516	26748.725
495.73531	26387.425
499.81612	26170.725
503.89401	26220.225
507.96899	26410.525
512.04106	26443.125
516.11023	26445.725
520.1765	26129.425
524.23987	25875.225
528.30034	25616.125
532.35792	25400.525
536.41261	25127.425
540.46441	24956.925
544.51333	24980.225
548.55936	25218.925
552.60252	25637.125
556.64279	26185.725
560.6802	26545.025
564.71473	26847.025
568.7464	27369.425
572.7752	28308.825
576.80114	29421.525
580.82422	30531.025
584.84444	31464.725
588.86181	32457.125
592.87633	33333.825
596.888	33054.725
600.89682	31735.725
604.9028	31000.225
608.90594	31790.125
612.90624	32714.125
616.90371	30738.925
620.89834	27286.925
624.89015	26011.825
628.87913	25947.725
632.86528	26209.125
636.84862	26261.425
640.82913	25833.025
644.80683	25261.725
648.78172	24864.825
652.75379	24784.325
656.72306	24967.125
660.68952	25255.125
664.65319	25158.725
668.61405	24953.125
672.57211	24914.725
676.52738	24935.425
680.47986	24912.125
684.42955	24806.025
688.37646	24709.725
692.32058	24850.125
696.26192	25111.225
700.20048	25414.025
704.13626	25655.625
708.06928	25762.925
711.99952	25664.725
715.927	25567.625
719.85171	25481.825
723.77365	25360.925
727.69284	24994.125
731.60928	24694.225
735.52295	24529.225
739.43388	24501.125
743.34206	24539.025
747.24749	24642.525
751.15017	24911.925
755.05012	25339.425
758.94733	26012.025
762.8418	27058.125
766.73354	28555.325
770.62254	29737.825
774.50882	29699.625
778.39237	28552.725
782.27321	27147.125
786.15132	25985.725
790.02671	25260.625
793.89938	24804.925
797.76935	24553.925
801.6366	24472.525
805.50115	24445.125
809.36299	24282.325
813.22213	24149.125
817.07857	24111.225
820.93231	24080.325
824.78336	23947.525
828.63172	23881.525
832.47738	23785.625
836.32036	23740.125
840.16066	23731.925
843.99827	23687.325
847.8332	23743.025
851.66546	23743.625
855.49504	23836.525
859.32195	23866.425
863.1462	23835.325
866.96777	23753.325
870.78668	23765.325
874.60293	23768.625
878.41652	23785.425
882.22745	23835.025
886.03573	23833.625
889.84136	23830.725
893.64433	23791.425
897.44466	23689.125
901.24235	23671.825
905.0374	23683.325
908.8298	23659.625
912.61957	23710.525
916.40671	23899.925
920.19121	24182.425
923.97308	24460.925
927.75233	24407.125
931.52895	24091.425
935.30295	23703.325
939.07433	23371.525
942.84309	23089.125
946.60924	22935.525
950.37278	22894.625
954.13371	22860.325
957.89203	22890.025
961.64774	22875.425
965.40086	22836.825
969.15137	22839.525
972.89929	22767.425
976.64461	22687.425
980.38733	22617.425
984.12747	22592.725
987.86502	22674.125
991.59999	22788.225
995.33237	22920.925
999.06217	23175.225
1002.78939	23464.625
1006.51404	23903.825
1010.23611	24327.325
1013.95561	24588.125
1017.67255	24624.725
1021.38692	24402.625
1025.09872	24091.625
1028.80796	23784.025
1032.51465	23607.325
1036.21877	23641.725
1039.92035	23702.925
1043.61937	23825.325
1047.31584	23905.225
1051.00976	23973.725
1054.70114	24114.425
1058.38998	24328.625
1062.07627	24602.725
1065.76003	24953.725
1069.44126	25241.325
1073.11995	25669.225
1076.79611	25987.625
1080.46974	26140.425
1084.14085	26227.925
1087.80943	26404.925
1091.47549	26635.725
1095.13903	26773.425
1098.80005	26520.525
1102.45857	25988.725
1106.11456	25464.825
1109.76805	25141.825
1113.41903	25106.225
1117.06751	25099.625
1120.71348	25277.125
1124.35696	25460.825
1127.99793	25729.325
1131.63641	25904.025
1135.2724	25891.625
1138.90589	25921.725
1142.5369	26006.225
1146.16542	26127.925
1149.79145	26381.425
1153.415	26664.125
1157.03607	26988.625
1160.65467	27628.325
1164.27079	28595.125
1167.88443	29817.825
1171.49561	31099.625
1175.10432	32657.825
1178.71056	34520.225
1182.31434	36271.825
1185.91565	37366.725
1189.51451	37625.625
1193.11091	37270.825
1196.70485	36428.225
1200.29634	35338.725
1203.88538	34489.525
1207.47197	34116.425
1211.05612	33947.425
1214.63782	33436.725
1218.21708	32589.725
1221.79391	31556.725
1225.36829	30775.325
1228.94024	30333.925
1232.50976	30042.525
1236.07685	29803.825
1239.6415	29651.225
1243.20374	29619.325
1246.76355	29739.625
1250.32093	30072.125
1253.8759	30583.025
1257.42845	31292.325
1260.97859	32104.325
1264.52631	32999.025
1268.07163	33867.925
1271.61453	34698.125
1275.15503	35513.625
1278.69312	36340.325
1282.22882	37215.525
1285.76211	38363.625
1289.29301	39529.225
1292.82151	41071.225
1296.34761	42845.425
1299.87133	44900.625
1303.39266	46910.225
1306.9116	48605.525
1310.42815	49774.725
1313.94233	50293.725
1317.45412	49978.025
1320.96354	49475.025
1324.47058	49302.125
1327.97525	49444.525
1331.47754	49697.225
1334.97747	49913.725
1338.47502	50113.125
1341.97022	50233.025
1345.46305	50189.725
1348.95352	49748.825
1352.44163	49008.125
1355.92738	48490.925
1359.41078	48601.025
1362.89183	48722.525
1366.37053	47629.725
1369.84688	44894.125
1373.32088	41442.425
1376.79254	38801.025
1380.26186	37923.725
1383.72883	38007.625
1387.19347	38130.725
1390.65578	38012.025
1394.11575	37884.725
1397.57339	38105.925
1401.0287	38535.225
1404.48168	38803.325
1407.93234	38591.025
1411.38068	37873.025
1414.82669	36654.325
1418.27039	35228.125
1421.71177	33923.625
1425.15083	32950.225
1428.58758	32600.525
1432.02203	32906.325
1435.45416	33732.825
1438.88399	34693.625
1442.31151	35369.825
1445.73673	35708.125
1449.15965	36001.325
1452.58027	36241.525
1455.9986	36428.825
1459.41463	36812.925
1462.82837	37352.325
1466.23982	37864.625
1469.64898	38257.625
1473.05586	38410.825
1476.46045	38334.725
1479.86276	38058.525
1483.26279	37734.125
1486.66054	37582.025
1490.05602	37630.325
1493.44922	38047.825
1496.84016	38648.225
1500.22882	39451.625
1503.61521	40372.625
1506.99934	41288.625
1510.38121	41833.825
1513.76081	41817.425
1517.13816	41321.525
1520.51324	40716.125
1523.88607	40502.925
1527.25665	40548.925
1530.62498	40633.025
1533.99105	40480.825
1537.35488	39771.125
1540.71647	38817.325
1544.07581	37725.725
1547.4329	36584.425
1550.78776	35743.325
1554.14038	35186.025
1557.49077	34823.425
1560.83892	34614.225
1564.18484	34526.825
1567.52853	34545.525
1570.86999	34745.425
1574.20922	35329.625
1577.54624	35880.625
1580.88103	36126.225
1584.2136	36553.825
1587.54395	37467.325
1590.87208	38840.325
1594.19801	40600.325
1597.52172	42148.225
1600.84321	42271.725
1604.16251	40653.325
1607.47959	38092.125
1610.79447	35391.425
1614.10715	32809.125
1617.41763	30610.025
1620.7259	28999.425
1624.03199	28146.525
1627.33587	28056.525
1630.63757	28816.225
1633.93707	30545.125
1637.23439	33428.425
1640.52951	37552.125
1643.82246	42310.725
1647.11321	45847.925
1650.40179	46260.025
1653.68819	42999.925
1656.97241	37711.225
1660.25446	32609.625
1663.53433	28750.225
1666.81203	26229.525
1670.08756	24598.025
1673.36092	23643.125
1676.63211	22971.425
1679.90115	22496.625
1683.16801	22106.825
1686.43272	21862.125
1689.69527	21663.725
1692.95567	21483.525
1696.2139	21416.025
1699.46999	21337.725
1702.72392	21227.825
1705.97571	21138.925
1709.22535	21084.425
1712.47284	21067.825
1715.71819	20990.925
1718.96139	20926.225
1722.20246	20868.025
1725.44139	20786.425
1728.67818	20627.925
1731.91284	20507.925
1735.14537	20393.825
1738.37576	20299.525
1741.60403	20238.525
1744.83017	20134.325
1748.05418	20091.425
1751.27607	20062.925
1754.49584	20012.725
1757.71349	20039.025
1760.92903	20016.025
1764.14244	19981.225
1767.35375	19967.125
1770.56294	19909.425
1773.77002	19876.925
1776.97499	19827.925
1780.17785	19764.525
1783.37861	19731.725
1786.57727	19681.125
1789.77382	19625.725
1792.96828	19601.425
1796.16064	19524.625
1799.3509	19520.025
1802.53907	19475.725
1805.72514	19401.425
1808.90913	19364.725
1812.09102	19345.325
1815.27083	19306.025
1818.44856	19266.225
1821.6242	19252.525
1824.79776	19219.525
1827.96924	19181.725
1831.13864	19141.825
1834.30597	19173.625
1837.47122	19190.725
1840.6344	19175.125
1843.7955	19204.925
1846.95454	19205.725
1850.11151	19162.925
1853.26642	19126.425
1856.41926	19152.225
1859.57004	19153.725
1862.71876	19090.325
1865.86542	19048.025
1869.01003	19012.825
1872.15258	18983.825
1875.29308	18929.425
1878.43152	18935.225
1881.56792	18877.325
1884.70227	18857.625
1887.83457	18817.025
1890.96482	18810.125
1894.09304	18740.225
1897.21921	18745.225
1900.34335	18707.825
1903.46544	18668.425
1906.58551	18604.725
1909.70353	18603.625
1912.81953	18556.225
1915.93349	18570.225
1919.04543	18504.025
1922.15534	18442.725
1925.26322	18396.725
1928.36908	18375.725
1931.47292	18350.225
1934.57473	18315.625
1937.67453	18249.025
1940.77232	18184.925
1943.86808	18115.525
1946.96184	18055.325
1950.05358	18044.125
1953.14331	17936.725
1956.23103	17896.525
1959.31675	17852.925
1962.40046	17809.825
1965.48217	17738.725
1968.56188	17670.125
1971.63959	17634.425
1974.7153	17567.025
1977.78901	17527.425
1980.86073	17432.925
1983.93046	17413.125
1986.99819	17344.025
1990.06394	17294.325
1993.1277	17256.325
1996.18947	17203.925
1999.24925	17151.925
2002.30706	17063.825
2005.36288	17022.125
2008.41672	16942.725
2011.46859	16920.725
2014.51848	16884.825
2017.56639	16840.225
2020.61233	16802.425
2023.6563	16757.525
2026.6983	16721.225
2029.73833	16676.625
2032.7764	16631.425
2035.8125	16581.425
2038.84664	16527.625
2041.87881	16486.625
2044.90903	16434.625
2047.93729	16425.525
2050.96359	16432.225
2053.98794	16398.825
2057.01034	16400.325
2060.03078	16358.925
2063.04927	16338.625
2066.06582	16319.725
2069.08042	16283.325
2072.09307	16304.825
2075.10378	16298.925
2078.11255	16278.825
2081.11938	16274.325
2084.12426	16233.125
2087.12722	16235.625
2090.12824	16218.425
2093.12732	16209.725
2096.12447	16219.125
2099.11969	16183.425
2102.11299	16208.525
2105.10435	16223.825
2108.09379	16203.725
2111.08131	16212.925
2114.0669	16219.325
2117.05057	16200.925
2120.03233	16228.825
2123.01216	16260.625
2125.99008	16251.925
2128.96609	16227.425
2131.94018	16277.225
2134.91236	16284.225
2137.88263	16297.225
2140.851	16271.925
2143.81746	16248.825
2146.78201	16283.325
2149.74466	16243.425
2152.7054	16248.225
2155.66425	16233.425
2158.6212	16256.425
2161.57625	16226.625
2164.52941	16213.125
2167.48067	16222.025
2170.43004	16208.725
2173.37752	16187.325
2176.32311	16172.625
2179.26681	16182.225
2182.20863	16145.425
2185.14856	16165.125
2188.08661	16156.325
2191.02278	16186.425
2193.95707	16136.025
2196.88948	16106.425
2199.82001	16080.725
2202.74867	16073.425
2205.67545	16049.125
2208.60037	16033.425
2211.52341	15999.125
2214.44458	15949.925
2217.36388	15905.425
2220.28132	15910.225
2223.1969	15845.325
2226.11061	15864.225
2229.02246	15815.125
2231.93245	15813.625
2234.84058	15758.725
2237.74686	15741.925
2240.65128	15738.425
2243.55385	15703.725
2246.45456	15661.525
2249.35343	15654.725
2252.25044	15637.225
2255.14561	15591.425
2258.03893	15611.025
2260.93041	15537.525
2263.82004	15475.225
2266.70783	15408.825
2269.59378	15362.025
2272.4779	15311.625
2275.36017	15293.125
2278.24061	15239.925
2281.11922	15224.625
2283.996	15205.925
2286.87094	15206.625
2289.74405	15181.025
2292.61534	15139.925
2295.4848	15116.825
2298.35243	15124.625
2301.21824	15120.025
2304.08223	15090.125
2306.94439	15064.725
2309.80474	15056.125
2312.66327	15042.925
2315.51999	15034.725
2318.37489	15051.125
2321.22797	15004.725
2324.07925	14963.225
2326.92871	14918.225
2329.77637	14925.225
2332.62222	14916.425
2335.46626	14900.825
2338.3085	14885.125
2341.14893	14857.225
2343.98756	14873.725
2346.8244	14845.825
2349.65943	14860.425
2352.49267	14803.525
2355.32411	14805.825
2358.15376	14788.825
2360.98161	14803.325
2363.80768	14789.425
2366.63195	14818.225
2369.45444	14764.325
2372.27514	14754.225
2375.09405	14732.925
2377.91118	14697.225
2380.72652	14663.425
2383.54009	14668.625
2386.35187	14594.225
2389.16188	14587.025
2391.97011	14547.925
2394.77657	14511.925
2397.58125	14463.425
2400.38416	14474.225
2403.18529	14431.025
2405.98466	14423.625
2408.78226	14399.825
2411.57809	14384.325
2414.37216	14390.525
2417.16446	14362.025
2419.955	14359.825
2422.74378	14327.525
2425.5308	14312.725
2428.31606	14313.625
2431.09956	14288.025
2433.88131	14298.825
2436.6613	14278.625
2439.43954	14294.125
2442.21603	14280.925
2444.99077	14236.425
2447.76377	14233.225
2450.53501	14199.225
2453.30451	14206.925
2456.07226	14174.925
2458.83827	14164.425
2461.60254	14198.725
2464.36507	14170.025
2467.12586	14146.725
2469.88492	14167.925
2472.64224	14161.225
2475.39782	14134.125
2478.15167	14137.125
2480.90379	14158.525
2483.65417	14174.125
2486.40283	14127.825
2489.14976	14142.925
2491.89497	14130.525
2494.63845	14121.025
2497.3802	14110.725
2500.12024	14096.725
2502.85855	14069.925
2505.59514	14015.725
2508.33002	14046.825
2511.06318	14055.525
2513.79462	14030.025
2516.52435	14019.125
2519.25237	14046.425
2521.97867	14012.225
2524.70327	13987.425
2527.42616	13997.725
2530.14734	13997.325
2532.86681	13949.825
2535.58458	13950.025
2538.30065	13955.825
2541.01501	13925.225
2543.72768	13873.025
2546.43864	13887.125
2549.14791	13870.725
2551.85548	13872.225
2554.56136	13855.725
2557.26554	13812.325
2559.96803	13769.025
2562.66883	13746.925
2565.36794	13750.125
2568.06536	13739.625
2570.7611	13713.525
2573.45514	13686.925
2576.14751	13672.525
2578.83819	13641.325
2581.52719	13641.925
2584.21451	13603.525
2586.90015	13605.425
2589.58411	13581.925
2592.2664	13568.925
2594.94701	13578.525
2597.62594	13540.525
2600.30321	13471.925
2602.9788	13524.425
2605.65273	13517.625
2608.32498	13526.125
2610.99557	13498.425
2613.66449	13500.325
2616.33175	13496.625
2618.99734	13487.925
2621.66128	13467.825
2624.32355	13446.325
2626.98416	13424.625
2629.64311	13388.925
2632.30041	13393.525
2634.95605	13358.125
2637.61004	13365.525
2640.26238	13370.225
2642.91306	13351.625
2645.56209	13361.725
2648.20948	13362.425
2650.85521	13354.125
2653.4993	13353.325
2656.14175	13337.025
2658.78255	13355.825
2661.42171	13370.125
2664.05923	13372.925
2666.6951	13398.825
2669.32934	13383.925
2671.96194	13358.525
2674.59291	13405.925
2677.22224	13420.725
2679.84993	13387.625
2682.476	13377.625
2685.10043	13400.425
2687.72324	13382.125
2690.34441	13383.725
2692.96396	13367.725
2695.58188	13373.525
2698.19818	13375.425
2700.81285	13376.625
2703.4259	13368.725
2706.03733	13417.825
2708.64714	13360.625
2711.25533	13390.625
2713.86191	13379.525
2716.46687	13380.325
2719.07021	13384.525
2721.67194	13376.025
2724.27206	13400.025
2726.87057	13416.125
2729.46747	13413.925
2732.06276	13405.025
2734.65644	13410.425
2737.24852	13404.225
2739.83899	13406.825
2742.42786	13416.525
2745.01513	13349.125
2747.60079	13350.725
2750.18486	13341.225
2752.76733	13320.625
2755.3482	13334.825
2757.92747	13333.525
2760.50515	13297.125
2763.08123	13288.425
2765.65573	13268.025
2768.22863	13263.525
2770.79994	13252.925
2773.36967	13238.525
2775.9378	13242.225
2778.50435	13223.625
2781.06932	13238.025
2783.6327	13235.825
2786.1945	13231.425
2788.75471	13189.025
2791.31335	13153.125
2793.87041	13150.125
2796.42589	13118.325
2798.97979	13095.425
2801.53212	13061.825
2804.08288	13090.325
2806.63206	13061.725
2809.17967	13019.825
2811.72571	12996.425
2814.27018	12962.625
2816.81308	12911.425
2819.35442	12875.025
2821.89419	12847.425
2824.43239	12826.425
2826.96904	12824.025
2829.50412	12823.425
2832.03763	12774.525
2834.56959	12772.925
2837.1	12750.825
2839.62884	12775.525
2842.15613	12784.025
2844.68186	12773.525
2847.20604	12761.925
2849.72867	12754.925
2852.24974	12754.525
2854.76927	12747.625
2857.28724	12705.625
2859.80367	12674.225
2862.31855	12681.125
2864.83189	12662.925
2867.34368	12605.325
2869.85393	12621.625
2872.36264	12606.125
2874.8698	12580.225
2877.37543	12563.725
2879.87952	12582.425
2882.38207	12565.825
2884.88308	12565.325
2887.38256	12564.725
2889.88051	12538.025
2892.37692	12538.525
2894.8718	12540.725
2897.36515	12564.225
2899.85698	12594.625
2902.34727	12595.825
2904.83604	12599.825
2907.32328	12614.225
2909.809	12598.025
2912.29319	12609.825
2914.77587	12562.325
2917.25702	12581.225
2919.73665	12528.225
2922.21476	12562.525
2924.69136	12528.725
2927.16644	12528.325
2929.64	12504.425
2932.11205	12492.825
2934.58258	12481.525
2937.05161	12494.525
2939.51912	12493.425
2941.98513	12469.825
2944.44962	12424.625
2946.91261	12409.825
2949.37409	12449.925
2951.83407	12415.925
2954.29254	12369.925
2956.74951	12356.525
2959.20498	12361.325
2961.65895	12349.325
2964.11142	12375.525
2966.56239	12326.025
2969.01186	12341.825
2971.45984	12318.925
2973.90632	12319.325
2976.35131	12283.425
2978.7948	12238.725
2981.23681	12203.825
2983.67732	12196.525
2986.11635	12132.925
2988.55388	12081.025
2990.98993	12064.725
2993.4245	12073.725
2995.85758	12051.625
2998.28917	11993.225
3000.71928	11960.325
3003.14791	11948.425
3005.57506	11944.425
3008.00073	11886.525
3010.42493	11736.725
3012.84764	11824.925
3015.26888	11812.325
3017.68865	11759.625
3020.10694	11750.725
3022.52376	11721.025
3024.9391	11724.225
3027.35298	11724.525
3029.76539	11715.225
3032.17632	11684.425
3034.5858	11668.925
3036.9938	11653.625
3039.40034	11685.025
3041.80542	11644.825
3044.20903	11649.525
3046.61118	11612.525
3049.01187	11569.625
3051.4111	11568.625
3053.80888	11515.725
3056.20519	11512.825
3058.60005	11474.025
3060.99345	11478.725
3063.3854	11429.925
3065.7759	11384.025
3068.16494	11382.725
3070.55254	11328.325
3072.93868	11311.825
3075.32338	11230.425
3077.70662	11212.725
3080.08842	11198.825
3082.46878	11172.025
3084.84769	11168.325
3087.22515	11167.425
3089.60118	11162.925
3091.97576	11158.825
3094.3489	11132.925
3096.72061	11156.125
3099.09087	11138.925
3101.4597	11099.625
3103.82709	11078.425
3106.19305	11088.925
3108.55757	11085.825
3110.92066	11039.325
3113.28232	11025.125
3115.64255	10982.625
3118.00134	10973.625
3120.35871	10941.125
3122.71466	10934.025
3125.06917	10877.725
3127.42226	10884.525
