Data from AgNP_FTO_APTES_UA_10uM_CRN_5uM_R6G_10uM_NaF_0.1M_Addition_RamanShift__31__15-18-30-675.txt Node

Date: Thu Feb 10 15:18:30 GMT 2022
User: TCL
Spectrometer: QEP01345
Trigger mode: 4
Integration Time (sec): 7.000000E0
Scans to average: 10
Electric dark correction enabled: true
Nonlinearity correction enabled: false
Boxcar width: 0
XAxis mode: Raman Shifts
Number of Pixels in Spectrum: 1044
>>>>>Begin Spectral Data<<<<<
46.04893	2.275
50.45542	-0.825
54.85868	-2.225
59.25871	-0.925
63.6555	44.675
68.04907	46.375
72.43941	53.575
76.82654	54.775
81.21044	58.975
85.59113	56.275
89.96862	64.175
94.34289	65.475
98.71396	65.275
103.08183	66.575
107.4465	71.475
111.80798	68.375
116.16626	71.175
120.52136	72.775
124.87327	79.075
129.222	77.575
133.56755	80.175
137.90993	88.075
142.24913	87.375
146.58517	98.575
150.91804	115.975
155.24774	131.975
159.57429	161.275
163.89768	205.375
168.21792	261.075
172.53501	355.875
176.84895	491.775
181.15975	683.575
185.46741	941.675
189.77193	1302.675
194.07331	1729.075
198.37157	2221.475
202.6667	2733.375
206.9587	3255.675
211.24758	3789.875
215.53334	4331.475
219.81599	4959.775
224.09553	5676.875
228.37195	6480.175
232.64527	7349.775
236.91549	8187.775
241.18261	8952.475
245.44663	9526.575
249.70755	9951.575
253.96539	10347.675
258.22014	10689.875
262.4718	11035.475
266.72039	11344.775
270.96589	11549.575
275.20832	11599.975
279.44768	11508.475
283.68397	11368.675
287.91719	11313.075
292.14735	11376.275
296.37445	11660.675
300.59849	12188.175
304.81948	12806.175
309.03742	13204.275
313.25231	13139.075
317.46415	12371.075
321.67296	11243.775
325.87872	10317.575
330.08145	9863.275
334.28114	9809.775
338.47781	9980.075
342.67145	10332.475
346.86207	10856.775
351.04966	11631.275
355.23424	12484.175
359.4158	13137.075
363.59435	13421.575
367.76989	13465.175
371.94243	13398.775
376.11196	13294.575
380.27849	13149.375
384.44203	12969.075
388.60257	12708.175
392.76012	12632.175
396.91468	12750.275
401.06626	13125.975
405.21485	13422.175
409.36047	13116.575
413.50311	12256.275
417.64277	11464.975
421.77947	11033.775
425.9132	10891.675
430.04396	10842.875
434.17176	10877.375
438.2966	11039.175
442.41849	11268.875
446.53742	11617.575
450.6534	11941.975
454.76644	12163.875
458.87653	12179.375
462.98368	12025.075
467.08789	11805.475
471.18916	11538.275
475.2875	11218.175
479.38291	10934.075
483.4754	10746.975
487.56496	10600.075
491.6516	10473.875
495.73531	10416.075
499.81612	10487.875
503.89401	10624.075
507.96899	10810.475
512.04106	11002.375
516.11023	11229.375
520.1765	11363.675
524.23987	11280.175
528.30034	11011.375
532.35792	10678.075
536.41261	10411.575
540.46441	10100.675
544.51333	9987.075
548.55936	10072.775
552.60252	10394.975
556.64279	10773.275
560.6802	10955.675
564.71473	11123.775
568.7464	11712.875
572.7752	12140.175
576.80114	11736.675
580.82422	11254.275
584.84444	10994.075
588.86181	10876.675
592.87633	10769.675
596.888	10914.475
600.89682	11422.975
604.9028	13128.775
608.90594	17710.875
612.90624	23856.775
616.90371	22561.375
620.89834	14703.575
624.89015	11185.975
628.87913	10515.175
632.86528	10642.875
636.84862	10876.575
640.82913	10667.275
644.80683	10075.575
648.78172	9684.275
652.75379	9758.675
656.72306	10347.775
660.68952	11021.975
664.65319	10846.675
668.61405	10141.775
672.57211	9776.775
676.52738	9741.675
680.47986	9737.075
684.42955	9630.875
688.37646	9595.975
692.32058	9657.475
696.26192	9758.675
700.20048	9928.175
704.13626	10071.075
708.06928	10073.475
711.99952	9982.975
715.927	9905.575
719.85171	9936.675
723.77365	9921.975
727.69284	9785.275
731.60928	9663.275
735.52295	9649.775
739.43388	9673.875
743.34206	9745.875
747.24749	9810.675
751.15017	9919.375
755.05012	10197.175
758.94733	10844.975
762.8418	12332.075
766.73354	14915.875
770.62254	17644.575
774.50882	18917.375
778.39237	17830.575
782.27321	14982.175
786.15132	12336.775
790.02671	10836.675
793.89938	10168.075
797.76935	9890.075
801.6366	9766.475
805.50115	9676.675
809.36299	9616.275
813.22213	9552.975
817.07857	9535.475
820.93231	9540.175
824.78336	9546.775
828.63172	9626.275
832.47738	9643.775
836.32036	9607.975
840.16066	9536.775
843.99827	9466.875
847.8332	9426.175
851.66546	9431.475
855.49504	9436.675
859.32195	9406.575
863.1462	9344.875
866.96777	9302.075
870.78668	9303.275
874.60293	9321.575
878.41652	9350.175
882.22745	9428.875
886.03573	9466.075
889.84136	9414.075
893.64433	9342.075
897.44466	9332.075
901.24235	9321.775
905.0374	9327.875
908.8298	9303.675
912.61957	9300.675
916.40671	9355.275
920.19121	9465.775
923.97308	9605.375
927.75233	9693.375
931.52895	9799.275
935.30295	9652.275
939.07433	9311.475
942.84309	9017.575
946.60924	8829.775
950.37278	8774.375
954.13371	8714.475
957.89203	8662.375
961.64774	8660.675
965.40086	8611.975
969.15137	8576.775
972.89929	8558.975
976.64461	8540.975
980.38733	8541.175
984.12747	8585.675
987.86502	8612.775
991.59999	8683.675
995.33237	8789.675
999.06217	9013.075
1002.78939	9290.275
1006.51404	9574.075
1010.23611	9819.175
1013.95561	10015.175
1017.67255	9955.275
1021.38692	9789.575
1025.09872	9617.375
1028.80796	9547.975
1032.51465	9634.775
1036.21877	9775.475
1039.92035	9882.875
1043.61937	9868.375
1047.31584	9819.775
1051.00976	9742.875
1054.70114	9681.975
1058.38998	9702.375
1062.07627	9728.475
1065.76003	9811.675
1069.44126	9911.075
1073.11995	10045.975
1076.79611	10185.575
1080.46974	10362.775
1084.14085	10688.175
1087.80943	11067.575
1091.47549	11246.375
1095.13903	10966.575
1098.80005	10519.575
1102.45857	10115.875
1106.11456	9943.675
1109.76805	9993.475
1113.41903	10267.475
1117.06751	10677.275
1120.71348	11180.475
1124.35696	11731.475
1127.99793	12251.275
1131.63641	12206.675
1135.2724	11576.775
1138.90589	10907.275
1142.5369	10512.275
1146.16542	10253.475
1149.79145	10123.975
1153.415	10104.275
1157.03607	10248.575
1160.65467	10528.575
1164.27079	11001.075
1167.88443	11706.875
1171.49561	12842.875
1175.10432	14809.675
1178.71056	17402.775
1182.31434	19195.775
1185.91565	19581.475
1189.51451	18837.975
1193.11091	17364.975
1196.70485	15708.775
1200.29634	14491.775
1203.88538	13699.875
1207.47197	12714.175
1211.05612	11892.775
1214.63782	11421.375
1218.21708	11268.275
1221.79391	11292.375
1225.36829	11395.975
1228.94024	11465.575
1232.50976	11563.475
1236.07685	11630.275
1239.6415	11629.275
1243.20374	11657.075
1246.76355	11748.275
1250.32093	11911.675
1253.8759	12267.675
1257.42845	12714.675
1260.97859	13187.975
1264.52631	13651.475
1268.07163	14118.975
1271.61453	14544.375
1275.15503	14877.975
1278.69312	14955.375
1282.22882	15003.375
1285.76211	15340.875
1289.29301	15859.275
1292.82151	16392.475
1296.34761	16966.875
1299.87133	17854.275
1303.39266	19450.575
1306.9116	21964.475
1310.42815	24935.475
1313.94233	26859.975
1317.45412	26430.375
1320.96354	24511.075
1324.47058	22288.375
1327.97525	20394.575
1331.47754	19150.475
1334.97747	18722.275
1338.47502	18818.475
1341.97022	19222.775
1345.46305	19951.975
1348.95352	21120.275
1352.44163	22778.975
1355.92738	25301.175
1359.41078	29427.175
1362.89183	33577.375
1366.37053	32654.375
1369.84688	27189.175
1373.32088	21752.875
1376.79254	18385.875
1380.26186	16778.275
1383.72883	15966.375
1387.19347	15358.075
1390.65578	14705.275
1394.11575	14155.375
1397.57339	13860.975
1401.0287	13883.175
1404.48168	14076.275
1407.93234	14338.475
1411.38068	14581.775
1414.82669	14583.075
1418.27039	14321.675
1421.71177	13994.875
1425.15083	13592.575
1428.58758	13319.575
1432.02203	13297.675
1435.45416	13453.975
1438.88399	13515.275
1442.31151	13554.675
1445.73673	13653.575
1449.15965	13735.675
1452.58027	13726.175
1455.9986	13596.075
1459.41463	13541.675
1462.82837	13688.275
1466.23982	13959.875
1469.64898	14346.375
1473.05586	14612.775
1476.46045	14797.275
1479.86276	15169.375
1483.26279	15577.275
1486.66054	16086.675
1490.05602	16687.375
1493.44922	17631.175
1496.84016	18955.775
1500.22882	21092.075
1503.61521	23880.175
1506.99934	27178.375
1510.38121	30410.975
1513.76081	32039.975
1517.13816	30633.575
1520.51324	26743.475
1523.88607	22615.075
1527.25665	19728.075
1530.62498	17989.675
1533.99105	16914.675
1537.35488	16260.575
1540.71647	15790.575
1544.07581	15532.375
1547.4329	15404.375
1550.78776	15333.275
1554.14038	15309.075
1557.49077	15519.575
1560.83892	15922.375
1564.18484	16476.575
1567.52853	17064.175
1570.86999	17432.075
1574.20922	17694.075
1577.54624	17568.675
1580.88103	16569.975
1584.2136	15277.075
1587.54395	14659.275
1590.87208	14916.375
1594.19801	15872.675
1597.52172	17148.475
1600.84321	17558.575
1604.16251	16804.075
1607.47959	15566.075
1610.79447	14252.775
1614.10715	13049.875
1617.41763	12076.475
1620.7259	11475.875
1624.03199	11188.175
1627.33587	11245.075
1630.63757	11589.575
1633.93707	12271.675
1637.23439	13310.175
1640.52951	14712.375
1643.82246	16709.675
1647.11321	19115.575
1650.40179	21079.975
1653.68819	20713.575
1656.97241	17851.375
1660.25446	14494.975
1663.53433	12108.375
1666.81203	10672.575
1670.08756	9854.075
1673.36092	9354.775
1676.63211	9079.575
1679.90115	8832.175
1683.16801	8688.175
1686.43272	8591.275
1689.69527	8510.375
1692.95567	8451.475
1696.2139	8446.575
1699.46999	8451.575
1702.72392	8418.875
1705.97571	8385.575
1709.22535	8346.775
1712.47284	8320.475
1715.71819	8331.875
1718.96139	8339.875
1722.20246	8311.675
1725.44139	8254.175
1728.67818	8188.175
1731.91284	8121.975
1735.14537	8047.675
1738.37576	7995.875
1741.60403	7974.775
1744.83017	7924.275
1748.05418	7899.775
1751.27607	7883.475
1754.49584	7881.475
1757.71349	7867.975
1760.92903	7894.875
1764.14244	7872.775
1767.35375	7837.075
1770.56294	7829.475
1773.77002	7792.475
1776.97499	7758.975
1780.17785	7697.075
1783.37861	7671.675
1786.57727	7682.575
1789.77382	7663.975
1792.96828	7652.875
1796.16064	7614.975
1799.3509	7622.575
1802.53907	7604.375
1805.72514	7569.675
1808.90913	7559.375
1812.09102	7532.475
1815.27083	7508.175
1818.44856	7484.875
1821.6242	7485.575
1824.79776	7476.675
1827.96924	7469.775
1831.13864	7444.375
1834.30597	7443.075
1837.47122	7442.775
1840.6344	7430.675
1843.7955	7433.575
1846.95454	7423.975
1850.11151	7422.775
1853.26642	7433.275
1856.41926	7424.375
1859.57004	7443.275
1862.71876	7432.675
1865.86542	7420.875
1869.01003	7446.375
1872.15258	7440.775
1875.29308	7455.475
1878.43152	7450.075
1881.56792	7454.475
1884.70227	7457.875
1887.83457	7497.175
1890.96482	7458.975
1894.09304	7477.675
1897.21921	7470.275
1900.34335	7472.875
1903.46544	7474.775
1906.58551	7480.875
1909.70353	7481.275
1912.81953	7485.675
1915.93349	7483.375
1919.04543	7501.175
1922.15534	7478.975
1925.26322	7442.175
1928.36908	7441.475
1931.47292	7390.975
1934.57473	7355.775
1937.67453	7302.075
1940.77232	7267.475
1943.86808	7204.475
1946.96184	7168.675
1950.05358	7145.575
1953.14331	7112.475
1956.23103	7099.875
1959.31675	7064.375
1962.40046	7022.275
1965.48217	7014.175
1968.56188	7009.075
1971.63959	6960.375
1974.7153	6946.475
1977.78901	6927.675
1980.86073	6909.275
1983.93046	6876.875
1986.99819	6850.875
1990.06394	6824.575
1993.1277	6797.375
1996.18947	6766.875
1999.24925	6750.475
2002.30706	6736.775
2005.36288	6716.975
2008.41672	6701.375
2011.46859	6673.175
2014.51848	6659.075
2017.56639	6635.175
2020.61233	6606.875
2023.6563	6600.375
2026.6983	6588.075
2029.73833	6563.375
2032.7764	6537.775
2035.8125	6529.275
2038.84664	6533.875
2041.87881	6496.875
2044.90903	6494.675
2047.93729	6481.375
2050.96359	6479.475
2053.98794	6466.675
2057.01034	6445.475
2060.03078	6423.875
2063.04927	6431.675
2066.06582	6441.875
2069.08042	6404.275
2072.09307	6406.075
2075.10378	6373.875
2078.11255	6383.375
2081.11938	6389.375
2084.12426	6379.275
2087.12722	6373.575
2090.12824	6377.875
2093.12732	6365.575
2096.12447	6369.875
2099.11969	6353.275
2102.11299	6357.375
2105.10435	6367.175
2108.09379	6370.175
2111.08131	6380.175
2114.0669	6359.875
2117.05057	6370.175
2120.03233	6375.075
2123.01216	6385.175
2125.99008	6397.475
2128.96609	6396.175
2131.94018	6403.775
2134.91236	6390.675
2137.88263	6388.775
2140.851	6381.675
2143.81746	6394.175
2146.78201	6387.275
2149.74466	6386.175
2152.7054	6370.375
2155.66425	6346.575
2158.6212	6366.375
2161.57625	6355.075
2164.52941	6362.775
2167.48067	6335.975
2170.43004	6360.075
2173.37752	6334.875
2176.32311	6336.375
2179.26681	6335.775
2182.20863	6346.875
2185.14856	6338.675
2188.08661	6332.075
2191.02278	6330.275
2193.95707	6326.975
2196.88948	6299.175
2199.82001	6309.575
2202.74867	6297.175
2205.67545	6304.775
2208.60037	6285.575
2211.52341	6264.875
2214.44458	6276.475
2217.36388	6262.975
2220.28132	6234.475
2223.1969	6225.575
2226.11061	6214.875
2229.02246	6191.675
2231.93245	6188.475
2234.84058	6173.775
2237.74686	6166.575
2240.65128	6173.975
2243.55385	6126.275
2246.45456	6137.375
2249.35343	6135.975
2252.25044	6128.975
2255.14561	6138.275
2258.03893	6145.875
2260.93041	6139.275
2263.82004	6120.575
2266.70783	6089.175
2269.59378	6092.475
2272.4779	6054.175
2275.36017	6049.475
2278.24061	6017.675
2281.11922	6023.375
2283.996	6018.675
2286.87094	5989.975
2289.74405	5978.375
2292.61534	5975.575
2295.4848	5959.775
2298.35243	5955.175
2301.21824	5949.975
2304.08223	5946.475
2306.94439	5938.875
2309.80474	5943.875
2312.66327	5950.175
2315.51999	5935.975
2318.37489	5938.175
2321.22797	5931.375
2324.07925	5932.275
2326.92871	5923.975
2329.77637	5944.275
2332.62222	5917.075
2335.46626	5904.075
2338.3085	5908.775
2341.14893	5906.675
2343.98756	5896.175
2346.8244	5913.475
2349.65943	5926.375
2352.49267	5909.075
2355.32411	5950.575
2358.15376	5933.375
2360.98161	5964.275
2363.80768	5955.475
2366.63195	5973.675
2369.45444	5971.175
2372.27514	5943.775
2375.09405	5963.375
2377.91118	5911.975
2380.72652	5899.475
2383.54009	5851.975
2386.35187	5838.175
2389.16188	5818.475
2391.97011	5782.075
2394.77657	5757.175
2397.58125	5759.675
2400.38416	5742.475
2403.18529	5730.975
2405.98466	5722.975
2408.78226	5685.275
2411.57809	5692.275
2414.37216	5675.875
2417.16446	5669.975
2419.955	5662.775
2422.74378	5647.775
2425.5308	5649.175
2428.31606	5649.975
2431.09956	5659.875
2433.88131	5654.375
2436.6613	5645.275
2439.43954	5651.675
2442.21603	5642.675
2444.99077	5661.075
2447.76377	5643.675
2450.53501	5660.875
2453.30451	5644.175
2456.07226	5642.675
2458.83827	5649.175
2461.60254	5646.175
2464.36507	5651.475
2467.12586	5635.275
2469.88492	5637.775
2472.64224	5643.875
2475.39782	5647.675
2478.15167	5650.375
2480.90379	5684.775
2483.65417	5691.875
2486.40283	5706.975
2489.14976	5700.975
2491.89497	5721.275
2494.63845	5721.275
2497.3802	5729.475
2500.12024	5707.475
2502.85855	5692.575
2505.59514	5660.475
2508.33002	5642.375
2511.06318	5642.575
2513.79462	5594.175
2516.52435	5569.375
2519.25237	5554.475
2521.97867	5538.775
2524.70327	5539.775
2527.42616	5519.075
2530.14734	5523.975
2532.86681	5513.375
2535.58458	5521.875
2538.30065	5517.075
2541.01501	5520.475
2543.72768	5505.975
2546.43864	5515.375
2549.14791	5514.975
2551.85548	5508.875
2554.56136	5503.475
2557.26554	5480.775
2559.96803	5484.675
2562.66883	5483.775
2565.36794	5471.675
2568.06536	5452.675
2570.7611	5447.075
2573.45514	5436.075
2576.14751	5421.475
2578.83819	5417.975
2581.52719	5406.775
2584.21451	5405.775
2586.90015	5407.775
2589.58411	5386.275
2592.2664	5395.575
2594.94701	5392.775
2597.62594	5389.575
2600.30321	5359.475
2602.9788	5388.675
2605.65273	5370.975
2608.32498	5374.875
2610.99557	5377.175
2613.66449	5384.475
2616.33175	5378.975
2618.99734	5363.175
2621.66128	5382.075
2624.32355	5364.475
2626.98416	5363.975
2629.64311	5359.675
2632.30041	5354.675
2634.95605	5339.675
2637.61004	5320.375
2640.26238	5313.275
2642.91306	5313.675
2645.56209	5307.475
2648.20948	5301.175
2650.85521	5287.875
2653.4993	5287.775
2656.14175	5280.975
2658.78255	5299.075
2661.42171	5294.975
2664.05923	5311.575
2666.6951	5322.975
2669.32934	5319.775
2671.96194	5319.475
2674.59291	5321.675
2677.22224	5328.175
2679.84993	5353.075
2682.476	5345.775
2685.10043	5344.075
2687.72324	5345.475
2690.34441	5323.975
2692.96396	5315.275
2695.58188	5321.275
2698.19818	5315.875
2700.81285	5328.275
2703.4259	5337.875
2706.03733	5344.375
2708.64714	5308.675
2711.25533	5323.975
2713.86191	5314.375
2716.46687	5331.075
2719.07021	5325.375
2721.67194	5339.675
2724.27206	5327.275
2726.87057	5337.775
2729.46747	5326.075
2732.06276	5344.975
2734.65644	5322.275
2737.24852	5318.775
2739.83899	5300.975
2742.42786	5320.475
2745.01513	5298.375
2747.60079	5286.875
2750.18486	5271.775
2752.76733	5266.275
2755.3482	5263.275
2757.92747	5263.275
2760.50515	5244.875
2763.08123	5244.375
2765.65573	5228.075
2768.22863	5230.975
2770.79994	5192.675
2773.36967	5223.475
2775.9378	5209.875
2778.50435	5210.375
2781.06932	5199.775
2783.6327	5217.875
2786.1945	5233.075
2788.75471	5208.675
2791.31335	5207.375
2793.87041	5203.675
2796.42589	5181.275
2798.97979	5175.875
2801.53212	5166.075
2804.08288	5181.475
2806.63206	5163.575
2809.17967	5169.375
2811.72571	5176.075
2814.27018	5162.675
2816.81308	5178.575
2819.35442	5168.575
2821.89419	5169.175
2824.43239	5183.675
2826.96904	5175.575
2829.50412	5193.075
2832.03763	5179.575
2834.56959	5184.375
2837.1	5189.675
2839.62884	5179.675
2842.15613	5198.175
2844.68186	5237.575
2847.20604	5253.575
2849.72867	5275.475
2852.24974	5282.475
2854.76927	5277.775
2857.28724	5262.775
2859.80367	5243.875
2862.31855	5235.375
2864.83189	5244.275
2867.34368	5219.475
2869.85393	5231.775
2872.36264	5240.275
2874.8698	5241.675
2877.37543	5223.675
2879.87952	5205.975
2882.38207	5213.975
2884.88308	5179.975
2887.38256	5198.975
2889.88051	5186.675
2892.37692	5178.475
2894.8718	5193.175
2897.36515	5185.175
2899.85698	5189.175
2902.34727	5221.475
2904.83604	5202.475
2907.32328	5223.575
2909.809	5213.075
2912.29319	5228.275
2914.77587	5206.075
2917.25702	5198.175
2919.73665	5202.075
2922.21476	5200.475
2924.69136	5196.775
2927.16644	5173.975
2929.64	5160.475
2932.11205	5173.475
2934.58258	5142.175
2937.05161	5157.575
2939.51912	5121.375
2941.98513	5097.475
2944.44962	5098.475
2946.91261	5044.775
2949.37409	5041.875
2951.83407	5032.475
2954.29254	5014.075
2956.74951	5018.175
2959.20498	5006.375
2961.65895	5007.075
2964.11142	5016.175
2966.56239	4996.175
2969.01186	4983.475
2971.45984	4957.875
2973.90632	4976.675
2976.35131	4948.475
2978.7948	4920.575
2981.23681	4921.575
2983.67732	4894.775
2986.11635	4884.375
2988.55388	4866.475
2990.98993	4847.275
2993.4245	4839.875
2995.85758	4838.075
2998.28917	4821.075
3000.71928	4835.275
3003.14791	4814.675
3005.57506	4813.775
3008.00073	4792.875
3010.42493	4688.275
3012.84764	4784.175
3015.26888	4775.975
3017.68865	4745.575
3020.10694	4758.575
3022.52376	4730.675
3024.9391	4741.775
3027.35298	4723.475
3029.76539	4722.475
3032.17632	4730.175
3034.5858	4718.675
3036.9938	4692.675
3039.40034	4685.875
3041.80542	4704.175
3044.20903	4687.775
3046.61118	4683.475
3049.01187	4659.675
3051.4111	4667.375
3053.80888	4642.375
3056.20519	4633.175
3058.60005	4629.375
3060.99345	4614.975
3063.3854	4614.075
3065.7759	4602.275
3068.16494	4586.475
3070.55254	4583.675
3072.93868	4570.175
3075.32338	4536.875
3077.70662	4540.475
3080.08842	4520.175
3082.46878	4500.175
3084.84769	4517.975
3087.22515	4505.475
3089.60118	4504.875
3091.97576	4475.375
3094.3489	4476.675
3096.72061	4483.675
3099.09087	4488.975
3101.4597	4470.675
3103.82709	4481.775
3106.19305	4471.475
3108.55757	4471.075
3110.92066	4453.575
3113.28232	4450.275
3115.64255	4440.175
3118.00134	4425.375
3120.35871	4422.875
3122.71466	4422.775
3125.06917	4419.575
3127.42226	4401.375
3129.77393	4404.675
3132.12417	4404.175
3134.47299	4383.675
3136.82039	4389.575
3139.16636	4414.675
3141.51092	4403.675
3143.85406	4404.175
3146.19579	4397.475
3148.53609	4412.375
3150.87499	4426.175
3153.21246	4428.375
3155.54853	4428.275
3157.88318	4432.375
3160.21642	4431.675
3162.54826	4434.175
3164.87868	4433.675
3167.2077	4432.975
3169.5353	4428.175
3171.86151	4436.575
3174.18631	4429.175
3176.5097	4439.875
3178.83169	4425.675
3181.15228	4416.775
3183.47147	4431.475
3185.78926	4407.375
3188.10565	4417.175
3190.42065	4412.575
3192.73424	4400.675
3195.04645	4413.775
3197.35725	4407.775
3199.66667	4419.975
3201.97469	4431.375
3204.28132	4418.975
