Data from AgNP_FTO_APTES_UA_10uM_CRN_2uM_R6G_10uM_NaF_0.1M_Addition_RamanShift__8__14-06-10-585.txt Node

Date: Thu Feb 10 14:06:10 GMT 2022
User: TCL
Spectrometer: QEP01345
Trigger mode: 4
Integration Time (sec): 7.000000E0
Scans to average: 10
Electric dark correction enabled: true
Nonlinearity correction enabled: false
Boxcar width: 0
XAxis mode: Raman Shifts
Number of Pixels in Spectrum: 1044
>>>>>Begin Spectral Data<<<<<
46.04893	-0.1125
50.45542	-0.5125
54.85868	-1.9125
59.25871	-1.4125
63.6555	71.6875
68.04907	73.9875
72.43941	78.0875
76.82654	76.7875
81.21044	81.8875
85.59113	86.5875
89.96862	86.3875
94.34289	89.4875
98.71396	92.1875
103.08183	97.7875
107.4465	97.1875
111.80798	98.3875
116.16626	104.7875
120.52136	109.6875
124.87327	114.5875
129.222	118.8875
133.56755	128.5875
137.90993	136.7875
142.24913	145.5875
146.58517	169.9875
150.91804	195.9875
155.24774	232.2875
159.57429	293.7875
163.89768	377.1875
168.21792	499.7875
172.53501	688.9875
176.84895	955.8875
181.15975	1345.4875
185.46741	1888.8875
189.77193	2617.0875
194.07331	3500.9875
198.37157	4505.5875
202.6667	5578.8875
206.9587	6626.7875
211.24758	7687.5875
215.53334	8729.1875
219.81599	9840.8875
224.09553	11074.2875
228.37195	12438.5875
232.64527	13890.6875
236.91549	15434.0875
241.18261	16975.5875
245.44663	18390.9875
249.70755	19620.1875
253.96539	20733.9875
258.22014	21612.6875
262.4718	22380.7875
266.72039	22899.7875
270.96589	23204.9875
275.20832	23248.7875
279.44768	23088.7875
283.68397	22873.0875
287.91719	22664.4875
292.14735	22609.7875
296.37445	22667.7875
300.59849	22861.5875
304.81948	23094.0875
309.03742	23140.7875
313.25231	23013.4875
317.46415	22527.0875
321.67296	21838.1875
325.87872	21259.1875
330.08145	20943.4875
334.28114	20924.1875
338.47781	21102.3875
342.67145	21397.7875
346.86207	21781.6875
351.04966	22233.8875
355.23424	22685.4875
359.4158	23031.8875
363.59435	23325.3875
367.76989	23469.0875
371.94243	23558.4875
376.11196	23626.0875
380.27849	23620.3875
384.44203	23653.3875
388.60257	23803.1875
392.76012	23983.6875
396.91468	24373.9875
401.06626	24760.6875
405.21485	24995.9875
409.36047	24741.4875
413.50311	24316.5875
417.64277	23972.6875
421.77947	23913.7875
425.9132	23965.9875
430.04396	24060.6875
434.17176	24116.3875
438.2966	24225.5875
442.41849	24598.8875
446.53742	25155.7875
450.6534	25718.5875
454.76644	26171.3875
458.87653	26380.6875
462.98368	26274.0875
467.08789	26059.2875
471.18916	25794.3875
475.2875	25425.7875
479.38291	25201.4875
483.4754	25008.6875
487.56496	24727.2875
491.6516	24376.2875
495.73531	24030.8875
499.81612	23847.0875
503.89401	23933.8875
507.96899	24080.5875
512.04106	24145.0875
516.11023	24124.7875
520.1765	23976.9875
524.23987	23759.8875
528.30034	23530.4875
532.35792	23263.3875
536.41261	22975.8875
540.46441	22709.6875
544.51333	22675.2875
548.55936	22950.7875
552.60252	23449.1875
556.64279	24032.8875
560.6802	24454.4875
564.71473	24707.6875
568.7464	25192.1875
572.7752	25988.7875
576.80114	26765.8875
580.82422	27473.3875
584.84444	28146.9875
588.86181	28945.3875
592.87633	29638.1875
596.888	29436.9875
600.89682	28441.7875
604.9028	28457.8875
608.90594	30640.4875
612.90624	33239.0875
616.90371	31203.8875
620.89834	25968.0875
624.89015	23608.6875
628.87913	23331.6875
632.86528	23552.4875
636.84862	23627.9875
640.82913	23272.9875
644.80683	22662.6875
648.78172	22194.5875
652.75379	22122.2875
656.72306	22450.7875
660.68952	22857.1875
664.65319	22708.9875
668.61405	22223.3875
672.57211	22104.5875
676.52738	22214.7875
680.47986	22197.7875
684.42955	22030.8875
688.37646	21955.3875
692.32058	22054.7875
696.26192	22304.2875
700.20048	22620.4875
704.13626	22849.0875
708.06928	22851.1875
711.99952	22760.8875
715.927	22749.5875
719.85171	22738.5875
723.77365	22611.2875
727.69284	22279.4875
731.60928	21981.0875
735.52295	21842.7875
739.43388	21825.7875
743.34206	21891.7875
747.24749	22019.3875
751.15017	22236.4875
755.05012	22647.1875
758.94733	23368.8875
762.8418	24690.8875
766.73354	26730.9875
770.62254	28581.8875
774.50882	28959.3875
778.39237	27653.2875
782.27321	25659.9875
786.15132	23890.0875
790.02671	22812.5875
793.89938	22205.9875
797.76935	21944.6875
801.6366	21859.6875
805.50115	21764.8875
809.36299	21631.1875
813.22213	21500.2875
817.07857	21418.5875
820.93231	21354.0875
824.78336	21301.1875
828.63172	21189.5875
832.47738	21158.1875
836.32036	21121.6875
840.16066	21104.3875
843.99827	21082.8875
847.8332	21073.9875
851.66546	21095.7875
855.49504	21147.6875
859.32195	21122.9875
863.1462	21097.2875
866.96777	21012.3875
870.78668	20988.3875
874.60293	20992.8875
878.41652	20985.0875
882.22745	21042.8875
886.03573	21127.1875
889.84136	21167.8875
893.64433	21086.4875
897.44466	21014.6875
901.24235	20987.4875
905.0374	20934.2875
908.8298	20905.5875
912.61957	20925.7875
916.40671	21047.1875
920.19121	21340.5875
923.97308	21555.8875
927.75233	21557.0875
931.52895	21378.5875
935.30295	21088.0875
939.07433	20663.7875
942.84309	20359.5875
946.60924	20228.3875
950.37278	20128.2875
954.13371	20083.3875
957.89203	20096.3875
961.64774	20090.5875
965.40086	20107.4875
969.15137	20071.4875
972.89929	20001.2875
976.64461	19918.7875
980.38733	19893.2875
984.12747	19954.5875
987.86502	20057.7875
991.59999	20180.0875
995.33237	20333.8875
999.06217	20590.5875
1002.78939	20982.8875
1006.51404	21397.2875
1010.23611	21738.5875
1013.95561	22040.6875
1017.67255	22105.7875
1021.38692	21906.4875
1025.09872	21549.3875
1028.80796	21280.2875
1032.51465	21166.5875
1036.21877	21290.1875
1039.92035	21365.6875
1043.61937	21432.3875
1047.31584	21443.5875
1051.00976	21435.9875
1054.70114	21444.5875
1058.38998	21547.1875
1062.07627	21781.4875
1065.76003	22056.8875
1069.44126	22381.0875
1073.11995	22717.3875
1076.79611	23055.3875
1080.46974	23299.1875
1084.14085	23500.0875
1087.80943	23825.2875
1091.47549	24052.1875
1095.13903	24022.9875
1098.80005	23627.2875
1102.45857	23085.4875
1106.11456	22672.8875
1109.76805	22440.5875
1113.41903	22415.6875
1117.06751	22578.0875
1120.71348	22867.1875
1124.35696	23251.2875
1127.99793	23597.2875
1131.63641	23751.3875
1135.2724	23541.2875
1138.90589	23357.4875
1142.5369	23271.2875
1146.16542	23326.6875
1149.79145	23475.5875
1153.415	23675.3875
1157.03607	23962.6875
1160.65467	24594.7875
1164.27079	25622.8875
1167.88443	26969.0875
1171.49561	28583.2875
1175.10432	30609.3875
1178.71056	33110.1875
1182.31434	35468.0875
1185.91565	36721.8875
1189.51451	36704.1875
1193.11091	35877.7875
1196.70485	34544.1875
1200.29634	33043.9875
1203.88538	31848.8875
1207.47197	31097.1875
1211.05612	30531.0875
1214.63782	29887.0875
1218.21708	29111.6875
1221.79391	28297.0875
1225.36829	27741.2875
1228.94024	27362.8875
1232.50976	27129.4875
1236.07685	26840.7875
1239.6415	26590.4875
1243.20374	26520.2875
1246.76355	26673.2875
1250.32093	27003.6875
1253.8759	27488.9875
1257.42845	28249.8875
1260.97859	29118.6875
1264.52631	30052.0875
1268.07163	30937.5875
1271.61453	31740.8875
1275.15503	32609.4875
1278.69312	33407.4875
1282.22882	34152.5875
1285.76211	35202.0875
1289.29301	36428.7875
1292.82151	38015.6875
1296.34761	39978.8875
1299.87133	42224.6875
1303.39266	44631.9875
1306.9116	47019.1875
1310.42815	49109.8875
1313.94233	50181.9875
1317.45412	49830.6875
1320.96354	48770.3875
1324.47058	47936.4875
1327.97525	47323.6875
1331.47754	46925.5875
1334.97747	46623.6875
1338.47502	46434.8875
1341.97022	46390.0875
1345.46305	46378.8875
1348.95352	46437.1875
1352.44163	46455.3875
1355.92738	46821.7875
1359.41078	48274.4875
1362.89183	49842.8875
1366.37053	48795.4875
1369.84688	44614.5875
1373.32088	39674.9875
1376.79254	36457.5875
1380.26186	35224.3875
1383.72883	35004.2875
1387.19347	34974.7875
1390.65578	34678.0875
1394.11575	34458.8875
1397.57339	34563.1875
1401.0287	34842.2875
1404.48168	35049.6875
1407.93234	34829.2875
1411.38068	34219.8875
1414.82669	33200.6875
1418.27039	32045.8875
1421.71177	30833.4875
1425.15083	29964.3875
1428.58758	29551.8875
1432.02203	29915.1875
1435.45416	30679.9875
1438.88399	31561.2875
1442.31151	32160.8875
1445.73673	32513.9875
1449.15965	32808.2875
1452.58027	32888.3875
1455.9986	33008.6875
1459.41463	33264.6875
1462.82837	33754.8875
1466.23982	34242.9875
1469.64898	34633.2875
1473.05586	34847.4875
1476.46045	34762.3875
1479.86276	34528.0875
1483.26279	34379.7875
1486.66054	34399.5875
1490.05602	34781.1875
1493.44922	35469.7875
1496.84016	36442.2875
1500.22882	37964.6875
1503.61521	39881.6875
1506.99934	42080.7875
1510.38121	43499.4875
1513.76081	43582.6875
1517.13816	42054.6875
1520.51324	39900.0875
1523.88607	38083.7875
1527.25665	37219.1875
1530.62498	36813.3875
1533.99105	36522.0875
1537.35488	35950.7875
1540.71647	35117.7875
1544.07581	34113.2875
1547.4329	33166.7875
1550.78776	32466.8875
1554.14038	32030.0875
1557.49077	31790.0875
1560.83892	31714.9875
1564.18484	31844.4875
1567.52853	32023.7875
1570.86999	32448.1875
1574.20922	33086.6875
1577.54624	33461.5875
1580.88103	33421.6875
1584.2136	33298.9875
1587.54395	33684.0875
1590.87208	34889.5875
1594.19801	36637.4875
1597.52172	38400.3875
1600.84321	38811.9875
1604.16251	37293.2875
1607.47959	34904.3875
1610.79447	32295.1875
1614.10715	29609.5875
1617.41763	27326.8875
1620.7259	25715.6875
1624.03199	24860.0875
1627.33587	24773.6875
1630.63757	25537.9875
1633.93707	27186.8875
1637.23439	30064.0875
1640.52951	34278.4875
1643.82246	39222.7875
1647.11321	43177.4875
1650.40179	44118.1875
1653.68819	41056.8875
1656.97241	35488.0875
1660.25446	29933.2875
1663.53433	25845.2875
1666.81203	23233.5875
1670.08756	21625.6875
1673.36092	20640.3875
1676.63211	19971.6875
1679.90115	19504.9875
1683.16801	19187.5875
1686.43272	18968.4875
1689.69527	18755.4875
1692.95567	18569.8875
1696.2139	18527.9875
1699.46999	18442.4875
1702.72392	18413.8875
1705.97571	18292.7875
1709.22535	18247.5875
1712.47284	18230.5875
1715.71819	18164.1875
1718.96139	18128.9875
1722.20246	18064.1875
1725.44139	17925.5875
1728.67818	17841.5875
1731.91284	17686.8875
1735.14537	17614.5875
1738.37576	17552.9875
1741.60403	17469.5875
1744.83017	17391.3875
1748.05418	17348.2875
1751.27607	17301.6875
1754.49584	17282.1875
1757.71349	17261.3875
1760.92903	17238.3875
1764.14244	17225.0875
1767.35375	17206.9875
1770.56294	17154.2875
1773.77002	17101.3875
1776.97499	17069.4875
1780.17785	16963.6875
1783.37861	16947.5875
1786.57727	16968.8875
1789.77382	16884.8875
1792.96828	16868.1875
1796.16064	16841.4875
1799.3509	16802.5875
1802.53907	16743.4875
1805.72514	16702.3875
1808.90913	16634.7875
1812.09102	16628.7875
1815.27083	16588.4875
1818.44856	16558.1875
1821.6242	16522.9875
1824.79776	16506.9875
1827.96924	16488.9875
1831.13864	16472.1875
1834.30597	16490.6875
1837.47122	16465.1875
1840.6344	16458.6875
1843.7955	16462.4875
1846.95454	16444.1875
1850.11151	16425.1875
1853.26642	16426.5875
1856.41926	16381.3875
1859.57004	16372.6875
1862.71876	16351.8875
1865.86542	16337.7875
1869.01003	16339.7875
1872.15258	16297.8875
1875.29308	16268.4875
1878.43152	16254.2875
1881.56792	16220.9875
1884.70227	16192.1875
1887.83457	16171.7875
1890.96482	16135.7875
1894.09304	16137.6875
1897.21921	16081.5875
1900.34335	16054.1875
1903.46544	16045.0875
1906.58551	16022.5875
1909.70353	15978.5875
1912.81953	15951.7875
1915.93349	15945.0875
1919.04543	15912.5875
1922.15534	15858.9875
1925.26322	15816.7875
1928.36908	15790.2875
1931.47292	15734.7875
1934.57473	15700.3875
1937.67453	15647.5875
1940.77232	15602.3875
1943.86808	15541.9875
1946.96184	15508.7875
1950.05358	15458.7875
1953.14331	15429.7875
1956.23103	15387.9875
1959.31675	15336.1875
1962.40046	15295.1875
1965.48217	15257.3875
1968.56188	15241.8875
1971.63959	15165.4875
1974.7153	15145.9875
1977.78901	15085.3875
1980.86073	15031.7875
1983.93046	14973.8875
1986.99819	14913.1875
1990.06394	14902.3875
1993.1277	14855.0875
1996.18947	14778.2875
1999.24925	14754.5875
2002.30706	14705.3875
2005.36288	14643.4875
2008.41672	14585.2875
2011.46859	14522.3875
2014.51848	14525.6875
2017.56639	14464.8875
2020.61233	14414.9875
2023.6563	14396.4875
2026.6983	14376.7875
2029.73833	14301.6875
2032.7764	14277.1875
2035.8125	14259.8875
2038.84664	14236.1875
2041.87881	14213.8875
2044.90903	14164.0875
2047.93729	14150.8875
2050.96359	14118.5875
2053.98794	14109.1875
2057.01034	14111.4875
2060.03078	14085.2875
2063.04927	14048.2875
2066.06582	14049.6875
2069.08042	14044.0875
2072.09307	14026.9875
2075.10378	14007.6875
2078.11255	14010.1875
2081.11938	13997.4875
2084.12426	13969.1875
2087.12722	14004.8875
2090.12824	13996.7875
2093.12732	13980.1875
2096.12447	13970.0875
2099.11969	13962.9875
2102.11299	13969.4875
2105.10435	14007.9875
2108.09379	13989.1875
2111.08131	13974.5875
2114.0669	13993.7875
2117.05057	13996.1875
2120.03233	13991.8875
2123.01216	14012.8875
2125.99008	14012.1875
2128.96609	14015.4875
2131.94018	14043.8875
2134.91236	14035.7875
2137.88263	14066.2875
2140.851	14028.1875
2143.81746	14039.3875
2146.78201	14045.2875
2149.74466	14021.6875
2152.7054	14040.7875
2155.66425	14030.8875
2158.6212	13986.0875
2161.57625	14017.4875
2164.52941	13998.7875
2167.48067	13953.9875
2170.43004	13962.5875
2173.37752	13939.7875
2176.32311	14005.4875
2179.26681	13982.3875
2182.20863	13987.6875
2185.14856	13973.4875
2188.08661	13946.7875
2191.02278	13968.1875
2193.95707	13954.4875
2196.88948	13935.1875
2199.82001	13923.2875
2202.74867	13877.9875
2205.67545	13866.0875
2208.60037	13873.4875
2211.52341	13845.3875
2214.44458	13804.2875
2217.36388	13789.1875
2220.28132	13745.8875
2223.1969	13699.2875
2226.11061	13706.1875
2229.02246	13675.0875
2231.93245	13660.7875
2234.84058	13632.8875
2237.74686	13625.7875
2240.65128	13609.5875
2243.55385	13564.1875
2246.45456	13534.2875
2249.35343	13535.1875
2252.25044	13507.4875
2255.14561	13507.1875
2258.03893	13477.6875
2260.93041	13456.7875
2263.82004	13385.7875
2266.70783	13351.6875
2269.59378	13314.4875
2272.4779	13304.5875
2275.36017	13230.4875
2278.24061	13222.6875
2281.11922	13194.1875
2283.996	13193.4875
2286.87094	13197.5875
2289.74405	13161.5875
2292.61534	13136.9875
2295.4848	13108.9875
2298.35243	13093.7875
2301.21824	13083.6875
2304.08223	13132.7875
2306.94439	13101.8875
2309.80474	13062.8875
2312.66327	13064.0875
2315.51999	13065.6875
2318.37489	13061.2875
2321.22797	13037.9875
2324.07925	12996.3875
2326.92871	12981.5875
2329.77637	12973.7875
2332.62222	12977.9875
2335.46626	12958.7875
2338.3085	12934.8875
2341.14893	12905.0875
2343.98756	12931.5875
2346.8244	12921.5875
2349.65943	12910.0875
2352.49267	12908.0875
2355.32411	12916.9875
2358.15376	12922.2875
2360.98161	12902.3875
2363.80768	12925.6875
2366.63195	12897.9875
2369.45444	12907.5875
2372.27514	12901.1875
2375.09405	12879.0875
2377.91118	12843.7875
2380.72652	12752.1875
2383.54009	12769.4875
2386.35187	12748.2875
2389.16188	12677.5875
2391.97011	12695.2875
2394.77657	12628.9875
2397.58125	12593.8875
2400.38416	12574.7875
2403.18529	12573.1875
2405.98466	12575.0875
2408.78226	12520.6875
2411.57809	12494.8875
2414.37216	12516.7875
2417.16446	12494.9875
2419.955	12467.1875
2422.74378	12470.6875
2425.5308	12475.6875
2428.31606	12460.4875
2431.09956	12468.2875
2433.88131	12471.2875
2436.6613	12431.5875
2439.43954	12450.2875
2442.21603	12423.9875
2444.99077	12418.9875
2447.76377	12422.6875
2450.53501	12396.0875
2453.30451	12410.1875
2456.07226	12374.6875
2458.83827	12418.4875
2461.60254	12395.3875
2464.36507	12409.8875
2467.12586	12396.3875
2469.88492	12352.0875
2472.64224	12378.4875
2475.39782	12363.1875
2478.15167	12400.3875
2480.90379	12373.6875
2483.65417	12399.3875
2486.40283	12395.3875
2489.14976	12396.0875
2491.89497	12371.7875
2494.63845	12363.7875
2497.3802	12345.2875
2500.12024	12344.9875
2502.85855	12337.6875
2505.59514	12295.8875
2508.33002	12303.5875
2511.06318	12290.3875
2513.79462	12294.1875
2516.52435	12251.1875
2519.25237	12266.8875
2521.97867	12232.9875
2524.70327	12261.2875
2527.42616	12254.4875
2530.14734	12226.9875
2532.86681	12207.5875
2535.58458	12230.9875
2538.30065	12205.1875
2541.01501	12184.6875
2543.72768	12168.3875
2546.43864	12152.5875
2549.14791	12157.2875
2551.85548	12142.1875
2554.56136	12147.5875
2557.26554	12111.3875
2559.96803	12069.3875
2562.66883	12074.3875
2565.36794	12059.3875
2568.06536	12036.9875
2570.7611	12035.6875
2573.45514	12008.5875
2576.14751	11980.1875
2578.83819	11957.3875
2581.52719	11977.2875
2584.21451	11940.7875
2586.90015	11963.4875
2589.58411	11935.1875
2592.2664	11912.8875
2594.94701	11926.7875
2597.62594	11913.7875
2600.30321	11881.8875
2602.9788	11878.1875
2605.65273	11874.3875
2608.32498	11881.4875
2610.99557	11898.9875
2613.66449	11856.9875
2616.33175	11858.7875
2618.99734	11861.0875
2621.66128	11864.0875
2624.32355	11831.2875
2626.98416	11791.3875
2629.64311	11765.3875
2632.30041	11752.4875
2634.95605	11787.1875
2637.61004	11750.4875
2640.26238	11700.7875
2642.91306	11740.5875
2645.56209	11742.4875
2648.20948	11752.6875
2650.85521	11737.0875
2653.4993	11757.6875
2656.14175	11761.3875
2658.78255	11744.0875
2661.42171	11785.7875
2664.05923	11799.4875
2666.6951	11789.6875
2669.32934	11802.7875
2671.96194	11800.5875
2674.59291	11765.3875
2677.22224	11769.9875
2679.84993	11764.4875
2682.476	11778.1875
2685.10043	11754.0875
2687.72324	11746.8875
2690.34441	11753.6875
2692.96396	11761.1875
2695.58188	11762.0875
2698.19818	11711.8875
2700.81285	11768.8875
2703.4259	11717.2875
2706.03733	11738.4875
2708.64714	11756.6875
2711.25533	11782.5875
2713.86191	11754.5875
2716.46687	11775.0875
2719.07021	11784.7875
2721.67194	11790.7875
2724.27206	11804.0875
2726.87057	11803.6875
2729.46747	11793.4875
2732.06276	11815.3875
2734.65644	11825.5875
2737.24852	11816.9875
2739.83899	11818.8875
2742.42786	11791.6875
2745.01513	11776.7875
2747.60079	11752.4875
2750.18486	11744.8875
2752.76733	11770.2875
2755.3482	11761.3875
2757.92747	11743.2875
2760.50515	11698.3875
2763.08123	11703.5875
2765.65573	11670.8875
2768.22863	11674.3875
2770.79994	11671.2875
2773.36967	11667.9875
2775.9378	11648.3875
2778.50435	11651.8875
2781.06932	11658.6875
2783.6327	11644.3875
2786.1945	11645.9875
2788.75471	11623.5875
2791.31335	11619.2875
2793.87041	11619.3875
2796.42589	11588.5875
2798.97979	11561.6875
2801.53212	11559.3875
2804.08288	11535.1875
2806.63206	11508.5875
2809.17967	11490.8875
2811.72571	11480.9875
2814.27018	11444.2875
2816.81308	11412.1875
2819.35442	11395.5875
2821.89419	11382.1875
2824.43239	11388.1875
2826.96904	11348.1875
2829.50412	11374.3875
2832.03763	11317.1875
2834.56959	11318.3875
2837.1	11303.0875
2839.62884	11311.6875
2842.15613	11329.9875
2844.68186	11338.4875
2847.20604	11325.6875
2849.72867	11352.9875
2852.24974	11335.1875
2854.76927	11312.8875
2857.28724	11316.2875
2859.80367	11293.8875
2862.31855	11279.4875
2864.83189	11271.0875
2867.34368	11242.1875
2869.85393	11258.0875
2872.36264	11224.1875
2874.8698	11230.0875
2877.37543	11223.5875
2879.87952	11228.8875
2882.38207	11210.5875
2884.88308	11205.8875
2887.38256	11201.8875
2889.88051	11176.9875
2892.37692	11188.1875
2894.8718	11176.1875
2897.36515	11204.7875
2899.85698	11199.7875
2902.34727	11206.8875
2904.83604	11225.5875
2907.32328	11258.5875
2909.809	11267.2875
2912.29319	11283.9875
2914.77587	11261.3875
2917.25702	11273.2875
2919.73665	11213.0875
2922.21476	11237.4875
2924.69136	11194.4875
2927.16644	11204.5875
2929.64	11182.2875
2932.11205	11179.5875
2934.58258	11120.8875
2937.05161	11152.4875
2939.51912	11156.5875
2941.98513	11139.3875
2944.44962	11113.2875
2946.91261	11060.7875
2949.37409	11052.6875
2951.83407	11045.2875
2954.29254	11072.2875
2956.74951	11038.6875
2959.20498	11035.9875
2961.65895	11027.2875
2964.11142	11033.6875
2966.56239	10985.8875
2969.01186	10990.3875
2971.45984	10981.5875
2973.90632	10984.3875
2976.35131	10960.2875
2978.7948	10930.1875
2981.23681	10881.0875
2983.67732	10900.9875
2986.11635	10865.5875
2988.55388	10826.2875
2990.98993	10809.1875
2993.4245	10797.2875
2995.85758	10759.8875
2998.28917	10733.2875
3000.71928	10713.9875
3003.14791	10688.4875
3005.57506	10678.3875
3008.00073	10642.0875
3010.42493	10508.8875
3012.84764	10594.5875
3015.26888	10584.5875
3017.68865	10537.8875
3020.10694	10516.8875
3022.52376	10500.6875
3024.9391	10513.2875
