Data from AgNP_FTO_APTES_UA_10uM_CRN_2uM_R6G_10uM_NaF_0.1M_Addition_RamanShift__30__14-31-50-617.txt Node

Date: Thu Feb 10 14:31:50 GMT 2022
User: TCL
Spectrometer: QEP01345
Trigger mode: 4
Integration Time (sec): 7.000000E0
Scans to average: 10
Electric dark correction enabled: true
Nonlinearity correction enabled: false
Boxcar width: 0
XAxis mode: Raman Shifts
Number of Pixels in Spectrum: 1044
>>>>>Begin Spectral Data<<<<<
46.04893	-0.3125
50.45542	-0.8125
54.85868	-1.7125
59.25871	-0.8125
63.6555	51.1875
68.04907	52.1875
72.43941	60.1875
76.82654	58.6875
81.21044	63.0875
85.59113	63.2875
89.96862	66.7875
94.34289	71.0875
98.71396	70.5875
103.08183	75.1875
107.4465	77.8875
111.80798	77.3875
116.16626	79.3875
120.52136	83.8875
124.87327	85.0875
129.222	86.9875
133.56755	92.1875
137.90993	91.7875
142.24913	99.1875
146.58517	109.8875
150.91804	128.9875
155.24774	146.9875
159.57429	177.2875
163.89768	228.5875
168.21792	298.2875
172.53501	405.0875
176.84895	554.2875
181.15975	779.8875
185.46741	1070.1875
189.77193	1473.2875
194.07331	1970.2875
198.37157	2532.2875
202.6667	3117.1875
206.9587	3696.6875
211.24758	4303.8875
215.53334	4922.2875
219.81599	5594.4875
224.09553	6358.5875
228.37195	7212.7875
232.64527	8151.1875
236.91549	9082.2875
241.18261	9969.9875
245.44663	10642.0875
249.70755	11251.1875
253.96539	11773.3875
258.22014	12208.6875
262.4718	12623.2875
266.72039	12945.8875
270.96589	13155.1875
275.20832	13212.4875
279.44768	13156.8875
283.68397	13069.6875
287.91719	13026.4875
292.14735	13059.0875
296.37445	13274.4875
300.59849	13665.6875
304.81948	14055.2875
309.03742	14335.6875
313.25231	14226.4875
317.46415	13566.3875
321.67296	12609.5875
325.87872	11802.9875
330.08145	11398.4875
334.28114	11402.3875
338.47781	11564.4875
342.67145	11872.5875
346.86207	12366.0875
351.04966	13059.8875
355.23424	13792.6875
359.4158	14352.4875
363.59435	14637.6875
367.76989	14703.4875
371.94243	14626.7875
376.11196	14535.9875
380.27849	14428.9875
384.44203	14305.8875
388.60257	14135.6875
392.76012	14116.0875
396.91468	14265.5875
401.06626	14677.5875
405.21485	14973.3875
409.36047	14761.5875
413.50311	14068.1875
417.64277	13421.1875
421.77947	13131.8875
425.9132	13023.4875
430.04396	13002.5875
434.17176	13085.8875
438.2966	13202.3875
442.41849	13534.0875
446.53742	13929.0875
450.6534	14341.8875
454.76644	14622.9875
458.87653	14675.6875
462.98368	14559.1875
467.08789	14345.3875
471.18916	14033.3875
475.2875	13717.7875
479.38291	13446.7875
483.4754	13244.7875
487.56496	13057.6875
491.6516	12896.7875
495.73531	12804.4875
499.81612	12842.3875
503.89401	12940.8875
507.96899	13080.5875
512.04106	13186.3875
516.11023	13320.4875
520.1765	13407.7875
524.23987	13391.2875
528.30034	13107.2875
532.35792	12830.8875
536.41261	12568.3875
540.46441	12296.4875
544.51333	12211.0875
548.55936	12337.4875
552.60252	12708.4875
556.64279	13076.7875
560.6802	13269.7875
564.71473	13482.0875
568.7464	13995.4875
572.7752	14403.7875
576.80114	14152.5875
580.82422	13862.7875
584.84444	13760.7875
588.86181	13701.8875
592.87633	13740.4875
596.888	13884.1875
600.89682	14360.5875
604.9028	15833.3875
608.90594	19735.6875
612.90624	24705.7875
616.90371	23353.3875
620.89834	16587.1875
624.89015	13601.9875
628.87913	13063.2875
632.86528	13149.0875
636.84862	13267.1875
640.82913	12983.4875
644.80683	12413.1875
648.78172	12001.1875
652.75379	12071.2875
656.72306	12598.3875
660.68952	13157.8875
664.65319	13066.6875
668.61405	12463.9875
672.57211	12171.5875
676.52738	12155.2875
680.47986	12108.6875
684.42955	12037.8875
688.37646	11999.2875
692.32058	12076.5875
696.26192	12222.8875
700.20048	12412.0875
704.13626	12530.7875
708.06928	12556.0875
711.99952	12424.7875
715.927	12346.3875
719.85171	12343.9875
723.77365	12278.5875
727.69284	12119.3875
731.60928	11988.7875
735.52295	11984.9875
739.43388	12040.1875
743.34206	12094.9875
747.24749	12198.6875
751.15017	12340.6875
755.05012	12667.4875
758.94733	13295.5875
762.8418	14672.0875
766.73354	17042.9875
770.62254	19408.9875
774.50882	20355.2875
778.39237	19251.3875
782.27321	16758.7875
786.15132	14399.6875
790.02671	13075.8875
793.89938	12490.1875
797.76935	12235.7875
801.6366	12091.6875
805.50115	12016.3875
809.36299	11933.9875
813.22213	11883.1875
817.07857	11865.8875
820.93231	11859.2875
824.78336	11891.1875
828.63172	11930.2875
832.47738	11965.3875
836.32036	11964.7875
840.16066	11903.1875
843.99827	11889.7875
847.8332	11858.4875
851.66546	11806.4875
855.49504	11815.1875
859.32195	11787.6875
863.1462	11705.0875
866.96777	11638.1875
870.78668	11613.5875
874.60293	11665.8875
878.41652	11678.2875
882.22745	11758.4875
886.03573	11817.4875
889.84136	11763.5875
893.64433	11699.0875
897.44466	11672.2875
901.24235	11684.7875
905.0374	11649.2875
908.8298	11636.0875
912.61957	11635.2875
916.40671	11740.4875
920.19121	11875.1875
923.97308	12028.1875
927.75233	12146.7875
931.52895	12215.9875
935.30295	12024.5875
939.07433	11685.5875
942.84309	11365.7875
946.60924	11233.9875
950.37278	11124.5875
954.13371	11077.0875
957.89203	11023.7875
961.64774	11016.2875
965.40086	10971.5875
969.15137	10924.3875
972.89929	10887.4875
976.64461	10897.5875
980.38733	10911.9875
984.12747	10943.4875
987.86502	11004.7875
991.59999	11131.5875
995.33237	11302.5875
999.06217	11634.0875
1002.78939	12031.4875
1006.51404	12377.1875
1010.23611	12659.8875
1013.95561	12855.9875
1017.67255	12815.2875
1021.38692	12648.2875
1025.09872	12459.7875
1028.80796	12471.0875
1032.51465	12673.2875
1036.21877	12937.2875
1039.92035	12975.9875
1043.61937	12863.7875
1047.31584	12670.6875
1051.00976	12439.9875
1054.70114	12370.2875
1058.38998	12348.0875
1062.07627	12467.1875
1065.76003	12547.3875
1069.44126	12643.6875
1073.11995	12811.0875
1076.79611	12954.4875
1080.46974	13126.0875
1084.14085	13364.0875
1087.80943	13699.1875
1091.47549	13838.8875
1095.13903	13612.0875
1098.80005	13148.5875
1102.45857	12718.7875
1106.11456	12550.8875
1109.76805	12532.0875
1113.41903	12741.8875
1117.06751	13087.6875
1120.71348	13554.8875
1124.35696	14028.5875
1127.99793	14521.0875
1131.63641	14487.9875
1135.2724	13975.3875
1138.90589	13419.7875
1142.5369	13065.8875
1146.16542	12870.0875
1149.79145	12789.9875
1153.415	12810.1875
1157.03607	12992.9875
1160.65467	13307.6875
1164.27079	13826.5875
1167.88443	14549.8875
1171.49561	15773.6875
1175.10432	17688.1875
1178.71056	20164.9875
1182.31434	22006.1875
1185.91565	22635.2875
1189.51451	22211.2875
1193.11091	20997.1875
1196.70485	19416.1875
1200.29634	18195.7875
1203.88538	17191.8875
1207.47197	16193.7875
1211.05612	15343.4875
1214.63782	14892.7875
1218.21708	14775.1875
1221.79391	14849.6875
1225.36829	14955.2875
1228.94024	15061.9875
1232.50976	15088.6875
1236.07685	15068.0875
1239.6415	15042.7875
1243.20374	15048.4875
1246.76355	15101.1875
1250.32093	15299.2875
1253.8759	15674.6875
1257.42845	16199.0875
1260.97859	16730.0875
1264.52631	17226.4875
1268.07163	17678.5875
1271.61453	18170.8875
1275.15503	18599.9875
1278.69312	18941.7875
1282.22882	19201.2875
1285.76211	19624.6875
1289.29301	20155.7875
1292.82151	20759.5875
1296.34761	21420.0875
1299.87133	22437.0875
1303.39266	24115.1875
1306.9116	26668.4875
1310.42815	29514.7875
1313.94233	31393.5875
1317.45412	31136.4875
1320.96354	29544.2875
1324.47058	27683.4875
1327.97525	26028.9875
1331.47754	25027.5875
1334.97747	24667.0875
1338.47502	24771.4875
1341.97022	25178.3875
1345.46305	25643.2875
1348.95352	26324.9875
1352.44163	27301.6875
1355.92738	29195.2875
1359.41078	32516.8875
1362.89183	35756.0875
1366.37053	34845.3875
1369.84688	30000.1875
1373.32088	25240.3875
1376.79254	22236.9875
1380.26186	20775.6875
1383.72883	20058.7875
1387.19347	19519.4875
1390.65578	19004.3875
1394.11575	18603.5875
1397.57339	18497.2875
1401.0287	18712.8875
1404.48168	19027.1875
1407.93234	19398.3875
1411.38068	19632.5875
1414.82669	19484.4875
1418.27039	18966.9875
1421.71177	18358.5875
1425.15083	17802.0875
1428.58758	17470.4875
1432.02203	17463.5875
1435.45416	17579.1875
1438.88399	17688.0875
1442.31151	17741.9875
1445.73673	17915.7875
1449.15965	18110.8875
1452.58027	18090.7875
1455.9986	18059.6875
1459.41463	18095.6875
1462.82837	18317.9875
1466.23982	18639.9875
1469.64898	19075.5875
1473.05586	19308.7875
1476.46045	19451.9875
1479.86276	19687.2875
1483.26279	20029.7875
1486.66054	20446.6875
1490.05602	21009.3875
1493.44922	21788.1875
1496.84016	22874.1875
1500.22882	24580.8875
1503.61521	26815.1875
1506.99934	29431.6875
1510.38121	31967.2875
1513.76081	33206.5875
1517.13816	32022.5875
1520.51324	28828.0875
1523.88607	25510.0875
1527.25665	23188.5875
1530.62498	21803.7875
1533.99105	20923.5875
1537.35488	20391.6875
1540.71647	20071.1875
1544.07581	19799.2875
1547.4329	19600.2875
1550.78776	19432.4875
1554.14038	19371.1875
1557.49077	19469.6875
1560.83892	19740.9875
1564.18484	20148.2875
1567.52853	20505.3875
1570.86999	20738.3875
1574.20922	20917.7875
1577.54624	20786.8875
1580.88103	19964.8875
1584.2136	19035.9875
1587.54395	18739.9875
1590.87208	19295.2875
1594.19801	20583.7875
1597.52172	22120.2875
1600.84321	22724.8875
1604.16251	21910.7875
1607.47959	20355.5875
1610.79447	18598.2875
1614.10715	17018.1875
1617.41763	15781.8875
1620.7259	14982.1875
1624.03199	14598.8875
1627.33587	14650.1875
1630.63757	15059.1875
1633.93707	15916.7875
1637.23439	17190.7875
1640.52951	18903.2875
1643.82246	20946.0875
1647.11321	23132.8875
1650.40179	24540.3875
1653.68819	23754.7875
1656.97241	20764.2875
1660.25446	17375.9875
1663.53433	14987.0875
1666.81203	13503.1875
1670.08756	12610.7875
1673.36092	12069.0875
1676.63211	11728.9875
1679.90115	11488.4875
1683.16801	11306.3875
1686.43272	11174.6875
1689.69527	11100.9875
1692.95567	11019.3875
1696.2139	11001.5875
1699.46999	10973.5875
1702.72392	10926.8875
1705.97571	10910.1875
1709.22535	10907.5875
1712.47284	10879.1875
1715.71819	10896.2875
1718.96139	10871.5875
1722.20246	10869.1875
1725.44139	10809.8875
1728.67818	10749.4875
1731.91284	10674.4875
1735.14537	10575.2875
1738.37576	10522.9875
1741.60403	10462.1875
1744.83017	10434.9875
1748.05418	10412.8875
1751.27607	10387.2875
1754.49584	10374.2875
1757.71349	10362.3875
1760.92903	10353.1875
1764.14244	10355.2875
1767.35375	10354.3875
1770.56294	10324.7875
1773.77002	10311.0875
1776.97499	10253.3875
1780.17785	10228.4875
1783.37861	10234.3875
1786.57727	10189.0875
1789.77382	10174.4875
1792.96828	10150.1875
1796.16064	10141.3875
1799.3509	10133.7875
1802.53907	10121.9875
1805.72514	10082.9875
1808.90913	10064.5875
1812.09102	10059.7875
1815.27083	10034.2875
1818.44856	10021.6875
1821.6242	9993.9875
1824.79776	9953.1875
1827.96924	9968.0875
1831.13864	9951.8875
1834.30597	9952.7875
1837.47122	9933.3875
1840.6344	9938.2875
1843.7955	9927.1875
1846.95454	9946.7875
1850.11151	9939.7875
1853.26642	9950.0875
1856.41926	9960.5875
1859.57004	9980.9875
1862.71876	9965.3875
1865.86542	9952.0875
1869.01003	9961.6875
1872.15258	9980.9875
1875.29308	9990.3875
1878.43152	9991.6875
1881.56792	10004.0875
1884.70227	10018.7875
1887.83457	10002.2875
1890.96482	10015.5875
1894.09304	10009.5875
1897.21921	9999.5875
1900.34335	10018.2875
1903.46544	10001.1875
1906.58551	10011.1875
1909.70353	10003.9875
1912.81953	10039.6875
1915.93349	10028.4875
1919.04543	10030.1875
1922.15534	10000.0875
1925.26322	9967.6875
1928.36908	9949.5875
1931.47292	9926.0875
1934.57473	9888.1875
1937.67453	9853.1875
1940.77232	9772.7875
1943.86808	9721.2875
1946.96184	9691.0875
1950.05358	9632.7875
1953.14331	9589.2875
1956.23103	9549.1875
1959.31675	9513.2875
1962.40046	9481.6875
1965.48217	9484.3875
1968.56188	9426.7875
1971.63959	9415.3875
1974.7153	9381.2875
1977.78901	9380.1875
1980.86073	9319.5875
1983.93046	9278.3875
1986.99819	9266.5875
1990.06394	9231.5875
1993.1277	9212.0875
1996.18947	9160.8875
1999.24925	9148.7875
2002.30706	9112.7875
2005.36288	9069.7875
2008.41672	9050.0875
2011.46859	9007.5875
2014.51848	9030.3875
2017.56639	9027.1875
2020.61233	8975.0875
2023.6563	8959.1875
2026.6983	8941.3875
2029.73833	8894.3875
2032.7764	8883.2875
2035.8125	8882.0875
2038.84664	8846.8875
2041.87881	8836.8875
2044.90903	8799.3875
2047.93729	8790.8875
2050.96359	8801.2875
2053.98794	8787.7875
2057.01034	8778.4875
2060.03078	8762.7875
2063.04927	8780.7875
2066.06582	8749.0875
2069.08042	8731.8875
2072.09307	8712.0875
2075.10378	8721.4875
2078.11255	8713.4875
2081.11938	8694.6875
2084.12426	8689.1875
2087.12722	8711.0875
2090.12824	8693.1875
2093.12732	8678.4875
2096.12447	8668.5875
2099.11969	8664.0875
2102.11299	8659.3875
2105.10435	8681.9875
2108.09379	8675.9875
2111.08131	8668.6875
2114.0669	8696.6875
2117.05057	8676.9875
2120.03233	8710.4875
2123.01216	8717.8875
2125.99008	8696.0875
2128.96609	8725.6875
2131.94018	8739.0875
2134.91236	8724.5875
2137.88263	8734.9875
2140.851	8731.1875
2143.81746	8714.0875
2146.78201	8740.7875
2149.74466	8717.6875
2152.7054	8712.4875
2155.66425	8715.5875
2158.6212	8700.7875
2161.57625	8691.6875
2164.52941	8712.7875
2167.48067	8687.1875
2170.43004	8700.9875
2173.37752	8703.4875
2176.32311	8691.8875
2179.26681	8684.0875
2182.20863	8699.0875
2185.14856	8699.0875
2188.08661	8693.0875
2191.02278	8681.8875
2193.95707	8684.0875
2196.88948	8675.7875
2199.82001	8646.3875
2202.74867	8650.3875
2205.67545	8658.5875
2208.60037	8627.5875
2211.52341	8644.0875
2214.44458	8631.0875
2217.36388	8626.3875
2220.28132	8590.4875
2223.1969	8578.6875
2226.11061	8572.4875
2229.02246	8556.4875
2231.93245	8519.8875
2234.84058	8496.7875
2237.74686	8481.2875
2240.65128	8496.2875
2243.55385	8471.1875
2246.45456	8463.0875
2249.35343	8483.5875
2252.25044	8483.2875
2255.14561	8465.9875
2258.03893	8458.0875
2260.93041	8448.4875
2263.82004	8403.7875
2266.70783	8404.2875
2269.59378	8360.7875
2272.4779	8333.1875
2275.36017	8313.6875
2278.24061	8302.7875
2281.11922	8279.7875
2283.996	8286.6875
2286.87094	8263.4875
2289.74405	8245.9875
2292.61534	8257.8875
2295.4848	8248.1875
2298.35243	8232.4875
2301.21824	8231.0875
2304.08223	8212.5875
2306.94439	8216.8875
2309.80474	8223.2875
2312.66327	8232.7875
2315.51999	8216.5875
2318.37489	8247.5875
2321.22797	8220.7875
2324.07925	8206.1875
2326.92871	8196.7875
2329.77637	8206.7875
2332.62222	8161.9875
2335.46626	8169.4875
2338.3085	8173.0875
2341.14893	8193.9875
2343.98756	8219.9875
2346.8244	8202.3875
2349.65943	8205.8875
2352.49267	8206.0875
2355.32411	8200.2875
2358.15376	8205.6875
2360.98161	8208.7875
2363.80768	8235.3875
2366.63195	8236.8875
2369.45444	8209.5875
2372.27514	8189.7875
2375.09405	8163.2875
2377.91118	8140.2875
2380.72652	8120.9875
2383.54009	8089.3875
2386.35187	8056.0875
2389.16188	8010.1875
2391.97011	7981.0875
2394.77657	8002.3875
2397.58125	7976.2875
2400.38416	7958.4875
2403.18529	7954.6875
2405.98466	7936.1875
2408.78226	7922.4875
2411.57809	7882.9875
2414.37216	7878.8875
2417.16446	7871.1875
2419.955	7861.0875
2422.74378	7861.5875
2425.5308	7836.8875
2428.31606	7857.2875
2431.09956	7847.4875
2433.88131	7822.9875
2436.6613	7840.5875
2439.43954	7834.7875
2442.21603	7848.4875
2444.99077	7842.3875
2447.76377	7834.9875
2450.53501	7801.7875
2453.30451	7825.2875
2456.07226	7823.0875
2458.83827	7832.2875
2461.60254	7807.9875
2464.36507	7800.8875
2467.12586	7802.9875
2469.88492	7811.1875
2472.64224	7802.0875
2475.39782	7809.1875
2478.15167	7825.3875
2480.90379	7831.9875
2483.65417	7848.4875
2486.40283	7881.2875
2489.14976	7898.8875
2491.89497	7887.1875
2494.63845	7901.3875
2497.3802	7904.0875
2500.12024	7895.6875
2502.85855	7879.0875
2505.59514	7859.7875
2508.33002	7825.5875
2511.06318	7824.5875
2513.79462	7784.2875
2516.52435	7759.5875
2519.25237	7760.2875
2521.97867	7724.3875
2524.70327	7720.6875
2527.42616	7725.5875
2530.14734	7710.3875
2532.86681	7699.8875
2535.58458	7712.2875
2538.30065	7704.4875
2541.01501	7704.2875
2543.72768	7707.0875
2546.43864	7683.6875
2549.14791	7695.1875
2551.85548	7701.0875
2554.56136	7679.7875
2557.26554	7675.7875
2559.96803	7655.4875
2562.66883	7651.9875
2565.36794	7608.3875
2568.06536	7611.0875
2570.7611	7602.3875
2573.45514	7586.1875
2576.14751	7587.4875
2578.83819	7578.3875
2581.52719	7581.9875
2584.21451	7587.3875
2586.90015	7576.9875
2589.58411	7555.9875
2592.2664	7569.0875
2594.94701	7575.3875
2597.62594	7562.6875
2600.30321	7551.8875
2602.9788	7543.1875
2605.65273	7544.8875
2608.32498	7553.8875
2610.99557	7555.0875
2613.66449	7546.7875
2616.33175	7551.1875
2618.99734	7543.9875
2621.66128	7559.9875
2624.32355	7544.5875
2626.98416	7529.3875
2629.64311	7517.0875
2632.30041	7527.7875
2634.95605	7519.5875
2637.61004	7494.3875
2640.26238	7505.6875
2642.91306	7481.0875
2645.56209	7476.6875
2648.20948	7475.1875
2650.85521	7465.0875
2653.4993	7464.1875
2656.14175	7442.6875
2658.78255	7455.2875
2661.42171	7461.1875
2664.05923	7477.8875
2666.6951	7502.1875
2669.32934	7506.8875
2671.96194	7493.9875
2674.59291	7517.4875
2677.22224	7521.7875
2679.84993	7515.8875
2682.476	7520.9875
2685.10043	7519.1875
2687.72324	7511.6875
2690.34441	7494.2875
2692.96396	7499.4875
2695.58188	7510.1875
2698.19818	7481.8875
2700.81285	7485.9875
2703.4259	7488.4875
2706.03733	7496.1875
2708.64714	7505.0875
2711.25533	7501.9875
2713.86191	7497.1875
2716.46687	7494.1875
2719.07021	7514.6875
2721.67194	7519.9875
2724.27206	7526.3875
2726.87057	7513.7875
2729.46747	7541.8875
2732.06276	7525.7875
2734.65644	7517.5875
2737.24852	7499.6875
2739.83899	7521.8875
2742.42786	7527.0875
2745.01513	7479.6875
2747.60079	7473.7875
2750.18486	7467.6875
2752.76733	7478.3875
2755.3482	7465.3875
2757.92747	7452.3875
2760.50515	7431.3875
2763.08123	7437.9875
2765.65573	7428.3875
2768.22863	7431.7875
2770.79994	7395.3875
2773.36967	7405.2875
2775.9378	7425.6875
2778.50435	7411.6875
2781.06932	7413.7875
2783.6327	7421.3875
2786.1945	7414.4875
2788.75471	7422.6875
2791.31335	7386.3875
2793.87041	7365.5875
2796.42589	7370.7875
2798.97979	7360.4875
2801.53212	7331.6875
2804.08288	7354.3875
2806.63206	7349.4875
2809.17967	7344.4875
2811.72571	7337.4875
2814.27018	7311.7875
2816.81308	7323.7875
2819.35442	7316.9875
2821.89419	7308.3875
2824.43239	7321.3875
2826.96904	7305.1875
2829.50412	7326.0875
2832.03763	7321.4875
2834.56959	7301.8875
2837.1	7313.1875
2839.62884	7360.3875
2842.15613	7360.5875
2844.68186	7379.4875
2847.20604	7397.9875
2849.72867	7437.5875
2852.24974	7441.3875
2854.76927	7419.2875
2857.28724	7407.7875
2859.80367	7377.5875
2862.31855	7384.3875
2864.83189	7373.7875
2867.34368	7348.5875
2869.85393	7333.4875
2872.36264	7350.8875
2874.8698	7357.9875
2877.37543	7341.0875
2879.87952	7342.1875
2882.38207	7332.6875
2884.88308	7328.0875
2887.38256	7333.0875
2889.88051	7322.9875
2892.37692	7310.4875
2894.8718	7318.9875
2897.36515	7334.2875
2899.85698	7344.8875
2902.34727	7345.7875
2904.83604	7337.7875
2907.32328	7376.7875
2909.809	7364.7875
2912.29319	7362.6875
2914.77587	7355.3875
2917.25702	7343.5875
2919.73665	7354.6875
2922.21476	7333.1875
2924.69136	7317.7875
2927.16644	7324.4875
2929.64	7296.5875
2932.11205	7291.1875
2934.58258	7266.6875
2937.05161	7276.0875
2939.51912	7262.8875
2941.98513	7241.2875
2944.44962	7199.1875
2946.91261	7171.6875
2949.37409	7184.6875
2951.83407	7165.9875
2954.29254	7124.3875
2956.74951	7140.9875
2959.20498	7109.4875
2961.65895	7114.3875
2964.11142	7117.5875
2966.56239	7106.0875
2969.01186	7075.4875
2971.45984	7071.1875
2973.90632	7066.3875
2976.35131	7044.3875
2978.7948	7013.2875
2981.23681	6971.9875
2983.67732	6982.9875
2986.11635	6943.5875
2988.55388	6947.5875
2990.98993	6916.0875
2993.4245	6906.4875
2995.85758	6931.3875
2998.28917	6870.5875
3000.71928	6861.0875
3003.14791	6856.1875
3005.57506	6847.0875
3008.00073	6826.6875
3010.42493	6696.7875
3012.84764	6807.1875
3015.26888	6790.6875
3017.68865	6756.6875
3020.10694	6752.6875
3022.52376	6733.6875
3024.9391	6740.3875
3027.35298	6721.9875
3029.76539	6730.0875
3032.17632	6728.5875
3034.5858	6717.4875
3036.9938	6702.3875
3039.40034	6699.6875
3041.80542	6678.0875
3044.20903	6671.9875
3046.61118	6673.8875
3049.01187	6651.4875
3051.4111	6656.4875
3053.80888	6617.3875
3056.20519	6630.1875
3058.60005	6614.9875
3060.99345	6588.2875
3063.3854	6568.0875
3065.7759	6541.2875
3068.16494	6532.7875
3070.55254	6523.0875
3072.93868	6488.2875
3075.32338	6483.9875
