Data from AgNP_FTO_APTES_UA_10uM_CRN_1uM_R6G_10uM_NaF_0.1M_Addition_RamanShift__17__13-12-30-516.txt Node

Date: Thu Feb 10 13:12:30 GMT 2022
User: TCL
Spectrometer: QEP01345
Trigger mode: 4
Integration Time (sec): 7.000000E0
Scans to average: 10
Electric dark correction enabled: true
Nonlinearity correction enabled: false
Boxcar width: 0
XAxis mode: Raman Shifts
Number of Pixels in Spectrum: 1044
>>>>>Begin Spectral Data<<<<<
46.04893	0.0125
50.45542	-1.6875
54.85868	-1.7875
59.25871	-1.6875
63.6555	78.4125
68.04907	77.0125
72.43941	83.2125
76.82654	82.6125
81.21044	87.6125
85.59113	87.8125
89.96862	94.2125
94.34289	93.6125
98.71396	99.6125
103.08183	105.6125
107.4465	105.7125
111.80798	104.3125
116.16626	111.0125
120.52136	114.3125
124.87327	118.7125
129.222	127.3125
133.56755	136.9125
137.90993	144.9125
142.24913	158.0125
146.58517	174.2125
150.91804	214.2125
155.24774	254.9125
159.57429	311.5125
163.89768	407.0125
168.21792	536.6125
172.53501	741.4125
176.84895	1023.9125
181.15975	1439.9125
185.46741	2028.7125
189.77193	2800.4125
194.07331	3731.1125
198.37157	4825.6125
202.6667	5956.0125
206.9587	7072.9125
211.24758	8186.2125
215.53334	9301.9125
219.81599	10481.5125
224.09553	11838.9125
228.37195	13324.8125
232.64527	14953.3125
236.91549	16634.3125
241.18261	18262.9125
245.44663	19817.6125
249.70755	21112.2125
253.96539	22197.4125
258.22014	23224.5125
262.4718	24081.2125
266.72039	24660.5125
270.96589	25022.7125
275.20832	25053.7125
279.44768	24845.5125
283.68397	24627.1125
287.91719	24417.2125
292.14735	24294.2125
296.37445	24348.1125
300.59849	24530.4125
304.81948	24716.0125
309.03742	24784.6125
313.25231	24526.2125
317.46415	23879.4125
321.67296	23076.3125
325.87872	22370.3125
330.08145	22019.0125
334.28114	21990.2125
338.47781	22177.7125
342.67145	22433.2125
346.86207	22917.0125
351.04966	23495.8125
355.23424	24103.1125
359.4158	24592.4125
363.59435	24919.9125
367.76989	25175.6125
371.94243	25317.2125
376.11196	25403.1125
380.27849	25466.0125
384.44203	25578.0125
388.60257	25719.9125
392.76012	25882.7125
396.91468	26163.4125
401.06626	26601.4125
405.21485	26908.6125
409.36047	26730.1125
413.50311	26228.1125
417.64277	25800.6125
421.77947	25646.8125
425.9132	25705.6125
430.04396	25799.5125
434.17176	25974.3125
438.2966	26195.8125
442.41849	26568.7125
446.53742	27257.6125
450.6534	28080.7125
454.76644	28699.6125
458.87653	28927.3125
462.98368	28717.2125
467.08789	28383.1125
471.18916	27872.4125
475.2875	27426.0125
479.38291	27177.3125
483.4754	26992.9125
487.56496	26723.1125
491.6516	26325.6125
495.73531	25978.8125
499.81612	25854.6125
503.89401	25992.7125
507.96899	26113.3125
512.04106	26064.2125
516.11023	25976.5125
520.1765	25768.5125
524.23987	25548.9125
528.30034	25293.5125
532.35792	24978.6125
536.41261	24594.2125
540.46441	24272.5125
544.51333	24196.7125
548.55936	24477.5125
552.60252	25108.2125
556.64279	25767.6125
560.6802	26176.8125
564.71473	26404.1125
568.7464	26885.4125
572.7752	27556.9125
576.80114	28082.7125
580.82422	28540.0125
584.84444	29035.3125
588.86181	29489.2125
592.87633	29857.1125
596.888	29903.6125
600.89682	29696.3125
604.9028	30603.5125
608.90594	34010.5125
612.90624	37677.0125
616.90371	35393.5125
620.89834	28842.0125
624.89015	25912.0125
628.87913	25604.5125
632.86528	25587.8125
636.84862	25408.4125
640.82913	24931.7125
644.80683	24156.8125
648.78172	23588.9125
652.75379	23488.0125
656.72306	23870.0125
660.68952	24416.9125
664.65319	24352.6125
668.61405	23780.8125
672.57211	23579.1125
676.52738	23577.6125
680.47986	23587.8125
684.42955	23439.6125
688.37646	23385.2125
692.32058	23554.4125
696.26192	23847.6125
700.20048	24179.5125
704.13626	24388.6125
708.06928	24310.8125
711.99952	24060.6125
715.927	23983.3125
719.85171	24090.7125
723.77365	23993.3125
727.69284	23700.0125
731.60928	23341.2125
735.52295	23308.9125
739.43388	23270.9125
743.34206	23392.4125
747.24749	23552.6125
751.15017	23755.4125
755.05012	24163.7125
758.94733	24979.4125
762.8418	26403.2125
766.73354	28797.7125
770.62254	31118.3125
774.50882	31741.4125
778.39237	30184.5125
782.27321	27738.3125
786.15132	25644.5125
790.02671	24343.5125
793.89938	23728.2125
797.76935	23533.6125
801.6366	23452.9125
805.50115	23348.3125
809.36299	23211.6125
813.22213	22916.6125
817.07857	22810.7125
820.93231	22736.5125
824.78336	22653.7125
828.63172	22556.1125
832.47738	22581.9125
836.32036	22574.3125
840.16066	22688.8125
843.99827	22728.5125
847.8332	22703.6125
851.66546	22562.5125
855.49504	22578.1125
859.32195	22559.4125
863.1462	22484.7125
866.96777	22376.2125
870.78668	22269.3125
874.60293	22322.0125
878.41652	22300.4125
882.22745	22400.6125
886.03573	22462.8125
889.84136	22511.0125
893.64433	22423.2125
897.44466	22293.6125
901.24235	22220.4125
905.0374	22118.8125
908.8298	22051.8125
912.61957	22038.3125
916.40671	22254.4125
920.19121	22551.9125
923.97308	22892.3125
927.75233	23020.2125
931.52895	23038.5125
935.30295	22713.9125
939.07433	22196.4125
942.84309	21791.2125
946.60924	21612.3125
950.37278	21553.6125
954.13371	21506.0125
957.89203	21399.9125
961.64774	21344.7125
965.40086	21254.9125
969.15137	21221.4125
972.89929	21145.8125
976.64461	21090.1125
980.38733	21115.8125
984.12747	21247.8125
987.86502	21475.0125
991.59999	21779.1125
995.33237	22314.6125
999.06217	23074.2125
1002.78939	23965.4125
1006.51404	24512.3125
1010.23611	24800.7125
1013.95561	25020.4125
1017.67255	25014.6125
1021.38692	24615.6125
1025.09872	24296.5125
1028.80796	24453.9125
1032.51465	25136.2125
1036.21877	25905.1125
1039.92035	26028.9125
1043.61937	25622.7125
1047.31584	24906.5125
1051.00976	24194.3125
1054.70114	23864.8125
1058.38998	23850.2125
1062.07627	23952.8125
1065.76003	24084.4125
1069.44126	24283.3125
1073.11995	24596.7125
1076.79611	25008.1125
1080.46974	25292.5125
1084.14085	25611.7125
1087.80943	26075.7125
1091.47549	26351.0125
1095.13903	26243.6125
1098.80005	25756.4125
1102.45857	25157.4125
1106.11456	24723.3125
1109.76805	24543.9125
1113.41903	24643.5125
1117.06751	24799.0125
1120.71348	25103.9125
1124.35696	25374.4125
1127.99793	25806.7125
1131.63641	25980.1125
1135.2724	25802.7125
1138.90589	25504.0125
1142.5369	25308.0125
1146.16542	25343.3125
1149.79145	25378.7125
1153.415	25524.9125
1157.03607	25842.3125
1160.65467	26514.1125
1164.27079	27696.4125
1167.88443	29319.5125
1171.49561	31474.6125
1175.10432	34232.9125
1178.71056	37725.7125
1182.31434	41065.1125
1185.91565	42876.7125
1189.51451	42745.2125
1193.11091	41148.9125
1196.70485	38916.2125
1200.29634	36869.2125
1203.88538	35273.7125
1207.47197	34105.0125
1211.05612	33291.8125
1214.63782	32571.6125
1218.21708	32056.3125
1221.79391	31819.3125
1225.36829	31769.2125
1228.94024	31496.7125
1232.50976	30876.0125
1236.07685	30278.1125
1239.6415	29915.7125
1243.20374	29806.5125
1246.76355	29934.8125
1250.32093	30404.2125
1253.8759	31230.0125
1257.42845	32255.3125
1260.97859	33359.1125
1264.52631	34493.6125
1268.07163	35639.6125
1271.61453	36938.8125
1275.15503	38228.7125
1278.69312	39458.0125
1282.22882	40401.6125
1285.76211	41303.7125
1289.29301	42136.9125
1292.82151	43300.4125
1296.34761	44999.6125
1299.87133	47503.5125
1303.39266	50688.0125
1306.9116	54507.6125
1310.42815	58361.8125
1313.94233	60929.1125
1317.45412	60947.8125
1320.96354	59546.2125
1324.47058	57939.4125
1327.97525	56483.1125
1331.47754	55518.6125
1334.97747	54961.2125
1338.47502	54733.7125
1341.97022	54364.5125
1345.46305	53663.6125
1348.95352	52813.7125
1352.44163	52429.7125
1355.92738	53273.1125
1359.41078	55822.5125
1362.89183	58382.8125
1366.37053	57405.8125
1369.84688	52203.6125
1373.32088	46226.3125
1376.79254	42040.1125
1380.26186	40297.3125
1383.72883	39871.3125
1387.19347	39606.7125
1390.65578	39119.9125
1394.11575	38956.9125
1397.57339	39370.6125
1401.0287	40137.8125
1404.48168	40995.8125
1407.93234	41351.2125
1411.38068	40962.1125
1414.82669	39909.0125
1418.27039	38320.0125
1421.71177	36725.9125
1425.15083	35436.5125
1428.58758	34709.9125
1432.02203	34951.9125
1435.45416	35781.5125
1438.88399	36765.9125
1442.31151	37610.6125
1445.73673	38252.1125
1449.15965	38652.6125
1452.58027	38991.4125
1455.9986	39167.0125
1459.41463	39502.0125
1462.82837	40175.0125
1466.23982	41106.9125
1469.64898	41895.9125
1473.05586	42353.2125
1476.46045	42303.8125
1479.86276	41924.5125
1483.26279	41412.0125
1486.66054	41155.7125
1490.05602	41266.4125
1493.44922	41544.8125
1496.84016	41967.9125
1500.22882	42933.1125
1503.61521	44569.7125
1506.99934	46730.5125
1510.38121	48609.8125
1513.76081	49005.4125
1517.13816	47586.2125
1520.51324	44942.1125
1523.88607	42583.3125
1527.25665	41041.5125
1530.62498	40270.1125
1533.99105	39927.6125
1537.35488	39590.8125
1540.71647	39234.1125
1544.07581	38569.4125
1547.4329	37924.6125
1550.78776	37343.3125
1554.14038	36873.7125
1557.49077	36600.2125
1560.83892	36502.5125
1564.18484	36560.8125
1567.52853	36681.7125
1570.86999	36992.5125
1574.20922	37411.0125
1577.54624	37768.8125
1580.88103	37610.7125
1584.2136	37558.6125
1587.54395	38453.1125
1590.87208	40463.2125
1594.19801	43458.9125
1597.52172	46477.1125
1600.84321	47531.9125
1604.16251	45481.6125
1607.47959	41685.0125
1610.79447	37715.1125
1614.10715	34045.8125
1617.41763	31133.9125
1620.7259	29159.0125
1624.03199	28210.9125
1627.33587	28183.5125
1630.63757	29132.1125
1633.93707	31256.4125
1637.23439	34657.4125
1640.52951	39338.9125
1643.82246	44426.8125
1647.11321	48260.7125
1650.40179	48751.5125
1653.68819	45195.4125
1656.97241	38926.3125
1660.25446	32798.3125
1663.53433	28305.3125
1666.81203	25432.0125
1670.08756	23662.6125
1673.36092	22574.9125
1676.63211	21847.2125
1679.90115	21338.7125
1683.16801	20961.1125
1686.43272	20705.8125
1689.69527	20484.5125
1692.95567	20298.3125
1696.2139	20213.3125
1699.46999	20162.4125
1702.72392	20069.9125
1705.97571	20026.7125
1709.22535	19957.3125
1712.47284	19920.0125
1715.71819	19833.4125
1718.96139	19801.7125
1722.20246	19746.4125
1725.44139	19609.9125
1728.67818	19471.2125
1731.91284	19342.7125
1735.14537	19232.3125
1738.37576	19125.6125
1741.60403	19080.7125
1744.83017	19005.0125
1748.05418	18948.7125
1751.27607	18909.7125
1754.49584	18871.1125
1757.71349	18828.1125
1760.92903	18813.0125
1764.14244	18815.8125
1767.35375	18825.4125
1770.56294	18757.9125
1773.77002	18735.6125
1776.97499	18666.2125
1780.17785	18639.6125
1783.37861	18604.8125
1786.57727	18576.1125
1789.77382	18532.7125
1792.96828	18463.7125
1796.16064	18450.4125
1799.3509	18406.7125
1802.53907	18412.4125
1805.72514	18326.2125
1808.90913	18289.5125
1812.09102	18250.6125
1815.27083	18187.0125
1818.44856	18162.3125
1821.6242	18172.7125
1824.79776	18141.8125
1827.96924	18118.0125
1831.13864	18151.4125
1834.30597	18133.2125
1837.47122	18178.3125
1840.6344	18181.6125
1843.7955	18199.2125
1846.95454	18183.7125
1850.11151	18185.9125
1853.26642	18185.4125
1856.41926	18214.8125
1859.57004	18226.1125
1862.71876	18225.6125
1865.86542	18190.5125
1869.01003	18136.5125
1872.15258	18145.2125
1875.29308	18159.2125
1878.43152	18132.0125
1881.56792	18134.0125
1884.70227	18124.0125
1887.83457	18125.5125
1890.96482	18083.4125
1894.09304	18005.3125
1897.21921	18018.3125
1900.34335	18002.5125
1903.46544	18003.0125
1906.58551	17997.8125
1909.70353	17943.2125
1912.81953	17918.8125
1915.93349	17880.7125
1919.04543	17838.0125
1922.15534	17750.1125
1925.26322	17712.5125
1928.36908	17675.6125
1931.47292	17635.5125
1934.57473	17566.3125
1937.67453	17507.7125
1940.77232	17476.6125
1943.86808	17369.2125
1946.96184	17347.2125
1950.05358	17236.8125
1953.14331	17194.4125
1956.23103	17130.4125
1959.31675	17084.2125
1962.40046	17016.1125
1965.48217	16961.7125
1968.56188	16923.4125
1971.63959	16861.1125
1974.7153	16836.7125
1977.78901	16812.4125
1980.86073	16735.4125
1983.93046	16686.9125
1986.99819	16625.1125
1990.06394	16594.6125
1993.1277	16536.3125
1996.18947	16457.8125
1999.24925	16449.6125
2002.30706	16387.5125
2005.36288	16321.5125
2008.41672	16323.0125
2011.46859	16268.7125
2014.51848	16219.1125
2017.56639	16209.3125
2020.61233	16154.1125
2023.6563	16124.8125
2026.6983	16094.6125
2029.73833	16082.8125
2032.7764	16014.3125
2035.8125	16008.7125
2038.84664	15947.3125
2041.87881	15965.4125
2044.90903	15952.8125
2047.93729	15925.3125
2050.96359	15888.7125
2053.98794	15852.6125
2057.01034	15874.5125
2060.03078	15832.9125
2063.04927	15805.0125
2066.06582	15829.3125
2069.08042	15799.5125
2072.09307	15787.0125
2075.10378	15766.6125
2078.11255	15754.7125
2081.11938	15727.2125
2084.12426	15734.3125
2087.12722	15731.1125
2090.12824	15702.2125
2093.12732	15726.9125
2096.12447	15680.8125
2099.11969	15672.4125
2102.11299	15708.0125
2105.10435	15737.9125
2108.09379	15723.8125
2111.08131	15721.7125
2114.0669	15739.5125
2117.05057	15733.6125
2120.03233	15738.5125
2123.01216	15746.1125
2125.99008	15785.2125
2128.96609	15822.2125
2131.94018	15790.5125
2134.91236	15824.5125
2137.88263	15836.8125
2140.851	15804.5125
2143.81746	15853.1125
2146.78201	15833.8125
2149.74466	15830.4125
2152.7054	15811.5125
2155.66425	15817.8125
2158.6212	15805.1125
2161.57625	15801.2125
2164.52941	15785.8125
2167.48067	15774.7125
2170.43004	15753.4125
2173.37752	15762.2125
2176.32311	15805.5125
2179.26681	15793.5125
2182.20863	15817.0125
2185.14856	15810.5125
2188.08661	15765.8125
2191.02278	15777.0125
2193.95707	15837.3125
2196.88948	15812.9125
2199.82001	15804.0125
2202.74867	15788.6125
2205.67545	15788.2125
2208.60037	15776.1125
2211.52341	15760.5125
2214.44458	15775.5125
2217.36388	15742.4125
2220.28132	15730.0125
2223.1969	15698.2125
2226.11061	15661.9125
2229.02246	15623.2125
2231.93245	15623.2125
2234.84058	15575.8125
2237.74686	15515.0125
2240.65128	15458.6125
2243.55385	15465.1125
2246.45456	15462.8125
2249.35343	15429.7125
2252.25044	15448.8125
2255.14561	15399.9125
2258.03893	15406.8125
2260.93041	15376.8125
2263.82004	15315.0125
2266.70783	15302.5125
2269.59378	15252.3125
2272.4779	15194.0125
2275.36017	15150.6125
2278.24061	15167.3125
2281.11922	15131.0125
2283.996	15122.3125
2286.87094	15088.1125
2289.74405	15060.0125
2292.61534	15069.2125
2295.4848	15055.8125
2298.35243	15082.0125
2301.21824	15057.7125
2304.08223	15080.6125
2306.94439	15107.7125
2309.80474	15089.3125
2312.66327	15126.4125
2315.51999	15128.0125
2318.37489	15139.5125
2321.22797	15097.1125
2324.07925	15126.9125
2326.92871	15085.4125
2329.77637	15066.3125
2332.62222	15046.9125
2335.46626	15036.5125
2338.3085	15070.0125
2341.14893	15069.1125
2343.98756	15091.0125
2346.8244	15082.5125
2349.65943	15129.2125
2352.49267	15094.5125
2355.32411	15095.6125
2358.15376	15124.3125
2360.98161	15112.3125
2363.80768	15128.6125
2366.63195	15061.2125
2369.45444	15034.9125
2372.27514	15008.2125
2375.09405	15008.5125
2377.91118	14966.6125
2380.72652	14909.6125
2383.54009	14870.3125
2386.35187	14838.9125
2389.16188	14783.9125
2391.97011	14755.4125
2394.77657	14756.5125
2397.58125	14735.5125
2400.38416	14681.8125
2403.18529	14706.9125
2405.98466	14675.1125
2408.78226	14643.3125
2411.57809	14594.0125
2414.37216	14588.4125
2417.16446	14573.2125
2419.955	14507.9125
2422.74378	14541.4125
2425.5308	14536.7125
2428.31606	14550.9125
2431.09956	14532.7125
2433.88131	14535.4125
2436.6613	14545.6125
2439.43954	14562.9125
2442.21603	14558.8125
2444.99077	14493.6125
2447.76377	14491.2125
2450.53501	14518.3125
2453.30451	14528.3125
2456.07226	14498.5125
2458.83827	14514.2125
2461.60254	14535.5125
2464.36507	14529.9125
2467.12586	14516.3125
2469.88492	14476.9125
2472.64224	14524.1125
2475.39782	14535.1125
2478.15167	14538.3125
2480.90379	14561.7125
2483.65417	14587.0125
2486.40283	14579.1125
2489.14976	14592.4125
2491.89497	14601.2125
2494.63845	14619.1125
2497.3802	14563.0125
2500.12024	14582.5125
2502.85855	14581.1125
2505.59514	14560.8125
2508.33002	14544.0125
2511.06318	14498.9125
2513.79462	14505.2125
2516.52435	14489.8125
2519.25237	14468.3125
2521.97867	14473.2125
2524.70327	14484.6125
2527.42616	14460.5125
2530.14734	14490.0125
2532.86681	14443.6125
2535.58458	14473.8125
2538.30065	14449.7125
2541.01501	14472.1125
2543.72768	14484.1125
2546.43864	14443.7125
2549.14791	14445.8125
2551.85548	14433.6125
2554.56136	14431.3125
2557.26554	14387.8125
2559.96803	14391.7125
2562.66883	14355.7125
2565.36794	14315.0125
2568.06536	14345.1125
2570.7611	14310.0125
2573.45514	14302.4125
2576.14751	14320.5125
2578.83819	14305.5125
2581.52719	14291.7125
2584.21451	14286.0125
2586.90015	14306.1125
2589.58411	14293.9125
2592.2664	14325.5125
2594.94701	14305.3125
2597.62594	14309.0125
2600.30321	14251.0125
2602.9788	14269.3125
2605.65273	14247.1125
2608.32498	14272.5125
2610.99557	14236.7125
2613.66449	14270.3125
2616.33175	14241.9125
2618.99734	14269.5125
2621.66128	14263.2125
2624.32355	14239.5125
2626.98416	14244.9125
2629.64311	14232.2125
2632.30041	14245.1125
2634.95605	14236.3125
2637.61004	14224.2125
2640.26238	14229.2125
2642.91306	14199.2125
2645.56209	14195.9125
2648.20948	14190.0125
2650.85521	14175.2125
2653.4993	14203.5125
2656.14175	14176.3125
2658.78255	14171.9125
2661.42171	14210.9125
2664.05923	14227.0125
2666.6951	14233.2125
2669.32934	14247.4125
2671.96194	14248.9125
2674.59291	14260.7125
2677.22224	14257.0125
2679.84993	14241.6125
2682.476	14232.3125
2685.10043	14238.3125
2687.72324	14205.8125
2690.34441	14181.3125
2692.96396	14167.3125
2695.58188	14148.6125
2698.19818	14120.9125
2700.81285	14112.5125
2703.4259	14134.1125
2706.03733	14151.9125
2708.64714	14145.2125
2711.25533	14176.6125
2713.86191	14182.4125
2716.46687	14182.3125
2719.07021	14217.3125
2721.67194	14232.8125
2724.27206	14205.2125
2726.87057	14221.0125
2729.46747	14237.5125
2732.06276	14262.4125
2734.65644	14237.8125
2737.24852	14235.8125
2739.83899	14205.9125
2742.42786	14226.4125
2745.01513	14217.6125
2747.60079	14215.7125
2750.18486	14174.8125
2752.76733	14188.7125
2755.3482	14177.9125
2757.92747	14205.0125
2760.50515	14171.6125
2763.08123	14155.4125
2765.65573	14154.3125
2768.22863	14121.4125
2770.79994	14125.8125
2773.36967	14126.1125
2775.9378	14139.5125
2778.50435	14144.9125
2781.06932	14143.2125
2783.6327	14153.5125
2786.1945	14160.7125
2788.75471	14117.4125
2791.31335	14093.4125
2793.87041	14105.2125
2796.42589	14070.8125
2798.97979	14047.0125
2801.53212	14038.9125
2804.08288	14022.9125
2806.63206	13977.3125
2809.17967	13989.1125
2811.72571	13916.6125
2814.27018	13908.6125
2816.81308	13882.6125
2819.35442	13865.6125
2821.89419	13839.1125
2824.43239	13815.1125
2826.96904	13870.2125
2829.50412	13820.3125
2832.03763	13772.0125
2834.56959	13778.3125
2837.1	13763.9125
2839.62884	13769.7125
2842.15613	13765.6125
2844.68186	13774.7125
2847.20604	13782.5125
2849.72867	13806.8125
2852.24974	13826.4125
2854.76927	13773.2125
2857.28724	13775.6125
2859.80367	13749.2125
2862.31855	13739.5125
2864.83189	13752.2125
2867.34368	13722.7125
2869.85393	13739.8125
2872.36264	13709.9125
2874.8698	13701.2125
2877.37543	13711.9125
2879.87952	13705.4125
2882.38207	13721.6125
2884.88308	13675.8125
2887.38256	13698.6125
2889.88051	13688.8125
2892.37692	13715.6125
2894.8718	13698.7125
2897.36515	13746.3125
2899.85698	13747.0125
2902.34727	13779.7125
2904.83604	13779.7125
2907.32328	13840.2125
2909.809	13829.6125
2912.29319	13840.1125
2914.77587	13796.1125
2917.25702	13824.9125
2919.73665	13799.2125
2922.21476	13788.1125
2924.69136	13766.1125
2927.16644	13752.0125
2929.64	13707.8125
2932.11205	13716.6125
2934.58258	13701.2125
2937.05161	13678.3125
2939.51912	13687.8125
2941.98513	13680.5125
2944.44962	13647.2125
2946.91261	13590.9125
2949.37409	13600.4125
2951.83407	13597.8125
2954.29254	13595.2125
2956.74951	13598.8125
2959.20498	13597.8125
2961.65895	13555.0125
2964.11142	13547.8125
2966.56239	13554.7125
2969.01186	13491.9125
2971.45984	13482.6125
2973.90632	13455.7125
2976.35131	13425.7125
2978.7948	13405.9125
2981.23681	13370.2125
2983.67732	13341.5125
2986.11635	13318.4125
2988.55388	13273.2125
2990.98993	13215.1125
2993.4245	13215.9125
2995.85758	13208.0125
2998.28917	13159.3125
3000.71928	13156.6125
3003.14791	13097.1125
3005.57506	13082.9125
3008.00073	13044.2125
3010.42493	12943.9125
3012.84764	13027.3125
3015.26888	12983.5125
3017.68865	12926.2125
3020.10694	12912.5125
3022.52376	12892.1125
