Data from AgNP_FTO_APTES_UA_10uM_CRN_10uM_R6G_10uM_NaF_0.1M_Addition_RamanShift__25__15-53-30-718.txt Node

Date: Thu Feb 10 15:53:30 GMT 2022
User: TCL
Spectrometer: QEP01345
Trigger mode: 4
Integration Time (sec): 7.000000E0
Scans to average: 10
Electric dark correction enabled: true
Nonlinearity correction enabled: false
Boxcar width: 0
XAxis mode: Raman Shifts
Number of Pixels in Spectrum: 1044
>>>>>Begin Spectral Data<<<<<
46.04893	0.275
50.45542	-0.525
54.85868	-2.025
59.25871	-1.725
63.6555	69.475
68.04907	74.075
72.43941	78.275
76.82654	74.075
81.21044	82.075
85.59113	82.875
89.96862	87.575
94.34289	87.775
98.71396	91.775
103.08183	94.375
107.4465	102.475
111.80798	95.775
116.16626	101.175
120.52136	108.775
124.87327	112.675
129.222	116.275
133.56755	123.875
137.90993	134.875
142.24913	143.575
146.58517	163.375
150.91804	187.375
155.24774	219.575
159.57429	278.375
163.89768	351.075
168.21792	469.375
172.53501	633.575
176.84895	879.675
181.15975	1239.575
185.46741	1730.675
189.77193	2390.975
194.07331	3183.975
198.37157	4107.875
202.6667	5073.275
206.9587	6026.875
211.24758	6959.375
215.53334	7913.975
219.81599	8923.175
224.09553	10067.275
228.37195	11343.675
232.64527	12785.875
236.91549	14244.975
241.18261	15644.575
245.44663	16951.075
249.70755	18071.975
253.96539	19065.975
258.22014	19937.275
262.4718	20716.775
266.72039	21288.875
270.96589	21699.575
275.20832	21859.475
279.44768	21872.075
283.68397	21762.175
287.91719	21703.275
292.14735	21731.675
296.37445	21877.075
300.59849	22114.475
304.81948	22329.875
309.03742	22366.975
313.25231	22078.375
317.46415	21260.875
321.67296	20247.975
325.87872	19461.575
330.08145	19146.275
334.28114	19120.375
338.47781	19320.375
342.67145	19684.275
346.86207	20197.875
351.04966	20902.475
355.23424	21651.875
359.4158	22234.775
363.59435	22508.375
367.76989	22692.375
371.94243	22709.275
376.11196	22777.875
380.27849	22752.475
384.44203	22749.775
388.60257	22741.175
392.76012	22796.875
396.91468	23111.275
401.06626	23556.075
405.21485	23905.075
409.36047	23727.275
413.50311	23064.575
417.64277	22543.075
421.77947	22290.275
425.9132	22272.775
430.04396	22446.975
434.17176	22590.675
438.2966	22813.975
442.41849	23205.375
446.53742	23780.675
450.6534	24452.675
454.76644	24956.575
458.87653	25184.075
462.98368	25125.075
467.08789	24854.075
471.18916	24432.175
475.2875	24029.375
479.38291	23734.375
483.4754	23452.775
487.56496	23102.175
491.6516	22758.875
495.73531	22489.775
499.81612	22494.975
503.89401	22622.175
507.96899	22717.275
512.04106	22736.475
516.11023	22760.575
520.1765	22718.975
524.23987	22579.175
528.30034	22354.475
532.35792	22020.775
536.41261	21750.375
540.46441	21453.375
544.51333	21485.575
548.55936	21806.875
552.60252	22356.675
556.64279	22874.975
560.6802	23129.175
564.71473	23308.775
568.7464	23792.775
572.7752	24309.775
576.80114	24271.875
580.82422	24173.975
584.84444	24116.175
588.86181	24083.475
592.87633	24136.075
596.888	24354.175
600.89682	24945.775
604.9028	26633.275
608.90594	30694.475
612.90624	35395.475
616.90371	33288.775
620.89834	26215.575
624.89015	23250.675
628.87913	22854.575
632.86528	22836.775
636.84862	22720.875
640.82913	22302.675
644.80683	21543.575
648.78172	21085.775
652.75379	21110.875
656.72306	21555.675
660.68952	22217.875
664.65319	22142.075
668.61405	21565.775
672.57211	21297.575
676.52738	21303.875
680.47986	21315.775
684.42955	21236.175
688.37646	21179.375
692.32058	21308.875
696.26192	21558.275
700.20048	21785.675
704.13626	21972.575
708.06928	21932.675
711.99952	21743.275
715.927	21664.075
719.85171	21681.075
723.77365	21561.075
727.69284	21342.575
731.60928	21142.175
735.52295	21066.075
739.43388	21072.675
743.34206	21189.575
747.24749	21360.175
751.15017	21592.075
755.05012	22032.475
758.94733	22871.775
762.8418	24484.575
766.73354	27054.475
770.62254	29545.975
774.50882	30308.975
778.39237	28735.575
782.27321	25871.975
786.15132	23488.875
790.02671	22138.575
793.89938	21553.975
797.76935	21265.675
801.6366	21175.775
805.50115	21054.375
809.36299	20927.775
813.22213	20798.575
817.07857	20758.075
820.93231	20808.475
824.78336	20789.975
828.63172	20802.675
832.47738	20841.275
836.32036	20895.275
840.16066	20952.675
843.99827	20963.175
847.8332	20887.775
851.66546	20807.575
855.49504	20745.475
859.32195	20728.675
863.1462	20607.975
866.96777	20485.975
870.78668	20442.075
874.60293	20430.475
878.41652	20482.775
882.22745	20548.275
886.03573	20621.575
889.84136	20562.675
893.64433	20446.675
897.44466	20374.575
901.24235	20413.775
905.0374	20341.775
908.8298	20351.475
912.61957	20392.575
916.40671	20605.275
920.19121	20917.575
923.97308	21167.875
927.75233	21256.875
931.52895	21186.375
935.30295	20965.275
939.07433	20507.175
942.84309	20126.075
946.60924	19972.475
950.37278	19906.975
954.13371	19746.275
957.89203	19636.075
961.64774	19564.375
965.40086	19512.675
969.15137	19451.875
972.89929	19383.975
976.64461	19357.175
980.38733	19383.475
984.12747	19463.975
987.86502	19631.675
991.59999	19892.075
995.33237	20326.075
999.06217	20990.175
1002.78939	21832.975
1006.51404	22309.175
1010.23611	22632.475
1013.95561	22854.475
1017.67255	22871.475
1021.38692	22557.875
1025.09872	22461.075
1028.80796	22684.875
1032.51465	23425.675
1036.21877	24136.575
1039.92035	24168.875
1043.61937	23756.475
1047.31584	23074.075
1051.00976	22330.175
1054.70114	22018.975
1058.38998	22000.675
1062.07627	22103.375
1065.76003	22217.375
1069.44126	22292.875
1073.11995	22424.375
1076.79611	22606.375
1080.46974	22756.775
1084.14085	23065.175
1087.80943	23387.675
1091.47549	23561.775
1095.13903	23367.975
1098.80005	22889.075
1102.45857	22376.875
1106.11456	22095.575
1109.76805	22093.975
1113.41903	22304.675
1117.06751	22663.375
1120.71348	23109.675
1124.35696	23499.375
1127.99793	23925.175
1131.63641	23956.975
1135.2724	23560.475
1138.90589	23091.675
1142.5369	22816.675
1146.16542	22664.875
1149.79145	22632.075
1153.415	22790.975
1157.03607	23164.775
1160.65467	23657.275
1164.27079	24441.775
1167.88443	25603.675
1171.49561	27281.375
1175.10432	29758.475
1178.71056	32923.975
1182.31434	35600.675
1185.91565	37004.275
1189.51451	37019.375
1193.11091	35604.575
1196.70485	33534.175
1200.29634	31744.775
1203.88538	30267.775
1207.47197	28994.575
1211.05612	27855.175
1214.63782	27237.975
1218.21708	27103.075
1221.79391	27216.075
1225.36829	27302.375
1228.94024	27280.575
1232.50976	27074.575
1236.07685	26905.475
1239.6415	26824.375
1243.20374	26772.075
1246.76355	26893.375
1250.32093	27328.575
1253.8759	28042.175
1257.42845	28929.875
1260.97859	29710.175
1264.52631	30405.475
1268.07163	31131.875
1271.61453	31893.075
1275.15503	32820.675
1278.69312	33677.375
1282.22882	34273.675
1285.76211	34883.675
1289.29301	35532.075
1292.82151	36323.875
1296.34761	37383.975
1299.87133	39068.975
1303.39266	41461.375
1306.9116	44804.075
1310.42815	48382.875
1313.94233	50763.575
1317.45412	50868.375
1320.96354	49444.575
1324.47058	47681.175
1327.97525	45906.775
1331.47754	44777.775
1334.97747	44519.375
1338.47502	44963.175
1341.97022	45464.375
1345.46305	45674.375
1348.95352	45497.475
1352.44163	45522.275
1355.92738	46717.275
1359.41078	49805.875
1362.89183	52835.975
1366.37053	51471.275
1369.84688	45949.375
1373.32088	40422.775
1376.79254	36855.975
1380.26186	35285.275
1383.72883	34607.975
1387.19347	34095.475
1390.65578	33610.475
1394.11575	33369.875
1397.57339	33593.775
1401.0287	34172.075
1404.48168	34916.775
1407.93234	35611.975
1411.38068	35913.375
1414.82669	35484.375
1418.27039	34358.475
1421.71177	33002.375
1425.15083	31852.775
1428.58758	31081.375
1432.02203	30889.275
1435.45416	31128.675
1438.88399	31471.275
1442.31151	31807.875
1445.73673	32193.375
1449.15965	32548.275
1452.58027	32805.275
1455.9986	32916.775
1459.41463	33103.875
1462.82837	33509.175
1466.23982	34173.875
1469.64898	34838.775
1473.05586	35281.575
1476.46045	35431.975
1479.86276	35667.875
1483.26279	35826.675
1486.66054	36129.775
1490.05602	36624.675
1493.44922	37219.375
1496.84016	38010.375
1500.22882	39226.775
1503.61521	40949.775
1506.99934	43225.775
1510.38121	45731.475
1513.76081	46954.975
1517.13816	46070.975
1520.51324	43397.475
1523.88607	40410.275
1527.25665	38254.075
1530.62498	36977.975
1533.99105	36117.475
1537.35488	35627.775
1540.71647	35225.875
1544.07581	34857.075
1547.4329	34463.375
1550.78776	34050.975
1554.14038	33838.375
1557.49077	33893.575
1560.83892	34042.375
1564.18484	34271.075
1567.52853	34377.775
1570.86999	34335.975
1574.20922	34445.375
1577.54624	34392.375
1580.88103	33844.875
1584.2136	33401.375
1587.54395	33774.875
1590.87208	35184.575
1594.19801	37442.275
1597.52172	39821.075
1600.84321	40722.475
1604.16251	39149.875
1607.47959	36340.975
1610.79447	33425.475
1614.10715	30726.575
1617.41763	28600.875
1620.7259	27119.575
1624.03199	26375.075
1627.33587	26377.075
1630.63757	27089.975
1633.93707	28541.675
1637.23439	30712.875
1640.52951	33255.975
1643.82246	36083.675
1647.11321	38517.075
1650.40179	39556.375
1653.68819	37789.675
1656.97241	33720.875
1660.25446	29207.075
1663.53433	25897.975
1666.81203	23692.375
1670.08756	22351.175
1673.36092	21482.175
1676.63211	20928.675
1679.90115	20506.575
1683.16801	20235.075
1686.43272	20037.075
1689.69527	19846.675
1692.95567	19719.575
1696.2139	19699.475
1699.46999	19648.375
1702.72392	19589.875
1705.97571	19514.175
1709.22535	19453.975
1712.47284	19427.175
1715.71819	19400.775
1718.96139	19386.275
1722.20246	19330.275
1725.44139	19237.975
1728.67818	19130.175
1731.91284	19032.975
1735.14537	18929.275
1738.37576	18838.475
1741.60403	18801.675
1744.83017	18716.675
1748.05418	18677.075
1751.27607	18661.575
1754.49584	18652.475
1757.71349	18623.675
1760.92903	18610.375
1764.14244	18596.375
1767.35375	18600.975
1770.56294	18577.675
1773.77002	18543.375
1776.97499	18491.775
1780.17785	18425.275
1783.37861	18399.875
1786.57727	18383.175
1789.77382	18366.575
1792.96828	18336.175
1796.16064	18333.475
1799.3509	18310.875
1802.53907	18295.675
1805.72514	18237.175
1808.90913	18190.375
1812.09102	18157.775
1815.27083	18139.275
1818.44856	18123.675
1821.6242	18072.775
1824.79776	18066.575
1827.96924	18009.875
1831.13864	18035.475
1834.30597	18049.275
1837.47122	18018.675
1840.6344	18043.175
1843.7955	18044.375
1846.95454	18006.975
1850.11151	18068.675
1853.26642	18031.575
1856.41926	18073.875
1859.57004	18084.175
1862.71876	18054.175
1865.86542	18046.275
1869.01003	18085.975
1872.15258	18066.675
1875.29308	18090.175
1878.43152	18109.775
1881.56792	18113.275
1884.70227	18090.475
1887.83457	18080.575
1890.96482	18122.375
1894.09304	18083.675
1897.21921	18125.775
1900.34335	18108.875
1903.46544	18106.875
1906.58551	18163.075
1909.70353	18159.975
1912.81953	18109.975
1915.93349	18144.975
1919.04543	18118.975
1922.15534	18087.275
1925.26322	18043.675
1928.36908	17979.275
1931.47292	17953.275
1934.57473	17867.075
1937.67453	17790.575
1940.77232	17750.575
1943.86808	17697.475
1946.96184	17558.375
1950.05358	17474.675
1953.14331	17402.875
1956.23103	17335.875
1959.31675	17304.775
1962.40046	17258.875
1965.48217	17214.175
1968.56188	17153.375
1971.63959	17084.775
1974.7153	17032.175
1977.78901	16985.775
1980.86073	16925.775
1983.93046	16869.175
1986.99819	16820.275
1990.06394	16790.575
1993.1277	16744.875
1996.18947	16670.675
1999.24925	16604.075
2002.30706	16582.775
2005.36288	16516.875
2008.41672	16496.475
2011.46859	16445.675
2014.51848	16446.075
2017.56639	16401.475
2020.61233	16352.775
2023.6563	16338.775
2026.6983	16275.575
2029.73833	16214.875
2032.7764	16207.775
2035.8125	16180.975
2038.84664	16164.775
2041.87881	16099.375
2044.90903	16064.675
2047.93729	16045.975
2050.96359	16068.275
2053.98794	16039.375
2057.01034	16005.975
2060.03078	15957.475
2063.04927	16004.075
2066.06582	15968.275
2069.08042	15977.575
2072.09307	15940.675
2075.10378	15924.475
2078.11255	15905.175
2081.11938	15891.475
2084.12426	15889.275
2087.12722	15918.175
2090.12824	15866.475
2093.12732	15850.775
2096.12447	15868.475
2099.11969	15867.575
2102.11299	15846.375
2105.10435	15846.975
2108.09379	15875.175
2111.08131	15869.375
2114.0669	15850.675
2117.05057	15856.975
2120.03233	15920.775
2123.01216	15924.875
2125.99008	15952.975
2128.96609	15972.775
2131.94018	15972.275
2134.91236	15961.475
2137.88263	15979.475
2140.851	15975.775
2143.81746	15995.275
2146.78201	15987.075
2149.74466	15995.475
2152.7054	15993.575
2155.66425	15983.175
2158.6212	16007.975
2161.57625	15982.275
2164.52941	15985.575
2167.48067	15982.775
2170.43004	15982.175
2173.37752	15942.475
2176.32311	15962.775
2179.26681	15973.175
2182.20863	15965.575
2185.14856	15946.875
2188.08661	15952.175
2191.02278	16001.275
2193.95707	15989.875
2196.88948	15993.375
2199.82001	15969.275
2202.74867	15967.075
2205.67545	15992.975
2208.60037	15930.875
2211.52341	15962.775
2214.44458	15947.175
2217.36388	15899.775
2220.28132	15888.175
2223.1969	15861.575
2226.11061	15857.375
2229.02246	15796.275
2231.93245	15770.975
2234.84058	15685.475
2237.74686	15704.775
2240.65128	15696.775
2243.55385	15654.375
2246.45456	15634.875
2249.35343	15627.175
2252.25044	15617.475
2255.14561	15590.875
2258.03893	15559.275
2260.93041	15571.675
2263.82004	15530.875
2266.70783	15460.475
2269.59378	15402.775
2272.4779	15368.575
2275.36017	15331.375
2278.24061	15313.675
2281.11922	15282.375
2283.996	15290.875
2286.87094	15279.175
2289.74405	15257.875
2292.61534	15241.275
2295.4848	15247.975
2298.35243	15252.875
2301.21824	15244.575
2304.08223	15246.275
2306.94439	15264.875
2309.80474	15283.075
2312.66327	15322.475
2315.51999	15292.875
2318.37489	15290.875
2321.22797	15283.975
2324.07925	15295.575
2326.92871	15257.675
2329.77637	15244.375
2332.62222	15231.775
2335.46626	15217.375
2338.3085	15199.975
2341.14893	15281.975
2343.98756	15269.875
2346.8244	15283.775
2349.65943	15295.275
2352.49267	15287.875
2355.32411	15264.075
2358.15376	15300.675
2360.98161	15315.475
2363.80768	15275.875
2366.63195	15233.075
2369.45444	15223.975
2372.27514	15208.575
2375.09405	15138.275
2377.91118	15099.175
2380.72652	15057.075
2383.54009	15012.675
2386.35187	14982.275
2389.16188	14916.475
2391.97011	14912.475
2394.77657	14868.975
2397.58125	14851.875
2400.38416	14879.775
2403.18529	14831.075
2405.98466	14790.575
2408.78226	14741.075
2411.57809	14728.175
2414.37216	14722.075
2417.16446	14666.075
2419.955	14648.075
2422.74378	14661.775
2425.5308	14641.975
2428.31606	14646.275
2431.09956	14626.575
2433.88131	14617.175
2436.6613	14615.375
2439.43954	14625.775
2442.21603	14661.575
2444.99077	14629.975
2447.76377	14601.475
2450.53501	14597.075
2453.30451	14581.475
2456.07226	14590.975
2458.83827	14580.075
2461.60254	14595.875
2464.36507	14586.875
2467.12586	14543.875
2469.88492	14548.075
2472.64224	14574.275
2475.39782	14566.675
2478.15167	14576.375
2480.90379	14594.975
2483.65417	14653.575
2486.40283	14655.075
2489.14976	14678.675
2491.89497	14700.175
2494.63845	14723.675
2497.3802	14686.275
2500.12024	14708.975
2502.85855	14670.375
2505.59514	14667.875
2508.33002	14644.375
2511.06318	14619.475
2513.79462	14572.075
2516.52435	14556.375
2519.25237	14553.375
2521.97867	14534.375
2524.70327	14506.475
2527.42616	14496.775
2530.14734	14492.175
2532.86681	14493.175
2535.58458	14541.375
2538.30065	14492.175
2541.01501	14519.775
2543.72768	14505.575
2546.43864	14495.475
2549.14791	14474.175
2551.85548	14482.675
2554.56136	14431.275
2557.26554	14413.675
2559.96803	14407.475
2562.66883	14361.675
2565.36794	14335.275
2568.06536	14362.675
2570.7611	14351.275
2573.45514	14339.975
2576.14751	14355.075
2578.83819	14323.575
2581.52719	14328.975
2584.21451	14322.375
2586.90015	14327.175
2589.58411	14295.075
2592.2664	14304.575
2594.94701	14319.975
2597.62594	14330.075
2600.30321	14305.075
2602.9788	14284.575
2605.65273	14266.675
2608.32498	14285.975
2610.99557	14286.375
2613.66449	14299.375
2616.33175	14325.375
2618.99734	14308.575
2621.66128	14307.875
2624.32355	14313.475
2626.98416	14297.275
2629.64311	14317.375
2632.30041	14279.675
2634.95605	14287.775
2637.61004	14263.475
2640.26238	14244.075
2642.91306	14230.775
2645.56209	14195.375
2648.20948	14194.775
2650.85521	14184.675
2653.4993	14154.875
2656.14175	14160.675
2658.78255	14192.875
2661.42171	14175.875
2664.05923	14202.775
2666.6951	14220.175
2669.32934	14277.075
2671.96194	14270.075
2674.59291	14277.575
2677.22224	14289.475
2679.84993	14283.875
2682.476	14247.175
2685.10043	14256.175
2687.72324	14214.075
2690.34441	14239.375
2692.96396	14213.375
2695.58188	14216.275
2698.19818	14185.675
2700.81285	14184.775
2703.4259	14193.275
2706.03733	14227.275
2708.64714	14214.575
2711.25533	14202.875
2713.86191	14172.975
2716.46687	14203.975
2719.07021	14203.675
2721.67194	14222.575
2724.27206	14224.075
2726.87057	14246.175
2729.46747	14230.975
2732.06276	14266.275
2734.65644	14241.575
2737.24852	14244.675
2739.83899	14209.475
2742.42786	14259.775
2745.01513	14237.675
2747.60079	14213.375
2750.18486	14205.275
2752.76733	14170.475
2755.3482	14176.375
2757.92747	14190.075
2760.50515	14136.775
2763.08123	14134.575
2765.65573	14139.475
2768.22863	14136.575
2770.79994	14125.275
2773.36967	14149.775
2775.9378	14152.775
2778.50435	14123.175
2781.06932	14121.975
2783.6327	14137.475
2786.1945	14140.975
2788.75471	14114.075
2791.31335	14080.175
2793.87041	14087.675
2796.42589	14061.075
2798.97979	14046.875
2801.53212	14013.375
2804.08288	14041.975
2806.63206	14005.075
2809.17967	13950.775
2811.72571	13923.875
2814.27018	13928.975
2816.81308	13919.775
2819.35442	13913.875
2821.89419	13873.475
2824.43239	13867.475
2826.96904	13872.775
2829.50412	13867.175
2832.03763	13865.175
2834.56959	13849.075
2837.1	13826.975
2839.62884	13839.675
2842.15613	13864.775
2844.68186	13831.375
2847.20604	13849.875
2849.72867	13894.975
2852.24974	13837.375
2854.76927	13823.575
2857.28724	13818.875
2859.80367	13810.175
2862.31855	13764.775
2864.83189	13746.675
2867.34368	13744.375
2869.85393	13735.875
2872.36264	13761.575
2874.8698	13747.575
2877.37543	13736.275
2879.87952	13740.875
2882.38207	13744.075
2884.88308	13740.675
2887.38256	13746.975
2889.88051	13750.775
2892.37692	13745.375
2894.8718	13736.475
2897.36515	13771.075
2899.85698	13755.775
2902.34727	13777.075
2904.83604	13782.875
2907.32328	13836.675
2909.809	13843.675
2912.29319	13837.975
2914.77587	13836.875
2917.25702	13810.575
2919.73665	13799.575
2922.21476	13807.875
2924.69136	13784.575
2927.16644	13801.075
2929.64	13735.875
2932.11205	13736.675
2934.58258	13687.375
2937.05161	13681.675
2939.51912	13676.175
2941.98513	13663.075
2944.44962	13645.775
2946.91261	13624.075
2949.37409	13633.675
2951.83407	13589.275
2954.29254	13598.975
2956.74951	13590.075
2959.20498	13611.775
2961.65895	13561.475
2964.11142	13564.275
2966.56239	13538.475
2969.01186	13538.175
2971.45984	13511.975
2973.90632	13487.475
2976.35131	13454.875
2978.7948	13401.075
2981.23681	13378.375
2983.67732	13383.075
2986.11635	13329.675
2988.55388	13305.175
2990.98993	13282.975
2993.4245	13254.975
2995.85758	13210.875
2998.28917	13205.575
3000.71928	13150.575
3003.14791	13135.175
3005.57506	13136.475
3008.00073	13104.175
3010.42493	12968.475
3012.84764	13033.875
3015.26888	13028.175
3017.68865	12971.475
3020.10694	13004.975
3022.52376	12936.075
3024.9391	12948.275
3027.35298	12932.475
3029.76539	12932.675
3032.17632	12912.475
3034.5858	12921.275
3036.9938	12930.275
3039.40034	12896.975
3041.80542	12891.975
3044.20903	12868.875
3046.61118	12858.075
3049.01187	12814.475
3051.4111	12818.075
3053.80888	12759.675
3056.20519	12749.275
3058.60005	12703.275
3060.99345	12697.775
3063.3854	12663.375
3065.7759	12612.475
3068.16494	12591.575
3070.55254	12534.675
3072.93868	12538.775
3075.32338	12487.475
3077.70662	12461.175
3080.08842	12438.275
3082.46878	12402.875
3084.84769	12388.075
3087.22515	12391.675
3089.60118	12378.575
3091.97576	12405.375
3094.3489	12367.875
3096.72061	12400.075
3099.09087	12388.075
3101.4597	12357.275
3103.82709	12375.675
3106.19305	12332.875
3108.55757	12309.475
3110.92066	12284.975
3113.28232	12277.875
3115.64255	12243.375
3118.00134	12225.975
3120.35871	12194.375
3122.71466	12190.175
3125.06917	12160.675
3127.42226	12147.375
