Data from AgNP_FTO_APTES_UA_10uM_CRN_500uM_R6G_10uM_NaF_0.1M_Addition_RamanShift__23__19-07-10-957.txt Node

Date: Thu Feb 10 19:07:10 GMT 2022
User: TCL
Spectrometer: QEP01345
Trigger mode: 4
Integration Time (sec): 7.000000E0
Scans to average: 10
Electric dark correction enabled: true
Nonlinearity correction enabled: false
Boxcar width: 0
XAxis mode: Raman Shifts
Number of Pixels in Spectrum: 1044
>>>>>Begin Spectral Data<<<<<
46.04893	-0.125
50.45542	0.175
54.85868	-1.325
59.25871	-2.425
63.6555	64.275
68.04907	69.275
72.43941	69.675
76.82654	69.475
81.21044	75.775
85.59113	73.575
89.96862	78.275
94.34289	81.475
98.71396	82.875
103.08183	91.375
107.4465	94.775
111.80798	92.275
116.16626	96.875
120.52136	98.275
124.87327	102.775
129.222	110.375
133.56755	115.575
137.90993	122.075
142.24913	130.675
146.58517	150.875
150.91804	177.075
155.24774	207.375
159.57429	255.975
163.89768	325.175
168.21792	435.675
172.53501	593.075
176.84895	822.475
181.15975	1170.475
185.46741	1628.175
189.77193	2263.975
194.07331	3028.175
198.37157	3918.875
202.6667	4849.375
206.9587	5779.875
211.24758	6673.775
215.53334	7586.975
219.81599	8530.975
224.09553	9553.575
228.37195	10690.775
232.64527	11915.575
236.91549	13277.475
241.18261	14621.075
245.44663	15926.375
249.70755	17121.975
253.96539	18149.775
258.22014	19042.775
262.4718	19789.275
266.72039	20323.175
270.96589	20650.575
275.20832	20703.375
279.44768	20629.275
283.68397	20437.675
287.91719	20286.375
292.14735	20176.675
296.37445	20129.675
300.59849	20145.875
304.81948	20140.875
309.03742	19992.275
313.25231	19760.475
317.46415	19321.875
321.67296	18925.875
325.87872	18613.175
330.08145	18449.375
334.28114	18466.275
338.47781	18630.775
342.67145	18821.175
346.86207	19096.175
351.04966	19423.875
355.23424	19818.275
359.4158	20121.575
363.59435	20385.275
367.76989	20612.075
371.94243	20810.075
376.11196	20953.975
380.27849	21068.175
384.44203	21237.675
388.60257	21344.975
392.76012	21497.875
396.91468	21675.675
401.06626	21963.075
405.21485	22145.475
409.36047	22120.275
413.50311	21887.675
417.64277	21751.275
421.77947	21716.675
425.9132	21795.975
430.04396	21956.175
434.17176	22145.375
438.2966	22426.775
442.41849	22838.475
446.53742	23362.775
450.6534	23981.275
454.76644	24457.875
458.87653	24669.775
462.98368	24537.975
467.08789	24297.575
471.18916	24031.475
475.2875	23864.375
479.38291	23841.475
483.4754	23739.575
487.56496	23530.275
491.6516	23162.375
495.73531	22756.875
499.81612	22513.375
503.89401	22519.875
507.96899	22574.575
512.04106	22519.575
516.11023	22508.275
520.1765	22381.775
524.23987	22255.275
528.30034	22122.175
532.35792	22011.675
536.41261	21913.175
540.46441	21740.575
544.51333	21747.575
548.55936	21905.775
552.60252	22291.375
556.64279	22665.375
560.6802	23012.775
564.71473	23251.375
568.7464	23597.675
572.7752	24035.775
576.80114	24199.375
580.82422	24202.475
584.84444	24272.975
588.86181	24535.775
592.87633	24944.475
596.888	25173.075
600.89682	24976.375
604.9028	25207.975
608.90594	26636.975
612.90624	28367.675
616.90371	27275.775
620.89834	23893.975
624.89015	22375.175
628.87913	22124.575
632.86528	22204.775
636.84862	22272.575
640.82913	22125.275
644.80683	21694.675
648.78172	21461.775
652.75379	21355.475
656.72306	21510.275
660.68952	21775.975
664.65319	21688.175
668.61405	21471.475
672.57211	21347.575
676.52738	21416.875
680.47986	21457.775
684.42955	21426.175
688.37646	21383.375
692.32058	21441.875
696.26192	21543.275
700.20048	21730.775
704.13626	21809.675
708.06928	21826.375
711.99952	21723.675
715.927	21665.475
719.85171	21664.175
723.77365	21682.675
727.69284	21564.775
731.60928	21453.975
735.52295	21414.075
739.43388	21402.575
743.34206	21436.375
747.24749	21498.275
751.15017	21599.975
755.05012	21863.575
758.94733	22273.475
762.8418	23018.775
766.73354	24146.175
770.62254	25352.975
774.50882	25748.575
778.39237	24926.075
782.27321	23492.775
786.15132	22332.075
790.02671	21595.675
793.89938	21310.775
797.76935	21189.975
801.6366	21158.275
805.50115	21162.175
809.36299	21061.375
813.22213	21018.875
817.07857	20995.575
820.93231	20974.075
824.78336	20922.675
828.63172	20892.675
832.47738	20868.675
836.32036	20864.075
840.16066	20842.575
843.99827	20894.875
847.8332	20856.875
851.66546	20842.075
855.49504	20831.275
859.32195	20880.975
863.1462	20823.375
866.96777	20787.675
870.78668	20767.275
874.60293	20760.875
878.41652	20764.775
882.22745	20796.575
886.03573	20815.775
889.84136	20816.675
893.64433	20778.375
897.44466	20735.775
901.24235	20665.775
905.0374	20550.275
908.8298	20508.275
912.61957	20483.375
916.40671	20564.575
920.19121	20755.975
923.97308	20879.775
927.75233	20875.475
931.52895	20799.675
935.30295	20657.875
939.07433	20426.875
942.84309	20229.275
946.60924	20116.675
950.37278	19988.075
954.13371	19987.675
957.89203	19912.675
961.64774	19907.175
965.40086	19851.775
969.15137	19780.175
972.89929	19686.275
976.64461	19600.975
980.38733	19616.275
984.12747	19637.375
987.86502	19737.075
991.59999	19918.175
995.33237	20132.675
999.06217	20474.975
1002.78939	20875.175
1006.51404	21133.975
1010.23611	21259.375
1013.95561	21402.075
1017.67255	21409.675
1021.38692	21268.275
1025.09872	21063.175
1028.80796	21014.975
1032.51465	21171.475
1036.21877	21395.275
1039.92035	21438.475
1043.61937	21349.475
1047.31584	21101.875
1051.00976	20899.175
1054.70114	20762.575
1058.38998	20789.475
1062.07627	20893.075
1065.76003	20976.875
1069.44126	21046.375
1073.11995	21116.675
1076.79611	21183.875
1080.46974	21260.375
1084.14085	21365.075
1087.80943	21585.575
1091.47549	21751.775
1095.13903	21766.475
1098.80005	21628.975
1102.45857	21382.075
1106.11456	21186.175
1109.76805	21207.675
1113.41903	21317.175
1117.06751	21467.075
1120.71348	21695.475
1124.35696	21870.075
1127.99793	22057.275
1131.63641	22163.275
1135.2724	22009.675
1138.90589	21788.475
1142.5369	21677.975
1146.16542	21734.475
1149.79145	21786.775
1153.415	21896.375
1157.03607	22142.075
1160.65467	22568.575
1164.27079	23253.375
1167.88443	24117.175
1171.49561	25252.675
1175.10432	26624.075
1178.71056	28387.275
1182.31434	30006.575
1185.91565	30943.975
1189.51451	30883.975
1193.11091	30270.975
1196.70485	29413.675
1200.29634	28551.275
1203.88538	27835.375
1207.47197	27274.675
1211.05612	26757.775
1214.63782	26296.775
1218.21708	26000.275
1221.79391	25841.075
1225.36829	25580.575
1228.94024	25179.975
1232.50976	24762.375
1236.07685	24439.475
1239.6415	24360.975
1243.20374	24403.875
1246.76355	24524.975
1250.32093	24782.375
1253.8759	25162.775
1257.42845	25636.375
1260.97859	26164.375
1264.52631	26595.575
1268.07163	27066.375
1271.61453	27563.975
1275.15503	28139.675
1278.69312	28739.575
1282.22882	29160.175
1285.76211	29733.675
1289.29301	30386.175
1292.82151	31397.275
1296.34761	32756.975
1299.87133	34321.475
1303.39266	36167.575
1306.9116	38013.275
1310.42815	39844.075
1313.94233	41030.375
1317.45412	41254.875
1320.96354	40709.375
1324.47058	39986.375
1327.97525	39311.275
1331.47754	38850.375
1334.97747	38798.275
1338.47502	38977.175
1341.97022	39122.575
1345.46305	38738.275
1348.95352	38145.375
1352.44163	37577.175
1355.92738	37678.675
1359.41078	38473.675
1362.89183	39431.475
1366.37053	38799.475
1369.84688	36143.475
1373.32088	32840.875
1376.79254	30677.175
1380.26186	29828.675
1383.72883	29831.375
1387.19347	29967.875
1390.65578	30073.275
1394.11575	30283.675
1397.57339	30787.175
1401.0287	31603.475
1404.48168	32278.375
1407.93234	32655.475
1411.38068	32504.975
1414.82669	31734.075
1418.27039	30510.775
1421.71177	29150.675
1425.15083	27971.475
1428.58758	27283.975
1432.02203	27186.975
1435.45416	27567.575
1438.88399	28104.375
1442.31151	28696.775
1445.73673	29198.475
1449.15965	29662.975
1452.58027	30092.575
1455.9986	30374.675
1459.41463	30566.975
1462.82837	30830.375
1466.23982	31186.775
1469.64898	31596.375
1473.05586	31832.975
1476.46045	31760.475
1479.86276	31478.475
1483.26279	31135.575
1486.66054	30796.475
1490.05602	30665.475
1493.44922	30591.975
1496.84016	30422.575
1500.22882	30452.675
1503.61521	30852.375
1506.99934	31624.975
1510.38121	32402.775
1513.76081	32789.375
1517.13816	32281.175
1520.51324	31254.275
1523.88607	30252.575
1527.25665	29705.675
1530.62498	29553.475
1533.99105	29625.875
1537.35488	29670.775
1540.71647	29594.775
1544.07581	29339.575
1547.4329	28979.175
1550.78776	28591.475
1554.14038	28255.375
1557.49077	28072.775
1560.83892	28025.575
1564.18484	27930.475
1567.52853	27915.075
1570.86999	28034.775
1574.20922	28320.875
1577.54624	28610.175
1580.88103	28782.975
1584.2136	28980.575
1587.54395	29640.475
1590.87208	30821.275
1594.19801	32355.875
1597.52172	33949.575
1600.84321	34651.675
1604.16251	33752.875
1607.47959	31711.375
1610.79447	29314.775
1614.10715	27076.875
1617.41763	25194.475
1620.7259	23936.975
1624.03199	23243.175
1627.33587	23085.675
1630.63757	23534.475
1633.93707	24617.675
1637.23439	26325.675
1640.52951	28763.075
1643.82246	31462.675
1647.11321	33654.775
1650.40179	34111.475
1653.68819	32362.675
1656.97241	29056.875
1660.25446	25616.775
1663.53433	23094.975
1666.81203	21323.675
1670.08756	20248.575
1673.36092	19582.375
1676.63211	19112.975
1679.90115	18791.375
1683.16801	18532.975
1686.43272	18344.475
1689.69527	18218.675
1692.95567	18096.475
1696.2139	18036.975
1699.46999	18017.475
1702.72392	17946.575
1705.97571	17904.475
1709.22535	17829.175
1712.47284	17788.875
1715.71819	17769.575
1718.96139	17734.175
1722.20246	17689.875
1725.44139	17619.475
1728.67818	17580.475
1731.91284	17436.175
1735.14537	17390.475
1738.37576	17314.975
1741.60403	17260.175
1744.83017	17233.075
1748.05418	17208.875
1751.27607	17216.975
1754.49584	17176.975
1757.71349	17157.675
1760.92903	17120.375
1764.14244	17105.675
1767.35375	17087.675
1770.56294	17090.275
1773.77002	17055.675
1776.97499	17034.375
1780.17785	16932.375
1783.37861	16937.475
1786.57727	16880.275
1789.77382	16889.875
1792.96828	16859.175
1796.16064	16800.075
1799.3509	16816.075
1802.53907	16763.575
1805.72514	16752.275
1808.90913	16693.175
1812.09102	16689.675
1815.27083	16636.475
1818.44856	16619.575
1821.6242	16553.575
1824.79776	16519.775
1827.96924	16518.175
1831.13864	16498.875
1834.30597	16490.675
1837.47122	16450.675
1840.6344	16465.575
1843.7955	16471.975
1846.95454	16449.175
1850.11151	16404.875
1853.26642	16437.075
1856.41926	16440.675
1859.57004	16420.275
1862.71876	16395.775
1865.86542	16399.375
1869.01003	16371.675
1872.15258	16364.675
1875.29308	16392.975
1878.43152	16349.775
1881.56792	16334.275
1884.70227	16339.775
1887.83457	16292.775
1890.96482	16299.575
1894.09304	16261.375
1897.21921	16232.175
1900.34335	16247.875
1903.46544	16261.075
1906.58551	16228.675
1909.70353	16212.475
1912.81953	16179.975
1915.93349	16164.275
1919.04543	16106.975
1922.15534	16078.975
1925.26322	16038.175
1928.36908	16025.175
1931.47292	16042.475
1934.57473	15972.075
1937.67453	15938.375
1940.77232	15898.175
1943.86808	15841.075
1946.96184	15776.575
1950.05358	15746.175
1953.14331	15735.475
1956.23103	15664.975
1959.31675	15639.075
1962.40046	15583.275
1965.48217	15523.175
1968.56188	15493.875
1971.63959	15397.575
1974.7153	15386.375
1977.78901	15338.075
1980.86073	15298.875
1983.93046	15275.675
1986.99819	15218.975
1990.06394	15182.475
1993.1277	15135.275
1996.18947	15076.675
1999.24925	15027.175
2002.30706	14987.375
2005.36288	14938.975
2008.41672	14895.575
2011.46859	14872.275
2014.51848	14898.375
2017.56639	14827.575
2020.61233	14779.175
2023.6563	14718.275
2026.6983	14712.075
2029.73833	14644.475
2032.7764	14651.175
2035.8125	14624.075
2038.84664	14575.975
2041.87881	14551.875
2044.90903	14516.375
2047.93729	14502.375
2050.96359	14478.175
2053.98794	14458.575
2057.01034	14444.875
2060.03078	14436.975
2063.04927	14411.175
2066.06582	14450.775
2069.08042	14409.175
2072.09307	14407.475
2075.10378	14396.875
2078.11255	14369.475
2081.11938	14384.775
2084.12426	14359.075
2087.12722	14342.175
2090.12824	14338.575
2093.12732	14327.375
2096.12447	14305.375
2099.11969	14301.775
2102.11299	14317.175
2105.10435	14292.575
2108.09379	14307.975
2111.08131	14327.275
2114.0669	14331.775
2117.05057	14331.475
2120.03233	14336.275
2123.01216	14325.775
2125.99008	14343.575
2128.96609	14366.375
2131.94018	14407.875
2134.91236	14414.775
2137.88263	14372.675
2140.851	14394.575
2143.81746	14413.875
2146.78201	14397.475
2149.74466	14412.875
2152.7054	14400.775
2155.66425	14414.575
2158.6212	14399.275
2161.57625	14404.075
2164.52941	14388.775
2167.48067	14370.875
2170.43004	14390.975
2173.37752	14344.075
2176.32311	14384.175
2179.26681	14384.075
2182.20863	14341.775
2185.14856	14359.275
2188.08661	14335.875
2191.02278	14384.275
2193.95707	14365.475
2196.88948	14367.975
2199.82001	14364.175
2202.74867	14338.275
2205.67545	14334.475
2208.60037	14264.675
2211.52341	14261.775
2214.44458	14271.775
2217.36388	14244.675
2220.28132	14236.275
2223.1969	14205.775
2226.11061	14177.575
2229.02246	14142.075
2231.93245	14087.775
2234.84058	14060.175
2237.74686	14049.475
2240.65128	14041.275
2243.55385	13994.375
2246.45456	13983.175
2249.35343	13967.175
2252.25044	13937.675
2255.14561	13924.375
2258.03893	13916.675
2260.93041	13859.975
2263.82004	13825.875
2266.70783	13808.175
2269.59378	13756.375
2272.4779	13685.975
2275.36017	13684.475
2278.24061	13669.675
2281.11922	13641.875
2283.996	13639.975
2286.87094	13645.975
2289.74405	13617.075
2292.61534	13574.075
2295.4848	13612.675
2298.35243	13589.275
2301.21824	13545.175
2304.08223	13568.375
2306.94439	13571.675
2309.80474	13573.575
2312.66327	13519.575
2315.51999	13513.775
2318.37489	13538.875
2321.22797	13526.875
2324.07925	13513.875
2326.92871	13480.275
2329.77637	13477.175
2332.62222	13408.975
2335.46626	13405.975
2338.3085	13416.575
2341.14893	13406.975
2343.98756	13405.375
2346.8244	13396.775
2349.65943	13397.875
2352.49267	13379.675
2355.32411	13360.575
2358.15376	13361.975
2360.98161	13359.075
2363.80768	13336.975
2366.63195	13369.975
2369.45444	13337.475
2372.27514	13328.475
2375.09405	13265.375
2377.91118	13271.675
2380.72652	13221.675
2383.54009	13172.075
2386.35187	13160.275
2389.16188	13098.175
2391.97011	13080.875
2394.77657	13069.375
2397.58125	13058.675
2400.38416	13023.375
2403.18529	13019.475
2405.98466	13014.075
2408.78226	12980.375
2411.57809	12973.475
2414.37216	12938.175
2417.16446	12931.075
2419.955	12910.775
2422.74378	12924.875
2425.5308	12882.875
2428.31606	12893.275
2431.09956	12878.475
2433.88131	12849.675
2436.6613	12850.275
2439.43954	12835.375
2442.21603	12795.675
2444.99077	12778.275
2447.76377	12806.975
2450.53501	12776.775
2453.30451	12793.275
2456.07226	12754.975
2458.83827	12783.775
2461.60254	12797.375
2464.36507	12742.175
2467.12586	12747.075
2469.88492	12739.375
2472.64224	12731.775
2475.39782	12742.775
2478.15167	12748.475
2480.90379	12743.975
2483.65417	12765.875
2486.40283	12757.975
2489.14976	12768.775
2491.89497	12737.275
2494.63845	12751.875
2497.3802	12747.575
2500.12024	12741.475
2502.85855	12722.375
2505.59514	12694.375
2508.33002	12691.675
2511.06318	12692.675
2513.79462	12680.575
2516.52435	12650.275
2519.25237	12598.175
2521.97867	12614.075
2524.70327	12612.075
2527.42616	12596.475
2530.14734	12618.875
2532.86681	12554.875
2535.58458	12568.475
2538.30065	12552.775
2541.01501	12556.475
2543.72768	12522.275
2546.43864	12549.875
2549.14791	12508.375
2551.85548	12491.175
2554.56136	12479.975
2557.26554	12430.875
2559.96803	12420.975
2562.66883	12394.475
2565.36794	12383.275
2568.06536	12370.675
2570.7611	12344.475
2573.45514	12324.675
2576.14751	12324.175
2578.83819	12280.775
2581.52719	12300.375
2584.21451	12280.375
2586.90015	12295.875
2589.58411	12260.175
2592.2664	12263.875
2594.94701	12230.375
2597.62594	12235.075
2600.30321	12189.675
2602.9788	12210.975
2605.65273	12195.675
2608.32498	12168.575
2610.99557	12172.175
2613.66449	12202.075
2616.33175	12165.375
2618.99734	12199.775
2621.66128	12171.975
2624.32355	12158.575
2626.98416	12140.075
2629.64311	12124.475
2632.30041	12148.375
2634.95605	12091.675
2637.61004	12100.775
2640.26238	12073.175
2642.91306	12087.775
2645.56209	12069.875
2648.20948	12061.375
2650.85521	12047.075
2653.4993	12043.975
2656.14175	12061.475
2658.78255	12061.375
2661.42171	12071.375
2664.05923	12071.875
2666.6951	12055.875
2669.32934	12057.075
2671.96194	12045.675
2674.59291	12076.975
2677.22224	12051.275
2679.84993	12077.575
2682.476	12089.875
2685.10043	12016.675
2687.72324	12028.075
2690.34441	12044.175
2692.96396	12057.075
2695.58188	12019.375
2698.19818	12034.875
2700.81285	12016.075
2703.4259	12016.375
2706.03733	12034.775
2708.64714	12033.475
2711.25533	12031.175
2713.86191	12048.375
2716.46687	12046.475
2719.07021	12060.775
2721.67194	12072.975
2724.27206	12037.975
2726.87057	12068.175
2729.46747	12070.075
2732.06276	12079.475
2734.65644	12074.975
2737.24852	12081.175
2739.83899	12045.575
2742.42786	12076.475
2745.01513	12016.575
2747.60079	12026.575
2750.18486	12036.875
2752.76733	12009.675
2755.3482	11987.175
2757.92747	11999.775
2760.50515	11968.275
2763.08123	11933.575
2765.65573	11929.675
2768.22863	11962.175
2770.79994	11922.775
2773.36967	11926.775
2775.9378	11938.775
2778.50435	11941.475
2781.06932	11911.675
2783.6327	11924.875
2786.1945	11903.475
2788.75471	11922.475
2791.31335	11882.875
2793.87041	11870.375
2796.42589	11852.275
2798.97979	11836.375
2801.53212	11815.775
2804.08288	11797.575
2806.63206	11758.375
2809.17967	11745.575
2811.72571	11715.675
2814.27018	11709.675
2816.81308	11652.675
2819.35442	11644.075
2821.89419	11634.275
2824.43239	11633.475
2826.96904	11585.075
2829.50412	11588.975
2832.03763	11569.975
2834.56959	11591.375
2837.1	11564.475
2839.62884	11572.975
2842.15613	11574.275
2844.68186	11593.775
2847.20604	11600.475
2849.72867	11592.675
2852.24974	11589.075
2854.76927	11580.775
2857.28724	11561.175
2859.80367	11527.975
2862.31855	11513.275
2864.83189	11503.475
2867.34368	11466.275
2869.85393	11471.175
2872.36264	11455.875
2874.8698	11474.375
2877.37543	11461.875
2879.87952	11481.275
2882.38207	11436.575
2884.88308	11452.475
2887.38256	11466.075
2889.88051	11447.275
2892.37692	11462.375
2894.8718	11473.875
2897.36515	11494.275
2899.85698	11494.775
2902.34727	11489.475
2904.83604	11519.475
2907.32328	11550.075
2909.809	11525.275
2912.29319	11524.675
2914.77587	11546.975
2917.25702	11517.775
2919.73665	11512.175
2922.21476	11526.375
2924.69136	11495.575
2927.16644	11515.875
2929.64	11500.375
2932.11205	11466.375
2934.58258	11469.375
2937.05161	11460.175
2939.51912	11479.475
2941.98513	11420.575
2944.44962	11414.575
2946.91261	11380.775
2949.37409	11399.075
2951.83407	11369.975
2954.29254	11375.875
2956.74951	11370.575
2959.20498	11339.075
2961.65895	11355.375
2964.11142	11333.175
2966.56239	11337.775
2969.01186	11298.875
2971.45984	11272.575
2973.90632	11267.075
2976.35131	11238.675
2978.7948	11194.775
2981.23681	11170.175
2983.67732	11148.875
2986.11635	11132.575
2988.55388	11115.475
2990.98993	11089.875
2993.4245	11056.675
2995.85758	11030.975
2998.28917	10983.575
3000.71928	10973.175
3003.14791	10955.975
3005.57506	10958.675
3008.00073	10929.975
3010.42493	10909.675
3012.84764	10894.875
3015.26888	10870.475
3017.68865	10831.575
3020.10694	10843.875
3022.52376	10829.975
3024.9391	10828.975
3027.35298	10774.975
3029.76539	10771.275
3032.17632	10780.975
3034.5858	10774.175
3036.9938	10763.075
3039.40034	10758.675
3041.80542	10759.875
3044.20903	10734.675
3046.61118	10727.075
3049.01187	10719.475
3051.4111	10709.075
3053.80888	10675.975
3056.20519	10672.375
3058.60005	10639.175
3060.99345	10605.875
3063.3854	10587.675
3065.7759	10574.975
3068.16494	10526.175
3070.55254	10501.775
3072.93868	10508.875
3075.32338	10461.275
3077.70662	10424.075
3080.08842	10410.475
3082.46878	10423.175
3084.84769	10381.075
3087.22515	10376.875
3089.60118	10379.575
3091.97576	10374.975
3094.3489	10382.675
3096.72061	10384.375
3099.09087	10363.575
3101.4597	10361.375
3103.82709	10362.475
3106.19305	10330.375
3108.55757	10325.575
3110.92066	10320.575
3113.28232	10315.275
3115.64255	10288.175
3118.00134	10263.475
3120.35871	10268.575
3122.71466	10232.275
3125.06917	10206.175
3127.42226	10189.675
