Data from AgNP_FTO_APTES_UA_10uM_CRN_200uM_R6G_10uM_NaF_0.1M_Addition_RamanShift__27__18-32-10-915.txt Node

Date: Thu Feb 10 18:32:10 GMT 2022
User: TCL
Spectrometer: QEP01345
Trigger mode: 4
Integration Time (sec): 7.000000E0
Scans to average: 10
Electric dark correction enabled: true
Nonlinearity correction enabled: false
Boxcar width: 0
XAxis mode: Raman Shifts
Number of Pixels in Spectrum: 1044
>>>>>Begin Spectral Data<<<<<
46.04893	-0.475
50.45542	-0.975
54.85868	-0.875
59.25871	-1.475
63.6555	69.725
68.04907	71.425
72.43941	72.625
76.82654	73.125
81.21044	82.525
85.59113	81.025
89.96862	84.825
94.34289	89.125
98.71396	88.925
103.08183	94.025
107.4465	98.025
111.80798	97.425
116.16626	101.325
120.52136	104.325
124.87327	108.725
129.222	115.925
133.56755	126.025
137.90993	128.125
142.24913	136.725
146.58517	156.625
150.91804	183.325
155.24774	215.825
159.57429	271.425
163.89768	339.525
168.21792	454.625
172.53501	609.725
176.84895	854.425
181.15975	1213.225
185.46741	1702.325
189.77193	2361.025
194.07331	3166.225
198.37157	4066.025
202.6667	5040.725
206.9587	6013.725
211.24758	6947.825
215.53334	7931.025
219.81599	8969.525
224.09553	10102.825
228.37195	11372.725
232.64527	12777.525
236.91549	14248.925
241.18261	15644.725
245.44663	16950.525
249.70755	18097.225
253.96539	19091.025
258.22014	19969.025
262.4718	20691.325
266.72039	21271.625
270.96589	21593.425
275.20832	21673.725
279.44768	21579.925
283.68397	21305.725
287.91719	21052.125
292.14735	20987.725
296.37445	21139.225
300.59849	21477.125
304.81948	21835.625
309.03742	21991.925
313.25231	21815.625
317.46415	21159.525
321.67296	20171.425
325.87872	19378.925
330.08145	18995.325
334.28114	19028.625
338.47781	19260.025
342.67145	19612.525
346.86207	20149.125
351.04966	20856.425
355.23424	21678.425
359.4158	22309.725
363.59435	22722.525
367.76989	22894.225
371.94243	23043.525
376.11196	23116.025
380.27849	23186.925
384.44203	23158.625
388.60257	23106.825
392.76012	23081.925
396.91468	23269.825
401.06626	23637.925
405.21485	24014.125
409.36047	23800.625
413.50311	23158.025
417.64277	22496.425
421.77947	22219.725
425.9132	22153.025
430.04396	22237.625
434.17176	22395.725
438.2966	22673.925
442.41849	23160.125
446.53742	23713.025
450.6534	24354.825
454.76644	24834.725
458.87653	24951.425
462.98368	24742.725
467.08789	24485.125
471.18916	24149.125
475.2875	23785.625
479.38291	23593.525
483.4754	23351.525
487.56496	23049.925
491.6516	22723.225
495.73531	22461.725
499.81612	22390.325
503.89401	22472.325
507.96899	22609.425
512.04106	22746.325
516.11023	22935.725
520.1765	23025.125
524.23987	22973.225
528.30034	22764.225
532.35792	22537.525
536.41261	22276.425
540.46441	22030.825
544.51333	21937.825
548.55936	22046.625
552.60252	22412.525
556.64279	22870.925
560.6802	23082.825
564.71473	23293.125
568.7464	23809.025
572.7752	24273.125
576.80114	24042.425
580.82422	23584.125
584.84444	23353.525
588.86181	23480.425
592.87633	23714.525
596.888	24016.425
600.89682	24345.525
604.9028	25605.525
608.90594	29482.725
612.90624	34791.625
616.90371	33690.725
620.89834	26627.625
624.89015	23309.825
628.87913	22741.525
632.86528	22748.825
636.84862	22778.125
640.82913	22574.025
644.80683	21975.925
648.78172	21551.025
652.75379	21540.725
656.72306	21997.525
660.68952	22638.525
664.65319	22573.025
668.61405	21974.125
672.57211	21686.225
676.52738	21684.725
680.47986	21754.625
684.42955	21681.425
688.37646	21619.525
692.32058	21629.925
696.26192	21793.025
700.20048	21969.325
704.13626	22112.125
708.06928	22068.725
711.99952	21924.025
715.927	21857.225
719.85171	21886.325
723.77365	21914.925
727.69284	21794.925
731.60928	21695.825
735.52295	21643.425
739.43388	21710.625
743.34206	21752.625
747.24749	21798.225
751.15017	21936.525
755.05012	22205.925
758.94733	22822.825
762.8418	24133.325
766.73354	26349.725
770.62254	28833.325
774.50882	30081.825
778.39237	29120.325
782.27321	26404.225
786.15132	23998.325
790.02671	22585.425
793.89938	21942.225
797.76935	21723.725
801.6366	21593.825
805.50115	21528.125
809.36299	21443.825
813.22213	21386.725
817.07857	21407.025
820.93231	21384.825
824.78336	21413.825
828.63172	21466.125
832.47738	21494.825
836.32036	21476.825
840.16066	21446.025
843.99827	21460.625
847.8332	21416.725
851.66546	21365.125
855.49504	21393.325
859.32195	21356.525
863.1462	21283.925
866.96777	21247.525
870.78668	21184.225
874.60293	21228.225
878.41652	21219.725
882.22745	21302.125
886.03573	21372.025
889.84136	21344.525
893.64433	21248.725
897.44466	21197.125
901.24235	21184.225
905.0374	21160.225
908.8298	21085.125
912.61957	21058.325
916.40671	21161.225
920.19121	21258.125
923.97308	21424.625
927.75233	21555.725
931.52895	21635.225
935.30295	21533.425
939.07433	21195.925
942.84309	20841.525
946.60924	20619.525
950.37278	20508.625
954.13371	20420.725
957.89203	20314.325
961.64774	20259.925
965.40086	20210.525
969.15137	20150.525
972.89929	20089.525
976.64461	20079.825
980.38733	20055.525
984.12747	20136.425
987.86502	20296.825
991.59999	20448.225
995.33237	20759.625
999.06217	21189.425
1002.78939	21678.725
1006.51404	22022.425
1010.23611	22254.425
1013.95561	22376.425
1017.67255	22415.725
1021.38692	22246.825
1025.09872	22066.125
1028.80796	22167.525
1032.51465	22463.325
1036.21877	22815.525
1039.92035	22914.725
1043.61937	22701.225
1047.31584	22340.425
1051.00976	21909.125
1054.70114	21728.725
1058.38998	21655.125
1062.07627	21742.525
1065.76003	21804.025
1069.44126	21831.525
1073.11995	21892.625
1076.79611	22062.125
1080.46974	22216.225
1084.14085	22508.125
1087.80943	22824.625
1091.47549	22986.125
1095.13903	22789.125
1098.80005	22439.425
1102.45857	22078.625
1106.11456	21927.725
1109.76805	22036.825
1113.41903	22292.725
1117.06751	22679.125
1120.71348	23164.025
1124.35696	23597.425
1127.99793	24019.825
1131.63641	24076.225
1135.2724	23515.725
1138.90589	22919.825
1142.5369	22544.425
1146.16542	22335.825
1149.79145	22248.525
1153.415	22300.425
1157.03607	22450.525
1160.65467	22748.125
1164.27079	23303.725
1167.88443	24271.325
1171.49561	25557.725
1175.10432	27553.725
1178.71056	30208.225
1182.31434	32405.025
1185.91565	33378.325
1189.51451	33047.825
1193.11091	31712.925
1196.70485	30067.725
1200.29634	28688.725
1203.88538	27766.125
1207.47197	26736.825
1211.05612	25845.925
1214.63782	25294.125
1218.21708	25131.425
1221.79391	25166.025
1225.36829	25152.425
1228.94024	24978.525
1232.50976	24689.025
1236.07685	24600.625
1239.6415	24624.725
1243.20374	24742.025
1246.76355	24950.525
1250.32093	25270.125
1253.8759	25734.325
1257.42845	26359.525
1260.97859	26940.425
1264.52631	27447.025
1268.07163	27933.025
1271.61453	28499.425
1275.15503	28975.325
1278.69312	29413.025
1282.22882	29654.925
1285.76211	30039.925
1289.29301	30660.225
1292.82151	31426.625
1296.34761	32386.825
1299.87133	33772.025
1303.39266	35734.725
1306.9116	38456.025
1310.42815	41591.125
1313.94233	43551.625
1317.45412	43365.325
1320.96354	41710.625
1324.47058	39758.125
1327.97525	37881.325
1331.47754	36793.025
1334.97747	36402.425
1338.47502	36728.025
1341.97022	37342.225
1345.46305	37810.325
1348.95352	38172.625
1352.44163	38936.425
1355.92738	40618.125
1359.41078	43831.525
1362.89183	47215.225
1366.37053	46301.525
1369.84688	40990.825
1373.32088	35554.825
1376.79254	32166.025
1380.26186	30623.925
1383.72883	30000.425
1387.19347	29693.925
1390.65578	29280.025
1394.11575	29106.525
1397.57339	29209.325
1401.0287	29563.325
1404.48168	30141.125
1407.93234	30559.425
1411.38068	30793.125
1414.82669	30581.725
1418.27039	29830.325
1421.71177	28926.325
1425.15083	28118.825
1428.58758	27591.225
1432.02203	27571.125
1435.45416	27753.425
1438.88399	27996.125
1442.31151	28219.825
1445.73673	28487.725
1449.15965	28753.725
1452.58027	28937.025
1455.9986	28963.425
1459.41463	29036.325
1462.82837	29285.125
1466.23982	29747.925
1469.64898	30247.725
1473.05586	30533.825
1476.46045	30616.725
1479.86276	30751.825
1483.26279	30914.525
1486.66054	31183.625
1490.05602	31601.025
1493.44922	32151.025
1496.84016	32822.425
1500.22882	33950.525
1503.61521	35731.625
1506.99934	38197.325
1510.38121	40768.525
1513.76081	42200.225
1517.13816	41168.325
1520.51324	38095.625
1523.88607	34857.725
1527.25665	32535.225
1530.62498	31268.625
1533.99105	30581.425
1537.35488	30182.725
1540.71647	30049.625
1544.07581	29898.525
1547.4329	29713.825
1550.78776	29543.525
1554.14038	29348.425
1557.49077	29452.325
1560.83892	29644.325
1564.18484	29926.025
1567.52853	30184.925
1570.86999	30400.925
1574.20922	30472.025
1577.54624	30565.225
1580.88103	30063.325
1584.2136	29388.725
1587.54395	29372.325
1590.87208	30126.825
1594.19801	31655.725
1597.52172	33564.125
1600.84321	34460.425
1604.16251	33591.925
1607.47959	31636.525
1610.79447	29397.325
1614.10715	27238.725
1617.41763	25511.825
1620.7259	24401.925
1624.03199	23826.025
1627.33587	23814.625
1630.63757	24244.425
1633.93707	25228.225
1637.23439	26717.825
1640.52951	28710.025
1643.82246	31175.725
1647.11321	33624.925
1650.40179	35021.925
1653.68819	33970.325
1656.97241	30465.925
1660.25446	26698.025
1663.53433	23953.425
1666.81203	22206.825
1670.08756	21154.625
1673.36092	20508.825
1676.63211	20052.325
1679.90115	19758.025
1683.16801	19523.525
1686.43272	19386.725
1689.69527	19274.825
1692.95567	19178.625
1696.2139	19127.325
1699.46999	19106.025
1702.72392	19112.325
1705.97571	19049.325
1709.22535	18990.325
1712.47284	18990.125
1715.71819	18979.825
1718.96139	18965.125
1722.20246	18958.025
1725.44139	18864.525
1728.67818	18794.925
1731.91284	18678.025
1735.14537	18608.525
1738.37576	18554.325
1741.60403	18509.925
1744.83017	18458.925
1748.05418	18396.525
1751.27607	18386.125
1754.49584	18392.725
1757.71349	18392.725
1760.92903	18366.225
1764.14244	18328.125
1767.35375	18295.825
1770.56294	18302.525
1773.77002	18270.025
1776.97499	18263.825
1780.17785	18218.725
1783.37861	18152.525
1786.57727	18162.025
1789.77382	18127.625
1792.96828	18096.625
1796.16064	18086.725
1799.3509	18052.225
1802.53907	18028.225
1805.72514	18006.025
1808.90913	17964.225
1812.09102	17923.625
1815.27083	17872.325
1818.44856	17832.625
1821.6242	17825.025
1824.79776	17795.125
1827.96924	17752.425
1831.13864	17736.125
1834.30597	17723.225
1837.47122	17720.025
1840.6344	17697.525
1843.7955	17717.925
1846.95454	17682.825
1850.11151	17678.625
1853.26642	17689.425
1856.41926	17701.825
1859.57004	17744.225
1862.71876	17705.725
1865.86542	17697.925
1869.01003	17662.125
1872.15258	17685.425
1875.29308	17677.225
1878.43152	17691.325
1881.56792	17641.625
1884.70227	17666.425
1887.83457	17644.625
1890.96482	17625.225
1894.09304	17566.525
1897.21921	17585.925
1900.34335	17588.225
1903.46544	17595.825
1906.58551	17557.725
1909.70353	17558.325
1912.81953	17561.225
1915.93349	17536.625
1919.04543	17489.325
1922.15534	17487.425
1925.26322	17420.825
1928.36908	17390.625
1931.47292	17415.625
1934.57473	17347.925
1937.67453	17322.725
1940.77232	17270.325
1943.86808	17232.225
1946.96184	17143.525
1950.05358	17107.525
1953.14331	17062.625
1956.23103	17017.925
1959.31675	16955.325
1962.40046	16874.625
1965.48217	16876.125
1968.56188	16791.625
1971.63959	16760.225
1974.7153	16713.225
1977.78901	16664.625
1980.86073	16607.125
1983.93046	16569.625
1986.99819	16528.325
1990.06394	16470.525
1993.1277	16451.725
1996.18947	16367.625
1999.24925	16342.825
2002.30706	16286.225
2005.36288	16233.025
2008.41672	16221.925
2011.46859	16132.725
2014.51848	16129.225
2017.56639	16082.125
2020.61233	16064.725
2023.6563	16002.125
2026.6983	15984.825
2029.73833	15927.825
2032.7764	15907.325
2035.8125	15863.625
2038.84664	15844.525
2041.87881	15811.425
2044.90903	15783.025
2047.93729	15743.225
2050.96359	15746.425
2053.98794	15738.925
2057.01034	15717.425
2060.03078	15698.325
2063.04927	15656.825
2066.06582	15664.925
2069.08042	15666.225
2072.09307	15657.925
2075.10378	15649.225
2078.11255	15599.525
2081.11938	15635.625
2084.12426	15620.525
2087.12722	15601.925
2090.12824	15582.225
2093.12732	15593.625
2096.12447	15583.925
2099.11969	15585.925
2102.11299	15577.725
2105.10435	15599.425
2108.09379	15573.325
2111.08131	15590.925
2114.0669	15600.525
2117.05057	15590.925
2120.03233	15654.825
2123.01216	15618.425
2125.99008	15622.625
2128.96609	15640.525
2131.94018	15669.225
2134.91236	15674.825
2137.88263	15675.825
2140.851	15687.925
2143.81746	15698.125
2146.78201	15678.825
2149.74466	15714.525
2152.7054	15700.425
2155.66425	15675.225
2158.6212	15689.825
2161.57625	15679.125
2164.52941	15660.325
2167.48067	15662.825
2170.43004	15662.625
2173.37752	15641.525
2176.32311	15658.025
2179.26681	15684.325
2182.20863	15684.025
2185.14856	15673.625
2188.08661	15702.425
2191.02278	15683.625
2193.95707	15690.325
2196.88948	15660.925
2199.82001	15656.925
2202.74867	15639.925
2205.67545	15617.825
2208.60037	15622.425
2211.52341	15605.925
2214.44458	15565.125
2217.36388	15562.825
2220.28132	15555.825
2223.1969	15523.025
2226.11061	15477.525
2229.02246	15431.025
2231.93245	15400.725
2234.84058	15373.725
2237.74686	15339.125
2240.65128	15330.825
2243.55385	15314.825
2246.45456	15274.725
2249.35343	15278.325
2252.25044	15289.125
2255.14561	15249.425
2258.03893	15246.825
2260.93041	15223.325
2263.82004	15180.025
2266.70783	15165.325
2269.59378	15047.325
2272.4779	15042.125
2275.36017	15042.025
2278.24061	15001.225
2281.11922	14976.225
2283.996	14979.125
2286.87094	14952.625
2289.74405	14943.625
2292.61534	14931.725
2295.4848	14921.825
2298.35243	14913.525
2301.21824	14892.725
2304.08223	14942.525
2306.94439	14905.225
2309.80474	14915.425
2312.66327	14912.525
2315.51999	14873.725
2318.37489	14869.925
2321.22797	14867.425
2324.07925	14859.125
2326.92871	14825.025
2329.77637	14807.725
2332.62222	14799.225
2335.46626	14756.825
2338.3085	14770.325
2341.14893	14790.125
2343.98756	14789.425
2346.8244	14766.025
2349.65943	14768.625
2352.49267	14800.325
2355.32411	14798.825
2358.15376	14796.225
2360.98161	14808.025
2363.80768	14777.525
2366.63195	14746.425
2369.45444	14736.225
2372.27514	14729.125
2375.09405	14672.425
2377.91118	14675.725
2380.72652	14643.025
2383.54009	14562.925
2386.35187	14530.625
2389.16188	14471.725
2391.97011	14470.725
2394.77657	14449.025
2397.58125	14414.325
2400.38416	14400.525
2403.18529	14345.525
2405.98466	14330.625
2408.78226	14283.725
2411.57809	14259.825
2414.37216	14217.625
2417.16446	14226.825
2419.955	14185.025
2422.74378	14188.625
2425.5308	14199.025
2428.31606	14189.925
2431.09956	14195.225
2433.88131	14159.525
2436.6613	14166.725
2439.43954	14179.925
2442.21603	14176.625
2444.99077	14163.925
2447.76377	14168.625
2450.53501	14133.325
2453.30451	14132.325
2456.07226	14116.225
2458.83827	14112.325
2461.60254	14119.225
2464.36507	14069.125
2467.12586	14049.225
2469.88492	14066.225
2472.64224	14078.125
2475.39782	14069.925
2478.15167	14098.425
2480.90379	14064.425
2483.65417	14075.925
2486.40283	14119.225
2489.14976	14112.425
2491.89497	14105.625
2494.63845	14122.125
2497.3802	14105.125
2500.12024	14103.925
2502.85855	14105.725
2505.59514	14070.225
2508.33002	14043.725
2511.06318	14042.825
2513.79462	13992.525
2516.52435	13964.825
2519.25237	13947.125
2521.97867	13918.525
2524.70327	13904.625
2527.42616	13896.925
2530.14734	13901.425
2532.86681	13896.425
2535.58458	13898.025
2538.30065	13888.925
2541.01501	13886.625
2543.72768	13866.025
2546.43864	13884.025
2549.14791	13864.125
2551.85548	13830.525
2554.56136	13821.325
2557.26554	13803.225
2559.96803	13769.425
2562.66883	13749.725
2565.36794	13718.825
2568.06536	13688.625
2570.7611	13660.125
2573.45514	13651.825
2576.14751	13639.325
2578.83819	13628.225
2581.52719	13610.325
2584.21451	13603.325
2586.90015	13584.725
2589.58411	13553.125
2592.2664	13577.925
2594.94701	13545.325
2597.62594	13554.425
2600.30321	13525.925
2602.9788	13502.825
2605.65273	13485.325
2608.32498	13497.525
2610.99557	13468.925
2613.66449	13487.225
2616.33175	13451.025
2618.99734	13460.725
2621.66128	13469.625
2624.32355	13443.825
2626.98416	13452.425
2629.64311	13429.025
2632.30041	13425.425
2634.95605	13384.425
2637.61004	13351.025
2640.26238	13355.525
2642.91306	13345.625
2645.56209	13340.825
2648.20948	13327.125
2650.85521	13307.825
2653.4993	13300.725
2656.14175	13325.025
2658.78255	13322.625
2661.42171	13283.125
2664.05923	13334.125
2666.6951	13361.825
2669.32934	13369.525
2671.96194	13346.325
2674.59291	13351.625
2677.22224	13338.325
2679.84993	13352.025
2682.476	13333.125
2685.10043	13344.525
2687.72324	13328.225
2690.34441	13343.225
2692.96396	13350.425
2695.58188	13303.325
2698.19818	13292.125
2700.81285	13296.725
2703.4259	13314.025
2706.03733	13331.225
2708.64714	13319.325
2711.25533	13330.825
2713.86191	13300.125
2716.46687	13316.925
2719.07021	13331.425
2721.67194	13314.225
2724.27206	13326.925
2726.87057	13349.525
2729.46747	13324.425
2732.06276	13355.625
2734.65644	13315.025
2737.24852	13352.925
2739.83899	13319.625
2742.42786	13310.325
2745.01513	13268.125
2747.60079	13258.125
2750.18486	13241.425
2752.76733	13242.625
2755.3482	13211.625
2757.92747	13218.125
2760.50515	13200.425
2763.08123	13214.725
2765.65573	13180.925
2768.22863	13185.525
2770.79994	13157.025
2773.36967	13151.125
2775.9378	13167.525
2778.50435	13147.925
2781.06932	13142.725
2783.6327	13129.725
2786.1945	13141.125
2788.75471	13133.125
2791.31335	13101.725
2793.87041	13120.425
2796.42589	13037.525
2798.97979	13059.725
2801.53212	13010.925
2804.08288	13007.525
2806.63206	12988.425
2809.17967	12936.525
2811.72571	12893.625
2814.27018	12898.125
2816.81308	12880.925
2819.35442	12895.025
2821.89419	12855.525
2824.43239	12847.025
2826.96904	12830.625
2829.50412	12839.325
2832.03763	12819.225
2834.56959	12835.425
2837.1	12807.925
2839.62884	12819.725
2842.15613	12811.325
2844.68186	12871.525
2847.20604	12872.825
2849.72867	12894.025
2852.24974	12901.125
2854.76927	12892.125
2857.28724	12839.025
2859.80367	12815.125
2862.31855	12809.225
2864.83189	12790.425
2867.34368	12787.125
2869.85393	12757.325
2872.36264	12768.725
2874.8698	12766.625
2877.37543	12743.725
2879.87952	12724.425
2882.38207	12743.025
2884.88308	12725.125
2887.38256	12742.925
2889.88051	12747.325
2892.37692	12733.025
2894.8718	12731.725
2897.36515	12766.725
2899.85698	12730.825
2902.34727	12760.625
2904.83604	12763.725
2907.32328	12782.625
2909.809	12803.925
2912.29319	12807.625
2914.77587	12777.725
2917.25702	12767.925
2919.73665	12783.825
2922.21476	12766.025
2924.69136	12737.225
2927.16644	12740.325
2929.64	12718.825
2932.11205	12672.525
2934.58258	12657.525
2937.05161	12699.425
2939.51912	12672.125
2941.98513	12659.725
2944.44962	12624.525
2946.91261	12579.525
2949.37409	12586.425
2951.83407	12573.725
2954.29254	12553.925
2956.74951	12544.025
2959.20498	12561.925
2961.65895	12524.525
2964.11142	12549.225
2966.56239	12490.325
2969.01186	12496.925
2971.45984	12457.925
2973.90632	12440.725
2976.35131	12425.325
2978.7948	12406.325
2981.23681	12342.625
2983.67732	12349.825
2986.11635	12353.225
2988.55388	12278.725
2990.98993	12275.125
2993.4245	12244.525
2995.85758	12209.925
2998.28917	12170.325
3000.71928	12162.325
3003.14791	12168.525
3005.57506	12131.825
3008.00073	12118.825
3010.42493	12108.125
3012.84764	12077.625
3015.26888	12065.425
3017.68865	12033.225
3020.10694	12029.725
3022.52376	12002.525
3024.9391	11986.025
3027.35298	11959.425
3029.76539	11989.225
3032.17632	11957.525
3034.5858	11977.625
3036.9938	11953.525
3039.40034	11924.625
3041.80542	11924.425
3044.20903	11889.625
3046.61118	11884.725
3049.01187	11873.425
3051.4111	11840.025
3053.80888	11823.025
3056.20519	11804.525
3058.60005	11750.425
3060.99345	11738.325
3063.3854	11718.825
3065.7759	11692.525
3068.16494	11682.025
3070.55254	11651.925
3072.93868	11625.925
3075.32338	11579.925
3077.70662	11574.125
3080.08842	11523.925
3082.46878	11530.425
3084.84769	11502.625
3087.22515	11510.625
3089.60118	11508.625
3091.97576	11465.725
3094.3489	11488.225
3096.72061	11489.725
3099.09087	11476.825
3101.4597	11452.025
3103.82709	11472.325
3106.19305	11455.225
3108.55757	11457.925
3110.92066	11410.225
3113.28232	11405.925
3115.64255	11375.225
3118.00134	11366.025
3120.35871	11331.825
3122.71466	11322.525
3125.06917	11276.525
3127.42226	11253.025
