Data from AgNP_FTO_APTES_UA_10uM_CRN_500uM_R6G_10uM_NaF_0.1M_Addition_RamanShift__31__19-16-30-968.txt Node

Date: Thu Feb 10 19:16:30 GMT 2022
User: TCL
Spectrometer: QEP01345
Trigger mode: 4
Integration Time (sec): 7.000000E0
Scans to average: 10
Electric dark correction enabled: true
Nonlinearity correction enabled: false
Boxcar width: 0
XAxis mode: Raman Shifts
Number of Pixels in Spectrum: 1044
>>>>>Begin Spectral Data<<<<<
46.04893	0.9125
50.45542	0.2125
54.85868	-1.5875
59.25871	-0.0875
63.6555	40.5125
68.04907	42.6125
72.43941	51.5125
76.82654	47.2125
81.21044	51.6125
85.59113	52.4125
89.96862	56.8125
94.34289	55.6125
98.71396	59.1125
103.08183	61.1125
107.4465	65.3125
111.80798	61.4125
116.16626	63.3125
120.52136	64.6125
124.87327	69.6125
129.222	72.8125
133.56755	74.2125
137.90993	75.8125
142.24913	81.1125
146.58517	89.2125
150.91804	105.4125
155.24774	120.8125
159.57429	144.8125
163.89768	176.4125
168.21792	236.6125
172.53501	320.6125
176.84895	440.1125
181.15975	611.9125
185.46741	851.7125
189.77193	1185.6125
194.07331	1582.8125
198.37157	2031.3125
202.6667	2512.1125
206.9587	2985.1125
211.24758	3473.4125
215.53334	3969.5125
219.81599	4548.6125
224.09553	5146.9125
228.37195	5878.9125
232.64527	6635.2125
236.91549	7388.2125
241.18261	8124.3125
245.44663	8684.1125
249.70755	9160.0125
253.96539	9515.9125
258.22014	9827.1125
262.4718	10129.4125
266.72039	10369.3125
270.96589	10548.4125
275.20832	10546.8125
279.44768	10479.6125
283.68397	10306.2125
287.91719	10193.1125
292.14735	10227.8125
296.37445	10459.8125
300.59849	10884.7125
304.81948	11379.6125
309.03742	11748.9125
313.25231	11725.6125
317.46415	11165.5125
321.67296	10264.8125
325.87872	9520.6125
330.08145	9168.0125
334.28114	9130.6125
338.47781	9321.4125
342.67145	9594.2125
346.86207	10046.1125
351.04966	10684.8125
355.23424	11412.4125
359.4158	11967.3125
363.59435	12220.5125
367.76989	12274.4125
371.94243	12284.8125
376.11196	12208.6125
380.27849	12116.1125
384.44203	11975.5125
388.60257	11808.5125
392.76012	11666.7125
396.91468	11769.3125
401.06626	12061.9125
405.21485	12359.4125
409.36047	12121.9125
413.50311	11457.9125
417.64277	10826.5125
421.77947	10450.7125
425.9132	10296.1125
430.04396	10308.7125
434.17176	10363.1125
438.2966	10495.6125
442.41849	10723.7125
446.53742	11049.2125
450.6534	11364.4125
454.76644	11561.4125
458.87653	11557.6125
462.98368	11493.5125
467.08789	11277.2125
471.18916	11088.3125
475.2875	10811.3125
479.38291	10579.8125
483.4754	10401.9125
487.56496	10211.8125
491.6516	10104.5125
495.73531	10025.3125
499.81612	10096.3125
503.89401	10232.2125
507.96899	10388.6125
512.04106	10580.6125
516.11023	10827.4125
520.1765	10972.5125
524.23987	10969.4125
528.30034	10717.0125
532.35792	10492.6125
536.41261	10236.4125
540.46441	10017.8125
544.51333	9886.6125
548.55936	9942.2125
552.60252	10181.5125
556.64279	10472.6125
560.6802	10647.9125
564.71473	10814.7125
568.7464	11308.6125
572.7752	11643.2125
576.80114	11300.3125
580.82422	10734.6125
584.84444	10423.4125
588.86181	10404.8125
592.87633	10446.6125
596.888	10583.1125
600.89682	10890.2125
604.9028	12141.0125
608.90594	15660.7125
612.90624	20813.6125
616.90371	20385.5125
620.89834	14025.8125
624.89015	10918.1125
628.87913	10285.7125
632.86528	10318.8125
636.84862	10514.7125
640.82913	10443.4125
644.80683	10007.7125
648.78172	9713.3125
652.75379	9766.7125
656.72306	10173.1125
660.68952	10751.3125
664.65319	10674.2125
668.61405	10116.2125
672.57211	9812.5125
676.52738	9811.5125
680.47986	9841.8125
684.42955	9774.2125
688.37646	9718.4125
692.32058	9750.9125
696.26192	9858.9125
700.20048	9963.3125
704.13626	10048.6125
708.06928	10019.2125
711.99952	9923.5125
715.927	9863.3125
719.85171	9908.0125
723.77365	9931.5125
727.69284	9800.1125
731.60928	9714.1125
735.52295	9698.2125
739.43388	9711.9125
743.34206	9751.6125
747.24749	9761.5125
751.15017	9824.4125
755.05012	10046.0125
758.94733	10499.8125
762.8418	11639.3125
766.73354	13643.7125
770.62254	15865.0125
774.50882	17142.7125
778.39237	16525.3125
782.27321	14244.9125
786.15132	11966.2125
790.02671	10667.2125
793.89938	10091.8125
797.76935	9861.4125
801.6366	9726.1125
805.50115	9673.3125
809.36299	9636.1125
813.22213	9585.1125
817.07857	9582.7125
820.93231	9587.9125
824.78336	9638.8125
828.63172	9685.6125
832.47738	9713.5125
836.32036	9674.6125
840.16066	9596.1125
843.99827	9539.7125
847.8332	9521.6125
851.66546	9499.1125
855.49504	9514.2125
859.32195	9504.6125
863.1462	9462.2125
866.96777	9440.2125
870.78668	9403.6125
874.60293	9454.9125
878.41652	9471.4125
882.22745	9522.6125
886.03573	9582.2125
889.84136	9525.3125
893.64433	9477.9125
897.44466	9444.8125
901.24235	9468.4125
905.0374	9442.2125
908.8298	9397.9125
912.61957	9381.3125
916.40671	9409.7125
920.19121	9481.2125
923.97308	9540.7125
927.75233	9610.8125
931.52895	9733.8125
935.30295	9656.9125
939.07433	9373.3125
942.84309	9143.6125
946.60924	8990.0125
950.37278	8883.6125
954.13371	8873.6125
957.89203	8819.6125
961.64774	8788.0125
965.40086	8779.5125
969.15137	8788.7125
972.89929	8758.0125
976.64461	8733.1125
980.38733	8729.5125
984.12747	8725.2125
987.86502	8767.6125
991.59999	8805.0125
995.33237	8888.8125
999.06217	9024.6125
1002.78939	9202.2125
1006.51404	9373.2125
1010.23611	9573.8125
1013.95561	9715.6125
1017.67255	9679.5125
1021.38692	9554.4125
1025.09872	9415.7125
1028.80796	9315.8125
1032.51465	9309.5125
1036.21877	9361.8125
1039.92035	9447.7125
1043.61937	9485.1125
1047.31584	9500.1125
1051.00976	9514.5125
1054.70114	9487.7125
1058.38998	9497.8125
1062.07627	9544.9125
1065.76003	9582.3125
1069.44126	9630.8125
1073.11995	9665.9125
1076.79611	9805.7125
1080.46974	9970.9125
1084.14085	10215.5125
1087.80943	10553.0125
1091.47549	10670.8125
1095.13903	10502.0125
1098.80005	10124.1125
1102.45857	9858.4125
1106.11456	9750.6125
1109.76805	9802.4125
1113.41903	10031.7125
1117.06751	10394.6125
1120.71348	10853.8125
1124.35696	11341.7125
1127.99793	11721.4125
1131.63641	11681.7125
1135.2724	11094.8125
1138.90589	10523.1125
1142.5369	10213.2125
1146.16542	10043.3125
1149.79145	9871.7125
1153.415	9904.0125
1157.03607	9964.9125
1160.65467	10126.9125
1164.27079	10462.2125
1167.88443	11030.5125
1171.49561	11918.1125
1175.10432	13460.6125
1178.71056	15478.3125
1182.31434	16809.6125
1185.91565	17004.6125
1189.51451	16449.4125
1193.11091	15370.3125
1196.70485	14182.6125
1200.29634	13340.8125
1203.88538	12726.8125
1207.47197	11986.9125
1211.05612	11316.7125
1214.63782	10942.0125
1218.21708	10835.8125
1221.79391	10796.7125
1225.36829	10815.2125
1228.94024	10814.0125
1232.50976	10808.0125
1236.07685	10834.7125
1239.6415	10900.0125
1243.20374	11015.2125
1246.76355	11080.3125
1250.32093	11217.1125
1253.8759	11414.9125
1257.42845	11735.7125
1260.97859	12102.5125
1264.52631	12386.3125
1268.07163	12762.2125
1271.61453	13059.1125
1275.15503	13240.9125
1278.69312	13255.8125
1282.22882	13242.4125
1285.76211	13439.1125
1289.29301	13827.0125
1292.82151	14278.3125
1296.34761	14730.8125
1299.87133	15454.2125
1303.39266	16666.6125
1306.9116	18635.8125
1310.42815	20909.8125
1313.94233	22323.5125
1317.45412	21928.1125
1320.96354	20400.6125
1324.47058	18597.2125
1327.97525	17043.1125
1331.47754	16073.3125
1334.97747	15748.6125
1338.47502	15880.5125
1341.97022	16329.7125
1345.46305	17004.7125
1348.95352	18057.9125
1352.44163	19558.8125
1355.92738	21596.5125
1359.41078	24864.5125
1362.89183	27925.1125
1366.37053	27160.6125
1369.84688	22863.2125
1373.32088	18679.2125
1376.79254	15985.6125
1380.26186	14683.3125
1383.72883	14030.3125
1387.19347	13585.2125
1390.65578	13079.8125
1394.11575	12678.4125
1397.57339	12435.0125
1401.0287	12436.6125
1404.48168	12567.4125
1407.93234	12713.3125
1411.38068	12821.2125
1414.82669	12809.2125
1418.27039	12660.8125
1421.71177	12391.1125
1425.15083	12145.9125
1428.58758	11953.8125
1432.02203	11998.1125
1435.45416	12105.9125
1438.88399	12192.6125
1442.31151	12163.5125
1445.73673	12226.6125
1449.15965	12282.6125
1452.58027	12297.9125
1455.9986	12224.1125
1459.41463	12201.9125
1462.82837	12280.3125
1466.23982	12540.4125
1469.64898	12818.4125
1473.05586	13010.7125
1476.46045	13095.1125
1479.86276	13335.6125
1483.26279	13626.5125
1486.66054	14022.1125
1490.05602	14448.9125
1493.44922	15088.0125
1496.84016	16034.7125
1500.22882	17652.1125
1503.61521	19809.9125
1506.99934	22284.3125
1510.38121	24760.0125
1513.76081	26084.5125
1517.13816	24954.5125
1520.51324	21865.8125
1523.88607	18622.9125
1527.25665	16416.3125
1530.62498	15156.2125
1533.99105	14482.7125
1537.35488	14073.8125
1540.71647	13825.6125
1544.07581	13728.4125
1547.4329	13699.4125
1550.78776	13610.3125
1554.14038	13630.2125
1557.49077	13726.0125
1560.83892	13971.9125
1564.18484	14412.9125
1567.52853	14835.3125
1570.86999	15223.8125
1574.20922	15409.5125
1577.54624	15273.1125
1580.88103	14564.3125
1584.2136	13526.9125
1587.54395	12926.8125
1590.87208	12951.5125
1594.19801	13591.9125
1597.52172	14521.8125
1600.84321	15036.9125
1604.16251	14659.9125
1607.47959	13814.5125
1610.79447	12858.2125
1614.10715	11893.9125
1617.41763	11111.4125
1620.7259	10611.0125
1624.03199	10349.3125
1627.33587	10314.8125
1630.63757	10495.5125
1633.93707	10873.8125
1637.23439	11548.3125
1640.52951	12577.9125
1643.82246	14066.1125
1647.11321	15987.4125
1650.40179	17531.3125
1653.68819	17343.2125
1656.97241	15243.5125
1660.25446	12719.6125
1663.53433	10958.6125
1666.81203	9906.3125
1670.08756	9320.2125
1673.36092	8963.6125
1676.63211	8712.8125
1679.90115	8545.4125
1683.16801	8433.5125
1686.43272	8335.4125
1689.69527	8280.6125
1692.95567	8234.4125
1696.2139	8214.1125
1699.46999	8233.8125
1702.72392	8197.1125
1705.97571	8170.1125
1709.22535	8120.0125
1712.47284	8121.9125
1715.71819	8124.8125
1718.96139	8124.2125
1722.20246	8109.8125
1725.44139	8078.4125
1728.67818	8022.9125
1731.91284	7948.6125
1735.14537	7909.7125
1738.37576	7843.0125
1741.60403	7813.1125
1744.83017	7788.2125
1748.05418	7793.0125
1751.27607	7758.2125
1754.49584	7739.9125
1757.71349	7754.5125
1760.92903	7764.2125
1764.14244	7734.6125
1767.35375	7711.0125
1770.56294	7699.0125
1773.77002	7661.9125
1776.97499	7637.6125
1780.17785	7577.1125
1783.37861	7583.8125
1786.57727	7549.5125
1789.77382	7524.9125
1792.96828	7518.4125
1796.16064	7517.3125
1799.3509	7473.4125
1802.53907	7495.0125
1805.72514	7456.1125
1808.90913	7423.8125
1812.09102	7418.2125
1815.27083	7403.0125
1818.44856	7384.0125
1821.6242	7340.2125
1824.79776	7347.0125
1827.96924	7334.9125
1831.13864	7309.0125
1834.30597	7311.8125
1837.47122	7289.7125
1840.6344	7295.6125
1843.7955	7276.6125
1846.95454	7275.8125
1850.11151	7273.2125
1853.26642	7262.8125
1856.41926	7247.0125
1859.57004	7257.4125
1862.71876	7268.8125
1865.86542	7241.1125
1869.01003	7226.0125
1872.15258	7258.3125
1875.29308	7245.9125
1878.43152	7244.5125
1881.56792	7233.6125
1884.70227	7237.5125
1887.83457	7219.5125
1890.96482	7215.3125
1894.09304	7201.6125
1897.21921	7201.0125
1900.34335	7198.6125
1903.46544	7209.8125
1906.58551	7200.0125
1909.70353	7196.2125
1912.81953	7185.7125
1915.93349	7198.1125
1919.04543	7172.7125
1922.15534	7147.4125
1925.26322	7121.9125
1928.36908	7113.8125
1931.47292	7108.7125
1934.57473	7090.0125
1937.67453	7057.5125
1940.77232	7049.9125
1943.86808	7015.7125
1946.96184	6975.6125
1950.05358	6967.1125
1953.14331	6929.1125
1956.23103	6908.0125
1959.31675	6892.5125
1962.40046	6895.9125
1965.48217	6856.0125
1968.56188	6838.4125
1971.63959	6823.9125
1974.7153	6804.2125
1977.78901	6774.6125
1980.86073	6756.2125
1983.93046	6724.4125
1986.99819	6730.1125
1990.06394	6699.0125
1993.1277	6664.7125
1996.18947	6642.1125
1999.24925	6620.7125
2002.30706	6593.3125
2005.36288	6569.4125
2008.41672	6548.8125
2011.46859	6530.9125
2014.51848	6539.0125
2017.56639	6503.5125
2020.61233	6496.9125
2023.6563	6470.6125
2026.6983	6456.9125
2029.73833	6442.1125
2032.7764	6426.0125
2035.8125	6405.8125
2038.84664	6374.9125
2041.87881	6362.4125
2044.90903	6350.8125
2047.93729	6314.6125
2050.96359	6332.4125
2053.98794	6319.4125
2057.01034	6309.9125
2060.03078	6292.1125
2063.04927	6286.8125
2066.06582	6289.3125
2069.08042	6285.9125
2072.09307	6272.3125
2075.10378	6281.6125
2078.11255	6269.7125
2081.11938	6277.1125
2084.12426	6258.0125
2087.12722	6255.9125
2090.12824	6237.3125
2093.12732	6233.3125
2096.12447	6246.0125
2099.11969	6247.1125
2102.11299	6234.7125
2105.10435	6244.5125
2108.09379	6228.8125
2111.08131	6258.3125
2114.0669	6234.0125
2117.05057	6240.6125
2120.03233	6243.1125
2123.01216	6253.3125
2125.99008	6244.4125
2128.96609	6265.0125
2131.94018	6277.3125
2134.91236	6277.5125
2137.88263	6254.4125
2140.851	6268.3125
2143.81746	6266.3125
2146.78201	6256.8125
2149.74466	6260.4125
2152.7054	6258.9125
2155.66425	6251.1125
2158.6212	6236.8125
2161.57625	6244.4125
2164.52941	6226.7125
2167.48067	6224.3125
2170.43004	6214.7125
2173.37752	6215.7125
2176.32311	6219.8125
2179.26681	6207.2125
2182.20863	6227.0125
2185.14856	6204.4125
2188.08661	6201.2125
2191.02278	6217.1125
2193.95707	6201.4125
2196.88948	6194.3125
2199.82001	6191.9125
2202.74867	6164.4125
2205.67545	6154.0125
2208.60037	6152.4125
2211.52341	6144.9125
2214.44458	6143.7125
2217.36388	6118.0125
2220.28132	6104.5125
2223.1969	6074.8125
2226.11061	6081.3125
2229.02246	6068.5125
2231.93245	6044.1125
2234.84058	6026.9125
2237.74686	6019.7125
2240.65128	6018.6125
2243.55385	6001.2125
2246.45456	5992.7125
2249.35343	5989.8125
2252.25044	5972.0125
2255.14561	5980.0125
2258.03893	5999.9125
2260.93041	5979.6125
2263.82004	5959.0125
2266.70783	5964.3125
2269.59378	5916.8125
2272.4779	5913.6125
2275.36017	5865.8125
2278.24061	5876.0125
2281.11922	5871.2125
2283.996	5862.3125
2286.87094	5851.7125
2289.74405	5834.9125
2292.61534	5829.5125
2295.4848	5815.6125
2298.35243	5811.6125
2301.21824	5785.1125
2304.08223	5794.6125
2306.94439	5772.4125
2309.80474	5796.0125
2312.66327	5774.5125
2315.51999	5754.1125
2318.37489	5759.1125
2321.22797	5765.1125
2324.07925	5752.6125
2326.92871	5727.2125
2329.77637	5717.8125
2332.62222	5722.0125
2335.46626	5708.1125
2338.3085	5705.0125
2341.14893	5727.8125
2343.98756	5696.5125
2346.8244	5692.2125
2349.65943	5696.3125
2352.49267	5710.0125
2355.32411	5720.6125
2358.15376	5708.1125
2360.98161	5718.9125
2363.80768	5722.7125
2366.63195	5766.0125
2369.45444	5750.1125
2372.27514	5717.2125
2375.09405	5725.3125
2377.91118	5703.6125
2380.72652	5682.4125
2383.54009	5642.6125
2386.35187	5634.5125
2389.16188	5583.7125
2391.97011	5587.9125
2394.77657	5555.9125
2397.58125	5534.0125
2400.38416	5529.6125
2403.18529	5508.4125
2405.98466	5525.1125
2408.78226	5511.4125
2411.57809	5496.8125
2414.37216	5476.5125
2417.16446	5465.2125
2419.955	5462.8125
2422.74378	5459.1125
2425.5308	5440.9125
2428.31606	5444.0125
2431.09956	5450.4125
2433.88131	5446.0125
2436.6613	5466.2125
2439.43954	5441.7125
2442.21603	5427.7125
2444.99077	5414.2125
2447.76377	5430.0125
2450.53501	5430.6125
2453.30451	5440.4125
2456.07226	5417.9125
2458.83827	5435.1125
2461.60254	5425.0125
2464.36507	5418.5125
2467.12586	5385.9125
2469.88492	5392.2125
2472.64224	5377.9125
2475.39782	5401.8125
2478.15167	5423.2125
2480.90379	5411.0125
2483.65417	5429.4125
2486.40283	5440.5125
2489.14976	5423.8125
2491.89497	5450.2125
2494.63845	5433.2125
2497.3802	5440.4125
2500.12024	5418.7125
2502.85855	5419.4125
2505.59514	5377.7125
2508.33002	5376.0125
2511.06318	5353.6125
2513.79462	5332.8125
2516.52435	5323.5125
2519.25237	5301.6125
2521.97867	5270.8125
2524.70327	5283.0125
2527.42616	5252.5125
2530.14734	5242.5125
2532.86681	5246.9125
2535.58458	5240.2125
2538.30065	5243.3125
2541.01501	5241.3125
2543.72768	5218.9125
2546.43864	5220.2125
2549.14791	5220.5125
2551.85548	5217.0125
2554.56136	5199.6125
2557.26554	5198.6125
2559.96803	5188.7125
2562.66883	5169.7125
2565.36794	5171.3125
2568.06536	5136.0125
2570.7611	5141.3125
2573.45514	5141.3125
2576.14751	5118.1125
2578.83819	5092.7125
2581.52719	5090.3125
2584.21451	5096.9125
2586.90015	5089.0125
2589.58411	5063.9125
2592.2664	5053.2125
2594.94701	5050.5125
2597.62594	5052.6125
2600.30321	5042.8125
2602.9788	5025.2125
2605.65273	5033.4125
2608.32498	5028.2125
2610.99557	5029.2125
2613.66449	5038.5125
2616.33175	5029.7125
2618.99734	5021.8125
2621.66128	5007.1125
2624.32355	5001.0125
2626.98416	5004.3125
2629.64311	4967.5125
2632.30041	4979.7125
2634.95605	4952.9125
2637.61004	4948.7125
2640.26238	4928.4125
2642.91306	4929.9125
2645.56209	4922.5125
2648.20948	4920.0125
2650.85521	4923.6125
2653.4993	4911.2125
2656.14175	4917.5125
2658.78255	4938.2125
2661.42171	4921.9125
2664.05923	4945.5125
2666.6951	4940.5125
2669.32934	4948.5125
2671.96194	4938.7125
2674.59291	4952.6125
2677.22224	4937.5125
2679.84993	4949.4125
2682.476	4949.7125
2685.10043	4943.4125
2687.72324	4935.9125
2690.34441	4935.7125
2692.96396	4942.9125
2695.58188	4928.1125
2698.19818	4920.2125
2700.81285	4926.2125
2703.4259	4932.5125
2706.03733	4936.5125
2708.64714	4933.2125
2711.25533	4945.2125
2713.86191	4930.6125
2716.46687	4945.3125
2719.07021	4937.1125
2721.67194	4948.4125
2724.27206	4943.8125
2726.87057	4940.2125
2729.46747	4947.4125
2732.06276	4937.7125
2734.65644	4934.5125
2737.24852	4932.4125
2739.83899	4909.0125
2742.42786	4908.3125
2745.01513	4897.1125
2747.60079	4887.4125
2750.18486	4887.7125
2752.76733	4861.9125
2755.3482	4863.2125
2757.92747	4859.6125
2760.50515	4842.4125
2763.08123	4850.4125
2765.65573	4821.7125
2768.22863	4830.2125
2770.79994	4821.5125
2773.36967	4811.5125
2775.9378	4791.0125
2778.50435	4808.1125
2781.06932	4792.9125
2783.6327	4778.4125
2786.1945	4791.1125
2788.75471	4793.6125
2791.31335	4796.6125
2793.87041	4774.9125
2796.42589	4771.9125
2798.97979	4778.5125
2801.53212	4770.3125
2804.08288	4778.6125
2806.63206	4752.4125
2809.17967	4738.7125
2811.72571	4740.1125
2814.27018	4737.7125
2816.81308	4747.2125
2819.35442	4736.8125
2821.89419	4731.9125
2824.43239	4746.0125
2826.96904	4723.9125
2829.50412	4747.4125
2832.03763	4732.6125
2834.56959	4762.3125
2837.1	4752.0125
2839.62884	4764.7125
2842.15613	4805.6125
2844.68186	4840.7125
2847.20604	4898.8125
2849.72867	4936.3125
2852.24974	4952.2125
2854.76927	4953.2125
2857.28724	4936.2125
2859.80367	4899.0125
2862.31855	4890.4125
2864.83189	4864.2125
2867.34368	4870.4125
2869.85393	4860.6125
2872.36264	4845.5125
2874.8698	4859.0125
2877.37543	4856.9125
2879.87952	4839.8125
2882.38207	4837.5125
2884.88308	4821.9125
2887.38256	4825.6125
2889.88051	4827.1125
2892.37692	4827.1125
2894.8718	4828.2125
2897.36515	4827.3125
2899.85698	4839.6125
2902.34727	4833.6125
2904.83604	4831.8125
2907.32328	4828.1125
2909.809	4820.2125
2912.29319	4836.4125
2914.77587	4830.2125
2917.25702	4817.9125
2919.73665	4816.7125
2922.21476	4830.6125
2924.69136	4808.3125
2927.16644	4811.7125
2929.64	4803.9125
2932.11205	4788.5125
2934.58258	4765.6125
2937.05161	4763.3125
2939.51912	4733.6125
2941.98513	4710.9125
2944.44962	4675.7125
2946.91261	4653.9125
2949.37409	4647.5125
2951.83407	4614.8125
2954.29254	4596.5125
2956.74951	4591.1125
2959.20498	4580.3125
2961.65895	4573.0125
2964.11142	4565.0125
2966.56239	4555.6125
2969.01186	4545.2125
2971.45984	4523.4125
2973.90632	4517.3125
2976.35131	4498.3125
2978.7948	4486.1125
2981.23681	4472.7125
2983.67732	4462.9125
2986.11635	4446.7125
2988.55388	4443.4125
2990.98993	4421.0125
2993.4245	4413.1125
2995.85758	4402.0125
2998.28917	4382.1125
3000.71928	4377.5125
3003.14791	4378.7125
3005.57506	4377.8125
3008.00073	4359.2125
3010.42493	4363.0125
3012.84764	4347.5125
3015.26888	4352.7125
3017.68865	4330.4125
3020.10694	4322.5125
3022.52376	4318.7125
3024.9391	4327.2125
3027.35298	4304.9125
3029.76539	4300.6125
3032.17632	4299.2125
3034.5858	4290.6125
3036.9938	4298.9125
3039.40034	4291.7125
3041.80542	4287.3125
3044.20903	4259.6125
3046.61118	4288.1125
3049.01187	4258.2125
3051.4111	4255.7125
3053.80888	4246.7125
3056.20519	4238.3125
3058.60005	4223.5125
3060.99345	4223.5125
3063.3854	4208.3125
3065.7759	4203.0125
3068.16494	4201.0125
3070.55254	4186.2125
3072.93868	4180.5125
3075.32338	4169.0125
3077.70662	4158.6125
3080.08842	4158.5125
3082.46878	4142.9125
3084.84769	4128.7125
3087.22515	4127.6125
3089.60118	4141.2125
3091.97576	4116.9125
3094.3489	4116.4125
