Data from AgNP_FTO_APTES_UA_10uM_CRN_100uM_R6G_10uM_NaF_0.1M_Addition_RamanShift__16__17-43-10-854.txt Node

Date: Thu Feb 10 17:43:10 GMT 2022
User: TCL
Spectrometer: QEP01345
Trigger mode: 4
Integration Time (sec): 7.000000E0
Scans to average: 10
Electric dark correction enabled: true
Nonlinearity correction enabled: false
Boxcar width: 0
XAxis mode: Raman Shifts
Number of Pixels in Spectrum: 1044
>>>>>Begin Spectral Data<<<<<
46.04893	0.1125
50.45542	-0.5875
54.85868	-1.1875
59.25871	-2.8875
63.6555	57.4125
68.04907	58.1125
72.43941	66.3125
76.82654	60.9125
81.21044	70.9125
85.59113	71.1125
89.96862	74.7125
94.34289	78.2125
98.71396	78.5125
103.08183	81.7125
107.4465	83.5125
111.80798	82.3125
116.16626	87.0125
120.52136	85.7125
124.87327	91.7125
129.222	97.3125
133.56755	103.5125
137.90993	109.1125
142.24913	111.0125
146.58517	124.8125
150.91804	150.8125
155.24774	174.6125
159.57429	215.1125
163.89768	277.0125
168.21792	360.1125
172.53501	495.2125
176.84895	680.2125
181.15975	958.3125
185.46741	1352.6125
189.77193	1870.3125
194.07331	2495.2125
198.37157	3218.6125
202.6667	3978.3125
206.9587	4738.3125
211.24758	5458.3125
215.53334	6193.7125
219.81599	6976.1125
224.09553	7780.3125
228.37195	8711.1125
232.64527	9705.9125
236.91549	10795.3125
241.18261	11911.2125
245.44663	12988.4125
249.70755	13951.2125
253.96539	14850.4125
258.22014	15592.3125
262.4718	16256.1125
266.72039	16691.7125
270.96589	16933.4125
275.20832	17005.1125
279.44768	16936.6125
283.68397	16854.4125
287.91719	16709.1125
292.14735	16610.2125
296.37445	16614.0125
300.59849	16585.4125
304.81948	16542.9125
309.03742	16476.5125
313.25231	16217.9125
317.46415	15893.8125
321.67296	15580.1125
325.87872	15299.1125
330.08145	15153.7125
334.28114	15207.7125
338.47781	15356.1125
342.67145	15503.5125
346.86207	15690.0125
351.04966	15912.1125
355.23424	16151.3125
359.4158	16375.0125
363.59435	16577.5125
367.76989	16712.1125
371.94243	16837.8125
376.11196	16964.5125
380.27849	17098.6125
384.44203	17207.1125
388.60257	17304.6125
392.76012	17444.8125
396.91468	17613.7125
401.06626	17810.4125
405.21485	17954.5125
409.36047	17920.6125
413.50311	17797.1125
417.64277	17660.8125
421.77947	17685.4125
425.9132	17705.5125
430.04396	17830.8125
434.17176	17955.2125
438.2966	18052.7125
442.41849	18315.9125
446.53742	18634.5125
450.6534	19050.5125
454.76644	19350.0125
458.87653	19539.3125
462.98368	19554.4125
467.08789	19455.7125
471.18916	19369.4125
475.2875	19275.2125
479.38291	19238.2125
483.4754	19189.1125
487.56496	18956.3125
491.6516	18694.4125
495.73531	18462.0125
499.81612	18333.8125
503.89401	18383.9125
507.96899	18427.9125
512.04106	18395.2125
516.11023	18348.9125
520.1765	18246.5125
524.23987	18117.7125
528.30034	17993.3125
532.35792	17879.9125
536.41261	17832.7125
540.46441	17720.7125
544.51333	17785.5125
548.55936	17938.8125
552.60252	18232.6125
556.64279	18509.6125
560.6802	18687.4125
564.71473	18807.8125
568.7464	18932.6125
572.7752	19233.2125
576.80114	19462.8125
580.82422	19641.7125
584.84444	19819.8125
588.86181	19966.2125
592.87633	20071.6125
596.888	20110.7125
600.89682	20154.2125
604.9028	20542.0125
608.90594	21593.5125
612.90624	22651.8125
616.90371	21636.8125
620.89834	19333.7125
624.89015	18381.7125
628.87913	18365.9125
632.86528	18398.8125
636.84862	18324.4125
640.82913	18144.8125
644.80683	17881.5125
648.78172	17637.7125
652.75379	17605.9125
656.72306	17726.3125
660.68952	17854.6125
664.65319	17826.5125
668.61405	17644.2125
672.57211	17590.8125
676.52738	17640.3125
680.47986	17693.8125
684.42955	17653.9125
688.37646	17583.0125
692.32058	17656.5125
696.26192	17744.7125
700.20048	17880.4125
704.13626	17994.4125
708.06928	17998.5125
711.99952	17894.8125
715.927	17884.1125
719.85171	17872.1125
723.77365	17839.1125
727.69284	17791.3125
731.60928	17666.1125
735.52295	17567.8125
739.43388	17572.7125
743.34206	17627.4125
747.24749	17683.6125
751.15017	17754.9125
755.05012	17971.0125
758.94733	18336.9125
762.8418	18909.8125
766.73354	19770.7125
770.62254	20592.5125
774.50882	20782.8125
778.39237	20122.1125
782.27321	19108.2125
786.15132	18309.1125
790.02671	17794.6125
793.89938	17620.2125
797.76935	17506.9125
801.6366	17525.8125
805.50115	17441.0125
809.36299	17353.7125
813.22213	17298.9125
817.07857	17245.5125
820.93231	17224.7125
824.78336	17164.2125
828.63172	17184.0125
832.47738	17145.3125
836.32036	17186.6125
840.16066	17237.4125
843.99827	17269.2125
847.8332	17254.8125
851.66546	17198.6125
855.49504	17191.9125
859.32195	17199.3125
863.1462	17194.8125
866.96777	17149.4125
870.78668	17096.5125
874.60293	17130.2125
878.41652	17074.8125
882.22745	17133.4125
886.03573	17108.9125
889.84136	17117.4125
893.64433	17088.2125
897.44466	17026.4125
901.24235	16960.1125
905.0374	16943.3125
908.8298	16930.4125
912.61957	16982.2125
916.40671	17080.1125
920.19121	17254.0125
923.97308	17330.1125
927.75233	17331.5125
931.52895	17265.3125
935.30295	17185.9125
939.07433	16936.6125
942.84309	16756.0125
946.60924	16672.2125
950.37278	16624.2125
954.13371	16583.2125
957.89203	16506.0125
961.64774	16469.6125
965.40086	16433.9125
969.15137	16372.9125
972.89929	16316.7125
976.64461	16299.4125
980.38733	16324.1125
984.12747	16325.4125
987.86502	16482.9125
991.59999	16580.3125
995.33237	16793.6125
999.06217	17111.6125
1002.78939	17456.7125
1006.51404	17575.9125
1010.23611	17600.9125
1013.95561	17671.8125
1017.67255	17678.4125
1021.38692	17602.7125
1025.09872	17515.5125
1028.80796	17660.6125
1032.51465	18005.2125
1036.21877	18357.7125
1039.92035	18421.4125
1043.61937	18191.0125
1047.31584	17901.9125
1051.00976	17632.8125
1054.70114	17543.4125
1058.38998	17571.3125
1062.07627	17636.2125
1065.76003	17711.6125
1069.44126	17755.1125
1073.11995	17801.6125
1076.79611	17925.4125
1080.46974	17995.7125
1084.14085	18056.6125
1087.80943	18176.7125
1091.47549	18281.2125
1095.13903	18287.1125
1098.80005	18156.2125
1102.45857	17988.1125
1106.11456	17791.1125
1109.76805	17754.1125
1113.41903	17821.3125
1117.06751	17866.6125
1120.71348	17976.8125
1124.35696	18066.8125
1127.99793	18170.3125
1131.63641	18299.1125
1135.2724	18211.8125
1138.90589	18137.8125
1142.5369	18127.8125
1146.16542	18081.4125
1149.79145	18152.7125
1153.415	18288.2125
1157.03607	18497.8125
1160.65467	18849.0125
1164.27079	19399.7125
1167.88443	20137.3125
1171.49561	20956.0125
1175.10432	21967.7125
1178.71056	23266.8125
1182.31434	24550.1125
1185.91565	25252.3125
1189.51451	25306.4125
1193.11091	24812.4125
1196.70485	24071.6125
1200.29634	23289.6125
1203.88538	22731.4125
1207.47197	22322.5125
1211.05612	21944.0125
1214.63782	21612.5125
1218.21708	21293.6125
1221.79391	21048.1125
1225.36829	20871.6125
1228.94024	20678.0125
1232.50976	20373.1125
1236.07685	20118.5125
1239.6415	20050.5125
1243.20374	20118.4125
1246.76355	20231.8125
1250.32093	20460.1125
1253.8759	20761.7125
1257.42845	21187.3125
1260.97859	21523.3125
1264.52631	21885.0125
1268.07163	22335.3125
1271.61453	22755.0125
1275.15503	23279.6125
1278.69312	23839.4125
1282.22882	24342.2125
1285.76211	24727.4125
1289.29301	25210.6125
1292.82151	25884.8125
1296.34761	26858.3125
1299.87133	28027.7125
1303.39266	29371.9125
1306.9116	30825.7125
1310.42815	32082.4125
1313.94233	32896.6125
1317.45412	32805.9125
1320.96354	32349.4125
1324.47058	31868.2125
1327.97525	31507.7125
1331.47754	31164.6125
1334.97747	31092.8125
1338.47502	31147.2125
1341.97022	31160.6125
1345.46305	30937.4125
1348.95352	30631.3125
1352.44163	30229.7125
1355.92738	30235.2125
1359.41078	30821.3125
1362.89183	31349.1125
1366.37053	30676.7125
1369.84688	28728.5125
1373.32088	26501.4125
1376.79254	24974.5125
1380.26186	24411.9125
1383.72883	24351.8125
1387.19347	24428.9125
1390.65578	24381.6125
1394.11575	24366.8125
1397.57339	24609.2125
1401.0287	24982.7125
1404.48168	25240.0125
1407.93234	25188.3125
1411.38068	24813.6125
1414.82669	24166.0125
1418.27039	23377.7125
1421.71177	22550.4125
1425.15083	21868.5125
1428.58758	21446.9125
1432.02203	21413.9125
1435.45416	21708.4125
1438.88399	22137.5125
1442.31151	22605.0125
1445.73673	22904.0125
1449.15965	23199.1125
1452.58027	23476.0125
1455.9986	23652.3125
1459.41463	23846.6125
1462.82837	24129.2125
1466.23982	24418.0125
1469.64898	24711.1125
1473.05586	24858.5125
1476.46045	24873.9125
1479.86276	24757.9125
1483.26279	24449.7125
1486.66054	24212.4125
1490.05602	24111.7125
1493.44922	24125.5125
1496.84016	24195.0125
1500.22882	24529.0125
1503.61521	25077.5125
1506.99934	25748.0125
1510.38121	26433.7125
1513.76081	26660.7125
1517.13816	26336.0125
1520.51324	25716.4125
1523.88607	25121.3125
1527.25665	24766.8125
1530.62498	24675.2125
1533.99105	24615.5125
1537.35488	24542.5125
1540.71647	24360.1125
1544.07581	24010.7125
1547.4329	23628.4125
1550.78776	23283.6125
1554.14038	22997.5125
1557.49077	22942.7125
1560.83892	22828.0125
1564.18484	22763.9125
1567.52853	22776.2125
1570.86999	22924.1125
1574.20922	23076.1125
1577.54624	23399.8125
1580.88103	23480.1125
1584.2136	23644.4125
1587.54395	24115.5125
1590.87208	24889.9125
1594.19801	25960.9125
1597.52172	27050.9125
1600.84321	27389.8125
1604.16251	26472.4125
1607.47959	25003.1125
1610.79447	23345.4125
1614.10715	21852.8125
1617.41763	20642.4125
1620.7259	19767.0125
1624.03199	19282.5125
1627.33587	19212.0125
1630.63757	19543.6125
1633.93707	20400.8125
1637.23439	21688.0125
1640.52951	23418.5125
1643.82246	25356.3125
1647.11321	26847.4125
1650.40179	27079.5125
1653.68819	25753.6125
1656.97241	23386.4125
1660.25446	20978.2125
1663.53433	19057.6125
1666.81203	17816.8125
1670.08756	17007.1125
1673.36092	16432.0125
1676.63211	16077.3125
1679.90115	15808.9125
1683.16801	15629.0125
1686.43272	15479.4125
1689.69527	15361.3125
1692.95567	15284.5125
1696.2139	15220.7125
1699.46999	15189.4125
1702.72392	15153.5125
1705.97571	15104.2125
1709.22535	15056.9125
1712.47284	15021.0125
1715.71819	15006.9125
1718.96139	14982.6125
1722.20246	14958.9125
1725.44139	14891.8125
1728.67818	14797.2125
1731.91284	14752.3125
1735.14537	14692.8125
1738.37576	14644.1125
1741.60403	14605.0125
1744.83017	14571.4125
1748.05418	14534.0125
1751.27607	14540.2125
1754.49584	14538.7125
1757.71349	14520.6125
1760.92903	14487.9125
1764.14244	14483.2125
1767.35375	14482.3125
1770.56294	14439.4125
1773.77002	14427.4125
1776.97499	14381.5125
1780.17785	14386.5125
1783.37861	14347.9125
1786.57727	14308.4125
1789.77382	14297.4125
1792.96828	14258.8125
1796.16064	14222.5125
1799.3509	14189.4125
1802.53907	14187.8125
1805.72514	14147.6125
1808.90913	14085.7125
1812.09102	14086.4125
1815.27083	14073.6125
1818.44856	14054.7125
1821.6242	14040.9125
1824.79776	13982.7125
1827.96924	13960.8125
1831.13864	13979.8125
1834.30597	13989.5125
1837.47122	13983.3125
1840.6344	13950.8125
1843.7955	13950.4125
1846.95454	13932.0125
1850.11151	13918.9125
1853.26642	13922.4125
1856.41926	13933.3125
1859.57004	13899.5125
1862.71876	13895.6125
1865.86542	13878.0125
1869.01003	13892.5125
1872.15258	13883.9125
1875.29308	13860.0125
1878.43152	13832.1125
1881.56792	13800.0125
1884.70227	13791.1125
1887.83457	13777.8125
1890.96482	13774.6125
1894.09304	13748.1125
1897.21921	13704.7125
1900.34335	13721.9125
1903.46544	13676.2125
1906.58551	13696.0125
1909.70353	13654.2125
1912.81953	13648.4125
1915.93349	13654.1125
1919.04543	13606.2125
1922.15534	13568.3125
1925.26322	13520.7125
1928.36908	13561.3125
1931.47292	13539.1125
1934.57473	13501.3125
1937.67453	13466.3125
1940.77232	13467.4125
1943.86808	13397.1125
1946.96184	13321.3125
1950.05358	13314.4125
1953.14331	13290.0125
1956.23103	13260.1125
1959.31675	13215.0125
1962.40046	13167.1125
1965.48217	13111.8125
1968.56188	13095.6125
1971.63959	13032.7125
1974.7153	13023.6125
1977.78901	12986.9125
1980.86073	12957.5125
1983.93046	12932.2125
1986.99819	12864.2125
1990.06394	12862.6125
1993.1277	12826.7125
1996.18947	12811.5125
1999.24925	12742.4125
2002.30706	12698.5125
2005.36288	12676.5125
2008.41672	12621.4125
2011.46859	12607.9125
2014.51848	12559.4125
2017.56639	12551.5125
2020.61233	12524.1125
2023.6563	12479.6125
2026.6983	12478.8125
2029.73833	12433.6125
2032.7764	12388.9125
2035.8125	12377.9125
2038.84664	12365.5125
2041.87881	12328.4125
2044.90903	12290.6125
2047.93729	12277.0125
2050.96359	12272.9125
2053.98794	12241.4125
2057.01034	12241.0125
2060.03078	12249.5125
2063.04927	12214.3125
2066.06582	12243.0125
2069.08042	12206.2125
2072.09307	12190.8125
2075.10378	12186.6125
2078.11255	12168.9125
2081.11938	12178.6125
2084.12426	12179.6125
2087.12722	12154.2125
2090.12824	12125.6125
2093.12732	12145.6125
2096.12447	12142.2125
2099.11969	12139.2125
2102.11299	12129.9125
2105.10435	12165.6125
2108.09379	12163.1125
2111.08131	12193.0125
2114.0669	12190.7125
2117.05057	12213.5125
2120.03233	12216.7125
2123.01216	12229.9125
2125.99008	12220.2125
2128.96609	12224.0125
2131.94018	12237.2125
2134.91236	12262.4125
2137.88263	12252.3125
2140.851	12253.8125
2143.81746	12273.2125
2146.78201	12286.0125
2149.74466	12298.6125
2152.7054	12274.9125
2155.66425	12282.3125
2158.6212	12313.9125
2161.57625	12303.1125
2164.52941	12255.6125
2167.48067	12267.3125
2170.43004	12276.1125
2173.37752	12267.6125
2176.32311	12276.3125
2179.26681	12270.2125
2182.20863	12270.9125
2185.14856	12274.1125
2188.08661	12244.0125
2191.02278	12260.2125
2193.95707	12262.7125
2196.88948	12250.6125
2199.82001	12267.5125
2202.74867	12231.0125
2205.67545	12260.6125
2208.60037	12216.8125
2211.52341	12232.7125
2214.44458	12222.7125
2217.36388	12204.0125
2220.28132	12188.5125
2223.1969	12138.1125
2226.11061	12164.6125
2229.02246	12105.7125
2231.93245	12078.5125
2234.84058	12051.1125
2237.74686	12043.8125
2240.65128	12036.5125
2243.55385	12004.5125
2246.45456	11970.0125
2249.35343	11953.9125
2252.25044	11960.2125
2255.14561	11936.4125
2258.03893	11938.5125
2260.93041	11897.6125
2263.82004	11877.5125
2266.70783	11817.5125
2269.59378	11777.2125
2272.4779	11771.5125
2275.36017	11762.4125
2278.24061	11742.5125
2281.11922	11699.8125
2283.996	11718.3125
2286.87094	11686.0125
2289.74405	11676.8125
2292.61534	11687.1125
2295.4848	11665.4125
2298.35243	11675.5125
2301.21824	11626.0125
2304.08223	11647.6125
2306.94439	11653.8125
2309.80474	11664.6125
2312.66327	11659.8125
2315.51999	11664.0125
2318.37489	11644.4125
2321.22797	11641.3125
2324.07925	11637.6125
2326.92871	11586.0125
2329.77637	11601.1125
2332.62222	11569.2125
2335.46626	11557.2125
2338.3085	11563.1125
2341.14893	11576.5125
2343.98756	11572.6125
2346.8244	11566.8125
2349.65943	11564.3125
2352.49267	11530.0125
2355.32411	11564.5125
2358.15376	11551.6125
2360.98161	11564.5125
2363.80768	11543.1125
2366.63195	11521.3125
2369.45444	11463.2125
2372.27514	11477.9125
2375.09405	11453.9125
2377.91118	11450.7125
2380.72652	11410.2125
2383.54009	11373.4125
2386.35187	11343.7125
2389.16188	11319.4125
2391.97011	11307.1125
2394.77657	11275.5125
2397.58125	11282.2125
2400.38416	11262.3125
2403.18529	11246.4125
2405.98466	11250.9125
2408.78226	11204.1125
2411.57809	11182.1125
2414.37216	11204.9125
2417.16446	11153.8125
2419.955	11158.7125
2422.74378	11171.8125
2425.5308	11128.2125
2428.31606	11145.3125
2431.09956	11132.4125
2433.88131	11120.1125
2436.6613	11126.2125
2439.43954	11120.6125
2442.21603	11107.2125
2444.99077	11080.0125
2447.76377	11095.0125
2450.53501	11078.7125
2453.30451	11057.2125
2456.07226	11045.1125
2458.83827	11058.8125
2461.60254	11048.5125
2464.36507	11039.2125
2467.12586	11035.8125
2469.88492	11025.9125
2472.64224	11020.7125
2475.39782	11049.3125
2478.15167	11032.2125
2480.90379	11024.6125
2483.65417	11054.6125
2486.40283	11057.2125
2489.14976	11028.6125
2491.89497	11055.3125
2494.63845	11044.6125
2497.3802	11046.4125
2500.12024	11035.3125
2502.85855	11017.3125
2505.59514	11012.8125
2508.33002	10990.2125
2511.06318	11010.8125
2513.79462	11010.3125
2516.52435	10973.9125
2519.25237	10972.5125
2521.97867	10961.2125
2524.70327	10959.2125
2527.42616	10942.1125
2530.14734	10933.6125
2532.86681	10931.1125
2535.58458	10949.0125
2538.30065	10942.6125
2541.01501	10935.9125
2543.72768	10927.8125
2546.43864	10900.0125
2549.14791	10897.9125
2551.85548	10887.0125
2554.56136	10875.4125
2557.26554	10841.5125
2559.96803	10820.3125
2562.66883	10807.8125
2565.36794	10783.4125
2568.06536	10759.7125
2570.7611	10767.1125
2573.45514	10744.8125
2576.14751	10738.0125
2578.83819	10731.2125
2581.52719	10750.5125
2584.21451	10734.3125
2586.90015	10737.5125
2589.58411	10697.7125
2592.2664	10685.3125
2594.94701	10686.9125
2597.62594	10703.5125
2600.30321	10646.4125
2602.9788	10625.7125
2605.65273	10630.7125
2608.32498	10642.3125
2610.99557	10632.2125
2613.66449	10617.2125
2616.33175	10612.1125
2618.99734	10606.4125
2621.66128	10614.0125
2624.32355	10629.1125
2626.98416	10610.6125
2629.64311	10595.5125
2632.30041	10586.9125
2634.95605	10580.2125
2637.61004	10544.1125
2640.26238	10528.0125
2642.91306	10524.3125
2645.56209	10543.5125
2648.20948	10514.0125
2650.85521	10509.4125
2653.4993	10534.3125
2656.14175	10544.2125
2658.78255	10535.6125
2661.42171	10527.0125
2664.05923	10536.6125
2666.6951	10531.4125
2669.32934	10524.4125
2671.96194	10538.5125
2674.59291	10568.6125
2677.22224	10547.7125
2679.84993	10539.9125
2682.476	10543.4125
2685.10043	10503.1125
2687.72324	10478.9125
2690.34441	10496.6125
2692.96396	10505.8125
2695.58188	10492.7125
2698.19818	10481.2125
2700.81285	10518.9125
2703.4259	10485.8125
2706.03733	10514.2125
2708.64714	10487.2125
2711.25533	10507.6125
2713.86191	10516.5125
2716.46687	10535.6125
2719.07021	10512.6125
2721.67194	10527.0125
2724.27206	10545.2125
2726.87057	10528.3125
2729.46747	10558.7125
2732.06276	10538.0125
2734.65644	10534.7125
2737.24852	10552.6125
2739.83899	10495.6125
2742.42786	10528.2125
2745.01513	10460.8125
2747.60079	10454.2125
2750.18486	10461.1125
2752.76733	10464.5125
2755.3482	10452.2125
2757.92747	10459.9125
2760.50515	10450.9125
2763.08123	10426.5125
2765.65573	10423.0125
2768.22863	10422.1125
2770.79994	10405.7125
2773.36967	10428.4125
2775.9378	10434.1125
2778.50435	10417.3125
2781.06932	10410.8125
2783.6327	10437.0125
2786.1945	10416.4125
2788.75471	10380.9125
2791.31335	10368.1125
2793.87041	10350.6125
2796.42589	10348.3125
2798.97979	10323.3125
2801.53212	10317.9125
2804.08288	10310.9125
2806.63206	10281.0125
2809.17967	10235.7125
2811.72571	10233.7125
2814.27018	10225.7125
2816.81308	10216.1125
2819.35442	10184.1125
2821.89419	10148.0125
2824.43239	10156.4125
2826.96904	10127.9125
2829.50412	10155.1125
2832.03763	10124.5125
2834.56959	10138.5125
2837.1	10102.7125
2839.62884	10091.3125
2842.15613	10119.9125
2844.68186	10113.3125
2847.20604	10137.4125
2849.72867	10132.7125
2852.24974	10141.1125
2854.76927	10119.2125
2857.28724	10095.9125
2859.80367	10083.0125
2862.31855	10080.9125
2864.83189	10081.7125
2867.34368	10037.4125
2869.85393	10048.8125
2872.36264	10036.9125
2874.8698	10045.1125
2877.37543	10039.5125
2879.87952	10024.2125
2882.38207	10049.0125
2884.88308	10024.5125
2887.38256	10044.8125
2889.88051	10027.8125
2892.37692	10061.3125
2894.8718	10057.2125
2897.36515	10043.5125
2899.85698	10069.0125
2902.34727	10081.7125
2904.83604	10088.1125
2907.32328	10133.0125
2909.809	10108.2125
2912.29319	10121.7125
2914.77587	10089.9125
2917.25702	10109.0125
2919.73665	10105.8125
2922.21476	10106.6125
2924.69136	10095.5125
2927.16644	10072.0125
2929.64	10075.1125
2932.11205	10056.6125
2934.58258	10023.3125
2937.05161	10047.3125
2939.51912	10043.8125
2941.98513	10057.4125
2944.44962	10016.9125
2946.91261	9982.9125
2949.37409	9996.2125
2951.83407	9986.7125
2954.29254	9987.9125
2956.74951	9958.9125
2959.20498	9960.9125
2961.65895	9957.3125
2964.11142	9978.5125
2966.56239	9966.4125
2969.01186	9938.4125
2971.45984	9929.1125
2973.90632	9920.5125
2976.35131	9925.9125
2978.7948	9884.9125
2981.23681	9857.4125
2983.67732	9851.2125
2986.11635	9852.6125
2988.55388	9819.0125
2990.98993	9794.6125
2993.4245	9796.8125
2995.85758	9761.6125
2998.28917	9758.2125
3000.71928	9727.3125
3003.14791	9702.6125
3005.57506	9721.5125
3008.00073	9691.6125
3010.42493	9672.5125
3012.84764	9659.1125
3015.26888	9655.5125
3017.68865	9623.6125
3020.10694	9607.2125
3022.52376	9591.3125
3024.9391	9596.1125
3027.35298	9575.2125
3029.76539	9604.1125
