Data from AgNP_FTO_APTES_UA_10uM_CRN_2uM_R6G_10uM_NaF_0.1M_Addition_RamanShift__17__14-16-40-598.txt Node

Date: Thu Feb 10 14:16:40 GMT 2022
User: TCL
Spectrometer: QEP01345
Trigger mode: 4
Integration Time (sec): 7.000000E0
Scans to average: 10
Electric dark correction enabled: true
Nonlinearity correction enabled: false
Boxcar width: 0
XAxis mode: Raman Shifts
Number of Pixels in Spectrum: 1044
>>>>>Begin Spectral Data<<<<<
46.04893	0.125
50.45542	-0.675
54.85868	-2.075
59.25871	-1.175
63.6555	70.425
68.04907	68.925
72.43941	78.525
76.82654	75.725
81.21044	83.425
85.59113	81.025
89.96862	86.625
94.34289	90.525
98.71396	94.425
103.08183	97.625
107.4465	99.725
111.80798	101.725
116.16626	103.525
120.52136	106.525
124.87327	113.825
129.222	118.125
133.56755	126.225
137.90993	135.325
142.24913	148.725
146.58517	167.925
150.91804	195.825
155.24774	233.325
159.57429	295.925
163.89768	374.225
168.21792	495.125
172.53501	688.325
176.84895	947.325
181.15975	1338.025
185.46741	1883.425
189.77193	2596.425
194.07331	3466.225
198.37157	4453.125
202.6667	5512.725
206.9587	6530.425
211.24758	7591.625
215.53334	8583.025
219.81599	9692.825
224.09553	10901.625
228.37195	12222.825
232.64527	13711.525
236.91549	15254.225
241.18261	16791.625
245.44663	18192.725
249.70755	19413.225
253.96539	20533.225
258.22014	21474.225
262.4718	22290.725
266.72039	22800.325
270.96589	23121.725
275.20832	23208.125
279.44768	23074.125
283.68397	22873.825
287.91719	22703.925
292.14735	22583.325
296.37445	22621.525
300.59849	22754.325
304.81948	22935.125
309.03742	22966.425
313.25231	22687.825
317.46415	22068.125
321.67296	21336.125
325.87872	20677.525
330.08145	20369.025
334.28114	20324.025
338.47781	20511.025
342.67145	20806.725
346.86207	21192.725
351.04966	21628.825
355.23424	22211.825
359.4158	22644.625
363.59435	22904.725
367.76989	23091.925
371.94243	23210.725
376.11196	23251.925
380.27849	23338.825
384.44203	23417.025
388.60257	23518.225
392.76012	23688.625
396.91468	24018.625
401.06626	24320.125
405.21485	24562.825
409.36047	24370.225
413.50311	23914.125
417.64277	23485.425
421.77947	23336.925
425.9132	23411.725
430.04396	23488.425
434.17176	23528.025
438.2966	23698.425
442.41849	24071.925
446.53742	24634.425
450.6534	25248.925
454.76644	25695.925
458.87653	25900.925
462.98368	25826.325
467.08789	25615.925
471.18916	25356.625
475.2875	25060.725
479.38291	24923.025
483.4754	24781.625
487.56496	24467.625
491.6516	24067.925
495.73531	23735.425
499.81612	23566.825
503.89401	23641.125
507.96899	23725.525
512.04106	23737.725
516.11023	23636.625
520.1765	23570.625
524.23987	23384.625
528.30034	23152.925
532.35792	22913.225
536.41261	22675.825
540.46441	22387.325
544.51333	22394.725
548.55936	22656.625
552.60252	23208.625
556.64279	23755.725
560.6802	24113.025
564.71473	24320.725
568.7464	24712.925
572.7752	25278.425
576.80114	25673.925
580.82422	25947.625
584.84444	26253.025
588.86181	26472.225
592.87633	26607.125
596.888	26624.425
600.89682	26558.525
604.9028	27534.025
608.90594	30302.225
612.90624	33408.425
616.90371	31353.025
620.89834	25840.325
624.89015	23429.825
628.87913	23205.325
632.86528	23267.825
636.84862	23229.825
640.82913	22908.525
644.80683	22275.525
648.78172	21804.125
652.75379	21707.125
656.72306	21979.225
660.68952	22404.625
664.65319	22271.525
668.61405	21811.025
672.57211	21694.625
676.52738	21687.625
680.47986	21675.725
684.42955	21534.625
688.37646	21435.525
692.32058	21563.925
696.26192	21792.225
700.20048	22080.225
704.13626	22240.625
708.06928	22211.625
711.99952	22050.525
715.927	21989.725
719.85171	21981.025
723.77365	21954.625
727.69284	21705.025
731.60928	21459.925
735.52295	21409.225
739.43388	21394.325
743.34206	21470.725
747.24749	21571.525
751.15017	21727.325
755.05012	22098.525
758.94733	22783.325
762.8418	24075.925
766.73354	26185.125
770.62254	28173.825
774.50882	28653.325
778.39237	27320.025
782.27321	25150.625
786.15132	23332.225
790.02671	22245.425
793.89938	21676.625
797.76935	21460.425
801.6366	21386.525
805.50115	21311.625
809.36299	21138.025
813.22213	20981.625
817.07857	20903.525
820.93231	20816.225
824.78336	20784.625
828.63172	20708.425
832.47738	20669.025
836.32036	20674.525
840.16066	20701.125
843.99827	20731.125
847.8332	20712.625
851.66546	20631.825
855.49504	20672.525
859.32195	20657.225
863.1462	20593.425
866.96777	20512.725
870.78668	20519.925
874.60293	20503.425
878.41652	20525.325
882.22745	20572.925
886.03573	20588.225
889.84136	20593.225
893.64433	20553.325
897.44466	20479.725
901.24235	20427.125
905.0374	20319.225
908.8298	20269.725
912.61957	20264.625
916.40671	20377.625
920.19121	20621.025
923.97308	20854.325
927.75233	20915.925
931.52895	20869.425
935.30295	20596.525
939.07433	20212.125
942.84309	19870.225
946.60924	19693.225
950.37278	19611.925
954.13371	19556.425
957.89203	19508.125
961.64774	19462.125
965.40086	19452.025
969.15137	19413.025
972.89929	19339.725
976.64461	19283.525
980.38733	19277.025
984.12747	19368.325
987.86502	19517.825
991.59999	19768.625
995.33237	20054.825
999.06217	20569.825
1002.78939	21071.725
1006.51404	21359.725
1010.23611	21629.825
1013.95561	21782.925
1017.67255	21838.925
1021.38692	21621.925
1025.09872	21382.825
1028.80796	21343.825
1032.51465	21698.925
1036.21877	22127.425
1039.92035	22239.625
1043.61937	22042.025
1047.31584	21717.225
1051.00976	21311.125
1054.70114	21171.925
1058.38998	21233.925
1062.07627	21367.225
1065.76003	21564.025
1069.44126	21687.725
1073.11995	21938.925
1076.79611	22284.025
1080.46974	22483.725
1084.14085	22696.225
1087.80943	22956.725
1091.47549	23176.325
1095.13903	23156.725
1098.80005	22857.525
1102.45857	22430.925
1106.11456	22047.525
1109.76805	21887.025
1113.41903	21950.225
1117.06751	22155.425
1120.71348	22411.925
1124.35696	22713.025
1127.99793	23045.225
1131.63641	23161.825
1135.2724	22985.825
1138.90589	22701.425
1142.5369	22550.825
1146.16542	22503.025
1149.79145	22531.725
1153.415	22683.025
1157.03607	23045.425
1160.65467	23653.225
1164.27079	24656.225
1167.88443	25953.325
1171.49561	27644.925
1175.10432	29869.125
1178.71056	32686.425
1182.31434	35241.225
1185.91565	36601.625
1189.51451	36622.525
1193.11091	35555.125
1196.70485	33962.325
1200.29634	32257.325
1203.88538	30863.025
1207.47197	29842.125
1211.05612	29022.025
1214.63782	28353.125
1218.21708	27877.525
1221.79391	27541.725
1225.36829	27392.725
1228.94024	27139.625
1232.50976	26667.225
1236.07685	26330.325
1239.6415	26140.325
1243.20374	26100.925
1246.76355	26167.725
1250.32093	26561.725
1253.8759	27125.725
1257.42845	27880.425
1260.97859	28731.725
1264.52631	29596.225
1268.07163	30476.025
1271.61453	31414.625
1275.15503	32286.125
1278.69312	33069.925
1282.22882	33780.725
1285.76211	34495.425
1289.29301	35403.025
1292.82151	36523.025
1296.34761	38009.725
1299.87133	40033.725
1303.39266	42476.825
1306.9116	45270.125
1310.42815	48041.525
1313.94233	49717.525
1317.45412	49738.425
1320.96354	48757.225
1324.47058	47714.125
1327.97525	46700.525
1331.47754	46031.025
1334.97747	45678.925
1338.47502	45681.925
1341.97022	45759.425
1345.46305	45616.625
1348.95352	45280.325
1352.44163	45000.125
1355.92738	45426.925
1359.41078	47107.725
1362.89183	48814.125
1366.37053	47686.525
1369.84688	43400.625
1373.32088	38649.625
1376.79254	35494.325
1380.26186	34185.725
1383.72883	33851.625
1387.19347	33694.725
1390.65578	33439.825
1394.11575	33403.725
1397.57339	33568.725
1401.0287	34099.025
1404.48168	34515.125
1407.93234	34500.825
1411.38068	34074.525
1414.82669	33094.825
1418.27039	31875.125
1421.71177	30670.925
1425.15083	29631.525
1428.58758	29117.725
1432.02203	29223.225
1435.45416	29892.225
1438.88399	30620.925
1442.31151	31284.925
1445.73673	31815.025
1449.15965	32240.725
1452.58027	32561.825
1455.9986	32842.125
1459.41463	33165.225
1462.82837	33652.425
1466.23982	34256.925
1469.64898	34816.625
1473.05586	35014.325
1476.46045	34957.725
1479.86276	34660.525
1483.26279	34368.025
1486.66054	34190.925
1490.05602	34323.225
1493.44922	34758.625
1496.84016	35456.425
1500.22882	36624.325
1503.61521	38423.625
1506.99934	40609.625
1510.38121	42297.425
1513.76081	42691.125
1517.13816	41306.925
1520.51324	38965.025
1523.88607	36799.825
1527.25665	35417.925
1530.62498	34798.725
1533.99105	34452.725
1537.35488	34128.525
1540.71647	33740.225
1544.07581	33072.625
1547.4329	32476.525
1550.78776	31970.525
1554.14038	31701.825
1557.49077	31499.125
1560.83892	31477.825
1564.18484	31590.825
1567.52853	31725.925
1570.86999	31994.025
1574.20922	32398.925
1577.54624	32706.825
1580.88103	32547.425
1584.2136	32262.325
1587.54395	32715.025
1590.87208	33889.125
1594.19801	35753.025
1597.52172	37832.025
1600.84321	38471.725
1604.16251	37101.625
1607.47959	34568.425
1610.79447	31896.825
1614.10715	29214.025
1617.41763	26961.325
1620.7259	25321.025
1624.03199	24425.125
1627.33587	24353.925
1630.63757	25080.925
1633.93707	26629.625
1637.23439	29256.625
1640.52951	32769.125
1643.82246	36816.525
1647.11321	39985.325
1650.40179	40743.725
1653.68819	38124.825
1656.97241	33216.425
1660.25446	28296.725
1663.53433	24658.525
1666.81203	22282.725
1670.08756	20820.725
1673.36092	19899.825
1676.63211	19295.325
1679.90115	18870.325
1683.16801	18526.425
1686.43272	18328.025
1689.69527	18091.325
1692.95567	17986.725
1696.2139	17875.125
1699.46999	17841.625
1702.72392	17750.225
1705.97571	17714.625
1709.22535	17628.325
1712.47284	17623.025
1715.71819	17596.625
1718.96139	17505.625
1722.20246	17450.925
1725.44139	17350.625
1728.67818	17238.525
1731.91284	17143.325
1735.14537	17064.225
1738.37576	16949.125
1741.60403	16855.525
1744.83017	16857.125
1748.05418	16763.225
1751.27607	16723.225
1754.49584	16733.925
1757.71349	16727.025
1760.92903	16682.825
1764.14244	16698.625
1767.35375	16655.425
1770.56294	16618.225
1773.77002	16584.725
1776.97499	16544.525
1780.17785	16481.125
1783.37861	16459.325
1786.57727	16419.125
1789.77382	16375.325
1792.96828	16335.125
1796.16064	16308.925
1799.3509	16262.325
1802.53907	16241.725
1805.72514	16195.125
1808.90913	16142.025
1812.09102	16126.425
1815.27083	16078.925
1818.44856	16087.325
1821.6242	16041.025
1824.79776	16001.125
1827.96924	15991.825
1831.13864	15977.325
1834.30597	15991.425
1837.47122	15945.525
1840.6344	15973.825
1843.7955	15985.125
1846.95454	15961.925
1850.11151	15954.125
1853.26642	15956.225
1856.41926	15947.525
1859.57004	15938.325
1862.71876	15926.625
1865.86542	15901.925
1869.01003	15875.825
1872.15258	15887.725
1875.29308	15860.725
1878.43152	15817.325
1881.56792	15805.725
1884.70227	15770.625
1887.83457	15765.025
1890.96482	15753.225
1894.09304	15694.225
1897.21921	15690.225
1900.34335	15657.825
1903.46544	15653.125
1906.58551	15637.125
1909.70353	15611.825
1912.81953	15556.125
1915.93349	15555.925
1919.04543	15565.825
1922.15534	15490.725
1925.26322	15463.225
1928.36908	15408.825
1931.47292	15385.225
1934.57473	15328.525
1937.67453	15289.625
1940.77232	15247.825
1943.86808	15179.225
1946.96184	15132.725
1950.05358	15076.525
1953.14331	15034.825
1956.23103	14979.125
1959.31675	14923.025
1962.40046	14905.125
1965.48217	14840.025
1968.56188	14793.925
1971.63959	14772.125
1974.7153	14759.325
1977.78901	14671.425
1980.86073	14630.525
1983.93046	14604.725
1986.99819	14533.225
1990.06394	14514.625
1993.1277	14454.525
1996.18947	14395.625
1999.24925	14351.525
2002.30706	14304.025
2005.36288	14279.025
2008.41672	14205.825
2011.46859	14186.425
2014.51848	14145.225
2017.56639	14124.925
2020.61233	14085.325
2023.6563	14049.525
2026.6983	14004.025
2029.73833	13977.525
2032.7764	13934.625
2035.8125	13909.125
2038.84664	13878.225
2041.87881	13871.825
2044.90903	13842.725
2047.93729	13820.225
2050.96359	13802.325
2053.98794	13763.325
2057.01034	13765.925
2060.03078	13742.325
2063.04927	13745.325
2066.06582	13732.425
2069.08042	13738.425
2072.09307	13709.025
2075.10378	13715.225
2078.11255	13677.925
2081.11938	13645.925
2084.12426	13652.725
2087.12722	13657.625
2090.12824	13670.725
2093.12732	13631.625
2096.12447	13646.625
2099.11969	13620.825
2102.11299	13636.025
2105.10435	13638.225
2108.09379	13655.525
2111.08131	13622.025
2114.0669	13627.925
2117.05057	13672.825
2120.03233	13685.025
2123.01216	13686.425
2125.99008	13691.625
2128.96609	13694.525
2131.94018	13711.925
2134.91236	13720.825
2137.88263	13718.325
2140.851	13707.625
2143.81746	13747.525
2146.78201	13731.025
2149.74466	13723.725
2152.7054	13715.725
2155.66425	13717.525
2158.6212	13703.425
2161.57625	13683.325
2164.52941	13710.325
2167.48067	13678.225
2170.43004	13698.025
2173.37752	13654.325
2176.32311	13642.925
2179.26681	13657.025
2182.20863	13651.025
2185.14856	13658.225
2188.08661	13650.825
2191.02278	13679.725
2193.95707	13657.825
2196.88948	13664.725
2199.82001	13654.325
2202.74867	13637.125
2205.67545	13620.025
2208.60037	13616.125
2211.52341	13570.825
2214.44458	13568.125
2217.36388	13540.525
2220.28132	13536.925
2223.1969	13473.225
2226.11061	13482.325
2229.02246	13446.825
2231.93245	13418.125
2234.84058	13378.325
2237.74686	13339.225
2240.65128	13335.825
2243.55385	13299.625
2246.45456	13294.725
2249.35343	13253.625
2252.25044	13267.225
2255.14561	13245.625
2258.03893	13268.825
2260.93041	13170.525
2263.82004	13144.125
2266.70783	13130.525
2269.59378	13096.025
2272.4779	13063.825
2275.36017	12996.025
2278.24061	13009.225
2281.11922	12994.025
2283.996	12971.525
2286.87094	12938.825
2289.74405	12913.225
2292.61534	12908.425
2295.4848	12893.625
2298.35243	12932.525
2301.21824	12906.825
2304.08223	12916.325
2306.94439	12896.025
2309.80474	12897.925
2312.66327	12912.425
2315.51999	12894.725
2318.37489	12854.325
2321.22797	12872.625
2324.07925	12869.025
2326.92871	12844.725
2329.77637	12834.725
2332.62222	12819.925
2335.46626	12792.725
2338.3085	12806.725
2341.14893	12808.325
2343.98756	12827.425
2346.8244	12825.525
2349.65943	12804.925
2352.49267	12796.525
2355.32411	12779.725
2358.15376	12789.725
2360.98161	12804.325
2363.80768	12809.725
2366.63195	12776.925
2369.45444	12765.025
2372.27514	12719.125
2375.09405	12723.925
2377.91118	12682.625
2380.72652	12645.425
2383.54009	12607.025
2386.35187	12578.025
2389.16188	12556.125
2391.97011	12492.725
2394.77657	12516.325
2397.58125	12475.725
2400.38416	12450.725
2403.18529	12436.325
2405.98466	12417.025
2408.78226	12400.025
2411.57809	12374.325
2414.37216	12348.325
2417.16446	12356.625
2419.955	12317.625
2422.74378	12336.925
2425.5308	12328.425
2428.31606	12312.425
2431.09956	12305.125
2433.88131	12295.025
2436.6613	12282.125
2439.43954	12311.725
2442.21603	12340.825
2444.99077	12304.825
2447.76377	12288.025
2450.53501	12267.325
2453.30451	12257.525
2456.07226	12258.825
2458.83827	12266.525
2461.60254	12261.325
2464.36507	12236.425
2467.12586	12228.225
2469.88492	12247.925
2472.64224	12236.725
2475.39782	12256.725
2478.15167	12277.725
2480.90379	12286.125
2483.65417	12298.525
2486.40283	12296.225
2489.14976	12302.725
2491.89497	12290.025
2494.63845	12289.825
2497.3802	12275.025
2500.12024	12267.325
2502.85855	12237.725
2505.59514	12219.325
2508.33002	12212.225
2511.06318	12188.125
2513.79462	12173.925
2516.52435	12165.525
2519.25237	12162.525
2521.97867	12163.825
2524.70327	12130.625
2527.42616	12145.725
2530.14734	12137.425
2532.86681	12095.925
2535.58458	12096.825
2538.30065	12123.025
2541.01501	12090.925
2543.72768	12083.225
2546.43864	12071.225
2549.14791	12069.925
2551.85548	12072.425
2554.56136	12047.225
2557.26554	12025.825
2559.96803	11995.925
2562.66883	12000.125
2565.36794	11987.525
2568.06536	11962.425
2570.7611	11943.125
2573.45514	11932.025
2576.14751	11921.025
2578.83819	11895.425
2581.52719	11934.725
2584.21451	11885.125
2586.90015	11881.425
2589.58411	11892.825
2592.2664	11884.825
2594.94701	11861.125
2597.62594	11848.325
2600.30321	11830.925
2602.9788	11831.025
2605.65273	11835.525
2608.32498	11826.025
2610.99557	11843.325
2613.66449	11819.125
2616.33175	11796.825
2618.99734	11843.425
2621.66128	11822.225
2624.32355	11814.225
2626.98416	11798.625
2629.64311	11782.225
2632.30041	11769.625
2634.95605	11793.125
2637.61004	11734.725
2640.26238	11742.525
2642.91306	11739.925
2645.56209	11738.325
2648.20948	11751.625
2650.85521	11717.325
2653.4993	11730.325
2656.14175	11722.525
2658.78255	11733.425
2661.42171	11708.225
2664.05923	11753.425
2666.6951	11735.625
2669.32934	11753.125
2671.96194	11757.425
2674.59291	11771.225
2677.22224	11766.825
2679.84993	11752.625
2682.476	11760.425
2685.10043	11728.425
2687.72324	11722.825
2690.34441	11719.925
2692.96396	11731.825
2695.58188	11721.725
2698.19818	11694.725
2700.81285	11701.725
2703.4259	11699.025
2706.03733	11733.925
2708.64714	11707.725
2711.25533	11750.625
2713.86191	11731.525
2716.46687	11732.825
2719.07021	11765.125
2721.67194	11777.725
2724.27206	11781.325
2726.87057	11745.725
2729.46747	11761.925
2732.06276	11766.425
2734.65644	11745.125
2737.24852	11746.225
2739.83899	11744.625
2742.42786	11765.325
2745.01513	11738.825
2747.60079	11711.225
2750.18486	11692.225
2752.76733	11671.425
2755.3482	11672.225
2757.92747	11680.125
2760.50515	11651.225
2763.08123	11652.225
2765.65573	11642.725
2768.22863	11640.825
2770.79994	11637.225
2773.36967	11635.425
2775.9378	11634.425
2778.50435	11631.125
2781.06932	11634.525
2783.6327	11640.825
2786.1945	11640.325
2788.75471	11616.925
2791.31335	11602.425
2793.87041	11595.325
2796.42589	11562.825
2798.97979	11559.525
2801.53212	11546.025
2804.08288	11512.825
2806.63206	11503.525
2809.17967	11476.925
2811.72571	11481.825
2814.27018	11452.425
2816.81308	11431.925
2819.35442	11398.525
2821.89419	11369.425
2824.43239	11375.625
2826.96904	11339.025
2829.50412	11388.925
2832.03763	11328.125
2834.56959	11330.225
2837.1	11318.925
2839.62884	11341.225
2842.15613	11327.825
2844.68186	11344.425
2847.20604	11354.425
2849.72867	11346.825
2852.24974	11326.825
2854.76927	11326.925
2857.28724	11300.025
2859.80367	11277.425
2862.31855	11257.425
2864.83189	11260.825
2867.34368	11260.225
2869.85393	11250.625
2872.36264	11257.425
2874.8698	11248.825
2877.37543	11268.225
2879.87952	11243.725
2882.38207	11230.725
2884.88308	11219.725
2887.38256	11229.025
2889.88051	11211.225
2892.37692	11225.725
2894.8718	11237.525
2897.36515	11249.325
2899.85698	11250.125
2902.34727	11281.425
2904.83604	11284.525
2907.32328	11315.725
2909.809	11317.725
2912.29319	11300.825
2914.77587	11323.425
2917.25702	11284.425
2919.73665	11325.825
2922.21476	11309.025
2924.69136	11276.325
2927.16644	11261.825
2929.64	11267.025
2932.11205	11234.825
2934.58258	11212.325
2937.05161	11232.725
2939.51912	11202.625
2941.98513	11193.525
2944.44962	11171.525
2946.91261	11132.025
2949.37409	11155.425
2951.83407	11108.825
2954.29254	11127.025
2956.74951	11104.425
2959.20498	11091.125
2961.65895	11090.025
2964.11142	11087.025
2966.56239	11074.725
2969.01186	11070.225
2971.45984	11035.725
2973.90632	11035.625
2976.35131	11031.825
2978.7948	10972.025
2981.23681	10965.825
2983.67732	10931.225
2986.11635	10920.025
2988.55388	10871.525
2990.98993	10880.525
2993.4245	10843.825
2995.85758	10812.525
2998.28917	10776.325
3000.71928	10786.725
3003.14791	10774.125
3005.57506	10765.525
3008.00073	10720.325
3010.42493	10575.425
3012.84764	10662.725
3015.26888	10646.025
3017.68865	10600.725
3020.10694	10606.225
3022.52376	10604.825
3024.9391	10567.625
3027.35298	10565.225
3029.76539	10585.325
3032.17632	10586.925
3034.5858	10565.925
3036.9938	10542.325
3039.40034	10550.225
3041.80542	10547.825
3044.20903	10516.225
3046.61118	10524.325
3049.01187	10482.525
3051.4111	10479.425
3053.80888	10461.925
3056.20519	10412.625
3058.60005	10399.525
3060.99345	10390.125
3063.3854	10349.725
3065.7759	10321.525
3068.16494	10305.325
3070.55254	10279.525
3072.93868	10257.425
3075.32338	10223.925
3077.70662	10183.925
3080.08842	10200.125
3082.46878	10181.125
3084.84769	10167.425
3087.22515	10161.725
3089.60118	10157.625
3091.97576	10154.225
3094.3489	10135.825
3096.72061	10141.725
3099.09087	10119.925
3101.4597	10132.125
3103.82709	10083.925
3106.19305	10114.525
3108.55757	10119.125
3110.92066	10089.525
3113.28232	10048.725
3115.64255	10023.225
3118.00134	10000.725
3120.35871	9996.525
3122.71466	9961.225
3125.06917	9953.725
3127.42226	9961.425
3129.77393	9958.125
