Data from AgNP_FTO_APTES_UA_10uM_CRN_1000uM_R6G_10uM_NaF_0.1M_Addition_RamanShift__3__19-24-40-978.txt Node

Date: Thu Feb 10 19:24:40 GMT 2022
User: TCL
Spectrometer: QEP01345
Trigger mode: 4
Integration Time (sec): 7.000000E0
Scans to average: 10
Electric dark correction enabled: true
Nonlinearity correction enabled: false
Boxcar width: 0
XAxis mode: Raman Shifts
Number of Pixels in Spectrum: 1044
>>>>>Begin Spectral Data<<<<<
46.04893	0.8125
50.45542	-1.0875
54.85868	-1.7875
59.25871	-0.5875
63.6555	60.2125
68.04907	61.7125
72.43941	67.4125
76.82654	65.7125
81.21044	69.2125
85.59113	70.5125
89.96862	73.6125
94.34289	75.5125
98.71396	79.2125
103.08183	84.6125
107.4465	84.9125
111.80798	83.4125
116.16626	92.1125
120.52136	93.4125
124.87327	96.3125
129.222	99.6125
133.56755	106.7125
137.90993	110.7125
142.24913	118.1125
146.58517	135.7125
150.91804	159.0125
155.24774	191.2125
159.57429	233.7125
163.89768	291.8125
168.21792	391.8125
172.53501	536.6125
176.84895	737.7125
181.15975	1036.8125
185.46741	1467.5125
189.77193	2033.1125
194.07331	2722.9125
198.37157	3515.8125
202.6667	4356.3125
206.9587	5172.6125
211.24758	5981.1125
215.53334	6801.9125
219.81599	7635.1125
224.09553	8554.5125
228.37195	9585.1125
232.64527	10718.8125
236.91549	11881.4125
241.18261	13076.0125
245.44663	14256.1125
249.70755	15282.5125
253.96539	16195.0125
258.22014	16946.9125
262.4718	17609.6125
266.72039	18084.4125
270.96589	18295.1125
275.20832	18329.0125
279.44768	18248.9125
283.68397	18047.1125
287.91719	17868.1125
292.14735	17727.4125
296.37445	17692.1125
300.59849	17738.7125
304.81948	17828.1125
309.03742	17784.8125
313.25231	17645.8125
317.46415	17394.8125
321.67296	17004.7125
325.87872	16744.1125
330.08145	16594.9125
334.28114	16595.5125
338.47781	16701.0125
342.67145	16865.3125
346.86207	17076.0125
351.04966	17384.8125
355.23424	17687.4125
359.4158	17967.9125
363.59435	18166.0125
367.76989	18361.4125
371.94243	18453.0125
376.11196	18556.6125
380.27849	18681.3125
384.44203	18783.1125
388.60257	18899.0125
392.76012	19008.5125
396.91468	19180.2125
401.06626	19447.3125
405.21485	19591.4125
409.36047	19501.1125
413.50311	19296.5125
417.64277	19151.9125
421.77947	19141.5125
425.9132	19182.7125
430.04396	19303.9125
434.17176	19416.5125
438.2966	19561.7125
442.41849	19811.2125
446.53742	20307.9125
450.6534	20807.7125
454.76644	21114.5125
458.87653	21173.3125
462.98368	21105.8125
467.08789	20935.3125
471.18916	20770.2125
475.2875	20653.1125
479.38291	20519.1125
483.4754	20465.8125
487.56496	20315.1125
491.6516	20043.4125
495.73531	19766.5125
499.81612	19580.3125
503.89401	19610.8125
507.96899	19656.0125
512.04106	19608.7125
516.11023	19582.9125
520.1765	19470.6125
524.23987	19429.4125
528.30034	19294.4125
532.35792	19155.8125
536.41261	19033.4125
540.46441	18867.5125
544.51333	18860.4125
548.55936	19040.3125
552.60252	19349.8125
556.64279	19731.2125
560.6802	20053.3125
564.71473	20200.1125
568.7464	20446.5125
572.7752	20865.2125
576.80114	21186.1125
580.82422	21419.7125
584.84444	21696.4125
588.86181	22209.9125
592.87633	22751.7125
596.888	22728.0125
600.89682	22130.6125
604.9028	21977.6125
608.90594	23181.7125
612.90624	24797.6125
616.90371	23834.2125
620.89834	20812.0125
624.89015	19387.8125
628.87913	19199.1125
632.86528	19279.2125
636.84862	19334.4125
640.82913	19221.9125
644.80683	18859.3125
648.78172	18656.4125
652.75379	18633.9125
656.72306	18802.6125
660.68952	19020.7125
664.65319	18907.2125
668.61405	18641.5125
672.57211	18602.4125
676.52738	18682.5125
680.47986	18710.8125
684.42955	18618.6125
688.37646	18578.2125
692.32058	18624.5125
696.26192	18784.6125
700.20048	18959.3125
704.13626	19070.4125
708.06928	19038.1125
711.99952	19025.0125
715.927	18962.7125
719.85171	19024.5125
723.77365	18966.4125
727.69284	18787.4125
731.60928	18638.0125
735.52295	18580.4125
739.43388	18562.5125
743.34206	18613.1125
747.24749	18673.2125
751.15017	18781.4125
755.05012	19006.3125
758.94733	19359.2125
762.8418	20021.4125
766.73354	21145.5125
770.62254	22110.8125
774.50882	22457.3125
778.39237	21821.7125
782.27321	20607.9125
786.15132	19606.4125
790.02671	18946.7125
793.89938	18677.9125
797.76935	18536.8125
801.6366	18472.5125
805.50115	18416.3125
809.36299	18352.6125
813.22213	18263.1125
817.07857	18277.9125
820.93231	18233.4125
824.78336	18201.8125
828.63172	18093.7125
832.47738	18072.9125
836.32036	18059.4125
840.16066	18092.3125
843.99827	18104.2125
847.8332	18110.1125
851.66546	18056.7125
855.49504	18080.9125
859.32195	18070.9125
863.1462	18035.1125
866.96777	18031.1125
870.78668	18020.5125
874.60293	18011.7125
878.41652	17975.7125
882.22745	18022.4125
886.03573	18107.0125
889.84136	18136.7125
893.64433	18057.0125
897.44466	18017.4125
901.24235	17939.5125
905.0374	17915.9125
908.8298	17848.3125
912.61957	17836.1125
916.40671	17910.2125
920.19121	18057.0125
923.97308	18197.3125
927.75233	18203.3125
931.52895	18077.2125
935.30295	17937.1125
939.07433	17694.2125
942.84309	17534.0125
946.60924	17379.8125
950.37278	17324.9125
954.13371	17310.0125
957.89203	17260.4125
961.64774	17280.1125
965.40086	17239.5125
969.15137	17177.3125
972.89929	17123.7125
976.64461	17066.4125
980.38733	17035.2125
984.12747	17080.6125
987.86502	17139.4125
991.59999	17213.4125
995.33237	17386.9125
999.06217	17581.7125
1002.78939	17842.6125
1006.51404	18051.0125
1010.23611	18168.7125
1013.95561	18340.3125
1017.67255	18374.6125
1021.38692	18296.7125
1025.09872	18133.2125
1028.80796	18024.0125
1032.51465	18086.6125
1036.21877	18247.5125
1039.92035	18320.7125
1043.61937	18276.7125
1047.31584	18179.0125
1051.00976	18026.5125
1054.70114	18008.7125
1058.38998	18051.5125
1062.07627	18077.7125
1065.76003	18188.6125
1069.44126	18265.5125
1073.11995	18359.5125
1076.79611	18545.9125
1080.46974	18636.3125
1084.14085	18717.4125
1087.80943	18877.4125
1091.47549	19003.8125
1095.13903	19022.9125
1098.80005	18875.1125
1102.45857	18610.5125
1106.11456	18386.5125
1109.76805	18328.9125
1113.41903	18376.2125
1117.06751	18479.9125
1120.71348	18642.6125
1124.35696	18828.3125
1127.99793	19032.7125
1131.63641	19183.7125
1135.2724	19015.9125
1138.90589	18870.7125
1142.5369	18803.2125
1146.16542	18850.1125
1149.79145	18947.2125
1153.415	19057.8125
1157.03607	19232.8125
1160.65467	19644.9125
1164.27079	20305.2125
1167.88443	21095.8125
1171.49561	22038.5125
1175.10432	23187.1125
1178.71056	24709.4125
1182.31434	26141.7125
1185.91565	26860.0125
1189.51451	26710.1125
1193.11091	26079.3125
1196.70485	25291.4125
1200.29634	24471.6125
1203.88538	23868.5125
1207.47197	23446.9125
1211.05612	23068.3125
1214.63782	22624.1125
1218.21708	22203.8125
1221.79391	21850.1125
1225.36829	21640.3125
1228.94024	21477.8125
1232.50976	21151.5125
1236.07685	20884.0125
1239.6415	20721.8125
1243.20374	20750.3125
1246.76355	20893.9125
1250.32093	21035.4125
1253.8759	21341.0125
1257.42845	21707.5125
1260.97859	22188.1125
1264.52631	22634.5125
1268.07163	23112.7125
1271.61453	23540.3125
1275.15503	24005.2125
1278.69312	24524.7125
1282.22882	25032.8125
1285.76211	25644.0125
1289.29301	26479.4125
1292.82151	27486.3125
1296.34761	28795.5125
1299.87133	30314.9125
1303.39266	31822.3125
1306.9116	33384.6125
1310.42815	34639.6125
1313.94233	35369.1125
1317.45412	35167.7125
1320.96354	34391.3125
1324.47058	33625.7125
1327.97525	32917.9125
1331.47754	32367.6125
1334.97747	32013.4125
1338.47502	31754.6125
1341.97022	31535.9125
1345.46305	31276.3125
1348.95352	31158.6125
1352.44163	31455.4125
1355.92738	32154.5125
1359.41078	33384.4125
1362.89183	34424.4125
1366.37053	33921.5125
1369.84688	31393.9125
1373.32088	28305.7125
1376.79254	26246.2125
1380.26186	25552.1125
1383.72883	25550.9125
1387.19347	25600.8125
1390.65578	25468.6125
1394.11575	25468.4125
1397.57339	25638.3125
1401.0287	25977.6125
1404.48168	26112.6125
1407.93234	25911.5125
1411.38068	25427.2125
1414.82669	24682.0125
1418.27039	23857.8125
1421.71177	23051.3125
1425.15083	22335.6125
1428.58758	21984.7125
1432.02203	22087.9125
1435.45416	22521.5125
1438.88399	23062.3125
1442.31151	23438.7125
1445.73673	23696.1125
1449.15965	23896.5125
1452.58027	23977.2125
1455.9986	23987.4125
1459.41463	24075.1125
1462.82837	24241.3125
1466.23982	24529.5125
1469.64898	24760.7125
1473.05586	24885.0125
1476.46045	24871.3125
1479.86276	24736.0125
1483.26279	24596.5125
1486.66054	24495.6125
1490.05602	24593.0125
1493.44922	24804.3125
1496.84016	25149.1125
1500.22882	25703.8125
1503.61521	26601.7125
1506.99934	27597.9125
1510.38121	28450.2125
1513.76081	28688.6125
1517.13816	28054.3125
1520.51324	27106.1125
1523.88607	26210.7125
1527.25665	25774.3125
1530.62498	25654.6125
1533.99105	25586.6125
1537.35488	25406.7125
1540.71647	25028.1125
1544.07581	24471.8125
1547.4329	23930.1125
1550.78776	23483.4125
1554.14038	23100.9125
1557.49077	22967.9125
1560.83892	22867.6125
1564.18484	22884.3125
1567.52853	23011.6125
1570.86999	23280.3125
1574.20922	23680.0125
1577.54624	24027.9125
1580.88103	24158.4125
1584.2136	24199.7125
1587.54395	24641.5125
1590.87208	25385.5125
1594.19801	26420.1125
1597.52172	27433.4125
1600.84321	27795.7125
1604.16251	26932.5125
1607.47959	25288.3125
1610.79447	23496.5125
1614.10715	21791.7125
1617.41763	20476.3125
1620.7259	19631.4125
1624.03199	19138.5125
1627.33587	19138.7125
1630.63757	19560.6125
1633.93707	20437.5125
1637.23439	22020.5125
1640.52951	24244.8125
1643.82246	26922.5125
1647.11321	29184.5125
1650.40179	29715.1125
1653.68819	27951.2125
1656.97241	24830.5125
1660.25446	21680.9125
1663.53433	19435.0125
1666.81203	17985.5125
1670.08756	17039.3125
1673.36092	16508.5125
1676.63211	16115.5125
1679.90115	15857.7125
1683.16801	15673.3125
1686.43272	15494.7125
1689.69527	15404.2125
1692.95567	15343.2125
1696.2139	15266.5125
1699.46999	15287.5125
1702.72392	15198.9125
1705.97571	15146.0125
1709.22535	15097.9125
1712.47284	15071.2125
1715.71819	15049.1125
1718.96139	14999.3125
1722.20246	14967.3125
1725.44139	14893.9125
1728.67818	14854.0125
1731.91284	14761.5125
1735.14537	14670.4125
1738.37576	14613.0125
1741.60403	14581.7125
1744.83017	14521.2125
1748.05418	14531.9125
1751.27607	14478.5125
1754.49584	14457.8125
1757.71349	14471.0125
1760.92903	14446.9125
1764.14244	14434.1125
1767.35375	14426.2125
1770.56294	14393.4125
1773.77002	14366.8125
1776.97499	14346.8125
1780.17785	14298.8125
1783.37861	14282.3125
1786.57727	14230.9125
1789.77382	14197.4125
1792.96828	14166.6125
1796.16064	14160.4125
1799.3509	14129.9125
1802.53907	14096.3125
1805.72514	14067.5125
1808.90913	14039.2125
1812.09102	13975.1125
1815.27083	13953.8125
1818.44856	13931.3125
1821.6242	13888.5125
1824.79776	13874.6125
1827.96924	13861.0125
1831.13864	13832.5125
1834.30597	13824.9125
1837.47122	13804.2125
1840.6344	13777.0125
1843.7955	13791.1125
1846.95454	13763.0125
1850.11151	13742.4125
1853.26642	13761.5125
1856.41926	13744.5125
1859.57004	13713.8125
1862.71876	13728.7125
1865.86542	13681.9125
1869.01003	13675.4125
1872.15258	13663.1125
1875.29308	13651.0125
1878.43152	13607.7125
1881.56792	13612.9125
1884.70227	13601.0125
1887.83457	13592.4125
1890.96482	13567.8125
1894.09304	13516.3125
1897.21921	13517.6125
1900.34335	13512.1125
1903.46544	13521.9125
1906.58551	13496.4125
1909.70353	13454.5125
1912.81953	13429.8125
1915.93349	13411.0125
1919.04543	13403.8125
1922.15534	13374.5125
1925.26322	13329.4125
1928.36908	13316.0125
1931.47292	13289.3125
1934.57473	13269.3125
1937.67453	13250.0125
1940.77232	13189.7125
1943.86808	13165.1125
1946.96184	13128.4125
1950.05358	13093.3125
1953.14331	13021.0125
1956.23103	12993.1125
1959.31675	12947.4125
1962.40046	12932.2125
1965.48217	12858.4125
1968.56188	12853.6125
1971.63959	12799.7125
1974.7153	12753.4125
1977.78901	12715.4125
1980.86073	12691.1125
1983.93046	12664.3125
1986.99819	12604.8125
1990.06394	12583.1125
1993.1277	12546.9125
1996.18947	12492.9125
1999.24925	12461.9125
2002.30706	12382.1125
2005.36288	12371.9125
2008.41672	12340.2125
2011.46859	12306.9125
2014.51848	12268.4125
2017.56639	12222.2125
2020.61233	12227.8125
2023.6563	12186.4125
2026.6983	12139.6125
2029.73833	12123.6125
2032.7764	12074.9125
2035.8125	12089.7125
2038.84664	12042.4125
2041.87881	11989.4125
2044.90903	11948.6125
2047.93729	11955.7125
2050.96359	11955.3125
2053.98794	11920.7125
2057.01034	11895.6125
2060.03078	11907.5125
2063.04927	11885.3125
2066.06582	11887.8125
2069.08042	11880.8125
2072.09307	11870.4125
2075.10378	11876.3125
2078.11255	11858.1125
2081.11938	11867.0125
2084.12426	11832.9125
2087.12722	11826.7125
2090.12824	11826.5125
2093.12732	11797.3125
2096.12447	11798.0125
2099.11969	11780.9125
2102.11299	11788.7125
2105.10435	11818.6125
2108.09379	11791.8125
2111.08131	11785.8125
2114.0669	11790.7125
2117.05057	11814.8125
2120.03233	11804.4125
2123.01216	11845.4125
2125.99008	11845.1125
2128.96609	11848.5125
2131.94018	11874.9125
2134.91236	11891.3125
2137.88263	11844.5125
2140.851	11898.0125
2143.81746	11878.1125
2146.78201	11866.9125
2149.74466	11858.1125
2152.7054	11886.6125
2155.66425	11865.9125
2158.6212	11866.5125
2161.57625	11860.0125
2164.52941	11833.4125
2167.48067	11828.3125
2170.43004	11831.1125
2173.37752	11831.8125
2176.32311	11829.9125
2179.26681	11819.3125
2182.20863	11817.1125
2185.14856	11786.2125
2188.08661	11794.6125
2191.02278	11842.9125
2193.95707	11805.7125
2196.88948	11795.9125
2199.82001	11802.3125
2202.74867	11784.1125
2205.67545	11728.4125
2208.60037	11719.2125
2211.52341	11707.0125
2214.44458	11727.2125
2217.36388	11652.6125
2220.28132	11650.3125
2223.1969	11613.4125
2226.11061	11597.9125
2229.02246	11574.2125
2231.93245	11555.7125
2234.84058	11490.3125
2237.74686	11519.9125
2240.65128	11506.7125
2243.55385	11462.4125
2246.45456	11441.7125
2249.35343	11440.8125
2252.25044	11422.5125
2255.14561	11387.5125
2258.03893	11389.1125
2260.93041	11369.0125
2263.82004	11356.7125
2266.70783	11344.5125
2269.59378	11275.1125
2272.4779	11222.5125
2275.36017	11218.3125
2278.24061	11215.2125
2281.11922	11165.0125
2283.996	11176.4125
2286.87094	11142.3125
2289.74405	11139.3125
2292.61534	11114.2125
2295.4848	11101.7125
2298.35243	11104.1125
2301.21824	11102.1125
2304.08223	11110.0125
2306.94439	11086.4125
2309.80474	11065.0125
2312.66327	11071.4125
2315.51999	11066.7125
2318.37489	11053.0125
2321.22797	11042.2125
2324.07925	11009.5125
2326.92871	11004.6125
2329.77637	10993.2125
2332.62222	10966.7125
2335.46626	10943.3125
2338.3085	10944.1125
2341.14893	10913.4125
2343.98756	10942.0125
2346.8244	10909.2125
2349.65943	10905.1125
2352.49267	10909.6125
2355.32411	10874.5125
2358.15376	10861.3125
2360.98161	10865.2125
2363.80768	10853.0125
2366.63195	10877.1125
2369.45444	10842.1125
2372.27514	10835.7125
2375.09405	10832.8125
2377.91118	10824.5125
2380.72652	10785.3125
2383.54009	10747.7125
2386.35187	10700.9125
2389.16188	10691.4125
2391.97011	10659.0125
2394.77657	10641.9125
2397.58125	10625.9125
2400.38416	10623.4125
2403.18529	10629.2125
2405.98466	10591.0125
2408.78226	10573.3125
2411.57809	10550.1125
2414.37216	10528.3125
2417.16446	10519.8125
2419.955	10507.2125
2422.74378	10497.9125
2425.5308	10491.4125
2428.31606	10461.7125
2431.09956	10477.7125
2433.88131	10447.7125
2436.6613	10453.5125
2439.43954	10429.2125
2442.21603	10418.4125
2444.99077	10412.3125
2447.76377	10422.7125
2450.53501	10416.1125
2453.30451	10422.1125
2456.07226	10378.3125
2458.83827	10390.1125
2461.60254	10378.0125
2464.36507	10367.2125
2467.12586	10352.5125
2469.88492	10349.3125
2472.64224	10330.5125
2475.39782	10352.0125
2478.15167	10361.6125
2480.90379	10351.8125
2483.65417	10390.4125
2486.40283	10369.5125
2489.14976	10360.3125
2491.89497	10346.4125
2494.63845	10328.8125
2497.3802	10329.7125
2500.12024	10283.6125
2502.85855	10304.3125
2505.59514	10300.5125
2508.33002	10277.9125
2511.06318	10269.5125
2513.79462	10256.6125
2516.52435	10249.1125
2519.25237	10236.9125
2521.97867	10222.9125
2524.70327	10231.5125
2527.42616	10197.8125
2530.14734	10170.9125
2532.86681	10197.1125
2535.58458	10202.4125
2538.30065	10182.0125
2541.01501	10159.9125
2543.72768	10171.5125
2546.43864	10125.3125
2549.14791	10137.5125
2551.85548	10103.6125
2554.56136	10107.2125
2557.26554	10079.2125
2559.96803	10064.3125
2562.66883	10024.0125
2565.36794	10000.7125
2568.06536	9987.5125
2570.7611	9994.1125
2573.45514	9965.0125
2576.14751	9952.2125
2578.83819	9935.6125
2581.52719	9939.8125
2584.21451	9921.8125
2586.90015	9914.9125
2589.58411	9892.8125
2592.2664	9884.1125
2594.94701	9878.9125
2597.62594	9859.7125
2600.30321	9815.9125
2602.9788	9828.1125
2605.65273	9805.1125
2608.32498	9821.8125
2610.99557	9802.8125
2613.66449	9800.1125
2616.33175	9809.7125
2618.99734	9797.6125
2621.66128	9761.8125
2624.32355	9770.0125
2626.98416	9747.1125
2629.64311	9752.7125
2632.30041	9751.2125
2634.95605	9719.0125
2637.61004	9697.4125
2640.26238	9695.2125
2642.91306	9701.7125
2645.56209	9684.5125
2648.20948	9680.0125
2650.85521	9669.3125
2653.4993	9673.1125
2656.14175	9660.8125
2658.78255	9686.5125
2661.42171	9665.1125
2664.05923	9697.4125
2666.6951	9670.0125
2669.32934	9682.0125
2671.96194	9667.4125
2674.59291	9691.9125
2677.22224	9675.5125
2679.84993	9677.8125
2682.476	9660.6125
2685.10043	9638.8125
2687.72324	9639.0125
2690.34441	9643.2125
2692.96396	9664.1125
2695.58188	9664.2125
2698.19818	9622.4125
2700.81285	9636.9125
2703.4259	9647.9125
2706.03733	9650.4125
2708.64714	9669.9125
2711.25533	9633.2125
2713.86191	9623.6125
2716.46687	9661.4125
2719.07021	9636.1125
2721.67194	9675.4125
2724.27206	9661.3125
2726.87057	9660.8125
2729.46747	9674.1125
2732.06276	9680.3125
2734.65644	9679.7125
2737.24852	9656.1125
2739.83899	9668.3125
2742.42786	9673.2125
2745.01513	9619.3125
2747.60079	9621.3125
2750.18486	9596.9125
2752.76733	9613.3125
2755.3482	9581.1125
2757.92747	9581.2125
2760.50515	9579.6125
2763.08123	9569.1125
2765.65573	9538.5125
2768.22863	9535.5125
2770.79994	9524.1125
2773.36967	9508.3125
2775.9378	9478.4125
2778.50435	9514.7125
2781.06932	9486.5125
2783.6327	9498.5125
2786.1945	9486.9125
2788.75471	9473.5125
2791.31335	9456.6125
2793.87041	9440.7125
2796.42589	9421.0125
2798.97979	9431.1125
2801.53212	9416.5125
2804.08288	9408.9125
2806.63206	9363.3125
2809.17967	9328.8125
2811.72571	9311.7125
2814.27018	9306.6125
2816.81308	9282.7125
2819.35442	9278.6125
2821.89419	9244.5125
2824.43239	9241.3125
2826.96904	9256.6125
2829.50412	9210.7125
2832.03763	9197.7125
2834.56959	9225.3125
2837.1	9199.3125
2839.62884	9205.1125
2842.15613	9226.7125
2844.68186	9261.1125
2847.20604	9279.1125
2849.72867	9297.6125
2852.24974	9290.9125
2854.76927	9245.2125
2857.28724	9239.2125
2859.80367	9235.5125
2862.31855	9208.5125
2864.83189	9203.5125
2867.34368	9168.7125
2869.85393	9161.5125
2872.36264	9152.2125
2874.8698	9170.5125
2877.37543	9167.7125
2879.87952	9150.3125
2882.38207	9145.2125
2884.88308	9166.6125
2887.38256	9134.1125
2889.88051	9136.0125
2892.37692	9128.0125
2894.8718	9148.8125
2897.36515	9154.6125
2899.85698	9166.9125
2902.34727	9171.2125
2904.83604	9199.4125
2907.32328	9176.0125
2909.809	9183.1125
2912.29319	9182.2125
2914.77587	9170.6125
2917.25702	9163.0125
2919.73665	9155.4125
2922.21476	9147.5125
2924.69136	9146.2125
2927.16644	9149.8125
2929.64	9133.7125
2932.11205	9133.8125
2934.58258	9126.2125
2937.05161	9170.4125
2939.51912	9120.7125
2941.98513	9107.4125
2944.44962	9107.3125
2946.91261	9051.1125
2949.37409	9078.4125
2951.83407	9036.9125
2954.29254	9036.0125
2956.74951	9045.9125
2959.20498	9034.3125
2961.65895	9024.5125
2964.11142	9036.6125
2966.56239	9023.8125
2969.01186	9018.2125
2971.45984	8965.3125
2973.90632	8954.1125
2976.35131	8931.1125
2978.7948	8931.7125
2981.23681	8891.2125
2983.67732	8865.8125
2986.11635	8850.6125
2988.55388	8833.7125
2990.98993	8816.5125
2993.4245	8785.9125
2995.85758	8766.6125
2998.28917	8726.0125
3000.71928	8729.5125
3003.14791	8720.5125
3005.57506	8723.8125
3008.00073	8702.9125
3010.42493	8693.3125
3012.84764	8632.0125
3015.26888	8629.0125
3017.68865	8622.5125
3020.10694	8595.0125
3022.52376	8598.8125
3024.9391	8604.0125
3027.35298	8577.2125
3029.76539	8578.2125
3032.17632	8592.0125
3034.5858	8579.0125
3036.9938	8589.5125
3039.40034	8564.6125
3041.80542	8569.6125
3044.20903	8540.4125
3046.61118	8525.2125
