Data from AgNP_FTO_APTES_UA_10uM_CRN_1uM_R6G_10uM_NaF_0.1M_Addition_RamanShift__27__13-24-10-531.txt Node

Date: Thu Feb 10 13:24:10 GMT 2022
User: TCL
Spectrometer: QEP01345
Trigger mode: 4
Integration Time (sec): 7.000000E0
Scans to average: 10
Electric dark correction enabled: true
Nonlinearity correction enabled: false
Boxcar width: 0
XAxis mode: Raman Shifts
Number of Pixels in Spectrum: 1044
>>>>>Begin Spectral Data<<<<<
46.04893	0.925
50.45542	-0.675
54.85868	-2.075
59.25871	0.825
63.6555	64.725
68.04907	69.525
72.43941	71.525
76.82654	72.725
81.21044	78.225
85.59113	79.025
89.96862	84.825
94.34289	87.925
98.71396	85.825
103.08183	91.725
107.4465	95.725
111.80798	94.225
116.16626	96.925
120.52136	102.425
124.87327	107.425
129.222	110.025
133.56755	115.925
137.90993	121.825
142.24913	134.525
146.58517	146.425
150.91804	167.925
155.24774	198.625
159.57429	248.825
163.89768	314.125
168.21792	421.725
172.53501	575.625
176.84895	791.325
181.15975	1105.325
185.46741	1538.525
189.77193	2129.225
194.07331	2839.225
198.37157	3655.925
202.6667	4513.525
206.9587	5380.525
211.24758	6213.725
215.53334	7101.725
219.81599	8070.925
224.09553	9157.225
228.37195	10364.325
232.64527	11665.325
236.91549	12997.625
241.18261	14242.625
245.44663	15325.525
249.70755	16222.825
253.96539	17018.025
258.22014	17726.325
262.4718	18339.125
266.72039	18837.725
270.96589	19127.125
275.20832	19217.825
279.44768	19101.625
283.68397	18943.425
287.91719	18828.325
292.14735	18816.525
296.37445	19010.025
300.59849	19383.525
304.81948	19907.425
309.03742	20237.425
313.25231	20129.725
317.46415	19388.525
321.67296	18182.725
325.87872	17220.125
330.08145	16749.225
334.28114	16748.225
338.47781	16953.325
342.67145	17348.725
346.86207	17960.325
351.04966	18858.025
355.23424	19832.725
359.4158	20560.325
363.59435	20958.825
367.76989	21056.025
371.94243	21035.525
376.11196	21008.425
380.27849	20929.525
384.44203	20796.025
388.60257	20640.625
392.76012	20640.125
396.91468	20927.825
401.06626	21474.225
405.21485	21890.925
409.36047	21694.925
413.50311	20916.525
417.64277	20178.725
421.77947	19850.525
425.9132	19789.025
430.04396	19837.425
434.17176	19953.325
438.2966	20211.925
442.41849	20670.025
446.53742	21370.525
450.6534	22093.325
454.76644	22632.925
458.87653	22725.625
462.98368	22580.925
467.08789	22215.625
471.18916	21716.125
475.2875	21168.325
479.38291	20827.225
483.4754	20539.725
487.56496	20276.625
491.6516	19930.525
495.73531	19705.925
499.81612	19619.225
503.89401	19776.125
507.96899	19931.225
512.04106	20065.725
516.11023	20157.825
520.1765	20220.025
524.23987	20134.825
528.30034	19833.225
532.35792	19509.325
536.41261	19112.125
540.46441	18736.925
544.51333	18677.425
548.55936	18796.625
552.60252	19272.625
556.64279	19750.725
560.6802	20085.725
564.71473	20432.725
568.7464	21132.625
572.7752	21769.925
576.80114	21599.625
580.82422	21266.525
584.84444	21199.025
588.86181	21283.725
592.87633	21500.725
596.888	21771.925
600.89682	22256.725
604.9028	24088.025
608.90594	28868.425
612.90624	34874.925
616.90371	33150.225
620.89834	24733.625
624.89015	20878.425
628.87913	20258.725
632.86528	20217.425
636.84862	20218.225
640.82913	19724.725
644.80683	18967.625
648.78172	18474.425
652.75379	18465.925
656.72306	19049.525
660.68952	19839.525
664.65319	19757.325
668.61405	19076.825
672.57211	18672.025
676.52738	18674.725
680.47986	18658.925
684.42955	18577.125
688.37646	18510.425
692.32058	18647.325
696.26192	18791.325
700.20048	19098.725
704.13626	19236.925
708.06928	19211.825
711.99952	19012.425
715.927	18942.525
719.85171	18931.925
723.77365	18865.025
727.69284	18616.525
731.60928	18462.025
735.52295	18450.025
739.43388	18484.725
743.34206	18669.625
747.24749	18799.425
751.15017	19018.625
755.05012	19418.925
758.94733	20253.425
762.8418	21943.725
766.73354	24804.225
770.62254	27667.925
774.50882	28849.125
778.39237	27437.925
782.27321	24386.025
786.15132	21539.425
790.02671	19904.425
793.89938	19067.625
797.76935	18816.925
801.6366	18684.925
805.50115	18599.925
809.36299	18463.925
813.22213	18388.125
817.07857	18372.825
820.93231	18330.525
824.78336	18349.825
828.63172	18454.625
832.47738	18520.925
836.32036	18524.625
840.16066	18536.625
843.99827	18561.525
847.8332	18486.925
851.66546	18409.725
855.49504	18374.525
859.32195	18319.125
863.1462	18194.025
866.96777	18092.825
870.78668	18049.925
874.60293	18082.425
878.41652	18098.425
882.22745	18216.625
886.03573	18316.425
889.84136	18257.825
893.64433	18111.525
897.44466	18091.125
901.24235	18088.125
905.0374	18050.425
908.8298	18042.025
912.61957	18020.825
916.40671	18189.025
920.19121	18456.925
923.97308	18718.625
927.75233	18942.725
931.52895	19035.225
935.30295	18817.325
939.07433	18281.525
942.84309	17860.725
946.60924	17684.125
950.37278	17615.125
954.13371	17433.025
957.89203	17338.025
961.64774	17264.525
965.40086	17207.425
969.15137	17170.125
972.89929	17103.725
976.64461	17103.625
980.38733	17124.425
984.12747	17223.925
987.86502	17389.825
991.59999	17670.625
995.33237	18056.225
999.06217	18783.125
1002.78939	19633.225
1006.51404	20276.325
1010.23611	20649.025
1013.95561	20949.225
1017.67255	20915.425
1021.38692	20600.325
1025.09872	20333.925
1028.80796	20562.325
1032.51465	21189.325
1036.21877	21825.825
1039.92035	21855.725
1043.61937	21441.725
1047.31584	20781.925
1051.00976	20089.825
1054.70114	19694.525
1058.38998	19572.325
1062.07627	19607.725
1065.76003	19718.625
1069.44126	19811.725
1073.11995	20047.225
1076.79611	20260.025
1080.46974	20468.125
1084.14085	20849.325
1087.80943	21288.425
1091.47549	21475.125
1095.13903	21186.425
1098.80005	20587.925
1102.45857	20017.525
1106.11456	19748.125
1109.76805	19776.825
1113.41903	20033.625
1117.06751	20424.425
1120.71348	20985.125
1124.35696	21592.625
1127.99793	22098.825
1131.63641	22198.525
1135.2724	21620.725
1138.90589	20976.825
1142.5369	20561.925
1146.16542	20350.525
1149.79145	20250.625
1153.415	20326.725
1157.03607	20591.225
1160.65467	20969.825
1164.27079	21758.725
1167.88443	22896.625
1171.49561	24669.325
1175.10432	27335.525
1178.71056	30829.625
1182.31434	33742.925
1185.91565	35145.825
1189.51451	34960.225
1193.11091	33241.025
1196.70485	30921.025
1200.29634	28946.225
1203.88538	27398.425
1207.47197	25971.025
1211.05612	24891.625
1214.63782	24341.525
1218.21708	24277.325
1221.79391	24468.825
1225.36829	24732.625
1228.94024	24752.425
1232.50976	24615.425
1236.07685	24463.525
1239.6415	24283.325
1243.20374	24210.825
1246.76355	24272.825
1250.32093	24554.425
1253.8759	25236.525
1257.42845	26135.025
1260.97859	26970.725
1264.52631	27710.925
1268.07163	28513.125
1271.61453	29305.525
1275.15503	30227.425
1278.69312	30953.125
1282.22882	31644.425
1285.76211	32317.825
1289.29301	33111.725
1292.82151	34021.525
1296.34761	35013.525
1299.87133	36623.025
1303.39266	39103.825
1306.9116	42653.225
1310.42815	46876.325
1313.94233	49788.025
1317.45412	49819.325
1320.96354	47872.125
1324.47058	45409.925
1327.97525	43152.825
1331.47754	41703.425
1334.97747	41136.825
1338.47502	41299.925
1341.97022	41686.225
1345.46305	41967.625
1348.95352	42199.425
1352.44163	42909.125
1355.92738	44916.525
1359.41078	48981.625
1362.89183	53083.625
1366.37053	52001.725
1369.84688	45768.325
1373.32088	39313.125
1376.79254	35153.825
1380.26186	33172.525
1383.72883	32229.725
1387.19347	31535.525
1390.65578	30839.725
1394.11575	30537.725
1397.57339	30732.425
1401.0287	31363.425
1404.48168	32138.025
1407.93234	32911.425
1411.38068	33349.425
1414.82669	33065.325
1418.27039	32054.025
1421.71177	30829.825
1425.15083	29821.525
1428.58758	29167.625
1432.02203	29111.725
1435.45416	29326.825
1438.88399	29553.225
1442.31151	29760.925
1445.73673	30033.025
1449.15965	30315.425
1452.58027	30408.325
1455.9986	30345.425
1459.41463	30387.025
1462.82837	30792.125
1466.23982	31266.925
1469.64898	31913.225
1473.05586	32283.825
1476.46045	32489.425
1479.86276	32749.725
1483.26279	33106.725
1486.66054	33587.825
1490.05602	34246.325
1493.44922	35086.225
1496.84016	36107.825
1500.22882	37559.825
1503.61521	39682.525
1506.99934	42419.625
1510.38121	45336.125
1513.76081	46989.925
1517.13816	45798.025
1520.51324	42279.725
1523.88607	38445.825
1527.25665	35665.425
1530.62498	33918.525
1533.99105	32941.425
1537.35488	32309.325
1540.71647	31889.925
1544.07581	31657.325
1547.4329	31389.525
1550.78776	31036.025
1554.14038	30860.625
1557.49077	30864.225
1560.83892	31125.725
1564.18484	31411.525
1567.52853	31630.325
1570.86999	31741.125
1574.20922	31870.425
1577.54624	31796.025
1580.88103	31120.725
1584.2136	30377.825
1587.54395	30611.025
1590.87208	32046.025
1594.19801	34532.525
1597.52172	37240.825
1600.84321	38461.425
1604.16251	37023.925
1607.47959	34108.925
1610.79447	30859.725
1614.10715	27967.725
1617.41763	25749.425
1620.7259	24393.325
1624.03199	23786.625
1627.33587	23868.325
1630.63757	24648.425
1633.93707	26195.625
1637.23439	28404.225
1640.52951	31176.125
1643.82246	34222.425
1647.11321	36987.625
1650.40179	38240.225
1653.68819	36583.325
1656.97241	32056.825
1660.25446	27228.925
1663.53433	23696.625
1666.81203	21471.025
1670.08756	20165.925
1673.36092	19336.625
1676.63211	18824.125
1679.90115	18475.425
1683.16801	18212.625
1686.43272	18022.825
1689.69527	17865.025
1692.95567	17771.125
1696.2139	17699.625
1699.46999	17699.325
1702.72392	17646.825
1705.97571	17629.625
1709.22535	17572.725
1712.47284	17585.725
1715.71819	17567.725
1718.96139	17549.225
1722.20246	17496.425
1725.44139	17420.825
1728.67818	17336.025
1731.91284	17194.225
1735.14537	17106.725
1738.37576	17041.225
1741.60403	17001.925
1744.83017	16922.825
1748.05418	16894.525
1751.27607	16872.725
1754.49584	16850.625
1757.71349	16866.225
1760.92903	16816.025
1764.14244	16826.325
1767.35375	16826.025
1770.56294	16804.625
1773.77002	16747.725
1776.97499	16731.325
1780.17785	16677.425
1783.37861	16681.825
1786.57727	16651.525
1789.77382	16648.725
1792.96828	16635.525
1796.16064	16565.325
1799.3509	16601.425
1802.53907	16572.525
1805.72514	16506.525
1808.90913	16478.225
1812.09102	16474.025
1815.27083	16415.125
1818.44856	16389.125
1821.6242	16380.625
1824.79776	16360.025
1827.96924	16370.025
1831.13864	16378.225
1834.30597	16338.125
1837.47122	16328.325
1840.6344	16344.225
1843.7955	16362.225
1846.95454	16349.425
1850.11151	16373.525
1853.26642	16351.325
1856.41926	16389.725
1859.57004	16413.825
1862.71876	16417.425
1865.86542	16429.125
1869.01003	16463.925
1872.15258	16499.125
1875.29308	16508.625
1878.43152	16508.125
1881.56792	16545.225
1884.70227	16565.725
1887.83457	16568.725
1890.96482	16572.625
1894.09304	16549.925
1897.21921	16558.625
1900.34335	16584.625
1903.46544	16567.825
1906.58551	16611.625
1909.70353	16617.625
1912.81953	16603.825
1915.93349	16616.325
1919.04543	16576.725
1922.15534	16574.325
1925.26322	16537.025
1928.36908	16443.125
1931.47292	16447.125
1934.57473	16342.225
1937.67453	16287.825
1940.77232	16247.625
1943.86808	16120.525
1946.96184	16017.525
1950.05358	15957.425
1953.14331	15899.425
1956.23103	15847.725
1959.31675	15763.625
1962.40046	15709.425
1965.48217	15686.325
1968.56188	15619.825
1971.63959	15594.325
1974.7153	15528.825
1977.78901	15487.325
1980.86073	15449.825
1983.93046	15373.825
1986.99819	15331.325
1990.06394	15290.225
1993.1277	15245.825
1996.18947	15198.925
1999.24925	15144.725
2002.30706	15130.525
2005.36288	15086.325
2008.41672	15054.925
2011.46859	15017.625
2014.51848	14972.425
2017.56639	14931.925
2020.61233	14911.625
2023.6563	14870.925
2026.6983	14857.625
2029.73833	14821.925
2032.7764	14790.025
2035.8125	14751.225
2038.84664	14742.225
2041.87881	14715.925
2044.90903	14684.525
2047.93729	14678.525
2050.96359	14662.125
2053.98794	14668.325
2057.01034	14621.725
2060.03078	14589.025
2063.04927	14576.925
2066.06582	14587.725
2069.08042	14530.425
2072.09307	14538.825
2075.10378	14536.025
2078.11255	14534.325
2081.11938	14503.725
2084.12426	14509.925
2087.12722	14484.325
2090.12824	14488.225
2093.12732	14479.925
2096.12447	14479.225
2099.11969	14466.825
2102.11299	14469.425
2105.10435	14483.625
2108.09379	14492.525
2111.08131	14502.625
2114.0669	14493.525
2117.05057	14509.025
2120.03233	14535.525
2123.01216	14547.925
2125.99008	14533.325
2128.96609	14548.725
2131.94018	14540.425
2134.91236	14586.325
2137.88263	14573.125
2140.851	14570.925
2143.81746	14583.725
2146.78201	14620.125
2149.74466	14586.325
2152.7054	14567.025
2155.66425	14573.725
2158.6212	14567.425
2161.57625	14565.325
2164.52941	14559.625
2167.48067	14530.325
2170.43004	14508.425
2173.37752	14523.025
2176.32311	14571.425
2179.26681	14561.825
2182.20863	14569.025
2185.14856	14564.025
2188.08661	14543.925
2191.02278	14525.625
2193.95707	14553.725
2196.88948	14566.425
2199.82001	14580.225
2202.74867	14562.425
2205.67545	14583.825
2208.60037	14572.425
2211.52341	14555.425
2214.44458	14560.625
2217.36388	14525.525
2220.28132	14497.525
2223.1969	14453.225
2226.11061	14452.725
2229.02246	14414.125
2231.93245	14383.325
2234.84058	14359.125
2237.74686	14335.825
2240.65128	14303.125
2243.55385	14268.925
2246.45456	14253.625
2249.35343	14269.725
2252.25044	14236.325
2255.14561	14250.525
2258.03893	14237.625
2260.93041	14185.325
2263.82004	14195.325
2266.70783	14157.125
2269.59378	14063.725
2272.4779	14076.925
2275.36017	14021.725
2278.24061	13979.325
2281.11922	14029.125
2283.996	13974.325
2286.87094	13965.225
2289.74405	13948.825
2292.61534	13907.725
2295.4848	13932.525
2298.35243	13943.425
2301.21824	13938.325
2304.08223	13955.525
2306.94439	13966.225
2309.80474	13975.725
2312.66327	13966.025
2315.51999	13982.125
2318.37489	14009.625
2321.22797	13973.425
2324.07925	13990.425
2326.92871	13959.825
2329.77637	13967.825
2332.62222	13923.125
2335.46626	13911.925
2338.3085	13926.525
2341.14893	13928.425
2343.98756	13961.125
2346.8244	14010.625
2349.65943	14009.025
2352.49267	13962.625
2355.32411	14007.825
2358.15376	14004.825
2360.98161	13974.325
2363.80768	13966.725
2366.63195	13956.725
2369.45444	13929.225
2372.27514	13908.325
2375.09405	13894.125
2377.91118	13857.125
2380.72652	13797.125
2383.54009	13769.925
2386.35187	13727.725
2389.16188	13657.225
2391.97011	13663.325
2394.77657	13614.325
2397.58125	13629.425
2400.38416	13585.625
2403.18529	13560.225
2405.98466	13530.725
2408.78226	13485.625
2411.57809	13507.125
2414.37216	13492.225
2417.16446	13426.525
2419.955	13399.925
2422.74378	13409.825
2425.5308	13379.125
2428.31606	13401.725
2431.09956	13392.325
2433.88131	13381.025
2436.6613	13381.325
2439.43954	13416.525
2442.21603	13387.825
2444.99077	13359.325
2447.76377	13348.925
2450.53501	13361.525
2453.30451	13357.325
2456.07226	13364.725
2458.83827	13338.425
2461.60254	13408.325
2464.36507	13355.525
2467.12586	13319.225
2469.88492	13313.725
2472.64224	13361.725
2475.39782	13369.725
2478.15167	13397.425
2480.90379	13418.425
2483.65417	13432.425
2486.40283	13434.425
2489.14976	13448.825
2491.89497	13448.825
2494.63845	13469.525
2497.3802	13478.725
2500.12024	13471.325
2502.85855	13459.825
2505.59514	13426.825
2508.33002	13401.325
2511.06318	13373.025
2513.79462	13375.525
2516.52435	13356.925
2519.25237	13325.125
2521.97867	13278.325
2524.70327	13296.425
2527.42616	13286.725
2530.14734	13304.425
2532.86681	13275.925
2535.58458	13299.925
2538.30065	13285.125
2541.01501	13281.125
2543.72768	13290.225
2546.43864	13284.525
2549.14791	13245.825
2551.85548	13242.725
2554.56136	13242.125
2557.26554	13221.425
2559.96803	13218.425
2562.66883	13175.525
2565.36794	13144.025
2568.06536	13151.525
2570.7611	13153.925
2573.45514	13117.325
2576.14751	13147.225
2578.83819	13142.025
2581.52719	13110.525
2584.21451	13149.925
2586.90015	13129.825
2589.58411	13128.425
2592.2664	13154.325
2594.94701	13108.625
2597.62594	13123.425
2600.30321	13101.625
2602.9788	13106.625
2605.65273	13107.225
2608.32498	13123.425
2610.99557	13098.925
2613.66449	13153.425
2616.33175	13129.025
2618.99734	13122.225
2621.66128	13140.925
2624.32355	13134.325
2626.98416	13126.425
2629.64311	13128.225
2632.30041	13111.825
2634.95605	13107.525
2637.61004	13055.825
2640.26238	13044.025
2642.91306	13071.825
2645.56209	13028.825
2648.20948	13030.125
2650.85521	13005.525
2653.4993	13024.025
2656.14175	12970.525
2658.78255	12987.225
2661.42171	13011.925
2664.05923	13026.825
2666.6951	13056.025
2669.32934	13084.425
2671.96194	13075.025
2674.59291	13089.125
2677.22224	13085.525
2679.84993	13093.325
2682.476	13082.325
2685.10043	13092.725
2687.72324	13049.925
2690.34441	13055.825
2692.96396	13062.525
2695.58188	13051.025
2698.19818	13025.025
2700.81285	13024.925
2703.4259	13027.025
2706.03733	13024.925
2708.64714	13022.325
2711.25533	13035.825
2713.86191	13050.525
2716.46687	13053.925
2719.07021	13062.025
2721.67194	13094.825
2724.27206	13078.725
2726.87057	13064.925
2729.46747	13068.525
2732.06276	13094.425
2734.65644	13114.625
2737.24852	13103.825
2739.83899	13058.225
2742.42786	13074.525
2745.01513	13042.725
2747.60079	13072.025
2750.18486	13064.325
2752.76733	13043.725
2755.3482	13055.625
2757.92747	13046.325
2760.50515	12990.725
2763.08123	13021.125
2765.65573	12973.325
2768.22863	13003.025
2770.79994	12998.625
2773.36967	12972.625
2775.9378	12961.125
2778.50435	12955.925
2781.06932	12996.525
2783.6327	13004.825
2786.1945	12996.725
2788.75471	12975.925
2791.31335	12964.525
2793.87041	12957.625
2796.42589	12909.825
2798.97979	12907.625
2801.53212	12893.325
2804.08288	12885.525
2806.63206	12831.725
2809.17967	12820.125
2811.72571	12798.125
2814.27018	12799.825
2816.81308	12778.625
2819.35442	12805.625
2821.89419	12772.125
2824.43239	12787.725
2826.96904	12778.225
2829.50412	12813.325
2832.03763	12754.225
2834.56959	12766.325
2837.1	12761.625
2839.62884	12789.225
2842.15613	12782.125
2844.68186	12847.525
2847.20604	12852.225
2849.72867	12881.025
2852.24974	12903.725
2854.76927	12894.225
2857.28724	12853.225
2859.80367	12811.425
2862.31855	12809.025
2864.83189	12787.725
2867.34368	12791.425
2869.85393	12809.325
2872.36264	12764.925
2874.8698	12756.525
2877.37543	12749.325
2879.87952	12742.025
2882.38207	12757.525
2884.88308	12744.125
2887.38256	12717.725
2889.88051	12756.025
2892.37692	12751.825
2894.8718	12729.925
2897.36515	12778.025
2899.85698	12764.225
2902.34727	12810.225
2904.83604	12804.425
2907.32328	12834.625
2909.809	12814.525
2912.29319	12840.825
2914.77587	12825.225
2917.25702	12801.625
2919.73665	12779.325
2922.21476	12782.425
2924.69136	12753.425
2927.16644	12764.425
2929.64	12719.925
2932.11205	12731.525
2934.58258	12663.225
2937.05161	12672.125
2939.51912	12667.425
2941.98513	12657.625
2944.44962	12613.625
2946.91261	12562.825
2949.37409	12546.625
2951.83407	12547.525
2954.29254	12561.125
2956.74951	12533.625
2959.20498	12509.725
2961.65895	12496.825
2964.11142	12492.825
2966.56239	12485.725
2969.01186	12453.825
2971.45984	12440.325
2973.90632	12380.925
2976.35131	12327.325
2978.7948	12325.025
2981.23681	12278.925
2983.67732	12286.225
2986.11635	12236.025
2988.55388	12232.325
2990.98993	12194.425
2993.4245	12164.025
2995.85758	12141.025
2998.28917	12106.025
3000.71928	12095.225
3003.14791	12076.025
3005.57506	12067.525
3008.00073	12012.625
3010.42493	11938.125
3012.84764	11963.725
3015.26888	11966.425
3017.68865	11918.825
3020.10694	11906.425
3022.52376	11862.925
3024.9391	11877.825
3027.35298	11847.025
3029.76539	11840.425
3032.17632	11820.025
3034.5858	11817.725
3036.9938	11809.325
3039.40034	11796.625
3041.80542	11788.925
3044.20903	11753.525
3046.61118	11782.425
3049.01187	11755.825
3051.4111	11722.225
3053.80888	11686.025
3056.20519	11691.325
3058.60005	11643.125
3060.99345	11627.425
3063.3854	11563.325
3065.7759	11547.925
3068.16494	11498.125
3070.55254	11463.125
3072.93868	11463.325
3075.32338	11421.625
3077.70662	11392.425
3080.08842	11356.425
3082.46878	11352.325
3084.84769	11331.025
3087.22515	11312.025
3089.60118	11291.925
3091.97576	11279.925
3094.3489	11281.725
3096.72061	11285.325
3099.09087	11277.625
3101.4597	11248.725
3103.82709	11267.825
3106.19305	11244.625
3108.55757	11235.925
3110.92066	11219.125
3113.28232	11211.925
3115.64255	11169.625
3118.00134	11129.325
3120.35871	11127.825
3122.71466	11121.225
3125.06917	11105.025
3127.42226	11067.425
