Data from AgNP_FTO_APTES_UA_10uM_CRN_2uM_R6G_10uM_NaF_0.1M_Addition_RamanShift__18__14-17-50-600.txt Node

Date: Thu Feb 10 14:17:50 GMT 2022
User: TCL
Spectrometer: QEP01345
Trigger mode: 4
Integration Time (sec): 7.000000E0
Scans to average: 10
Electric dark correction enabled: true
Nonlinearity correction enabled: false
Boxcar width: 0
XAxis mode: Raman Shifts
Number of Pixels in Spectrum: 1044
>>>>>Begin Spectral Data<<<<<
46.04893	0.8
50.45542	0.1
54.85868	-2
59.25871	-1.6
63.6555	69.2
68.04907	71.1
72.43941	77.5
76.82654	76.2
81.21044	80.7
85.59113	81.5
89.96862	86.6
94.34289	91.5
98.71396	89.5
103.08183	97.1
107.4465	99.7
111.80798	93.9
116.16626	103.7
120.52136	103.3
124.87327	112.4
129.222	117.8
133.56755	129.8
137.90993	136.1
142.24913	144.7
146.58517	163.9
150.91804	193.4
155.24774	230
159.57429	283.6
163.89768	364.8
168.21792	491.2
172.53501	670.8
176.84895	931.6
181.15975	1313.5
185.46741	1840.8
189.77193	2542.7
194.07331	3400.2
198.37157	4365.4
202.6667	5389.6
206.9587	6403.2
211.24758	7405.5
215.53334	8417.5
219.81599	9507
224.09553	10672.5
228.37195	11979.6
232.64527	13459.3
236.91549	14988.2
241.18261	16463.5
245.44663	17836.7
249.70755	19046.5
253.96539	20099.2
258.22014	21018.6
262.4718	21798.9
266.72039	22346.8
270.96589	22650.7
275.20832	22730.2
279.44768	22607.6
283.68397	22397.9
287.91719	22233
292.14735	22135.6
296.37445	22220
300.59849	22353.5
304.81948	22511.2
309.03742	22499.6
313.25231	22187.1
317.46415	21623.4
321.67296	20846.9
325.87872	20207.3
330.08145	19876.1
334.28114	19877.4
338.47781	20006.7
342.67145	20303.8
346.86207	20699.6
351.04966	21149.7
355.23424	21659.5
359.4158	22098.8
363.59435	22363.1
367.76989	22510.1
371.94243	22658
376.11196	22724.9
380.27849	22799.5
384.44203	22883.5
388.60257	23002.2
392.76012	23177.6
396.91468	23452
401.06626	23804.2
405.21485	24047.1
409.36047	23868.2
413.50311	23392.1
417.64277	22942.6
421.77947	22843.8
425.9132	22894.4
430.04396	22989.7
434.17176	23060.1
438.2966	23256.8
442.41849	23622.6
446.53742	24279.5
450.6534	24944.5
454.76644	25446.5
458.87653	25628.6
462.98368	25557.5
467.08789	25304.8
471.18916	24944.5
475.2875	24636.7
479.38291	24498.4
483.4754	24359.6
487.56496	24015.9
491.6516	23596.6
495.73531	23219.8
499.81612	23065.5
503.89401	23151.8
507.96899	23194.1
512.04106	23156.6
516.11023	23130.5
520.1765	22999.3
524.23987	22813.5
528.30034	22573.1
532.35792	22334.7
536.41261	22064.8
540.46441	21755.9
544.51333	21737.4
548.55936	22059.4
552.60252	22629.4
556.64279	23240.7
560.6802	23608
564.71473	23830.1
568.7464	24195.8
572.7752	24791.7
576.80114	25253
580.82422	25497.1
584.84444	25783.3
588.86181	26067.7
592.87633	26305.5
596.888	26402
600.89682	26392
604.9028	27294.2
608.90594	30108.4
612.90624	33127
616.90371	30976.4
620.89834	25368.7
624.89015	23028.7
628.87913	22805.9
632.86528	22873.7
636.84862	22711.3
640.82913	22254.7
644.80683	21596.4
648.78172	21127.7
652.75379	21023.3
656.72306	21304.8
660.68952	21694.9
664.65319	21580.3
668.61405	21111.7
672.57211	20927.2
676.52738	20955.7
680.47986	20973.6
684.42955	20799
688.37646	20727.1
692.32058	20845
696.26192	21113.7
700.20048	21350
704.13626	21552.6
708.06928	21489
711.99952	21315.7
715.927	21227.9
719.85171	21224.9
723.77365	21209.3
727.69284	20978
731.60928	20745.9
735.52295	20673.3
739.43388	20672.9
743.34206	20774.1
747.24749	20823.7
751.15017	21022.9
755.05012	21420.5
758.94733	22137.9
762.8418	23473.4
766.73354	25650.9
770.62254	27600.9
774.50882	28081
778.39237	26676.8
782.27321	24448.4
786.15132	22625
790.02671	21544.2
793.89938	20975.7
797.76935	20759.7
801.6366	20728
805.50115	20617.8
809.36299	20476.7
813.22213	20276.2
817.07857	20187.4
820.93231	20154.4
824.78336	20048.9
828.63172	19975.4
832.47738	19952.7
836.32036	19949.3
840.16066	20081.7
843.99827	20133.8
847.8332	20100.5
851.66546	19962.5
855.49504	19951
859.32195	19980.8
863.1462	19841.9
866.96777	19777.2
870.78668	19741.5
874.60293	19728.9
878.41652	19766
882.22745	19772.6
886.03573	19855.8
889.84136	19808.5
893.64433	19766.6
897.44466	19701.2
901.24235	19631.6
905.0374	19557.5
908.8298	19473.3
912.61957	19484.7
916.40671	19698.8
920.19121	19944.7
923.97308	20214.6
927.75233	20309
931.52895	20267.7
935.30295	20002.8
939.07433	19573.2
942.84309	19152.8
946.60924	18996.9
950.37278	18921.8
954.13371	18864.4
957.89203	18798.3
961.64774	18729.6
965.40086	18676.7
969.15137	18645.3
972.89929	18554.8
976.64461	18487.6
980.38733	18487.7
984.12747	18609.3
987.86502	18792.8
991.59999	19035.6
995.33237	19455.6
999.06217	20130.7
1002.78939	20836.3
1006.51404	21189.4
1010.23611	21353.6
1013.95561	21537.2
1017.67255	21546
1021.38692	21311.6
1025.09872	21046.3
1028.80796	21183.8
1032.51465	21811.3
1036.21877	22427.3
1039.92035	22536.4
1043.61937	22168.1
1047.31584	21603.8
1051.00976	21003.2
1054.70114	20793.4
1058.38998	20799.7
1062.07627	20916.1
1065.76003	20995.3
1069.44126	21107.4
1073.11995	21324.7
1076.79611	21618.3
1080.46974	21880.1
1084.14085	22113.4
1087.80943	22403
1091.47549	22578.8
1095.13903	22536
1098.80005	22177.5
1102.45857	21746.1
1106.11456	21346.3
1109.76805	21292.5
1113.41903	21351.8
1117.06751	21550.5
1120.71348	21773.2
1124.35696	22109.1
1127.99793	22450.5
1131.63641	22593.8
1135.2724	22417.2
1138.90589	22161.9
1142.5369	21973.6
1146.16542	21952.3
1149.79145	22033.9
1153.415	22193.5
1157.03607	22544.1
1160.65467	23171.7
1164.27079	24262.4
1167.88443	25676.4
1171.49561	27563
1175.10432	29909.7
1178.71056	32950.8
1182.31434	35753.7
1185.91565	37229.5
1189.51451	37173.1
1193.11091	35833.7
1196.70485	34001.4
1200.29634	32176.6
1203.88538	30787.3
1207.47197	29705.9
1211.05612	28916.2
1214.63782	28281.6
1218.21708	27861.2
1221.79391	27643.9
1225.36829	27579.2
1228.94024	27261.1
1232.50976	26694.8
1236.07685	26161.8
1239.6415	25948.8
1243.20374	25856.5
1246.76355	26022.3
1250.32093	26444
1253.8759	27082.6
1257.42845	27890.4
1260.97859	28795.5
1264.52631	29727.8
1268.07163	30701.4
1271.61453	31683.8
1275.15503	32690
1278.69312	33743.7
1282.22882	34624.4
1285.76211	35411.7
1289.29301	36213.5
1292.82151	37384.9
1296.34761	38999.8
1299.87133	41235.5
1303.39266	43998.2
1306.9116	47153.4
1310.42815	50297.3
1313.94233	52362.3
1317.45412	52426.2
1320.96354	51194.9
1324.47058	49774.2
1327.97525	48527.2
1331.47754	47639.7
1334.97747	47170.7
1338.47502	47125.8
1341.97022	47085.8
1345.46305	46852.1
1348.95352	46258
1352.44163	45825.5
1355.92738	46331.2
1359.41078	48257.8
1362.89183	50164.5
1366.37053	48919.8
1369.84688	44441.9
1373.32088	39365
1376.79254	36044.5
1380.26186	34652.9
1383.72883	34393.8
1387.19347	34271
1390.65578	34054.3
1394.11575	33993.3
1397.57339	34376.4
1401.0287	34969.4
1404.48168	35511.5
1407.93234	35634.3
1411.38068	35070.1
1414.82669	34031.9
1418.27039	32648.2
1421.71177	31258.3
1425.15083	30114.9
1428.58758	29485.3
1432.02203	29612.7
1435.45416	30267.8
1438.88399	31145.9
1442.31151	31843.2
1445.73673	32443.8
1449.15965	32952.9
1452.58027	33358.5
1455.9986	33603.5
1459.41463	34000.8
1462.82837	34569.9
1466.23982	35273
1469.64898	35909.3
1473.05586	36141.4
1476.46045	36026.8
1479.86276	35683
1483.26279	35202.1
1486.66054	34956.4
1490.05602	35051.1
1493.44922	35293.1
1496.84016	35861.3
1500.22882	36942.9
1503.61521	38568.4
1506.99934	40634.3
1510.38121	42328.5
1513.76081	42726.3
1517.13816	41456.8
1520.51324	39201.1
1523.88607	37140.8
1527.25665	35794
1530.62498	35199.7
1533.99105	34874.4
1537.35488	34598.3
1540.71647	34211.8
1544.07581	33626.9
1547.4329	32991.1
1550.78776	32450.5
1554.14038	32105.5
1557.49077	31914.6
1560.83892	31814.8
1564.18484	31842.6
1567.52853	31972.2
1570.86999	32155.5
1574.20922	32596.8
1577.54624	32942.4
1580.88103	32776
1584.2136	32672.9
1587.54395	33332.3
1590.87208	34792.7
1594.19801	37013.5
1597.52172	39410.7
1600.84321	40210.8
1604.16251	38579
1607.47959	35639.3
1610.79447	32485.7
1614.10715	29495.2
1617.41763	27011.9
1620.7259	25293
1624.03199	24404.5
1627.33587	24303.3
1630.63757	25141
1633.93707	26913.6
1637.23439	29766.9
1640.52951	33637
1643.82246	37817.3
1647.11321	41053
1650.40179	41642.1
1653.68819	38720.5
1656.97241	33469.7
1660.25446	28289.9
1663.53433	24395.4
1666.81203	21952.1
1670.08756	20425.7
1673.36092	19436.6
1676.63211	18779
1679.90115	18378.9
1683.16801	18010.9
1686.43272	17798.6
1689.69527	17605
1692.95567	17438.8
1696.2139	17339.4
1699.46999	17276.7
1702.72392	17205.5
1705.97571	17154
1709.22535	17131.8
1712.47284	17086.6
1715.71819	17045.8
1718.96139	16987.7
1722.20246	16927.4
1725.44139	16826
1728.67818	16706
1731.91284	16589.8
1735.14537	16482.2
1738.37576	16408.1
1741.60403	16363.1
1744.83017	16282.1
1748.05418	16218.1
1751.27607	16188
1754.49584	16190
1757.71349	16169.9
1760.92903	16112.9
1764.14244	16131.5
1767.35375	16112.1
1770.56294	16054.3
1773.77002	16021.5
1776.97499	15974.5
1780.17785	15930
1783.37861	15916.1
1786.57727	15908.5
1789.77382	15844.5
1792.96828	15836
1796.16064	15775.7
1799.3509	15746.8
1802.53907	15737.9
1805.72514	15672.7
1808.90913	15639
1812.09102	15612.4
1815.27083	15576.9
1818.44856	15550.3
1821.6242	15517.4
1824.79776	15478.1
1827.96924	15499.1
1831.13864	15475.6
1834.30597	15469.5
1837.47122	15446.1
1840.6344	15441.5
1843.7955	15516.9
1846.95454	15467.2
1850.11151	15487.4
1853.26642	15449.3
1856.41926	15456.7
1859.57004	15471.1
1862.71876	15436.4
1865.86542	15423.9
1869.01003	15412.3
1872.15258	15404
1875.29308	15384.6
1878.43152	15358.9
1881.56792	15352.1
1884.70227	15333.2
1887.83457	15341.5
1890.96482	15307.8
1894.09304	15285
1897.21921	15252.7
1900.34335	15223.2
1903.46544	15222.4
1906.58551	15194.5
1909.70353	15200.3
1912.81953	15180.5
1915.93349	15151.4
1919.04543	15113.6
1922.15534	15071.5
1925.26322	15009.5
1928.36908	15016.6
1931.47292	14994.9
1934.57473	14943.1
1937.67453	14872.7
1940.77232	14837.8
1943.86808	14781
1946.96184	14711.3
1950.05358	14679.7
1953.14331	14634.1
1956.23103	14549.5
1959.31675	14509.2
1962.40046	14491.7
1965.48217	14452.2
1968.56188	14417.1
1971.63959	14364.8
1974.7153	14345
1977.78901	14284.6
1980.86073	14253.6
1983.93046	14207.6
1986.99819	14149.4
1990.06394	14106.7
1993.1277	14091.6
1996.18947	14018.2
1999.24925	13979
2002.30706	13939.6
2005.36288	13876.9
2008.41672	13854.5
2011.46859	13782.6
2014.51848	13769.2
2017.56639	13761.4
2020.61233	13673.7
2023.6563	13695.7
2026.6983	13634.7
2029.73833	13628.4
2032.7764	13620.7
2035.8125	13597
2038.84664	13537
2041.87881	13536
2044.90903	13534
2047.93729	13482
2050.96359	13483.8
2053.98794	13473.8
2057.01034	13455.5
2060.03078	13445
2063.04927	13425
2066.06582	13387.7
2069.08042	13412.2
2072.09307	13394.5
2075.10378	13397.7
2078.11255	13374.3
2081.11938	13345.9
2084.12426	13348.7
2087.12722	13332.5
2090.12824	13328.6
2093.12732	13313
2096.12447	13318.2
2099.11969	13312.7
2102.11299	13332.9
2105.10435	13308.3
2108.09379	13339.7
2111.08131	13312.4
2114.0669	13332.3
2117.05057	13333.2
2120.03233	13380.7
2123.01216	13395
2125.99008	13371.7
2128.96609	13375.5
2131.94018	13390.3
2134.91236	13405.9
2137.88263	13408.3
2140.851	13414.5
2143.81746	13437.6
2146.78201	13436.9
2149.74466	13430.4
2152.7054	13412.3
2155.66425	13418.7
2158.6212	13407.9
2161.57625	13400.8
2164.52941	13396.8
2167.48067	13394.1
2170.43004	13373.7
2173.37752	13372.3
2176.32311	13379.5
2179.26681	13357.9
2182.20863	13371.7
2185.14856	13382.7
2188.08661	13377.7
2191.02278	13363.4
2193.95707	13385.7
2196.88948	13363.3
2199.82001	13393.3
2202.74867	13344.9
2205.67545	13354.1
2208.60037	13326.7
2211.52341	13336.5
2214.44458	13322.8
2217.36388	13326.9
2220.28132	13270.8
2223.1969	13234.1
2226.11061	13245.9
2229.02246	13217.9
2231.93245	13159.6
2234.84058	13128.2
2237.74686	13112.4
2240.65128	13143.9
2243.55385	13090.8
2246.45456	13043.6
2249.35343	13038.4
2252.25044	13040.2
2255.14561	13022.3
2258.03893	13034.9
2260.93041	12972.6
2263.82004	12948.9
2266.70783	12907.8
2269.59378	12840.6
2272.4779	12820.6
2275.36017	12794.8
2278.24061	12781
2281.11922	12754
2283.996	12775.2
2286.87094	12730.4
2289.74405	12729
2292.61534	12721.4
2295.4848	12698.2
2298.35243	12737.2
2301.21824	12710.6
2304.08223	12720.4
2306.94439	12711.5
2309.80474	12734.5
2312.66327	12743.9
2315.51999	12701.3
2318.37489	12748.5
2321.22797	12730.8
2324.07925	12699.2
2326.92871	12681.1
2329.77637	12687.8
2332.62222	12683.2
2335.46626	12660.7
2338.3085	12680.3
2341.14893	12687.7
2343.98756	12735.3
2346.8244	12737.7
2349.65943	12705.7
2352.49267	12705.9
2355.32411	12716
2358.15376	12704.8
2360.98161	12695.3
2363.80768	12679
2366.63195	12682.8
2369.45444	12643.5
2372.27514	12593.6
2375.09405	12603.3
2377.91118	12583.7
2380.72652	12494.1
2383.54009	12478.4
2386.35187	12457.6
2389.16188	12415.3
2391.97011	12394.2
2394.77657	12373.6
2397.58125	12369.8
2400.38416	12355.7
2403.18529	12330.7
2405.98466	12316.9
2408.78226	12282.7
2411.57809	12270.3
2414.37216	12240.7
2417.16446	12245.6
2419.955	12206.6
2422.74378	12197.4
2425.5308	12173.4
2428.31606	12197.7
2431.09956	12236.8
2433.88131	12181.5
2436.6613	12205.9
2439.43954	12188
2442.21603	12201.2
2444.99077	12177.7
2447.76377	12180.6
2450.53501	12134.2
2453.30451	12149.4
2456.07226	12152.5
2458.83827	12155.1
2461.60254	12158.6
2464.36507	12129.6
2467.12586	12134.1
2469.88492	12138
2472.64224	12165.7
2475.39782	12153.3
2478.15167	12185.5
2480.90379	12191.6
2483.65417	12217.7
2486.40283	12243.8
2489.14976	12230.5
2491.89497	12225
2494.63845	12240
2497.3802	12245.3
2500.12024	12230
2502.85855	12200.4
2505.59514	12178.4
2508.33002	12167.5
2511.06318	12165.3
2513.79462	12148.5
2516.52435	12108.9
2519.25237	12141.3
2521.97867	12128.3
2524.70327	12103
2527.42616	12110.3
2530.14734	12108.9
2532.86681	12079.5
2535.58458	12102.1
2538.30065	12106.7
2541.01501	12098.4
2543.72768	12071.2
2546.43864	12083.3
2549.14791	12050.7
2551.85548	12071.4
2554.56136	12014.2
2557.26554	12028.6
2559.96803	12028.7
2562.66883	12005.4
2565.36794	11984.2
2568.06536	11968.4
2570.7611	11977.7
2573.45514	11945.2
2576.14751	11935.9
2578.83819	11942.8
2581.52719	11972.8
2584.21451	11931.8
2586.90015	11939.9
2589.58411	11935
2592.2664	11943.4
2594.94701	11925.1
2597.62594	11896.2
2600.30321	11881.2
2602.9788	11898
2605.65273	11904.9
2608.32498	11919.4
2610.99557	11889.2
2613.66449	11897.2
2616.33175	11899.6
2618.99734	11898.9
2621.66128	11928.4
2624.32355	11883.1
2626.98416	11894.4
2629.64311	11895.6
2632.30041	11900.4
2634.95605	11884.5
2637.61004	11886.4
2640.26238	11850.3
2642.91306	11846.1
2645.56209	11844.8
2648.20948	11837.2
2650.85521	11804.6
2653.4993	11837.4
2656.14175	11825.4
2658.78255	11815.6
2661.42171	11839.7
2664.05923	11864.4
2666.6951	11868.2
2669.32934	11874.7
2671.96194	11886.2
2674.59291	11870
2677.22224	11868.5
2679.84993	11855.1
2682.476	11872
2685.10043	11854.6
2687.72324	11812
2690.34441	11807.2
2692.96396	11817.2
2695.58188	11810.8
2698.19818	11823.5
2700.81285	11845.9
2703.4259	11806.9
2706.03733	11828.8
2708.64714	11798.3
2711.25533	11858.3
2713.86191	11838.4
2716.46687	11835
2719.07021	11868.5
2721.67194	11882.1
2724.27206	11888.3
2726.87057	11891.9
2729.46747	11873.3
2732.06276	11888.7
2734.65644	11866.4
2737.24852	11857.4
2739.83899	11857.1
2742.42786	11875.7
2745.01513	11846.9
2747.60079	11835.5
2750.18486	11814.5
2752.76733	11786.2
2755.3482	11807
2757.92747	11803
2760.50515	11790
2763.08123	11798.6
2765.65573	11769.7
2768.22863	11803.2
2770.79994	11782.8
2773.36967	11769.7
2775.9378	11781
2778.50435	11773.9
2781.06932	11787.7
2783.6327	11818.2
2786.1945	11812.6
2788.75471	11801.2
2791.31335	11774.6
2793.87041	11744.3
2796.42589	11720.7
2798.97979	11719.8
2801.53212	11698.8
2804.08288	11700.1
2806.63206	11666.3
2809.17967	11641.5
2811.72571	11639
2814.27018	11631.8
2816.81308	11601.7
2819.35442	11580.1
2821.89419	11552.9
2824.43239	11556.3
2826.96904	11522.7
2829.50412	11531.9
2832.03763	11521
2834.56959	11493.3
2837.1	11516.2
2839.62884	11525.5
2842.15613	11525.3
2844.68186	11527.6
2847.20604	11545.2
2849.72867	11536.2
2852.24974	11529.8
2854.76927	11509.6
2857.28724	11497.2
2859.80367	11458.2
2862.31855	11460.2
2864.83189	11461.9
2867.34368	11456.9
2869.85393	11475.8
2872.36264	11463.7
2874.8698	11454.3
2877.37543	11438.9
2879.87952	11456.7
2882.38207	11460.9
2884.88308	11440.8
2887.38256	11442
2889.88051	11421.1
2892.37692	11457.5
2894.8718	11444.8
2897.36515	11470.6
2899.85698	11468.7
2902.34727	11494.8
2904.83604	11526.5
2907.32328	11530.6
2909.809	11552.9
2912.29319	11569.7
2914.77587	11544.3
2917.25702	11512.3
2919.73665	11502.5
2922.21476	11526.5
2924.69136	11518
2927.16644	11527.7
2929.64	11484.1
2932.11205	11461
2934.58258	11455
2937.05161	11464
2939.51912	11461.4
2941.98513	11400.3
2944.44962	11375.6
2946.91261	11359.1
2949.37409	11389.7
2951.83407	11356.7
2954.29254	11331.3
2956.74951	11314.7
2959.20498	11357.4
2961.65895	11309.9
2964.11142	11311.9
2966.56239	11313.3
2969.01186	11290.3
2971.45984	11269.1
2973.90632	11277.1
2976.35131	11218.8
2978.7948	11205.8
2981.23681	11205.4
2983.67732	11144.7
2986.11635	11125.8
2988.55388	11087.3
2990.98993	11067
2993.4245	11053.2
2995.85758	11031.8
2998.28917	11016.1
3000.71928	11004.5
3003.14791	10976.9
3005.57506	10946.6
3008.00073	10945.9
3010.42493	10784.7
3012.84764	10868.4
3015.26888	10871.7
3017.68865	10858.6
3020.10694	10826.5
3022.52376	10800.1
3024.9391	10803.3
3027.35298	10814.4
3029.76539	10802.1
3032.17632	10803.3
3034.5858	10761.6
3036.9938	10772.6
3039.40034	10778.5
3041.80542	10767.8
3044.20903	10740.9
3046.61118	10743.1
3049.01187	10713.1
3051.4111	10710.1
3053.80888	10674
3056.20519	10660.7
3058.60005	10648.1
3060.99345	10637.6
3063.3854	10600.2
3065.7759	10572.4
3068.16494	10532.2
3070.55254	10524.1
3072.93868	10492.1
3075.32338	10467.6
3077.70662	10443.6
3080.08842	10420.4
3082.46878	10428.3
3084.84769	10405.2
3087.22515	10387.9
3089.60118	10381.9
3091.97576	10373.9
3094.3489	10367.6
3096.72061	10387.5
3099.09087	10379.2
3101.4597	10377.4
3103.82709	10359.3
3106.19305	10337.7
3108.55757	10369.6
3110.92066	10319.2
3113.28232	10303.9
3115.64255	10280.5
3118.00134	10247.6
3120.35871	10245.3
3122.71466	10219
3125.06917	10216.3
3127.42226	10199.8
3129.77393	10189
3132.12417	10172.5
3134.47299	10165.5
3136.82039	10162.9
3139.16636	10162.6
3141.51092	10172.4
3143.85406	10169.9
3146.19579	10158.3
3148.53609	10163.8
3150.87499	10161.8
3153.21246	10184.1
3155.54853	10184.8
3157.88318	10178.8
3160.21642	10191.1
3162.54826	10171.8
3164.87868	10189.7
3167.2077	10192.1
3169.5353	10197.3
3171.86151	10187.8
3174.18631	10191
3176.5097	10187.7
3178.83169	10178.1
3181.15228	10175.4
3183.47147	10146
3185.78926	10151.4
3188.10565	10108.9
3190.42065	10097.3
3192.73424	10123.9
3195.04645	10121.1
3197.35725	10114.4
3199.66667	10101
3201.97469	10138.4
3204.28132	10127.1
3206.58656	10149.7
3208.8904	10147
3211.19287	10154.7
3213.49394	10165.7
3215.79363	10136.6
3218.09193	10165.7
3220.38884	10162.6
3222.68438	10153.5
3224.97853	10138.7
3227.2713	10142.1
3229.56269	10123.5
3231.8527	10134.9
3234.14133	10105.5
3236.42858	10108.6
3238.71446	10090.5
3240.99896	10033.7
3243.28209	10066.8
3245.56384	10054.4
3247.84423	10037.3
3250.12324	10005.6
3252.40088	10017.5
3254.67715	10007.3
3256.95205	9972.9
3259.22558	9964.2
3261.49775	9954.2
3263.76855	9953.8
3266.03799	9949.3
3268.30606	9942.1
3270.57277	9923.9
3272.83812	9914.9
3275.10211	9851.4
3277.36474	9892.6
3279.62601	9854.1
3281.88593	9867.5
3284.14448	9878.3
3286.40168	9864.4
3288.65753	9851.7
3290.91202	9874.8
3293.16516	9852.2
3295.41695	9808.9
3297.66738	9791.8
3299.91647	9742.2
3302.16421	9646.1
3304.4106	9622.8
3306.65564	9564.1
3308.89933	9463.1
3311.14169	9406.1
3313.38269	9349
3315.62236	9293.2
3317.86068	9230
3320.09766	9129.6
3322.3333	9076.4
3324.5676	9021.8
3326.80056	8882.6
3329.03219	8830.8
3331.26248	4.5
3333.49143	-0.7
3335.71905	-0.4
