Data from AgNP_FTO_APTES_UA_10uM_CRN_0uM_R6G_10uM_NaF_0.1M_Addition_RamanShift__35__12-49-10-485.txt Node

Date: Thu Feb 10 12:49:10 GMT 2022
User: TCL
Spectrometer: QEP01345
Trigger mode: 4
Integration Time (sec): 7.000000E0
Scans to average: 10
Electric dark correction enabled: true
Nonlinearity correction enabled: false
Boxcar width: 0
XAxis mode: Raman Shifts
Number of Pixels in Spectrum: 1044
>>>>>Begin Spectral Data<<<<<
46.04893	-0.3
50.45542	-1.7
54.85868	-2.7
59.25871	-1.2
63.6555	76.4
68.04907	81.9
72.43941	83.9
76.82654	83.8
81.21044	92.3
85.59113	91.3
89.96862	95.8
94.34289	101.9
98.71396	97.6
103.08183	104.9
107.4465	107.7
111.80798	106
116.16626	110.4
120.52136	117
124.87327	119.7
129.222	127.8
133.56755	135.6
137.90993	149
142.24913	153.7
146.58517	174
150.91804	207
155.24774	243.5
159.57429	302.6
163.89768	379.6
168.21792	510.7
172.53501	692.2
176.84895	967.6
181.15975	1359.6
185.46741	1915.6
189.77193	2652.7
194.07331	3530.2
198.37157	4551.4
202.6667	5635.5
206.9587	6679
211.24758	7729.2
215.53334	8817.8
219.81599	9926.9
224.09553	11221.1
228.37195	12604.8
232.64527	14094.7
236.91549	15680.4
241.18261	17242.8
245.44663	18656.9
249.70755	19872.5
253.96539	20994.3
258.22014	21895.3
262.4718	22649.7
266.72039	23239.2
270.96589	23470.6
275.20832	23441.6
279.44768	23253.6
283.68397	22926.5
287.91719	22633
292.14735	22433.7
296.37445	22389.9
300.59849	22499.7
304.81948	22713.7
309.03742	22867.2
313.25231	22883.6
317.46415	22636.9
321.67296	22313.3
325.87872	22033.9
330.08145	21947.9
334.28114	21976.7
338.47781	22185.6
342.67145	22484.1
346.86207	22929.7
351.04966	23397.8
355.23424	23909.5
359.4158	24295.3
363.59435	24598.5
367.76989	24824.6
371.94243	24970.3
376.11196	25097.8
380.27849	25264.8
384.44203	25416.9
388.60257	25649.6
392.76012	25793.2
396.91468	26047.9
401.06626	26380.9
405.21485	26674.3
409.36047	26621.6
413.50311	26398.9
417.64277	26324.4
421.77947	26413.4
425.9132	26589.2
430.04396	26804
434.17176	26996.1
438.2966	27330.6
442.41849	27931.2
446.53742	29083.5
450.6534	30275.7
454.76644	30994.2
458.87653	30909.5
462.98368	30371.5
467.08789	29558.1
471.18916	28769.1
475.2875	27977.3
479.38291	27352.7
483.4754	26965.5
487.56496	26670.3
491.6516	26473.7
495.73531	26333.6
499.81612	26364.1
503.89401	26588.3
507.96899	26653.4
512.04106	26546
516.11023	26425.5
520.1765	26337.7
524.23987	26390.8
528.30034	26453.9
532.35792	26315.5
536.41261	25961
540.46441	25506.3
544.51333	25320.7
548.55936	25392
552.60252	25869.5
556.64279	26585.2
560.6802	27104.4
564.71473	27215.9
568.7464	27359.5
572.7752	27826.1
576.80114	28355
580.82422	29114.3
584.84444	30501.7
588.86181	32569.1
592.87633	34819.5
596.888	35609.1
600.89682	33880.1
604.9028	32856.7
608.90594	34685.4
612.90624	37236.4
616.90371	35321.5
620.89834	30177.8
624.89015	27829.8
628.87913	27424.8
632.86528	27235.6
636.84862	26773.8
640.82913	26146.4
644.80683	25471.3
648.78172	25086.1
652.75379	25163.5
656.72306	25600.2
660.68952	26203.7
664.65319	26122.2
668.61405	25677.2
672.57211	25633.6
676.52738	25763.1
680.47986	25672.8
684.42955	25415.2
688.37646	25381.8
692.32058	25630.7
696.26192	26099.8
700.20048	26593.4
704.13626	26772.4
708.06928	26506.8
711.99952	26260.8
715.927	26303
719.85171	26496.1
723.77365	26438.5
727.69284	25990.1
731.60928	25598.6
735.52295	25562.5
739.43388	25643.5
743.34206	25805.8
747.24749	25911.1
751.15017	26133
755.05012	26503.8
758.94733	27099.7
762.8418	28131.6
766.73354	29823.9
770.62254	31473.5
774.50882	31996.3
778.39237	31064.6
782.27321	29335.9
786.15132	27793.6
790.02671	26797.9
793.89938	26387.1
797.76935	26261.8
801.6366	26242.3
805.50115	26193.8
809.36299	26063.2
813.22213	25840
817.07857	25687.6
820.93231	25572
824.78336	25566.3
828.63172	25584.7
832.47738	25669.1
836.32036	25832.6
840.16066	26049.3
843.99827	26180.7
847.8332	26142
851.66546	25998.3
855.49504	25940.6
859.32195	25947.7
863.1462	25833.1
866.96777	25662.5
870.78668	25554.3
874.60293	25606.4
878.41652	25625.9
882.22745	25770.6
886.03573	25891.5
889.84136	25832.3
893.64433	25711.3
897.44466	25532.8
901.24235	25404.5
905.0374	25353
908.8298	25365.5
912.61957	25398.1
916.40671	25630.5
920.19121	25990.4
923.97308	26438.5
927.75233	26735.1
931.52895	26808.3
935.30295	26512.2
939.07433	26015.7
942.84309	25712.2
946.60924	25680.3
950.37278	25663
954.13371	25563.3
957.89203	25404.2
961.64774	25251.2
965.40086	25256.6
969.15137	25264.6
972.89929	25262.9
976.64461	25355.3
980.38733	25548.3
984.12747	25732.4
987.86502	26076.7
991.59999	26502.2
995.33237	27148.6
999.06217	28207
1002.78939	29470.2
1006.51404	30220.4
1010.23611	30649.9
1013.95561	30866
1017.67255	30717.7
1021.38692	30312.6
1025.09872	29967.9
1028.80796	30446.6
1032.51465	31935.5
1036.21877	33339.8
1039.92035	33510.8
1043.61937	32801.1
1047.31584	31545.2
1051.00976	30134.6
1054.70114	29367.4
1058.38998	28994.2
1062.07627	28793.6
1065.76003	28730.3
1069.44126	28813
1073.11995	29164.2
1076.79611	29660.6
1080.46974	30065.5
1084.14085	30387.2
1087.80943	30664.8
1091.47549	30719.9
1095.13903	30450.7
1098.80005	29917.5
1102.45857	29433.3
1106.11456	29185.9
1109.76805	29149
1113.41903	29181.6
1117.06751	29290.4
1120.71348	29423.9
1124.35696	29647.8
1127.99793	29895.8
1131.63641	30012.7
1135.2724	29935
1138.90589	29769.2
1142.5369	29728.8
1146.16542	29779.9
1149.79145	29894.8
1153.415	30006.9
1157.03607	30193.1
1160.65467	30824.3
1164.27079	32015.4
1167.88443	33640.3
1171.49561	35546.1
1175.10432	38121.7
1178.71056	41512.5
1182.31434	44850.5
1185.91565	46451.3
1189.51451	45943.5
1193.11091	44015.5
1196.70485	41960.5
1200.29634	40275.5
1203.88538	39214.4
1207.47197	38580.8
1211.05612	37854.6
1214.63782	37183.9
1218.21708	36850.2
1221.79391	36808.5
1225.36829	36815.8
1228.94024	36336.8
1232.50976	35353
1236.07685	34270.1
1239.6415	33610.8
1243.20374	33539.8
1246.76355	33921.7
1250.32093	34677.4
1253.8759	35598.2
1257.42845	36730.6
1260.97859	37906
1264.52631	39180.7
1268.07163	40573.2
1271.61453	42060
1275.15503	43501.5
1278.69312	44809.2
1282.22882	45911.8
1285.76211	46973.2
1289.29301	48150.3
1292.82151	49874.5
1296.34761	52201.1
1299.87133	55569.2
1303.39266	59674.4
1306.9116	64033.9
1310.42815	67692.3
1313.94233	69450
1317.45412	68258
1320.96354	65139.5
1324.47058	61827
1327.97525	59144.5
1331.47754	57275.4
1334.97747	56183.6
1338.47502	55252.3
1341.97022	53989.4
1345.46305	52606.4
1348.95352	52077.7
1352.44163	53488
1355.92738	56880.7
1359.41078	61469.8
1362.89183	64805
1366.37053	63833
1369.84688	58429.4
1373.32088	51387
1376.79254	46611.1
1380.26186	44808.9
1383.72883	44506.4
1387.19347	44120.4
1390.65578	43438.9
1394.11575	43137.9
1397.57339	43571.5
1401.0287	44193.9
1404.48168	44725.3
1407.93234	44928.2
1411.38068	44603.4
1414.82669	43945.5
1418.27039	42773.8
1421.71177	41519
1425.15083	40245.1
1428.58758	39756
1432.02203	40360.3
1435.45416	41621.3
1438.88399	42762
1442.31151	43406.1
1445.73673	43641
1449.15965	43576.4
1452.58027	43194.3
1455.9986	42686.6
1459.41463	42598.4
1462.82837	43336.1
1466.23982	44474.3
1469.64898	45638.9
1473.05586	46453.1
1476.46045	46812.4
1479.86276	46800.9
1483.26279	46473.5
1486.66054	46283.7
1490.05602	46547.8
1493.44922	46736.4
1496.84016	46662
1500.22882	46611.3
1503.61521	46971.1
1506.99934	47782.1
1510.38121	48614.3
1513.76081	48822.7
1517.13816	47827.6
1520.51324	46097.4
1523.88607	44667.2
1527.25665	44108.6
1530.62498	44102.9
1533.99105	44164.4
1537.35488	43903.1
1540.71647	43357.6
1544.07581	42675
1547.4329	41947.3
1550.78776	41176.2
1554.14038	40483.4
1557.49077	39909.1
1560.83892	39504
1564.18484	39254.5
1567.52853	39312.4
1570.86999	39543.7
1574.20922	40033.5
1577.54624	40474.9
1580.88103	40622.3
1584.2136	41198.9
1587.54395	43031.1
1590.87208	46272.5
1594.19801	50454.4
1597.52172	54447.6
1600.84321	55872.2
1604.16251	53396.6
1607.47959	48329.4
1610.79447	42727.7
1614.10715	38030.1
1617.41763	35028
1620.7259	33384.9
1624.03199	32793.5
1627.33587	33238.4
1630.63757	34454.5
1633.93707	36620.5
1637.23439	40030.4
1640.52951	44968.8
1643.82246	50956.5
1647.11321	55490.4
1650.40179	55435.2
1653.68819	50356.8
1656.97241	42978.7
1660.25446	36676.6
1663.53433	32578.5
1666.81203	30196.9
1670.08756	28753.1
1673.36092	27876.7
1676.63211	27313.3
1679.90115	26913
1683.16801	26537.8
1686.43272	26356.3
1689.69527	26217.6
1692.95567	26077
1696.2139	25985.3
1699.46999	25987.1
1702.72392	25936.5
1705.97571	25884.8
1709.22535	25837.8
1712.47284	25844.7
1715.71819	25860.7
1718.96139	25794
1722.20246	25698.2
1725.44139	25625.1
1728.67818	25496.7
1731.91284	25382.3
1735.14537	25320
1738.37576	25182.9
1741.60403	25156.6
1744.83017	25098.8
1748.05418	25051.1
1751.27607	25002.7
1754.49584	24932.5
1757.71349	24945.3
1760.92903	24938.8
1764.14244	24918.1
1767.35375	24943.2
1770.56294	24903.5
1773.77002	24880.6
1776.97499	24836.1
1780.17785	24847.4
1783.37861	24820.8
1786.57727	24802.1
1789.77382	24753.4
1792.96828	24732.5
1796.16064	24729.2
1799.3509	24642.2
1802.53907	24659.7
1805.72514	24604.4
1808.90913	24520.1
1812.09102	24485.5
1815.27083	24479.1
1818.44856	24426.5
1821.6242	24377.6
1824.79776	24362.2
1827.96924	24317.2
1831.13864	24331.6
1834.30597	24373
1837.47122	24345.4
1840.6344	24309
1843.7955	24354.4
1846.95454	24353.2
1850.11151	24338.2
1853.26642	24287.4
1856.41926	24351.7
1859.57004	24388
1862.71876	24327.9
1865.86542	24337.5
1869.01003	24344.8
1872.15258	24309.5
1875.29308	24297.5
1878.43152	24275.1
1881.56792	24285.4
1884.70227	24322.6
1887.83457	24329.4
1890.96482	24287.1
1894.09304	24225.8
1897.21921	24256.8
1900.34335	24224.9
1903.46544	24203.7
1906.58551	24211.3
1909.70353	24188.6
1912.81953	24202
1915.93349	24179.6
1919.04543	24125
1922.15534	24030
1925.26322	24039.5
1928.36908	24017.9
1931.47292	24003
1934.57473	23955.9
1937.67453	23897.2
1940.77232	23849.6
1943.86808	23764.8
1946.96184	23719.9
1950.05358	23657.4
1953.14331	23628.4
1956.23103	23561.1
1959.31675	23502.1
1962.40046	23472.6
1965.48217	23386.4
1968.56188	23356.7
1971.63959	23247.4
1974.7153	23241.8
1977.78901	23155.3
1980.86073	23076.7
1983.93046	22989
1986.99819	23008.4
1990.06394	22935.9
1993.1277	22894
1996.18947	22801.9
1999.24925	22754.7
2002.30706	22708.7
2005.36288	22673.3
2008.41672	22605.5
2011.46859	22571.5
2014.51848	22511.7
2017.56639	22509.2
2020.61233	22467.8
2023.6563	22440.1
2026.6983	22412.7
2029.73833	22382.5
2032.7764	22296.2
2035.8125	22326.6
2038.84664	22273.4
2041.87881	22268.2
2044.90903	22264.7
2047.93729	22204.3
2050.96359	22216.1
2053.98794	22180
2057.01034	22173
2060.03078	22142.8
2063.04927	22167.3
2066.06582	22157
2069.08042	22111.5
2072.09307	22143.8
2075.10378	22136.4
2078.11255	22137.4
2081.11938	22099.1
2084.12426	22077.9
2087.12722	22090.6
2090.12824	22109.5
2093.12732	22101.6
2096.12447	22128.9
2099.11969	22115.8
2102.11299	22123.2
2105.10435	22103.5
2108.09379	22133.9
2111.08131	22150.8
2114.0669	22182.5
2117.05057	22227.6
2120.03233	22250.7
2123.01216	22268.5
2125.99008	22285.3
2128.96609	22304.5
2131.94018	22335
2134.91236	22371.1
2137.88263	22381.3
2140.851	22409.8
2143.81746	22423
2146.78201	22448.7
2149.74466	22429.6
2152.7054	22464.9
2155.66425	22469.6
2158.6212	22483.4
2161.57625	22464.3
2164.52941	22472.4
2167.48067	22491.1
2170.43004	22493.6
2173.37752	22476.5
2176.32311	22485.1
2179.26681	22531.4
2182.20863	22512.4
2185.14856	22548.9
2188.08661	22556.2
2191.02278	22588.9
2193.95707	22616.3
2196.88948	22598.3
2199.82001	22578.5
2202.74867	22563.6
2205.67545	22557.6
2208.60037	22608.3
2211.52341	22555.5
2214.44458	22598.9
2217.36388	22549.4
2220.28132	22534.8
2223.1969	22457.3
2226.11061	22456.2
2229.02246	22434.5
2231.93245	22448.7
2234.84058	22380.2
2237.74686	22367.2
2240.65128	22377.6
2243.55385	22289.8
2246.45456	22241.6
2249.35343	22237.3
2252.25044	22207.9
2255.14561	22186.2
2258.03893	22153.5
2260.93041	22093.2
2263.82004	22041.9
2266.70783	22021
2269.59378	21941.7
2272.4779	21882.8
2275.36017	21842.7
2278.24061	21909.4
2281.11922	21854.4
2283.996	21861.2
2286.87094	21863.6
2289.74405	21833.5
2292.61534	21843.9
2295.4848	21879
2298.35243	21918.7
2301.21824	21937.3
2304.08223	21941.5
2306.94439	21956.5
2309.80474	21996.9
2312.66327	21999.6
2315.51999	22029.3
2318.37489	22005.2
2321.22797	21980.6
2324.07925	21977.8
2326.92871	21953.2
2329.77637	21943.1
2332.62222	21947.5
2335.46626	21957.4
2338.3085	21968
2341.14893	22012.3
2343.98756	22016.5
2346.8244	22042.6
2349.65943	21997
2352.49267	21977.5
2355.32411	21992.5
2358.15376	21966.1
2360.98161	21991.9
2363.80768	21894.6
2366.63195	21864.3
2369.45444	21844.6
2372.27514	21783.1
2375.09405	21763.4
2377.91118	21698.5
2380.72652	21686.9
2383.54009	21645.2
2386.35187	21692.9
2389.16188	21612.6
2391.97011	21638.4
2394.77657	21548.2
2397.58125	21538
2400.38416	21546.3
2403.18529	21518.2
2405.98466	21514.5
2408.78226	21412.4
2411.57809	21400.4
2414.37216	21354.1
2417.16446	21342.6
2419.955	21294.2
2422.74378	21333.8
2425.5308	21325.1
2428.31606	21319.3
2431.09956	21333
2433.88131	21291.7
2436.6613	21330.2
2439.43954	21320.8
2442.21603	21315.4
2444.99077	21257.8
2447.76377	21277.2
2450.53501	21274.4
2453.30451	21275.4
2456.07226	21249.9
2458.83827	21257.4
2461.60254	21290.7
2464.36507	21308.8
2467.12586	21278.8
2469.88492	21305.2
2472.64224	21349.2
2475.39782	21341.4
2478.15167	21388.1
2480.90379	21392.4
2483.65417	21387.7
2486.40283	21400.9
2489.14976	21423
2491.89497	21445.2
2494.63845	21467.3
2497.3802	21420.9
2500.12024	21411.2
2502.85855	21419.2
2505.59514	21447
2508.33002	21446.2
2511.06318	21422.9
2513.79462	21368.6
2516.52435	21382.5
2519.25237	21402.8
2521.97867	21387.6
2524.70327	21371.7
2527.42616	21339.3
2530.14734	21360.8
2532.86681	21331.9
2535.58458	21360.2
2538.30065	21320.1
2541.01501	21362.5
2543.72768	21359.4
2546.43864	21333.3
2549.14791	21341.2
2551.85548	21383.4
2554.56136	21346
2557.26554	21293.2
2559.96803	21277.6
2562.66883	21306.2
2565.36794	21300.3
2568.06536	21266.4
2570.7611	21275.3
2573.45514	21266.8
2576.14751	21269.5
2578.83819	21241.5
2581.52719	21257.2
2584.21451	21266.8
2586.90015	21261.4
2589.58411	21254.2
2592.2664	21210.9
2594.94701	21232.9
2597.62594	21248
2600.30321	21182.6
2602.9788	21187.4
2605.65273	21150.7
2608.32498	21180
2610.99557	21193.7
2613.66449	21211.4
2616.33175	21191.6
2618.99734	21214.7
2621.66128	21171
2624.32355	21187.3
2626.98416	21172.5
2629.64311	21149.8
2632.30041	21172.5
2634.95605	21115.9
2637.61004	21097.4
2640.26238	21100.8
2642.91306	21094.5
2645.56209	21090.3
2648.20948	21024.1
2650.85521	21069.8
2653.4993	21093.4
2656.14175	21038.9
2658.78255	21098.8
2661.42171	21078.4
2664.05923	21139.5
2666.6951	21187.2
2669.32934	21181.1
2671.96194	21188.6
2674.59291	21216.9
2677.22224	21174.3
2679.84993	21173.7
2682.476	21117
2685.10043	21127.2
2687.72324	21080.6
2690.34441	21093.5
2692.96396	21087
2695.58188	21096.8
2698.19818	21066.2
2700.81285	21081.1
2703.4259	21085.5
2706.03733	21097.8
2708.64714	21077.8
2711.25533	21118.4
2713.86191	21120.3
2716.46687	21180.9
2719.07021	21196.9
2721.67194	21258.3
2724.27206	21262.8
2726.87057	21303.5
2729.46747	21294.8
2732.06276	21364.1
2734.65644	21344.9
2737.24852	21332.4
2739.83899	21290.7
2742.42786	21323.6
2745.01513	21273.8
2747.60079	21280.8
2750.18486	21279.7
2752.76733	21271.4
2755.3482	21241
2757.92747	21242.9
2760.50515	21231.6
2763.08123	21200.4
2765.65573	21198.8
2768.22863	21232.2
2770.79994	21201.7
2773.36967	21194.6
2775.9378	21171.9
2778.50435	21185
2781.06932	21174
2783.6327	21190.4
2786.1945	21170.7
2788.75471	21168.2
2791.31335	21157.8
2793.87041	21174.2
2796.42589	21106
2798.97979	21099.3
2801.53212	21101.3
2804.08288	21035.9
2806.63206	21043.6
2809.17967	20975.8
2811.72571	20941
2814.27018	20911.4
2816.81308	20857.9
2819.35442	20838.2
2821.89419	20793.9
2824.43239	20839.4
2826.96904	20791.4
2829.50412	20811.2
2832.03763	20784.6
2834.56959	20844.8
2837.1	20796.3
2839.62884	20823.7
2842.15613	20788.6
2844.68186	20818.8
2847.20604	20816.7
2849.72867	20846.9
2852.24974	20814.8
2854.76927	20860.5
2857.28724	20783.5
2859.80367	20777.6
2862.31855	20711.2
2864.83189	20721
2867.34368	20710.2
2869.85393	20763.5
2872.36264	20708.5
2874.8698	20725
2877.37543	20692.7
2879.87952	20774.7
2882.38207	20814.5
2884.88308	20755
2887.38256	20838.5
2889.88051	20829.5
2892.37692	20860.1
2894.8718	20884.3
2897.36515	20904.5
2899.85698	20887.7
2902.34727	20978.7
2904.83604	20967.8
2907.32328	21039.1
2909.809	20999.1
2912.29319	20999.4
2914.77587	20988.2
2917.25702	20961.1
2919.73665	20977.5
2922.21476	20977.3
2924.69136	20940.9
2927.16644	20972.6
2929.64	20938.1
2932.11205	20881.5
2934.58258	20782.7
2937.05161	20859.2
2939.51912	20873.7
2941.98513	20816.5
2944.44962	20819
2946.91261	20785.3
2949.37409	20754.2
2951.83407	20822.8
2954.29254	20796
2956.74951	20761.9
2959.20498	20766.2
2961.65895	20769.1
2964.11142	20778.7
2966.56239	20732.4
2969.01186	20692.6
2971.45984	20669.1
2973.90632	20633.1
2976.35131	20612.8
2978.7948	20633.7
2981.23681	20552.1
2983.67732	20489.1
2986.11635	20455.6
2988.55388	20409.3
2990.98993	20361
2993.4245	20343.9
2995.85758	20316.3
2998.28917	20288.2
3000.71928	20280.4
3003.14791	20240.4
3005.57506	20199.1
3008.00073	20180.9
3010.42493	20184.9
3012.84764	20112.4
3015.26888	20085.8
3017.68865	20031.7
3020.10694	20011.6
3022.52376	19997.7
3024.9391	20011.5
3027.35298	20015.5
3029.76539	19995.6
3032.17632	19969.4
3034.5858	19984.8
3036.9938	19996.2
3039.40034	19984.9
3041.80542	19976.3
3044.20903	19920.6
3046.61118	19929.2
3049.01187	19890
3051.4111	19902.8
3053.80888	19853.2
3056.20519	19839.2
3058.60005	19827.9
3060.99345	19739.8
3063.3854	19756.9
3065.7759	19701
3068.16494	19649.4
3070.55254	19641.2
3072.93868	19613.8
3075.32338	19554.4
3077.70662	19557
3080.08842	19512.2
3082.46878	19492
3084.84769	19453.2
3087.22515	19431.3
3089.60118	19461.7
3091.97576	19456.3
3094.3489	19428.6
3096.72061	19488.8
3099.09087	19458.4
3101.4597	19430.8
3103.82709	19400.2
3106.19305	19383.6
3108.55757	19379.8
3110.92066	19311.7
3113.28232	19297
3115.64255	19303.4
3118.00134	19273.9
3120.35871	19262.3
3122.71466	19213.4
3125.06917	19213.7
3127.42226	19205.1
3129.77393	19215.7
3132.12417	19158.6
3134.47299	19160.3
3136.82039	19170
3139.16636	19164.4
3141.51092	19122.8
3143.85406	19164
3146.19579	19142.2
3148.53609	19109.2
3150.87499	19150.3
3153.21246	19124.6
3155.54853	19178.8
3157.88318	19098.1
3160.21642	19139.8
3162.54826	19167.1
3164.87868	19200.9
3167.2077	19205.1
3169.5353	19235.2
3171.86151	19209.3
3174.18631	19185.4
3176.5097	19163.9
3178.83169	19122
3181.15228	19147.5
3183.47147	19123
3185.78926	19104.1
3188.10565	19108.9
3190.42065	19086.2
3192.73424	19100.4
3195.04645	19096.5
3197.35725	19068.9
3199.66667	19043.9
3201.97469	19036.5
3204.28132	19053
3206.58656	19074.2
3208.8904	19070.2
3211.19287	19099.4
3213.49394	19114.7
3215.79363	19109.8
3218.09193	19108.5
3220.38884	19114.6
3222.68438	19090.4
3224.97853	19130.4
3227.2713	19152.3
3229.56269	19131.9
3231.8527	19112
3234.14133	19069.9
3236.42858	18987.9
3238.71446	19032.9
3240.99896	18970.6
3243.28209	18963.6
3245.56384	18961.6
3247.84423	18954
3250.12324	18946.9
3252.40088	18931.1
3254.67715	18887.9
3256.95205	18870.4
3259.22558	18880.4
3261.49775	18858.6
3263.76855	18887.3
3266.03799	18852.2
3268.30606	18821.3
3270.57277	18784.5
3272.83812	18749.9
3275.10211	18679.2
3277.36474	18658.2
3279.62601	18671.1
3281.88593	18681.9
3284.14448	18662.9
3286.40168	18687.2
3288.65753	18664.2
3290.91202	18687.8
3293.16516	18652.1
3295.41695	18632.5
3297.66738	18556.3
3299.91647	18441.5
3302.16421	18331.3
3304.4106	18240.4
3306.65564	18137.8
3308.89933	18056.5
3311.14169	17949.5
3313.38269	17810.8
3315.62236	17700.2
3317.86068	17528
3320.09766	17403.1
3322.3333	17293.4
3324.5676	17237.8
3326.80056	16941.6
3329.03219	16872
3331.26248	5.7
3333.49143	0.2
3335.71905	-0.7
