Data from AgNP_FTO_APTES_UA_10uM_CRN_10uM_R6G_10uM_NaF_0.1M_Addition_RamanShift__19__15-46-30-709.txt Node

Date: Thu Feb 10 15:46:30 GMT 2022
User: TCL
Spectrometer: QEP01345
Trigger mode: 4
Integration Time (sec): 7.000000E0
Scans to average: 10
Electric dark correction enabled: true
Nonlinearity correction enabled: false
Boxcar width: 0
XAxis mode: Raman Shifts
Number of Pixels in Spectrum: 1044
>>>>>Begin Spectral Data<<<<<
46.04893	1.075
50.45542	-1.025
54.85868	-2.325
59.25871	-0.325
63.6555	70.575
68.04907	70.275
72.43941	78.475
76.82654	75.475
81.21044	84.275
85.59113	85.375
89.96862	85.075
94.34289	90.575
98.71396	91.975
103.08183	97.475
107.4465	100.375
111.80798	97.375
116.16626	103.075
120.52136	106.575
124.87327	112.875
129.222	118.575
133.56755	130.675
137.90993	136.775
142.24913	147.875
146.58517	163.375
150.91804	193.075
155.24774	229.175
159.57429	288.875
163.89768	362.775
168.21792	484.375
172.53501	666.475
176.84895	924.675
181.15975	1302.475
185.46741	1809.175
189.77193	2515.675
194.07331	3357.175
198.37157	4313.975
202.6667	5317.675
206.9587	6297.275
211.24758	7277.475
215.53334	8286.475
219.81599	9293.875
224.09553	10409.975
228.37195	11692.175
232.64527	13094.975
236.91549	14567.775
241.18261	16023.375
245.44663	17378.275
249.70755	18598.175
253.96539	19695.675
258.22014	20645.575
262.4718	21436.575
266.72039	22046.975
270.96589	22366.475
275.20832	22486.875
279.44768	22465.075
283.68397	22335.275
287.91719	22249.675
292.14735	22189.975
296.37445	22219.175
300.59849	22279.075
304.81948	22266.375
309.03742	22093.875
313.25231	21790.175
317.46415	21256.975
321.67296	20641.575
325.87872	20130.775
330.08145	19921.575
334.28114	19890.775
338.47781	20012.075
342.67145	20248.375
346.86207	20617.075
351.04966	20971.475
355.23424	21355.775
359.4158	21708.975
363.59435	21944.075
367.76989	22115.775
371.94243	22283.275
376.11196	22401.675
380.27849	22503.675
384.44203	22590.475
388.60257	22827.275
392.76012	22987.175
396.91468	23273.175
401.06626	23599.475
405.21485	23835.275
409.36047	23736.375
413.50311	23384.875
417.64277	23168.575
421.77947	23151.475
425.9132	23270.075
430.04396	23455.975
434.17176	23576.975
438.2966	23768.975
442.41849	24182.575
446.53742	24804.075
450.6534	25527.075
454.76644	26154.275
458.87653	26401.275
462.98368	26355.675
467.08789	26094.775
471.18916	25740.275
475.2875	25468.775
479.38291	25377.075
483.4754	25189.575
487.56496	24809.075
491.6516	24295.875
495.73531	23888.175
499.81612	23652.975
503.89401	23781.275
507.96899	23863.675
512.04106	23790.875
516.11023	23600.775
520.1765	23334.775
524.23987	23111.275
528.30034	22852.475
532.35792	22641.675
536.41261	22383.475
540.46441	22162.875
544.51333	22216.675
548.55936	22568.675
552.60252	23142.975
556.64279	23703.475
560.6802	24128.375
564.71473	24337.375
568.7464	24744.375
572.7752	25366.075
576.80114	25907.675
580.82422	26311.675
584.84444	26578.375
588.86181	26890.175
592.87633	27134.275
596.888	27203.475
600.89682	27122.975
604.9028	27816.875
608.90594	29852.575
612.90624	31650.275
616.90371	29400.475
620.89834	25016.175
624.89015	23256.875
628.87913	23118.775
632.86528	23206.675
636.84862	23015.475
640.82913	22619.475
644.80683	22063.875
648.78172	21592.275
652.75379	21504.275
656.72306	21684.375
660.68952	22054.175
664.65319	21872.875
668.61405	21574.875
672.57211	21479.175
676.52738	21538.575
680.47986	21498.175
684.42955	21398.075
688.37646	21379.575
692.32058	21488.675
696.26192	21706.375
700.20048	21989.975
704.13626	22135.775
708.06928	22090.975
711.99952	21934.075
715.927	21873.075
719.85171	21917.875
723.77365	21825.875
727.69284	21602.975
731.60928	21356.675
735.52295	21258.175
739.43388	21253.375
743.34206	21337.475
747.24749	21495.475
751.15017	21718.275
755.05012	22118.175
758.94733	22838.475
762.8418	23997.875
766.73354	25722.975
770.62254	27282.875
774.50882	27394.375
778.39237	26007.575
782.27321	24094.675
786.15132	22685.975
790.02671	21841.675
793.89938	21454.175
797.76935	21265.475
801.6366	21216.075
805.50115	21170.075
809.36299	20992.975
813.22213	20844.875
817.07857	20786.175
820.93231	20685.175
824.78336	20596.675
828.63172	20501.675
832.47738	20494.775
836.32036	20510.275
840.16066	20602.075
843.99827	20685.175
847.8332	20637.275
851.66546	20499.475
855.49504	20480.975
859.32195	20497.275
863.1462	20401.075
866.96777	20285.775
870.78668	20252.775
874.60293	20260.075
878.41652	20247.775
882.22745	20301.675
886.03573	20346.575
889.84136	20343.175
893.64433	20237.475
897.44466	20120.675
901.24235	20114.375
905.0374	20013.875
908.8298	20029.975
912.61957	20083.475
916.40671	20292.275
920.19121	20608.675
923.97308	20837.475
927.75233	20829.775
931.52895	20660.775
935.30295	20369.975
939.07433	20008.475
942.84309	19701.175
946.60924	19587.475
950.37278	19572.175
954.13371	19539.975
957.89203	19449.875
961.64774	19390.575
965.40086	19346.275
969.15137	19299.075
972.89929	19192.275
976.64461	19125.175
980.38733	19129.775
984.12747	19193.775
987.86502	19376.475
991.59999	19635.875
995.33237	20061.975
999.06217	20685.175
1002.78939	21409.075
1006.51404	21844.075
1010.23611	22066.175
1013.95561	22255.075
1017.67255	22238.175
1021.38692	21983.575
1025.09872	21742.375
1028.80796	21856.275
1032.51465	22449.175
1036.21877	23005.975
1039.92035	23129.575
1043.61937	22787.875
1047.31584	22215.275
1051.00976	21676.075
1054.70114	21454.675
1058.38998	21487.875
1062.07627	21652.975
1065.76003	21791.375
1069.44126	21908.675
1073.11995	22131.075
1076.79611	22347.175
1080.46974	22539.575
1084.14085	22764.075
1087.80943	23029.175
1091.47549	23241.375
1095.13903	23255.175
1098.80005	22937.975
1102.45857	22508.475
1106.11456	22114.075
1109.76805	21973.575
1113.41903	22074.675
1117.06751	22179.875
1120.71348	22444.675
1124.35696	22614.475
1127.99793	22835.375
1131.63641	22947.375
1135.2724	22934.275
1138.90589	22839.575
1142.5369	22827.175
1146.16542	22915.975
1149.79145	23089.975
1153.415	23397.775
1157.03607	23828.675
1160.65467	24559.475
1164.27079	25711.275
1167.88443	27213.875
1171.49561	28974.675
1175.10432	31206.175
1178.71056	33942.175
1182.31434	36498.675
1185.91565	37957.475
1189.51451	38085.175
1193.11091	37114.675
1196.70485	35543.775
1200.29634	33925.275
1203.88538	32683.775
1207.47197	31871.375
1211.05612	31274.575
1214.63782	30638.575
1218.21708	30075.475
1221.79391	29657.775
1225.36829	29334.075
1228.94024	28946.575
1232.50976	28314.975
1236.07685	27861.675
1239.6415	27643.975
1243.20374	27615.975
1246.76355	27721.875
1250.32093	28212.375
1253.8759	28894.075
1257.42845	29770.375
1260.97859	30676.775
1264.52631	31519.575
1268.07163	32412.675
1271.61453	33503.275
1275.15503	34595.275
1278.69312	35745.475
1282.22882	36749.475
1285.76211	37595.275
1289.29301	38633.575
1292.82151	40036.175
1296.34761	41915.075
1299.87133	44328.975
1303.39266	47101.375
1306.9116	50044.975
1310.42815	52718.375
1313.94233	54389.975
1317.45412	54676.975
1320.96354	54106.075
1324.47058	53332.675
1327.97525	52700.075
1331.47754	52210.975
1334.97747	52167.575
1338.47502	52241.675
1341.97022	52186.575
1345.46305	51397.175
1348.95352	50179.575
1352.44163	48949.475
1355.92738	48584.075
1359.41078	49537.275
1362.89183	50421.275
1366.37053	49055.275
1369.84688	45389.475
1373.32088	41135.875
1376.79254	38312.175
1380.26186	37278.375
1383.72883	37379.275
1387.19347	37618.675
1390.65578	37531.875
1394.11575	37656.675
1397.57339	38288.875
1401.0287	39210.975
1404.48168	40005.675
1407.93234	40265.575
1411.38068	39669.175
1414.82669	38345.375
1418.27039	36515.775
1421.71177	34704.475
1425.15083	33287.175
1428.58758	32428.575
1432.02203	32526.675
1435.45416	33216.575
1438.88399	34371.175
1442.31151	35308.275
1445.73673	36072.375
1449.15965	36703.175
1452.58027	37180.175
1455.9986	37431.775
1459.41463	37812.175
1462.82837	38454.475
1466.23982	39165.175
1469.64898	39733.875
1473.05586	40056.075
1476.46045	39907.775
1479.86276	39342.975
1483.26279	38720.775
1486.66054	38229.575
1490.05602	38028.475
1493.44922	37981.775
1496.84016	38014.875
1500.22882	38355.375
1503.61521	39079.175
1506.99934	40102.575
1510.38121	41101.675
1513.76081	41347.675
1517.13816	40753.775
1520.51324	39592.475
1523.88607	38585.875
1527.25665	38100.075
1530.62498	38016.375
1533.99105	38073.175
1537.35488	38019.075
1540.71647	37684.775
1544.07581	36981.775
1547.4329	36170.775
1550.78776	35471.175
1554.14038	34946.375
1557.49077	34593.675
1560.83892	34322.375
1564.18484	34161.875
1567.52853	34120.375
1570.86999	34203.875
1574.20922	34659.775
1577.54624	35249.975
1580.88103	35544.675
1584.2136	36084.575
1587.54395	37276.675
1590.87208	39203.975
1594.19801	41639.475
1597.52172	44030.375
1600.84321	44747.975
1604.16251	42789.675
1607.47959	39380.575
1610.79447	35770.075
1614.10715	32495.575
1617.41763	29774.975
1620.7259	27830.175
1624.03199	26800.875
1627.33587	26732.975
1630.63757	27647.775
1633.93707	29617.875
1637.23439	32754.975
1640.52951	36895.075
1643.82246	41259.175
1647.11321	44072.075
1650.40179	43954.075
1653.68819	40490.275
1656.97241	35083.875
1660.25446	29937.875
1663.53433	26065.575
1666.81203	23532.375
1670.08756	21877.375
1673.36092	20892.775
1676.63211	20163.075
1679.90115	19680.575
1683.16801	19318.875
1686.43272	19038.175
1689.69527	18815.375
1692.95567	18664.575
1696.2139	18560.675
1699.46999	18506.175
1702.72392	18419.275
1705.97571	18336.575
1709.22535	18243.675
1712.47284	18179.975
1715.71819	18157.975
1718.96139	18081.675
1722.20246	18019.475
1725.44139	17893.575
1728.67818	17789.075
1731.91284	17640.975
1735.14537	17530.975
1738.37576	17491.575
1741.60403	17402.975
1744.83017	17326.575
1748.05418	17271.675
1751.27607	17277.175
1754.49584	17264.475
1757.71349	17223.175
1760.92903	17207.275
1764.14244	17185.275
1767.35375	17164.375
1770.56294	17156.975
1773.77002	17121.675
1776.97499	17040.175
1780.17785	17027.175
1783.37861	16977.875
1786.57727	16940.475
1789.77382	16904.775
1792.96828	16896.175
1796.16064	16852.375
1799.3509	16815.575
1802.53907	16779.775
1805.72514	16728.475
1808.90913	16707.375
1812.09102	16653.575
1815.27083	16605.175
1818.44856	16582.175
1821.6242	16560.575
1824.79776	16538.175
1827.96924	16551.075
1831.13864	16534.475
1834.30597	16530.675
1837.47122	16554.575
1840.6344	16542.675
1843.7955	16563.375
1846.95454	16541.275
1850.11151	16573.875
1853.26642	16585.975
1856.41926	16564.375
1859.57004	16547.075
1862.71876	16512.875
1865.86542	16478.275
1869.01003	16515.475
1872.15258	16486.875
1875.29308	16490.675
1878.43152	16495.375
1881.56792	16470.475
1884.70227	16452.175
1887.83457	16464.175
1890.96482	16437.675
1894.09304	16435.975
1897.21921	16411.275
1900.34335	16386.875
1903.46544	16377.575
1906.58551	16343.275
1909.70353	16340.475
1912.81953	16306.375
1915.93349	16306.575
1919.04543	16253.675
1922.15534	16227.275
1925.26322	16173.875
1928.36908	16122.275
1931.47292	16075.575
1934.57473	16010.575
1937.67453	15973.875
1940.77232	15929.675
1943.86808	15886.175
1946.96184	15817.275
1950.05358	15758.975
1953.14331	15690.675
1956.23103	15625.975
1959.31675	15616.075
1962.40046	15521.975
1965.48217	15514.975
1968.56188	15456.975
1971.63959	15386.075
1974.7153	15361.375
1977.78901	15313.375
1980.86073	15295.775
1983.93046	15223.475
1986.99819	15178.475
1990.06394	15125.675
1993.1277	15087.575
1996.18947	15041.475
1999.24925	15003.475
2002.30706	14951.475
2005.36288	14940.075
2008.41672	14862.175
2011.46859	14808.775
2014.51848	14797.375
2017.56639	14781.775
2020.61233	14734.175
2023.6563	14696.075
2026.6983	14644.175
2029.73833	14646.675
2032.7764	14637.175
2035.8125	14614.475
2038.84664	14557.775
2041.87881	14546.675
2044.90903	14484.475
2047.93729	14491.775
2050.96359	14497.375
2053.98794	14462.375
2057.01034	14453.475
2060.03078	14441.075
2063.04927	14424.975
2066.06582	14423.375
2069.08042	14413.175
2072.09307	14387.375
2075.10378	14382.675
2078.11255	14378.875
2081.11938	14329.375
2084.12426	14354.275
2087.12722	14335.175
2090.12824	14326.875
2093.12732	14350.675
2096.12447	14319.075
2099.11969	14305.575
2102.11299	14281.775
2105.10435	14291.175
2108.09379	14294.375
2111.08131	14320.675
2114.0669	14299.275
2117.05057	14289.875
2120.03233	14331.775
2123.01216	14387.875
2125.99008	14365.875
2128.96609	14405.475
2131.94018	14380.875
2134.91236	14410.375
2137.88263	14367.075
2140.851	14430.875
2143.81746	14423.175
2146.78201	14440.975
2149.74466	14452.675
2152.7054	14423.475
2155.66425	14441.775
2158.6212	14429.375
2161.57625	14426.075
2164.52941	14412.675
2167.48067	14393.575
2170.43004	14374.375
2173.37752	14364.175
2176.32311	14377.275
2179.26681	14394.875
2182.20863	14358.675
2185.14856	14408.575
2188.08661	14391.075
2191.02278	14387.975
2193.95707	14401.275
2196.88948	14366.975
2199.82001	14380.775
2202.74867	14361.175
2205.67545	14372.475
2208.60037	14360.775
2211.52341	14345.075
2214.44458	14341.775
2217.36388	14290.875
2220.28132	14297.375
2223.1969	14277.575
2226.11061	14247.275
2229.02246	14212.275
2231.93245	14146.975
2234.84058	14121.475
2237.74686	14126.775
2240.65128	14082.675
2243.55385	14056.575
2246.45456	14032.275
2249.35343	13995.775
2252.25044	14010.075
2255.14561	13999.275
2258.03893	13977.375
2260.93041	13931.975
2263.82004	13895.375
2266.70783	13878.275
2269.59378	13831.775
2272.4779	13757.375
2275.36017	13738.775
2278.24061	13711.275
2281.11922	13689.275
2283.996	13696.775
2286.87094	13681.975
2289.74405	13678.475
2292.61534	13684.975
2295.4848	13677.675
2298.35243	13660.375
2301.21824	13649.075
2304.08223	13669.475
2306.94439	13668.775
2309.80474	13690.375
2312.66327	13715.075
2315.51999	13696.875
2318.37489	13692.475
2321.22797	13714.375
2324.07925	13671.275
2326.92871	13661.975
2329.77637	13644.275
2332.62222	13626.175
2335.46626	13623.975
2338.3085	13645.375
2341.14893	13619.275
2343.98756	13676.275
2346.8244	13659.475
2349.65943	13648.675
2352.49267	13662.275
2355.32411	13658.875
2358.15376	13637.175
2360.98161	13658.675
2363.80768	13648.575
2366.63195	13633.575
2369.45444	13574.175
2372.27514	13565.675
2375.09405	13521.375
2377.91118	13504.175
2380.72652	13452.275
2383.54009	13428.575
2386.35187	13412.575
2389.16188	13378.475
2391.97011	13366.775
2394.77657	13332.475
2397.58125	13300.475
2400.38416	13303.475
2403.18529	13259.975
2405.98466	13240.775
2408.78226	13203.675
2411.57809	13235.075
2414.37216	13184.675
2417.16446	13189.375
2419.955	13149.575
2422.74378	13160.975
2425.5308	13113.875
2428.31606	13140.375
2431.09956	13127.375
2433.88131	13121.975
2436.6613	13135.875
2439.43954	13143.475
2442.21603	13119.175
2444.99077	13109.075
2447.76377	13140.375
2450.53501	13100.175
2453.30451	13112.575
2456.07226	13117.975
2458.83827	13094.875
2461.60254	13097.575
2464.36507	13113.575
2467.12586	13085.275
2469.88492	13082.675
2472.64224	13086.575
2475.39782	13125.375
2478.15167	13144.275
2480.90379	13152.275
2483.65417	13150.675
2486.40283	13187.275
2489.14976	13162.875
2491.89497	13201.275
2494.63845	13206.975
2497.3802	13161.575
2500.12024	13198.675
2502.85855	13208.675
2505.59514	13188.175
2508.33002	13166.475
2511.06318	13144.975
2513.79462	13129.075
2516.52435	13097.575
2519.25237	13108.475
2521.97867	13089.975
2524.70327	13106.975
2527.42616	13100.875
2530.14734	13082.375
2532.86681	13114.475
2535.58458	13112.475
2538.30065	13082.775
2541.01501	13124.075
2543.72768	13094.475
2546.43864	13093.075
2549.14791	13086.375
2551.85548	13089.375
2554.56136	13065.475
2557.26554	13036.175
2559.96803	13010.075
2562.66883	12994.775
2565.36794	12996.675
2568.06536	12992.975
2570.7611	12957.975
2573.45514	12974.775
2576.14751	12964.575
2578.83819	12968.075
2581.52719	12969.575
2584.21451	12944.175
2586.90015	12955.175
2589.58411	12963.475
2592.2664	12961.775
2594.94701	12971.875
2597.62594	12966.975
2600.30321	12943.075
2602.9788	12942.175
2605.65273	12930.775
2608.32498	12953.675
2610.99557	12965.075
2613.66449	12938.875
2616.33175	12962.675
2618.99734	12986.475
2621.66128	12982.775
2624.32355	12954.275
2626.98416	12991.675
2629.64311	12996.375
2632.30041	12998.375
2634.95605	12966.175
2637.61004	12981.075
2640.26238	12957.875
2642.91306	12919.975
2645.56209	12924.875
2648.20948	12905.775
2650.85521	12916.375
2653.4993	12907.775
2656.14175	12912.475
2658.78255	12940.075
2661.42171	12932.775
2664.05923	12958.075
2666.6951	12967.175
2669.32934	12989.875
2671.96194	12988.875
2674.59291	12993.075
2677.22224	12994.875
2679.84993	13003.675
2682.476	12954.775
2685.10043	12946.075
2687.72324	12918.675
2690.34441	12927.975
2692.96396	12947.875
2695.58188	12913.775
2698.19818	12900.875
2700.81285	12925.475
2703.4259	12921.475
2706.03733	12952.475
2708.64714	12950.375
2711.25533	12948.975
2713.86191	12909.175
2716.46687	12936.275
2719.07021	12960.875
2721.67194	12994.175
2724.27206	13002.475
2726.87057	12988.275
2729.46747	13002.475
2732.06276	13035.175
2734.65644	13019.075
2737.24852	13015.275
2739.83899	13012.275
2742.42786	13029.475
2745.01513	13005.475
2747.60079	13000.875
2750.18486	12994.275
2752.76733	12969.075
2755.3482	13001.375
2757.92747	12990.275
2760.50515	12947.875
2763.08123	12966.975
2765.65573	12933.275
2768.22863	12963.575
2770.79994	12957.475
2773.36967	12959.375
2775.9378	12978.275
2778.50435	12978.075
2781.06932	12972.775
2783.6327	13001.975
2786.1945	12969.775
2788.75471	12969.875
2791.31335	12948.275
2793.87041	12952.675
2796.42589	12908.975
2798.97979	12927.175
2801.53212	12911.775
2804.08288	12892.275
2806.63206	12846.675
2809.17967	12836.075
2811.72571	12802.475
2814.27018	12766.075
2816.81308	12760.875
2819.35442	12709.775
2821.89419	12709.075
2824.43239	12721.175
2826.96904	12701.175
2829.50412	12693.975
2832.03763	12657.375
2834.56959	12655.975
2837.1	12629.075
2839.62884	12648.175
2842.15613	12655.775
2844.68186	12647.975
2847.20604	12631.675
2849.72867	12641.975
2852.24974	12622.575
2854.76927	12623.475
2857.28724	12604.075
2859.80367	12598.775
2862.31855	12588.275
2864.83189	12559.675
2867.34368	12560.775
2869.85393	12531.275
2872.36264	12531.375
2874.8698	12546.875
2877.37543	12550.475
2879.87952	12532.375
2882.38207	12546.475
2884.88308	12565.875
2887.38256	12570.175
2889.88051	12559.875
2892.37692	12559.775
2894.8718	12588.575
2897.36515	12568.975
2899.85698	12609.775
2902.34727	12628.475
2904.83604	12668.675
2907.32328	12679.175
2909.809	12670.075
2912.29319	12673.175
2914.77587	12683.875
2917.25702	12661.675
2919.73665	12657.275
2922.21476	12665.575
2924.69136	12653.575
2927.16644	12643.475
2929.64	12625.575
2932.11205	12588.475
2934.58258	12539.675
2937.05161	12562.775
2939.51912	12569.675
2941.98513	12539.675
2944.44962	12514.775
2946.91261	12504.975
2949.37409	12515.175
2951.83407	12506.075
2954.29254	12473.975
2956.74951	12470.575
2959.20498	12482.775
2961.65895	12472.575
2964.11142	12479.375
2966.56239	12455.075
2969.01186	12442.575
2971.45984	12425.575
2973.90632	12395.175
2976.35131	12336.275
2978.7948	12357.975
2981.23681	12307.175
2983.67732	12280.875
2986.11635	12280.275
2988.55388	12216.475
2990.98993	12217.975
2993.4245	12165.675
2995.85758	12125.175
2998.28917	12087.775
3000.71928	12076.575
3003.14791	12074.875
3005.57506	12043.975
3008.00073	11983.675
3010.42493	11870.475
3012.84764	11937.675
3015.26888	11914.375
3017.68865	11896.575
3020.10694	11872.675
3022.52376	11878.475
3024.9391	11862.375
3027.35298	11862.075
3029.76539	11850.175
3032.17632	11868.775
3034.5858	11864.075
3036.9938	11852.475
3039.40034	11857.575
3041.80542	11858.175
3044.20903	11836.175
3046.61118	11848.475
3049.01187	11793.475
3051.4111	11797.875
3053.80888	11723.775
3056.20519	11733.075
3058.60005	11692.975
3060.99345	11688.075
3063.3854	11650.775
3065.7759	11599.375
3068.16494	11596.775
3070.55254	11557.375
3072.93868	11527.575
3075.32338	11486.175
3077.70662	11464.375
3080.08842	11445.575
3082.46878	11442.775
3084.84769	11419.175
3087.22515	11426.975
3089.60118	11410.875
3091.97576	11409.875
3094.3489	11394.575
3096.72061	11399.575
3099.09087	11430.075
3101.4597	11399.375
3103.82709	11395.075
3106.19305	11346.875
3108.55757	11348.275
3110.92066	11321.975
3113.28232	11322.875
3115.64255	11306.575
3118.00134	11296.075
3120.35871	11241.375
3122.71466	11210.275
3125.06917	11196.575
3127.42226	11158.575
