Data from AgNP_FTO_APTES_UA_10uM_CRN_1000uM_R6G_10uM_NaF_0.1M_Addition_RamanShift__26__19-51-31-011.txt Node

Date: Thu Feb 10 19:51:31 GMT 2022
User: TCL
Spectrometer: QEP01345
Trigger mode: 4
Integration Time (sec): 7.000000E0
Scans to average: 10
Electric dark correction enabled: true
Nonlinearity correction enabled: false
Boxcar width: 0
XAxis mode: Raman Shifts
Number of Pixels in Spectrum: 1044
>>>>>Begin Spectral Data<<<<<
46.04893	-0.1
50.45542	-0.4
54.85868	-1.3
59.25871	-1.1
63.6555	67.7
68.04907	71.5
72.43941	73.9
76.82654	70.8
81.21044	82.4
85.59113	79.6
89.96862	86.5
94.34289	87.4
98.71396	92.5
103.08183	91.4
107.4465	98.7
111.80798	99.7
116.16626	103.7
120.52136	104.2
124.87327	108.3
129.222	113.2
133.56755	125.6
137.90993	131.3
142.24913	145.9
146.58517	162
150.91804	192.3
155.24774	233.2
159.57429	291.3
163.89768	372.8
168.21792	502.1
172.53501	691.2
176.84895	962.7
181.15975	1357.7
185.46741	1907.3
189.77193	2643.3
194.07331	3545.9
198.37157	4573.7
202.6667	5670.7
206.9587	6749.9
211.24758	7821.8
215.53334	8909.2
219.81599	10119.3
224.09553	11385.7
228.37195	12834.1
232.64527	14398.7
236.91549	16015
241.18261	17603.3
245.44663	19049.5
249.70755	20298.9
253.96539	21397.5
258.22014	22351.2
262.4718	23134.5
266.72039	23720.7
270.96589	24070
275.20832	24132.6
279.44768	23979.2
283.68397	23667.3
287.91719	23389.4
292.14735	23321.3
296.37445	23536.5
300.59849	23869.1
304.81948	24325.6
309.03742	24545.4
313.25231	24399.9
317.46415	23567.6
321.67296	22414.7
325.87872	21477.4
330.08145	21077
334.28114	21082.6
338.47781	21314.9
342.67145	21707.9
346.86207	22280.7
351.04966	23077.2
355.23424	24064.7
359.4158	24829.2
363.59435	25247.8
367.76989	25487.9
371.94243	25588.1
376.11196	25660.7
380.27849	25720.2
384.44203	25678.7
388.60257	25600.7
392.76012	25508.1
396.91468	25682.4
401.06626	26128.9
405.21485	26502.6
409.36047	26240.5
413.50311	25512.3
417.64277	24731.2
421.77947	24395.1
425.9132	24312.2
430.04396	24496.4
434.17176	24726.1
438.2966	25056.7
442.41849	25588.8
446.53742	26350.3
450.6534	27085.4
454.76644	27606.5
458.87653	27709
462.98368	27454.7
467.08789	27100.5
471.18916	26748.8
475.2875	26395.6
479.38291	26148.1
483.4754	25903.4
487.56496	25541.8
491.6516	25139.8
495.73531	24757.6
499.81612	24543.8
503.89401	24620.3
507.96899	24786.4
512.04106	24915.1
516.11023	25088.4
520.1765	25131.4
524.23987	25087.6
528.30034	24843.1
532.35792	24623.2
536.41261	24288.7
540.46441	24030.4
544.51333	23921
548.55936	24068.5
552.60252	24492.8
556.64279	25061.5
560.6802	25461.5
564.71473	25840.4
568.7464	26558.1
572.7752	27248.7
576.80114	26837.6
580.82422	26159.9
584.84444	25780.5
588.86181	25861.4
592.87633	26250.3
596.888	26537.1
600.89682	26650.8
604.9028	28020
608.90594	32369.9
612.90624	38418.7
616.90371	37181.6
620.89834	29003.9
624.89015	25085.3
628.87913	24319
632.86528	24369.1
636.84862	24552.9
640.82913	24293.3
644.80683	23607.1
648.78172	23117.5
652.75379	23093
656.72306	23596.2
660.68952	24307.2
664.65319	24208.8
668.61405	23505.2
672.57211	23177.7
676.52738	23210.5
680.47986	23216.7
684.42955	23159.9
688.37646	23054.9
692.32058	23151.4
696.26192	23290.6
700.20048	23575
704.13626	23684.5
708.06928	23608.6
711.99952	23440.3
715.927	23376.6
719.85171	23411.6
723.77365	23379.2
727.69284	23252.9
731.60928	23132.2
735.52295	23032.5
739.43388	23115.9
743.34206	23166.6
747.24749	23228
751.15017	23362.9
755.05012	23655.2
758.94733	24331.7
762.8418	25869.2
766.73354	28429.1
770.62254	31237.1
774.50882	32652.7
778.39237	31497
782.27321	28429.1
786.15132	25666.1
790.02671	24010.8
793.89938	23213.3
797.76935	22938.7
801.6366	22806.9
805.50115	22741.6
809.36299	22647.3
813.22213	22582.4
817.07857	22579.9
820.93231	22566.1
824.78336	22568.5
828.63172	22635.9
832.47738	22634.6
836.32036	22585.3
840.16066	22509.7
843.99827	22485.2
847.8332	22468
851.66546	22425.7
855.49504	22382.1
859.32195	22397.3
863.1462	22308
866.96777	22289.7
870.78668	22229.7
874.60293	22234.2
878.41652	22264.6
882.22745	22319.6
886.03573	22417.2
889.84136	22395.3
893.64433	22253.2
897.44466	22240.4
901.24235	22163.5
905.0374	22106.6
908.8298	22039.8
912.61957	21971.2
916.40671	22063.5
920.19121	22197.9
923.97308	22361.1
927.75233	22446.2
931.52895	22514.1
935.30295	22363.6
939.07433	22004.6
942.84309	21613.1
946.60924	21357.8
950.37278	21242.1
954.13371	21176
957.89203	21085.2
961.64774	21025.8
965.40086	20996.3
969.15137	20918
972.89929	20818.8
976.64461	20794.3
980.38733	20758.4
984.12747	20782.2
987.86502	20935.6
991.59999	21092.8
995.33237	21342.3
999.06217	21772.2
1002.78939	22322.8
1006.51404	22706.1
1010.23611	22952.4
1013.95561	23147
1017.67255	23140.4
1021.38692	22852
1025.09872	22576.5
1028.80796	22529.4
1032.51465	22708.4
1036.21877	22920.5
1039.92035	22997.9
1043.61937	22888.7
1047.31584	22631.3
1051.00976	22383.4
1054.70114	22222.6
1058.38998	22218.5
1062.07627	22265.9
1065.76003	22336.4
1069.44126	22385.4
1073.11995	22456.8
1076.79611	22646
1080.46974	22852.7
1084.14085	23171.1
1087.80943	23528.2
1091.47549	23768
1095.13903	23607.6
1098.80005	23166.1
1102.45857	22806.1
1106.11456	22606.1
1109.76805	22669.4
1113.41903	22978.9
1117.06751	23414.7
1120.71348	23962
1124.35696	24488.8
1127.99793	24983.9
1131.63641	25037.8
1135.2724	24394.3
1138.90589	23708.2
1142.5369	23361.1
1146.16542	23125.5
1149.79145	23074.4
1153.415	23145.8
1157.03607	23288.6
1160.65467	23667.5
1164.27079	24413.1
1167.88443	25414.1
1171.49561	26945.6
1175.10432	29297.4
1178.71056	32334
1182.31434	34872.6
1185.91565	35915.3
1189.51451	35451.9
1193.11091	34102
1196.70485	32333.1
1200.29634	30888
1203.88538	29848.2
1207.47197	28723.5
1211.05612	27745.9
1214.63782	27095.1
1218.21708	26890.2
1221.79391	26809
1225.36829	26707
1228.94024	26348.5
1232.50976	25915.3
1236.07685	25732.2
1239.6415	25740
1243.20374	25913.1
1246.76355	26080.2
1250.32093	26394
1253.8759	26864.8
1257.42845	27522.4
1260.97859	28158.6
1264.52631	28786.9
1268.07163	29400.3
1271.61453	29982
1275.15503	30517.7
1278.69312	30894.3
1282.22882	31184
1285.76211	31622.3
1289.29301	32311.7
1292.82151	33382.6
1296.34761	34640.6
1299.87133	36337.3
1303.39266	38688.8
1306.9116	41888.1
1310.42815	45475.1
1313.94233	47795.5
1317.45412	47684.3
1320.96354	45902.8
1324.47058	43761.3
1327.97525	41693.1
1331.47754	40443.2
1334.97747	40073.7
1338.47502	40444
1341.97022	41141.5
1345.46305	41471.3
1348.95352	41711
1352.44163	42395
1355.92738	44154
1359.41078	47672.9
1362.89183	51279.1
1366.37053	50262.9
1369.84688	44333.3
1373.32088	38236.1
1376.79254	34429.8
1380.26186	32737.3
1383.72883	32168.2
1387.19347	31944
1390.65578	31594.5
1394.11575	31511.7
1397.57339	31784.4
1401.0287	32439.1
1404.48168	33153.4
1407.93234	33808.6
1411.38068	33899
1414.82669	33470.5
1418.27039	32438.8
1421.71177	31121.9
1425.15083	29969.7
1428.58758	29300.5
1432.02203	29249.7
1435.45416	29491.7
1438.88399	29803.2
1442.31151	30150.7
1445.73673	30485.7
1449.15965	30975.2
1452.58027	31298.1
1455.9986	31400.7
1459.41463	31593.5
1462.82837	31937.4
1466.23982	32471.1
1469.64898	33051.4
1473.05586	33333.2
1476.46045	33335
1479.86276	33296
1483.26279	33324.5
1486.66054	33426.9
1490.05602	33765.9
1493.44922	34188.2
1496.84016	34760.3
1500.22882	35865.6
1503.61521	37859.1
1506.99934	40595.2
1510.38121	43502.6
1513.76081	44994.2
1517.13816	43691.7
1520.51324	40242.9
1523.88607	36568.7
1527.25665	34137.1
1530.62498	32818.1
1533.99105	32252.8
1537.35488	31955.4
1540.71647	31852.5
1544.07581	31697.3
1547.4329	31488.3
1550.78776	31259
1554.14038	31057.5
1557.49077	31085
1560.83892	31257.1
1564.18484	31586.6
1567.52853	31847.9
1570.86999	32134.6
1574.20922	32374.5
1577.54624	32366.1
1580.88103	31809.5
1584.2136	31051.1
1587.54395	31035.5
1590.87208	32034.1
1594.19801	33849.4
1597.52172	35966.8
1600.84321	37107.3
1604.16251	36210.1
1607.47959	33927
1610.79447	31141.3
1614.10715	28498.3
1617.41763	26418.2
1620.7259	25061.5
1624.03199	24300.5
1627.33587	24214.8
1630.63757	24646.7
1633.93707	25783.7
1637.23439	27643.4
1640.52951	30084.5
1643.82246	33318.2
1647.11321	36537
1650.40179	38247.8
1653.68819	36869.1
1656.97241	32626.7
1660.25446	27952.5
1663.53433	24624.2
1666.81203	22525.1
1670.08756	21264.7
1673.36092	20503.9
1676.63211	19996.6
1679.90115	19613.8
1683.16801	19391.6
1686.43272	19188.7
1689.69527	19014.3
1692.95567	18931.7
1696.2139	18879.7
1699.46999	18838.2
1702.72392	18788.4
1705.97571	18699.5
1709.22535	18692.7
1712.47284	18640.4
1715.71819	18657.2
1718.96139	18610.4
1722.20246	18595.6
1725.44139	18471.4
1728.67818	18420.9
1731.91284	18286.4
1735.14537	18178.4
1738.37576	18118
1741.60403	18049.3
1744.83017	17974.5
1748.05418	17929.6
1751.27607	17932.4
1754.49584	17905.2
1757.71349	17888.9
1760.92903	17875.8
1764.14244	17834
1767.35375	17834.3
1770.56294	17790.4
1773.77002	17791.3
1776.97499	17747.8
1780.17785	17676.7
1783.37861	17638
1786.57727	17613
1789.77382	17567.1
1792.96828	17543.3
1796.16064	17529.1
1799.3509	17487.8
1802.53907	17465.2
1805.72514	17401
1808.90913	17385.5
1812.09102	17339.3
1815.27083	17279.7
1818.44856	17216.4
1821.6242	17211.6
1824.79776	17176.6
1827.96924	17168.2
1831.13864	17137.3
1834.30597	17130.7
1837.47122	17096.4
1840.6344	17064.9
1843.7955	17070.9
1846.95454	17049.8
1850.11151	17040.7
1853.26642	17036.3
1856.41926	17055.4
1859.57004	17029.8
1862.71876	16997.1
1865.86542	17010.7
1869.01003	16990.6
1872.15258	16992.5
1875.29308	16987.5
1878.43152	16987.6
1881.56792	16982.1
1884.70227	16929.2
1887.83457	16952.2
1890.96482	16896.3
1894.09304	16873.8
1897.21921	16891.5
1900.34335	16859.4
1903.46544	16905.2
1906.58551	16883.4
1909.70353	16834.3
1912.81953	16812.9
1915.93349	16832.4
1919.04543	16762.8
1922.15534	16751.4
1925.26322	16682.6
1928.36908	16660.9
1931.47292	16646.8
1934.57473	16632.1
1937.67453	16567.2
1940.77232	16524.1
1943.86808	16483.3
1946.96184	16387.9
1950.05358	16337.4
1953.14331	16279
1956.23103	16259
1959.31675	16186
1962.40046	16160.8
1965.48217	16096.9
1968.56188	16045
1971.63959	16007.1
1974.7153	15952.2
1977.78901	15900.9
1980.86073	15860.9
1983.93046	15820.8
1986.99819	15760.3
1990.06394	15711.8
1993.1277	15676.7
1996.18947	15578.4
1999.24925	15544.1
2002.30706	15501.6
2005.36288	15452
2008.41672	15435.3
2011.46859	15381.2
2014.51848	15358.2
2017.56639	15288.3
2020.61233	15269.8
2023.6563	15233.3
2026.6983	15165
2029.73833	15172.9
2032.7764	15127.4
2035.8125	15074.8
2038.84664	15016.9
2041.87881	14983.2
2044.90903	14987.5
2047.93729	14941.5
2050.96359	14920.6
2053.98794	14927.6
2057.01034	14908.2
2060.03078	14872.8
2063.04927	14838
2066.06582	14862.4
2069.08042	14862.7
2072.09307	14847.2
2075.10378	14811.1
2078.11255	14793.6
2081.11938	14817.5
2084.12426	14759.4
2087.12722	14752.3
2090.12824	14759.5
2093.12732	14729.4
2096.12447	14729.7
2099.11969	14726.6
2102.11299	14745.5
2105.10435	14747.4
2108.09379	14746.7
2111.08131	14725.2
2114.0669	14705.7
2117.05057	14728.1
2120.03233	14749
2123.01216	14764.3
2125.99008	14764.9
2128.96609	14808.1
2131.94018	14797
2134.91236	14786.2
2137.88263	14780.8
2140.851	14791.2
2143.81746	14811.6
2146.78201	14807.6
2149.74466	14820.6
2152.7054	14815.8
2155.66425	14784.9
2158.6212	14779.6
2161.57625	14756.6
2164.52941	14778.1
2167.48067	14736.7
2170.43004	14764.3
2173.37752	14724
2176.32311	14732.6
2179.26681	14719.4
2182.20863	14716.3
2185.14856	14724.4
2188.08661	14702
2191.02278	14700.7
2193.95707	14714.6
2196.88948	14713.9
2199.82001	14706.9
2202.74867	14693.2
2205.67545	14657.8
2208.60037	14633
2211.52341	14619.5
2214.44458	14643.3
2217.36388	14574.2
2220.28132	14576.3
2223.1969	14517
2226.11061	14453.2
2229.02246	14442.5
2231.93245	14415
2234.84058	14363.3
2237.74686	14349
2240.65128	14344.4
2243.55385	14282.3
2246.45456	14281.2
2249.35343	14255.2
2252.25044	14249.2
2255.14561	14226.9
2258.03893	14223.1
2260.93041	14187.9
2263.82004	14152.4
2266.70783	14120.9
2269.59378	14070.1
2272.4779	14044.8
2275.36017	13970.2
2278.24061	13984.3
2281.11922	13945.3
2283.996	13946
2286.87094	13921.1
2289.74405	13912.9
2292.61534	13880.1
2295.4848	13868.7
2298.35243	13860.3
2301.21824	13831.9
2304.08223	13842.1
2306.94439	13838
2309.80474	13843.1
2312.66327	13821.7
2315.51999	13817.6
2318.37489	13814.4
2321.22797	13793.4
2324.07925	13770
2326.92871	13720.2
2329.77637	13724.7
2332.62222	13716.3
2335.46626	13698.4
2338.3085	13684.3
2341.14893	13688
2343.98756	13662.5
2346.8244	13688.9
2349.65943	13685.6
2352.49267	13639.7
2355.32411	13646.8
2358.15376	13657
2360.98161	13678.4
2363.80768	13636.8
2366.63195	13642.1
2369.45444	13618.7
2372.27514	13595.1
2375.09405	13583.5
2377.91118	13575
2380.72652	13487.8
2383.54009	13446.8
2386.35187	13426.5
2389.16188	13365.7
2391.97011	13362
2394.77657	13326.1
2397.58125	13290.8
2400.38416	13279.8
2403.18529	13273.5
2405.98466	13249.5
2408.78226	13170.5
2411.57809	13159.7
2414.37216	13151.6
2417.16446	13152.5
2419.955	13106.3
2422.74378	13100.2
2425.5308	13089.7
2428.31606	13108.2
2431.09956	13071.8
2433.88131	13046
2436.6613	13052
2439.43954	13062.1
2442.21603	13027.7
2444.99077	13030.1
2447.76377	13023.5
2450.53501	13002.8
2453.30451	12989.1
2456.07226	12979.3
2458.83827	12975.2
2461.60254	12966.4
2464.36507	12957.1
2467.12586	12934.7
2469.88492	12935.4
2472.64224	12929.7
2475.39782	12949.7
2478.15167	12952.7
2480.90379	12943.3
2483.65417	12946.4
2486.40283	12988.7
2489.14976	12984.1
2491.89497	13009.4
2494.63845	13002.8
2497.3802	12947.7
2500.12024	12951.9
2502.85855	12948.3
2505.59514	12901.8
2508.33002	12903.7
2511.06318	12890.4
2513.79462	12841.5
2516.52435	12801.4
2519.25237	12785.4
2521.97867	12764
2524.70327	12760.7
2527.42616	12747.1
2530.14734	12736.1
2532.86681	12753.2
2535.58458	12750.5
2538.30065	12721.7
2541.01501	12736.3
2543.72768	12711.5
2546.43864	12700.6
2549.14791	12658.9
2551.85548	12659.6
2554.56136	12639.4
2557.26554	12584.8
2559.96803	12589.9
2562.66883	12566.7
2565.36794	12537.1
2568.06536	12507.2
2570.7611	12503
2573.45514	12484.9
2576.14751	12471
2578.83819	12450.6
2581.52719	12413.7
2584.21451	12427
2586.90015	12418
2589.58411	12403.5
2592.2664	12412.8
2594.94701	12390.8
2597.62594	12373.1
2600.30321	12338.2
2602.9788	12330.9
2605.65273	12316.5
2608.32498	12333
2610.99557	12307.5
2613.66449	12293.9
2616.33175	12336.1
2618.99734	12317.1
2621.66128	12285.3
2624.32355	12282.7
2626.98416	12258.2
2629.64311	12272.4
2632.30041	12266.4
2634.95605	12225.5
2637.61004	12190
2640.26238	12188.1
2642.91306	12179.2
2645.56209	12196.6
2648.20948	12164.4
2650.85521	12147.7
2653.4993	12156.7
2656.14175	12157.8
2658.78255	12135
2661.42171	12143.5
2664.05923	12197.2
2666.6951	12178.3
2669.32934	12194.2
2671.96194	12193.4
2674.59291	12184.4
2677.22224	12167.1
2679.84993	12173
2682.476	12188.6
2685.10043	12193
2687.72324	12137.3
2690.34441	12127.9
2692.96396	12154
2695.58188	12116.1
2698.19818	12098.3
2700.81285	12132.1
2703.4259	12125.9
2706.03733	12166.5
2708.64714	12115.4
2711.25533	12127
2713.86191	12148.9
2716.46687	12165
2719.07021	12144
2721.67194	12180.8
2724.27206	12133.4
2726.87057	12150.7
2729.46747	12178.2
2732.06276	12146.2
2734.65644	12133.3
2737.24852	12159.3
2739.83899	12124.7
2742.42786	12150.7
2745.01513	12093.4
2747.60079	12104.2
2750.18486	12045.4
2752.76733	12081
2755.3482	12057.1
2757.92747	12079.8
2760.50515	12017.3
2763.08123	12031.1
2765.65573	12010.5
2768.22863	11989.9
2770.79994	11990.7
2773.36967	11975.5
2775.9378	11952.3
2778.50435	11972.1
2781.06932	11960.9
2783.6327	11937.5
2786.1945	11965
2788.75471	11946.3
2791.31335	11920.6
2793.87041	11918
2796.42589	11882.2
2798.97979	11874.2
2801.53212	11887.1
2804.08288	11834.8
2806.63206	11790.6
2809.17967	11765.6
2811.72571	11761.5
2814.27018	11755.5
2816.81308	11760.3
2819.35442	11732.7
2821.89419	11731.7
2824.43239	11687.7
2826.96904	11684.3
2829.50412	11698.1
2832.03763	11657.5
2834.56959	11675.7
2837.1	11678.1
2839.62884	11655.5
2842.15613	11678.3
2844.68186	11690.5
2847.20604	11717.9
2849.72867	11728.5
2852.24974	11737
2854.76927	11710.7
2857.28724	11669.2
2859.80367	11669.4
2862.31855	11641.1
2864.83189	11634.5
2867.34368	11601.3
2869.85393	11610.3
2872.36264	11586.9
2874.8698	11590.5
2877.37543	11581.3
2879.87952	11578.8
2882.38207	11581.6
2884.88308	11572.6
2887.38256	11571.2
2889.88051	11571.1
2892.37692	11575.2
2894.8718	11582
2897.36515	11586.2
2899.85698	11569.2
2902.34727	11631.9
2904.83604	11593.4
2907.32328	11647.4
2909.809	11621.9
2912.29319	11592.4
2914.77587	11584.4
2917.25702	11602.8
2919.73665	11579.1
2922.21476	11595.9
2924.69136	11581.4
2927.16644	11556
2929.64	11548.5
2932.11205	11544.5
2934.58258	11505.3
2937.05161	11535.7
2939.51912	11499.6
2941.98513	11474.2
2944.44962	11465.4
2946.91261	11388
2949.37409	11419.7
2951.83407	11379.5
2954.29254	11382.2
2956.74951	11371.9
2959.20498	11355.9
2961.65895	11319
2964.11142	11353.7
2966.56239	11290.4
2969.01186	11277.3
2971.45984	11290.6
2973.90632	11244.9
2976.35131	11177.7
2978.7948	11176.3
2981.23681	11156.1
2983.67732	11111.5
2986.11635	11096.2
2988.55388	11070.6
2990.98993	11056
2993.4245	11003.2
2995.85758	10974.9
2998.28917	10930.3
3000.71928	10938.1
3003.14791	10931.1
3005.57506	10880.5
3008.00073	10856.5
3010.42493	10852.8
3012.84764	10818.8
3015.26888	10796.4
3017.68865	10787.5
3020.10694	10797.9
3022.52376	10746.3
3024.9391	10734.9
3027.35298	10733.4
3029.76539	10714.7
3032.17632	10703.1
3034.5858	10678.3
3036.9938	10698.9
3039.40034	10691.2
3041.80542	10670.6
3044.20903	10650.3
3046.61118	10621.7
3049.01187	10615.5
3051.4111	10612.2
3053.80888	10585
3056.20519	10575.8
3058.60005	10490.8
3060.99345	10495.4
3063.3854	10479.9
3065.7759	10411.9
3068.16494	10414.6
3070.55254	10406.7
3072.93868	10393.7
3075.32338	10334
3077.70662	10318.7
3080.08842	10283.3
3082.46878	10284.2
3084.84769	10225.8
3087.22515	10224.6
3089.60118	10245.9
3091.97576	10203.8
3094.3489	10244.7
3096.72061	10218.1
3099.09087	10213
3101.4597	10198.2
3103.82709	10202.2
3106.19305	10156.1
3108.55757	10180.5
3110.92066	10141.9
3113.28232	10121.2
3115.64255	10080.6
3118.00134	10082.4
3120.35871	10080.2
3122.71466	10057.3
3125.06917	10017.2
3127.42226	10006.6
3129.77393	9993.6
3132.12417	9987.5
3134.47299	9987.6
3136.82039	9978.5
3139.16636	9958.7
3141.51092	9970.8
3143.85406	9944.7
3146.19579	9953.8
3148.53609	9935
3150.87499	9935.8
3153.21246	9936.3
3155.54853	9962.9
3157.88318	9940.5
3160.21642	9953.9
3162.54826	9946.9
3164.87868	9940.6
3167.2077	9963.3
3169.5353	9960.2
3171.86151	9931.4
3174.18631	9953.2
3176.5097	9921.4
3178.83169	9913.3
3181.15228	9902
3183.47147	9901.5
3185.78926	9892.6
3188.10565	9867.8
3190.42065	9865.8
3192.73424	9833.1
3195.04645	9853.1
3197.35725	9826.7
3199.66667	9823.6
3201.97469	9865.1
3204.28132	9822.3
3206.58656	9844.3
3208.8904	9839.8
3211.19287	9850.6
3213.49394	9841.8
3215.79363	9829.6
3218.09193	9864.3
3220.38884	9831.9
3222.68438	9848.3
3224.97853	9821.1
3227.2713	9811.2
3229.56269	9811.8
3231.8527	9790.1
3234.14133	9773.4
3236.42858	9773
3238.71446	9741.6
3240.99896	9716.9
3243.28209	9737.7
3245.56384	9714
3247.84423	9701.6
3250.12324	9682
3252.40088	9675
3254.67715	9652.1
3256.95205	9646.9
3259.22558	9654.6
3261.49775	9617.7
3263.76855	9616.1
3266.03799	9608.3
3268.30606	9585
3270.57277	9551.2
3272.83812	9531.7
3275.10211	9538.6
3277.36474	9499.3
3279.62601	9504.4
3281.88593	9466.9
3284.14448	9489.5
3286.40168	9495.4
3288.65753	9485.8
3290.91202	9472.9
3293.16516	9474.7
3295.41695	9431.3
3297.66738	9387.5
3299.91647	9336.2
3302.16421	9267.9
3304.4106	9228.5
3306.65564	9184.1
3308.89933	9109
3311.14169	9019.3
3313.38269	8925.2
3315.62236	8902.3
3317.86068	8799
3320.09766	8753.4
3322.3333	8711.1
3324.5676	8635.8
3326.80056	8493.6
3329.03219	8457.4
3331.26248	3.8
3333.49143	0.2
3335.71905	-0.5
