Data from AgNP_FTO_APTES_UA_10uM_CRN_0uM_R6G_10uM_NaF_0.1M_Addition_RamanShift__28__12-41-00-474.txt Node

Date: Thu Feb 10 12:41:00 GMT 2022
User: TCL
Spectrometer: QEP01345
Trigger mode: 4
Integration Time (sec): 7.000000E0
Scans to average: 10
Electric dark correction enabled: true
Nonlinearity correction enabled: false
Boxcar width: 0
XAxis mode: Raman Shifts
Number of Pixels in Spectrum: 1044
>>>>>Begin Spectral Data<<<<<
46.04893	-0.1625
50.45542	0.0375
54.85868	-1.5625
59.25871	-0.8625
63.6555	40.4375
68.04907	43.6375
72.43941	46.9375
76.82654	48.4375
81.21044	50.9375
85.59113	51.8375
89.96862	54.9375
94.34289	57.1375
98.71396	56.7375
103.08183	59.9375
107.4465	62.5375
111.80798	60.7375
116.16626	65.9375
120.52136	66.4375
124.87327	69.5375
129.222	69.2375
133.56755	74.7375
137.90993	79.1375
142.24913	80.2375
146.58517	85.7375
150.91804	103.3375
155.24774	119.3375
159.57429	143.0375
163.89768	176.7375
168.21792	230.2375
172.53501	310.9375
176.84895	434.0375
181.15975	603.2375
185.46741	840.5375
189.77193	1167.4375
194.07331	1544.3375
198.37157	1971.9375
202.6667	2447.7375
206.9587	2908.4375
211.24758	3366.4375
215.53334	3838.5375
219.81599	4364.1375
224.09553	4931.0375
228.37195	5583.4375
232.64527	6257.3375
236.91549	6989.8375
241.18261	7668.3375
245.44663	8247.0375
249.70755	8716.4375
253.96539	9150.7375
258.22014	9521.1375
262.4718	9806.4375
266.72039	10052.5375
270.96589	10148.9375
275.20832	10156.1375
279.44768	10109.5375
283.68397	9984.4375
287.91719	9895.3375
292.14735	9879.9375
296.37445	9991.2375
300.59849	10201.2375
304.81948	10451.2375
309.03742	10635.6375
313.25231	10580.9375
317.46415	10146.5375
321.67296	9564.5375
325.87872	9037.2375
330.08145	8808.9375
334.28114	8810.7375
338.47781	8928.9375
342.67145	9150.3375
346.86207	9459.7375
351.04966	9940.5375
355.23424	10478.0375
359.4158	10939.6375
363.59435	11179.3375
367.76989	11242.6375
371.94243	11221.3375
376.11196	11189.2375
380.27849	11143.3375
384.44203	11058.5375
388.60257	10983.8375
392.76012	10987.0375
396.91468	11117.8375
401.06626	11428.5375
405.21485	11632.6375
409.36047	11504.4375
413.50311	11084.0375
417.64277	10677.7375
421.77947	10452.9375
425.9132	10398.0375
430.04396	10381.5375
434.17176	10452.2375
438.2966	10633.4375
442.41849	10928.9375
446.53742	11276.3375
450.6534	11663.6375
454.76644	11863.7375
458.87653	11890.8375
462.98368	11742.7375
467.08789	11536.6375
471.18916	11317.2375
475.2875	11016.5375
479.38291	10850.5375
483.4754	10692.3375
487.56496	10569.3375
491.6516	10464.2375
495.73531	10377.3375
499.81612	10374.5375
503.89401	10419.1375
507.96899	10498.3375
512.04106	10582.1375
516.11023	10664.2375
520.1765	10725.2375
524.23987	10734.5375
528.30034	10574.1375
532.35792	10394.8375
536.41261	10178.2375
540.46441	9935.3375
544.51333	9834.9375
548.55936	9909.6375
552.60252	10094.8375
556.64279	10325.5375
560.6802	10493.9375
564.71473	10663.3375
568.7464	11073.6375
572.7752	11444.0375
576.80114	11326.5375
580.82422	11215.1375
584.84444	11181.0375
588.86181	11260.4375
592.87633	11339.7375
596.888	11513.8375
600.89682	11814.6375
604.9028	12736.3375
608.90594	15184.8375
612.90624	18398.8375
616.90371	17614.3375
620.89834	13173.5375
624.89015	11044.0375
628.87913	10690.3375
632.86528	10707.9375
636.84862	10765.4375
640.82913	10553.6375
644.80683	10137.7375
648.78172	9827.4375
652.75379	9826.6375
656.72306	10161.1375
660.68952	10617.8375
664.65319	10560.9375
668.61405	10144.0375
672.57211	9943.1375
676.52738	9909.7375
680.47986	9866.7375
684.42955	9794.6375
688.37646	9779.7375
692.32058	9804.3375
696.26192	9947.7375
700.20048	10074.2375
704.13626	10198.4375
708.06928	10196.4375
711.99952	10102.1375
715.927	10049.3375
719.85171	10023.1375
723.77365	9948.1375
727.69284	9826.2375
731.60928	9730.9375
735.52295	9731.5375
739.43388	9767.5375
743.34206	9871.5375
747.24749	9947.4375
751.15017	10057.9375
755.05012	10279.7375
758.94733	10690.4375
762.8418	11537.9375
766.73354	13066.9375
770.62254	14652.5375
774.50882	15343.6375
778.39237	14759.0375
782.27321	13172.4375
786.15132	11578.3375
790.02671	10607.8375
793.89938	10153.6375
797.76935	9984.1375
801.6366	9904.2375
805.50115	9871.7375
809.36299	9836.3375
813.22213	9773.9375
817.07857	9737.9375
820.93231	9724.3375
824.78336	9723.8375
828.63172	9756.6375
832.47738	9788.2375
836.32036	9811.5375
840.16066	9777.8375
843.99827	9731.6375
847.8332	9724.5375
851.66546	9683.9375
855.49504	9676.6375
859.32195	9654.0375
863.1462	9617.3375
866.96777	9572.2375
870.78668	9554.4375
874.60293	9610.2375
878.41652	9621.3375
882.22745	9705.4375
886.03573	9740.9375
889.84136	9722.3375
893.64433	9681.4375
897.44466	9647.2375
901.24235	9612.5375
905.0374	9579.1375
908.8298	9532.8375
912.61957	9535.3375
916.40671	9567.6375
920.19121	9676.3375
923.97308	9797.3375
927.75233	9891.4375
931.52895	9945.0375
935.30295	9852.0375
939.07433	9589.3375
942.84309	9333.9375
946.60924	9231.2375
950.37278	9188.7375
954.13371	9144.8375
957.89203	9118.9375
961.64774	9071.5375
965.40086	9063.2375
969.15137	9031.3375
972.89929	8988.5375
976.64461	9003.6375
980.38733	8997.4375
984.12747	9027.1375
987.86502	9089.1375
991.59999	9166.3375
995.33237	9321.1375
999.06217	9622.5375
1002.78939	9971.0375
1006.51404	10283.1375
1010.23611	10522.3375
1013.95561	10668.5375
1017.67255	10656.9375
1021.38692	10479.2375
1025.09872	10264.4375
1028.80796	10177.8375
1032.51465	10296.7375
1036.21877	10416.5375
1039.92035	10498.3375
1043.61937	10439.9375
1047.31584	10310.0375
1051.00976	10154.8375
1054.70114	10077.9375
1058.38998	10063.0375
1062.07627	10081.8375
1065.76003	10190.9375
1069.44126	10312.9375
1073.11995	10452.8375
1076.79611	10576.0375
1080.46974	10661.7375
1084.14085	10854.9375
1087.80943	11062.7375
1091.47549	11143.5375
1095.13903	10966.9375
1098.80005	10641.9375
1102.45857	10330.6375
1106.11456	10159.5375
1109.76805	10145.0375
1113.41903	10292.4375
1117.06751	10539.8375
1120.71348	10871.6375
1124.35696	11268.1375
1127.99793	11616.8375
1131.63641	11625.2375
1135.2724	11286.8375
1138.90589	10914.1375
1142.5369	10692.0375
1146.16542	10523.3375
1149.79145	10438.1375
1153.415	10436.4375
1157.03607	10547.6375
1160.65467	10769.1375
1164.27079	11136.3375
1167.88443	11684.1375
1171.49561	12588.4375
1175.10432	13992.3375
1178.71056	15807.8375
1182.31434	17324.0375
1185.91565	17988.2375
1189.51451	17910.0375
1193.11091	17078.4375
1196.70485	15869.9375
1200.29634	14791.3375
1203.88538	13877.7375
1207.47197	13065.8375
1211.05612	12487.9375
1214.63782	12177.6375
1218.21708	12131.9375
1221.79391	12283.7375
1225.36829	12470.1375
1228.94024	12575.7375
1232.50976	12655.6375
1236.07685	12614.4375
1239.6415	12538.5375
1243.20374	12414.5375
1246.76355	12330.1375
1250.32093	12419.7375
1253.8759	12666.6375
1257.42845	13028.8375
1260.97859	13473.9375
1264.52631	13908.5375
1268.07163	14316.5375
1271.61453	14729.4375
1275.15503	15098.9375
1278.69312	15401.7375
1282.22882	15694.2375
1285.76211	16087.3375
1289.29301	16568.2375
1292.82151	17086.2375
1296.34761	17589.0375
1299.87133	18331.4375
1303.39266	19518.1375
1306.9116	21254.0375
1310.42815	23336.4375
1313.94233	24766.0375
1317.45412	24806.7375
1320.96354	23854.0375
1324.47058	22578.6375
1327.97525	21423.1375
1331.47754	20629.8375
1334.97747	20259.9375
1338.47502	20192.9375
1341.97022	20356.8375
1345.46305	20557.0375
1348.95352	20927.8375
1352.44163	21621.4375
1355.92738	22953.8375
1359.41078	25105.0375
1362.89183	27067.8375
1366.37053	26507.0375
1369.84688	23632.9375
1373.32088	20414.9375
1376.79254	18262.9375
1380.26186	17122.6375
1383.72883	16487.8375
1387.19347	15990.0375
1390.65578	15522.3375
1394.11575	15292.4375
1397.57339	15271.2375
1401.0287	15506.8375
1404.48168	15884.0375
1407.93234	16212.8375
1411.38068	16357.6375
1414.82669	16192.0375
1418.27039	15661.5375
1421.71177	15182.9375
1425.15083	14705.6375
1428.58758	14523.9375
1432.02203	14529.7375
1435.45416	14607.9375
1438.88399	14667.4375
1442.31151	14718.8375
1445.73673	14785.9375
1449.15965	14907.9375
1452.58027	14900.0375
1455.9986	14847.4375
1459.41463	14899.4375
1462.82837	15092.9375
1466.23982	15351.8375
1469.64898	15593.2375
1473.05586	15777.4375
1476.46045	15802.5375
1479.86276	15911.1375
1483.26279	16113.4375
1486.66054	16399.3375
1490.05602	16855.9375
1493.44922	17372.6375
1496.84016	18149.0375
1500.22882	19158.7375
1503.61521	20549.0375
1506.99934	22071.0375
1510.38121	23557.9375
1513.76081	24121.7375
1517.13816	23181.0375
1520.51324	21094.6375
1523.88607	19051.8375
1527.25665	17635.6375
1530.62498	16820.0375
1533.99105	16347.1375
1537.35488	16069.6375
1540.71647	15887.7375
1544.07581	15732.4375
1547.4329	15581.3375
1550.78776	15452.6375
1554.14038	15292.1375
1557.49077	15242.3375
1560.83892	15356.0375
1564.18484	15557.1375
1567.52853	15745.9375
1570.86999	15928.1375
1574.20922	16062.4375
1577.54624	16043.3375
1580.88103	15524.5375
1584.2136	15006.3375
1587.54395	14948.0375
1590.87208	15538.9375
1594.19801	16654.8375
1597.52172	17929.1375
1600.84321	18541.2375
1604.16251	18000.7375
1607.47959	16710.3375
1610.79447	15199.8375
1614.10715	13777.0375
1617.41763	12736.3375
1620.7259	12095.8375
1624.03199	11860.0375
1627.33587	11889.7375
1630.63757	12266.7375
1633.93707	13002.2375
1637.23439	14117.8375
1640.52951	15573.3375
1643.82246	17156.5375
1647.11321	18611.5375
1650.40179	19289.4375
1653.68819	18410.5375
1656.97241	16146.0375
1660.25446	13722.4375
1663.53433	11957.9375
1666.81203	10889.2375
1670.08756	10232.7375
1673.36092	9845.0375
1676.63211	9603.6375
1679.90115	9422.8375
1683.16801	9262.9375
1686.43272	9202.7375
1689.69527	9126.9375
1692.95567	9071.8375
1696.2139	9058.8375
1699.46999	9026.7375
1702.72392	8993.3375
1705.97571	8967.1375
1709.22535	8961.3375
1712.47284	8959.5375
1715.71819	8956.0375
1718.96139	8959.0375
1722.20246	8920.9375
1725.44139	8867.3375
1728.67818	8831.3375
1731.91284	8734.6375
1735.14537	8701.1375
1738.37576	8660.5375
1741.60403	8639.4375
1744.83017	8601.6375
1748.05418	8582.6375
1751.27607	8563.3375
1754.49584	8528.3375
1757.71349	8537.3375
1760.92903	8533.0375
1764.14244	8522.7375
1767.35375	8526.6375
1770.56294	8506.4375
1773.77002	8483.6375
1776.97499	8472.3375
1780.17785	8467.9375
1783.37861	8465.6375
1786.57727	8434.5375
1789.77382	8416.1375
1792.96828	8400.5375
1796.16064	8400.5375
1799.3509	8387.7375
1802.53907	8379.6375
1805.72514	8352.4375
1808.90913	8310.4375
1812.09102	8318.8375
1815.27083	8300.3375
1818.44856	8274.3375
1821.6242	8244.7375
1824.79776	8274.4375
1827.96924	8246.8375
1831.13864	8223.9375
1834.30597	8238.3375
1837.47122	8234.7375
1840.6344	8230.0375
1843.7955	8228.9375
1846.95454	8254.1375
1850.11151	8225.4375
1853.26642	8228.2375
1856.41926	8281.0375
1859.57004	8274.1375
1862.71876	8271.5375
1865.86542	8295.7375
1869.01003	8298.3375
1872.15258	8299.1375
1875.29308	8307.9375
1878.43152	8304.8375
1881.56792	8337.3375
1884.70227	8367.9375
1887.83457	8360.2375
1890.96482	8384.8375
1894.09304	8366.1375
1897.21921	8384.2375
1900.34335	8403.3375
1903.46544	8407.5375
1906.58551	8419.4375
1909.70353	8419.3375
1912.81953	8408.9375
1915.93349	8411.7375
1919.04543	8415.9375
1922.15534	8402.8375
1925.26322	8341.0375
1928.36908	8313.2375
1931.47292	8310.4375
1934.57473	8279.9375
1937.67453	8184.2375
1940.77232	8153.2375
1943.86808	8090.1375
1946.96184	8052.0375
1950.05358	8018.7375
1953.14331	7962.7375
1956.23103	7919.9375
1959.31675	7899.4375
1962.40046	7875.1375
1965.48217	7837.3375
1968.56188	7807.4375
1971.63959	7783.5375
1974.7153	7755.4375
1977.78901	7728.1375
1980.86073	7707.8375
1983.93046	7677.5375
1986.99819	7634.5375
1990.06394	7643.2375
1993.1277	7627.9375
1996.18947	7585.1375
1999.24925	7560.4375
2002.30706	7558.1375
2005.36288	7530.0375
2008.41672	7499.0375
2011.46859	7486.6375
2014.51848	7471.2375
2017.56639	7463.0375
2020.61233	7427.3375
2023.6563	7423.5375
2026.6983	7401.2375
2029.73833	7358.9375
2032.7764	7353.1375
2035.8125	7359.2375
2038.84664	7338.2375
2041.87881	7323.0375
2044.90903	7332.3375
2047.93729	7302.1375
2050.96359	7277.6375
2053.98794	7282.5375
2057.01034	7257.0375
2060.03078	7260.0375
2063.04927	7245.0375
2066.06582	7259.8375
2069.08042	7263.2375
2072.09307	7256.8375
2075.10378	7252.6375
2078.11255	7231.2375
2081.11938	7224.7375
2084.12426	7206.6375
2087.12722	7217.5375
2090.12824	7217.5375
2093.12732	7197.8375
2096.12447	7195.3375
2099.11969	7213.0375
2102.11299	7216.2375
2105.10435	7194.0375
2108.09379	7198.1375
2111.08131	7202.0375
2114.0669	7220.6375
2117.05057	7214.6375
2120.03233	7227.8375
2123.01216	7232.6375
2125.99008	7255.2375
2128.96609	7238.7375
2131.94018	7238.1375
2134.91236	7238.7375
2137.88263	7249.7375
2140.851	7232.6375
2143.81746	7244.2375
2146.78201	7250.1375
2149.74466	7237.5375
2152.7054	7237.7375
2155.66425	7225.1375
2158.6212	7229.4375
2161.57625	7231.3375
2164.52941	7214.3375
2167.48067	7224.6375
2170.43004	7197.6375
2173.37752	7219.9375
2176.32311	7207.2375
2179.26681	7220.0375
2182.20863	7228.5375
2185.14856	7228.0375
2188.08661	7210.4375
2191.02278	7201.1375
2193.95707	7223.3375
2196.88948	7198.4375
2199.82001	7213.7375
2202.74867	7198.9375
2205.67545	7178.2375
2208.60037	7181.6375
2211.52341	7183.6375
2214.44458	7159.5375
2217.36388	7151.0375
2220.28132	7130.0375
2223.1969	7123.1375
2226.11061	7120.5375
2229.02246	7087.5375
2231.93245	7061.0375
2234.84058	7062.1375
2237.74686	7046.3375
2240.65128	7044.2375
2243.55385	7036.9375
2246.45456	7032.7375
2249.35343	7019.9375
2252.25044	7020.2375
2255.14561	7022.4375
2258.03893	6995.4375
2260.93041	6982.2375
2263.82004	6965.3375
2266.70783	6944.4375
2269.59378	6942.5375
2272.4779	6936.5375
2275.36017	6898.4375
2278.24061	6897.7375
2281.11922	6884.8375
2283.996	6878.0375
2286.87094	6859.5375
2289.74405	6854.9375
2292.61534	6836.5375
2295.4848	6820.6375
2298.35243	6822.6375
2301.21824	6826.3375
2304.08223	6834.1375
2306.94439	6821.6375
2309.80474	6830.8375
2312.66327	6828.1375
2315.51999	6833.5375
2318.37489	6821.6375
2321.22797	6810.8375
2324.07925	6801.5375
2326.92871	6784.5375
2329.77637	6800.4375
2332.62222	6757.5375
2335.46626	6781.7375
2338.3085	6762.9375
2341.14893	6775.4375
2343.98756	6772.6375
2346.8244	6774.6375
2349.65943	6781.0375
2352.49267	6768.2375
2355.32411	6794.0375
2358.15376	6791.5375
2360.98161	6799.3375
2363.80768	6810.5375
2366.63195	6801.8375
2369.45444	6782.2375
2372.27514	6757.5375
2375.09405	6760.0375
2377.91118	6734.7375
2380.72652	6718.7375
2383.54009	6708.8375
2386.35187	6678.3375
2389.16188	6656.1375
2391.97011	6661.3375
2394.77657	6620.6375
2397.58125	6599.9375
2400.38416	6594.2375
2403.18529	6612.4375
2405.98466	6587.4375
2408.78226	6573.6375
2411.57809	6553.2375
2414.37216	6537.7375
2417.16446	6532.5375
2419.955	6502.4375
2422.74378	6511.7375
2425.5308	6509.3375
2428.31606	6512.7375
2431.09956	6517.2375
2433.88131	6517.5375
2436.6613	6498.0375
2439.43954	6497.0375
2442.21603	6499.0375
2444.99077	6479.4375
2447.76377	6486.1375
2450.53501	6486.3375
2453.30451	6486.9375
2456.07226	6486.3375
2458.83827	6482.5375
2461.60254	6485.5375
2464.36507	6483.5375
2467.12586	6463.9375
2469.88492	6466.1375
2472.64224	6475.3375
2475.39782	6480.3375
2478.15167	6489.0375
2480.90379	6492.8375
2483.65417	6485.0375
2486.40283	6502.2375
2489.14976	6496.0375
2491.89497	6525.6375
2494.63845	6525.4375
2497.3802	6499.0375
2500.12024	6508.6375
2502.85855	6514.6375
2505.59514	6501.0375
2508.33002	6497.1375
2511.06318	6473.3375
2513.79462	6464.9375
2516.52435	6445.8375
2519.25237	6416.4375
2521.97867	6418.3375
2524.70327	6432.9375
2527.42616	6408.8375
2530.14734	6419.9375
2532.86681	6402.3375
2535.58458	6398.5375
2538.30065	6396.8375
2541.01501	6388.7375
2543.72768	6376.3375
2546.43864	6380.5375
2549.14791	6387.5375
2551.85548	6390.2375
2554.56136	6360.2375
2557.26554	6361.5375
2559.96803	6348.7375
2562.66883	6350.5375
2565.36794	6339.4375
2568.06536	6326.6375
2570.7611	6311.9375
2573.45514	6324.2375
2576.14751	6297.6375
2578.83819	6283.2375
2581.52719	6288.0375
2584.21451	6296.3375
2586.90015	6282.7375
2589.58411	6295.5375
2592.2664	6286.9375
2594.94701	6277.5375
2597.62594	6293.8375
2600.30321	6280.5375
2602.9788	6274.7375
2605.65273	6269.6375
2608.32498	6271.9375
2610.99557	6253.9375
2613.66449	6261.5375
2616.33175	6267.4375
2618.99734	6268.6375
2621.66128	6255.9375
2624.32355	6252.0375
2626.98416	6247.2375
2629.64311	6239.8375
2632.30041	6237.7375
2634.95605	6237.7375
2637.61004	6232.1375
2640.26238	6223.2375
2642.91306	6218.5375
2645.56209	6207.6375
2648.20948	6202.3375
2650.85521	6198.8375
2653.4993	6194.6375
2656.14175	6201.0375
2658.78255	6208.7375
2661.42171	6203.6375
2664.05923	6213.7375
2666.6951	6217.5375
2669.32934	6219.6375
2671.96194	6233.9375
2674.59291	6241.0375
2677.22224	6239.4375
2679.84993	6243.0375
2682.476	6224.8375
2685.10043	6258.2375
2687.72324	6231.5375
2690.34441	6229.7375
2692.96396	6220.7375
2695.58188	6241.1375
2698.19818	6212.5375
2700.81285	6233.9375
2703.4259	6210.4375
2706.03733	6195.4375
2708.64714	6206.2375
2711.25533	6233.7375
2713.86191	6225.5375
2716.46687	6269.2375
2719.07021	6258.4375
2721.67194	6265.9375
2724.27206	6277.7375
2726.87057	6257.6375
2729.46747	6254.3375
2732.06276	6266.7375
2734.65644	6266.7375
2737.24852	6265.2375
2739.83899	6251.9375
2742.42786	6252.0375
2745.01513	6241.9375
2747.60079	6223.6375
2750.18486	6213.5375
2752.76733	6211.0375
2755.3482	6211.3375
2757.92747	6208.3375
2760.50515	6205.6375
2763.08123	6214.1375
2765.65573	6173.4375
2768.22863	6191.9375
2770.79994	6174.8375
2773.36967	6182.1375
2775.9378	6183.4375
2778.50435	6195.9375
2781.06932	6170.3375
2783.6327	6191.7375
2786.1945	6194.8375
2788.75471	6179.1375
2791.31335	6177.9375
2793.87041	6189.0375
2796.42589	6170.5375
2798.97979	6160.0375
2801.53212	6169.6375
2804.08288	6151.2375
2806.63206	6139.8375
2809.17967	6144.9375
2811.72571	6138.7375
2814.27018	6144.2375
2816.81308	6112.1375
2819.35442	6128.9375
2821.89419	6118.1375
2824.43239	6137.2375
2826.96904	6124.6375
2829.50412	6142.8375
2832.03763	6141.4375
2834.56959	6126.0375
2837.1	6151.2375
2839.62884	6179.9375
2842.15613	6193.3375
2844.68186	6233.8375
2847.20604	6269.2375
2849.72867	6325.2375
2852.24974	6296.7375
2854.76927	6314.1375
2857.28724	6292.7375
2859.80367	6290.9375
2862.31855	6251.6375
2864.83189	6245.0375
2867.34368	6211.8375
2869.85393	6238.8375
2872.36264	6216.8375
2874.8698	6210.5375
2877.37543	6225.2375
2879.87952	6211.0375
2882.38207	6209.7375
2884.88308	6188.3375
2887.38256	6199.1375
2889.88051	6200.5375
2892.37692	6203.5375
2894.8718	6224.0375
2897.36515	6217.1375
2899.85698	6200.8375
2902.34727	6235.9375
2904.83604	6228.6375
2907.32328	6248.5375
2909.809	6233.7375
2912.29319	6224.8375
2914.77587	6211.3375
2917.25702	6215.2375
2919.73665	6193.0375
2922.21476	6194.5375
2924.69136	6188.6375
2927.16644	6193.3375
2929.64	6160.3375
2932.11205	6148.5375
2934.58258	6117.9375
2937.05161	6142.0375
2939.51912	6137.9375
2941.98513	6089.5375
2944.44962	6073.8375
2946.91261	6022.4375
2949.37409	6014.5375
2951.83407	5994.4375
2954.29254	5985.3375
2956.74951	5961.1375
2959.20498	5953.3375
2961.65895	5934.6375
2964.11142	5935.5375
2966.56239	5916.3375
2969.01186	5920.1375
2971.45984	5887.3375
2973.90632	5873.3375
2976.35131	5885.5375
2978.7948	5852.6375
2981.23681	5838.9375
2983.67732	5792.5375
2986.11635	5790.8375
2988.55388	5791.7375
2990.98993	5764.3375
2993.4245	5758.8375
2995.85758	5730.6375
2998.28917	5715.6375
3000.71928	5722.7375
3003.14791	5694.5375
3005.57506	5694.6375
3008.00073	5683.9375
3010.42493	5659.3375
3012.84764	5650.0375
3015.26888	5638.6375
3017.68865	5630.5375
3020.10694	5621.8375
3022.52376	5613.7375
3024.9391	5603.3375
3027.35298	5601.1375
3029.76539	5586.0375
3032.17632	5583.1375
3034.5858	5567.9375
3036.9938	5592.0375
3039.40034	5578.7375
3041.80542	5586.1375
3044.20903	5567.1375
3046.61118	5568.4375
3049.01187	5561.8375
3051.4111	5532.0375
3053.80888	5526.4375
3056.20519	5509.4375
3058.60005	5501.5375
3060.99345	5491.6375
3063.3854	5474.8375
3065.7759	5464.8375
3068.16494	5462.3375
3070.55254	5437.8375
3072.93868	5444.6375
3075.32338	5404.6375
3077.70662	5410.3375
3080.08842	5378.2375
3082.46878	5381.4375
3084.84769	5371.5375
3087.22515	5358.3375
3089.60118	5378.9375
3091.97576	5357.0375
