Data from AgNP_FTO_APTES_UA_10uM_CRN_500uM_R6G_10uM_NaF_0.1M_Addition_RamanShift__19__19-02-30-951.txt Node

Date: Thu Feb 10 19:02:30 GMT 2022
User: TCL
Spectrometer: QEP01345
Trigger mode: 4
Integration Time (sec): 7.000000E0
Scans to average: 10
Electric dark correction enabled: true
Nonlinearity correction enabled: false
Boxcar width: 0
XAxis mode: Raman Shifts
Number of Pixels in Spectrum: 1044
>>>>>Begin Spectral Data<<<<<
46.04893	0.05
50.45542	0.25
54.85868	-2.05
59.25871	-0.95
63.6555	56.25
68.04907	59.65
72.43941	66.55
76.82654	62.25
81.21044	68.15
85.59113	65.85
89.96862	70.05
94.34289	74.65
98.71396	78.05
103.08183	81.05
107.4465	81.85
111.80798	81.25
116.16626	84.45
120.52136	87.55
124.87327	88.55
129.222	96.75
133.56755	103.05
137.90993	111.25
142.24913	115.05
146.58517	129.75
150.91804	151.15
155.24774	179.05
159.57429	221.45
163.89768	283.75
168.21792	375.25
172.53501	509.75
176.84895	707.05
181.15975	997.25
185.46741	1394.75
189.77193	1943.65
194.07331	2599.65
198.37157	3363.95
202.6667	4174.05
206.9587	4955.65
211.24758	5714.45
215.53334	6480.85
219.81599	7306.15
224.09553	8188.05
228.37195	9139.15
232.64527	10224.15
236.91549	11332.95
241.18261	12513.15
245.44663	13594.95
249.70755	14621.85
253.96539	15530.45
258.22014	16270.25
262.4718	16888.55
266.72039	17381.75
270.96589	17598.25
275.20832	17652.75
279.44768	17609.15
283.68397	17433.25
287.91719	17276.65
292.14735	17190.05
296.37445	17161.65
300.59849	17162.75
304.81948	17163.95
309.03742	17040.35
313.25231	16831.95
317.46415	16502.55
321.67296	16183.15
325.87872	15911.35
330.08145	15782.35
334.28114	15752.25
338.47781	15885.75
342.67145	16062.25
346.86207	16274.45
351.04966	16524.05
355.23424	16800.65
359.4158	17047.55
363.59435	17217.15
367.76989	17383.15
371.94243	17564.75
376.11196	17669.45
380.27849	17757.65
384.44203	17898.85
388.60257	18009.15
392.76012	18165.75
396.91468	18285.45
401.06626	18492.05
405.21485	18644.15
409.36047	18635.75
413.50311	18490.05
417.64277	18320.85
421.77947	18358.15
425.9132	18420.45
430.04396	18566.35
434.17176	18699.35
438.2966	18840.55
442.41849	19098.65
446.53742	19583.45
450.6534	19988.45
454.76644	20373.45
458.87653	20516.15
462.98368	20468.65
467.08789	20349.75
471.18916	20213.25
475.2875	20103.95
479.38291	20136.55
483.4754	20053.35
487.56496	19885.85
491.6516	19559.85
495.73531	19225.35
499.81612	19050.95
503.89401	19023.45
507.96899	19072.65
512.04106	19064.05
516.11023	18999.75
520.1765	18869.05
524.23987	18771.95
528.30034	18619.25
532.35792	18525.65
536.41261	18416.15
540.46441	18332.45
544.51333	18352.75
548.55936	18491.25
552.60252	18820.35
556.64279	19180.35
560.6802	19432.15
564.71473	19632.15
568.7464	19894.45
572.7752	20310.15
576.80114	20536.55
580.82422	20698.75
584.84444	20805.55
588.86181	20983.25
592.87633	21234.25
596.888	21241.85
600.89682	21025.85
604.9028	21183.55
608.90594	22238.35
612.90624	23415.05
616.90371	22470.85
620.89834	19907.65
624.89015	18749.25
628.87913	18642.95
632.86528	18704.85
636.84862	18702.45
640.82913	18574.75
644.80683	18310.65
648.78172	18081.95
652.75379	18029.25
656.72306	18140.95
660.68952	18287.85
664.65319	18246.65
668.61405	18046.95
672.57211	17999.05
676.52738	18069.95
680.47986	18102.65
684.42955	18074.65
688.37646	18058.25
692.32058	18089.05
696.26192	18156.25
700.20048	18311.95
704.13626	18368.35
708.06928	18378.35
711.99952	18336.05
715.927	18310.85
719.85171	18304.45
723.77365	18284.15
727.69284	18189.95
731.60928	18068.45
735.52295	17994.55
739.43388	17985.05
743.34206	17986.85
747.24749	18029.45
751.15017	18149.35
755.05012	18339.35
758.94733	18679.95
762.8418	19274.95
766.73354	20208.45
770.62254	21117.95
774.50882	21356.15
778.39237	20715.75
782.27321	19651.25
786.15132	18727.95
790.02671	18170.05
793.89938	17911.75
797.76935	17816.15
801.6366	17793.55
805.50115	17793.45
809.36299	17714.65
813.22213	17663.85
817.07857	17629.75
820.93231	17595.75
824.78336	17531.15
828.63172	17504.35
832.47738	17460.45
836.32036	17435.95
840.16066	17426.45
843.99827	17466.05
847.8332	17449.55
851.66546	17417.15
855.49504	17453.65
859.32195	17421.85
863.1462	17454.85
866.96777	17401.35
870.78668	17378.95
874.60293	17407.55
878.41652	17355.35
882.22745	17374.35
886.03573	17398.35
889.84136	17404.95
893.64433	17371.15
897.44466	17331.75
901.24235	17278.75
905.0374	17196.05
908.8298	17183.25
912.61957	17166.95
916.40671	17274.15
920.19121	17400.55
923.97308	17483.15
927.75233	17466.65
931.52895	17399.85
935.30295	17257.15
939.07433	17022.95
942.84309	16831.05
946.60924	16752.75
950.37278	16719.35
954.13371	16659.25
957.89203	16628.95
961.64774	16638.35
965.40086	16591.55
969.15137	16539.55
972.89929	16458.95
976.64461	16356.45
980.38733	16367.85
984.12747	16385.55
987.86502	16476.65
991.59999	16546.25
995.33237	16697.85
999.06217	16941.55
1002.78939	17234.15
1006.51404	17378.85
1010.23611	17521.45
1013.95561	17630.35
1017.67255	17644.65
1021.38692	17533.25
1025.09872	17416.95
1028.80796	17337.35
1032.51465	17507.35
1036.21877	17656.65
1039.92035	17723.95
1043.61937	17609.15
1047.31584	17440.55
1051.00976	17313.85
1054.70114	17286.85
1058.38998	17341.15
1062.07627	17419.05
1065.76003	17516.55
1069.44126	17566.95
1073.11995	17660.25
1076.79611	17745.75
1080.46974	17821.25
1084.14085	17874.25
1087.80943	17998.55
1091.47549	18143.85
1095.13903	18181.15
1098.80005	18026.45
1102.45857	17849.15
1106.11456	17668.45
1109.76805	17620.55
1113.41903	17670.75
1117.06751	17759.75
1120.71348	17877.45
1124.35696	18025.25
1127.99793	18215.35
1131.63641	18306.45
1135.2724	18239.05
1138.90589	18118.65
1142.5369	18092.95
1146.16542	18148.35
1149.79145	18217.35
1153.415	18351.65
1157.03607	18560.15
1160.65467	18946.05
1164.27079	19547.85
1167.88443	20332.55
1171.49561	21198.65
1175.10432	22330.85
1178.71056	23728.15
1182.31434	25064.35
1185.91565	25824.65
1189.51451	25840.45
1193.11091	25353.35
1196.70485	24623.55
1200.29634	23883.55
1203.88538	23320.15
1207.47197	22903.75
1211.05612	22449.45
1214.63782	22109.55
1218.21708	21743.95
1221.79391	21475.05
1225.36829	21232.05
1228.94024	20948.95
1232.50976	20595.65
1236.07685	20326.85
1239.6415	20194.45
1243.20374	20261.75
1246.76355	20350.15
1250.32093	20527.75
1253.8759	20818.65
1257.42845	21208.45
1260.97859	21605.65
1264.52631	22037.45
1268.07163	22478.85
1271.61453	22888.85
1275.15503	23354.15
1278.69312	23920.05
1282.22882	24394.55
1285.76211	24917.15
1289.29301	25560.55
1292.82151	26459.35
1296.34761	27657.75
1299.87133	29035.05
1303.39266	30481.45
1306.9116	31910.25
1310.42815	33160.25
1313.94233	34005.35
1317.45412	34084.95
1320.96354	33726.95
1324.47058	33169.15
1327.97525	32782.45
1331.47754	32461.45
1334.97747	32315.35
1338.47502	32295.15
1341.97022	32201.95
1345.46305	31885.55
1348.95352	31413.75
1352.44163	31040.95
1355.92738	31091.85
1359.41078	31653.65
1362.89183	32230.55
1366.37053	31724.25
1369.84688	29631.85
1373.32088	27150.65
1376.79254	25488.15
1380.26186	24873.05
1383.72883	24932.75
1387.19347	25137.55
1390.65578	25150.75
1394.11575	25292.65
1397.57339	25612.75
1401.0287	26087.05
1404.48168	26451.25
1407.93234	26438.35
1411.38068	25999.25
1414.82669	25141.25
1418.27039	24176.55
1421.71177	23187.65
1425.15083	22377.45
1428.58758	21896.75
1432.02203	21852.85
1435.45416	22258.45
1438.88399	22792.55
1442.31151	23278.75
1445.73673	23734.05
1449.15965	24082.25
1452.58027	24374.05
1455.9986	24578.85
1459.41463	24739.25
1462.82837	24906.05
1466.23982	25147.25
1469.64898	25338.05
1473.05586	25437.15
1476.46045	25351.45
1479.86276	25071.55
1483.26279	24786.25
1486.66054	24536.25
1490.05602	24391.75
1493.44922	24439.35
1496.84016	24445.05
1500.22882	24714.15
1503.61521	25197.95
1506.99934	25904.55
1510.38121	26576.15
1513.76081	26799.25
1517.13816	26477.75
1520.51324	25747.75
1523.88607	25091.05
1527.25665	24807.25
1530.62498	24764.95
1533.99105	24826.55
1537.35488	24742.95
1540.71647	24542.25
1544.07581	24198.65
1547.4329	23801.15
1550.78776	23391.45
1554.14038	23088.25
1557.49077	22889.45
1560.83892	22774.35
1564.18484	22780.65
1567.52853	22797.55
1570.86999	22956.25
1574.20922	23282.15
1577.54624	23664.45
1580.88103	23808.45
1584.2136	24048.55
1587.54395	24552.55
1590.87208	25359.35
1594.19801	26427.05
1597.52172	27526.65
1600.84321	27885.45
1604.16251	26996.95
1607.47959	25380.95
1610.79447	23612.25
1614.10715	21937.75
1617.41763	20516.65
1620.7259	19520.75
1624.03199	18966.35
1627.33587	18877.55
1630.63757	19245.15
1633.93707	20165.95
1637.23439	21666.75
1640.52951	23783.45
1643.82246	26049.55
1647.11321	27869.15
1650.40179	28206.55
1653.68819	26649.95
1656.97241	23907.15
1660.25446	21078.25
1663.53433	18973.65
1666.81203	17525.55
1670.08756	16623.25
1673.36092	16044.85
1676.63211	15674.65
1679.90115	15396.15
1683.16801	15216.15
1686.43272	15035.45
1689.69527	14875.95
1692.95567	14813.35
1696.2139	14780.15
1699.46999	14730.45
1702.72392	14694.55
1705.97571	14640.05
1709.22535	14548.55
1712.47284	14544.05
1715.71819	14495.45
1718.96139	14465.45
1722.20246	14424.95
1725.44139	14358.85
1728.67818	14278.35
1731.91284	14220.05
1735.14537	14161.25
1738.37576	14049.45
1741.60403	14040.65
1744.83017	14018.75
1748.05418	14022.25
1751.27607	14024.05
1754.49584	14004.55
1757.71349	13989.85
1760.92903	13955.45
1764.14244	13931.15
1767.35375	13944.35
1770.56294	13893.65
1773.77002	13868.25
1776.97499	13822.95
1780.17785	13779.25
1783.37861	13746.75
1786.57727	13726.85
1789.77382	13671.45
1792.96828	13678.15
1796.16064	13616.85
1799.3509	13609.05
1802.53907	13594.05
1805.72514	13542.25
1808.90913	13509.65
1812.09102	13484.85
1815.27083	13465.85
1818.44856	13400.05
1821.6242	13390.15
1824.79776	13380.65
1827.96924	13360.55
1831.13864	13341.55
1834.30597	13322.25
1837.47122	13306.95
1840.6344	13302.65
1843.7955	13299.25
1846.95454	13281.55
1850.11151	13282.65
1853.26642	13275.45
1856.41926	13250.45
1859.57004	13263.95
1862.71876	13236.95
1865.86542	13223.85
1869.01003	13219.05
1872.15258	13154.95
1875.29308	13173.25
1878.43152	13172.85
1881.56792	13144.95
1884.70227	13150.75
1887.83457	13129.05
1890.96482	13097.55
1894.09304	13082.15
1897.21921	13055.35
1900.34335	13077.95
1903.46544	13043.35
1906.58551	13018.75
1909.70353	13015.25
1912.81953	12993.75
1915.93349	12982.25
1919.04543	12948.45
1922.15534	12908.15
1925.26322	12894.85
1928.36908	12871.35
1931.47292	12877.35
1934.57473	12820.45
1937.67453	12780.95
1940.77232	12747.25
1943.86808	12705.85
1946.96184	12661.75
1950.05358	12635.15
1953.14331	12591.05
1956.23103	12576.65
1959.31675	12555.25
1962.40046	12495.95
1965.48217	12447.75
1968.56188	12427.45
1971.63959	12384.25
1974.7153	12349.45
1977.78901	12307.85
1980.86073	12254.95
1983.93046	12228.85
1986.99819	12193.55
1990.06394	12174.95
1993.1277	12115.35
1996.18947	12090.85
1999.24925	12054.05
2002.30706	12019.65
2005.36288	11982.55
2008.41672	11943.35
2011.46859	11919.95
2014.51848	11887.95
2017.56639	11866.55
2020.61233	11862.05
2023.6563	11792.15
2026.6983	11775.75
2029.73833	11768.95
2032.7764	11729.75
2035.8125	11695.15
2038.84664	11663.55
2041.87881	11624.85
2044.90903	11618.55
2047.93729	11572.75
2050.96359	11570.35
2053.98794	11561.25
2057.01034	11585.05
2060.03078	11530.65
2063.04927	11553.05
2066.06582	11542.15
2069.08042	11550.95
2072.09307	11511.95
2075.10378	11513.45
2078.11255	11492.85
2081.11938	11487.95
2084.12426	11494.15
2087.12722	11461.95
2090.12824	11457.45
2093.12732	11445.25
2096.12447	11453.35
2099.11969	11454.55
2102.11299	11449.95
2105.10435	11453.25
2108.09379	11460.95
2111.08131	11461.25
2114.0669	11438.55
2117.05057	11475.05
2120.03233	11452.55
2123.01216	11490.85
2125.99008	11478.05
2128.96609	11493.55
2131.94018	11499.15
2134.91236	11514.05
2137.88263	11509.35
2140.851	11495.75
2143.81746	11510.65
2146.78201	11524.55
2149.74466	11516.35
2152.7054	11516.15
2155.66425	11497.25
2158.6212	11496.05
2161.57625	11507.15
2164.52941	11475.85
2167.48067	11504.55
2170.43004	11467.35
2173.37752	11479.85
2176.32311	11466.85
2179.26681	11482.75
2182.20863	11477.15
2185.14856	11458.85
2188.08661	11477.45
2191.02278	11464.35
2193.95707	11460.55
2196.88948	11459.25
2199.82001	11433.75
2202.74867	11424.05
2205.67545	11413.95
2208.60037	11385.85
2211.52341	11395.15
2214.44458	11394.45
2217.36388	11348.55
2220.28132	11337.05
2223.1969	11295.85
2226.11061	11289.45
2229.02246	11290.15
2231.93245	11263.95
2234.84058	11216.95
2237.74686	11198.55
2240.65128	11182.45
2243.55385	11145.05
2246.45456	11128.15
2249.35343	11126.05
2252.25044	11119.65
2255.14561	11068.45
2258.03893	11084.55
2260.93041	11058.25
2263.82004	11008.95
2266.70783	11000.25
2269.59378	10960.65
2272.4779	10929.55
2275.36017	10871.75
2278.24061	10874.75
2281.11922	10869.35
2283.996	10871.35
2286.87094	10836.65
2289.74405	10825.65
2292.61534	10819.05
2295.4848	10800.25
2298.35243	10830.05
2301.21824	10795.65
2304.08223	10782.55
2306.94439	10801.35
2309.80474	10785.75
2312.66327	10780.85
2315.51999	10764.95
2318.37489	10761.65
2321.22797	10752.25
2324.07925	10718.15
2326.92871	10712.65
2329.77637	10703.75
2332.62222	10671.15
2335.46626	10662.75
2338.3085	10641.15
2341.14893	10650.05
2343.98756	10634.65
2346.8244	10649.25
2349.65943	10633.55
2352.49267	10638.35
2355.32411	10620.75
2358.15376	10612.85
2360.98161	10605.55
2363.80768	10609.85
2366.63195	10599.85
2369.45444	10583.25
2372.27514	10574.25
2375.09405	10542.25
2377.91118	10523.05
2380.72652	10497.95
2383.54009	10467.55
2386.35187	10424.15
2389.16188	10407.55
2391.97011	10372.95
2394.77657	10371.15
2397.58125	10375.75
2400.38416	10353.35
2403.18529	10348.15
2405.98466	10351.85
2408.78226	10311.85
2411.57809	10282.05
2414.37216	10292.55
2417.16446	10279.05
2419.955	10254.75
2422.74378	10245.45
2425.5308	10236.85
2428.31606	10229.85
2431.09956	10219.55
2433.88131	10185.95
2436.6613	10204.15
2439.43954	10190.45
2442.21603	10157.75
2444.99077	10132.85
2447.76377	10159.65
2450.53501	10137.65
2453.30451	10138.95
2456.07226	10124.45
2458.83827	10124.15
2461.60254	10132.35
2464.36507	10142.35
2467.12586	10107.15
2469.88492	10075.85
2472.64224	10101.35
2475.39782	10108.85
2478.15167	10130.15
2480.90379	10108.35
2483.65417	10138.65
2486.40283	10096.35
2489.14976	10105.85
2491.89497	10096.25
2494.63845	10102.15
2497.3802	10068.55
2500.12024	10090.95
2502.85855	10086.45
2505.59514	10053.55
2508.33002	10042.45
2511.06318	10057.25
2513.79462	10029.25
2516.52435	10009.15
2519.25237	9987.45
2521.97867	9984.65
2524.70327	9994.95
2527.42616	9973.15
2530.14734	9973.25
2532.86681	9953.85
2535.58458	9941.25
2538.30065	9943.65
2541.01501	9947.65
2543.72768	9921.75
2546.43864	9904.85
2549.14791	9885.85
2551.85548	9901.65
2554.56136	9861.85
2557.26554	9855.25
2559.96803	9822.45
2562.66883	9815.25
2565.36794	9781.75
2568.06536	9784.15
2570.7611	9760.35
2573.45514	9749.95
2576.14751	9712.25
2578.83819	9707.05
2581.52719	9708.65
2584.21451	9722.65
2586.90015	9705.45
2589.58411	9673.95
2592.2664	9672.45
2594.94701	9663.25
2597.62594	9652.95
2600.30321	9637.65
2602.9788	9604.15
2605.65273	9596.55
2608.32498	9616.05
2610.99557	9598.95
2613.66449	9594.65
2616.33175	9603.75
2618.99734	9594.25
2621.66128	9581.65
2624.32355	9584.75
2626.98416	9578.65
2629.64311	9560.25
2632.30041	9576.75
2634.95605	9503.35
2637.61004	9536.85
2640.26238	9505.75
2642.91306	9523.85
2645.56209	9507.55
2648.20948	9516.35
2650.85521	9496.05
2653.4993	9500.75
2656.14175	9491.25
2658.78255	9501.45
2661.42171	9486.05
2664.05923	9520.95
2666.6951	9507.85
2669.32934	9479.25
2671.96194	9496.45
2674.59291	9488.45
2677.22224	9498.15
2679.84993	9498.35
2682.476	9503.45
2685.10043	9484.95
2687.72324	9475.35
2690.34441	9496.85
2692.96396	9482.75
2695.58188	9474.45
2698.19818	9473.75
2700.81285	9478.05
2703.4259	9460.65
2706.03733	9465.45
2708.64714	9456.85
2711.25533	9484.15
2713.86191	9458.25
2716.46687	9486.85
2719.07021	9496.15
2721.67194	9514.05
2724.27206	9456.35
2726.87057	9485.75
2729.46747	9496.15
2732.06276	9519.35
2734.65644	9480.45
2737.24852	9484.55
2739.83899	9490.25
2742.42786	9487.15
2745.01513	9467.65
2747.60079	9462.15
2750.18486	9446.85
2752.76733	9422.95
2755.3482	9422.95
2757.92747	9423.15
2760.50515	9403.65
2763.08123	9380.05
2765.65573	9374.55
2768.22863	9360.75
2770.79994	9388.95
2773.36967	9380.35
2775.9378	9348.95
2778.50435	9375.55
2781.06932	9366.25
2783.6327	9349.05
2786.1945	9337.65
2788.75471	9335.65
2791.31335	9354.15
2793.87041	9327.45
2796.42589	9302.35
2798.97979	9279.45
2801.53212	9283.05
2804.08288	9282.45
2806.63206	9252.15
2809.17967	9222.15
2811.72571	9193.35
2814.27018	9173.75
2816.81308	9131.55
2819.35442	9142.45
2821.89419	9111.15
2824.43239	9103.75
2826.96904	9086.55
2829.50412	9101.45
2832.03763	9070.45
2834.56959	9078.15
2837.1	9071.05
2839.62884	9093.75
2842.15613	9088.15
2844.68186	9098.45
2847.20604	9099.85
2849.72867	9125.55
2852.24974	9117.15
2854.76927	9100.15
2857.28724	9063.95
2859.80367	9048.75
2862.31855	9062.15
2864.83189	9018.85
2867.34368	9012.75
2869.85393	9002.55
2872.36264	9013.55
2874.8698	9002.75
2877.37543	9017.55
2879.87952	9013.35
2882.38207	8999.95
2884.88308	8986.85
2887.38256	8975.65
2889.88051	8988.15
2892.37692	9000.25
2894.8718	8995.85
2897.36515	9006.05
2899.85698	9021.85
2902.34727	9039.95
2904.83604	9038.55
2907.32328	9051.65
2909.809	9071.35
2912.29319	9063.35
2914.77587	9058.95
2917.25702	9051.25
2919.73665	9051.15
2922.21476	9035.65
2924.69136	9040.05
2927.16644	9045.85
2929.64	9038.15
2932.11205	9026.45
2934.58258	8998.95
2937.05161	9024.45
2939.51912	9027.35
2941.98513	9002.75
2944.44962	8976.85
2946.91261	8924.65
2949.37409	8955.05
2951.83407	8962.55
2954.29254	8925.35
2956.74951	8916.85
2959.20498	8921.45
2961.65895	8893.35
2964.11142	8922.85
2966.56239	8874.95
2969.01186	8889.65
2971.45984	8864.85
2973.90632	8860.15
2976.35131	8828.15
2978.7948	8810.85
2981.23681	8772.65
2983.67732	8754.65
2986.11635	8755.35
2988.55388	8734.05
2990.98993	8709.05
2993.4245	8691.75
2995.85758	8656.85
2998.28917	8637.65
3000.71928	8625.85
3003.14791	8617.25
3005.57506	8618.75
3008.00073	8594.95
3010.42493	8597.25
3012.84764	8576.45
3015.26888	8518.15
3017.68865	8519.55
3020.10694	8517.95
3022.52376	8529.95
3024.9391	8494.15
3027.35298	8487.75
3029.76539	8469.15
3032.17632	8475.35
3034.5858	8483.95
3036.9938	8471.65
3039.40034	8480.55
3041.80542	8474.05
3044.20903	8432.55
3046.61118	8425.65
3049.01187	8423.25
3051.4111	8428.65
3053.80888	8420.85
3056.20519	8386.05
3058.60005	8362.45
3060.99345	8356.85
3063.3854	8327.45
3065.7759	8307.05
3068.16494	8295.85
3070.55254	8274.15
3072.93868	8280.35
3075.32338	8235.35
3077.70662	8210.15
3080.08842	8225.45
3082.46878	8199.05
3084.84769	8189.95
3087.22515	8180.05
3089.60118	8185.95
3091.97576	8220.15
3094.3489	8182.75
3096.72061	8186.65
3099.09087	8184.85
3101.4597	8182.25
3103.82709	8168.25
3106.19305	8161.75
3108.55757	8172.65
3110.92066	8137.25
3113.28232	8174.25
3115.64255	8152.05
3118.00134	8121.75
3120.35871	8108.55
3122.71466	8097.95
3125.06917	8079.25
3127.42226	8054.95
3129.77393	8045.95
3132.12417	8052.15
3134.47299	8053.95
3136.82039	8043.95
3139.16636	8057.45
3141.51092	8060.85
3143.85406	8031.75
3146.19579	8053.45
3148.53609	8046.75
3150.87499	8079.65
3153.21246	8067.65
3155.54853	8081.35
3157.88318	8101.55
3160.21642	8072.55
3162.54826	8082.65
3164.87868	8074.85
3167.2077	8090.55
3169.5353	8098.85
3171.86151	8085.75
3174.18631	8097.35
3176.5097	8089.65
3178.83169	8080.65
3181.15228	8075.65
3183.47147	8069.45
3185.78926	8067.95
3188.10565	8044.35
3190.42065	8050.25
3192.73424	8035.65
3195.04645	8028.85
3197.35725	8032.85
3199.66667	8018.95
3201.97469	8037.95
3204.28132	8050.65
3206.58656	8043.75
3208.8904	8047.45
3211.19287	8054.85
3213.49394	8059.35
3215.79363	8032.25
3218.09193	8064.85
3220.38884	8066.85
3222.68438	8049.85
3224.97853	8026.55
3227.2713	8047.15
3229.56269	8030.65
3231.8527	8040.65
3234.14133	8010.85
3236.42858	8019.45
3238.71446	8019.35
3240.99896	7968.55
3243.28209	7970.25
3245.56384	7963.35
3247.84423	7972.55
3250.12324	7944.65
3252.40088	7962.45
3254.67715	7937.95
3256.95205	7914.25
3259.22558	7943.15
3261.49775	7915.15
3263.76855	7893.45
3266.03799	7898.55
3268.30606	7900.45
3270.57277	7891.05
3272.83812	7867.55
3275.10211	7856.85
