Data from AgNP_FTO_APTES_UA_10uM_CRN_20uM_R6G_10uM_NaF_0.1M_Addition_RamanShift__0__16-02-50-730.txt Node

Date: Thu Feb 10 16:02:50 GMT 2022
User: TCL
Spectrometer: QEP01345
Trigger mode: 4
Integration Time (sec): 7.000000E0
Scans to average: 10
Electric dark correction enabled: true
Nonlinearity correction enabled: false
Boxcar width: 0
XAxis mode: Raman Shifts
Number of Pixels in Spectrum: 1044
>>>>>Begin Spectral Data<<<<<
46.04893	-0.025
50.45542	0.075
54.85868	-0.425
59.25871	0.775
63.6555	29.775
68.04907	29.175
72.43941	31.775
76.82654	28.875
81.21044	35.775
85.59113	30.475
89.96862	32.675
94.34289	34.675
98.71396	37.175
103.08183	39.675
107.4465	38.575
111.80798	37.475
116.16626	42.675
120.52136	43.075
124.87327	47.375
129.222	47.075
133.56755	51.875
137.90993	52.475
142.24913	56.175
146.58517	64.675
150.91804	78.075
155.24774	92.375
159.57429	113.775
163.89768	144.175
168.21792	191.275
172.53501	261.975
176.84895	368.675
181.15975	521.375
185.46741	731.675
189.77193	1020.075
194.07331	1347.575
198.37157	1734.575
202.6667	2155.975
206.9587	2553.775
211.24758	2973.175
215.53334	3373.675
219.81599	3810.675
224.09553	4280.375
228.37195	4792.175
232.64527	5358.475
236.91549	5966.075
241.18261	6536.175
245.44663	7088.375
249.70755	7567.275
253.96539	8025.475
258.22014	8395.475
262.4718	8723.775
266.72039	8946.275
270.96589	9059.975
275.20832	9099.975
279.44768	9047.975
283.68397	8966.875
287.91719	8841.875
292.14735	8795.275
296.37445	8799.175
300.59849	8887.375
304.81948	8962.475
309.03742	9018.775
313.25231	8941.175
317.46415	8780.175
321.67296	8502.775
325.87872	8311.475
330.08145	8213.675
334.28114	8224.975
338.47781	8317.775
342.67145	8412.475
346.86207	8572.475
351.04966	8789.975
355.23424	9010.375
359.4158	9192.875
363.59435	9341.075
367.76989	9401.675
371.94243	9502.775
376.11196	9562.075
380.27849	9565.275
384.44203	9603.575
388.60257	9655.675
392.76012	9718.075
396.91468	9828.975
401.06626	10012.875
405.21485	10131.875
409.36047	10131.675
413.50311	10066.575
417.64277	10065.075
421.77947	10222.275
425.9132	10484.875
430.04396	10675.175
434.17176	10707.075
438.2966	10648.375
442.41849	10604.375
446.53742	10713.875
450.6534	10974.175
454.76644	11189.275
458.87653	11184.475
462.98368	11010.375
467.08789	10813.275
471.18916	10621.775
475.2875	10495.475
479.38291	10457.375
483.4754	10454.475
487.56496	10420.075
491.6516	10369.675
495.73531	10196.675
499.81612	10080.275
503.89401	10034.675
507.96899	10020.975
512.04106	9964.175
516.11023	9918.075
520.1765	9885.875
524.23987	9840.075
528.30034	9778.175
532.35792	9710.075
536.41261	9623.575
540.46441	9471.075
544.51333	9466.175
548.55936	9514.975
552.60252	9692.075
556.64279	9892.075
560.6802	10035.075
564.71473	10137.475
568.7464	10328.275
572.7752	10520.175
576.80114	10630.475
580.82422	10703.875
584.84444	10833.775
588.86181	11162.375
592.87633	11466.275
596.888	11549.075
600.89682	11391.875
604.9028	11583.175
608.90594	12650.375
612.90624	13878.975
616.90371	13106.275
620.89834	10925.775
624.89015	9943.675
628.87913	9790.275
632.86528	9804.575
636.84862	9765.975
640.82913	9640.175
644.80683	9403.175
648.78172	9269.075
652.75379	9296.275
656.72306	9420.875
660.68952	9616.475
664.65319	9546.175
668.61405	9353.375
672.57211	9314.075
676.52738	9361.275
680.47986	9385.075
684.42955	9335.875
688.37646	9390.675
692.32058	9514.475
696.26192	9808.275
700.20048	10137.175
704.13626	10391.975
708.06928	10452.175
711.99952	10305.875
715.927	10135.975
719.85171	9997.675
723.77365	9877.775
727.69284	9731.275
731.60928	9592.775
735.52295	9556.775
739.43388	9558.975
743.34206	9525.575
747.24749	9546.475
751.15017	9590.875
755.05012	9704.675
758.94733	9941.175
762.8418	10395.875
766.73354	11098.775
770.62254	11775.975
774.50882	12049.075
778.39237	11640.175
782.27321	10838.175
786.15132	10156.775
790.02671	9749.375
793.89938	9551.675
797.76935	9489.875
801.6366	9471.375
805.50115	9410.175
809.36299	9416.375
813.22213	9386.775
817.07857	9353.975
820.93231	9362.375
824.78336	9343.175
828.63172	9344.975
832.47738	9348.675
836.32036	9365.575
840.16066	9366.275
843.99827	9388.275
847.8332	9336.575
851.66546	9320.575
855.49504	9315.975
859.32195	9327.875
863.1462	9315.075
866.96777	9255.975
870.78668	9222.775
874.60293	9246.875
878.41652	9272.475
882.22745	9291.875
886.03573	9324.875
889.84136	9306.875
893.64433	9248.375
897.44466	9237.075
901.24235	9215.975
905.0374	9194.975
908.8298	9196.575
912.61957	9209.075
916.40671	9293.275
920.19121	9358.475
923.97308	9450.975
927.75233	9437.975
931.52895	9428.375
935.30295	9332.575
939.07433	9224.375
942.84309	9087.575
946.60924	9065.675
950.37278	9042.975
954.13371	9008.375
957.89203	8994.275
961.64774	8969.475
965.40086	8956.375
969.15137	8928.875
972.89929	8925.575
976.64461	8911.875
980.38733	8931.175
984.12747	8989.675
987.86502	9054.475
991.59999	9149.175
995.33237	9267.175
999.06217	9418.175
1002.78939	9624.475
1006.51404	9758.275
1010.23611	9846.675
1013.95561	9934.475
1017.67255	9909.575
1021.38692	9808.175
1025.09872	9708.875
1028.80796	9703.075
1032.51465	9866.475
1036.21877	10041.875
1039.92035	10093.175
1043.61937	10021.375
1047.31584	9889.875
1051.00976	9748.475
1054.70114	9686.375
1058.38998	9703.075
1062.07627	9722.375
1065.76003	9764.275
1069.44126	9836.975
1073.11995	9924.575
1076.79611	10024.075
1080.46974	10114.975
1084.14085	10241.175
1087.80943	10387.675
1091.47549	10478.875
1095.13903	10479.275
1098.80005	10338.375
1102.45857	10178.875
1106.11456	10099.675
1109.76805	10064.475
1113.41903	10119.475
1117.06751	10206.075
1120.71348	10276.975
1124.35696	10397.575
1127.99793	10510.075
1131.63641	10523.575
1135.2724	10422.475
1138.90589	10295.575
1142.5369	10234.875
1146.16542	10227.075
1149.79145	10263.375
1153.415	10316.975
1157.03607	10435.775
1160.65467	10659.675
1164.27079	11057.775
1167.88443	11528.875
1171.49561	12087.275
1175.10432	12865.275
1178.71056	13862.275
1182.31434	14720.375
1185.91565	15096.275
1189.51451	14886.575
1193.11091	14376.875
1196.70485	13799.275
1200.29634	13357.075
1203.88538	13039.675
1207.47197	12818.475
1211.05612	12607.775
1214.63782	12363.275
1218.21708	12182.475
1221.79391	12047.275
1225.36829	12009.675
1228.94024	11944.375
1232.50976	11780.275
1236.07685	11649.175
1239.6415	11623.475
1243.20374	11740.775
1246.76355	11945.075
1250.32093	12245.575
1253.8759	12529.875
1257.42845	12892.075
1260.97859	13223.075
1264.52631	13503.575
1268.07163	13773.675
1271.61453	13986.975
1275.15503	14177.175
1278.69312	14344.275
1282.22882	14506.975
1285.76211	14766.475
1289.29301	15084.975
1292.82151	15632.175
1296.34761	16236.875
1299.87133	17068.175
1303.39266	18058.375
1306.9116	19117.675
1310.42815	20017.375
1313.94233	20554.275
1317.45412	20461.875
1320.96354	19946.075
1324.47058	19545.175
1327.97525	19153.875
1331.47754	18455.875
1334.97747	18183.275
1338.47502	18043.875
1341.97022	17803.575
1345.46305	17542.275
1348.95352	17467.175
1352.44163	17720.575
1355.92738	18345.575
1359.41078	19487.375
1362.89183	20513.275
1366.37053	20135.875
1369.84688	18373.675
1373.32088	16356.075
1376.79254	15106.975
1380.26186	14840.375
1383.72883	15069.975
1387.19347	15333.275
1390.65578	15158.175
1394.11575	14793.175
1397.57339	14655.075
1401.0287	14707.975
1404.48168	14796.575
1407.93234	14833.675
1411.38068	14589.775
1414.82669	14231.975
1418.27039	13753.275
1421.71177	13211.175
1425.15083	12787.575
1428.58758	12555.175
1432.02203	12631.575
1435.45416	12872.675
1438.88399	13217.075
1442.31151	13485.975
1445.73673	13831.475
1449.15965	13948.175
1452.58027	13794.975
1455.9986	13702.875
1459.41463	13650.075
1462.82837	13783.175
1466.23982	14036.575
1469.64898	14284.275
1473.05586	14474.775
1476.46045	14599.775
1479.86276	14567.775
1483.26279	14514.975
1486.66054	14497.775
1490.05602	14565.175
1493.44922	14655.675
1496.84016	14828.875
1500.22882	15164.075
1503.61521	15687.275
1506.99934	16357.375
1510.38121	16948.875
1513.76081	17211.075
1517.13816	16831.675
1520.51324	15973.175
1523.88607	15185.675
1527.25665	14699.175
1530.62498	14513.475
1533.99105	14432.875
1537.35488	14273.075
1540.71647	14057.975
1544.07581	13817.575
1547.4329	13539.675
1550.78776	13323.975
1554.14038	13167.375
1557.49077	13105.775
1560.83892	13107.675
1564.18484	13171.475
1567.52853	13288.375
1570.86999	13440.675
1574.20922	13675.975
1577.54624	13826.175
1580.88103	13856.375
1584.2136	13881.975
1587.54395	14245.475
1590.87208	14964.275
1594.19801	15855.575
1597.52172	16670.675
1600.84321	16890.475
1604.16251	16147.275
1607.47959	14961.975
1610.79447	13688.775
1614.10715	12660.075
1617.41763	11886.675
1620.7259	11512.875
1624.03199	11379.875
1627.33587	11522.075
1630.63757	11948.375
1633.93707	12679.975
1637.23439	13788.475
1640.52951	15365.475
1643.82246	17281.175
1647.11321	18896.075
1650.40179	19506.775
1653.68819	18788.175
1656.97241	16829.575
1660.25446	14911.975
1663.53433	13469.175
1666.81203	12429.775
1670.08756	11625.275
1673.36092	10923.475
1676.63211	10425.575
1679.90115	10074.575
1683.16801	9960.875
1686.43272	9901.475
1689.69527	10103.675
1692.95567	10692.475
1696.2139	11723.875
1699.46999	12717.275
1702.72392	12740.675
1705.97571	11758.475
1709.22535	10644.975
1712.47284	9885.075
1715.71819	9463.975
1718.96139	9225.375
1722.20246	9096.875
1725.44139	8981.775
1728.67818	8899.175
1731.91284	8873.275
1735.14537	8842.475
1738.37576	8863.575
1741.60403	8941.675
1744.83017	9011.275
1748.05418	9184.475
1751.27607	9490.475
1754.49584	10015.375
1757.71349	10675.775
1760.92903	11021.475
1764.14244	10940.375
1767.35375	10858.275
1770.56294	10870.475
1773.77002	10532.575
1776.97499	9872.175
1780.17785	9274.875
1783.37861	8893.975
1786.57727	8658.975
1789.77382	8533.075
1792.96828	8470.275
1796.16064	8393.175
1799.3509	8346.375
1802.53907	8316.775
1805.72514	8267.775
1808.90913	8238.375
1812.09102	8196.875
1815.27083	8187.775
1818.44856	8158.375
1821.6242	8129.275
1824.79776	8105.675
1827.96924	8098.675
1831.13864	8098.975
1834.30597	8102.075
1837.47122	8083.575
1840.6344	8064.775
1843.7955	8089.975
1846.95454	8067.275
1850.11151	8055.075
1853.26642	8056.375
1856.41926	8059.775
1859.57004	8047.675
1862.71876	8025.475
1865.86542	8029.975
1869.01003	8029.675
1872.15258	8010.675
1875.29308	8007.875
1878.43152	8007.975
1881.56792	8009.775
1884.70227	7992.775
1887.83457	8002.375
1890.96482	7994.475
1894.09304	7988.375
1897.21921	7989.375
1900.34335	7980.775
1903.46544	7948.275
1906.58551	7970.775
1909.70353	7955.275
1912.81953	7943.575
1915.93349	7937.775
1919.04543	7925.575
1922.15534	7908.575
1925.26322	7879.875
1928.36908	7883.775
1931.47292	7882.775
1934.57473	7846.975
1937.67453	7838.575
1940.77232	7839.575
1943.86808	7807.175
1946.96184	7780.275
1950.05358	7753.775
1953.14331	7716.875
1956.23103	7721.175
1959.31675	7681.775
1962.40046	7662.375
1965.48217	7658.475
1968.56188	7655.475
1971.63959	7616.975
1974.7153	7588.575
1977.78901	7556.075
1980.86073	7536.275
1983.93046	7517.775
1986.99819	7503.275
1990.06394	7508.375
1993.1277	7470.875
1996.18947	7428.075
1999.24925	7433.375
2002.30706	7430.875
2005.36288	7391.375
2008.41672	7360.875
2011.46859	7342.175
2014.51848	7325.475
2017.56639	7327.475
2020.61233	7304.275
2023.6563	7288.975
2026.6983	7293.975
2029.73833	7267.375
2032.7764	7235.075
2035.8125	7235.375
2038.84664	7203.275
2041.87881	7195.975
2044.90903	7178.475
2047.93729	7173.875
2050.96359	7184.275
2053.98794	7247.475
2057.01034	7189.975
2060.03078	7176.075
2063.04927	7166.875
2066.06582	7157.475
2069.08042	7169.175
2072.09307	7159.275
2075.10378	7137.875
2078.11255	7136.275
2081.11938	7142.675
2084.12426	7129.275
2087.12722	7126.275
2090.12824	7126.275
2093.12732	7128.475
2096.12447	7139.275
2099.11969	7108.475
2102.11299	7135.275
2105.10435	7115.175
2108.09379	7132.975
2111.08131	7158.175
2114.0669	7149.975
2117.05057	7144.675
2120.03233	7156.375
2123.01216	7156.975
2125.99008	7181.775
2128.96609	7186.675
2131.94018	7184.275
2134.91236	7207.775
2137.88263	7203.075
2140.851	7204.275
2143.81746	7208.075
2146.78201	7191.375
2149.74466	7199.575
2152.7054	7206.575
2155.66425	7210.475
2158.6212	7197.375
2161.57625	7194.675
2164.52941	7221.975
2167.48067	7199.375
2170.43004	7192.175
2173.37752	7182.175
2176.32311	7195.875
2179.26681	7214.175
2182.20863	7205.775
2185.14856	7203.775
2188.08661	7210.775
2191.02278	7184.175
2193.95707	7216.575
2196.88948	7211.075
2199.82001	7176.475
2202.74867	7211.075
2205.67545	7200.175
2208.60037	7182.875
2211.52341	7168.675
2214.44458	7163.775
2217.36388	7133.675
2220.28132	7130.075
2223.1969	7127.775
2226.11061	7121.775
2229.02246	7113.675
2231.93245	7107.475
2234.84058	7064.675
2237.74686	7080.575
2240.65128	7082.975
2243.55385	7045.175
2246.45456	7035.175
2249.35343	7024.975
2252.25044	7044.375
2255.14561	7046.975
2258.03893	7186.475
2260.93041	7383.275
2263.82004	7147.775
2266.70783	7074.675
2269.59378	6995.475
2272.4779	6945.475
2275.36017	6925.675
2278.24061	6912.575
2281.11922	6892.175
2283.996	6890.675
2286.87094	6894.475
2289.74405	6889.775
2292.61534	6880.775
2295.4848	6856.975
2298.35243	6875.275
2301.21824	6875.875
2304.08223	6860.175
2306.94439	6891.375
2309.80474	6891.575
2312.66327	6921.475
2315.51999	6883.975
2318.37489	6887.275
2321.22797	6892.375
2324.07925	6891.775
2326.92871	6881.975
2329.77637	6886.175
2332.62222	6890.375
2335.46626	6885.775
2338.3085	6897.375
2341.14893	6919.175
2343.98756	6893.275
2346.8244	6857.275
2349.65943	6862.175
2352.49267	6888.275
2355.32411	6833.075
2358.15376	6823.875
2360.98161	6829.675
2363.80768	6817.975
2366.63195	6824.675
2369.45444	6794.875
2372.27514	6784.775
2375.09405	6786.175
2377.91118	6752.375
2380.72652	6739.675
2383.54009	6728.875
2386.35187	6717.975
2389.16188	6697.475
2391.97011	6690.475
2394.77657	6675.875
2397.58125	6681.275
2400.38416	6706.075
2403.18529	6682.075
2405.98466	6666.875
2408.78226	6672.575
2411.57809	6676.475
2414.37216	6653.075
2417.16446	6656.875
2419.955	6638.375
2422.74378	6623.275
2425.5308	6609.975
2428.31606	6614.175
2431.09956	6625.175
2433.88131	6601.375
2436.6613	6585.175
2439.43954	6577.375
2442.21603	6585.275
2444.99077	6579.375
2447.76377	6568.575
2450.53501	6560.575
2453.30451	6588.675
2456.07226	6554.075
2458.83827	6563.275
2461.60254	6568.375
2464.36507	6552.575
2467.12586	6526.275
2469.88492	6549.875
2472.64224	6572.475
2475.39782	6772.175
2478.15167	6830.075
2480.90379	6671.575
2483.65417	6643.475
2486.40283	6613.575
2489.14976	6609.375
2491.89497	6622.375
2494.63845	6845.375
2497.3802	6864.075
2500.12024	6682.375
2502.85855	6643.775
2505.59514	6606.475
2508.33002	6566.675
2511.06318	6543.975
2513.79462	6541.875
2516.52435	6523.075
2519.25237	6504.675
2521.97867	6518.675
2524.70327	6514.675
2527.42616	6501.375
2530.14734	6480.575
2532.86681	6492.975
2535.58458	6485.475
2538.30065	6487.275
2541.01501	6483.775
2543.72768	6494.075
2546.43864	6482.075
2549.14791	6477.375
2551.85548	6458.175
2554.56136	6457.575
2557.26554	6422.675
2559.96803	6414.375
2562.66883	6422.475
2565.36794	6422.275
2568.06536	6419.075
2570.7611	6408.875
2573.45514	6396.775
2576.14751	6395.075
2578.83819	6399.275
2581.52719	6378.075
2584.21451	6377.475
2586.90015	6355.975
2589.58411	6360.275
2592.2664	6373.375
2594.94701	6345.875
2597.62594	6342.375
2600.30321	6336.275
2602.9788	6324.775
2605.65273	6344.075
2608.32498	6323.775
2610.99557	6334.875
2613.66449	6325.575
2616.33175	6311.075
2618.99734	6328.375
2621.66128	6315.575
2624.32355	6331.575
2626.98416	6303.775
2629.64311	6304.675
2632.30041	6283.275
2634.95605	6277.275
2637.61004	6263.975
2640.26238	6272.075
2642.91306	6252.075
2645.56209	6265.875
2648.20948	6321.875
2650.85521	6286.375
2653.4993	6280.775
2656.14175	6268.475
2658.78255	6269.275
2661.42171	6251.075
2664.05923	6275.475
2666.6951	6263.275
2669.32934	6290.275
2671.96194	6285.575
2674.59291	6285.775
2677.22224	6284.175
2679.84993	6281.675
2682.476	6252.675
2685.10043	6284.975
2687.72324	6254.075
2690.34441	6279.875
2692.96396	6277.675
2695.58188	6290.375
2698.19818	6278.975
2700.81285	6341.275
2703.4259	6808.075
2706.03733	7756.875
2708.64714	7082.775
2711.25533	6674.875
2713.86191	6559.475
2716.46687	6507.875
2719.07021	6414.375
2721.67194	6352.075
2724.27206	6316.575
2726.87057	6309.275
2729.46747	6311.775
2732.06276	6309.875
2734.65644	6294.875
2737.24852	6298.875
2739.83899	6280.575
2742.42786	6292.875
2745.01513	6278.375
2747.60079	6271.975
2750.18486	6253.175
2752.76733	6260.175
2755.3482	6258.175
2757.92747	6258.275
2760.50515	6252.775
2763.08123	6237.975
2765.65573	6227.075
2768.22863	6247.775
2770.79994	6231.575
2773.36967	6242.075
2775.9378	6240.175
2778.50435	6234.775
2781.06932	6230.875
2783.6327	6229.875
2786.1945	6225.275
2788.75471	6220.575
2791.31335	6204.175
2793.87041	6220.375
2796.42589	6172.875
2798.97979	6188.775
2801.53212	6191.275
2804.08288	6205.775
2806.63206	6173.475
2809.17967	6143.675
2811.72571	6147.775
2814.27018	6128.375
2816.81308	6127.075
2819.35442	6096.575
2821.89419	6091.175
2824.43239	6093.375
2826.96904	6086.975
2829.50412	6083.775
2832.03763	6071.575
2834.56959	6073.175
2837.1	6038.575
2839.62884	6058.475
2842.15613	6079.975
2844.68186	6058.475
2847.20604	6063.475
2849.72867	6077.175
2852.24974	6093.375
2854.76927	6296.975
2857.28724	6517.275
2859.80367	6284.375
2862.31855	6176.975
2864.83189	6147.175
2867.34368	6090.775
2869.85393	6087.575
2872.36264	6039.575
2874.8698	6037.175
2877.37543	6014.475
2879.87952	6005.575
2882.38207	6006.175
2884.88308	6015.075
2887.38256	6009.375
2889.88051	6011.175
2892.37692	6030.075
2894.8718	6027.475
2897.36515	6012.675
2899.85698	6017.475
2902.34727	6026.875
2904.83604	6029.775
2907.32328	6047.375
2909.809	6022.275
2912.29319	6031.775
2914.77587	6024.075
2917.25702	6022.675
2919.73665	6026.275
2922.21476	6028.375
2924.69136	6013.175
2927.16644	6009.175
2929.64	6007.675
2932.11205	6002.675
2934.58258	5986.575
2937.05161	5971.775
2939.51912	5990.575
2941.98513	5985.275
2944.44962	5971.775
2946.91261	5959.675
2949.37409	5969.275
2951.83407	5973.375
2954.29254	5970.375
2956.74951	5955.875
2959.20498	5951.275
2961.65895	5961.175
2964.11142	5973.175
2966.56239	5949.375
2969.01186	5936.475
2971.45984	5924.875
2973.90632	5935.175
2976.35131	5927.275
2978.7948	5910.275
2981.23681	5905.275
2983.67732	5884.275
2986.11635	5875.775
2988.55388	5850.575
2990.98993	5847.875
2993.4245	5843.575
2995.85758	5826.075
2998.28917	5813.875
3000.71928	5802.475
3003.14791	5796.775
3005.57506	5785.975
3008.00073	5760.875
3010.42493	5658.775
3012.84764	5728.775
3015.26888	5749.275
3017.68865	5713.975
3020.10694	5730.975
3022.52376	5722.775
3024.9391	5700.875
3027.35298	5726.375
3029.76539	5714.475
3032.17632	5710.275
3034.5858	5704.575
3036.9938	5703.675
3039.40034	5694.775
3041.80542	5706.675
3044.20903	5685.675
3046.61118	5696.775
3049.01187	5672.475
3051.4111	5654.375
3053.80888	5639.375
3056.20519	5617.675
3058.60005	5612.975
3060.99345	5617.675
3063.3854	5599.975
3065.7759	5590.675
3068.16494	5588.675
3070.55254	5557.775
3072.93868	5574.675
3075.32338	5545.475
3077.70662	5535.475
3080.08842	5526.375
3082.46878	5521.275
3084.84769	5498.675
3087.22515	5517.375
3089.60118	5518.775
3091.97576	5518.675
3094.3489	5502.675
3096.72061	5506.375
3099.09087	5516.675
3101.4597	5504.675
3103.82709	5512.275
3106.19305	5490.575
3108.55757	5489.475
3110.92066	5465.775
3113.28232	5472.875
3115.64255	5458.975
3118.00134	5450.375
3120.35871	5440.275
3122.71466	5440.175
3125.06917	5417.675
3127.42226	5401.575
3129.77393	5423.475
3132.12417	5389.775
3134.47299	5392.675
3136.82039	5398.275
3139.16636	5418.775
3141.51092	5411.775
3143.85406	5398.175
3146.19579	5379.475
3148.53609	5385.875
3150.87499	5379.975
3153.21246	5398.875
3155.54853	5399.475
3157.88318	5403.675
3160.21642	5405.975
3162.54826	5410.875
3164.87868	5403.875
3167.2077	5394.675
3169.5353	5417.975
3171.86151	5407.675
3174.18631	5420.675
3176.5097	5379.975
3178.83169	5391.075
3181.15228	5382.775
3183.47147	5385.175
3185.78926	5377.075
3188.10565	5367.975
3190.42065	5362.075
3192.73424	5362.075
3195.04645	5371.075
3197.35725	5341.675
3199.66667	5371.475
3201.97469	5372.575
3204.28132	5351.175
3206.58656	5380.975
