Data from AgNP_FTO_APTES_UA_10uM_CRN_20uM_R6G_10uM_NaF_0.1M_Addition_RamanShift__16__16-21-30-753.txt Node

Date: Thu Feb 10 16:21:30 GMT 2022
User: TCL
Spectrometer: QEP01345
Trigger mode: 4
Integration Time (sec): 7.000000E0
Scans to average: 10
Electric dark correction enabled: true
Nonlinearity correction enabled: false
Boxcar width: 0
XAxis mode: Raman Shifts
Number of Pixels in Spectrum: 1044
>>>>>Begin Spectral Data<<<<<
46.04893	-0.3
50.45542	-0.5
54.85868	-1.7
59.25871	0.2
63.6555	68.1
68.04907	69.5
72.43941	74.3
76.82654	72.1
81.21044	78.7
85.59113	78
89.96862	85.8
94.34289	87
98.71396	88.3
103.08183	93.5
107.4465	98
111.80798	96.2
116.16626	100.5
120.52136	101.5
124.87327	108.9
129.222	112.5
133.56755	123.3
137.90993	126.7
142.24913	140.4
146.58517	161.1
150.91804	184.7
155.24774	220.8
159.57429	276.3
163.89768	350.5
168.21792	463.4
172.53501	638
176.84895	889.7
181.15975	1251
185.46741	1754.4
189.77193	2419.1
194.07331	3223.6
198.37157	4155.5
202.6667	5148.2
206.9587	6099.1
211.24758	7035.7
215.53334	7987.5
219.81599	8968
224.09553	10051.6
228.37195	11237.9
232.64527	12545.3
236.91549	13948.4
241.18261	15360.7
245.44663	16721.4
249.70755	17912.5
253.96539	19026.6
258.22014	19913.8
262.4718	20694.6
266.72039	21282.2
270.96589	21631.4
275.20832	21748.1
279.44768	21686.1
283.68397	21627.3
287.91719	21487.4
292.14735	21438.2
296.37445	21433.3
300.59849	21464
304.81948	21448.8
309.03742	21258.8
313.25231	20944.2
317.46415	20463.7
321.67296	19918
325.87872	19448.3
330.08145	19242.1
334.28114	19257.7
338.47781	19387.4
342.67145	19564.5
346.86207	19899.3
351.04966	20249
355.23424	20556.7
359.4158	20874.3
363.59435	21059.2
367.76989	21239.4
371.94243	21364.5
376.11196	21490.6
380.27849	21595.1
384.44203	21699.4
388.60257	21829.8
392.76012	22092.7
396.91468	22319.7
401.06626	22634.2
405.21485	22838.6
409.36047	22687
413.50311	22449.4
417.64277	22221.7
421.77947	22167.8
425.9132	22242.9
430.04396	22376.6
434.17176	22496.9
438.2966	22668.5
442.41849	23021.4
446.53742	23508.1
450.6534	24056.9
454.76644	24562.9
458.87653	24756.9
462.98368	24757.7
467.08789	24645.9
471.18916	24491.8
475.2875	24290
479.38291	24287.3
483.4754	24149.6
487.56496	23818.4
491.6516	23412.5
495.73531	23027.7
499.81612	22840.9
503.89401	22879.6
507.96899	22929.4
512.04106	22910.5
516.11023	22752.1
520.1765	22535.4
524.23987	22328.6
528.30034	22148.9
532.35792	21913.9
536.41261	21740.1
540.46441	21606.6
544.51333	21689.3
548.55936	21987.3
552.60252	22445
556.64279	22941.5
560.6802	23292.4
564.71473	23465.6
568.7464	23782.4
572.7752	24309.7
576.80114	24681
580.82422	25045.9
584.84444	25170.5
588.86181	25324.9
592.87633	25422.8
596.888	25477
600.89682	25460.2
604.9028	26104.5
608.90594	27796.9
612.90624	29314.6
616.90371	27510.8
620.89834	23871.3
624.89015	22299.5
628.87913	22239.9
632.86528	22311.8
636.84862	22280.2
640.82913	22019.1
644.80683	21587.2
648.78172	21194.6
652.75379	21138.4
656.72306	21269.6
660.68952	21503.7
664.65319	21426.7
668.61405	21151.7
672.57211	21096.7
676.52738	21123
680.47986	21106.5
684.42955	21051.9
688.37646	20990.8
692.32058	21050.6
696.26192	21277.8
700.20048	21524.1
704.13626	21635.3
708.06928	21646.8
711.99952	21525.7
715.927	21447.1
719.85171	21453.6
723.77365	21400.1
727.69284	21223.8
731.60928	20998.5
735.52295	20891.6
739.43388	20874.2
743.34206	20927.2
747.24749	21008.7
751.15017	21190.1
755.05012	21540
758.94733	22154.8
762.8418	23130
766.73354	24591.5
770.62254	25899.4
774.50882	26060.3
778.39237	24932.4
782.27321	23324.4
786.15132	22082.6
790.02671	21354.9
793.89938	20982.9
797.76935	20861.9
801.6366	20761.9
805.50115	20702.4
809.36299	20597
813.22213	20445.5
817.07857	20407
820.93231	20357.4
824.78336	20290.1
828.63172	20209.3
832.47738	20176.8
836.32036	20167.1
840.16066	20207.5
843.99827	20277.5
847.8332	20217.9
851.66546	20141.2
855.49504	20150.2
859.32195	20127.6
863.1462	20139.6
866.96777	20047.4
870.78668	19975.1
874.60293	20019.3
878.41652	20013.9
882.22745	20027.5
886.03573	20067.9
889.84136	20038.5
893.64433	19965.6
897.44466	19893.8
901.24235	19830.5
905.0374	19745.2
908.8298	19793.3
912.61957	19855.3
916.40671	19997
920.19121	20229.2
923.97308	20379.5
927.75233	20321.9
931.52895	20171
935.30295	19958.5
939.07433	19635.6
942.84309	19415.3
946.60924	19317.6
950.37278	19251.7
954.13371	19250.9
957.89203	19181.1
961.64774	19158.9
965.40086	19113.5
969.15137	19070.9
972.89929	18992.5
976.64461	18958.3
980.38733	18939.5
984.12747	18989.7
987.86502	19095.1
991.59999	19305
995.33237	19558
999.06217	19967.1
1002.78939	20433.4
1006.51404	20696.7
1010.23611	20855.9
1013.95561	21046.6
1017.67255	21025.9
1021.38692	20877.1
1025.09872	20696.1
1028.80796	20663.9
1032.51465	20946.7
1036.21877	21310.3
1039.92035	21432.6
1043.61937	21262.3
1047.31584	20925.8
1051.00976	20687.6
1054.70114	20632.1
1058.38998	20693.1
1062.07627	20907.6
1065.76003	21076.3
1069.44126	21223
1073.11995	21415.5
1076.79611	21605.8
1080.46974	21737.6
1084.14085	21910.7
1087.80943	22102.2
1091.47549	22300.9
1095.13903	22310.2
1098.80005	22121.4
1102.45857	21715.7
1106.11456	21417.3
1109.76805	21263.3
1113.41903	21301.4
1117.06751	21401
1120.71348	21589.8
1124.35696	21732.3
1127.99793	21940
1131.63641	22054.1
1135.2724	22025.3
1138.90589	21944.3
1142.5369	21895
1146.16542	21980.8
1149.79145	22102.3
1153.415	22324
1157.03607	22720
1160.65467	23295.6
1164.27079	24231.2
1167.88443	25383.1
1171.49561	26823.1
1175.10432	28569.2
1178.71056	30646.8
1182.31434	32609.7
1185.91565	33860.6
1189.51451	34030.4
1193.11091	33435.5
1196.70485	32319.2
1200.29634	30988.6
1203.88538	29908.2
1207.47197	29230
1211.05612	28664.3
1214.63782	28062
1218.21708	27557.8
1221.79391	27075.7
1225.36829	26725.7
1228.94024	26417.8
1232.50976	26057
1236.07685	25764.7
1239.6415	25608.6
1243.20374	25635.9
1246.76355	25751.6
1250.32093	26091.4
1253.8759	26614.1
1257.42845	27263.7
1260.97859	27941.2
1264.52631	28622.7
1268.07163	29304
1271.61453	30077.3
1275.15503	30858.5
1278.69312	31689.9
1282.22882	32432.9
1285.76211	33231.7
1289.29301	34044.2
1292.82151	35270.2
1296.34761	36786.9
1299.87133	38626.8
1303.39266	40677.4
1306.9116	42637.1
1310.42815	44469.3
1313.94233	45608
1317.45412	45822
1320.96354	45537.7
1324.47058	45286.1
1327.97525	44977.1
1331.47754	44827.1
1334.97747	44904.9
1338.47502	45066.1
1341.97022	45127.8
1345.46305	44704.1
1348.95352	43872.2
1352.44163	42977.8
1355.92738	42455.7
1359.41078	42834.1
1362.89183	43323.8
1366.37053	42155.6
1369.84688	39329.9
1373.32088	36081.4
1376.79254	33938.9
1380.26186	33144.7
1383.72883	33166.9
1387.19347	33328.7
1390.65578	33293.7
1394.11575	33415.2
1397.57339	33756.8
1401.0287	34280.9
1404.48168	34726.7
1407.93234	34739.6
1411.38068	34116
1414.82669	33045.8
1418.27039	31629.6
1421.71177	30274.9
1425.15083	29141.8
1428.58758	28518.3
1432.02203	28581.5
1435.45416	29191.3
1438.88399	30000.7
1442.31151	30763.5
1445.73673	31319.3
1449.15965	31913.6
1452.58027	32340.8
1455.9986	32692.7
1459.41463	32980.5
1462.82837	33470.9
1466.23982	33943.4
1469.64898	34370
1473.05586	34485.6
1476.46045	34387.7
1479.86276	33983.3
1483.26279	33526
1486.66054	33104
1490.05602	33066.7
1493.44922	33141.2
1496.84016	33363.1
1500.22882	33899.3
1503.61521	34733.9
1506.99934	35817.9
1510.38121	36733.3
1513.76081	37003.8
1517.13816	36445.3
1520.51324	35456.9
1523.88607	34584.6
1527.25665	34064.5
1530.62498	33937.7
1533.99105	33958
1537.35488	33817.8
1540.71647	33412.9
1544.07581	32769.4
1547.4329	32107.3
1550.78776	31520.7
1554.14038	31106
1557.49077	30919.4
1560.83892	30785.5
1564.18484	30702.9
1567.52853	30754.2
1570.86999	30890.2
1574.20922	31270.9
1577.54624	31772.8
1580.88103	31976.1
1584.2136	32216.5
1587.54395	32911
1590.87208	34124.8
1594.19801	35698.6
1597.52172	37308.1
1600.84321	37634.9
1604.16251	36321.3
1607.47959	33961.3
1610.79447	31478.7
1614.10715	29057
1617.41763	27003.2
1620.7259	25475.3
1624.03199	24567.4
1627.33587	24460.2
1630.63757	25019.2
1633.93707	26461.8
1637.23439	28751.7
1640.52951	31933.9
1643.82246	35323.8
1647.11321	37699.3
1650.40179	37898
1653.68819	35524.8
1656.97241	31479.4
1660.25446	27408.5
1663.53433	24289.7
1666.81203	22145.8
1670.08756	20714.9
1673.36092	19880.1
1676.63211	19255.1
1679.90115	18867.7
1683.16801	18537.8
1686.43272	18277.8
1689.69527	18120.5
1692.95567	18004.3
1696.2139	17907.9
1699.46999	17850.8
1702.72392	17773.6
1705.97571	17681.3
1709.22535	17607.5
1712.47284	17555.3
1715.71819	17542.5
1718.96139	17492.8
1722.20246	17401.1
1725.44139	17314.1
1728.67818	17206.2
1731.91284	17107.1
1735.14537	17011.8
1738.37576	16935.7
1741.60403	16867.2
1744.83017	16782
1748.05418	16762.8
1751.27607	16744.8
1754.49584	16730.7
1757.71349	16712
1760.92903	16665
1764.14244	16635.6
1767.35375	16621.6
1770.56294	16616.6
1773.77002	16593.7
1776.97499	16548.2
1780.17785	16503.1
1783.37861	16471.7
1786.57727	16471.4
1789.77382	16389.1
1792.96828	16366
1796.16064	16328.8
1799.3509	16314.2
1802.53907	16266.9
1805.72514	16238.6
1808.90913	16184
1812.09102	16147
1815.27083	16076.9
1818.44856	16082.9
1821.6242	16057.3
1824.79776	16023.3
1827.96924	16028.7
1831.13864	16000.9
1834.30597	16002.6
1837.47122	16009.4
1840.6344	16025.4
1843.7955	16040.9
1846.95454	16017.3
1850.11151	15985
1853.26642	15999.5
1856.41926	15988.6
1859.57004	15984.5
1862.71876	15935.2
1865.86542	15936.9
1869.01003	15899.4
1872.15258	15883
1875.29308	15883.4
1878.43152	15867.2
1881.56792	15838.7
1884.70227	15829.7
1887.83457	15830
1890.96482	15788.6
1894.09304	15754.7
1897.21921	15755.2
1900.34335	15715.8
1903.46544	15704.5
1906.58551	15668.8
1909.70353	15662
1912.81953	15638
1915.93349	15596.1
1919.04543	15583.8
1922.15534	15544.6
1925.26322	15495.2
1928.36908	15478.8
1931.47292	15440.8
1934.57473	15378.4
1937.67453	15341.6
1940.77232	15299.4
1943.86808	15260.7
1946.96184	15212.1
1950.05358	15148.5
1953.14331	15089.8
1956.23103	15036.6
1959.31675	15040.2
1962.40046	15001.9
1965.48217	14919.9
1968.56188	14904.1
1971.63959	14837.7
1974.7153	14807.6
1977.78901	14737.4
1980.86073	14702.3
1983.93046	14677.2
1986.99819	14605
1990.06394	14558.3
1993.1277	14529.6
1996.18947	14456
1999.24925	14440.7
2002.30706	14379.5
2005.36288	14322.9
2008.41672	14284.9
2011.46859	14264.6
2014.51848	14240
2017.56639	14194.8
2020.61233	14159.2
2023.6563	14150.1
2026.6983	14116.6
2029.73833	14068.9
2032.7764	14032.1
2035.8125	14008.8
2038.84664	13974.9
2041.87881	13946.5
2044.90903	13896
2047.93729	13858
2050.96359	13858.2
2053.98794	13837.8
2057.01034	13818.1
2060.03078	13827.1
2063.04927	13800.1
2066.06582	13828.4
2069.08042	13797.3
2072.09307	13821.5
2075.10378	13804.7
2078.11255	13772.4
2081.11938	13760.1
2084.12426	13768.5
2087.12722	13761.2
2090.12824	13725.7
2093.12732	13735.3
2096.12447	13750.8
2099.11969	13721.7
2102.11299	13697.8
2105.10435	13712.1
2108.09379	13695.9
2111.08131	13754.8
2114.0669	13737.4
2117.05057	13723.9
2120.03233	13740.6
2123.01216	13779.9
2125.99008	13761.5
2128.96609	13755.4
2131.94018	13801.5
2134.91236	13816.3
2137.88263	13821.1
2140.851	13816.6
2143.81746	13827.3
2146.78201	13791.9
2149.74466	13800.9
2152.7054	13778
2155.66425	13810
2158.6212	13797.8
2161.57625	13798.3
2164.52941	13805.3
2167.48067	13781.8
2170.43004	13793
2173.37752	13758.7
2176.32311	13750.3
2179.26681	13790.9
2182.20863	13754.8
2185.14856	13770.4
2188.08661	13743.7
2191.02278	13774.5
2193.95707	13775.3
2196.88948	13770.4
2199.82001	13731.6
2202.74867	13731.6
2205.67545	13712.3
2208.60037	13691.1
2211.52341	13689.6
2214.44458	13672.3
2217.36388	13621.9
2220.28132	13618.8
2223.1969	13576.4
2226.11061	13581.8
2229.02246	13500.6
2231.93245	13492
2234.84058	13472.5
2237.74686	13423.3
2240.65128	13447.3
2243.55385	13405
2246.45456	13387.5
2249.35343	13361.7
2252.25044	13340.3
2255.14561	13328.2
2258.03893	13346.3
2260.93041	13281.7
2263.82004	13240
2266.70783	13201.8
2269.59378	13134.8
2272.4779	13126.6
2275.36017	13082.7
2278.24061	13077.6
2281.11922	13077.8
2283.996	13072.5
2286.87094	13020.1
2289.74405	13016.9
2292.61534	13031.6
2295.4848	12971.9
2298.35243	12991.5
2301.21824	12994.6
2304.08223	12985.9
2306.94439	12991.2
2309.80474	12972.8
2312.66327	13006.4
2315.51999	12986.1
2318.37489	12958
2321.22797	12933.5
2324.07925	12951.6
2326.92871	12919.2
2329.77637	12894
2332.62222	12878.3
2335.46626	12858.3
2338.3085	12858.8
2341.14893	12872.4
2343.98756	12862.4
2346.8244	12887.9
2349.65943	12863.4
2352.49267	12859.2
2355.32411	12870.7
2358.15376	12852.8
2360.98161	12837.7
2363.80768	12846.9
2366.63195	12806.2
2369.45444	12800.6
2372.27514	12787.1
2375.09405	12779.7
2377.91118	12742.7
2380.72652	12684.9
2383.54009	12668
2386.35187	12654.1
2389.16188	12607.8
2391.97011	12577.8
2394.77657	12568.8
2397.58125	12557.8
2400.38416	12555.5
2403.18529	12517.1
2405.98466	12503.3
2408.78226	12488.5
2411.57809	12482.4
2414.37216	12433.6
2417.16446	12444.3
2419.955	12399.5
2422.74378	12399.5
2425.5308	12392.9
2428.31606	12381.9
2431.09956	12365.9
2433.88131	12353.3
2436.6613	12380.6
2439.43954	12398.9
2442.21603	12383.2
2444.99077	12348.2
2447.76377	12355.5
2450.53501	12342
2453.30451	12334.4
2456.07226	12332.2
2458.83827	12322.8
2461.60254	12340.8
2464.36507	12305.2
2467.12586	12260.9
2469.88492	12286.6
2472.64224	12257.1
2475.39782	12299.3
2478.15167	12318.6
2480.90379	12323.3
2483.65417	12314.5
2486.40283	12299.8
2489.14976	12340.3
2491.89497	12334.3
2494.63845	12352.1
2497.3802	12319.7
2500.12024	12301.2
2502.85855	12329.5
2505.59514	12270.5
2508.33002	12277.8
2511.06318	12270.4
2513.79462	12241.4
2516.52435	12243.2
2519.25237	12236
2521.97867	12218.2
2524.70327	12233.7
2527.42616	12214.9
2530.14734	12219.8
2532.86681	12195.2
2535.58458	12190.6
2538.30065	12185.4
2541.01501	12191.2
2543.72768	12169.5
2546.43864	12168.4
2549.14791	12151.7
2551.85548	12148.3
2554.56136	12127.3
2557.26554	12112
2559.96803	12088.1
2562.66883	12066.1
2565.36794	12052.3
2568.06536	12037.3
2570.7611	12009.5
2573.45514	12019.6
2576.14751	12029.8
2578.83819	11980.8
2581.52719	11978.1
2584.21451	11988.1
2586.90015	11965.7
2589.58411	11980.6
2592.2664	11985.3
2594.94701	11942.6
2597.62594	11941.3
2600.30321	11903.6
2602.9788	11910.5
2605.65273	11907.3
2608.32498	11929.2
2610.99557	11922.3
2613.66449	11918
2616.33175	11935.4
2618.99734	11934.3
2621.66128	11913.7
2624.32355	11881.5
2626.98416	11871.2
2629.64311	11888
2632.30041	11872.4
2634.95605	11877.3
2637.61004	11867.5
2640.26238	11848.4
2642.91306	11817
2645.56209	11813.3
2648.20948	11812.9
2650.85521	11823.2
2653.4993	11825.8
2656.14175	11826.1
2658.78255	11830
2661.42171	11820.2
2664.05923	11827.4
2666.6951	11867.1
2669.32934	11848.8
2671.96194	11859.7
2674.59291	11875.8
2677.22224	11859.9
2679.84993	11881.8
2682.476	11846.9
2685.10043	11836.7
2687.72324	11813.4
2690.34441	11829.6
2692.96396	11836.8
2695.58188	11825.9
2698.19818	11819.7
2700.81285	11817.8
2703.4259	11842.5
2706.03733	11865.6
2708.64714	11829.5
2711.25533	11838
2713.86191	11824.3
2716.46687	11859
2719.07021	11860.5
2721.67194	11874.4
2724.27206	11878
2726.87057	11873.4
2729.46747	11889.9
2732.06276	11906.5
2734.65644	11894.7
2737.24852	11884
2739.83899	11859.6
2742.42786	11894.1
2745.01513	11868.4
2747.60079	11845
2750.18486	11828.4
2752.76733	11819.5
2755.3482	11813.1
2757.92747	11788.5
2760.50515	11776.3
2763.08123	11793.3
2765.65573	11787.9
2768.22863	11785.5
2770.79994	11779.7
2773.36967	11784.6
2775.9378	11794.5
2778.50435	11786.6
2781.06932	11771.3
2783.6327	11787
2786.1945	11777.1
2788.75471	11780.7
2791.31335	11732.5
2793.87041	11724.2
2796.42589	11728.7
2798.97979	11697.2
2801.53212	11704.6
2804.08288	11681.2
2806.63206	11652.2
2809.17967	11623.3
2811.72571	11605.1
2814.27018	11603.8
2816.81308	11575.4
2819.35442	11521.5
2821.89419	11493.1
2824.43239	11496.5
2826.96904	11476.3
2829.50412	11493.3
2832.03763	11472.3
2834.56959	11439.4
2837.1	11408.2
2839.62884	11446.4
2842.15613	11443.3
2844.68186	11464.8
2847.20604	11428.9
2849.72867	11451.6
2852.24974	11429.4
2854.76927	11394.7
2857.28724	11391.2
2859.80367	11357.8
2862.31855	11379.3
2864.83189	11377.4
2867.34368	11311.5
2869.85393	11326.8
2872.36264	11327.4
2874.8698	11319.8
2877.37543	11331.8
2879.87952	11324.6
2882.38207	11339.5
2884.88308	11339.5
2887.38256	11353.8
2889.88051	11337.8
2892.37692	11319.4
2894.8718	11324.9
2897.36515	11353.2
2899.85698	11371.9
2902.34727	11381.4
2904.83604	11360.9
2907.32328	11407.3
2909.809	11409
2912.29319	11406.5
2914.77587	11401.4
2917.25702	11405.9
2919.73665	11366
2922.21476	11412.4
2924.69136	11387.1
2927.16644	11387
2929.64	11374.8
2932.11205	11341.7
2934.58258	11311.5
2937.05161	11326.6
2939.51912	11329.7
2941.98513	11296.2
2944.44962	11271.3
2946.91261	11236.4
2949.37409	11268.4
2951.83407	11253.4
2954.29254	11238.1
2956.74951	11232.9
2959.20498	11234.5
2961.65895	11210.5
2964.11142	11232.2
2966.56239	11198.5
2969.01186	11201.2
2971.45984	11176.7
2973.90632	11160.8
2976.35131	11148.3
2978.7948	11136.6
2981.23681	11088.5
2983.67732	11092.6
2986.11635	11039
2988.55388	11038.2
2990.98993	11018
2993.4245	10982.1
2995.85758	10952.9
2998.28917	10931.1
3000.71928	10868.3
3003.14791	10867.9
3005.57506	10851.3
3008.00073	10832.8
3010.42493	10809
3012.84764	10780
3015.26888	10765.7
3017.68865	10739.4
3020.10694	10742
3022.52376	10718.8
3024.9391	10720.5
3027.35298	10725.6
3029.76539	10717.2
3032.17632	10719.9
3034.5858	10703.2
3036.9938	10704.3
3039.40034	10701.7
3041.80542	10708.3
3044.20903	10682.8
3046.61118	10656.5
3049.01187	10614.3
3051.4111	10611.8
3053.80888	10612.7
3056.20519	10568.6
3058.60005	10538
3060.99345	10537.6
3063.3854	10504.7
3065.7759	10473.3
3068.16494	10478
3070.55254	10425.3
3072.93868	10399.7
3075.32338	10388.8
3077.70662	10320.8
3080.08842	10302.1
3082.46878	10342.6
3084.84769	10308.9
3087.22515	10334.1
3089.60118	10315.8
3091.97576	10293.8
3094.3489	10278.6
3096.72061	10282.6
3099.09087	10290.9
3101.4597	10287.2
3103.82709	10278.5
3106.19305	10255
3108.55757	10262
3110.92066	10236.4
3113.28232	10213
3115.64255	10207.8
3118.00134	10196.4
3120.35871	10160.3
3122.71466	10135.3
3125.06917	10121.5
3127.42226	10120.8
3129.77393	10142.5
3132.12417	10067.7
3134.47299	10078.9
3136.82039	10080
3139.16636	10051.4
3141.51092	10072.9
3143.85406	10082.4
3146.19579	10051.4
3148.53609	10070.7
3150.87499	10075.6
3153.21246	10064.3
3155.54853	10066.4
3157.88318	10077.9
3160.21642	10106
3162.54826	10080.3
3164.87868	10089.5
3167.2077	10114.8
3169.5353	10113.3
3171.86151	10102.8
3174.18631	10097.8
3176.5097	10083.3
3178.83169	10080.4
3181.15228	10063.9
3183.47147	10039.4
3185.78926	10034.8
3188.10565	10040.7
3190.42065	10021.3
3192.73424	9990.2
3195.04645	10014
3197.35725	9994.1
3199.66667	9991.1
3201.97469	10024.9
3204.28132	10014.9
3206.58656	10036.2
3208.8904	10022.1
3211.19287	10014.8
3213.49394	10005.5
3215.79363	10021.8
3218.09193	10021
3220.38884	10020.8
3222.68438	10037
3224.97853	10023.6
3227.2713	9990.2
3229.56269	9991
3231.8527	10004.1
3234.14133	9952.6
3236.42858	9952
3238.71446	9927.2
3240.99896	9915.7
3243.28209	9903.8
3245.56384	9910.6
3247.84423	9897.4
3250.12324	9880.4
3252.40088	9881.8
3254.67715	9850.7
3256.95205	9863.4
3259.22558	9868.9
3261.49775	9840
3263.76855	9814.3
3266.03799	9805.3
3268.30606	9794.3
3270.57277	9773.7
3272.83812	9756.5
3275.10211	9749.1
3277.36474	9709
3279.62601	9717.8
3281.88593	9691.5
3284.14448	9674.2
3286.40168	9691.7
3288.65753	9694.4
3290.91202	9681.1
3293.16516	9653.5
3295.41695	9645.2
3297.66738	9581.2
3299.91647	9535
3302.16421	9514.1
3304.4106	9433.5
3306.65564	9377.4
3308.89933	9302.7
3311.14169	9236.2
3313.38269	9153.9
3315.62236	9112.7
3317.86068	9039.8
3320.09766	8956.1
3322.3333	8881.7
3324.5676	8862.6
3326.80056	8716
3329.03219	8683.8
3331.26248	4.3
3333.49143	-0.3
3335.71905	-1.5
