Data from AgNP_FTO_APTES_UA_10uM_CRN_1uM_R6G_10uM_NaF_0.1M_Addition_RamanShift__19__13-14-50-519.txt Node

Date: Thu Feb 10 13:14:50 GMT 2022
User: TCL
Spectrometer: QEP01345
Trigger mode: 4
Integration Time (sec): 7.000000E0
Scans to average: 10
Electric dark correction enabled: true
Nonlinearity correction enabled: false
Boxcar width: 0
XAxis mode: Raman Shifts
Number of Pixels in Spectrum: 1044
>>>>>Begin Spectral Data<<<<<
46.04893	0.5125
50.45542	-0.2875
54.85868	-2.3875
59.25871	-2.3875
63.6555	73.2125
68.04907	77.3125
72.43941	77.0125
76.82654	77.8125
81.21044	84.2125
85.59113	86.5125
89.96862	88.1125
94.34289	96.1125
98.71396	97.0125
103.08183	100.7125
107.4465	103.6125
111.80798	103.7125
116.16626	108.4125
120.52136	112.1125
124.87327	117.4125
129.222	118.6125
133.56755	133.6125
137.90993	138.9125
142.24913	152.6125
146.58517	171.8125
150.91804	201.8125
155.24774	240.6125
159.57429	298.0125
163.89768	389.7125
168.21792	512.2125
172.53501	701.9125
176.84895	981.5125
181.15975	1373.1125
185.46741	1933.0125
189.77193	2662.8125
194.07331	3556.9125
198.37157	4571.9125
202.6667	5654.4125
206.9587	6711.6125
211.24758	7762.1125
215.53334	8826.8125
219.81599	9979.9125
224.09553	11242.9125
228.37195	12673.8125
232.64527	14212.9125
236.91549	15819.5125
241.18261	17417.6125
245.44663	18798.2125
249.70755	20064.8125
253.96539	21113.7125
258.22014	22069.9125
262.4718	22871.6125
266.72039	23420.2125
270.96589	23733.1125
275.20832	23765.7125
279.44768	23598.8125
283.68397	23354.6125
287.91719	23194.4125
292.14735	23150.5125
296.37445	23181.0125
300.59849	23376.7125
304.81948	23542.2125
309.03742	23589.3125
313.25231	23378.6125
317.46415	22784.1125
321.67296	22016.2125
325.87872	21281.3125
330.08145	20921.7125
334.28114	20914.1125
338.47781	21045.9125
342.67145	21373.0125
346.86207	21727.2125
351.04966	22278.4125
355.23424	22872.3125
359.4158	23352.9125
363.59435	23676.7125
367.76989	23909.8125
371.94243	24017.2125
376.11196	24106.7125
380.27849	24184.6125
384.44203	24269.9125
388.60257	24423.7125
392.76012	24555.5125
396.91468	24898.7125
401.06626	25265.5125
405.21485	25593.2125
409.36047	25359.7125
413.50311	24914.3125
417.64277	24516.5125
421.77947	24403.3125
425.9132	24475.7125
430.04396	24593.6125
434.17176	24714.0125
438.2966	24918.0125
442.41849	25407.4125
446.53742	26120.1125
450.6534	27001.5125
454.76644	27576.2125
458.87653	27790.4125
462.98368	27569.4125
467.08789	27176.7125
471.18916	26656.3125
475.2875	26192.9125
479.38291	25960.6125
483.4754	25793.2125
487.56496	25516.6125
491.6516	25081.6125
495.73531	24722.0125
499.81612	24570.8125
503.89401	24696.4125
507.96899	24803.1125
512.04106	24784.9125
516.11023	24658.2125
520.1765	24431.5125
524.23987	24263.9125
528.30034	24001.2125
532.35792	23713.9125
536.41261	23332.1125
540.46441	22994.3125
544.51333	22902.0125
548.55936	23204.6125
552.60252	23843.4125
556.64279	24438.2125
560.6802	24864.2125
564.71473	25108.5125
568.7464	25599.4125
572.7752	26302.7125
576.80114	26840.1125
580.82422	27289.7125
584.84444	27802.6125
588.86181	28309.5125
592.87633	28769.2125
596.888	28871.1125
600.89682	28614.7125
604.9028	29521.3125
608.90594	32699.5125
612.90624	36148.3125
616.90371	33921.1125
620.89834	27489.2125
624.89015	24727.6125
628.87913	24444.0125
632.86528	24361.6125
636.84862	24175.6125
640.82913	23644.7125
644.80683	22875.2125
648.78172	22279.1125
652.75379	22189.0125
656.72306	22513.0125
660.68952	23059.7125
664.65319	22976.1125
668.61405	22415.2125
672.57211	22201.3125
676.52738	22259.6125
680.47986	22228.2125
684.42955	22106.6125
688.37646	22073.5125
692.32058	22223.4125
696.26192	22524.1125
700.20048	22840.9125
704.13626	23010.2125
708.06928	22888.5125
711.99952	22701.1125
715.927	22614.3125
719.85171	22726.2125
723.77365	22650.3125
727.69284	22335.7125
731.60928	22037.9125
735.52295	21974.2125
739.43388	21969.0125
743.34206	22079.9125
747.24749	22241.3125
751.15017	22455.0125
755.05012	22869.7125
758.94733	23672.1125
762.8418	25105.4125
766.73354	27437.6125
770.62254	29697.8125
774.50882	30271.7125
778.39237	28761.6125
782.27321	26266.5125
786.15132	24262.7125
790.02671	22993.6125
793.89938	22370.3125
797.76935	22215.2125
801.6366	22158.5125
805.50115	22084.0125
809.36299	21909.2125
813.22213	21649.0125
817.07857	21561.8125
820.93231	21400.2125
824.78336	21332.6125
828.63172	21278.8125
832.47738	21280.5125
836.32036	21295.8125
840.16066	21431.2125
843.99827	21537.7125
847.8332	21510.3125
851.66546	21353.4125
855.49504	21276.4125
859.32195	21283.7125
863.1462	21220.7125
866.96777	21049.1125
870.78668	20985.3125
874.60293	21001.8125
878.41652	21007.2125
882.22745	21089.4125
886.03573	21155.6125
889.84136	21138.4125
893.64433	21060.3125
897.44466	20946.6125
901.24235	20863.3125
905.0374	20821.5125
908.8298	20767.4125
912.61957	20784.5125
916.40671	20945.4125
920.19121	21312.2125
923.97308	21669.6125
927.75233	21859.3125
931.52895	21825.9125
935.30295	21507.6125
939.07433	20986.9125
942.84309	20542.0125
946.60924	20372.6125
950.37278	20338.2125
954.13371	20298.4125
957.89203	20117.8125
961.64774	20037.4125
965.40086	19975.9125
969.15137	19936.9125
972.89929	19866.4125
976.64461	19764.5125
980.38733	19806.3125
984.12747	19932.8125
987.86502	20152.4125
991.59999	20500.0125
995.33237	21099.6125
999.06217	21984.3125
1002.78939	22981.7125
1006.51404	23527.4125
1010.23611	23801.3125
1013.95561	24007.2125
1017.67255	23958.1125
1021.38692	23610.1125
1025.09872	23282.9125
1028.80796	23546.4125
1032.51465	24484.1125
1036.21877	25361.2125
1039.92035	25478.3125
1043.61937	24964.7125
1047.31584	24121.5125
1051.00976	23190.0125
1054.70114	22786.0125
1058.38998	22703.3125
1062.07627	22758.1125
1065.76003	22833.7125
1069.44126	22950.6125
1073.11995	23326.6125
1076.79611	23683.1125
1080.46974	23928.9125
1084.14085	24257.0125
1087.80943	24663.3125
1091.47549	24925.5125
1095.13903	24807.2125
1098.80005	24353.8125
1102.45857	23762.2125
1106.11456	23303.6125
1109.76805	23204.3125
1113.41903	23280.8125
1117.06751	23458.8125
1120.71348	23768.8125
1124.35696	24021.0125
1127.99793	24449.4125
1131.63641	24652.9125
1135.2724	24462.3125
1138.90589	24228.1125
1142.5369	24091.2125
1146.16542	24049.4125
1149.79145	24114.3125
1153.415	24290.0125
1157.03607	24676.3125
1160.65467	25343.0125
1164.27079	26507.7125
1167.88443	28163.0125
1171.49561	30371.3125
1175.10432	33208.5125
1178.71056	36793.9125
1182.31434	40163.0125
1185.91565	41995.2125
1189.51451	41819.0125
1193.11091	40157.4125
1196.70485	37817.8125
1200.29634	35738.3125
1203.88538	34108.5125
1207.47197	33003.0125
1211.05612	32233.6125
1214.63782	31522.6125
1218.21708	31078.3125
1221.79391	30909.6125
1225.36829	30893.3125
1228.94024	30616.7125
1232.50976	29871.5125
1236.07685	29224.5125
1239.6415	28809.9125
1243.20374	28653.3125
1246.76355	28779.6125
1250.32093	29315.4125
1253.8759	30146.5125
1257.42845	31260.8125
1260.97859	32340.7125
1264.52631	33497.6125
1268.07163	34720.3125
1271.61453	36003.2125
1275.15503	37388.5125
1278.69312	38661.0125
1282.22882	39741.8125
1285.76211	40590.7125
1289.29301	41441.3125
1292.82151	42666.3125
1296.34761	44465.4125
1299.87133	47051.6125
1303.39266	50451.8125
1306.9116	54443.5125
1310.42815	58537.7125
1313.94233	61188.6125
1317.45412	61248.4125
1320.96354	59656.8125
1324.47058	57901.5125
1327.97525	56239.5125
1331.47754	55130.6125
1334.97747	54478.1125
1338.47502	54062.1125
1341.97022	53603.6125
1345.46305	52826.9125
1348.95352	51932.6125
1352.44163	51511.0125
1355.92738	52470.0125
1359.41078	55161.1125
1362.89183	57816.8125
1366.37053	56815.6125
1369.84688	51561.5125
1373.32088	45492.6125
1376.79254	41274.1125
1380.26186	39540.5125
1383.72883	39115.6125
1387.19347	38911.9125
1390.65578	38425.3125
1394.11575	38316.6125
1397.57339	38828.6125
1401.0287	39690.1125
1404.48168	40566.7125
1407.93234	40946.8125
1411.38068	40507.6125
1414.82669	39287.3125
1418.27039	37666.1125
1421.71177	35984.2125
1425.15083	34619.4125
1428.58758	33894.8125
1432.02203	34075.5125
1435.45416	34898.9125
1438.88399	35959.4125
1442.31151	36854.1125
1445.73673	37467.7125
1449.15965	37954.0125
1452.58027	38301.1125
1455.9986	38449.4125
1459.41463	38799.0125
1462.82837	39488.9125
1466.23982	40455.1125
1469.64898	41234.5125
1473.05586	41759.2125
1476.46045	41700.0125
1479.86276	41260.7125
1483.26279	40678.4125
1486.66054	40385.9125
1490.05602	40377.5125
1493.44922	40622.5125
1496.84016	40969.5125
1500.22882	41740.3125
1503.61521	43269.3125
1506.99934	45291.5125
1510.38121	47063.2125
1513.76081	47518.6125
1517.13816	46160.2125
1520.51324	43691.6125
1523.88607	41459.2125
1527.25665	40121.8125
1530.62498	39387.8125
1533.99105	39106.1125
1537.35488	38764.2125
1540.71647	38432.6125
1544.07581	37848.8125
1547.4329	37124.0125
1550.78776	36515.7125
1554.14038	36006.8125
1557.49077	35705.3125
1560.83892	35528.8125
1564.18484	35469.3125
1567.52853	35635.3125
1570.86999	35900.1125
1574.20922	36325.9125
1577.54624	36732.0125
1580.88103	36635.0125
1584.2136	36660.0125
1587.54395	37707.2125
1590.87208	39940.2125
1594.19801	43059.1125
1597.52172	46286.8125
1600.84321	47359.4125
1604.16251	45166.8125
1607.47959	41109.0125
1610.79447	36923.5125
1614.10715	33129.9125
1617.41763	30180.9125
1620.7259	28201.7125
1624.03199	27183.0125
1627.33587	27266.8125
1630.63757	28286.9125
1633.93707	30498.1125
1637.23439	33996.1125
1640.52951	38747.0125
1643.82246	43934.2125
1647.11321	47628.3125
1650.40179	48029.0125
1653.68819	44250.8125
1656.97241	37948.0125
1660.25446	31777.6125
1663.53433	27254.2125
1666.81203	24369.3125
1670.08756	22620.3125
1673.36092	21479.5125
1676.63211	20744.4125
1679.90115	20261.8125
1683.16801	19862.6125
1686.43272	19576.1125
1689.69527	19372.3125
1692.95567	19236.7125
1696.2139	19140.6125
1699.46999	19039.3125
1702.72392	18971.2125
1705.97571	18900.9125
1709.22535	18872.8125
1712.47284	18834.7125
1715.71819	18800.6125
1718.96139	18708.6125
1722.20246	18606.2125
1725.44139	18520.0125
1728.67818	18366.2125
1731.91284	18242.7125
1735.14537	18129.0125
1738.37576	18090.1125
1741.60403	18032.7125
1744.83017	17935.5125
1748.05418	17906.0125
1751.27607	17823.9125
1754.49584	17777.2125
1757.71349	17790.8125
1760.92903	17740.5125
1764.14244	17766.3125
1767.35375	17775.1125
1770.56294	17653.5125
1773.77002	17627.8125
1776.97499	17614.9125
1780.17785	17542.6125
1783.37861	17547.1125
1786.57727	17497.0125
1789.77382	17461.5125
1792.96828	17446.4125
1796.16064	17368.8125
1799.3509	17344.9125
1802.53907	17363.7125
1805.72514	17327.3125
1808.90913	17249.3125
1812.09102	17191.2125
1815.27083	17179.7125
1818.44856	17153.0125
1821.6242	17128.6125
1824.79776	17078.5125
1827.96924	17062.1125
1831.13864	17084.4125
1834.30597	17137.6125
1837.47122	17121.2125
1840.6344	17124.4125
1843.7955	17113.5125
1846.95454	17153.9125
1850.11151	17165.7125
1853.26642	17124.3125
1856.41926	17154.8125
1859.57004	17178.2125
1862.71876	17162.2125
1865.86542	17145.3125
1869.01003	17169.2125
1872.15258	17124.1125
1875.29308	17117.0125
1878.43152	17072.2125
1881.56792	17141.0125
1884.70227	17106.8125
1887.83457	17086.0125
1890.96482	17066.3125
1894.09304	17024.8125
1897.21921	17009.1125
1900.34335	16993.0125
1903.46544	17001.7125
1906.58551	17008.7125
1909.70353	16971.4125
1912.81953	16932.2125
1915.93349	16898.6125
1919.04543	16881.1125
1922.15534	16790.3125
1925.26322	16732.9125
1928.36908	16712.3125
1931.47292	16637.3125
1934.57473	16604.5125
1937.67453	16538.2125
1940.77232	16529.1125
1943.86808	16424.7125
1946.96184	16377.1125
1950.05358	16298.1125
1953.14331	16273.7125
1956.23103	16202.0125
1959.31675	16088.0125
1962.40046	16078.2125
1965.48217	16044.2125
1968.56188	15982.2125
1971.63959	15943.4125
1974.7153	15907.5125
1977.78901	15880.3125
1980.86073	15803.5125
1983.93046	15764.5125
1986.99819	15691.0125
1990.06394	15657.4125
1993.1277	15627.7125
1996.18947	15551.1125
1999.24925	15512.3125
2002.30706	15479.1125
2005.36288	15421.2125
2008.41672	15398.0125
2011.46859	15338.1125
2014.51848	15336.3125
2017.56639	15262.5125
2020.61233	15240.8125
2023.6563	15248.6125
2026.6983	15213.1125
2029.73833	15145.9125
2032.7764	15128.2125
2035.8125	15124.4125
2038.84664	15094.5125
2041.87881	15096.9125
2044.90903	15063.6125
2047.93729	15063.7125
2050.96359	14999.8125
2053.98794	15004.0125
2057.01034	14987.5125
2060.03078	14994.6125
2063.04927	14962.6125
2066.06582	14973.6125
2069.08042	14881.4125
2072.09307	14893.7125
2075.10378	14921.9125
2078.11255	14859.9125
2081.11938	14894.8125
2084.12426	14895.5125
2087.12722	14857.5125
2090.12824	14842.8125
2093.12732	14834.1125
2096.12447	14834.4125
2099.11969	14828.5125
2102.11299	14849.8125
2105.10435	14888.1125
2108.09379	14886.2125
2111.08131	14862.4125
2114.0669	14882.1125
2117.05057	14910.3125
2120.03233	14875.5125
2123.01216	14920.9125
2125.99008	14920.9125
2128.96609	14956.4125
2131.94018	14923.5125
2134.91236	14959.3125
2137.88263	14978.3125
2140.851	14953.3125
2143.81746	14971.7125
2146.78201	14974.3125
2149.74466	14984.0125
2152.7054	14980.7125
2155.66425	14968.7125
2158.6212	14970.8125
2161.57625	14943.7125
2164.52941	14914.2125
2167.48067	14911.0125
2170.43004	14924.3125
2173.37752	14922.8125
2176.32311	14950.6125
2179.26681	14963.2125
2182.20863	14932.4125
2185.14856	14968.3125
2188.08661	14947.9125
2191.02278	14985.0125
2193.95707	14972.7125
2196.88948	14970.3125
2199.82001	14953.9125
2202.74867	14949.3125
2205.67545	14976.7125
2208.60037	14951.2125
2211.52341	14955.7125
2214.44458	14937.5125
2217.36388	14941.7125
2220.28132	14909.8125
2223.1969	14868.5125
2226.11061	14844.0125
2229.02246	14829.0125
2231.93245	14799.4125
2234.84058	14787.3125
2237.74686	14730.4125
2240.65128	14706.4125
2243.55385	14656.0125
2246.45456	14635.9125
2249.35343	14628.6125
2252.25044	14646.5125
2255.14561	14592.5125
2258.03893	14579.7125
2260.93041	14556.6125
2263.82004	14524.2125
2266.70783	14505.9125
2269.59378	14457.9125
2272.4779	14406.5125
2275.36017	14401.0125
2278.24061	14395.6125
2281.11922	14350.5125
2283.996	14352.6125
2286.87094	14362.9125
2289.74405	14276.8125
2292.61534	14304.8125
2295.4848	14303.8125
2298.35243	14309.8125
2301.21824	14323.2125
2304.08223	14335.8125
2306.94439	14359.4125
2309.80474	14368.9125
2312.66327	14374.9125
2315.51999	14402.4125
2318.37489	14393.7125
2321.22797	14403.7125
2324.07925	14375.7125
2326.92871	14360.4125
2329.77637	14370.9125
2332.62222	14373.2125
2335.46626	14358.7125
2338.3085	14352.2125
2341.14893	14377.8125
2343.98756	14400.6125
2346.8244	14459.2125
2349.65943	14447.2125
2352.49267	14414.7125
2355.32411	14420.6125
2358.15376	14428.6125
2360.98161	14416.7125
2363.80768	14389.9125
2366.63195	14381.3125
2369.45444	14343.0125
2372.27514	14303.7125
2375.09405	14312.9125
2377.91118	14252.1125
2380.72652	14203.3125
2383.54009	14161.9125
2386.35187	14161.9125
2389.16188	14132.7125
2391.97011	14100.8125
2394.77657	14058.0125
2397.58125	14054.5125
2400.38416	14021.7125
2403.18529	14038.3125
2405.98466	13971.4125
2408.78226	13930.6125
2411.57809	13930.2125
2414.37216	13907.8125
2417.16446	13877.8125
2419.955	13863.7125
2422.74378	13832.6125
2425.5308	13841.5125
2428.31606	13843.6125
2431.09956	13828.0125
2433.88131	13842.3125
2436.6613	13877.4125
2439.43954	13874.3125
2442.21603	13849.5125
2444.99077	13828.9125
2447.76377	13850.2125
2450.53501	13847.2125
2453.30451	13838.3125
2456.07226	13823.5125
2458.83827	13857.8125
2461.60254	13862.8125
2464.36507	13843.8125
2467.12586	13849.1125
2469.88492	13859.0125
2472.64224	13861.9125
2475.39782	13904.8125
2478.15167	13890.0125
2480.90379	13899.1125
2483.65417	13918.0125
2486.40283	13940.0125
2489.14976	13961.6125
2491.89497	13946.1125
2494.63845	13982.0125
2497.3802	13981.8125
2500.12024	13938.2125
2502.85855	13962.0125
2505.59514	13944.1125
2508.33002	13923.7125
2511.06318	13903.8125
2513.79462	13882.4125
2516.52435	13890.7125
2519.25237	13865.8125
2521.97867	13851.0125
2524.70327	13865.3125
2527.42616	13859.3125
2530.14734	13858.1125
2532.86681	13842.5125
2535.58458	13872.8125
2538.30065	13851.6125
2541.01501	13879.8125
2543.72768	13892.1125
2546.43864	13873.4125
2549.14791	13842.8125
2551.85548	13870.0125
2554.56136	13828.1125
2557.26554	13819.9125
2559.96803	13809.5125
2562.66883	13752.5125
2565.36794	13746.1125
2568.06536	13764.9125
2570.7611	13755.3125
2573.45514	13715.9125
2576.14751	13778.7125
2578.83819	13752.1125
2581.52719	13750.1125
2584.21451	13753.0125
2586.90015	13746.1125
2589.58411	13764.0125
2592.2664	13749.9125
2594.94701	13742.0125
2597.62594	13753.3125
2600.30321	13749.6125
2602.9788	13746.2125
2605.65273	13712.9125
2608.32498	13757.3125
2610.99557	13749.9125
2613.66449	13764.6125
2616.33175	13749.2125
2618.99734	13762.2125
2621.66128	13723.4125
2624.32355	13764.2125
2626.98416	13747.4125
2629.64311	13758.2125
2632.30041	13739.5125
2634.95605	13755.7125
2637.61004	13720.9125
2640.26238	13724.2125
2642.91306	13711.2125
2645.56209	13713.5125
2648.20948	13687.6125
2650.85521	13673.0125
2653.4993	13665.7125
2656.14175	13674.5125
2658.78255	13667.4125
2661.42171	13684.7125
2664.05923	13728.0125
2666.6951	13738.3125
2669.32934	13749.4125
2671.96194	13744.6125
2674.59291	13762.0125
2677.22224	13754.5125
2679.84993	13735.0125
2682.476	13723.2125
2685.10043	13717.3125
2687.72324	13652.2125
2690.34441	13661.7125
2692.96396	13669.9125
2695.58188	13645.2125
2698.19818	13612.8125
2700.81285	13629.0125
2703.4259	13621.3125
2706.03733	13606.4125
2708.64714	13606.0125
2711.25533	13681.1125
2713.86191	13633.0125
2716.46687	13687.2125
2719.07021	13673.0125
2721.67194	13715.3125
2724.27206	13729.2125
2726.87057	13725.6125
2729.46747	13751.1125
2732.06276	13734.6125
2734.65644	13740.8125
2737.24852	13717.5125
2739.83899	13723.4125
2742.42786	13745.3125
2745.01513	13703.6125
2747.60079	13728.5125
2750.18486	13718.1125
2752.76733	13669.3125
2755.3482	13679.2125
2757.92747	13711.1125
2760.50515	13654.4125
2763.08123	13662.2125
2765.65573	13652.6125
2768.22863	13673.7125
2770.79994	13639.7125
2773.36967	13679.3125
2775.9378	13648.4125
2778.50435	13685.6125
2781.06932	13694.4125
2783.6327	13686.2125
2786.1945	13657.1125
2788.75471	13643.6125
2791.31335	13625.3125
2793.87041	13592.3125
2796.42589	13612.4125
2798.97979	13583.0125
2801.53212	13581.5125
2804.08288	13556.9125
2806.63206	13514.8125
2809.17967	13496.2125
2811.72571	13456.1125
2814.27018	13464.9125
2816.81308	13401.3125
2819.35442	13404.9125
2821.89419	13401.2125
2824.43239	13416.6125
2826.96904	13405.4125
2829.50412	13388.5125
2832.03763	13345.4125
2834.56959	13357.5125
2837.1	13325.6125
2839.62884	13338.8125
2842.15613	13341.3125
2844.68186	13359.8125
2847.20604	13342.4125
2849.72867	13386.1125
2852.24974	13407.7125
2854.76927	13361.4125
2857.28724	13326.3125
2859.80367	13341.0125
2862.31855	13300.5125
2864.83189	13309.7125
2867.34368	13304.3125
2869.85393	13285.0125
2872.36264	13290.2125
2874.8698	13286.1125
2877.37543	13296.9125
2879.87952	13300.3125
2882.38207	13307.0125
2884.88308	13310.0125
2887.38256	13305.4125
2889.88051	13286.6125
2892.37692	13301.0125
2894.8718	13295.0125
2897.36515	13333.1125
2899.85698	13339.9125
2902.34727	13377.4125
2904.83604	13404.7125
2907.32328	13449.0125
2909.809	13431.0125
2912.29319	13437.4125
2914.77587	13421.7125
2917.25702	13442.9125
2919.73665	13392.1125
2922.21476	13402.9125
2924.69136	13373.5125
2927.16644	13362.5125
2929.64	13340.4125
2932.11205	13350.2125
2934.58258	13304.8125
2937.05161	13278.9125
2939.51912	13296.5125
2941.98513	13261.5125
2944.44962	13264.4125
2946.91261	13174.9125
2949.37409	13217.5125
2951.83407	13229.2125
2954.29254	13223.1125
2956.74951	13197.4125
2959.20498	13163.3125
2961.65895	13153.7125
2964.11142	13141.4125
2966.56239	13133.8125
2969.01186	13134.4125
2971.45984	13110.6125
2973.90632	13080.1125
2976.35131	13033.5125
2978.7948	13004.6125
2981.23681	12977.0125
2983.67732	12941.2125
2986.11635	12916.8125
2988.55388	12914.1125
2990.98993	12837.0125
2993.4245	12804.2125
2995.85758	12794.4125
2998.28917	12763.0125
3000.71928	12729.7125
3003.14791	12708.3125
3005.57506	12694.3125
3008.00073	12691.8125
3010.42493	12575.5125
3012.84764	12622.9125
3015.26888	12626.5125
3017.68865	12533.1125
3020.10694	12544.3125
3022.52376	12501.6125
3024.9391	12510.1125
