Data from AgNP_FTO_APTES_UA_10uM_CRN_10uM_R6G_10uM_NaF_0.1M_Addition_RamanShift__7__15-32-30-692.txt Node

Date: Thu Feb 10 15:32:30 GMT 2022
User: TCL
Spectrometer: QEP01345
Trigger mode: 4
Integration Time (sec): 7.000000E0
Scans to average: 10
Electric dark correction enabled: true
Nonlinearity correction enabled: false
Boxcar width: 0
XAxis mode: Raman Shifts
Number of Pixels in Spectrum: 1044
>>>>>Begin Spectral Data<<<<<
46.04893	0.0125
50.45542	-0.6875
54.85868	-2.3875
59.25871	-0.3875
63.6555	76.9125
68.04907	81.7125
72.43941	85.6125
76.82654	86.9125
81.21044	90.3125
85.59113	92.0125
89.96862	97.2125
94.34289	100.1125
98.71396	101.3125
103.08183	107.2125
107.4465	113.8125
111.80798	110.1125
116.16626	116.3125
120.52136	119.8125
124.87327	125.4125
129.222	131.5125
133.56755	142.1125
137.90993	148.6125
142.24913	167.2125
146.58517	187.6125
150.91804	221.3125
155.24774	265.3125
159.57429	328.6125
163.89768	419.9125
168.21792	558.8125
172.53501	758.7125
176.84895	1067.4125
181.15975	1491.0125
185.46741	2090.1125
189.77193	2886.8125
194.07331	3843.3125
198.37157	4960.4125
202.6667	6130.0125
206.9587	7259.7125
211.24758	8386.3125
215.53334	9529.9125
219.81599	10694.4125
224.09553	12046.2125
228.37195	13474.0125
232.64527	15029.3125
236.91549	16702.1125
241.18261	18346.9125
245.44663	19912.0125
249.70755	21323.2125
253.96539	22531.1125
258.22014	23589.3125
262.4718	24419.0125
266.72039	24980.9125
270.96589	25306.7125
275.20832	25370.1125
279.44768	25232.4125
283.68397	25037.7125
287.91719	24835.0125
292.14735	24711.7125
296.37445	24711.0125
300.59849	24747.6125
304.81948	24878.4125
309.03742	24919.7125
313.25231	24767.8125
317.46415	24426.1125
321.67296	23955.0125
325.87872	23544.5125
330.08145	23376.1125
334.28114	23374.4125
338.47781	23456.7125
342.67145	23715.6125
346.86207	24081.3125
351.04966	24489.9125
355.23424	24921.1125
359.4158	25253.3125
363.59435	25472.1125
367.76989	25688.4125
371.94243	25804.5125
376.11196	25884.7125
380.27849	25972.1125
384.44203	26063.1125
388.60257	26302.3125
392.76012	26582.4125
396.91468	26982.8125
401.06626	27450.1125
405.21485	27743.6125
409.36047	27616.7125
413.50311	27377.4125
417.64277	27384.5125
421.77947	27584.4125
425.9132	27872.0125
430.04396	28072.7125
434.17176	28137.3125
438.2966	28142.5125
442.41849	28467.4125
446.53742	29178.9125
450.6534	29983.2125
454.76644	30547.0125
458.87653	30709.7125
462.98368	30567.7125
467.08789	30167.6125
471.18916	29674.2125
475.2875	29161.5125
479.38291	28885.9125
483.4754	28662.3125
487.56496	28402.7125
491.6516	27984.1125
495.73531	27553.0125
499.81612	27384.2125
503.89401	27499.0125
507.96899	27757.0125
512.04106	27792.1125
516.11023	27604.3125
520.1765	27243.4125
524.23987	26908.9125
528.30034	26594.8125
532.35792	26344.4125
536.41261	26036.5125
540.46441	25751.0125
544.51333	25819.0125
548.55936	26091.5125
552.60252	26568.5125
556.64279	27223.9125
560.6802	27726.7125
564.71473	28163.1125
568.7464	28716.7125
572.7752	29732.3125
576.80114	31061.0125
580.82422	32328.7125
584.84444	33855.2125
588.86181	35878.9125
592.87633	37446.5125
596.888	36838.7125
600.89682	34454.9125
604.9028	33167.9125
608.90594	34048.6125
612.90624	35053.7125
616.90371	32670.1125
620.89834	28548.3125
624.89015	26896.3125
628.87913	26853.1125
632.86528	27047.4125
636.84862	26873.1125
640.82913	26379.8125
644.80683	25728.5125
648.78172	25330.9125
652.75379	25359.3125
656.72306	25635.8125
660.68952	25921.9125
664.65319	25739.4125
668.61405	25392.9125
672.57211	25380.2125
676.52738	25547.0125
680.47986	25492.8125
684.42955	25302.4125
688.37646	25179.7125
692.32058	25421.7125
696.26192	25798.3125
700.20048	26209.1125
704.13626	26447.9125
708.06928	26487.0125
711.99952	26448.0125
715.927	26325.4125
719.85171	26422.9125
723.77365	26240.0125
727.69284	25816.5125
731.60928	25374.0125
735.52295	25162.2125
739.43388	25179.2125
743.34206	25252.7125
747.24749	25459.5125
751.15017	25783.2125
755.05012	26348.2125
758.94733	27130.0125
762.8418	28254.9125
766.73354	29868.7125
770.62254	31175.2125
774.50882	31082.3125
778.39237	29719.8125
782.27321	28009.8125
786.15132	26689.8125
790.02671	25844.8125
793.89938	25471.4125
797.76935	25263.0125
801.6366	25165.2125
805.50115	25111.0125
809.36299	24983.7125
813.22213	24807.3125
817.07857	24682.3125
820.93231	24567.9125
824.78336	24421.1125
828.63172	24283.3125
832.47738	24197.0125
836.32036	24196.3125
840.16066	24262.5125
843.99827	24273.3125
847.8332	24269.6125
851.66546	24321.5125
855.49504	24374.6125
859.32195	24379.3125
863.1462	24296.1125
866.96777	24231.4125
870.78668	24174.8125
874.60293	24199.9125
878.41652	24170.1125
882.22745	24258.9125
886.03573	24276.5125
889.84136	24247.7125
893.64433	24149.3125
897.44466	24094.8125
901.24235	23994.9125
905.0374	23967.9125
908.8298	23988.8125
912.61957	24084.4125
916.40671	24330.3125
920.19121	24724.1125
923.97308	25086.1125
927.75233	25016.4125
931.52895	24608.5125
935.30295	24157.7125
939.07433	23734.0125
942.84309	23427.5125
946.60924	23329.2125
950.37278	23291.6125
954.13371	23366.7125
957.89203	23309.8125
961.64774	23311.0125
965.40086	23323.2125
969.15137	23296.5125
972.89929	23197.9125
976.64461	23136.8125
980.38733	23047.4125
984.12747	23127.2125
987.86502	23202.5125
991.59999	23344.1125
995.33237	23562.5125
999.06217	24000.5125
1002.78939	24532.4125
1006.51404	25072.5125
1010.23611	25640.9125
1013.95561	25937.2125
1017.67255	25974.2125
1021.38692	25654.9125
1025.09872	25160.1125
1028.80796	24818.9125
1032.51465	24874.0125
1036.21877	25072.2125
1039.92035	25174.4125
1043.61937	25215.7125
1047.31584	25076.3125
1051.00976	25001.2125
1054.70114	25032.2125
1058.38998	25187.5125
1062.07627	25464.4125
1065.76003	25740.8125
1069.44126	26128.2125
1073.11995	26543.7125
1076.79611	26919.7125
1080.46974	27144.3125
1084.14085	27307.5125
1087.80943	27650.7125
1091.47549	27902.1125
1095.13903	27985.2125
1098.80005	27598.9125
1102.45857	26879.2125
1106.11456	26375.8125
1109.76805	26084.5125
1113.41903	26032.4125
1117.06751	26159.8125
1120.71348	26333.9125
1124.35696	26555.1125
1127.99793	26853.7125
1131.63641	27024.2125
1135.2724	27067.4125
1138.90589	27153.3125
1142.5369	27323.2125
1146.16542	27575.5125
1149.79145	27965.6125
1153.415	28295.3125
1157.03607	28792.4125
1160.65467	29791.4125
1164.27079	31290.3125
1167.88443	33027.7125
1171.49561	34630.1125
1175.10432	36540.3125
1178.71056	38895.2125
1182.31434	41108.7125
1185.91565	42291.4125
1189.51451	42136.1125
1193.11091	41263.6125
1196.70485	40135.0125
1200.29634	38874.6125
1203.88538	38170.3125
1207.47197	38044.8125
1211.05612	38048.5125
1214.63782	37464.7125
1218.21708	36262.2125
1221.79391	34917.7125
1225.36829	33903.4125
1228.94024	33335.4125
1232.50976	32857.5125
1236.07685	32390.7125
1239.6415	32032.7125
1243.20374	32026.1125
1246.76355	32261.2125
1250.32093	32763.1125
1253.8759	33556.3125
1257.42845	34483.6125
1260.97859	35500.6125
1264.52631	36545.7125
1268.07163	37692.0125
1271.61453	38875.4125
1275.15503	40004.3125
1278.69312	41149.9125
1282.22882	42500.7125
1285.76211	44084.7125
1289.29301	45900.1125
1292.82151	48213.3125
1296.34761	51013.1125
1299.87133	54258.1125
1303.39266	57504.1125
1306.9116	60116.2125
1310.42815	61748.6125
1313.94233	62282.6125
1317.45412	61656.2125
1320.96354	60791.6125
1324.47058	60294.1125
1327.97525	60164.5125
1331.47754	60173.8125
1334.97747	60075.8125
1338.47502	59629.7125
1341.97022	58797.3125
1345.46305	57786.3125
1348.95352	56516.3125
1352.44163	55770.3125
1355.92738	55985.0125
1359.41078	57421.1125
1362.89183	58373.9125
1366.37053	57323.6125
1369.84688	53456.5125
1373.32088	48320.1125
1376.79254	44689.6125
1380.26186	43659.7125
1383.72883	44079.0125
1387.19347	44454.8125
1390.65578	44243.2125
1394.11575	44272.5125
1397.57339	44895.4125
1401.0287	45907.0125
1404.48168	46705.2125
1407.93234	46667.1125
1411.38068	45620.1125
1414.82669	43825.3125
1418.27039	41718.8125
1421.71177	39811.3125
1425.15083	38315.9125
1428.58758	37758.8125
1432.02203	38346.3125
1435.45416	39685.9125
1438.88399	41237.3125
1442.31151	42315.4125
1445.73673	42780.8125
1449.15965	42939.8125
1452.58027	42892.4125
1455.9986	42764.5125
1459.41463	42993.9125
1462.82837	43677.0125
1466.23982	44390.9125
1469.64898	45066.0125
1473.05586	45391.9125
1476.46045	45266.7125
1479.86276	44754.1125
1483.26279	44108.3125
1486.66054	43775.0125
1490.05602	43781.9125
1493.44922	44031.9125
1496.84016	44317.1125
1500.22882	44737.3125
1503.61521	45385.9125
1506.99934	46133.3125
1510.38121	46649.2125
1513.76081	46660.0125
1517.13816	46148.8125
1520.51324	45668.3125
1523.88607	45580.8125
1527.25665	46004.5125
1530.62498	46517.5125
1533.99105	46561.6125
1537.35488	45975.3125
1540.71647	44775.8125
1544.07581	43290.9125
1547.4329	41777.5125
1550.78776	40526.5125
1554.14038	39674.6125
1557.49077	39074.0125
1560.83892	38656.6125
1564.18484	38397.4125
1567.52853	38383.2125
1570.86999	38697.1125
1574.20922	39573.7125
1577.54624	40502.5125
1580.88103	41137.7125
1584.2136	42075.8125
1587.54395	43963.1125
1590.87208	46664.8125
1594.19801	49782.5125
1597.52172	52296.2125
1600.84321	52537.3125
1604.16251	49665.8125
1607.47959	45242.1125
1610.79447	40766.4125
1614.10715	37044.7125
1617.41763	34073.4125
1620.7259	32099.4125
1624.03199	31139.2125
1627.33587	31247.2125
1630.63757	32418.2125
1633.93707	34952.5125
1637.23439	39051.4125
1640.52951	45125.0125
1643.82246	51930.6125
1647.11321	56775.5125
1650.40179	56782.3125
1653.68819	51368.6125
1656.97241	43627.9125
1660.25446	36624.9125
1663.53433	31664.9125
1666.81203	28445.0125
1670.08756	26472.7125
1673.36092	25232.3125
1676.63211	24429.0125
1679.90115	23851.5125
1683.16801	23455.2125
1686.43272	23104.9125
1689.69527	22888.5125
1692.95567	22739.4125
1696.2139	22581.6125
1699.46999	22518.1125
1702.72392	22454.8125
1705.97571	22326.1125
1709.22535	22214.5125
1712.47284	22171.4125
1715.71819	22120.2125
1718.96139	22016.0125
1722.20246	21976.4125
1725.44139	21826.5125
1728.67818	21734.8125
1731.91284	21564.6125
1735.14537	21432.1125
1738.37576	21297.6125
1741.60403	21243.3125
1744.83017	21153.4125
1748.05418	21111.9125
1751.27607	21038.6125
1754.49584	21030.7125
1757.71349	21029.2125
1760.92903	20967.7125
1764.14244	20957.5125
1767.35375	20947.6125
1770.56294	20886.5125
1773.77002	20874.1125
1776.97499	20786.6125
1780.17785	20731.4125
1783.37861	20676.7125
1786.57727	20660.6125
1789.77382	20641.7125
1792.96828	20564.2125
1796.16064	20511.1125
1799.3509	20506.5125
1802.53907	20458.6125
1805.72514	20359.2125
1808.90913	20317.9125
1812.09102	20269.7125
1815.27083	20236.8125
1818.44856	20188.6125
1821.6242	20210.4125
1824.79776	20164.5125
1827.96924	20158.0125
1831.13864	20154.2125
1834.30597	20144.7125
1837.47122	20163.0125
1840.6344	20153.9125
1843.7955	20149.2125
1846.95454	20160.9125
1850.11151	20109.6125
1853.26642	20132.2125
1856.41926	20097.4125
1859.57004	20078.2125
1862.71876	20028.3125
1865.86542	19996.6125
1869.01003	19983.6125
1872.15258	19943.6125
1875.29308	19954.2125
1878.43152	19908.4125
1881.56792	19899.5125
1884.70227	19854.4125
1887.83457	19835.1125
1890.96482	19819.5125
1894.09304	19792.4125
1897.21921	19770.3125
1900.34335	19741.5125
1903.46544	19725.3125
1906.58551	19667.3125
1909.70353	19633.1125
1912.81953	19624.4125
1915.93349	19591.5125
1919.04543	19562.3125
1922.15534	19531.5125
1925.26322	19438.9125
1928.36908	19404.4125
1931.47292	19353.2125
1934.57473	19294.9125
1937.67453	19299.4125
1940.77232	19224.2125
1943.86808	19182.9125
1946.96184	19144.4125
1950.05358	19031.1125
1953.14331	18994.7125
1956.23103	18969.1125
1959.31675	18896.6125
1962.40046	18853.5125
1965.48217	18791.3125
1968.56188	18736.9125
1971.63959	18652.7125
1974.7153	18598.7125
1977.78901	18561.0125
1980.86073	18496.2125
1983.93046	18443.0125
1986.99819	18380.7125
1990.06394	18353.1125
1993.1277	18278.2125
1996.18947	18230.2125
1999.24925	18171.0125
2002.30706	18121.5125
2005.36288	18083.3125
2008.41672	18024.7125
2011.46859	17932.5125
2014.51848	17928.2125
2017.56639	17886.5125
2020.61233	17858.6125
2023.6563	17801.7125
2026.6983	17754.4125
2029.73833	17745.4125
2032.7764	17706.9125
2035.8125	17686.8125
2038.84664	17620.7125
2041.87881	17568.9125
2044.90903	17528.4125
2047.93729	17492.5125
2050.96359	17473.4125
2053.98794	17476.2125
2057.01034	17481.1125
2060.03078	17447.2125
2063.04927	17439.4125
2066.06582	17401.6125
2069.08042	17413.0125
2072.09307	17363.8125
2075.10378	17379.0125
2078.11255	17349.1125
2081.11938	17365.3125
2084.12426	17359.5125
2087.12722	17341.8125
2090.12824	17292.6125
2093.12732	17311.7125
2096.12447	17320.1125
2099.11969	17288.5125
2102.11299	17277.0125
2105.10435	17291.8125
2108.09379	17343.6125
2111.08131	17342.9125
2114.0669	17317.1125
2117.05057	17306.5125
2120.03233	17356.0125
2123.01216	17384.8125
2125.99008	17396.0125
2128.96609	17396.0125
2131.94018	17374.7125
2134.91236	17410.8125
2137.88263	17412.7125
2140.851	17401.1125
2143.81746	17391.2125
2146.78201	17370.0125
2149.74466	17394.0125
2152.7054	17352.6125
2155.66425	17366.5125
2158.6212	17399.8125
2161.57625	17385.6125
2164.52941	17395.2125
2167.48067	17389.7125
2170.43004	17374.6125
2173.37752	17355.4125
2176.32311	17320.8125
2179.26681	17398.6125
2182.20863	17385.8125
2185.14856	17376.0125
2188.08661	17362.9125
2191.02278	17365.2125
2193.95707	17358.9125
2196.88948	17345.6125
2199.82001	17322.6125
2202.74867	17267.1125
2205.67545	17259.3125
2208.60037	17257.9125
2211.52341	17209.3125
2214.44458	17182.7125
2217.36388	17136.7125
2220.28132	17131.0125
2223.1969	17092.4125
2226.11061	17100.0125
2229.02246	17042.2125
2231.93245	17026.1125
2234.84058	17004.7125
2237.74686	17006.2125
2240.65128	16987.5125
2243.55385	16926.8125
2246.45456	16872.9125
2249.35343	16911.0125
2252.25044	16852.2125
2255.14561	16800.2125
2258.03893	16767.9125
2260.93041	16716.9125
2263.82004	16669.8125
2266.70783	16644.9125
2269.59378	16571.3125
2272.4779	16536.5125
2275.36017	16504.9125
2278.24061	16461.8125
2281.11922	16460.1125
2283.996	16456.7125
2286.87094	16427.5125
2289.74405	16404.5125
2292.61534	16381.0125
2295.4848	16375.3125
2298.35243	16346.7125
2301.21824	16380.7125
2304.08223	16374.8125
2306.94439	16342.4125
2309.80474	16376.3125
2312.66327	16397.9125
2315.51999	16340.4125
2318.37489	16311.2125
2321.22797	16307.0125
2324.07925	16279.3125
2326.92871	16235.3125
2329.77637	16253.2125
2332.62222	16212.9125
2335.46626	16200.3125
2338.3085	16170.3125
2341.14893	16185.6125
2343.98756	16199.4125
2346.8244	16190.0125
2349.65943	16157.3125
2352.49267	16180.4125
2355.32411	16180.5125
2358.15376	16163.9125
2360.98161	16158.6125
2363.80768	16188.8125
2366.63195	16182.1125
2369.45444	16141.3125
2372.27514	16105.7125
2375.09405	16054.6125
2377.91118	16042.8125
2380.72652	16002.7125
2383.54009	15963.3125
2386.35187	15978.9125
2389.16188	15915.2125
2391.97011	15877.4125
2394.77657	15851.4125
2397.58125	15826.1125
2400.38416	15819.3125
2403.18529	15801.2125
2405.98466	15797.9125
2408.78226	15770.6125
2411.57809	15752.3125
2414.37216	15721.8125
2417.16446	15722.9125
2419.955	15686.1125
2422.74378	15701.1125
2425.5308	15687.1125
2428.31606	15694.2125
2431.09956	15687.3125
2433.88131	15662.7125
2436.6613	15673.0125
2439.43954	15648.2125
2442.21603	15643.9125
2444.99077	15631.5125
2447.76377	15669.9125
2450.53501	15624.6125
2453.30451	15623.9125
2456.07226	15593.2125
2458.83827	15612.3125
2461.60254	15641.1125
2464.36507	15582.5125
2467.12586	15550.4125
2469.88492	15557.0125
2472.64224	15564.2125
2475.39782	15569.3125
2478.15167	15600.3125
2480.90379	15592.3125
2483.65417	15635.3125
2486.40283	15611.7125
2489.14976	15602.6125
2491.89497	15602.3125
2494.63845	15646.4125
2497.3802	15604.0125
2500.12024	15622.3125
2502.85855	15609.9125
2505.59514	15573.1125
2508.33002	15565.2125
2511.06318	15557.6125
2513.79462	15564.0125
2516.52435	15542.3125
2519.25237	15533.3125
2521.97867	15513.5125
2524.70327	15541.5125
2527.42616	15479.2125
2530.14734	15507.3125
2532.86681	15503.8125
2535.58458	15477.0125
2538.30065	15476.2125
2541.01501	15492.7125
2543.72768	15499.1125
2546.43864	15483.6125
2549.14791	15450.1125
2551.85548	15471.6125
2554.56136	15437.5125
2557.26554	15420.9125
2559.96803	15415.0125
2562.66883	15380.5125
2565.36794	15363.4125
2568.06536	15343.6125
2570.7611	15363.1125
2573.45514	15347.3125
2576.14751	15322.1125
2578.83819	15302.6125
2581.52719	15289.1125
2584.21451	15292.9125
2586.90015	15273.9125
2589.58411	15257.4125
2592.2664	15281.3125
2594.94701	15231.6125
2597.62594	15246.0125
2600.30321	15225.0125
2602.9788	15230.9125
2605.65273	15208.0125
2608.32498	15238.3125
2610.99557	15249.2125
2613.66449	15246.6125
2616.33175	15228.6125
2618.99734	15223.6125
2621.66128	15190.1125
2624.32355	15168.1125
2626.98416	15158.1125
2629.64311	15163.9125
2632.30041	15162.2125
2634.95605	15141.0125
2637.61004	15133.4125
2640.26238	15143.7125
2642.91306	15108.6125
2645.56209	15121.2125
2648.20948	15116.7125
2650.85521	15125.1125
2653.4993	15162.1125
2656.14175	15138.2125
2658.78255	15172.9125
2661.42171	15160.0125
2664.05923	15203.1125
2666.6951	15211.7125
2669.32934	15222.5125
2671.96194	15218.4125
2674.59291	15216.6125
2677.22224	15221.2125
2679.84993	15256.8125
2682.476	15168.1125
2685.10043	15201.5125
2687.72324	15185.8125
2690.34441	15201.4125
2692.96396	15202.1125
2695.58188	15187.0125
2698.19818	15204.5125
2700.81285	15215.3125
2703.4259	15209.6125
2706.03733	15225.9125
2708.64714	15216.3125
2711.25533	15226.8125
2713.86191	15207.1125
2716.46687	15238.7125
2719.07021	15228.0125
2721.67194	15286.3125
2724.27206	15291.8125
2726.87057	15302.4125
2729.46747	15323.2125
2732.06276	15331.4125
2734.65644	15350.5125
2737.24852	15335.4125
2739.83899	15337.0125
2742.42786	15348.3125
2745.01513	15323.6125
2747.60079	15273.5125
2750.18486	15262.8125
2752.76733	15266.1125
2755.3482	15238.0125
2757.92747	15244.7125
2760.50515	15227.1125
2763.08123	15255.7125
2765.65573	15228.9125
2768.22863	15238.6125
2770.79994	15221.2125
2773.36967	15266.9125
2775.9378	15234.2125
2778.50435	15221.5125
2781.06932	15227.3125
2783.6327	15220.2125
2786.1945	15222.2125
2788.75471	15202.7125
2791.31335	15178.0125
2793.87041	15175.7125
2796.42589	15137.1125
2798.97979	15172.5125
2801.53212	15122.7125
2804.08288	15104.8125
2806.63206	15069.7125
2809.17967	15033.3125
2811.72571	14995.3125
2814.27018	14957.8125
2816.81308	14947.5125
2819.35442	14910.3125
2821.89419	14860.2125
2824.43239	14877.9125
2826.96904	14843.4125
2829.50412	14818.2125
2832.03763	14790.6125
2834.56959	14788.0125
2837.1	14779.9125
2839.62884	14783.9125
2842.15613	14770.8125
2844.68186	14781.3125
2847.20604	14778.4125
2849.72867	14755.3125
2852.24974	14745.2125
2854.76927	14736.4125
2857.28724	14716.6125
2859.80367	14660.4125
2862.31855	14689.0125
2864.83189	14647.6125
2867.34368	14644.8125
2869.85393	14630.0125
2872.36264	14599.6125
2874.8698	14598.5125
2877.37543	14594.1125
2879.87952	14582.9125
2882.38207	14595.7125
2884.88308	14596.8125
2887.38256	14610.4125
2889.88051	14606.0125
2892.37692	14633.1125
2894.8718	14610.8125
2897.36515	14652.6125
2899.85698	14646.6125
2902.34727	14672.7125
2904.83604	14640.5125
2907.32328	14678.7125
2909.809	14687.0125
2912.29319	14692.1125
2914.77587	14691.0125
2917.25702	14671.7125
2919.73665	14658.3125
2922.21476	14673.4125
2924.69136	14646.1125
2927.16644	14644.2125
2929.64	14659.4125
2932.11205	14626.4125
2934.58258	14557.4125
2937.05161	14584.6125
2939.51912	14577.1125
2941.98513	14545.0125
2944.44962	14531.5125
2946.91261	14473.1125
2949.37409	14546.0125
2951.83407	14494.1125
2954.29254	14494.7125
2956.74951	14480.7125
2959.20498	14484.1125
2961.65895	14462.2125
2964.11142	14480.3125
2966.56239	14463.8125
2969.01186	14443.5125
2971.45984	14411.9125
2973.90632	14385.2125
2976.35131	14360.0125
2978.7948	14339.1125
2981.23681	14302.5125
2983.67732	14280.5125
2986.11635	14239.2125
2988.55388	14209.8125
2990.98993	14165.8125
2993.4245	14127.9125
2995.85758	14071.6125
2998.28917	14072.8125
3000.71928	14010.5125
3003.14791	13973.6125
3005.57506	13965.4125
3008.00073	13911.7125
3010.42493	13791.1125
3012.84764	13816.6125
3015.26888	13853.1125
3017.68865	13779.5125
3020.10694	13776.1125
3022.52376	13749.8125
