Data from AgNP_FTO_APTES_UA_10uM_CRN_50uM_R6G_10uM_NaF_0.1M_Addition_RamanShift__32__17-19-50-825.txt Node

Date: Thu Feb 10 17:19:50 GMT 2022
User: TCL
Spectrometer: QEP01345
Trigger mode: 4
Integration Time (sec): 7.000000E0
Scans to average: 10
Electric dark correction enabled: true
Nonlinearity correction enabled: false
Boxcar width: 0
XAxis mode: Raman Shifts
Number of Pixels in Spectrum: 1044
>>>>>Begin Spectral Data<<<<<
46.04893	0.575
50.45542	-1.925
54.85868	-1.125
59.25871	0.375
63.6555	42.575
68.04907	45.475
72.43941	47.875
76.82654	47.475
81.21044	52.475
85.59113	52.475
89.96862	57.075
94.34289	56.975
98.71396	59.975
103.08183	65.275
107.4465	66.775
111.80798	63.275
116.16626	65.475
120.52136	65.375
124.87327	67.875
129.222	70.975
133.56755	74.375
137.90993	73.075
142.24913	79.275
146.58517	88.175
150.91804	97.375
155.24774	114.475
159.57429	137.675
163.89768	169.775
168.21792	223.875
172.53501	296.475
176.84895	406.375
181.15975	566.175
185.46741	778.475
189.77193	1085.575
194.07331	1431.475
198.37157	1843.875
202.6667	2275.075
206.9587	2701.075
211.24758	3123.475
215.53334	3595.775
219.81599	4083.075
224.09553	4654.375
228.37195	5290.875
232.64527	5980.475
236.91549	6667.575
241.18261	7285.975
245.44663	7824.575
249.70755	8237.775
253.96539	8561.175
258.22014	8884.275
262.4718	9180.075
266.72039	9413.475
270.96589	9586.875
275.20832	9654.675
279.44768	9584.475
283.68397	9423.375
287.91719	9356.875
292.14735	9385.575
296.37445	9606.775
300.59849	9974.075
304.81948	10406.975
309.03742	10691.575
313.25231	10612.175
317.46415	10059.475
321.67296	9230.175
325.87872	8573.175
330.08145	8284.875
334.28114	8269.875
338.47781	8404.975
342.67145	8657.175
346.86207	9081.175
351.04966	9645.875
355.23424	10264.575
359.4158	10757.375
363.59435	10974.675
367.76989	11034.375
371.94243	11002.975
376.11196	10966.775
380.27849	10929.675
384.44203	10831.275
388.60257	10656.675
392.76012	10546.475
396.91468	10644.775
401.06626	10940.275
405.21485	11137.975
409.36047	10909.275
413.50311	10305.475
417.64277	9716.275
421.77947	9429.775
425.9132	9277.475
430.04396	9279.075
434.17176	9324.875
438.2966	9420.875
442.41849	9618.975
446.53742	9883.075
450.6534	10178.575
454.76644	10337.775
458.87653	10361.775
462.98368	10267.375
467.08789	10113.275
471.18916	9902.675
475.2875	9695.675
479.38291	9494.475
483.4754	9319.675
487.56496	9186.575
491.6516	9088.675
495.73531	9065.275
499.81612	9094.975
503.89401	9197.475
507.96899	9365.175
512.04106	9526.375
516.11023	9726.275
520.1765	9830.775
524.23987	9824.575
528.30034	9616.575
532.35792	9393.575
536.41261	9184.575
540.46441	8940.975
544.51333	8903.375
548.55936	8961.575
552.60252	9168.775
556.64279	9436.275
560.6802	9555.875
564.71473	9666.675
568.7464	10059.175
572.7752	10317.775
576.80114	9984.575
580.82422	9578.775
584.84444	9380.675
588.86181	9301.375
592.87633	9319.875
596.888	9429.875
600.89682	9780.675
604.9028	11018.275
608.90594	14361.275
612.90624	18910.075
616.90371	18124.475
620.89834	12402.375
624.89015	9761.375
628.87913	9278.675
632.86528	9306.375
636.84862	9499.675
640.82913	9406.275
644.80683	8992.875
648.78172	8728.875
652.75379	8777.375
656.72306	9171.275
660.68952	9647.375
664.65319	9552.975
668.61405	9034.275
672.57211	8794.475
676.52738	8800.175
680.47986	8809.775
684.42955	8758.775
688.37646	8714.475
692.32058	8741.675
696.26192	8812.075
700.20048	8941.575
704.13626	9017.675
708.06928	8977.575
711.99952	8906.675
715.927	8906.875
719.85171	8916.775
723.77365	8916.575
727.69284	8843.175
731.60928	8783.075
735.52295	8735.775
739.43388	8773.275
743.34206	8807.175
747.24749	8843.175
751.15017	8899.475
755.05012	9062.275
758.94733	9514.475
762.8418	10568.075
766.73354	12373.875
770.62254	14373.175
774.50882	15494.075
778.39237	14823.575
782.27321	12705.575
786.15132	10688.875
790.02671	9558.975
793.89938	9085.875
797.76935	8889.975
801.6366	8777.975
805.50115	8725.475
809.36299	8674.975
813.22213	8654.575
817.07857	8610.375
820.93231	8636.075
824.78336	8667.975
828.63172	8716.675
832.47738	8727.575
836.32036	8701.875
840.16066	8668.875
843.99827	8605.975
847.8332	8577.775
851.66546	8572.575
855.49504	8570.575
859.32195	8566.975
863.1462	8516.975
866.96777	8513.575
870.78668	8502.875
874.60293	8504.475
878.41652	8538.775
882.22745	8593.875
886.03573	8602.875
889.84136	8581.775
893.64433	8548.575
897.44466	8517.075
901.24235	8526.875
905.0374	8526.275
908.8298	8505.675
912.61957	8501.575
916.40671	8532.975
920.19121	8578.175
923.97308	8628.175
927.75233	8676.475
931.52895	8781.975
935.30295	8724.375
939.07433	8485.575
942.84309	8254.375
946.60924	8134.075
950.37278	8073.775
954.13371	8025.675
957.89203	8002.475
961.64774	8001.975
965.40086	7978.675
969.15137	7944.575
972.89929	7921.975
976.64461	7911.475
980.38733	7913.775
984.12747	7921.875
987.86502	7963.075
991.59999	7981.975
995.33237	8050.675
999.06217	8180.575
1002.78939	8358.675
1006.51404	8511.875
1010.23611	8695.475
1013.95561	8827.875
1017.67255	8843.975
1021.38692	8723.075
1025.09872	8584.875
1028.80796	8530.475
1032.51465	8561.075
1036.21877	8612.375
1039.92035	8689.275
1043.61937	8712.075
1047.31584	8688.175
1051.00976	8690.475
1054.70114	8653.875
1058.38998	8662.075
1062.07627	8719.675
1065.76003	8772.075
1069.44126	8797.275
1073.11995	8835.875
1076.79611	8947.275
1080.46974	9078.875
1084.14085	9331.675
1087.80943	9592.975
1091.47549	9721.975
1095.13903	9533.475
1098.80005	9205.575
1102.45857	8952.175
1106.11456	8848.175
1109.76805	8926.275
1113.41903	9130.775
1117.06751	9443.175
1120.71348	9818.875
1124.35696	10225.875
1127.99793	10584.775
1131.63641	10560.675
1135.2724	10073.975
1138.90589	9544.275
1142.5369	9265.775
1146.16542	9078.675
1149.79145	8971.875
1153.415	8966.475
1157.03607	9017.875
1160.65467	9199.075
1164.27079	9522.475
1167.88443	10037.175
1171.49561	10798.675
1175.10432	12185.175
1178.71056	14004.675
1182.31434	15280.275
1185.91565	15453.675
1189.51451	14909.875
1193.11091	13870.675
1196.70485	12704.575
1200.29634	11938.675
1203.88538	11388.275
1207.47197	10691.475
1211.05612	10113.275
1214.63782	9777.675
1218.21708	9657.275
1221.79391	9652.675
1225.36829	9669.975
1228.94024	9709.975
1232.50976	9757.875
1236.07685	9796.975
1239.6415	9842.675
1243.20374	9933.375
1246.76355	10006.775
1250.32093	10159.975
1253.8759	10397.475
1257.42845	10715.475
1260.97859	11024.975
1264.52631	11323.875
1268.07163	11600.375
1271.61453	11870.075
1275.15503	12036.375
1278.69312	12097.575
1282.22882	12065.075
1285.76211	12201.875
1289.29301	12527.575
1292.82151	12935.375
1296.34761	13332.975
1299.87133	13953.575
1303.39266	15015.775
1306.9116	16767.975
1310.42815	18855.375
1313.94233	20112.375
1317.45412	19734.175
1320.96354	18356.375
1324.47058	16768.775
1327.97525	15357.875
1331.47754	14518.275
1334.97747	14273.175
1338.47502	14401.275
1341.97022	14823.575
1345.46305	15426.375
1348.95352	16370.175
1352.44163	17671.775
1355.92738	19552.875
1359.41078	22559.775
1362.89183	25612.975
1366.37053	24912.275
1369.84688	20866.075
1373.32088	16919.975
1376.79254	14450.875
1380.26186	13252.675
1383.72883	12658.375
1387.19347	12255.075
1390.65578	11763.275
1394.11575	11339.475
1397.57339	11121.875
1401.0287	11059.675
1404.48168	11189.375
1407.93234	11357.275
1411.38068	11545.375
1414.82669	11581.175
1418.27039	11452.475
1421.71177	11254.175
1425.15083	11042.175
1428.58758	10880.975
1432.02203	10894.775
1435.45416	11030.575
1438.88399	11075.475
1442.31151	11063.175
1445.73673	11093.675
1449.15965	11184.375
1452.58027	11151.775
1455.9986	11019.175
1459.41463	11034.675
1462.82837	11124.675
1466.23982	11317.875
1469.64898	11573.275
1473.05586	11761.775
1476.46045	11949.675
1479.86276	12177.675
1483.26279	12507.575
1486.66054	12850.175
1490.05602	13327.175
1493.44922	13935.475
1496.84016	14850.275
1500.22882	16344.175
1503.61521	18363.375
1506.99934	20771.275
1510.38121	23167.375
1513.76081	24382.175
1517.13816	23332.075
1520.51324	20414.375
1523.88607	17383.675
1527.25665	15234.075
1530.62498	13984.775
1533.99105	13237.975
1537.35488	12805.075
1540.71647	12511.175
1544.07581	12403.975
1547.4329	12365.875
1550.78776	12298.475
1554.14038	12343.675
1557.49077	12468.275
1560.83892	12730.075
1564.18484	13143.775
1567.52853	13578.975
1570.86999	13877.275
1574.20922	14052.075
1577.54624	13944.675
1580.88103	13267.475
1584.2136	12325.775
1587.54395	11749.975
1590.87208	11832.375
1594.19801	12399.075
1597.52172	13262.475
1600.84321	13613.375
1604.16251	13221.275
1607.47959	12477.175
1610.79447	11651.075
1614.10715	10818.275
1617.41763	10131.375
1620.7259	9714.475
1624.03199	9498.175
1627.33587	9495.275
1630.63757	9681.575
1633.93707	10068.675
1637.23439	10691.975
1640.52951	11627.375
1643.82246	12976.875
1647.11321	14771.475
1650.40179	16247.275
1653.68819	16080.075
1656.97241	14115.075
1660.25446	11764.475
1663.53433	10135.975
1666.81203	9142.075
1670.08756	8559.175
1673.36092	8191.075
1676.63211	7990.075
1679.90115	7824.375
1683.16801	7727.675
1686.43272	7647.575
1689.69527	7582.275
1692.95567	7555.875
1696.2139	7548.675
1699.46999	7532.475
1702.72392	7535.275
1705.97571	7477.375
1709.22535	7470.475
1712.47284	7475.075
1715.71819	7455.075
1718.96139	7455.075
1722.20246	7446.975
1725.44139	7418.475
1728.67818	7365.875
1731.91284	7293.875
1735.14537	7246.075
1738.37576	7216.575
1741.60403	7205.475
1744.83017	7165.375
1748.05418	7132.575
1751.27607	7141.475
1754.49584	7110.475
1757.71349	7136.175
1760.92903	7123.175
1764.14244	7118.875
1767.35375	7097.175
1770.56294	7089.275
1773.77002	7046.075
1776.97499	7028.775
1780.17785	7011.175
1783.37861	6981.575
1786.57727	6965.575
1789.77382	6948.575
1792.96828	6930.175
1796.16064	6923.975
1799.3509	6912.775
1802.53907	6893.475
1805.72514	6864.575
1808.90913	6846.775
1812.09102	6837.575
1815.27083	6819.375
1818.44856	6795.075
1821.6242	6778.075
1824.79776	6767.675
1827.96924	6759.375
1831.13864	6761.175
1834.30597	6762.375
1837.47122	6769.875
1840.6344	6754.275
1843.7955	6725.475
1846.95454	6717.575
1850.11151	6707.775
1853.26642	6731.775
1856.41926	6715.275
1859.57004	6723.575
1862.71876	6703.075
1865.86542	6707.575
1869.01003	6701.775
1872.15258	6707.575
1875.29308	6722.275
1878.43152	6700.875
1881.56792	6700.575
1884.70227	6690.475
1887.83457	6698.575
1890.96482	6687.875
1894.09304	6657.175
1897.21921	6673.675
1900.34335	6650.275
1903.46544	6667.975
1906.58551	6652.575
1909.70353	6639.375
1912.81953	6658.475
1915.93349	6673.375
1919.04543	6632.775
1922.15534	6619.575
1925.26322	6616.375
1928.36908	6603.375
1931.47292	6589.275
1934.57473	6568.475
1937.67453	6540.675
1940.77232	6534.275
1943.86808	6502.275
1946.96184	6447.375
1950.05358	6453.875
1953.14331	6427.175
1956.23103	6417.375
1959.31675	6383.775
1962.40046	6377.775
1965.48217	6344.075
1968.56188	6326.975
1971.63959	6301.475
1974.7153	6280.875
1977.78901	6283.575
1980.86073	6260.975
1983.93046	6237.575
1986.99819	6206.375
1990.06394	6192.775
1993.1277	6182.275
1996.18947	6129.375
1999.24925	6135.475
2002.30706	6104.175
2005.36288	6090.375
2008.41672	6065.375
2011.46859	6065.975
2014.51848	6041.675
2017.56639	6030.775
2020.61233	6003.975
2023.6563	5990.475
2026.6983	5977.275
2029.73833	5942.075
2032.7764	5943.975
2035.8125	5922.275
2038.84664	5890.975
2041.87881	5881.275
2044.90903	5884.975
2047.93729	5872.575
2050.96359	5879.875
2053.98794	5854.675
2057.01034	5847.775
2060.03078	5849.275
2063.04927	5827.975
2066.06582	5815.875
2069.08042	5819.675
2072.09307	5809.975
2075.10378	5805.575
2078.11255	5799.975
2081.11938	5799.475
2084.12426	5781.275
2087.12722	5796.275
2090.12824	5787.975
2093.12732	5771.075
2096.12447	5786.175
2099.11969	5761.275
2102.11299	5763.375
2105.10435	5785.375
2108.09379	5798.175
2111.08131	5781.175
2114.0669	5797.475
2117.05057	5781.975
2120.03233	5794.375
2123.01216	5791.675
2125.99008	5809.175
2128.96609	5804.475
2131.94018	5799.475
2134.91236	5801.575
2137.88263	5823.575
2140.851	5819.375
2143.81746	5812.975
2146.78201	5810.975
2149.74466	5815.375
2152.7054	5796.975
2155.66425	5787.675
2158.6212	5785.775
2161.57625	5780.475
2164.52941	5759.275
2167.48067	5771.575
2170.43004	5780.475
2173.37752	5773.875
2176.32311	5776.775
2179.26681	5778.975
2182.20863	5764.075
2185.14856	5768.075
2188.08661	5758.775
2191.02278	5753.475
2193.95707	5772.875
2196.88948	5752.875
2199.82001	5755.175
2202.74867	5721.975
2205.67545	5748.575
2208.60037	5723.375
2211.52341	5720.875
2214.44458	5701.275
2217.36388	5707.975
2220.28132	5692.775
2223.1969	5669.675
2226.11061	5646.175
2229.02246	5639.175
2231.93245	5618.475
2234.84058	5610.975
2237.74686	5607.675
2240.65128	5597.675
2243.55385	5593.675
2246.45456	5594.175
2249.35343	5590.275
2252.25044	5580.975
2255.14561	5568.675
2258.03893	5579.775
2260.93041	5565.075
2263.82004	5545.675
2266.70783	5551.175
2269.59378	5524.075
2272.4779	5513.375
2275.36017	5473.875
2278.24061	5483.575
2281.11922	5479.075
2283.996	5456.875
2286.87094	5453.275
2289.74405	5443.575
2292.61534	5424.775
2295.4848	5412.475
2298.35243	5411.275
2301.21824	5402.875
2304.08223	5393.075
2306.94439	5400.275
2309.80474	5385.675
2312.66327	5403.675
2315.51999	5400.975
2318.37489	5386.675
2321.22797	5371.075
2324.07925	5373.875
2326.92871	5355.075
2329.77637	5340.875
2332.62222	5345.275
2335.46626	5345.075
2338.3085	5335.575
2341.14893	5337.775
2343.98756	5335.875
2346.8244	5350.175
2349.65943	5342.175
2352.49267	5342.675
2355.32411	5353.775
2358.15376	5365.075
2360.98161	5350.375
2363.80768	5382.475
2366.63195	5374.275
2369.45444	5357.075
2372.27514	5358.975
2375.09405	5341.875
2377.91118	5324.175
2380.72652	5305.575
2383.54009	5282.975
2386.35187	5252.575
2389.16188	5229.675
2391.97011	5210.975
2394.77657	5207.375
2397.58125	5186.675
2400.38416	5169.375
2403.18529	5176.875
2405.98466	5151.975
2408.78226	5145.375
2411.57809	5152.075
2414.37216	5146.875
2417.16446	5127.575
2419.955	5112.575
2422.74378	5109.375
2425.5308	5109.475
2428.31606	5094.975
2431.09956	5107.075
2433.88131	5101.375
2436.6613	5101.875
2439.43954	5095.575
2442.21603	5098.275
2444.99077	5089.875
2447.76377	5083.575
2450.53501	5092.875
2453.30451	5075.075
2456.07226	5075.075
2458.83827	5095.775
2461.60254	5073.275
2464.36507	5072.575
2467.12586	5049.875
2469.88492	5068.375
2472.64224	5059.175
2475.39782	5071.975
2478.15167	5073.875
2480.90379	5068.875
2483.65417	5094.275
2486.40283	5084.175
2489.14976	5112.375
2491.89497	5097.575
2494.63845	5102.275
2497.3802	5099.575
2500.12024	5086.875
2502.85855	5068.275
2505.59514	5054.375
2508.33002	5031.675
2511.06318	5026.075
2513.79462	4995.875
2516.52435	4967.475
2519.25237	4961.575
2521.97867	4955.675
2524.70327	4965.375
2527.42616	4938.575
2530.14734	4937.175
2532.86681	4940.075
2535.58458	4923.475
2538.30065	4930.575
2541.01501	4933.475
2543.72768	4925.175
2546.43864	4936.675
2549.14791	4910.975
2551.85548	4907.575
2554.56136	4913.275
2557.26554	4905.575
2559.96803	4876.675
2562.66883	4877.675
2565.36794	4853.575
2568.06536	4864.075
2570.7611	4844.275
2573.45514	4833.375
2576.14751	4820.875
2578.83819	4815.775
2581.52719	4810.575
2584.21451	4789.475
2586.90015	4795.675
2589.58411	4770.475
2592.2664	4785.575
2594.94701	4777.275
2597.62594	4774.175
2600.30321	4753.275
2602.9788	4746.875
2605.65273	4756.875
2608.32498	4750.275
2610.99557	4743.175
2613.66449	4735.375
2616.33175	4743.275
2618.99734	4747.875
2621.66128	4738.875
2624.32355	4735.175
2626.98416	4727.575
2629.64311	4708.075
2632.30041	4716.275
2634.95605	4699.875
2637.61004	4689.375
2640.26238	4682.475
2642.91306	4669.875
2645.56209	4666.275
2648.20948	4672.275
2650.85521	4654.875
2653.4993	4657.975
2656.14175	4654.675
2658.78255	4654.475
2661.42171	4658.475
2664.05923	4673.975
2666.6951	4680.875
2669.32934	4679.975
2671.96194	4687.175
2674.59291	4698.575
2677.22224	4687.675
2679.84993	4696.375
2682.476	4693.175
2685.10043	4702.075
2687.72324	4687.475
2690.34441	4682.275
2692.96396	4681.775
2695.58188	4681.675
2698.19818	4676.575
2700.81285	4681.575
2703.4259	4690.675
2706.03733	4690.175
2708.64714	4674.775
2711.25533	4688.975
2713.86191	4676.475
2716.46687	4689.275
2719.07021	4689.775
2721.67194	4700.475
2724.27206	4688.175
2726.87057	4685.475
2729.46747	4683.075
2732.06276	4684.175
2734.65644	4683.075
2737.24852	4679.775
2739.83899	4672.175
2742.42786	4673.375
2745.01513	4636.775
2747.60079	4641.975
2750.18486	4632.475
2752.76733	4627.075
2755.3482	4622.175
2757.92747	4608.775
2760.50515	4622.875
2763.08123	4597.675
2765.65573	4586.875
2768.22863	4585.075
2770.79994	4591.175
2773.36967	4592.375
2775.9378	4585.375
2778.50435	4568.275
2781.06932	4593.075
2783.6327	4559.575
2786.1945	4577.675
2788.75471	4564.975
2791.31335	4547.975
2793.87041	4549.775
2796.42589	4551.475
2798.97979	4560.875
2801.53212	4531.175
2804.08288	4538.275
2806.63206	4534.375
2809.17967	4520.375
2811.72571	4504.275
2814.27018	4512.775
2816.81308	4502.075
2819.35442	4511.075
2821.89419	4511.075
2824.43239	4510.875
2826.96904	4515.375
2829.50412	4532.875
2832.03763	4521.575
2834.56959	4520.275
2837.1	4507.275
2839.62884	4530.975
2842.15613	4531.675
2844.68186	4567.975
2847.20604	4601.575
2849.72867	4629.275
2852.24974	4639.975
2854.76927	4630.475
2857.28724	4613.175
2859.80367	4608.175
2862.31855	4589.175
2864.83189	4582.275
2867.34368	4570.975
2869.85393	4564.075
2872.36264	4558.875
2874.8698	4579.975
2877.37543	4561.475
2879.87952	4547.175
2882.38207	4554.575
2884.88308	4539.075
2887.38256	4542.875
2889.88051	4528.975
2892.37692	4524.675
2894.8718	4540.375
2897.36515	4550.075
2899.85698	4546.475
2902.34727	4532.575
2904.83604	4540.875
2907.32328	4542.575
2909.809	4542.275
2912.29319	4542.075
2914.77587	4538.175
2917.25702	4538.675
2919.73665	4532.075
2922.21476	4533.875
2924.69136	4532.875
2927.16644	4523.875
2929.64	4528.875
2932.11205	4516.075
2934.58258	4485.475
2937.05161	4494.475
2939.51912	4473.075
2941.98513	4471.475
2944.44962	4438.675
2946.91261	4404.275
2949.37409	4413.075
2951.83407	4377.675
2954.29254	4380.075
2956.74951	4358.575
2959.20498	4366.075
2961.65895	4361.275
2964.11142	4343.075
2966.56239	4337.175
2969.01186	4345.275
2971.45984	4324.475
2973.90632	4313.775
2976.35131	4318.775
2978.7948	4306.675
2981.23681	4290.975
2983.67732	4280.675
2986.11635	4276.375
2988.55388	4256.375
2990.98993	4261.275
2993.4245	4237.275
2995.85758	4241.875
2998.28917	4214.275
3000.71928	4212.775
3003.14791	4214.175
3005.57506	4207.275
3008.00073	4194.475
3010.42493	4183.475
3012.84764	4183.675
3015.26888	4177.075
3017.68865	4149.975
3020.10694	4157.675
3022.52376	4145.775
3024.9391	4147.075
3027.35298	4144.875
3029.76539	4134.575
3032.17632	4143.975
3034.5858	4136.875
3036.9938	4138.475
3039.40034	4133.175
3041.80542	4107.975
3044.20903	4110.675
3046.61118	4108.975
3049.01187	4095.875
3051.4111	4088.075
3053.80888	4099.775
3056.20519	4085.275
3058.60005	4074.875
3060.99345	4058.275
3063.3854	4060.175
3065.7759	4045.875
3068.16494	4039.575
3070.55254	4030.975
3072.93868	4035.275
3075.32338	4014.775
3077.70662	4010.275
3080.08842	3992.175
3082.46878	3986.275
3084.84769	3984.175
3087.22515	3973.875
3089.60118	3979.975
3091.97576	3973.075
3094.3489	3967.975
3096.72061	3959.375
3099.09087	3959.575
3101.4597	3957.775
3103.82709	3963.075
3106.19305	3948.975
3108.55757	3963.175
3110.92066	3959.075
3113.28232	3963.575
3115.64255	3936.175
3118.00134	3940.875
3120.35871	3931.175
3122.71466	3932.575
3125.06917	3916.875
3127.42226	3931.275
3129.77393	3911.675
3132.12417	3911.975
3134.47299	3928.175
3136.82039	3919.175
3139.16636	3930.475
3141.51092	3937.475
3143.85406	3931.175
3146.19579	3923.775
3148.53609	3945.275
3150.87499	3939.575
3153.21246	3940.075
3155.54853	3941.575
3157.88318	3954.675
3160.21642	3949.575
3162.54826	3946.375
3164.87868	3966.475
3167.2077	3970.675
3169.5353	3979.675
3171.86151	3980.075
3174.18631	3975.175
3176.5097	3955.775
3178.83169	3962.475
3181.15228	3971.675
3183.47147	3960.675
3185.78926	3972.375
3188.10565	3955.975
3190.42065	3958.275
3192.73424	3946.175
3195.04645	3956.075
3197.35725	3946.875
3199.66667	3971.275
3201.97469	3969.475
3204.28132	3969.475
3206.58656	3976.075
3208.8904	3982.175
3211.19287	3971.075
3213.49394	3978.475
3215.79363	3987.475
