Data from AgNP_FTO_APTES_UA_10uM_CRN_2uM_R6G_10uM_NaF_0.1M_Addition_RamanShift__32__14-34-10-620.txt Node

Date: Thu Feb 10 14:34:10 GMT 2022
User: TCL
Spectrometer: QEP01345
Trigger mode: 4
Integration Time (sec): 7.000000E0
Scans to average: 10
Electric dark correction enabled: true
Nonlinearity correction enabled: false
Boxcar width: 0
XAxis mode: Raman Shifts
Number of Pixels in Spectrum: 1044
>>>>>Begin Spectral Data<<<<<
46.04893	0.6125
50.45542	-0.8875
54.85868	-0.3875
59.25871	-0.8875
63.6555	42.6125
68.04907	46.4125
72.43941	46.2125
76.82654	48.4125
81.21044	50.0125
85.59113	52.1125
89.96862	55.3125
94.34289	58.8125
98.71396	59.4125
103.08183	64.5125
107.4465	63.6125
111.80798	61.7125
116.16626	65.6125
120.52136	70.0125
124.87327	68.4125
129.222	73.4125
133.56755	76.2125
137.90993	76.6125
142.24913	80.5125
146.58517	89.4125
150.91804	102.7125
155.24774	122.8125
159.57429	147.9125
163.89768	182.7125
168.21792	242.0125
172.53501	328.4125
176.84895	446.0125
181.15975	617.2125
185.46741	855.1125
189.77193	1177.9125
194.07331	1575.3125
198.37157	2029.0125
202.6667	2492.3125
206.9587	2964.1125
211.24758	3444.2125
215.53334	3971.8125
219.81599	4535.8125
224.09553	5193.2125
228.37195	5938.1125
232.64527	6714.3125
236.91549	7502.8125
241.18261	8177.8125
245.44663	8690.8125
249.70755	9058.6125
253.96539	9376.5125
258.22014	9642.2125
262.4718	9940.0125
266.72039	10197.2125
270.96589	10350.9125
275.20832	10362.7125
279.44768	10259.7125
283.68397	10155.6125
287.91719	10047.6125
292.14735	10161.4125
296.37445	10477.2125
300.59849	10980.1125
304.81948	11626.2125
309.03742	12033.3125
313.25231	11998.4125
317.46415	11264.5125
321.67296	10133.2125
325.87872	9211.2125
330.08145	8778.5125
334.28114	8720.3125
338.47781	8883.7125
342.67145	9229.9125
346.86207	9735.6125
351.04966	10526.4125
355.23424	11401.6125
359.4158	12031.5125
363.59435	12311.3125
367.76989	12333.8125
371.94243	12232.8125
376.11196	12092.9125
380.27849	11951.9125
384.44203	11714.8125
388.60257	11481.3125
392.76012	11362.6125
396.91468	11468.2125
401.06626	11843.3125
405.21485	12117.5125
409.36047	11760.4125
413.50311	10920.2125
417.64277	10150.6125
421.77947	9694.5125
425.9132	9488.8125
430.04396	9445.4125
434.17176	9469.9125
438.2966	9579.5125
442.41849	9854.4125
446.53742	10200.2125
450.6534	10526.9125
454.76644	10696.5125
458.87653	10698.2125
462.98368	10564.6125
467.08789	10352.0125
471.18916	10054.9125
475.2875	9745.4125
479.38291	9509.8125
483.4754	9307.8125
487.56496	9142.0125
491.6516	9026.6125
495.73531	8975.8125
499.81612	9059.9125
503.89401	9231.4125
507.96899	9393.9125
512.04106	9597.6125
516.11023	9827.6125
520.1765	9973.2125
524.23987	9915.1125
528.30034	9628.3125
532.35792	9339.6125
536.41261	9037.0125
540.46441	8733.0125
544.51333	8579.3125
548.55936	8667.9125
552.60252	8948.3125
556.64279	9331.8125
560.6802	9484.6125
564.71473	9686.3125
568.7464	10290.4125
572.7752	10678.4125
576.80114	10253.9125
580.82422	9753.4125
584.84444	9510.4125
588.86181	9381.3125
592.87633	9358.8125
596.888	9478.8125
600.89682	9993.1125
604.9028	11633.9125
608.90594	16130.2125
612.90624	22148.8125
616.90371	20962.2125
620.89834	13217.7125
624.89015	9718.5125
628.87913	9081.2125
632.86528	9177.9125
636.84862	9421.7125
640.82913	9208.5125
644.80683	8640.7125
648.78172	8263.4125
652.75379	8345.2125
656.72306	8889.1125
660.68952	9570.0125
664.65319	9376.1125
668.61405	8702.1125
672.57211	8322.7125
676.52738	8295.3125
680.47986	8286.4125
684.42955	8156.8125
688.37646	8119.2125
692.32058	8164.6125
696.26192	8271.5125
700.20048	8448.3125
704.13626	8580.7125
708.06928	8583.6125
711.99952	8485.6125
715.927	8435.3125
719.85171	8418.8125
723.77365	8414.0125
727.69284	8311.2125
731.60928	8202.1125
735.52295	8179.5125
739.43388	8209.1125
743.34206	8256.6125
747.24749	8305.0125
751.15017	8414.3125
755.05012	8672.0125
758.94733	9279.6125
762.8418	10710.6125
766.73354	13278.7125
770.62254	15934.4125
774.50882	17252.3125
778.39237	16276.4125
782.27321	13517.4125
786.15132	10853.4125
790.02671	9374.7125
793.89938	8707.2125
797.76935	8415.4125
801.6366	8291.2125
805.50115	8183.5125
809.36299	8118.5125
813.22213	8071.4125
817.07857	8039.0125
820.93231	8032.4125
824.78336	8078.7125
828.63172	8137.2125
832.47738	8173.3125
836.32036	8128.5125
840.16066	8052.1125
843.99827	7977.5125
847.8332	7941.9125
851.66546	7936.6125
855.49504	7944.9125
859.32195	7910.0125
863.1462	7857.7125
866.96777	7798.7125
870.78668	7797.1125
874.60293	7807.8125
878.41652	7863.6125
882.22745	7920.5125
886.03573	7958.6125
889.84136	7922.4125
893.64433	7876.1125
897.44466	7868.5125
901.24235	7851.2125
905.0374	7861.0125
908.8298	7801.9125
912.61957	7790.3125
916.40671	7852.0125
920.19121	7933.5125
923.97308	8001.8125
927.75233	8177.1125
931.52895	8273.8125
935.30295	8141.6125
939.07433	7805.4125
942.84309	7523.4125
946.60924	7348.0125
950.37278	7252.4125
954.13371	7220.8125
957.89203	7201.5125
961.64774	7154.5125
965.40086	7149.6125
969.15137	7127.9125
972.89929	7091.1125
976.64461	7093.5125
980.38733	7103.8125
984.12747	7085.6125
987.86502	7144.1125
991.59999	7198.8125
995.33237	7290.8125
999.06217	7466.5125
1002.78939	7695.9125
1006.51404	7950.1125
1010.23611	8203.1125
1013.95561	8380.5125
1017.67255	8325.7125
1021.38692	8166.6125
1025.09872	7998.0125
1028.80796	7900.0125
1032.51465	7904.3125
1036.21877	8024.5125
1039.92035	8139.7125
1043.61937	8155.3125
1047.31584	8155.5125
1051.00976	8111.6125
1054.70114	8063.2125
1058.38998	8052.1125
1062.07627	8106.2125
1065.76003	8172.3125
1069.44126	8240.6125
1073.11995	8380.0125
1076.79611	8543.9125
1080.46974	8732.1125
1084.14085	9048.9125
1087.80943	9424.8125
1091.47549	9554.6125
1095.13903	9317.1125
1098.80005	8845.9125
1102.45857	8473.2125
1106.11456	8322.1125
1109.76805	8391.3125
1113.41903	8651.0125
1117.06751	9050.4125
1120.71348	9583.0125
1124.35696	10188.5125
1127.99793	10683.9125
1131.63641	10595.4125
1135.2724	9930.9125
1138.90589	9276.1125
1142.5369	8886.8125
1146.16542	8630.7125
1149.79145	8503.7125
1153.415	8490.7125
1157.03607	8619.6125
1160.65467	8894.8125
1164.27079	9319.8125
1167.88443	9991.9125
1171.49561	11128.7125
1175.10432	13023.1125
1178.71056	15518.4125
1182.31434	17246.2125
1185.91565	17475.3125
1189.51451	16770.6125
1193.11091	15360.1125
1196.70485	13766.2125
1200.29634	12630.2125
1203.88538	11837.5125
1207.47197	10884.3125
1211.05612	10064.2125
1214.63782	9644.0125
1218.21708	9495.1125
1221.79391	9514.2125
1225.36829	9590.2125
1228.94024	9676.2125
1232.50976	9724.9125
1236.07685	9731.7125
1239.6415	9800.8125
1243.20374	9822.9125
1246.76355	9875.2125
1250.32093	10037.7125
1253.8759	10290.3125
1257.42845	10702.2125
1260.97859	11152.8125
1264.52631	11642.6125
1268.07163	12068.8125
1271.61453	12500.7125
1275.15503	12774.9125
1278.69312	12837.0125
1282.22882	12873.3125
1285.76211	13183.7125
1289.29301	13687.8125
1292.82151	14226.7125
1296.34761	14733.8125
1299.87133	15629.8125
1303.39266	17147.0125
1306.9116	19632.5125
1310.42815	22549.9125
1313.94233	24327.7125
1317.45412	23866.3125
1320.96354	21954.3125
1324.47058	19706.3125
1327.97525	17806.7125
1331.47754	16619.0125
1334.97747	16159.6125
1338.47502	16194.9125
1341.97022	16538.0125
1345.46305	17307.3125
1348.95352	18573.9125
1352.44163	20377.0125
1355.92738	22934.0125
1359.41078	27031.0125
1362.89183	31006.7125
1366.37053	30047.7125
1369.84688	24744.1125
1373.32088	19491.3125
1376.79254	16230.7125
1380.26186	14607.0125
1383.72883	13854.2125
1387.19347	13255.2125
1390.65578	12588.7125
1394.11575	12052.9125
1397.57339	11833.4125
1401.0287	11795.4125
1404.48168	11938.8125
1407.93234	12162.0125
1411.38068	12274.9125
1414.82669	12289.0125
1418.27039	12092.4125
1421.71177	11795.2125
1425.15083	11500.5125
1428.58758	11265.1125
1432.02203	11274.3125
1435.45416	11395.7125
1438.88399	11483.3125
1442.31151	11484.0125
1445.73673	11576.4125
1449.15965	11672.6125
1452.58027	11656.8125
1455.9986	11569.4125
1459.41463	11540.5125
1462.82837	11684.6125
1466.23982	11955.4125
1469.64898	12272.7125
1473.05586	12474.8125
1476.46045	12663.0125
1479.86276	12931.3125
1483.26279	13316.5125
1486.66054	13791.0125
1490.05602	14374.3125
1493.44922	15256.5125
1496.84016	16601.4125
1500.22882	18722.1125
1503.61521	21620.9125
1506.99934	24890.7125
1510.38121	28013.2125
1513.76081	29545.7125
1517.13816	28076.4125
1520.51324	24162.6125
1523.88607	20034.0125
1527.25665	17233.2125
1530.62498	15561.5125
1533.99105	14575.5125
1537.35488	13930.3125
1540.71647	13509.1125
1544.07581	13293.4125
1547.4329	13171.7125
1550.78776	13129.3125
1554.14038	13134.3125
1557.49077	13296.2125
1560.83892	13691.1125
1564.18484	14225.6125
1567.52853	14785.7125
1570.86999	15249.5125
1574.20922	15558.4125
1577.54624	15417.1125
1580.88103	14384.7125
1584.2136	13127.7125
1587.54395	12456.8125
1590.87208	12576.0125
1594.19801	13427.3125
1597.52172	14572.1125
1600.84321	15010.7125
1604.16251	14346.7125
1607.47959	13267.5125
1610.79447	12103.2125
1614.10715	10984.0125
1617.41763	10084.9125
1620.7259	9542.5125
1624.03199	9312.9125
1627.33587	9317.2125
1630.63757	9614.6125
1633.93707	10202.7125
1637.23439	11151.9125
1640.52951	12541.0125
1643.82246	14479.6125
1647.11321	16910.0125
1650.40179	18874.9125
1653.68819	18573.9125
1656.97241	15777.5125
1660.25446	12535.3125
1663.53433	10230.2125
1666.81203	8922.3125
1670.08756	8141.9125
1673.36092	7691.2125
1676.63211	7409.0125
1679.90115	7223.5125
1683.16801	7066.1125
1686.43272	6976.6125
1689.69527	6888.8125
1692.95567	6853.0125
1696.2139	6837.7125
1699.46999	6825.4125
1702.72392	6815.3125
1705.97571	6770.0125
1709.22535	6758.9125
1712.47284	6761.0125
1715.71819	6778.2125
1718.96139	6775.6125
1722.20246	6761.0125
1725.44139	6698.7125
1728.67818	6634.5125
1731.91284	6560.0125
1735.14537	6509.3125
1738.37576	6442.7125
1741.60403	6409.1125
1744.83017	6374.1125
1748.05418	6370.5125
1751.27607	6348.1125
1754.49584	6339.6125
1757.71349	6332.1125
1760.92903	6330.1125
1764.14244	6307.5125
1767.35375	6286.3125
1770.56294	6258.9125
1773.77002	6266.4125
1776.97499	6201.7125
1780.17785	6181.0125
1783.37861	6150.1125
1786.57727	6136.2125
1789.77382	6102.6125
1792.96828	6107.1125
1796.16064	6093.9125
1799.3509	6080.3125
1802.53907	6078.3125
1805.72514	6056.5125
1808.90913	6034.6125
1812.09102	6011.6125
1815.27083	5997.8125
1818.44856	5970.6125
1821.6242	5955.9125
1824.79776	5940.1125
1827.96924	5942.3125
1831.13864	5927.2125
1834.30597	5930.8125
1837.47122	5895.8125
1840.6344	5906.9125
1843.7955	5915.0125
1846.95454	5903.8125
1850.11151	5895.5125
1853.26642	5911.5125
1856.41926	5888.4125
1859.57004	5915.4125
1862.71876	5911.2125
1865.86542	5911.7125
1869.01003	5910.6125
1872.15258	5913.8125
1875.29308	5907.0125
1878.43152	5926.0125
1881.56792	5925.1125
1884.70227	5936.2125
1887.83457	5960.0125
1890.96482	5946.4125
1894.09304	5936.8125
1897.21921	5907.8125
1900.34335	5925.2125
1903.46544	5932.7125
1906.58551	5937.9125
1909.70353	5941.7125
1912.81953	5923.4125
1915.93349	5932.9125
1919.04543	5928.2125
1922.15534	5908.2125
1925.26322	5886.5125
1928.36908	5889.1125
1931.47292	5849.5125
1934.57473	5815.6125
1937.67453	5784.3125
1940.77232	5772.6125
1943.86808	5727.8125
1946.96184	5676.9125
1950.05358	5656.3125
1953.14331	5622.8125
1956.23103	5608.8125
1959.31675	5602.3125
1962.40046	5591.6125
1965.48217	5552.0125
1968.56188	5542.0125
1971.63959	5505.4125
1974.7153	5517.6125
1977.78901	5491.8125
1980.86073	5488.6125
1983.93046	5460.7125
1986.99819	5420.4125
1990.06394	5397.9125
1993.1277	5385.4125
1996.18947	5377.0125
1999.24925	5337.9125
2002.30706	5324.2125
2005.36288	5300.0125
2008.41672	5304.1125
2011.46859	5267.3125
2014.51848	5273.8125
2017.56639	5252.9125
2020.61233	5221.8125
2023.6563	5214.9125
2026.6983	5205.6125
2029.73833	5173.0125
2032.7764	5165.4125
2035.8125	5162.5125
2038.84664	5140.6125
2041.87881	5116.5125
2044.90903	5113.9125
2047.93729	5105.9125
2050.96359	5100.4125
2053.98794	5101.6125
2057.01034	5091.1125
2060.03078	5080.2125
2063.04927	5065.5125
2066.06582	5066.8125
2069.08042	5053.0125
2072.09307	5041.7125
2075.10378	5032.5125
2078.11255	5028.7125
2081.11938	5028.8125
2084.12426	5014.5125
2087.12722	5036.3125
2090.12824	5030.3125
2093.12732	5014.7125
2096.12447	5019.1125
2099.11969	5000.5125
2102.11299	5008.3125
2105.10435	5025.1125
2108.09379	5018.5125
2111.08131	5021.7125
2114.0669	5017.0125
2117.05057	5013.0125
2120.03233	5027.9125
2123.01216	5029.1125
2125.99008	5018.3125
2128.96609	5032.8125
2131.94018	5032.1125
2134.91236	5036.5125
2137.88263	5035.3125
2140.851	5039.2125
2143.81746	5033.8125
2146.78201	5027.4125
2149.74466	5002.7125
2152.7054	5010.2125
2155.66425	5000.8125
2158.6212	5001.0125
2161.57625	4997.2125
2164.52941	4993.0125
2167.48067	5001.2125
2170.43004	4999.8125
2173.37752	4979.0125
2176.32311	4969.1125
2179.26681	4970.5125
2182.20863	4975.2125
2185.14856	4984.6125
2188.08661	4974.6125
2191.02278	4979.9125
2193.95707	4970.3125
2196.88948	4976.1125
2199.82001	4958.5125
2202.74867	4946.7125
2205.67545	4940.8125
2208.60037	4922.3125
2211.52341	4923.6125
2214.44458	4934.9125
2217.36388	4902.8125
2220.28132	4908.0125
2223.1969	4874.6125
2226.11061	4883.5125
2229.02246	4861.7125
2231.93245	4846.0125
2234.84058	4830.9125
2237.74686	4821.8125
2240.65128	4831.7125
2243.55385	4825.5125
2246.45456	4806.4125
2249.35343	4813.2125
2252.25044	4819.5125
2255.14561	4813.9125
2258.03893	4826.0125
2260.93041	4809.2125
2263.82004	4802.0125
2266.70783	4780.2125
2269.59378	4780.5125
2272.4779	4751.3125
2275.36017	4728.9125
2278.24061	4725.5125
2281.11922	4704.2125
2283.996	4701.1125
2286.87094	4699.2125
2289.74405	4695.4125
2292.61534	4673.0125
2295.4848	4667.6125
2298.35243	4662.0125
2301.21824	4667.0125
2304.08223	4646.2125
2306.94439	4646.8125
2309.80474	4651.3125
2312.66327	4667.4125
2315.51999	4650.7125
2318.37489	4647.7125
2321.22797	4632.2125
2324.07925	4630.2125
2326.92871	4628.5125
2329.77637	4621.6125
2332.62222	4610.4125
2335.46626	4616.2125
2338.3085	4600.7125
2341.14893	4624.1125
2343.98756	4622.9125
2346.8244	4616.7125
2349.65943	4636.6125
2352.49267	4644.3125
2355.32411	4645.6125
2358.15376	4651.6125
2360.98161	4659.1125
2363.80768	4685.5125
2366.63195	4685.4125
2369.45444	4685.5125
2372.27514	4675.1125
2375.09405	4669.6125
2377.91118	4640.0125
2380.72652	4624.1125
2383.54009	4598.1125
2386.35187	4572.2125
2389.16188	4528.3125
2391.97011	4523.5125
2394.77657	4502.6125
2397.58125	4487.0125
2400.38416	4477.0125
2403.18529	4457.8125
2405.98466	4461.2125
2408.78226	4454.1125
2411.57809	4434.4125
2414.37216	4433.0125
2417.16446	4436.4125
2419.955	4406.8125
2422.74378	4426.4125
2425.5308	4411.4125
2428.31606	4415.7125
2431.09956	4432.1125
2433.88131	4405.0125
2436.6613	4434.2125
2439.43954	4416.1125
2442.21603	4433.5125
2444.99077	4431.3125
2447.76377	4421.3125
2450.53501	4422.7125
2453.30451	4422.2125
2456.07226	4421.2125
2458.83827	4424.8125
2461.60254	4429.7125
2464.36507	4416.9125
2467.12586	4399.6125
2469.88492	4410.9125
2472.64224	4421.0125
2475.39782	4423.8125
2478.15167	4428.4125
2480.90379	4436.4125
2483.65417	4471.6125
2486.40283	4477.1125
2489.14976	4489.5125
2491.89497	4487.4125
2494.63845	4504.6125
2497.3802	4495.3125
2500.12024	4479.4125
2502.85855	4461.4125
2505.59514	4452.3125
2508.33002	4423.6125
2511.06318	4400.5125
2513.79462	4383.2125
2516.52435	4371.6125
2519.25237	4336.4125
2521.97867	4328.7125
2524.70327	4314.1125
2527.42616	4302.9125
2530.14734	4301.9125
2532.86681	4280.3125
2535.58458	4289.2125
2538.30065	4294.0125
2541.01501	4289.4125
2543.72768	4297.1125
2546.43864	4292.3125
2549.14791	4301.9125
2551.85548	4304.0125
2554.56136	4308.3125
2557.26554	4280.0125
2559.96803	4276.6125
2562.66883	4272.3125
2565.36794	4264.8125
2568.06536	4257.8125
2570.7611	4251.8125
2573.45514	4245.4125
2576.14751	4236.1125
2578.83819	4223.2125
2581.52719	4223.8125
2584.21451	4223.9125
2586.90015	4199.2125
2589.58411	4203.4125
2592.2664	4200.5125
2594.94701	4190.3125
2597.62594	4201.6125
2600.30321	4188.3125
2602.9788	4193.5125
2605.65273	4185.0125
2608.32498	4202.8125
2610.99557	4197.7125
2613.66449	4191.9125
2616.33175	4194.9125
2618.99734	4203.0125
2621.66128	4204.2125
2624.32355	4178.1125
2626.98416	4196.8125
2629.64311	4170.0125
2632.30041	4162.3125
2634.95605	4166.9125
2637.61004	4144.0125
2640.26238	4133.0125
2642.91306	4134.5125
2645.56209	4135.4125
2648.20948	4111.4125
2650.85521	4113.2125
2653.4993	4114.1125
2656.14175	4126.1125
2658.78255	4115.3125
2661.42171	4139.1125
2664.05923	4131.6125
2666.6951	4145.6125
2669.32934	4157.3125
2671.96194	4172.3125
2674.59291	4167.9125
2677.22224	4169.0125
2679.84993	4163.7125
2682.476	4170.5125
2685.10043	4170.6125
2687.72324	4167.9125
2690.34441	4180.7125
2692.96396	4173.7125
2695.58188	4161.5125
2698.19818	4173.6125
2700.81285	4167.4125
2703.4259	4168.9125
2706.03733	4178.1125
2708.64714	4146.0125
2711.25533	4182.2125
2713.86191	4167.1125
2716.46687	4179.4125
2719.07021	4184.7125
2721.67194	4183.9125
2724.27206	4185.8125
2726.87057	4189.4125
2729.46747	4174.9125
2732.06276	4179.0125
2734.65644	4166.9125
2737.24852	4170.9125
2739.83899	4161.7125
2742.42786	4157.8125
2745.01513	4147.4125
2747.60079	4128.2125
2750.18486	4118.3125
2752.76733	4133.6125
2755.3482	4117.3125
2757.92747	4103.3125
2760.50515	4114.3125
2763.08123	4110.9125
2765.65573	4089.9125
2768.22863	4102.7125
2770.79994	4081.7125
2773.36967	4074.6125
2775.9378	4082.9125
2778.50435	4082.1125
2781.06932	4084.1125
2783.6327	4069.4125
2786.1945	4082.4125
2788.75471	4087.8125
2791.31335	4077.2125
2793.87041	4072.8125
2796.42589	4061.6125
2798.97979	4071.5125
2801.53212	4058.3125
2804.08288	4066.4125
2806.63206	4058.1125
2809.17967	4053.5125
2811.72571	4059.9125
2814.27018	4072.7125
2816.81308	4076.9125
2819.35442	4053.9125
2821.89419	4073.3125
2824.43239	4086.2125
2826.96904	4091.7125
2829.50412	4099.4125
2832.03763	4074.3125
2834.56959	4084.8125
2837.1	4098.5125
2839.62884	4106.7125
2842.15613	4128.5125
2844.68186	4154.6125
2847.20604	4185.0125
2849.72867	4214.0125
2852.24974	4238.6125
2854.76927	4224.5125
2857.28724	4200.4125
2859.80367	4199.8125
2862.31855	4190.6125
2864.83189	4184.6125
2867.34368	4192.0125
2869.85393	4185.1125
2872.36264	4196.6125
2874.8698	4194.5125
2877.37543	4185.1125
2879.87952	4181.6125
2882.38207	4166.2125
2884.88308	4166.5125
2887.38256	4172.3125
2889.88051	4163.3125
2892.37692	4140.1125
2894.8718	4151.1125
2897.36515	4160.6125
2899.85698	4157.1125
2902.34727	4162.9125
2904.83604	4155.7125
2907.32328	4177.1125
2909.809	4179.1125
2912.29319	4159.2125
2914.77587	4165.0125
2917.25702	4158.9125
2919.73665	4160.8125
2922.21476	4161.4125
2924.69136	4157.3125
2927.16644	4152.6125
2929.64	4141.5125
2932.11205	4118.1125
2934.58258	4100.9125
2937.05161	4107.5125
2939.51912	4083.7125
2941.98513	4065.1125
2944.44962	4034.3125
2946.91261	4016.1125
2949.37409	4001.3125
2951.83407	3996.2125
2954.29254	3962.8125
2956.74951	3959.9125
2959.20498	3960.8125
2961.65895	3943.9125
2964.11142	3954.2125
2966.56239	3930.7125
2969.01186	3922.5125
2971.45984	3925.4125
2973.90632	3912.0125
2976.35131	3892.1125
2978.7948	3870.7125
2981.23681	3873.7125
2983.67732	3874.1125
2986.11635	3853.2125
2988.55388	3846.1125
2990.98993	3839.1125
2993.4245	3821.4125
2995.85758	3805.3125
2998.28917	3788.1125
3000.71928	3796.2125
3003.14791	3791.1125
3005.57506	3784.3125
3008.00073	3784.9125
3010.42493	3664.0125
3012.84764	3772.1125
3015.26888	3752.5125
3017.68865	3744.0125
3020.10694	3748.3125
3022.52376	3731.9125
3024.9391	3705.8125
3027.35298	3738.3125
3029.76539	3706.9125
3032.17632	3723.5125
3034.5858	3715.9125
3036.9938	3690.7125
3039.40034	3708.8125
3041.80542	3705.6125
3044.20903	3686.9125
3046.61118	3688.9125
3049.01187	3654.3125
3051.4111	3673.9125
3053.80888	3660.1125
3056.20519	3652.2125
3058.60005	3647.9125
3060.99345	3642.1125
3063.3854	3629.4125
3065.7759	3610.5125
3068.16494	3609.4125
3070.55254	3591.0125
3072.93868	3601.2125
3075.32338	3580.5125
3077.70662	3562.0125
3080.08842	3561.5125
3082.46878	3548.1125
3084.84769	3537.9125
3087.22515	3524.0125
3089.60118	3535.2125
3091.97576	3520.8125
3094.3489	3525.1125
3096.72061	3526.1125
3099.09087	3541.3125
3101.4597	3517.6125
3103.82709	3519.4125
