Data from AgNP_FTO_APTES_UA_10uM_CRN_500uM_R6G_10uM_NaF_0.1M_Addition_RamanShift__7__18-48-30-935.txt Node

Date: Thu Feb 10 18:48:30 GMT 2022
User: TCL
Spectrometer: QEP01345
Trigger mode: 4
Integration Time (sec): 7.000000E0
Scans to average: 10
Electric dark correction enabled: true
Nonlinearity correction enabled: false
Boxcar width: 0
XAxis mode: Raman Shifts
Number of Pixels in Spectrum: 1044
>>>>>Begin Spectral Data<<<<<
46.04893	-0.2625
50.45542	-1.0625
54.85868	-1.6625
59.25871	-0.8625
63.6555	55.3375
68.04907	58.4375
72.43941	62.5375
76.82654	60.5375
81.21044	67.9375
85.59113	67.2375
89.96862	71.1375
94.34289	73.9375
98.71396	77.0375
103.08183	78.7375
107.4465	82.5375
111.80798	81.6375
116.16626	86.6375
120.52136	90.3375
124.87327	92.3375
129.222	97.1375
133.56755	99.2375
137.90993	103.4375
142.24913	115.6375
146.58517	130.2375
150.91804	147.4375
155.24774	175.1375
159.57429	217.3375
163.89768	274.7375
168.21792	366.2375
172.53501	499.0375
176.84895	694.2375
181.15975	968.6375
185.46741	1361.1375
189.77193	1898.9375
194.07331	2533.8375
198.37157	3273.3375
202.6667	4046.2375
206.9587	4809.8375
211.24758	5566.3375
215.53334	6329.9375
219.81599	7107.4375
224.09553	7948.2375
228.37195	8882.9375
232.64527	9939.6375
236.91549	11018.4375
241.18261	12164.4375
245.44663	13226.4375
249.70755	14229.1375
253.96539	15102.0375
258.22014	15846.6375
262.4718	16469.7375
266.72039	16876.2375
270.96589	17151.8375
275.20832	17190.7375
279.44768	17116.6375
283.68397	16965.4375
287.91719	16845.1375
292.14735	16727.0375
296.37445	16698.3375
300.59849	16719.4375
304.81948	16724.1375
309.03742	16625.0375
313.25231	16494.3375
317.46415	16255.7375
321.67296	15967.5375
325.87872	15762.5375
330.08145	15620.4375
334.28114	15622.1375
338.47781	15717.0375
342.67145	15861.5375
346.86207	16102.8375
351.04966	16325.6375
355.23424	16532.0375
359.4158	16767.5375
363.59435	16941.8375
367.76989	17102.1375
371.94243	17209.9375
376.11196	17299.4375
380.27849	17422.8375
384.44203	17521.8375
388.60257	17656.0375
392.76012	17803.7375
396.91468	17998.4375
401.06626	18203.0375
405.21485	18322.5375
409.36047	18320.3375
413.50311	18171.5375
417.64277	18097.3375
421.77947	18118.2375
425.9132	18199.9375
430.04396	18321.6375
434.17176	18427.9375
438.2966	18530.6375
442.41849	18767.7375
446.53742	19099.1375
450.6534	19496.9375
454.76644	19755.8375
458.87653	19897.2375
462.98368	19883.7375
467.08789	19812.9375
471.18916	19720.2375
475.2875	19603.0375
479.38291	19552.9375
483.4754	19463.5375
487.56496	19286.5375
491.6516	19039.2375
495.73531	18815.9375
499.81612	18664.4375
503.89401	18656.3375
507.96899	18719.9375
512.04106	18738.5375
516.11023	18709.5375
520.1765	18594.1375
524.23987	18475.1375
528.30034	18363.4375
532.35792	18252.6375
536.41261	18142.3375
540.46441	18083.0375
544.51333	18072.3375
548.55936	18235.3375
552.60252	18515.7375
556.64279	18874.2375
560.6802	19107.7375
564.71473	19264.4375
568.7464	19479.8375
572.7752	19864.6375
576.80114	20263.3375
580.82422	20585.3375
584.84444	20943.0375
588.86181	21453.2375
592.87633	21848.6375
596.888	21759.0375
600.89682	21144.8375
604.9028	20921.9375
608.90594	21679.6375
612.90624	22618.6375
616.90371	21735.4375
620.89834	19496.7375
624.89015	18453.2375
628.87913	18348.7375
632.86528	18417.3375
636.84862	18537.3375
640.82913	18400.8375
644.80683	18134.3375
648.78172	18007.3375
652.75379	17976.0375
656.72306	18090.9375
660.68952	18232.9375
664.65319	18155.2375
668.61405	17967.6375
672.57211	17923.0375
676.52738	18007.8375
680.47986	18029.5375
684.42955	17975.3375
688.37646	17905.1375
692.32058	17957.9375
696.26192	18093.7375
700.20048	18243.5375
704.13626	18373.0375
708.06928	18442.7375
711.99952	18444.5375
715.927	18375.5375
719.85171	18371.9375
723.77365	18322.7375
727.69284	18180.3375
731.60928	18014.7375
735.52295	17976.9375
739.43388	17976.4375
743.34206	18009.3375
747.24749	18046.2375
751.15017	18117.3375
755.05012	18342.7375
758.94733	18700.3375
762.8418	19243.1375
766.73354	20106.3375
770.62254	20872.8375
774.50882	21085.2375
778.39237	20502.2375
782.27321	19523.4375
786.15132	18714.5375
790.02671	18256.8375
793.89938	18003.0375
797.76935	17886.2375
801.6366	17840.0375
805.50115	17827.7375
809.36299	17768.2375
813.22213	17721.4375
817.07857	17678.2375
820.93231	17694.2375
824.78336	17621.0375
828.63172	17575.6375
832.47738	17566.0375
836.32036	17498.3375
840.16066	17517.4375
843.99827	17503.0375
847.8332	17466.5375
851.66546	17509.8375
855.49504	17521.4375
859.32195	17563.7375
863.1462	17526.6375
866.96777	17515.2375
870.78668	17468.7375
874.60293	17488.2375
878.41652	17514.0375
882.22745	17540.8375
886.03573	17569.0375
889.84136	17535.4375
893.64433	17520.3375
897.44466	17520.5375
901.24235	17445.9375
905.0374	17429.8375
908.8298	17359.0375
912.61957	17334.9375
916.40671	17435.6375
920.19121	17607.8375
923.97308	17672.7375
927.75233	17665.0375
931.52895	17509.6375
935.30295	17356.9375
939.07433	17153.9375
942.84309	16998.2375
946.60924	16920.2375
950.37278	16877.4375
954.13371	16890.7375
957.89203	16837.4375
961.64774	16818.7375
965.40086	16786.7375
969.15137	16797.9375
972.89929	16699.0375
976.64461	16637.0375
980.38733	16606.7375
984.12747	16627.8375
987.86502	16630.9375
991.59999	16706.3375
995.33237	16745.4375
999.06217	16870.6375
1002.78939	17052.0375
1006.51404	17205.0375
1010.23611	17400.5375
1013.95561	17556.5375
1017.67255	17616.1375
1021.38692	17568.0375
1025.09872	17401.3375
1028.80796	17247.3375
1032.51465	17124.2375
1036.21877	17128.6375
1039.92035	17175.2375
1043.61937	17210.8375
1047.31584	17254.1375
1051.00976	17303.4375
1054.70114	17349.6375
1058.38998	17431.1375
1062.07627	17546.7375
1065.76003	17659.7375
1069.44126	17755.6375
1073.11995	17913.6375
1076.79611	18056.2375
1080.46974	18070.6375
1084.14085	18137.2375
1087.80943	18284.9375
1091.47549	18386.5375
1095.13903	18421.8375
1098.80005	18313.9375
1102.45857	18070.4375
1106.11456	17900.9375
1109.76805	17745.6375
1113.41903	17723.1375
1117.06751	17807.4375
1120.71348	17945.1375
1124.35696	18102.3375
1127.99793	18252.7375
1131.63641	18376.9375
1135.2724	18292.4375
1138.90589	18198.2375
1142.5369	18192.2375
1146.16542	18304.9375
1149.79145	18415.7375
1153.415	18533.3375
1157.03607	18685.5375
1160.65467	19035.3375
1164.27079	19639.9375
1167.88443	20340.8375
1171.49561	21100.8375
1175.10432	22003.0375
1178.71056	23170.6375
1182.31434	24252.4375
1185.91565	24873.7375
1189.51451	24891.8375
1193.11091	24517.8375
1196.70485	23966.0375
1200.29634	23301.6375
1203.88538	22843.7375
1207.47197	22522.0375
1211.05612	22252.0375
1214.63782	21908.9375
1218.21708	21433.6375
1221.79391	20983.6375
1225.36829	20615.3375
1228.94024	20440.2375
1232.50976	20228.1375
1236.07685	20061.4375
1239.6415	20021.3375
1243.20374	20021.4375
1246.76355	20073.8375
1250.32093	20263.8375
1253.8759	20499.5375
1257.42845	20872.4375
1260.97859	21273.8375
1264.52631	21679.2375
1268.07163	22068.5375
1271.61453	22432.4375
1275.15503	22769.6375
1278.69312	23234.4375
1282.22882	23732.8375
1285.76211	24336.0375
1289.29301	25040.7375
1292.82151	26034.2375
1296.34761	27215.2375
1299.87133	28466.3375
1303.39266	29722.4375
1306.9116	30744.2375
1310.42815	31562.7375
1313.94233	32074.0375
1317.45412	31981.8375
1320.96354	31591.5375
1324.47058	31190.2375
1327.97525	30887.9375
1331.47754	30654.2375
1334.97747	30394.4375
1338.47502	30233.7375
1341.97022	30057.1375
1345.46305	29810.5375
1348.95352	29708.3375
1352.44163	29709.8375
1355.92738	30029.5375
1359.41078	30703.3375
1362.89183	31202.3375
1366.37053	30684.4375
1369.84688	28755.6375
1373.32088	26416.2375
1376.79254	24817.8375
1380.26186	24254.9375
1383.72883	24349.1375
1387.19347	24413.8375
1390.65578	24344.9375
1394.11575	24321.5375
1397.57339	24484.5375
1401.0287	24732.1375
1404.48168	24863.8375
1407.93234	24721.4375
1411.38068	24189.0375
1414.82669	23465.8375
1418.27039	22645.3375
1421.71177	21867.9375
1425.15083	21249.5375
1428.58758	20933.9375
1432.02203	21026.9375
1435.45416	21418.9375
1438.88399	22002.5375
1442.31151	22271.4375
1445.73673	22522.7375
1449.15965	22761.2375
1452.58027	22840.6375
1455.9986	22902.0375
1459.41463	23001.4375
1462.82837	23168.4375
1466.23982	23434.4375
1469.64898	23638.0375
1473.05586	23760.9375
1476.46045	23743.4375
1479.86276	23559.8375
1483.26279	23325.2375
1486.66054	23239.5375
1490.05602	23313.1375
1493.44922	23496.8375
1496.84016	23747.8375
1500.22882	24203.7375
1503.61521	24831.4375
1506.99934	25541.1375
1510.38121	26117.4375
1513.76081	26295.9375
1517.13816	25908.6375
1520.51324	25299.2375
1523.88607	24849.0375
1527.25665	24725.5375
1530.62498	24695.9375
1533.99105	24669.7375
1537.35488	24438.7375
1540.71647	24035.2375
1544.07581	23542.4375
1547.4329	23053.2375
1550.78776	22603.3375
1554.14038	22199.4375
1557.49077	21971.0375
1560.83892	21916.8375
1564.18484	21853.2375
1567.52853	21981.5375
1570.86999	22178.0375
1574.20922	22552.8375
1577.54624	22899.8375
1580.88103	23069.0375
1584.2136	23231.3375
1587.54395	23581.7375
1590.87208	24206.0375
1594.19801	25119.3375
1597.52172	25868.1375
1600.84321	26046.0375
1604.16251	25309.5375
1607.47959	23935.5375
1610.79447	22426.3375
1614.10715	20991.7375
1617.41763	19808.6375
1620.7259	19002.1375
1624.03199	18538.7375
1627.33587	18513.1375
1630.63757	18853.4375
1633.93707	19665.2375
1637.23439	21076.0375
1640.52951	23138.1375
1643.82246	25571.5375
1647.11321	27554.7375
1650.40179	27877.8375
1653.68819	26261.5375
1656.97241	23483.6375
1660.25446	20796.1375
1663.53433	18775.6375
1666.81203	17436.5375
1670.08756	16609.1375
1673.36092	16096.0375
1676.63211	15731.5375
1679.90115	15482.3375
1683.16801	15289.9375
1686.43272	15159.0375
1689.69527	15037.2375
1692.95567	14931.9375
1696.2139	14879.4375
1699.46999	14861.7375
1702.72392	14827.7375
1705.97571	14759.0375
1709.22535	14737.0375
1712.47284	14677.0375
1715.71819	14674.1375
1718.96139	14651.6375
1722.20246	14581.3375
1725.44139	14561.7375
1728.67818	14477.0375
1731.91284	14385.5375
1735.14537	14319.3375
1738.37576	14270.5375
1741.60403	14207.4375
1744.83017	14212.4375
1748.05418	14174.7375
1751.27607	14149.7375
1754.49584	14132.2375
1757.71349	14134.3375
1760.92903	14122.3375
1764.14244	14104.5375
1767.35375	14121.6375
1770.56294	14066.4375
1773.77002	14019.2375
1776.97499	14013.7375
1780.17785	13957.3375
1783.37861	13950.4375
1786.57727	13901.3375
1789.77382	13854.4375
1792.96828	13851.9375
1796.16064	13808.2375
1799.3509	13788.6375
1802.53907	13754.6375
1805.72514	13739.1375
1808.90913	13680.6375
1812.09102	13663.6375
1815.27083	13643.0375
1818.44856	13580.1375
1821.6242	13574.4375
1824.79776	13529.8375
1827.96924	13545.7375
1831.13864	13497.0375
1834.30597	13521.2375
1837.47122	13522.2375
1840.6344	13480.5375
1843.7955	13508.2375
1846.95454	13450.6375
1850.11151	13454.1375
1853.26642	13423.6375
1856.41926	13408.6375
1859.57004	13424.9375
1862.71876	13370.5375
1865.86542	13386.9375
1869.01003	13342.5375
1872.15258	13331.4375
1875.29308	13295.8375
1878.43152	13302.3375
1881.56792	13277.8375
1884.70227	13238.2375
1887.83457	13255.5375
1890.96482	13234.3375
1894.09304	13163.0375
1897.21921	13174.4375
1900.34335	13170.0375
1903.46544	13122.8375
1906.58551	13143.7375
1909.70353	13104.4375
1912.81953	13071.6375
1915.93349	13075.4375
1919.04543	13061.7375
1922.15534	13016.4375
1925.26322	12966.5375
1928.36908	12951.4375
1931.47292	12914.0375
1934.57473	12897.4375
1937.67453	12862.0375
1940.77232	12826.8375
1943.86808	12795.0375
1946.96184	12755.7375
1950.05358	12744.1375
1953.14331	12708.3375
1956.23103	12671.2375
1959.31675	12601.5375
1962.40046	12589.9375
1965.48217	12544.2375
1968.56188	12522.2375
1971.63959	12443.4375
1974.7153	12445.9375
1977.78901	12386.2375
1980.86073	12350.5375
1983.93046	12294.3375
1986.99819	12262.2375
1990.06394	12248.3375
1993.1277	12211.9375
1996.18947	12143.9375
1999.24925	12129.9375
2002.30706	12063.2375
2005.36288	12047.0375
2008.41672	12009.9375
2011.46859	11950.1375
2014.51848	11964.3375
2017.56639	11932.0375
2020.61233	11878.0375
2023.6563	11841.1375
2026.6983	11798.5375
2029.73833	11792.4375
2032.7764	11762.6375
2035.8125	11732.3375
2038.84664	11694.1375
2041.87881	11652.7375
2044.90903	11623.5375
2047.93729	11592.6375
2050.96359	11575.0375
2053.98794	11566.0375
2057.01034	11564.2375
2060.03078	11541.8375
2063.04927	11522.5375
2066.06582	11547.3375
2069.08042	11523.1375
2072.09307	11536.3375
2075.10378	11528.0375
2078.11255	11520.2375
2081.11938	11500.3375
2084.12426	11492.2375
2087.12722	11473.3375
2090.12824	11469.3375
2093.12732	11442.4375
2096.12447	11437.2375
2099.11969	11421.2375
2102.11299	11446.8375
2105.10435	11429.7375
2108.09379	11443.0375
2111.08131	11464.3375
2114.0669	11441.1375
2117.05057	11441.9375
2120.03233	11438.3375
2123.01216	11463.6375
2125.99008	11431.5375
2128.96609	11482.6375
2131.94018	11488.1375
2134.91236	11495.9375
2137.88263	11476.9375
2140.851	11466.2375
2143.81746	11483.5375
2146.78201	11471.5375
2149.74466	11465.0375
2152.7054	11474.6375
2155.66425	11448.0375
2158.6212	11474.1375
2161.57625	11450.4375
2164.52941	11443.3375
2167.48067	11440.4375
2170.43004	11436.0375
2173.37752	11426.2375
2176.32311	11432.2375
2179.26681	11421.8375
2182.20863	11390.9375
2185.14856	11400.6375
2188.08661	11406.5375
2191.02278	11413.4375
2193.95707	11403.8375
2196.88948	11399.2375
2199.82001	11390.1375
2202.74867	11312.9375
2205.67545	11318.7375
2208.60037	11291.1375
2211.52341	11279.6375
2214.44458	11284.6375
2217.36388	11254.3375
2220.28132	11264.7375
2223.1969	11185.1375
2226.11061	11210.2375
2229.02246	11156.7375
2231.93245	11138.4375
2234.84058	11094.6375
2237.74686	11096.3375
2240.65128	11061.5375
2243.55385	11059.1375
2246.45456	11021.8375
2249.35343	10996.1375
2252.25044	11023.8375
2255.14561	10967.0375
2258.03893	10961.1375
2260.93041	10951.5375
2263.82004	10901.9375
2266.70783	10873.9375
2269.59378	10828.8375
2272.4779	10809.8375
2275.36017	10775.8375
2278.24061	10761.6375
2281.11922	10743.8375
2283.996	10753.2375
2286.87094	10719.0375
2289.74405	10702.5375
2292.61534	10703.2375
2295.4848	10698.7375
2298.35243	10677.8375
2301.21824	10665.2375
2304.08223	10647.1375
2306.94439	10633.5375
2309.80474	10610.8375
2312.66327	10599.6375
2315.51999	10588.9375
2318.37489	10595.4375
2321.22797	10575.4375
2324.07925	10546.6375
2326.92871	10512.3375
2329.77637	10523.8375
2332.62222	10483.6375
2335.46626	10462.8375
2338.3085	10462.5375
2341.14893	10442.4375
2343.98756	10451.0375
2346.8244	10405.3375
2349.65943	10413.7375
2352.49267	10406.3375
2355.32411	10389.9375
2358.15376	10382.9375
2360.98161	10403.1375
2363.80768	10392.4375
2366.63195	10383.2375
2369.45444	10340.4375
2372.27514	10322.1375
2375.09405	10338.4375
2377.91118	10322.1375
2380.72652	10278.2375
2383.54009	10256.8375
2386.35187	10206.7375
2389.16188	10187.9375
2391.97011	10184.2375
2394.77657	10174.2375
2397.58125	10133.8375
2400.38416	10125.1375
2403.18529	10117.6375
2405.98466	10112.3375
2408.78226	10091.1375
2411.57809	10074.0375
2414.37216	10064.8375
2417.16446	10050.1375
2419.955	10007.0375
2422.74378	10020.6375
2425.5308	9986.9375
2428.31606	10025.3375
2431.09956	9995.7375
2433.88131	9963.6375
2436.6613	9967.2375
2439.43954	9924.9375
2442.21603	9933.0375
2444.99077	9914.4375
2447.76377	9925.1375
2450.53501	9902.2375
2453.30451	9913.9375
2456.07226	9886.7375
2458.83827	9892.1375
2461.60254	9895.5375
2464.36507	9865.2375
2467.12586	9873.4375
2469.88492	9829.8375
2472.64224	9846.4375
2475.39782	9865.2375
2478.15167	9855.3375
2480.90379	9814.6375
2483.65417	9838.7375
2486.40283	9834.7375
2489.14976	9822.0375
2491.89497	9802.7375
2494.63845	9803.7375
2497.3802	9778.6375
2500.12024	9781.0375
2502.85855	9757.4375
2505.59514	9771.1375
2508.33002	9730.2375
2511.06318	9745.8375
2513.79462	9752.7375
2516.52435	9693.9375
2519.25237	9673.4375
2521.97867	9688.3375
2524.70327	9663.2375
2527.42616	9644.4375
2530.14734	9640.0375
2532.86681	9631.0375
2535.58458	9647.5375
2538.30065	9607.5375
2541.01501	9597.9375
2543.72768	9587.5375
2546.43864	9557.1375
2549.14791	9569.4375
2551.85548	9556.6375
2554.56136	9513.3375
2557.26554	9504.8375
2559.96803	9492.3375
2562.66883	9468.9375
2565.36794	9432.7375
2568.06536	9432.5375
2570.7611	9430.1375
2573.45514	9398.5375
2576.14751	9387.1375
2578.83819	9388.5375
2581.52719	9355.9375
2584.21451	9322.8375
2586.90015	9322.7375
2589.58411	9304.0375
2592.2664	9320.3375
2594.94701	9274.1375
2597.62594	9249.4375
2600.30321	9267.2375
2602.9788	9231.7375
2605.65273	9225.8375
2608.32498	9222.1375
2610.99557	9216.0375
2613.66449	9199.2375
2616.33175	9207.0375
2618.99734	9195.1375
2621.66128	9180.8375
2624.32355	9172.8375
2626.98416	9157.6375
2629.64311	9133.2375
2632.30041	9131.6375
2634.95605	9096.1375
2637.61004	9079.6375
2640.26238	9069.8375
2642.91306	9078.6375
2645.56209	9085.7375
2648.20948	9057.8375
2650.85521	9041.3375
2653.4993	9047.8375
2656.14175	9072.6375
2658.78255	9091.8375
2661.42171	9059.1375
2664.05923	9045.7375
2666.6951	9058.5375
2669.32934	9057.8375
2671.96194	9055.2375
2674.59291	9041.9375
2677.22224	9039.0375
2679.84993	9063.5375
2682.476	9036.9375
2685.10043	9025.6375
2687.72324	9021.9375
2690.34441	9012.1375
2692.96396	9020.5375
2695.58188	9022.2375
2698.19818	9013.9375
2700.81285	8993.8375
2703.4259	9016.6375
2706.03733	9043.2375
2708.64714	9028.5375
2711.25533	9033.3375
2713.86191	9001.4375
2716.46687	9023.2375
2719.07021	9013.0375
2721.67194	9027.7375
2724.27206	9024.7375
2726.87057	9026.3375
2729.46747	9010.2375
2732.06276	9033.9375
2734.65644	9014.4375
2737.24852	9030.0375
2739.83899	9006.8375
2742.42786	9015.9375
2745.01513	8969.1375
2747.60079	8963.7375
2750.18486	8948.1375
2752.76733	8946.8375
2755.3482	8914.1375
2757.92747	8927.7375
2760.50515	8902.6375
2763.08123	8880.8375
2765.65573	8883.3375
2768.22863	8882.0375
2770.79994	8866.8375
2773.36967	8860.2375
2775.9378	8837.3375
2778.50435	8849.1375
2781.06932	8839.6375
2783.6327	8828.8375
2786.1945	8813.7375
2788.75471	8795.7375
2791.31335	8782.0375
2793.87041	8782.3375
2796.42589	8758.7375
2798.97979	8748.4375
2801.53212	8739.4375
2804.08288	8718.9375
2806.63206	8687.2375
2809.17967	8659.7375
2811.72571	8642.6375
2814.27018	8625.1375
2816.81308	8600.1375
2819.35442	8565.3375
2821.89419	8567.5375
2824.43239	8568.4375
2826.96904	8540.5375
2829.50412	8531.7375
2832.03763	8521.7375
2834.56959	8522.0375
2837.1	8531.5375
2839.62884	8530.6375
2842.15613	8536.2375
2844.68186	8553.6375
2847.20604	8545.6375
2849.72867	8578.1375
2852.24974	8568.1375
2854.76927	8532.7375
2857.28724	8516.3375
2859.80367	8478.1375
2862.31855	8470.0375
2864.83189	8481.6375
2867.34368	8455.4375
2869.85393	8439.7375
2872.36264	8425.9375
2874.8698	8446.1375
2877.37543	8442.0375
2879.87952	8418.3375
2882.38207	8403.3375
2884.88308	8379.4375
2887.38256	8405.9375
2889.88051	8392.3375
2892.37692	8383.8375
2894.8718	8393.4375
2897.36515	8414.0375
2899.85698	8418.2375
2902.34727	8413.0375
2904.83604	8420.5375
2907.32328	8427.8375
2909.809	8431.7375
2912.29319	8426.8375
2914.77587	8421.7375
2917.25702	8420.7375
2919.73665	8404.8375
2922.21476	8387.2375
2924.69136	8398.0375
2927.16644	8421.0375
2929.64	8371.7375
2932.11205	8403.3375
2934.58258	8347.6375
2937.05161	8371.0375
2939.51912	8365.9375
2941.98513	8337.9375
2944.44962	8317.6375
2946.91261	8287.1375
2949.37409	8313.6375
2951.83407	8293.7375
2954.29254	8289.1375
2956.74951	8248.7375
2959.20498	8261.2375
2961.65895	8243.3375
2964.11142	8261.0375
2966.56239	8222.9375
2969.01186	8240.5375
2971.45984	8231.1375
2973.90632	8205.5375
2976.35131	8173.3375
2978.7948	8158.1375
2981.23681	8115.5375
2983.67732	8092.7375
2986.11635	8086.8375
2988.55388	8091.5375
2990.98993	8080.8375
2993.4245	8031.6375
2995.85758	8022.0375
2998.28917	7988.6375
3000.71928	7996.0375
3003.14791	7954.0375
3005.57506	7973.9375
3008.00073	7945.7375
3010.42493	7926.3375
3012.84764	7914.3375
3015.26888	7913.3375
3017.68865	7858.4375
3020.10694	7872.6375
3022.52376	7842.7375
3024.9391	7857.4375
3027.35298	7822.6375
3029.76539	7819.8375
3032.17632	7812.9375
3034.5858	7810.6375
3036.9938	7793.8375
3039.40034	7801.2375
3041.80542	7800.7375
3044.20903	7778.1375
3046.61118	7769.5375
3049.01187	7750.1375
3051.4111	7743.3375
