Data from AgNP_FTO_APTES_UA_10uM_CRN_500uM_R6G_10uM_NaF_0.1M_Addition_RamanShift__11__18-53-10-940.txt Node

Date: Thu Feb 10 18:53:10 GMT 2022
User: TCL
Spectrometer: QEP01345
Trigger mode: 4
Integration Time (sec): 7.000000E0
Scans to average: 10
Electric dark correction enabled: true
Nonlinearity correction enabled: false
Boxcar width: 0
XAxis mode: Raman Shifts
Number of Pixels in Spectrum: 1044
>>>>>Begin Spectral Data<<<<<
46.04893	-0.225
50.45542	-0.925
54.85868	-1.125
59.25871	-1.325
63.6555	48.875
68.04907	52.775
72.43941	55.375
76.82654	55.475
81.21044	58.675
85.59113	59.775
89.96862	61.875
94.34289	67.275
98.71396	67.375
103.08183	72.875
107.4465	74.875
111.80798	68.075
116.16626	76.275
120.52136	77.875
124.87327	81.475
129.222	81.975
133.56755	88.675
137.90993	93.675
142.24913	101.675
146.58517	114.975
150.91804	128.775
155.24774	150.375
159.57429	188.075
163.89768	235.175
168.21792	311.875
172.53501	423.975
176.84895	586.875
181.15975	825.975
185.46741	1149.175
189.77193	1599.775
194.07331	2140.075
198.37157	2773.175
202.6667	3421.475
206.9587	4073.475
211.24758	4720.275
215.53334	5344.475
219.81599	6004.875
224.09553	6713.375
228.37195	7500.775
232.64527	8363.075
236.91549	9320.875
241.18261	10277.175
245.44663	11192.175
249.70755	12047.875
253.96539	12779.475
258.22014	13418.775
262.4718	13930.875
266.72039	14294.875
270.96589	14475.775
275.20832	14533.075
279.44768	14503.475
283.68397	14397.375
287.91719	14267.575
292.14735	14185.175
296.37445	14142.975
300.59849	14136.075
304.81948	14141.975
309.03742	14061.475
313.25231	13948.275
317.46415	13771.675
321.67296	13539.975
325.87872	13338.775
330.08145	13234.875
334.28114	13226.775
338.47781	13318.175
342.67145	13458.775
346.86207	13601.375
351.04966	13779.075
355.23424	13932.675
359.4158	14121.575
363.59435	14251.475
367.76989	14377.775
371.94243	14435.175
376.11196	14539.475
380.27849	14603.475
384.44203	14688.275
388.60257	14770.175
392.76012	14891.075
396.91468	15077.175
401.06626	15272.475
405.21485	15402.675
409.36047	15379.275
413.50311	15300.975
417.64277	15177.575
421.77947	15224.675
425.9132	15335.375
430.04396	15442.275
434.17176	15533.575
438.2966	15622.975
442.41849	15798.075
446.53742	16031.675
450.6534	16293.675
454.76644	16491.175
458.87653	16594.675
462.98368	16648.475
467.08789	16600.775
471.18916	16567.475
475.2875	16445.575
479.38291	16423.775
483.4754	16352.575
487.56496	16268.375
491.6516	16087.575
495.73531	15940.975
499.81612	15797.475
503.89401	15815.475
507.96899	15860.875
512.04106	15888.975
516.11023	15845.575
520.1765	15777.375
524.23987	15685.675
528.30034	15637.675
532.35792	15519.475
536.41261	15427.675
540.46441	15402.575
544.51333	15418.175
548.55936	15525.775
552.60252	15733.475
556.64279	16008.375
560.6802	16216.875
564.71473	16306.275
568.7464	16469.075
572.7752	16847.275
576.80114	17225.975
580.82422	17553.475
584.84444	17751.875
588.86181	18011.675
592.87633	18281.875
596.888	18209.175
600.89682	17830.575
604.9028	17745.275
608.90594	18280.675
612.90624	18939.575
616.90371	18253.575
620.89834	16526.175
624.89015	15808.775
628.87913	15740.375
632.86528	15863.075
636.84862	15928.275
640.82913	15811.375
644.80683	15603.475
648.78172	15434.175
652.75379	15391.375
656.72306	15458.775
660.68952	15606.975
664.65319	15557.575
668.61405	15454.275
672.57211	15440.075
676.52738	15498.175
680.47986	15496.675
684.42955	15470.575
688.37646	15467.375
692.32058	15486.975
696.26192	15574.775
700.20048	15708.375
704.13626	15766.575
708.06928	15834.275
711.99952	15851.175
715.927	15836.175
719.85171	15778.875
723.77365	15739.575
727.69284	15590.975
731.60928	15454.175
735.52295	15382.775
739.43388	15390.375
743.34206	15415.775
747.24749	15462.475
751.15017	15501.875
755.05012	15707.975
758.94733	15996.975
762.8418	16478.775
766.73354	17139.375
770.62254	17801.875
774.50882	17946.375
778.39237	17436.175
782.27321	16713.175
786.15132	16077.575
790.02671	15676.375
793.89938	15447.975
797.76935	15347.775
801.6366	15311.775
805.50115	15286.075
809.36299	15214.275
813.22213	15175.075
817.07857	15172.075
820.93231	15192.575
824.78336	15141.475
828.63172	15099.275
832.47738	15087.575
836.32036	15072.575
840.16066	15039.375
843.99827	15046.375
847.8332	15064.175
851.66546	15054.475
855.49504	15092.775
859.32195	15106.975
863.1462	15049.775
866.96777	15077.075
870.78668	15045.675
874.60293	15068.375
878.41652	15079.275
882.22745	15088.475
886.03573	15097.375
889.84136	15089.175
893.64433	15090.975
897.44466	15085.475
901.24235	15048.775
905.0374	15028.475
908.8298	14996.875
912.61957	14978.775
916.40671	15083.675
920.19121	15239.375
923.97308	15304.775
927.75233	15251.675
931.52895	15156.575
935.30295	14975.175
939.07433	14834.375
942.84309	14691.675
946.60924	14606.175
950.37278	14546.575
954.13371	14509.475
957.89203	14507.075
961.64774	14524.275
965.40086	14496.675
969.15137	14457.775
972.89929	14435.975
976.64461	14359.975
980.38733	14324.975
984.12747	14331.275
987.86502	14335.175
991.59999	14397.175
995.33237	14434.275
999.06217	14448.875
1002.78939	14618.975
1006.51404	14741.275
1010.23611	14865.175
1013.95561	14988.475
1017.67255	15040.475
1021.38692	15015.175
1025.09872	14924.675
1028.80796	14767.675
1032.51465	14688.075
1036.21877	14704.375
1039.92035	14745.675
1043.61937	14771.375
1047.31584	14829.775
1051.00976	14856.675
1054.70114	14928.475
1058.38998	15037.975
1062.07627	15132.275
1065.76003	15252.175
1069.44126	15341.275
1073.11995	15421.275
1076.79611	15563.575
1080.46974	15634.275
1084.14085	15646.175
1087.80943	15714.175
1091.47549	15839.275
1095.13903	15876.575
1098.80005	15803.675
1102.45857	15630.275
1106.11456	15403.575
1109.76805	15289.575
1113.41903	15235.375
1117.06751	15290.075
1120.71348	15386.775
1124.35696	15529.375
1127.99793	15645.275
1131.63641	15754.775
1135.2724	15705.875
1138.90589	15585.075
1142.5369	15594.475
1146.16542	15642.275
1149.79145	15743.875
1153.415	15810.575
1157.03607	15945.075
1160.65467	16186.175
1164.27079	16593.375
1167.88443	17111.275
1171.49561	17677.875
1175.10432	18320.975
1178.71056	19159.775
1182.31434	19999.075
1185.91565	20559.675
1189.51451	20780.175
1193.11091	20679.275
1196.70485	20354.275
1200.29634	19895.475
1203.88538	19426.775
1207.47197	19133.375
1211.05612	18900.475
1214.63782	18589.175
1218.21708	18229.775
1221.79391	17819.575
1225.36829	17495.575
1228.94024	17277.675
1232.50976	17136.075
1236.07685	17090.475
1239.6415	17042.375
1243.20374	17084.175
1246.76355	17128.475
1250.32093	17243.175
1253.8759	17429.675
1257.42845	17700.875
1260.97859	18018.775
1264.52631	18338.175
1268.07163	18645.975
1271.61453	18926.575
1275.15503	19214.575
1278.69312	19540.875
1282.22882	19891.075
1285.76211	20280.575
1289.29301	20804.375
1292.82151	21473.375
1296.34761	22272.875
1299.87133	23097.775
1303.39266	24011.575
1306.9116	24705.275
1310.42815	25272.275
1313.94233	25553.575
1317.45412	25509.875
1320.96354	25297.575
1324.47058	25097.175
1327.97525	24981.275
1331.47754	24921.075
1334.97747	24926.775
1338.47502	24966.575
1341.97022	25056.675
1345.46305	25148.075
1348.95352	25158.375
1352.44163	25170.575
1355.92738	25151.475
1359.41078	25320.975
1362.89183	25449.075
1366.37053	25025.975
1369.84688	23642.875
1373.32088	22009.975
1376.79254	20781.375
1380.26186	20341.075
1383.72883	20271.775
1387.19347	20281.975
1390.65578	20181.075
1394.11575	20161.075
1397.57339	20129.075
1401.0287	20247.575
1404.48168	20282.275
1407.93234	20134.675
1411.38068	19796.975
1414.82669	19255.975
1418.27039	18677.875
1421.71177	18092.475
1425.15083	17631.875
1428.58758	17384.275
1432.02203	17387.075
1435.45416	17632.875
1438.88399	17908.175
1442.31151	18123.475
1445.73673	18287.375
1449.15965	18473.475
1452.58027	18629.875
1455.9986	18739.275
1459.41463	18868.575
1462.82837	19050.075
1466.23982	19216.975
1469.64898	19436.275
1473.05586	19501.875
1476.46045	19520.275
1479.86276	19427.075
1483.26279	19353.675
1486.66054	19310.975
1490.05602	19387.575
1493.44922	19542.175
1496.84016	19879.675
1500.22882	20324.475
1503.61521	20890.875
1506.99934	21522.775
1510.38121	21995.575
1513.76081	22142.975
1517.13816	21841.975
1520.51324	21478.575
1523.88607	21160.075
1527.25665	21057.975
1530.62498	20989.375
1533.99105	20917.975
1537.35488	20732.275
1540.71647	20402.675
1544.07581	19993.575
1547.4329	19555.075
1550.78776	19185.875
1554.14038	18869.775
1557.49077	18694.575
1560.83892	18576.975
1564.18484	18597.475
1567.52853	18617.675
1570.86999	18749.875
1574.20922	18959.775
1577.54624	19174.775
1580.88103	19229.375
1584.2136	19257.075
1587.54395	19398.475
1590.87208	19790.175
1594.19801	20355.775
1597.52172	20959.075
1600.84321	21190.675
1604.16251	20734.975
1607.47959	19848.675
1610.79447	18846.775
1614.10715	17830.675
1617.41763	16920.175
1620.7259	16213.375
1624.03199	15766.875
1627.33587	15649.775
1630.63757	15778.075
1633.93707	16295.075
1637.23439	17184.575
1640.52951	18509.875
1643.82246	20222.175
1647.11321	21738.975
1650.40179	22377.075
1653.68819	21661.175
1656.97241	19961.675
1660.25446	17952.575
1663.53433	16358.675
1666.81203	15174.975
1670.08756	14358.875
1673.36092	13871.675
1676.63211	13512.075
1679.90115	13293.375
1683.16801	13096.075
1686.43272	12972.175
1689.69527	12895.675
1692.95567	12786.975
1696.2139	12761.575
1699.46999	12744.375
1702.72392	12695.175
1705.97571	12639.675
1709.22535	12611.675
1712.47284	12566.375
1715.71819	12569.275
1718.96139	12510.575
1722.20246	12474.775
1725.44139	12428.675
1728.67818	12387.375
1731.91284	12316.975
1735.14537	12241.675
1738.37576	12214.675
1741.60403	12179.675
1744.83017	12143.775
1748.05418	12104.375
1751.27607	12119.475
1754.49584	12094.275
1757.71349	12080.875
1760.92903	12052.775
1764.14244	12051.375
1767.35375	12043.575
1770.56294	12032.775
1773.77002	11986.175
1776.97499	11930.175
1780.17785	11916.775
1783.37861	11907.775
1786.57727	11832.875
1789.77382	11816.475
1792.96828	11776.475
1796.16064	11767.775
1799.3509	11744.175
1802.53907	11728.475
1805.72514	11687.675
1808.90913	11671.775
1812.09102	11653.875
1815.27083	11593.875
1818.44856	11587.175
1821.6242	11551.075
1824.79776	11545.375
1827.96924	11520.175
1831.13864	11499.475
1834.30597	11493.775
1837.47122	11463.975
1840.6344	11454.875
1843.7955	11476.375
1846.95454	11431.075
1850.11151	11438.775
1853.26642	11413.675
1856.41926	11414.175
1859.57004	11385.975
1862.71876	11367.075
1865.86542	11335.075
1869.01003	11336.975
1872.15258	11324.775
1875.29308	11310.575
1878.43152	11284.275
1881.56792	11270.675
1884.70227	11254.775
1887.83457	11210.775
1890.96482	11210.875
1894.09304	11173.375
1897.21921	11158.475
1900.34335	11161.575
1903.46544	11160.875
1906.58551	11125.075
1909.70353	11070.675
1912.81953	11089.775
1915.93349	11078.675
1919.04543	11043.375
1922.15534	11020.075
1925.26322	10984.575
1928.36908	10999.175
1931.47292	10937.975
1934.57473	10947.275
1937.67453	10869.775
1940.77232	10857.075
1943.86808	10830.175
1946.96184	10792.575
1950.05358	10765.175
1953.14331	10746.875
1956.23103	10691.975
1959.31675	10693.075
1962.40046	10642.975
1965.48217	10607.075
1968.56188	10564.875
1971.63959	10532.175
1974.7153	10547.475
1977.78901	10466.875
1980.86073	10435.275
1983.93046	10403.075
1986.99819	10376.175
1990.06394	10346.575
1993.1277	10296.175
1996.18947	10253.875
1999.24925	10230.775
2002.30706	10187.475
2005.36288	10134.475
2008.41672	10139.875
2011.46859	10100.375
2014.51848	10070.175
2017.56639	10043.175
2020.61233	10046.475
2023.6563	10004.875
2026.6983	9967.775
2029.73833	9954.375
2032.7764	9906.675
2035.8125	9870.675
2038.84664	9859.775
2041.87881	9802.275
2044.90903	9791.175
2047.93729	9750.675
2050.96359	9759.375
2053.98794	9725.075
2057.01034	9732.175
2060.03078	9712.675
2063.04927	9708.775
2066.06582	9716.575
2069.08042	9681.475
2072.09307	9682.075
2075.10378	9689.575
2078.11255	9670.975
2081.11938	9662.075
2084.12426	9675.375
2087.12722	9647.775
2090.12824	9647.175
2093.12732	9608.075
2096.12447	9612.275
2099.11969	9605.675
2102.11299	9609.275
2105.10435	9599.775
2108.09379	9599.075
2111.08131	9585.975
2114.0669	9601.375
2117.05057	9619.575
2120.03233	9630.375
2123.01216	9597.475
2125.99008	9644.175
2128.96609	9646.875
2131.94018	9641.375
2134.91236	9637.775
2137.88263	9609.475
2140.851	9637.775
2143.81746	9642.275
2146.78201	9626.175
2149.74466	9635.775
2152.7054	9628.375
2155.66425	9616.975
2158.6212	9623.275
2161.57625	9603.475
2164.52941	9568.175
2167.48067	9603.075
2170.43004	9562.075
2173.37752	9574.675
2176.32311	9587.675
2179.26681	9562.075
2182.20863	9548.775
2185.14856	9536.175
2188.08661	9569.275
2191.02278	9563.475
2193.95707	9568.175
2196.88948	9528.175
2199.82001	9511.575
2202.74867	9479.975
2205.67545	9457.875
2208.60037	9448.575
2211.52341	9446.375
2214.44458	9444.575
2217.36388	9411.275
2220.28132	9396.775
2223.1969	9379.675
2226.11061	9346.775
2229.02246	9329.775
2231.93245	9301.675
2234.84058	9295.375
2237.74686	9271.975
2240.65128	9258.675
2243.55385	9236.275
2246.45456	9224.075
2249.35343	9189.475
2252.25044	9197.675
2255.14561	9147.775
2258.03893	9183.575
2260.93041	9133.375
2263.82004	9089.775
2266.70783	9080.375
2269.59378	9042.075
2272.4779	8996.275
2275.36017	8980.275
2278.24061	8961.975
2281.11922	8968.575
2283.996	8944.575
2286.87094	8954.075
2289.74405	8927.075
2292.61534	8919.275
2295.4848	8899.975
2298.35243	8889.275
2301.21824	8860.275
2304.08223	8864.375
2306.94439	8844.775
2309.80474	8833.475
2312.66327	8830.675
2315.51999	8805.375
2318.37489	8809.375
2321.22797	8787.975
2324.07925	8756.675
2326.92871	8747.675
2329.77637	8749.775
2332.62222	8710.275
2335.46626	8683.975
2338.3085	8677.775
2341.14893	8682.975
2343.98756	8657.875
2346.8244	8646.975
2349.65943	8627.575
2352.49267	8647.175
2355.32411	8619.975
2358.15376	8615.975
2360.98161	8634.275
2363.80768	8612.075
2366.63195	8631.575
2369.45444	8591.875
2372.27514	8583.675
2375.09405	8564.775
2377.91118	8562.475
2380.72652	8529.675
2383.54009	8496.575
2386.35187	8489.175
2389.16188	8439.375
2391.97011	8448.575
2394.77657	8423.575
2397.58125	8389.875
2400.38416	8378.175
2403.18529	8372.875
2405.98466	8356.475
2408.78226	8345.375
2411.57809	8325.075
2414.37216	8335.575
2417.16446	8325.775
2419.955	8284.575
2422.74378	8284.675
2425.5308	8265.075
2428.31606	8283.975
2431.09956	8248.875
2433.88131	8228.975
2436.6613	8235.575
2439.43954	8232.275
2442.21603	8209.275
2444.99077	8195.975
2447.76377	8205.075
2450.53501	8185.575
2453.30451	8184.975
2456.07226	8140.075
2458.83827	8181.875
2461.60254	8166.175
2464.36507	8165.075
2467.12586	8118.975
2469.88492	8113.775
2472.64224	8118.075
2475.39782	8106.975
2478.15167	8138.475
2480.90379	8097.475
2483.65417	8112.975
2486.40283	8091.475
2489.14976	8088.375
2491.89497	8076.875
2494.63845	8081.575
2497.3802	8046.775
2500.12024	8053.675
2502.85855	8037.475
2505.59514	8029.175
2508.33002	8019.775
2511.06318	8001.875
2513.79462	8000.975
2516.52435	7966.675
2519.25237	7958.575
2521.97867	7949.975
2524.70327	7948.975
2527.42616	7944.575
2530.14734	7903.775
2532.86681	7911.175
2535.58458	7911.275
2538.30065	7895.275
2541.01501	7876.475
2543.72768	7860.675
2546.43864	7845.175
2549.14791	7817.175
2551.85548	7825.575
2554.56136	7812.375
2557.26554	7786.275
2559.96803	7785.375
2562.66883	7748.075
2565.36794	7733.875
2568.06536	7729.375
2570.7611	7689.875
2573.45514	7685.575
2576.14751	7688.075
2578.83819	7672.575
2581.52719	7647.275
2584.21451	7621.775
2586.90015	7633.375
2589.58411	7614.775
2592.2664	7597.575
2594.94701	7562.575
2597.62594	7579.675
2600.30321	7553.875
2602.9788	7545.075
2605.65273	7509.875
2608.32498	7528.475
2610.99557	7477.975
2613.66449	7520.675
2616.33175	7492.175
2618.99734	7480.175
2621.66128	7482.975
2624.32355	7474.175
2626.98416	7445.075
2629.64311	7431.375
2632.30041	7421.775
2634.95605	7406.375
2637.61004	7382.775
2640.26238	7393.975
2642.91306	7394.675
2645.56209	7394.875
2648.20948	7380.875
2650.85521	7362.475
2653.4993	7362.575
2656.14175	7379.775
2658.78255	7364.875
2661.42171	7354.575
2664.05923	7366.675
2666.6951	7355.575
2669.32934	7359.575
2671.96194	7326.075
2674.59291	7350.975
2677.22224	7345.875
2679.84993	7357.075
2682.476	7328.475
2685.10043	7325.075
2687.72324	7336.775
2690.34441	7324.075
2692.96396	7315.575
2695.58188	7313.875
2698.19818	7303.875
2700.81285	7303.875
2703.4259	7310.975
2706.03733	7312.575
2708.64714	7329.975
2711.25533	7314.375
2713.86191	7311.375
2716.46687	7329.075
2719.07021	7313.075
2721.67194	7316.975
2724.27206	7309.975
2726.87057	7287.675
2729.46747	7301.575
2732.06276	7302.375
2734.65644	7305.275
2737.24852	7294.875
2739.83899	7279.975
2742.42786	7273.375
2745.01513	7244.375
2747.60079	7244.675
2750.18486	7232.275
2752.76733	7229.075
2755.3482	7228.675
2757.92747	7188.975
2760.50515	7180.275
2763.08123	7164.575
2765.65573	7154.275
2768.22863	7149.575
2770.79994	7136.075
2773.36967	7150.375
2775.9378	7121.775
2778.50435	7130.075
2781.06932	7104.175
2783.6327	7103.275
2786.1945	7105.175
2788.75471	7092.275
2791.31335	7068.075
2793.87041	7050.675
2796.42589	7069.475
2798.97979	7039.675
2801.53212	7017.375
2804.08288	7008.675
2806.63206	6979.775
2809.17967	6970.975
2811.72571	6947.875
2814.27018	6930.075
2816.81308	6913.975
2819.35442	6909.275
2821.89419	6907.075
2824.43239	6876.375
2826.96904	6850.975
2829.50412	6848.975
2832.03763	6833.075
2834.56959	6855.975
2837.1	6839.675
2839.62884	6847.175
2842.15613	6851.375
2844.68186	6856.675
2847.20604	6861.175
2849.72867	6905.875
2852.24974	6873.475
2854.76927	6869.875
2857.28724	6839.075
2859.80367	6852.175
2862.31855	6822.875
2864.83189	6798.775
2867.34368	6793.775
2869.85393	6778.175
2872.36264	6773.375
2874.8698	6774.775
2877.37543	6762.675
2879.87952	6747.075
2882.38207	6753.175
2884.88308	6722.675
2887.38256	6730.575
2889.88051	6735.875
2892.37692	6724.375
2894.8718	6723.375
2897.36515	6726.175
2899.85698	6739.975
2902.34727	6749.075
2904.83604	6713.575
2907.32328	6763.375
2909.809	6754.275
2912.29319	6733.675
2914.77587	6744.575
2917.25702	6727.975
2919.73665	6724.775
2922.21476	6731.175
2924.69136	6709.175
2927.16644	6722.875
2929.64	6722.575
2932.11205	6705.175
2934.58258	6682.275
2937.05161	6707.775
2939.51912	6690.975
2941.98513	6659.675
2944.44962	6649.375
2946.91261	6631.975
2949.37409	6641.275
2951.83407	6622.775
2954.29254	6605.175
2956.74951	6614.675
2959.20498	6587.575
2961.65895	6592.675
2964.11142	6602.175
2966.56239	6564.475
2969.01186	6580.475
2971.45984	6540.675
2973.90632	6533.575
2976.35131	6518.675
2978.7948	6517.375
2981.23681	6502.275
2983.67732	6468.275
2986.11635	6452.175
2988.55388	6431.075
2990.98993	6409.075
2993.4245	6406.575
2995.85758	6387.875
2998.28917	6377.975
3000.71928	6349.475
3003.14791	6333.775
3005.57506	6360.175
3008.00073	6339.175
3010.42493	6325.475
3012.84764	6293.475
3015.26888	6301.975
3017.68865	6274.575
3020.10694	6274.075
3022.52376	6251.075
3024.9391	6242.675
3027.35298	6234.475
3029.76539	6214.675
3032.17632	6229.475
3034.5858	6212.075
3036.9938	6220.975
3039.40034	6214.775
3041.80542	6198.375
3044.20903	6198.175
3046.61118	6186.675
3049.01187	6168.075
3051.4111	6183.775
3053.80888	6167.875
3056.20519	6135.575
3058.60005	6128.075
3060.99345	6114.775
3063.3854	6101.175
3065.7759	6063.775
3068.16494	6058.975
3070.55254	6052.675
3072.93868	6044.275
3075.32338	6029.075
3077.70662	6010.575
3080.08842	6018.175
3082.46878	5997.475
3084.84769	5988.675
3087.22515	5988.375
3089.60118	5975.875
3091.97576	5987.575
3094.3489	5993.275
3096.72061	5973.975
3099.09087	5968.075
3101.4597	5963.375
3103.82709	5964.075
3106.19305	5955.575
3108.55757	5952.675
3110.92066	5954.275
3113.28232	5934.275
3115.64255	5939.275
3118.00134	5920.475
3120.35871	5919.475
3122.71466	5920.675
3125.06917	5899.475
3127.42226	5866.675
3129.77393	5891.775
3132.12417	5844.575
3134.47299	5866.975
3136.82039	5874.775
3139.16636	5875.775
3141.51092	5882.875
3143.85406	5871.675
3146.19579	5894.875
3148.53609	5867.275
3150.87499	5885.075
3153.21246	5883.075
3155.54853	5903.175
3157.88318	5899.775
3160.21642	5888.575
3162.54826	5877.975
3164.87868	5891.375
3167.2077	5902.975
3169.5353	5893.075
3171.86151	5902.675
3174.18631	5882.875
3176.5097	5875.775
3178.83169	5898.475
