Data from AgNP_FTO_APTES_UA_10uM_CRN_5uM_R6G_10uM_NaF_0.1M_Addition_RamanShift__13__14-57-30-649.txt Node

Date: Thu Feb 10 14:57:30 GMT 2022
User: TCL
Spectrometer: QEP01345
Trigger mode: 4
Integration Time (sec): 7.000000E0
Scans to average: 10
Electric dark correction enabled: true
Nonlinearity correction enabled: false
Boxcar width: 0
XAxis mode: Raman Shifts
Number of Pixels in Spectrum: 1044
>>>>>Begin Spectral Data<<<<<
46.04893	-0.3625
50.45542	-1.5625
54.85868	-0.7625
59.25871	-0.4625
63.6555	74.2375
68.04907	76.7375
72.43941	80.7375
76.82654	80.3375
81.21044	87.6375
85.59113	87.1375
89.96862	92.7375
94.34289	96.8375
98.71396	99.1375
103.08183	101.4375
107.4465	107.2375
111.80798	105.9375
116.16626	111.1375
120.52136	112.5375
124.87327	121.8375
129.222	125.0375
133.56755	136.7375
137.90993	146.2375
142.24913	155.3375
146.58517	176.7375
150.91804	211.9375
155.24774	250.2375
159.57429	312.2375
163.89768	397.6375
168.21792	532.1375
172.53501	727.4375
176.84895	1007.1375
181.15975	1420.1375
185.46741	1993.7375
189.77193	2743.3375
194.07331	3674.6375
198.37157	4744.8375
202.6667	5885.5375
206.9587	6986.9375
211.24758	8075.3375
215.53334	9163.1375
219.81599	10302.2375
224.09553	11522.3375
228.37195	12876.2375
232.64527	14378.3375
236.91549	15998.3375
241.18261	17653.7375
245.44663	19178.5375
249.70755	20585.6375
253.96539	21823.0375
258.22014	22852.2375
262.4718	23649.7375
266.72039	24229.7375
270.96589	24493.7375
275.20832	24618.6375
279.44768	24486.3375
283.68397	24333.3375
287.91719	24143.5375
292.14735	23985.7375
296.37445	23925.3375
300.59849	23960.6375
304.81948	23998.1375
309.03742	23985.2375
313.25231	23794.7375
317.46415	23498.1375
321.67296	22996.1375
325.87872	22625.3375
330.08145	22431.2375
334.28114	22503.4375
338.47781	22606.1375
342.67145	22835.0375
346.86207	23171.9375
351.04966	23450.9375
355.23424	23777.1375
359.4158	24041.6375
363.59435	24263.0375
367.76989	24404.0375
371.94243	24556.0375
376.11196	24604.7375
380.27849	24662.6375
384.44203	24759.4375
388.60257	24949.7375
392.76012	25232.0375
396.91468	25565.5375
401.06626	25996.3375
405.21485	26218.1375
409.36047	26130.6375
413.50311	25912.8375
417.64277	25833.1375
421.77947	25915.1375
425.9132	26085.5375
430.04396	26234.4375
434.17176	26351.2375
438.2966	26446.0375
442.41849	26660.4375
446.53742	27120.5375
450.6534	27662.8375
454.76644	28077.0375
458.87653	28224.4375
462.98368	28184.1375
467.08789	28116.9375
471.18916	27850.3375
475.2875	27540.1375
479.38291	27406.8375
483.4754	27269.6375
487.56496	27120.7375
491.6516	26796.2375
495.73531	26431.9375
499.81612	26260.7375
503.89401	26334.3375
507.96899	26465.7375
512.04106	26539.0375
516.11023	26481.9375
520.1765	26242.0375
524.23987	26012.6375
528.30034	25765.3375
532.35792	25560.0375
536.41261	25269.4375
540.46441	25138.6375
544.51333	25154.8375
548.55936	25424.2375
552.60252	25858.3375
556.64279	26278.5375
560.6802	26688.1375
564.71473	26985.5375
568.7464	27460.1375
572.7752	28327.8375
576.80114	29408.9375
580.82422	30444.4375
584.84444	31238.0375
588.86181	32096.7375
592.87633	32763.3375
596.888	32551.4375
600.89682	31397.0375
604.9028	30920.9375
608.90594	31793.4375
612.90624	32704.8375
616.90371	30813.3375
620.89834	27442.3375
624.89015	26113.7375
628.87913	26116.7375
632.86528	26370.1375
636.84862	26382.6375
640.82913	25976.3375
644.80683	25398.4375
648.78172	25022.5375
652.75379	24973.2375
656.72306	25146.4375
660.68952	25376.1375
664.65319	25367.0375
668.61405	25085.7375
672.57211	25038.1375
676.52738	25127.7375
680.47986	25077.7375
684.42955	24945.3375
688.37646	24903.7375
692.32058	25023.1375
696.26192	25267.9375
700.20048	25554.2375
704.13626	25753.3375
708.06928	25879.0375
711.99952	25830.5375
715.927	25726.8375
719.85171	25652.3375
723.77365	25512.7375
727.69284	25224.5375
731.60928	24856.7375
735.52295	24698.3375
739.43388	24638.9375
743.34206	24699.0375
747.24749	24838.8375
751.15017	25142.4375
755.05012	25469.0375
758.94733	26137.0375
762.8418	27118.3375
766.73354	28616.0375
770.62254	29790.9375
774.50882	29839.6375
778.39237	28706.7375
782.27321	27280.1375
786.15132	26171.1375
790.02671	25415.2375
793.89938	24982.3375
797.76935	24756.2375
801.6366	24647.1375
805.50115	24571.1375
809.36299	24448.0375
813.22213	24355.6375
817.07857	24285.2375
820.93231	24255.4375
824.78336	24185.0375
828.63172	24091.2375
832.47738	23995.4375
836.32036	23943.3375
840.16066	23922.9375
843.99827	23916.6375
847.8332	23935.1375
851.66546	23995.6375
855.49504	24057.5375
859.32195	24102.6375
863.1462	24056.3375
866.96777	24011.0375
870.78668	23971.9375
874.60293	23971.0375
878.41652	23994.2375
882.22745	24040.5375
886.03573	24066.8375
889.84136	24027.8375
893.64433	23995.8375
897.44466	23956.8375
901.24235	23937.8375
905.0374	23898.9375
908.8298	23855.5375
912.61957	23924.4375
916.40671	24136.2375
920.19121	24387.7375
923.97308	24622.4375
927.75233	24574.6375
931.52895	24292.1375
935.30295	23913.3375
939.07433	23617.8375
942.84309	23341.2375
946.60924	23151.2375
950.37278	23128.2375
954.13371	23080.5375
957.89203	23073.2375
961.64774	23089.6375
965.40086	23079.2375
969.15137	23024.0375
972.89929	22990.2375
976.64461	22888.6375
980.38733	22858.4375
984.12747	22844.7375
987.86502	22919.1375
991.59999	23008.2375
995.33237	23134.9375
999.06217	23361.6375
1002.78939	23680.7375
1006.51404	24035.7375
1010.23611	24447.8375
1013.95561	24702.4375
1017.67255	24698.5375
1021.38692	24524.8375
1025.09872	24219.5375
1028.80796	23892.4375
1032.51465	23762.6375
1036.21877	23784.2375
1039.92035	23858.6375
1043.61937	23980.3375
1047.31584	24041.5375
1051.00976	24098.3375
1054.70114	24255.7375
1058.38998	24475.6375
1062.07627	24760.5375
1065.76003	25090.4375
1069.44126	25396.6375
1073.11995	25797.7375
1076.79611	26058.3375
1080.46974	26207.3375
1084.14085	26310.5375
1087.80943	26485.9375
1091.47549	26718.3375
1095.13903	26789.8375
1098.80005	26574.8375
1102.45857	26094.7375
1106.11456	25545.9375
1109.76805	25273.5375
1113.41903	25212.6375
1117.06751	25240.2375
1120.71348	25400.6375
1124.35696	25559.0375
1127.99793	25818.7375
1131.63641	25957.4375
1135.2724	25974.9375
1138.90589	25980.0375
1142.5369	26024.6375
1146.16542	26223.1375
1149.79145	26405.6375
1153.415	26639.8375
1157.03607	26976.1375
1160.65467	27539.5375
1164.27079	28493.3375
1167.88443	29646.7375
1171.49561	30867.6375
1175.10432	32386.6375
1178.71056	34179.7375
1182.31434	35911.0375
1185.91565	36947.1375
1189.51451	37284.6375
1193.11091	37000.6375
1196.70485	36228.5375
1200.29634	35067.9375
1203.88538	34172.8375
1207.47197	33785.2375
1211.05612	33535.5375
1214.63782	33056.7375
1218.21708	32267.9375
1221.79391	31292.7375
1225.36829	30544.9375
1228.94024	30162.2375
1232.50976	29925.3375
1236.07685	29656.1375
1239.6415	29559.4375
1243.20374	29493.8375
1246.76355	29628.0375
1250.32093	29958.6375
1253.8759	30429.6375
1257.42845	31164.3375
1260.97859	31913.4375
1264.52631	32762.2375
1268.07163	33581.6375
1271.61453	34361.1375
1275.15503	35104.9375
1278.69312	35910.6375
1282.22882	36728.3375
1285.76211	37731.0375
1289.29301	38881.1375
1292.82151	40238.5375
1296.34761	41901.8375
1299.87133	43756.6375
1303.39266	45650.7375
1306.9116	47233.9375
1310.42815	48342.3375
1313.94233	48888.7375
1317.45412	48650.6375
1320.96354	48252.8375
1324.47058	48100.5375
1327.97525	48332.6375
1331.47754	48490.6375
1334.97747	48803.4375
1338.47502	48979.4375
1341.97022	49265.8375
1345.46305	49337.9375
1348.95352	48982.9375
1352.44163	48293.1375
1355.92738	47676.7375
1359.41078	47701.5375
1362.89183	47715.6375
1366.37053	46636.7375
1369.84688	44051.8375
1373.32088	40721.4375
1376.79254	38385.8375
1380.26186	37493.5375
1383.72883	37464.6375
1387.19347	37564.3375
1390.65578	37397.3375
1394.11575	37266.1375
1397.57339	37405.9375
1401.0287	37735.5375
1404.48168	37914.3375
1407.93234	37730.6375
1411.38068	37018.0375
1414.82669	35898.9375
1418.27039	34574.8375
1421.71177	33382.5375
1425.15083	32459.5375
1428.58758	32078.9375
1432.02203	32397.7375
1435.45416	33079.0375
1438.88399	33966.7375
1442.31151	34592.5375
1445.73673	34998.6375
1449.15965	35331.0375
1452.58027	35494.5375
1455.9986	35787.1375
1459.41463	36130.7375
1462.82837	36656.1375
1466.23982	37166.0375
1469.64898	37511.7375
1473.05586	37612.1375
1476.46045	37583.8375
1479.86276	37380.4375
1483.26279	37088.9375
1486.66054	36972.6375
1490.05602	37113.2375
1493.44922	37414.3375
1496.84016	38062.2375
1500.22882	38948.2375
1503.61521	39881.9375
1506.99934	40850.1375
1510.38121	41447.8375
1513.76081	41380.9375
1517.13816	40898.2375
1520.51324	40293.4375
1523.88607	39975.5375
1527.25665	39905.3375
1530.62498	39927.8375
1533.99105	39739.4375
1537.35488	39122.2375
1540.71647	38203.1375
1544.07581	37135.1375
1547.4329	36091.3375
1550.78776	35278.4375
1554.14038	34789.8375
1557.49077	34446.8375
1560.83892	34307.6375
1564.18484	34266.5375
1567.52853	34284.9375
1570.86999	34452.2375
1574.20922	34926.1375
1577.54624	35469.1375
1580.88103	35701.0375
1584.2136	35979.3375
1587.54395	36794.8375
1590.87208	38020.2375
1594.19801	39575.8375
1597.52172	41081.2375
1600.84321	41122.7375
1604.16251	39628.1375
1607.47959	37253.8375
1610.79447	34843.4375
1614.10715	32465.6375
1617.41763	30368.4375
1620.7259	28855.9375
1624.03199	28041.4375
1627.33587	27916.5375
1630.63757	28560.0375
1633.93707	30215.4375
1637.23439	32890.9375
1640.52951	36694.0375
1643.82246	41104.1375
1647.11321	44448.2375
1650.40179	44925.7375
1653.68819	41958.6375
1656.97241	37039.0375
1660.25446	32237.3375
1663.53433	28591.4375
1666.81203	26121.5375
1670.08756	24609.2375
1673.36092	23601.6375
1676.63211	22979.3375
1679.90115	22498.2375
1683.16801	22164.1375
1686.43272	21912.5375
1689.69527	21711.1375
1692.95567	21579.5375
1696.2139	21447.0375
1699.46999	21400.6375
1702.72392	21305.4375
1705.97571	21231.3375
1709.22535	21142.2375
1712.47284	21092.3375
1715.71819	21051.5375
1718.96139	20959.3375
1722.20246	20950.1375
1725.44139	20820.8375
1728.67818	20697.3375
1731.91284	20567.3375
1735.14537	20464.2375
1738.37576	20371.9375
1741.60403	20311.1375
1744.83017	20231.0375
1748.05418	20180.2375
1751.27607	20113.3375
1754.49584	20096.7375
1757.71349	20140.8375
1760.92903	20097.8375
1764.14244	20088.0375
1767.35375	20041.7375
1770.56294	20013.7375
1773.77002	19989.8375
1776.97499	19880.7375
1780.17785	19852.7375
1783.37861	19825.6375
1786.57727	19779.6375
1789.77382	19735.4375
1792.96828	19669.6375
1796.16064	19649.3375
1799.3509	19610.3375
1802.53907	19585.0375
1805.72514	19497.7375
1808.90913	19461.7375
1812.09102	19446.3375
1815.27083	19393.5375
1818.44856	19333.1375
1821.6242	19317.3375
1824.79776	19266.5375
1827.96924	19265.2375
1831.13864	19273.4375
1834.30597	19254.1375
1837.47122	19238.3375
1840.6344	19250.9375
1843.7955	19283.2375
1846.95454	19271.1375
1850.11151	19232.5375
1853.26642	19240.0375
1856.41926	19263.7375
1859.57004	19229.5375
1862.71876	19155.9375
1865.86542	19137.3375
1869.01003	19085.8375
1872.15258	19046.6375
1875.29308	19028.1375
1878.43152	19005.6375
1881.56792	18962.9375
1884.70227	18937.5375
1887.83457	18918.5375
1890.96482	18898.3375
1894.09304	18832.6375
1897.21921	18814.5375
1900.34335	18785.5375
1903.46544	18728.9375
1906.58551	18701.7375
1909.70353	18676.4375
1912.81953	18624.5375
1915.93349	18582.7375
1919.04543	18575.3375
1922.15534	18523.6375
1925.26322	18472.7375
1928.36908	18440.7375
1931.47292	18420.7375
1934.57473	18374.9375
1937.67453	18336.1375
1940.77232	18261.1375
1943.86808	18191.4375
1946.96184	18182.2375
1950.05358	18097.3375
1953.14331	18022.7375
1956.23103	17941.6375
1959.31675	17894.7375
1962.40046	17859.3375
1965.48217	17790.4375
1968.56188	17737.4375
1971.63959	17687.1375
1974.7153	17658.3375
1977.78901	17605.2375
1980.86073	17518.3375
1983.93046	17468.8375
1986.99819	17411.7375
1990.06394	17379.0375
1993.1277	17324.1375
1996.18947	17249.7375
1999.24925	17180.8375
2002.30706	17127.9375
2005.36288	17084.6375
2008.41672	17011.2375
2011.46859	16949.5375
2014.51848	16936.8375
2017.56639	16884.7375
2020.61233	16845.6375
2023.6563	16804.3375
2026.6983	16756.2375
2029.73833	16721.8375
2032.7764	16716.3375
2035.8125	16605.1375
2038.84664	16573.7375
2041.87881	16533.9375
2044.90903	16524.0375
2047.93729	16476.7375
2050.96359	16483.9375
2053.98794	16458.8375
2057.01034	16419.3375
2060.03078	16383.6375
2063.04927	16377.8375
2066.06582	16356.5375
2069.08042	16359.7375
2072.09307	16357.6375
2075.10378	16336.5375
2078.11255	16324.5375
2081.11938	16321.0375
2084.12426	16286.5375
2087.12722	16295.1375
2090.12824	16275.4375
2093.12732	16260.1375
2096.12447	16243.2375
2099.11969	16230.9375
2102.11299	16225.6375
2105.10435	16227.2375
2108.09379	16252.4375
2111.08131	16281.8375
2114.0669	16239.1375
2117.05057	16279.8375
2120.03233	16268.7375
2123.01216	16316.2375
2125.99008	16318.3375
2128.96609	16299.7375
2131.94018	16348.0375
2134.91236	16316.5375
2137.88263	16321.2375
2140.851	16309.9375
2143.81746	16347.8375
2146.78201	16336.7375
2149.74466	16322.5375
2152.7054	16311.5375
2155.66425	16273.9375
2158.6212	16286.6375
2161.57625	16267.7375
2164.52941	16271.3375
2167.48067	16252.1375
2170.43004	16245.9375
2173.37752	16227.4375
2176.32311	16217.8375
2179.26681	16186.8375
2182.20863	16190.6375
2185.14856	16180.5375
2188.08661	16188.1375
2191.02278	16192.4375
2193.95707	16200.8375
2196.88948	16186.3375
2199.82001	16117.5375
2202.74867	16097.8375
2205.67545	16072.1375
2208.60037	16041.0375
2211.52341	16042.1375
2214.44458	16020.3375
2217.36388	15964.9375
2220.28132	15933.4375
2223.1969	15899.8375
2226.11061	15857.8375
2229.02246	15856.4375
2231.93245	15852.0375
2234.84058	15764.6375
2237.74686	15797.1375
2240.65128	15784.5375
2243.55385	15735.3375
2246.45456	15686.2375
2249.35343	15661.2375
2252.25044	15666.4375
2255.14561	15643.0375
2258.03893	15600.9375
2260.93041	15562.8375
2263.82004	15484.7375
2266.70783	15429.9375
2269.59378	15393.0375
2272.4779	15349.6375
2275.36017	15306.6375
2278.24061	15296.4375
2281.11922	15259.1375
2283.996	15231.2375
2286.87094	15241.2375
2289.74405	15178.7375
2292.61534	15194.8375
2295.4848	15151.8375
2298.35243	15168.9375
2301.21824	15156.0375
2304.08223	15125.6375
2306.94439	15048.1375
2309.80474	15094.1375
2312.66327	15042.3375
2315.51999	15048.2375
2318.37489	15037.7375
2321.22797	15004.4375
2324.07925	14967.4375
2326.92871	14945.6375
2329.77637	14972.4375
2332.62222	14911.0375
2335.46626	14891.2375
2338.3085	14897.0375
2341.14893	14884.6375
2343.98756	14890.8375
2346.8244	14851.4375
2349.65943	14829.6375
2352.49267	14824.3375
2355.32411	14854.6375
2358.15376	14841.8375
2360.98161	14817.0375
2363.80768	14814.0375
2366.63195	14802.3375
2369.45444	14784.8375
2372.27514	14747.7375
2375.09405	14726.9375
2377.91118	14725.1375
2380.72652	14684.0375
2383.54009	14670.1375
2386.35187	14633.7375
2389.16188	14574.2375
2391.97011	14539.5375
2394.77657	14495.5375
2397.58125	14478.7375
2400.38416	14466.2375
2403.18529	14453.1375
2405.98466	14429.6375
2408.78226	14413.6375
2411.57809	14371.1375
2414.37216	14383.8375
2417.16446	14379.7375
2419.955	14363.1375
2422.74378	14347.0375
2425.5308	14338.2375
2428.31606	14304.6375
2431.09956	14331.5375
2433.88131	14276.7375
2436.6613	14293.9375
2439.43954	14285.9375
2442.21603	14248.5375
2444.99077	14242.5375
2447.76377	14213.4375
2450.53501	14178.9375
2453.30451	14200.0375
2456.07226	14179.1375
2458.83827	14162.5375
2461.60254	14189.8375
2464.36507	14142.6375
2467.12586	14144.9375
2469.88492	14125.8375
2472.64224	14127.5375
2475.39782	14130.1375
2478.15167	14113.6375
2480.90379	14116.7375
2483.65417	14155.7375
2486.40283	14110.9375
2489.14976	14127.8375
2491.89497	14120.6375
2494.63845	14102.6375
2497.3802	14081.1375
2500.12024	14078.9375
2502.85855	14049.3375
2505.59514	14012.7375
2508.33002	14020.3375
2511.06318	14017.5375
2513.79462	14032.5375
2516.52435	13995.4375
2519.25237	14005.9375
2521.97867	14005.5375
2524.70327	13999.3375
2527.42616	13971.9375
2530.14734	13942.5375
2532.86681	13886.4375
2535.58458	13908.5375
2538.30065	13894.1375
2541.01501	13899.2375
2543.72768	13866.9375
2546.43864	13863.5375
2549.14791	13859.2375
2551.85548	13836.8375
2554.56136	13825.9375
2557.26554	13793.5375
2559.96803	13740.2375
2562.66883	13758.6375
2565.36794	13690.2375
2568.06536	13715.4375
2570.7611	13643.8375
2573.45514	13643.0375
2576.14751	13613.9375
2578.83819	13592.0375
2581.52719	13601.2375
2584.21451	13573.2375
2586.90015	13566.9375
2589.58411	13544.7375
2592.2664	13500.8375
2594.94701	13485.5375
2597.62594	13524.5375
2600.30321	13471.8375
2602.9788	13467.8375
2605.65273	13485.7375
2608.32498	13452.0375
2610.99557	13464.1375
2613.66449	13429.2375
2616.33175	13419.0375
2618.99734	13456.4375
2621.66128	13412.8375
2624.32355	13372.4375
2626.98416	13340.7375
2629.64311	13348.0375
2632.30041	13328.2375
2634.95605	13307.5375
2637.61004	13266.2375
2640.26238	13290.3375
2642.91306	13292.3375
2645.56209	13300.0375
2648.20948	13296.7375
2650.85521	13271.2375
2653.4993	13322.8375
2656.14175	13273.2375
2658.78255	13282.1375
2661.42171	13319.9375
2664.05923	13297.3375
2666.6951	13302.0375
2669.32934	13321.2375
2671.96194	13302.0375
2674.59291	13316.6375
2677.22224	13295.6375
2679.84993	13312.0375
2682.476	13307.6375
2685.10043	13307.5375
2687.72324	13294.0375
2690.34441	13275.1375
2692.96396	13283.4375
2695.58188	13299.7375
2698.19818	13309.2375
2700.81285	13302.0375
2703.4259	13316.6375
2706.03733	13330.1375
2708.64714	13320.2375
2711.25533	13312.6375
2713.86191	13290.6375
2716.46687	13315.3375
2719.07021	13299.9375
2721.67194	13327.3375
2724.27206	13312.4375
2726.87057	13325.1375
2729.46747	13325.0375
2732.06276	13326.0375
2734.65644	13308.8375
2737.24852	13325.2375
2739.83899	13308.5375
2742.42786	13307.4375
2745.01513	13294.5375
2747.60079	13246.2375
2750.18486	13249.2375
2752.76733	13235.4375
2755.3482	13215.9375
2757.92747	13205.7375
2760.50515	13193.0375
2763.08123	13175.4375
2765.65573	13140.7375
2768.22863	13183.4375
2770.79994	13140.9375
2773.36967	13136.4375
2775.9378	13149.3375
2778.50435	13144.4375
2781.06932	13127.0375
2783.6327	13108.1375
2786.1945	13101.3375
2788.75471	13094.4375
2791.31335	13041.7375
2793.87041	13034.8375
2796.42589	12999.0375
2798.97979	12987.6375
2801.53212	12946.5375
2804.08288	12968.3375
2806.63206	12931.3375
2809.17967	12898.2375
2811.72571	12858.5375
2814.27018	12834.0375
2816.81308	12800.8375
2819.35442	12765.3375
2821.89419	12728.5375
2824.43239	12730.3375
2826.96904	12712.1375
2829.50412	12697.2375
2832.03763	12656.3375
2834.56959	12688.0375
2837.1	12637.1375
2839.62884	12642.3375
2842.15613	12647.3375
2844.68186	12673.5375
2847.20604	12668.8375
2849.72867	12657.1375
2852.24974	12644.3375
2854.76927	12614.2375
2857.28724	12577.3375
2859.80367	12587.9375
2862.31855	12559.0375
2864.83189	12538.2375
2867.34368	12500.1375
2869.85393	12474.9375
2872.36264	12472.7375
2874.8698	12464.2375
2877.37543	12474.6375
2879.87952	12445.4375
2882.38207	12455.8375
2884.88308	12426.5375
2887.38256	12430.7375
2889.88051	12417.7375
2892.37692	12432.5375
2894.8718	12431.7375
2897.36515	12436.7375
2899.85698	12429.2375
2902.34727	12451.0375
2904.83604	12450.0375
2907.32328	12482.7375
2909.809	12468.6375
2912.29319	12449.8375
2914.77587	12454.9375
2917.25702	12425.4375
2919.73665	12414.1375
2922.21476	12430.4375
2924.69136	12426.9375
2927.16644	12421.8375
2929.64	12394.0375
2932.11205	12379.9375
2934.58258	12361.4375
2937.05161	12370.7375
2939.51912	12371.1375
2941.98513	12334.8375
2944.44962	12297.6375
2946.91261	12265.4375
2949.37409	12315.4375
2951.83407	12298.1375
2954.29254	12231.6375
2956.74951	12224.9375
2959.20498	12215.8375
2961.65895	12204.9375
2964.11142	12220.2375
2966.56239	12214.3375
2969.01186	12223.8375
2971.45984	12187.0375
2973.90632	12228.2375
2976.35131	12165.9375
2978.7948	12136.4375
2981.23681	12053.1375
2983.67732	12050.7375
2986.11635	12039.8375
2988.55388	11971.9375
2990.98993	11929.1375
2993.4245	11930.3375
2995.85758	11916.0375
2998.28917	11859.9375
3000.71928	11848.2375
3003.14791	11842.3375
3005.57506	11811.5375
3008.00073	11746.0375
3010.42493	11624.9375
3012.84764	11705.0375
3015.26888	11688.6375
3017.68865	11642.9375
3020.10694	11646.8375
3022.52376	11607.2375
