Data from AgNP_FTO_APTES_UA_10uM_CRN_2uM_R6G_10uM_NaF_0.1M_Addition_RamanShift__27__14-28-20-613.txt Node

Date: Thu Feb 10 14:28:20 GMT 2022
User: TCL
Spectrometer: QEP01345
Trigger mode: 4
Integration Time (sec): 7.000000E0
Scans to average: 10
Electric dark correction enabled: true
Nonlinearity correction enabled: false
Boxcar width: 0
XAxis mode: Raman Shifts
Number of Pixels in Spectrum: 1044
>>>>>Begin Spectral Data<<<<<
46.04893	0.4875
50.45542	-0.4125
54.85868	-2.3125
59.25871	-1.0125
63.6555	63.5875
68.04907	67.2875
72.43941	70.7875
76.82654	67.6875
81.21044	74.8875
85.59113	75.6875
89.96862	77.6875
94.34289	84.6875
98.71396	80.7875
103.08183	90.5875
107.4465	89.2875
111.80798	89.8875
116.16626	94.6875
120.52136	97.1875
124.87327	104.0875
129.222	103.9875
133.56755	113.0875
137.90993	118.5875
142.24913	125.6875
146.58517	142.3875
150.91804	164.2875
155.24774	194.6875
159.57429	237.2875
163.89768	311.4875
168.21792	409.6875
172.53501	549.8875
176.84895	760.9875
181.15975	1060.3875
185.46741	1477.8875
189.77193	2054.3875
194.07331	2735.3875
198.37157	3516.1875
202.6667	4348.0875
206.9587	5158.7875
211.24758	5975.2875
215.53334	6819.2875
219.81599	7727.0875
224.09553	8791.2875
228.37195	9930.6875
232.64527	11172.9875
236.91549	12465.2875
241.18261	13666.4875
245.44663	14702.7875
249.70755	15616.2875
253.96539	16386.1875
258.22014	17040.3875
262.4718	17625.1875
266.72039	18103.8875
270.96589	18411.9875
275.20832	18518.4875
279.44768	18425.2875
283.68397	18294.0875
287.91719	18220.8875
292.14735	18255.0875
296.37445	18430.8875
300.59849	18827.9875
304.81948	19204.2875
309.03742	19411.9875
313.25231	19205.9875
317.46415	18411.9875
321.67296	17307.7875
325.87872	16392.5875
330.08145	15937.8875
334.28114	15936.7875
338.47781	16152.9875
342.67145	16531.6875
346.86207	17094.5875
351.04966	17856.5875
355.23424	18713.9875
359.4158	19366.7875
363.59435	19697.7875
367.76989	19839.9875
371.94243	19778.0875
376.11196	19755.2875
380.27849	19702.8875
384.44203	19565.5875
388.60257	19475.1875
392.76012	19481.5875
396.91468	19689.8875
401.06626	20180.6875
405.21485	20563.9875
409.36047	20303.5875
413.50311	19555.9875
417.64277	18903.6875
421.77947	18542.9875
425.9132	18496.2875
430.04396	18558.5875
434.17176	18594.2875
438.2966	18847.5875
442.41849	19212.4875
446.53742	19794.8875
450.6534	20445.0875
454.76644	20895.6875
458.87653	21013.6875
462.98368	20874.5875
467.08789	20642.5875
471.18916	20194.6875
475.2875	19815.8875
479.38291	19517.1875
483.4754	19243.5875
487.56496	18948.5875
491.6516	18633.9875
495.73531	18403.1875
499.81612	18354.2875
503.89401	18470.1875
507.96899	18581.4875
512.04106	18678.5875
516.11023	18804.6875
520.1765	18864.9875
524.23987	18777.2875
528.30034	18499.8875
532.35792	18167.9875
536.41261	17833.8875
540.46441	17496.6875
544.51333	17450.4875
548.55936	17661.5875
552.60252	18118.8875
556.64279	18678.5875
560.6802	18954.6875
564.71473	19217.9875
568.7464	19859.8875
572.7752	20341.2875
576.80114	20185.9875
580.82422	19863.0875
584.84444	19781.4875
588.86181	19820.9875
592.87633	19950.9875
596.888	20242.8875
600.89682	20734.8875
604.9028	22549.0875
608.90594	27003.3875
612.90624	32467.2875
616.90371	30549.7875
620.89834	22666.5875
624.89015	19289.4875
628.87913	18799.7875
632.86528	18820.3875
636.84862	18736.4875
640.82913	18314.1875
644.80683	17527.7875
648.78172	17047.4875
652.75379	17103.5875
656.72306	17610.8875
660.68952	18305.1875
664.65319	18234.0875
668.61405	17536.8875
672.57211	17220.2875
676.52738	17205.4875
680.47986	17178.0875
684.42955	17082.6875
688.37646	17056.0875
692.32058	17115.3875
696.26192	17336.1875
700.20048	17589.1875
704.13626	17765.1875
708.06928	17734.8875
711.99952	17568.1875
715.927	17462.5875
719.85171	17469.7875
723.77365	17388.7875
727.69284	17159.7875
731.60928	16976.2875
735.52295	16945.8875
739.43388	16984.9875
743.34206	17105.5875
747.24749	17204.4875
751.15017	17426.8875
755.05012	17844.3875
758.94733	18635.1875
762.8418	20315.6875
766.73354	23057.9875
770.62254	25819.9875
774.50882	26867.9875
778.39237	25357.6875
782.27321	22383.5875
786.15132	19764.8875
790.02671	18205.0875
793.89938	17510.4875
797.76935	17227.8875
801.6366	17111.2875
805.50115	17004.2875
809.36299	16884.2875
813.22213	16774.5875
817.07857	16742.6875
820.93231	16753.1875
824.78336	16759.8875
828.63172	16844.3875
832.47738	16881.6875
836.32036	16906.9875
840.16066	16912.7875
843.99827	16893.1875
847.8332	16852.8875
851.66546	16761.5875
855.49504	16743.0875
859.32195	16690.4875
863.1462	16604.3875
866.96777	16475.5875
870.78668	16442.2875
874.60293	16450.2875
878.41652	16491.5875
882.22745	16602.1875
886.03573	16660.9875
889.84136	16583.2875
893.64433	16487.6875
897.44466	16460.5875
901.24235	16439.8875
905.0374	16374.4875
908.8298	16370.7875
912.61957	16420.7875
916.40671	16555.3875
920.19121	16810.4875
923.97308	17066.4875
927.75233	17224.9875
931.52895	17273.9875
935.30295	17104.3875
939.07433	16615.2875
942.84309	16200.3875
946.60924	16006.7875
950.37278	15915.5875
954.13371	15834.3875
957.89203	15704.6875
961.64774	15629.3875
965.40086	15609.2875
969.15137	15554.4875
972.89929	15517.1875
976.64461	15487.3875
980.38733	15496.9875
984.12747	15607.8875
987.86502	15772.4875
991.59999	16000.0875
995.33237	16365.5875
999.06217	16943.1875
1002.78939	17655.1875
1006.51404	18146.7875
1010.23611	18461.2875
1013.95561	18717.4875
1017.67255	18696.9875
1021.38692	18435.3875
1025.09872	18247.8875
1028.80796	18445.0875
1032.51465	19037.7875
1036.21877	19599.4875
1039.92035	19614.4875
1043.61937	19286.0875
1047.31584	18658.3875
1051.00976	18096.1875
1054.70114	17796.0875
1058.38998	17762.3875
1062.07627	17845.5875
1065.76003	17901.7875
1069.44126	18007.3875
1073.11995	18185.2875
1076.79611	18353.5875
1080.46974	18571.8875
1084.14085	18903.1875
1087.80943	19221.4875
1091.47549	19376.6875
1095.13903	19168.2875
1098.80005	18645.2875
1102.45857	18118.1875
1106.11456	17886.6875
1109.76805	17928.8875
1113.41903	18178.9875
1117.06751	18570.6875
1120.71348	19080.6875
1124.35696	19624.2875
1127.99793	20072.0875
1131.63641	20130.0875
1135.2724	19588.4875
1138.90589	19005.7875
1142.5369	18641.4875
1146.16542	18400.8875
1149.79145	18323.1875
1153.415	18394.9875
1157.03607	18686.6875
1160.65467	19146.3875
1164.27079	19873.3875
1167.88443	21006.3875
1171.49561	22691.3875
1175.10432	25195.5875
1178.71056	28426.8875
1182.31434	31097.1875
1185.91565	32325.6875
1189.51451	32003.1875
1193.11091	30498.9875
1196.70485	28402.4875
1200.29634	26610.0875
1203.88538	25207.1875
1207.47197	23828.3875
1211.05612	22777.1875
1214.63782	22190.3875
1218.21708	22092.4875
1221.79391	22243.9875
1225.36829	22396.8875
1228.94024	22384.2875
1232.50976	22160.4875
1236.07685	21999.5875
1239.6415	21910.3875
1243.20374	21882.5875
1246.76355	21959.3875
1250.32093	22293.2875
1253.8759	22857.0875
1257.42845	23688.6875
1260.97859	24461.1875
1264.52631	25127.8875
1268.07163	25858.7875
1271.61453	26629.4875
1275.15503	27424.9875
1278.69312	28123.7875
1282.22882	28692.1875
1285.76211	29222.3875
1289.29301	29915.2875
1292.82151	30699.4875
1296.34761	31712.8875
1299.87133	33324.0875
1303.39266	35720.0875
1306.9116	39182.1875
1310.42815	43109.0875
1313.94233	45658.7875
1317.45412	45628.3875
1320.96354	43631.8875
1324.47058	41335.9875
1327.97525	39292.6875
1331.47754	37920.3875
1334.97747	37407.7875
1338.47502	37604.7875
1341.97022	38062.4875
1345.46305	38409.2875
1348.95352	38762.7875
1352.44163	39413.9875
1355.92738	41218.2875
1359.41078	44968.3875
1362.89183	48709.0875
1366.37053	47494.7875
1369.84688	41579.0875
1373.32088	35536.7875
1376.79254	31772.8875
1380.26186	29923.0875
1383.72883	29131.4875
1387.19347	28616.6875
1390.65578	28071.8875
1394.11575	27833.2875
1397.57339	27971.2875
1401.0287	28508.1875
1404.48168	29132.1875
1407.93234	29687.8875
1411.38068	29884.7875
1414.82669	29500.6875
1418.27039	28563.8875
1421.71177	27476.9875
1425.15083	26506.2875
1428.58758	25914.8875
1432.02203	25787.3875
1435.45416	26023.1875
1438.88399	26287.5875
1442.31151	26559.5875
1445.73673	26878.7875
1449.15965	27171.0875
1452.58027	27389.3875
1455.9986	27422.1875
1459.41463	27604.1875
1462.82837	27923.2875
1466.23982	28507.9875
1469.64898	29078.9875
1473.05586	29391.1875
1476.46045	29546.1875
1479.86276	29722.6875
1483.26279	29975.5875
1486.66054	30334.2875
1490.05602	30858.6875
1493.44922	31569.6875
1496.84016	32568.9875
1500.22882	34088.4875
1503.61521	36297.6875
1506.99934	39050.7875
1510.38121	41907.1875
1513.76081	43421.9875
1517.13816	42287.5875
1520.51324	38896.2875
1523.88607	35308.9875
1527.25665	32702.7875
1530.62498	31133.9875
1533.99105	30193.2875
1537.35488	29561.0875
1540.71647	29207.4875
1544.07581	28911.0875
1547.4329	28678.4875
1550.78776	28407.2875
1554.14038	28275.2875
1557.49077	28334.4875
1560.83892	28577.9875
1564.18484	28907.8875
1567.52853	29075.9875
1570.86999	29187.0875
1574.20922	29318.9875
1577.54624	29257.9875
1580.88103	28550.3875
1584.2136	27774.8875
1587.54395	27855.4875
1590.87208	29001.7875
1594.19801	31067.4875
1597.52172	33370.5875
1600.84321	34362.4875
1604.16251	33109.8875
1607.47959	30539.9875
1610.79447	27825.3875
1614.10715	25308.1875
1617.41763	23310.1875
1620.7259	21989.7875
1624.03199	21374.2875
1627.33587	21429.0875
1630.63757	22117.8875
1633.93707	23535.2875
1637.23439	25515.5875
1640.52951	27973.2875
1643.82246	30828.6875
1647.11321	33528.3875
1650.40179	34936.9875
1653.68819	33413.2875
1656.97241	29261.4875
1660.25446	24746.7875
1663.53433	21371.8875
1666.81203	19359.4875
1670.08756	18092.0875
1673.36092	17322.0875
1676.63211	16838.4875
1679.90115	16478.1875
1683.16801	16230.9875
1686.43272	16043.0875
1689.69527	15928.3875
1692.95567	15801.5875
1696.2139	15779.1875
1699.46999	15717.3875
1702.72392	15647.0875
1705.97571	15611.6875
1709.22535	15595.0875
1712.47284	15595.4875
1715.71819	15574.0875
1718.96139	15538.3875
1722.20246	15535.4875
1725.44139	15454.8875
1728.67818	15359.9875
1731.91284	15232.0875
1735.14537	15164.5875
1738.37576	15111.1875
1741.60403	15029.1875
1744.83017	14958.5875
1748.05418	14949.1875
1751.27607	14893.5875
1754.49584	14931.1875
1757.71349	14893.0875
1760.92903	14878.0875
1764.14244	14906.2875
1767.35375	14861.7875
1770.56294	14830.0875
1773.77002	14783.6875
1776.97499	14762.9875
1780.17785	14744.1875
1783.37861	14701.7875
1786.57727	14697.1875
1789.77382	14629.9875
1792.96828	14638.0875
1796.16064	14633.3875
1799.3509	14608.6875
1802.53907	14586.6875
1805.72514	14573.2875
1808.90913	14522.2875
1812.09102	14504.7875
1815.27083	14470.8875
1818.44856	14426.8875
1821.6242	14430.2875
1824.79776	14420.2875
1827.96924	14404.5875
1831.13864	14368.0875
1834.30597	14409.7875
1837.47122	14363.7875
1840.6344	14377.2875
1843.7955	14395.1875
1846.95454	14354.5875
1850.11151	14383.1875
1853.26642	14395.0875
1856.41926	14385.7875
1859.57004	14419.9875
1862.71876	14409.5875
1865.86542	14410.0875
1869.01003	14431.6875
1872.15258	14438.3875
1875.29308	14416.1875
1878.43152	14455.4875
1881.56792	14456.7875
1884.70227	14454.4875
1887.83457	14481.1875
1890.96482	14460.9875
1894.09304	14488.9875
1897.21921	14457.0875
1900.34335	14440.8875
1903.46544	14449.8875
1906.58551	14474.7875
1909.70353	14486.0875
1912.81953	14475.1875
1915.93349	14491.8875
1919.04543	14502.4875
1922.15534	14468.3875
1925.26322	14407.6875
1928.36908	14385.5875
1931.47292	14358.1875
1934.57473	14282.6875
1937.67453	14215.3875
1940.77232	14200.3875
1943.86808	14092.5875
1946.96184	14048.0875
1950.05358	13972.8875
1953.14331	13914.4875
1956.23103	13867.3875
1959.31675	13800.7875
1962.40046	13760.3875
1965.48217	13748.5875
1968.56188	13696.3875
1971.63959	13667.0875
1974.7153	13643.9875
1977.78901	13582.6875
1980.86073	13575.5875
1983.93046	13467.4875
1986.99819	13470.1875
1990.06394	13430.2875
1993.1277	13388.5875
1996.18947	13315.7875
1999.24925	13281.7875
2002.30706	13259.0875
2005.36288	13221.5875
2008.41672	13182.8875
2011.46859	13131.2875
2014.51848	13123.0875
2017.56639	13092.8875
2020.61233	13083.2875
2023.6563	13029.1875
2026.6983	13017.1875
2029.73833	12983.5875
2032.7764	12975.7875
2035.8125	12925.4875
2038.84664	12914.1875
2041.87881	12887.5875
2044.90903	12859.4875
2047.93729	12843.3875
2050.96359	12866.9875
2053.98794	12849.5875
2057.01034	12846.3875
2060.03078	12790.2875
2063.04927	12793.7875
2066.06582	12797.2875
2069.08042	12804.3875
2072.09307	12773.7875
2075.10378	12741.5875
2078.11255	12747.2875
2081.11938	12725.9875
2084.12426	12681.4875
2087.12722	12685.0875
2090.12824	12686.0875
2093.12732	12671.9875
2096.12447	12695.2875
2099.11969	12667.4875
2102.11299	12684.5875
2105.10435	12672.5875
2108.09379	12702.3875
2111.08131	12669.7875
2114.0669	12681.7875
2117.05057	12703.9875
2120.03233	12694.7875
2123.01216	12738.5875
2125.99008	12741.6875
2128.96609	12787.3875
2131.94018	12762.0875
2134.91236	12779.2875
2137.88263	12760.4875
2140.851	12804.8875
2143.81746	12806.4875
2146.78201	12788.4875
2149.74466	12780.6875
2152.7054	12805.2875
2155.66425	12786.3875
2158.6212	12787.3875
2161.57625	12759.5875
2164.52941	12756.3875
2167.48067	12758.2875
2170.43004	12749.3875
2173.37752	12756.3875
2176.32311	12749.0875
2179.26681	12751.7875
2182.20863	12738.2875
2185.14856	12739.7875
2188.08661	12754.3875
2191.02278	12779.4875
2193.95707	12763.5875
2196.88948	12757.2875
2199.82001	12767.8875
2202.74867	12764.3875
2205.67545	12757.8875
2208.60037	12734.7875
2211.52341	12730.6875
2214.44458	12733.1875
2217.36388	12740.3875
2220.28132	12712.8875
2223.1969	12669.3875
2226.11061	12676.5875
2229.02246	12619.9875
2231.93245	12608.0875
2234.84058	12591.9875
2237.74686	12564.0875
2240.65128	12527.5875
2243.55385	12538.6875
2246.45456	12510.6875
2249.35343	12514.7875
2252.25044	12496.5875
2255.14561	12479.6875
2258.03893	12499.3875
2260.93041	12465.8875
2263.82004	12401.2875
2266.70783	12401.3875
2269.59378	12352.8875
2272.4779	12305.1875
2275.36017	12264.0875
2278.24061	12275.4875
2281.11922	12243.3875
2283.996	12233.9875
2286.87094	12226.3875
2289.74405	12208.6875
2292.61534	12208.6875
2295.4848	12177.5875
2298.35243	12211.5875
2301.21824	12233.9875
2304.08223	12198.5875
2306.94439	12220.9875
2309.80474	12218.2875
2312.66327	12247.2875
2315.51999	12240.1875
2318.37489	12244.5875
2321.22797	12228.1875
2324.07925	12210.1875
2326.92871	12212.2875
2329.77637	12230.7875
2332.62222	12210.6875
2335.46626	12188.8875
2338.3085	12202.4875
2341.14893	12245.4875
2343.98756	12260.8875
2346.8244	12281.5875
2349.65943	12286.0875
2352.49267	12268.6875
2355.32411	12274.8875
2358.15376	12264.0875
2360.98161	12267.4875
2363.80768	12250.9875
2366.63195	12229.6875
2369.45444	12209.1875
2372.27514	12183.3875
2375.09405	12173.2875
2377.91118	12136.1875
2380.72652	12084.9875
2383.54009	12032.4875
2386.35187	11997.0875
2389.16188	11959.5875
2391.97011	11947.8875
2394.77657	11936.8875
2397.58125	11933.4875
2400.38416	11895.0875
2403.18529	11900.4875
2405.98466	11840.0875
2408.78226	11818.0875
2411.57809	11800.3875
2414.37216	11812.2875
2417.16446	11757.3875
2419.955	11754.7875
2422.74378	11750.8875
2425.5308	11741.2875
2428.31606	11718.4875
2431.09956	11731.5875
2433.88131	11718.1875
2436.6613	11729.0875
2439.43954	11739.0875
2442.21603	11709.8875
2444.99077	11745.4875
2447.76377	11701.6875
2450.53501	11678.7875
2453.30451	11679.0875
2456.07226	11703.2875
2458.83827	11698.4875
2461.60254	11673.5875
2464.36507	11708.2875
2467.12586	11697.4875
2469.88492	11681.3875
2472.64224	11708.4875
2475.39782	11709.0875
2478.15167	11722.7875
2480.90379	11748.7875
2483.65417	11792.0875
2486.40283	11773.7875
2489.14976	11788.1875
2491.89497	11784.5875
2494.63845	11839.0875
2497.3802	11821.9875
2500.12024	11802.4875
2502.85855	11805.7875
2505.59514	11795.9875
2508.33002	11750.8875
2511.06318	11726.1875
2513.79462	11700.8875
2516.52435	11701.9875
2519.25237	11674.2875
2521.97867	11644.1875
2524.70327	11619.2875
2527.42616	11627.3875
2530.14734	11662.3875
2532.86681	11623.3875
2535.58458	11636.5875
2538.30065	11636.0875
2541.01501	11624.0875
2543.72768	11639.0875
2546.43864	11626.9875
2549.14791	11624.0875
2551.85548	11611.3875
2554.56136	11583.9875
2557.26554	11579.9875
2559.96803	11567.1875
2562.66883	11535.3875
2565.36794	11542.1875
2568.06536	11530.5875
2570.7611	11523.0875
2573.45514	11524.2875
2576.14751	11508.1875
2578.83819	11511.8875
2581.52719	11512.1875
2584.21451	11486.2875
2586.90015	11512.3875
2589.58411	11521.0875
2592.2664	11507.5875
2594.94701	11475.8875
2597.62594	11483.5875
2600.30321	11485.4875
2602.9788	11490.8875
2605.65273	11450.3875
2608.32498	11487.1875
2610.99557	11498.9875
2613.66449	11492.8875
2616.33175	11493.1875
2618.99734	11524.4875
2621.66128	11499.9875
2624.32355	11520.9875
2626.98416	11521.1875
2629.64311	11514.7875
2632.30041	11520.9875
2634.95605	11499.7875
2637.61004	11480.4875
2640.26238	11452.0875
2642.91306	11418.9875
2645.56209	11429.4875
2648.20948	11400.2875
2650.85521	11411.7875
2653.4993	11403.3875
2656.14175	11396.6875
2658.78255	11393.6875
2661.42171	11409.7875
2664.05923	11430.3875
2666.6951	11435.8875
2669.32934	11457.5875
2671.96194	11471.2875
2674.59291	11481.5875
2677.22224	11484.4875
2679.84993	11482.2875
2682.476	11476.3875
2685.10043	11473.5875
2687.72324	11429.9875
2690.34441	11453.2875
2692.96396	11435.0875
2695.58188	11448.3875
2698.19818	11432.9875
2700.81285	11437.0875
2703.4259	11426.6875
2706.03733	11449.7875
2708.64714	11448.8875
2711.25533	11446.9875
2713.86191	11450.8875
2716.46687	11458.5875
2719.07021	11469.4875
2721.67194	11503.1875
2724.27206	11478.3875
2726.87057	11501.2875
2729.46747	11476.9875
2732.06276	11476.1875
2734.65644	11474.9875
2737.24852	11487.8875
2739.83899	11455.8875
2742.42786	11475.6875
2745.01513	11448.7875
2747.60079	11441.7875
2750.18486	11430.7875
2752.76733	11434.8875
2755.3482	11418.5875
2757.92747	11411.6875
2760.50515	11394.6875
2763.08123	11394.1875
2765.65573	11385.4875
2768.22863	11379.7875
2770.79994	11363.6875
2773.36967	11358.2875
2775.9378	11372.2875
2778.50435	11400.3875
2781.06932	11394.6875
2783.6327	11387.0875
2786.1945	11412.1875
2788.75471	11379.3875
2791.31335	11352.9875
2793.87041	11354.7875
2796.42589	11319.1875
2798.97979	11305.3875
2801.53212	11287.5875
2804.08288	11294.3875
2806.63206	11269.5875
2809.17967	11276.0875
2811.72571	11271.6875
2814.27018	11265.5875
2816.81308	11253.1875
2819.35442	11228.4875
2821.89419	11227.9875
2824.43239	11206.8875
2826.96904	11236.2875
2829.50412	11231.2875
2832.03763	11180.4875
2834.56959	11216.8875
2837.1	11196.5875
2839.62884	11236.1875
2842.15613	11231.6875
2844.68186	11249.6875
2847.20604	11257.1875
2849.72867	11307.4875
2852.24974	11317.3875
2854.76927	11275.6875
2857.28724	11250.6875
2859.80367	11211.2875
2862.31855	11240.8875
2864.83189	11200.2875
2867.34368	11185.1875
2869.85393	11199.4875
2872.36264	11212.0875
2874.8698	11194.9875
2877.37543	11197.2875
2879.87952	11205.9875
2882.38207	11191.2875
2884.88308	11165.0875
2887.38256	11189.8875
2889.88051	11177.3875
2892.37692	11184.0875
2894.8718	11182.6875
2897.36515	11200.4875
2899.85698	11209.5875
2902.34727	11215.6875
2904.83604	11200.3875
2907.32328	11276.6875
2909.809	11261.9875
2912.29319	11259.2875
2914.77587	11240.2875
2917.25702	11234.3875
2919.73665	11222.9875
2922.21476	11237.0875
2924.69136	11201.8875
2927.16644	11220.1875
2929.64	11177.5875
2932.11205	11154.1875
2934.58258	11145.4875
2937.05161	11142.4875
2939.51912	11127.4875
2941.98513	11085.2875
2944.44962	11055.7875
2946.91261	11028.0875
2949.37409	11053.3875
2951.83407	11038.8875
2954.29254	11016.7875
2956.74951	10985.9875
2959.20498	11004.4875
2961.65895	11003.6875
2964.11142	10995.2875
2966.56239	10971.1875
2969.01186	10950.3875
2971.45984	10935.2875
2973.90632	10926.2875
2976.35131	10893.7875
2978.7948	10849.9875
2981.23681	10844.3875
2983.67732	10819.2875
2986.11635	10792.4875
2988.55388	10732.5875
2990.98993	10740.5875
2993.4245	10729.0875
2995.85758	10706.0875
2998.28917	10677.9875
3000.71928	10666.7875
3003.14791	10644.3875
3005.57506	10651.6875
3008.00073	10603.3875
3010.42493	10493.3875
3012.84764	10518.7875
3015.26888	10556.6875
3017.68865	10502.8875
3020.10694	10513.8875
3022.52376	10475.4875
3024.9391	10460.3875
