Data from AgNP_FTO_APTES_UA_10uM_CRN_1uM_R6G_10uM_NaF_0.1M_Addition_RamanShift__31__13-28-50-537.txt Node

Date: Thu Feb 10 13:28:50 GMT 2022
User: TCL
Spectrometer: QEP01345
Trigger mode: 4
Integration Time (sec): 7.000000E0
Scans to average: 10
Electric dark correction enabled: true
Nonlinearity correction enabled: false
Boxcar width: 0
XAxis mode: Raman Shifts
Number of Pixels in Spectrum: 1044
>>>>>Begin Spectral Data<<<<<
46.04893	1.2875
50.45542	-0.7125
54.85868	-2.8125
59.25871	0.2875
63.6555	47.3875
68.04907	47.2875
72.43941	52.4875
76.82654	50.5875
81.21044	57.8875
85.59113	58.6875
89.96862	64.6875
94.34289	65.3875
98.71396	63.8875
103.08183	68.7875
107.4465	71.9875
111.80798	69.2875
116.16626	71.0875
120.52136	74.2875
124.87327	78.1875
129.222	77.0875
133.56755	80.7875
137.90993	85.7875
142.24913	88.0875
146.58517	97.8875
150.91804	113.2875
155.24774	130.4875
159.57429	159.1875
163.89768	200.0875
168.21792	259.8875
172.53501	349.0875
176.84895	479.7875
181.15975	666.7875
185.46741	927.4875
189.77193	1290.2875
194.07331	1711.5875
198.37157	2207.2875
202.6667	2710.1875
206.9587	3231.8875
211.24758	3750.2875
215.53334	4301.3875
219.81599	4951.7875
224.09553	5680.6875
228.37195	6477.4875
232.64527	7336.7875
236.91549	8185.3875
241.18261	8922.1875
245.44663	9478.9875
249.70755	9867.7875
253.96539	10203.1875
258.22014	10494.1875
262.4718	10805.1875
266.72039	11075.7875
270.96589	11236.5875
275.20832	11260.8875
279.44768	11134.7875
283.68397	10971.5875
287.91719	10910.5875
292.14735	10960.1875
296.37445	11295.1875
300.59849	11857.4875
304.81948	12564.7875
309.03742	13101.8875
313.25231	13129.2875
317.46415	12318.7875
321.67296	11107.4875
325.87872	10110.2875
330.08145	9598.4875
334.28114	9572.5875
338.47781	9753.2875
342.67145	10106.8875
346.86207	10694.8875
351.04966	11561.8875
355.23424	12520.7875
359.4158	13252.0875
363.59435	13526.7875
367.76989	13550.7875
371.94243	13433.2875
376.11196	13310.1875
380.27849	13123.3875
384.44203	12880.0875
388.60257	12611.3875
392.76012	12473.9875
396.91468	12609.1875
401.06626	12983.3875
405.21485	13340.1875
409.36047	12985.5875
413.50311	12072.9875
417.64277	11246.6875
421.77947	10749.1875
425.9132	10529.2875
430.04396	10512.0875
434.17176	10546.5875
438.2966	10719.8875
442.41849	10996.8875
446.53742	11418.0875
450.6534	11817.5875
454.76644	12053.6875
458.87653	12035.3875
462.98368	11855.9875
467.08789	11585.2875
471.18916	11237.0875
475.2875	10869.6875
479.38291	10554.0875
483.4754	10334.1875
487.56496	10189.0875
491.6516	10023.2875
495.73531	10027.3875
499.81612	10068.6875
503.89401	10221.4875
507.96899	10418.6875
512.04106	10648.9875
516.11023	10885.0875
520.1765	11044.3875
524.23987	10988.9875
528.30034	10748.3875
532.35792	10394.0875
536.41261	10052.5875
540.46441	9672.1875
544.51333	9522.7875
548.55936	9595.7875
552.60252	9885.9875
556.64279	10287.7875
560.6802	10477.7875
564.71473	10708.5875
568.7464	11368.2875
572.7752	11836.9875
576.80114	11441.2875
580.82422	10871.1875
584.84444	10634.4875
588.86181	10518.4875
592.87633	10521.7875
596.888	10672.8875
600.89682	11169.0875
604.9028	12889.6875
608.90594	17629.9875
612.90624	24222.7875
616.90371	23314.3875
620.89834	14897.5875
624.89015	10922.6875
628.87913	10190.9875
632.86528	10252.7875
636.84862	10511.6875
640.82913	10314.5875
644.80683	9672.3875
648.78172	9248.4875
652.75379	9314.2875
656.72306	9944.6875
660.68952	10695.1875
664.65319	10533.0875
668.61405	9782.6875
672.57211	9342.1875
676.52738	9288.8875
680.47986	9277.4875
684.42955	9189.8875
688.37646	9115.5875
692.32058	9170.2875
696.26192	9286.4875
700.20048	9475.9875
704.13626	9608.6875
708.06928	9627.0875
711.99952	9498.3875
715.927	9437.7875
719.85171	9450.9875
723.77365	9450.3875
727.69284	9315.9875
731.60928	9184.9875
735.52295	9200.2875
739.43388	9260.1875
743.34206	9308.0875
747.24749	9401.4875
751.15017	9496.6875
755.05012	9769.4875
758.94733	10423.5875
762.8418	11908.8875
766.73354	14591.8875
770.62254	17449.8875
774.50882	18938.8875
778.39237	18060.8875
782.27321	15148.7875
786.15132	12237.6875
790.02671	10536.0875
793.89938	9822.1875
797.76935	9500.0875
801.6366	9378.3875
805.50115	9278.0875
809.36299	9203.3875
813.22213	9138.7875
817.07857	9108.7875
820.93231	9110.3875
824.78336	9154.4875
828.63172	9211.3875
832.47738	9262.0875
836.32036	9209.4875
840.16066	9118.1875
843.99827	9081.8875
847.8332	9023.6875
851.66546	9005.3875
855.49504	9019.8875
859.32195	8997.9875
863.1462	8909.9875
866.96777	8859.0875
870.78668	8842.0875
874.60293	8869.4875
878.41652	8929.8875
882.22745	9014.1875
886.03573	9043.2875
889.84136	8993.3875
893.64433	8961.6875
897.44466	8920.4875
901.24235	8937.5875
905.0374	8924.2875
908.8298	8879.3875
912.61957	8870.1875
916.40671	8899.1875
920.19121	9002.9875
923.97308	9117.3875
927.75233	9315.8875
931.52895	9405.7875
935.30295	9292.5875
939.07433	8898.0875
942.84309	8589.9875
946.60924	8415.0875
950.37278	8322.1875
954.13371	8246.8875
957.89203	8219.3875
961.64774	8193.7875
965.40086	8182.8875
969.15137	8143.5875
972.89929	8122.8875
976.64461	8113.6875
980.38733	8115.1875
984.12747	8131.6875
987.86502	8167.4875
991.59999	8254.5875
995.33237	8374.4875
999.06217	8621.1875
1002.78939	8918.6875
1006.51404	9248.0875
1010.23611	9535.6875
1013.95561	9733.3875
1017.67255	9676.3875
1021.38692	9474.8875
1025.09872	9227.2875
1028.80796	9120.5875
1032.51465	9170.3875
1036.21877	9330.3875
1039.92035	9476.1875
1043.61937	9491.1875
1047.31584	9424.8875
1051.00976	9335.7875
1054.70114	9261.8875
1058.38998	9225.7875
1062.07627	9272.5875
1065.76003	9350.6875
1069.44126	9435.9875
1073.11995	9593.8875
1076.79611	9777.5875
1080.46974	9983.2875
1084.14085	10339.9875
1087.80943	10778.0875
1091.47549	10934.1875
1095.13903	10657.8875
1098.80005	10130.7875
1102.45857	9678.4875
1106.11456	9540.7875
1109.76805	9600.7875
1113.41903	9866.0875
1117.06751	10310.9875
1120.71348	10877.6875
1124.35696	11563.6875
1127.99793	12101.4875
1131.63641	12050.6875
1135.2724	11334.2875
1138.90589	10619.3875
1142.5369	10163.4875
1146.16542	9907.1875
1149.79145	9736.7875
1153.415	9734.4875
1157.03607	9871.2875
1160.65467	10153.0875
1164.27079	10651.4875
1167.88443	11369.2875
1171.49561	12599.3875
1175.10432	14700.3875
1178.71056	17502.7875
1182.31434	19434.2875
1185.91565	19806.6875
1189.51451	19140.8875
1193.11091	17661.6875
1196.70485	15817.9875
1200.29634	14553.0875
1203.88538	13573.6875
1207.47197	12496.5875
1211.05612	11610.3875
1214.63782	11118.8875
1218.21708	10986.5875
1221.79391	11000.7875
1225.36829	11153.0875
1228.94024	11256.3875
1232.50976	11357.8875
1236.07685	11412.5875
1239.6415	11413.5875
1243.20374	11395.0875
1246.76355	11436.1875
1250.32093	11583.3875
1253.8759	11910.9875
1257.42845	12376.1875
1260.97859	12894.8875
1264.52631	13427.9875
1268.07163	13939.8875
1271.61453	14404.2875
1275.15503	14793.2875
1278.69312	14871.7875
1282.22882	14964.2875
1285.76211	15347.0875
1289.29301	15918.3875
1292.82151	16515.3875
1296.34761	17139.1875
1299.87133	18034.1875
1303.39266	19692.1875
1306.9116	22407.9875
1310.42815	25626.4875
1313.94233	27658.0875
1317.45412	27252.1875
1320.96354	25297.9875
1324.47058	22902.5875
1327.97525	20796.5875
1331.47754	19471.4875
1334.97747	18926.8875
1338.47502	18918.1875
1341.97022	19303.3875
1345.46305	20076.5875
1348.95352	21397.0875
1352.44163	23297.0875
1355.92738	26007.9875
1359.41078	30398.4875
1362.89183	34664.2875
1366.37053	33689.2875
1369.84688	28023.0875
1373.32088	22357.8875
1376.79254	18786.9875
1380.26186	16958.0875
1383.72883	16099.2875
1387.19347	15387.7875
1390.65578	14645.5875
1394.11575	14086.0875
1397.57339	13812.8875
1401.0287	13859.8875
1404.48168	14084.3875
1407.93234	14391.8875
1411.38068	14591.7875
1414.82669	14586.9875
1418.27039	14325.2875
1421.71177	13940.1875
1425.15083	13570.7875
1428.58758	13325.5875
1432.02203	13370.3875
1435.45416	13492.5875
1438.88399	13579.7875
1442.31151	13580.9875
1445.73673	13652.7875
1449.15965	13773.4875
1452.58027	13732.3875
1455.9986	13614.9875
1459.41463	13568.2875
1462.82837	13683.7875
1466.23982	13960.0875
1469.64898	14310.8875
1473.05586	14542.6875
1476.46045	14731.8875
1479.86276	15021.4875
1483.26279	15458.2875
1486.66054	15938.8875
1490.05602	16630.3875
1493.44922	17595.4875
1496.84016	19030.1875
1500.22882	21280.5875
1503.61521	24210.8875
1506.99934	27644.8875
1510.38121	30990.0875
1513.76081	32661.7875
1517.13816	31073.0875
1520.51324	26961.9875
1523.88607	22549.5875
1527.25665	19519.1875
1530.62498	17695.2875
1533.99105	16678.6875
1537.35488	15955.6875
1540.71647	15535.2875
1544.07581	15338.4875
1547.4329	15225.5875
1550.78776	15095.2875
1554.14038	15048.2875
1557.49077	15171.2875
1560.83892	15547.9875
1564.18484	16097.6875
1567.52853	16702.3875
1570.86999	17179.8875
1574.20922	17504.9875
1577.54624	17399.0875
1580.88103	16420.1875
1584.2136	15042.3875
1587.54395	14439.5875
1590.87208	14718.0875
1594.19801	15780.2875
1597.52172	17168.6875
1600.84321	17768.0875
1604.16251	17036.0875
1607.47959	15668.6875
1610.79447	14231.8875
1614.10715	12847.7875
1617.41763	11753.1875
1620.7259	11143.6875
1624.03199	10849.6875
1627.33587	10916.1875
1630.63757	11261.0875
1633.93707	12005.3875
1637.23439	13136.8875
1640.52951	14678.2875
1643.82246	16801.3875
1647.11321	19338.7875
1650.40179	21280.7875
1653.68819	20820.0875
1656.97241	17796.5875
1660.25446	14265.2875
1663.53433	11779.5875
1666.81203	10282.7875
1670.08756	9450.9875
1673.36092	8969.0875
1676.63211	8642.5875
1679.90115	8438.9875
1683.16801	8300.3875
1686.43272	8197.9875
1689.69527	8097.6875
1692.95567	8053.4875
1696.2139	8021.4875
1699.46999	8024.9875
1702.72392	7992.5875
1705.97571	7958.8875
1709.22535	7944.8875
1712.47284	7925.4875
1715.71819	7972.6875
1718.96139	7968.7875
1722.20246	7949.0875
1725.44139	7905.7875
1728.67818	7846.2875
1731.91284	7735.0875
1735.14537	7640.7875
1738.37576	7617.2875
1741.60403	7557.2875
1744.83017	7541.7875
1748.05418	7508.8875
1751.27607	7495.3875
1754.49584	7464.1875
1757.71349	7450.0875
1760.92903	7434.5875
1764.14244	7450.0875
1767.35375	7424.5875
1770.56294	7388.3875
1773.77002	7378.9875
1776.97499	7338.7875
1780.17785	7302.2875
1783.37861	7307.8875
1786.57727	7287.1875
1789.77382	7248.2875
1792.96828	7240.5875
1796.16064	7189.8875
1799.3509	7221.4875
1802.53907	7230.9875
1805.72514	7177.2875
1808.90913	7154.5875
1812.09102	7123.2875
1815.27083	7116.4875
1818.44856	7084.8875
1821.6242	7093.0875
1824.79776	7080.4875
1827.96924	7054.9875
1831.13864	7038.4875
1834.30597	7040.1875
1837.47122	7040.5875
1840.6344	7044.7875
1843.7955	7044.6875
1846.95454	7015.0875
1850.11151	7019.3875
1853.26642	7014.8875
1856.41926	7031.1875
1859.57004	7053.9875
1862.71876	7052.2875
1865.86542	7054.5875
1869.01003	7054.5875
1872.15258	7051.7875
1875.29308	7087.1875
1878.43152	7076.6875
1881.56792	7102.6875
1884.70227	7099.7875
1887.83457	7108.6875
1890.96482	7114.6875
1894.09304	7098.4875
1897.21921	7107.6875
1900.34335	7127.5875
1903.46544	7126.7875
1906.58551	7141.8875
1909.70353	7141.5875
1912.81953	7142.9875
1915.93349	7144.4875
1919.04543	7138.7875
1922.15534	7126.7875
1925.26322	7093.7875
1928.36908	7066.5875
1931.47292	7046.5875
1934.57473	6985.2875
1937.67453	6935.2875
1940.77232	6902.6875
1943.86808	6856.7875
1946.96184	6807.8875
1950.05358	6775.1875
1953.14331	6744.6875
1956.23103	6695.2875
1959.31675	6687.5875
1962.40046	6653.1875
1965.48217	6618.3875
1968.56188	6622.0875
1971.63959	6578.1875
1974.7153	6589.1875
1977.78901	6559.5875
1980.86073	6534.1875
1983.93046	6503.2875
1986.99819	6474.2875
1990.06394	6447.6875
1993.1277	6450.1875
1996.18947	6399.9875
1999.24925	6402.1875
2002.30706	6369.8875
2005.36288	6323.4875
2008.41672	6319.3875
2011.46859	6286.3875
2014.51848	6277.6875
2017.56639	6262.9875
2020.61233	6253.8875
2023.6563	6225.1875
2026.6983	6215.0875
2029.73833	6208.0875
2032.7764	6175.9875
2035.8125	6163.7875
2038.84664	6139.2875
2041.87881	6125.1875
2044.90903	6103.1875
2047.93729	6120.4875
2050.96359	6108.3875
2053.98794	6109.9875
2057.01034	6082.1875
2060.03078	6075.6875
2063.04927	6072.1875
2066.06582	6064.6875
2069.08042	6035.6875
2072.09307	6024.9875
2075.10378	6012.2875
2078.11255	6024.3875
2081.11938	6012.7875
2084.12426	6014.3875
2087.12722	6027.7875
2090.12824	6006.5875
2093.12732	5993.6875
2096.12447	5998.8875
2099.11969	6002.7875
2102.11299	5993.3875
2105.10435	5999.6875
2108.09379	6014.0875
2111.08131	6010.0875
2114.0669	6011.1875
2117.05057	5991.7875
2120.03233	6027.6875
2123.01216	6015.6875
2125.99008	6028.9875
2128.96609	6014.0875
2131.94018	6023.2875
2134.91236	6027.1875
2137.88263	6018.6875
2140.851	6026.6875
2143.81746	6016.7875
2146.78201	6020.4875
2149.74466	5999.4875
2152.7054	5990.8875
2155.66425	5990.1875
2158.6212	5974.9875
2161.57625	5980.3875
2164.52941	5978.3875
2167.48067	5977.6875
2170.43004	5947.3875
2173.37752	5959.3875
2176.32311	5962.0875
2179.26681	5967.8875
2182.20863	5958.1875
2185.14856	5971.7875
2188.08661	5972.7875
2191.02278	5958.0875
2193.95707	5952.4875
2196.88948	5942.2875
2199.82001	5936.2875
2202.74867	5921.9875
2205.67545	5920.8875
2208.60037	5923.4875
2211.52341	5901.7875
2214.44458	5912.8875
2217.36388	5899.9875
2220.28132	5889.1875
2223.1969	5845.3875
2226.11061	5834.8875
2229.02246	5836.2875
2231.93245	5816.7875
2234.84058	5810.3875
2237.74686	5808.2875
2240.65128	5801.1875
2243.55385	5773.8875
2246.45456	5759.5875
2249.35343	5775.3875
2252.25044	5763.5875
2255.14561	5775.9875
2258.03893	5773.0875
2260.93041	5771.7875
2263.82004	5753.4875
2266.70783	5747.9875
2269.59378	5722.0875
2272.4779	5723.6875
2275.36017	5679.7875
2278.24061	5679.2875
2281.11922	5686.4875
2283.996	5656.4875
2286.87094	5645.5875
2289.74405	5610.3875
2292.61534	5622.7875
2295.4848	5589.8875
2298.35243	5600.5875
2301.21824	5590.6875
2304.08223	5604.9875
2306.94439	5587.1875
2309.80474	5589.9875
2312.66327	5579.5875
2315.51999	5596.2875
2318.37489	5574.7875
2321.22797	5565.9875
2324.07925	5578.4875
2326.92871	5562.4875
2329.77637	5579.4875
2332.62222	5554.0875
2335.46626	5532.3875
2338.3085	5552.9875
2341.14893	5546.4875
2343.98756	5546.1875
2346.8244	5539.8875
2349.65943	5559.5875
2352.49267	5574.2875
2355.32411	5590.2875
2358.15376	5590.2875
2360.98161	5603.8875
2363.80768	5625.5875
2366.63195	5617.5875
2369.45444	5627.1875
2372.27514	5610.3875
2375.09405	5614.6875
2377.91118	5591.8875
2380.72652	5538.0875
2383.54009	5526.2875
2386.35187	5500.0875
2389.16188	5466.8875
2391.97011	5439.0875
2394.77657	5426.7875
2397.58125	5406.0875
2400.38416	5380.4875
2403.18529	5380.1875
2405.98466	5363.2875
2408.78226	5344.6875
2411.57809	5345.3875
2414.37216	5348.7875
2417.16446	5308.1875
2419.955	5329.4875
2422.74378	5310.7875
2425.5308	5320.2875
2428.31606	5315.5875
2431.09956	5318.5875
2433.88131	5331.0875
2436.6613	5333.6875
2439.43954	5310.3875
2442.21603	5313.5875
2444.99077	5311.1875
2447.76377	5306.3875
2450.53501	5312.7875
2453.30451	5322.4875
2456.07226	5324.1875
2458.83827	5321.0875
2461.60254	5328.1875
2464.36507	5324.7875
2467.12586	5307.8875
2469.88492	5306.6875
2472.64224	5314.5875
2475.39782	5327.9875
2478.15167	5321.1875
2480.90379	5345.6875
2483.65417	5367.8875
2486.40283	5362.8875
2489.14976	5386.5875
2491.89497	5392.6875
2494.63845	5387.9875
2497.3802	5391.9875
2500.12024	5382.8875
2502.85855	5359.3875
2505.59514	5352.4875
2508.33002	5319.6875
2511.06318	5299.4875
2513.79462	5276.9875
2516.52435	5246.1875
2519.25237	5227.6875
2521.97867	5206.6875
2524.70327	5193.2875
2527.42616	5181.8875
2530.14734	5179.1875
2532.86681	5187.8875
2535.58458	5172.3875
2538.30065	5184.5875
2541.01501	5197.6875
2543.72768	5189.9875
2546.43864	5186.9875
2549.14791	5193.2875
2551.85548	5197.2875
2554.56136	5204.1875
2557.26554	5183.5875
2559.96803	5157.3875
2562.66883	5166.6875
2565.36794	5146.0875
2568.06536	5140.3875
2570.7611	5134.5875
2573.45514	5122.9875
2576.14751	5109.2875
2578.83819	5110.2875
2581.52719	5093.7875
2584.21451	5093.1875
2586.90015	5095.4875
2589.58411	5075.8875
2592.2664	5082.4875
2594.94701	5067.7875
2597.62594	5077.2875
2600.30321	5067.0875
2602.9788	5073.2875
2605.65273	5069.0875
2608.32498	5073.9875
2610.99557	5078.4875
2613.66449	5077.0875
2616.33175	5067.7875
2618.99734	5077.2875
2621.66128	5047.1875
2624.32355	5046.6875
2626.98416	5048.4875
2629.64311	5045.0875
2632.30041	5010.2875
2634.95605	5018.3875
2637.61004	5008.5875
2640.26238	4999.2875
2642.91306	5005.2875
2645.56209	4993.2875
2648.20948	4984.7875
2650.85521	4980.7875
2653.4993	4986.1875
2656.14175	4975.5875
2658.78255	4992.4875
2661.42171	4984.7875
2664.05923	4998.3875
2666.6951	5018.2875
2669.32934	5018.7875
2671.96194	5030.4875
2674.59291	5028.2875
2677.22224	5056.7875
2679.84993	5051.4875
2682.476	5048.7875
2685.10043	5042.1875
2687.72324	5023.7875
2690.34441	5035.8875
2692.96396	5040.7875
2695.58188	5015.5875
2698.19818	5008.3875
2700.81285	5006.9875
2703.4259	5025.0875
2706.03733	5011.6875
2708.64714	5012.9875
2711.25533	5027.2875
2713.86191	5022.0875
2716.46687	5027.3875
2719.07021	5040.5875
2721.67194	5048.9875
2724.27206	5055.3875
2726.87057	5047.5875
2729.46747	5040.8875
2732.06276	5044.2875
2734.65644	5044.5875
2737.24852	5043.0875
2739.83899	5025.9875
2742.42786	5014.2875
2745.01513	5011.8875
2747.60079	5017.6875
2750.18486	5004.6875
2752.76733	4999.3875
2755.3482	4997.3875
2757.92747	4994.5875
2760.50515	4972.4875
2763.08123	4967.9875
2765.65573	4956.3875
2768.22863	4955.2875
2770.79994	4946.9875
2773.36967	4939.5875
2775.9378	4941.7875
2778.50435	4935.0875
2781.06932	4937.9875
2783.6327	4937.9875
2786.1945	4954.4875
2788.75471	4942.2875
2791.31335	4944.6875
2793.87041	4923.7875
2796.42589	4931.0875
2798.97979	4927.6875
2801.53212	4914.2875
2804.08288	4916.8875
2806.63206	4928.7875
2809.17967	4906.0875
2811.72571	4920.7875
2814.27018	4904.0875
2816.81308	4909.2875
2819.35442	4919.7875
2821.89419	4921.8875
2824.43239	4946.1875
2826.96904	4956.7875
2829.50412	4947.3875
2832.03763	4951.2875
2834.56959	4959.0875
2837.1	4944.3875
2839.62884	4968.5875
2842.15613	5000.6875
2844.68186	5035.1875
2847.20604	5071.0875
2849.72867	5107.6875
2852.24974	5126.7875
2854.76927	5126.8875
2857.28724	5102.3875
2859.80367	5091.3875
2862.31855	5088.8875
2864.83189	5071.1875
2867.34368	5069.8875
2869.85393	5066.8875
2872.36264	5072.5875
2874.8698	5050.7875
2877.37543	5052.0875
2879.87952	5065.8875
2882.38207	5051.2875
2884.88308	5014.5875
2887.38256	5032.2875
2889.88051	5023.5875
2892.37692	5024.1875
2894.8718	5015.4875
2897.36515	5036.7875
2899.85698	5023.5875
2902.34727	5036.8875
2904.83604	5046.8875
2907.32328	5045.3875
2909.809	5040.1875
2912.29319	5021.2875
2914.77587	5030.0875
2917.25702	5027.3875
2919.73665	5026.8875
2922.21476	5030.9875
2924.69136	4997.0875
2927.16644	5012.7875
2929.64	4980.6875
2932.11205	4982.7875
2934.58258	4965.0875
2937.05161	4958.4875
2939.51912	4934.7875
2941.98513	4932.0875
2944.44962	4874.7875
2946.91261	4836.9875
2949.37409	4835.0875
2951.83407	4811.3875
2954.29254	4789.9875
2956.74951	4773.9875
2959.20498	4781.5875
2961.65895	4774.3875
2964.11142	4761.5875
2966.56239	4748.6875
2969.01186	4751.7875
2971.45984	4730.3875
2973.90632	4714.6875
2976.35131	4699.6875
2978.7948	4672.7875
2981.23681	4664.8875
2983.67732	4642.0875
2986.11635	4637.9875
2988.55388	4627.3875
2990.98993	4611.8875
2993.4245	4592.4875
2995.85758	4579.7875
2998.28917	4557.7875
3000.71928	4570.6875
3003.14791	4540.4875
3005.57506	4550.3875
3008.00073	4536.2875
3010.42493	4440.4875
3012.84764	4539.6875
3015.26888	4526.0875
3017.68865	4493.8875
3020.10694	4488.6875
3022.52376	4480.9875
3024.9391	4486.0875
3027.35298	4476.4875
3029.76539	4462.1875
3032.17632	4469.2875
3034.5858	4450.0875
3036.9938	4448.0875
3039.40034	4446.1875
3041.80542	4439.5875
3044.20903	4418.2875
3046.61118	4434.2875
3049.01187	4411.1875
3051.4111	4384.3875
3053.80888	4389.7875
3056.20519	4385.2875
3058.60005	4371.1875
3060.99345	4349.3875
3063.3854	4358.3875
3065.7759	4342.2875
3068.16494	4319.1875
3070.55254	4306.7875
3072.93868	4305.6875
3075.32338	4288.7875
3077.70662	4270.6875
3080.08842	4264.4875
3082.46878	4254.5875
3084.84769	4237.5875
3087.22515	4230.7875
3089.60118	4234.2875
3091.97576	4217.2875
3094.3489	4222.2875
