Data from AgNP_FTO_APTES_UA_10uM_CRN_200uM_R6G_10uM_NaF_0.1M_Addition_RamanShift__14__18-17-00-896.txt Node

Date: Thu Feb 10 18:17:00 GMT 2022
User: TCL
Spectrometer: QEP01345
Trigger mode: 4
Integration Time (sec): 7.000000E0
Scans to average: 10
Electric dark correction enabled: true
Nonlinearity correction enabled: false
Boxcar width: 0
XAxis mode: Raman Shifts
Number of Pixels in Spectrum: 1044
>>>>>Begin Spectral Data<<<<<
46.04893	-0.2375
50.45542	-0.1375
54.85868	-1.6375
59.25871	-1.6375
63.6555	50.0625
68.04907	49.6625
72.43941	56.2625
76.82654	54.8625
81.21044	59.7625
85.59113	60.1625
89.96862	63.3625
94.34289	66.7625
98.71396	69.3625
103.08183	67.2625
107.4465	72.8625
111.80798	72.8625
116.16626	76.5625
120.52136	76.3625
124.87327	85.8625
129.222	82.0625
133.56755	91.5625
137.90993	90.9625
142.24913	99.4625
146.58517	106.0625
150.91804	123.4625
155.24774	142.4625
159.57429	177.9625
163.89768	225.5625
168.21792	289.6625
172.53501	398.0625
176.84895	544.2625
181.15975	766.2625
185.46741	1070.0625
189.77193	1490.1625
194.07331	1998.2625
198.37157	2580.7625
202.6667	3192.4625
206.9587	3808.7625
211.24758	4406.4625
215.53334	4979.5625
219.81599	5597.8625
224.09553	6258.0625
228.37195	6967.9625
232.64527	7794.2625
236.91549	8661.6625
241.18261	9574.6625
245.44663	10454.3625
249.70755	11248.2625
253.96539	11982.2625
258.22014	12561.6625
262.4718	13033.5625
266.72039	13373.0625
270.96589	13559.2625
275.20832	13600.4625
279.44768	13573.4625
283.68397	13419.7625
287.91719	13316.8625
292.14735	13204.4625
296.37445	13166.1625
300.59849	13150.3625
304.81948	13108.0625
309.03742	13053.4625
313.25231	12924.5625
317.46415	12781.6625
321.67296	12572.7625
325.87872	12385.1625
330.08145	12338.4625
334.28114	12383.6625
338.47781	12491.8625
342.67145	12623.4625
346.86207	12748.3625
351.04966	12919.8625
355.23424	13063.2625
359.4158	13230.1625
363.59435	13389.9625
367.76989	13511.4625
371.94243	13581.0625
376.11196	13685.6625
380.27849	13783.9625
384.44203	13884.7625
388.60257	13946.7625
392.76012	14077.7625
396.91468	14221.9625
401.06626	14387.2625
405.21485	14500.4625
409.36047	14510.4625
413.50311	14424.5625
417.64277	14335.9625
421.77947	14381.8625
425.9132	14420.0625
430.04396	14488.6625
434.17176	14579.8625
438.2966	14686.4625
442.41849	14828.4625
446.53742	14978.9625
450.6534	15139.1625
454.76644	15329.0625
458.87653	15418.7625
462.98368	15450.2625
467.08789	15447.4625
471.18916	15407.5625
475.2875	15371.0625
479.38291	15298.8625
483.4754	15251.9625
487.56496	15210.8625
491.6516	15115.5625
495.73531	15041.1625
499.81612	15003.0625
503.89401	15023.9625
507.96899	15081.8625
512.04106	15104.4625
516.11023	15117.8625
520.1765	15040.5625
524.23987	15009.4625
528.30034	14931.3625
532.35792	14876.4625
536.41261	14830.5625
540.46441	14805.8625
544.51333	14798.8625
548.55936	14914.9625
552.60252	15075.6625
556.64279	15241.5625
560.6802	15376.5625
564.71473	15432.2625
568.7464	15534.7625
572.7752	15748.0625
576.80114	15965.7625
580.82422	16196.8625
584.84444	16324.4625
588.86181	16433.7625
592.87633	16438.4625
596.888	16420.5625
600.89682	16395.4625
604.9028	16561.6625
608.90594	17165.5625
612.90624	17905.7625
616.90371	17316.0625
620.89834	15905.9625
624.89015	15284.3625
628.87913	15230.0625
632.86528	15337.3625
636.84862	15446.8625
640.82913	15389.1625
644.80683	15201.7625
648.78172	15076.8625
652.75379	15032.7625
656.72306	15124.6625
660.68952	15254.5625
664.65319	15272.1625
668.61405	15161.2625
672.57211	15188.1625
676.52738	15244.0625
680.47986	15271.0625
684.42955	15238.2625
688.37646	15212.3625
692.32058	15218.3625
696.26192	15277.6625
700.20048	15376.8625
704.13626	15488.0625
708.06928	15520.1625
711.99952	15493.5625
715.927	15440.5625
719.85171	15415.7625
723.77365	15383.4625
727.69284	15332.3625
731.60928	15265.9625
735.52295	15197.7625
739.43388	15139.3625
743.34206	15153.6625
747.24749	15175.9625
751.15017	15256.1625
755.05012	15389.0625
758.94733	15580.9625
762.8418	15979.8625
766.73354	16562.4625
770.62254	17093.6625
774.50882	17260.1625
778.39237	16914.6625
782.27321	16342.4625
786.15132	15799.5625
790.02671	15455.7625
793.89938	15260.1625
797.76935	15155.0625
801.6366	15138.6625
805.50115	15103.7625
809.36299	15070.8625
813.22213	15032.4625
817.07857	15031.0625
820.93231	15028.2625
824.78336	15013.3625
828.63172	15006.9625
832.47738	15022.5625
836.32036	14990.4625
840.16066	14966.8625
843.99827	15006.8625
847.8332	14995.8625
851.66546	15025.2625
855.49504	15009.5625
859.32195	15039.4625
863.1462	15027.0625
866.96777	15026.7625
870.78668	15006.4625
874.60293	15018.4625
878.41652	15060.3625
882.22745	15077.8625
886.03573	15067.9625
889.84136	15102.8625
893.64433	15102.3625
897.44466	15088.8625
901.24235	15033.0625
905.0374	15025.9625
908.8298	15003.5625
912.61957	15042.7625
916.40671	15083.0625
920.19121	15178.4625
923.97308	15197.6625
927.75233	15162.9625
931.52895	15112.0625
935.30295	15027.1625
939.07433	14893.1625
942.84309	14781.0625
946.60924	14721.6625
950.37278	14636.3625
954.13371	14636.3625
957.89203	14606.6625
961.64774	14576.3625
965.40086	14566.5625
969.15137	14541.7625
972.89929	14525.8625
976.64461	14525.3625
980.38733	14466.2625
984.12747	14501.7625
987.86502	14514.8625
991.59999	14519.1625
995.33237	14574.1625
999.06217	14641.4625
1002.78939	14721.6625
1006.51404	14821.1625
1010.23611	14896.5625
1013.95561	14981.7625
1017.67255	15007.8625
1021.38692	14980.6625
1025.09872	14950.0625
1028.80796	14868.4625
1032.51465	14801.1625
1036.21877	14809.8625
1039.92035	14847.7625
1043.61937	14878.1625
1047.31584	14929.6625
1051.00976	14980.6625
1054.70114	15026.5625
1058.38998	15075.0625
1062.07627	15210.3625
1065.76003	15309.3625
1069.44126	15357.7625
1073.11995	15496.7625
1076.79611	15606.8625
1080.46974	15640.0625
1084.14085	15648.3625
1087.80943	15684.0625
1091.47549	15781.2625
1095.13903	15778.2625
1098.80005	15750.7625
1102.45857	15635.1625
1106.11456	15469.3625
1109.76805	15368.9625
1113.41903	15316.0625
1117.06751	15311.7625
1120.71348	15410.2625
1124.35696	15517.9625
1127.99793	15628.2625
1131.63641	15683.9625
1135.2724	15619.0625
1138.90589	15529.7625
1142.5369	15486.6625
1146.16542	15446.1625
1149.79145	15489.7625
1153.415	15520.9625
1157.03607	15612.7625
1160.65467	15769.2625
1164.27079	16002.3625
1167.88443	16310.2625
1171.49561	16728.7625
1175.10432	17203.7625
1178.71056	17803.6625
1182.31434	18428.8625
1185.91565	18864.8625
1189.51451	19087.8625
1193.11091	19073.6625
1196.70485	18780.7625
1200.29634	18431.4625
1203.88538	18072.2625
1207.47197	17753.1625
1211.05612	17477.1625
1214.63782	17200.3625
1218.21708	16966.8625
1221.79391	16748.2625
1225.36829	16535.9625
1228.94024	16421.0625
1232.50976	16380.7625
1236.07685	16335.8625
1239.6415	16380.0625
1243.20374	16422.4625
1246.76355	16458.6625
1250.32093	16558.0625
1253.8759	16689.6625
1257.42845	16874.0625
1260.97859	17112.1625
1264.52631	17341.8625
1268.07163	17559.1625
1271.61453	17691.8625
1275.15503	17873.0625
1278.69312	18069.5625
1282.22882	18224.6625
1285.76211	18398.1625
1289.29301	18669.2625
1292.82151	19017.2625
1296.34761	19397.2625
1299.87133	19842.1625
1303.39266	20335.4625
1306.9116	20809.3625
1310.42815	21206.0625
1313.94233	21449.7625
1317.45412	21378.5625
1320.96354	21297.6625
1324.47058	21192.5625
1327.97525	21088.0625
1331.47754	21085.0625
1334.97747	21190.1625
1338.47502	21366.5625
1341.97022	21656.6625
1345.46305	21915.1625
1348.95352	22086.2625
1352.44163	22096.2625
1355.92738	22121.4625
1359.41078	22115.6625
1362.89183	22206.1625
1366.37053	21810.4625
1369.84688	20772.7625
1373.32088	19619.6625
1376.79254	18724.6625
1380.26186	18301.0625
1383.72883	18108.8625
1387.19347	17962.2625
1390.65578	17842.5625
1394.11575	17736.9625
1397.57339	17644.7625
1401.0287	17571.9625
1404.48168	17571.8625
1407.93234	17483.3625
1411.38068	17356.9625
1414.82669	17115.0625
1418.27039	16812.5625
1421.71177	16508.5625
1425.15083	16247.0625
1428.58758	16082.7625
1432.02203	16034.6625
1435.45416	16115.5625
1438.88399	16214.3625
1442.31151	16334.1625
1445.73673	16411.1625
1449.15965	16543.0625
1452.58027	16640.4625
1455.9986	16712.3625
1459.41463	16850.1625
1462.82837	17011.6625
1466.23982	17190.0625
1469.64898	17371.5625
1473.05586	17509.3625
1476.46045	17566.1625
1479.86276	17597.7625
1483.26279	17601.1625
1486.66054	17590.6625
1490.05602	17727.2625
1493.44922	17933.6625
1496.84016	18269.2625
1500.22882	18756.1625
1503.61521	19365.1625
1506.99934	19991.2625
1510.38121	20383.6625
1513.76081	20359.4625
1517.13816	20056.7625
1520.51324	19603.5625
1523.88607	19172.0625
1527.25665	18915.7625
1530.62498	18750.1625
1533.99105	18622.0625
1537.35488	18437.7625
1540.71647	18190.6625
1544.07581	17983.9625
1547.4329	17736.0625
1550.78776	17501.3625
1554.14038	17365.9625
1557.49077	17306.6625
1560.83892	17277.0625
1564.18484	17343.2625
1567.52853	17394.3625
1570.86999	17427.5625
1574.20922	17550.1625
1577.54624	17601.8625
1580.88103	17542.9625
1584.2136	17391.9625
1587.54395	17394.9625
1590.87208	17487.9625
1594.19801	17785.7625
1597.52172	18183.1625
1600.84321	18351.6625
1604.16251	18087.4625
1607.47959	17642.5625
1610.79447	17108.1625
1614.10715	16532.0625
1617.41763	15946.9625
1620.7259	15462.6625
1624.03199	15123.0625
1627.33587	15015.0625
1630.63757	15069.6625
1633.93707	15300.3625
1637.23439	15805.9625
1640.52951	16539.5625
1643.82246	17490.9625
1647.11321	18470.6625
1650.40179	18892.9625
1653.68819	18618.1625
1656.97241	17666.2625
1660.25446	16464.3625
1663.53433	15441.4625
1666.81203	14655.6625
1670.08756	14118.2625
1673.36092	13762.7625
1676.63211	13528.7625
1679.90115	13344.1625
1683.16801	13223.1625
1686.43272	13145.3625
1689.69527	13081.1625
1692.95567	13033.3625
1696.2139	12995.9625
1699.46999	12967.8625
1702.72392	12945.1625
1705.97571	12899.5625
1709.22535	12848.5625
1712.47284	12839.2625
1715.71819	12827.1625
1718.96139	12804.8625
1722.20246	12768.6625
1725.44139	12761.2625
1728.67818	12677.0625
1731.91284	12633.3625
1735.14537	12566.1625
1738.37576	12563.4625
1741.60403	12534.8625
1744.83017	12502.6625
1748.05418	12472.8625
1751.27607	12472.5625
1754.49584	12441.3625
1757.71349	12466.9625
1760.92903	12454.9625
1764.14244	12427.1625
1767.35375	12412.7625
1770.56294	12403.3625
1773.77002	12386.2625
1776.97499	12346.6625
1780.17785	12319.0625
1783.37861	12274.4625
1786.57727	12233.2625
1789.77382	12215.9625
1792.96828	12197.1625
1796.16064	12183.6625
1799.3509	12147.0625
1802.53907	12097.3625
1805.72514	12095.3625
1808.90913	12068.8625
1812.09102	12058.8625
1815.27083	12022.1625
1818.44856	11990.1625
1821.6242	11979.1625
1824.79776	11956.2625
1827.96924	11964.8625
1831.13864	11931.4625
1834.30597	11912.6625
1837.47122	11912.8625
1840.6344	11886.5625
1843.7955	11858.5625
1846.95454	11855.2625
1850.11151	11849.3625
1853.26642	11848.1625
1856.41926	11829.0625
1859.57004	11831.1625
1862.71876	11807.0625
1865.86542	11810.3625
1869.01003	11771.4625
1872.15258	11746.8625
1875.29308	11745.6625
1878.43152	11715.1625
1881.56792	11720.0625
1884.70227	11693.6625
1887.83457	11672.0625
1890.96482	11638.9625
1894.09304	11617.1625
1897.21921	11595.4625
1900.34335	11578.2625
1903.46544	11567.8625
1906.58551	11559.2625
1909.70353	11545.5625
1912.81953	11520.2625
1915.93349	11515.1625
1919.04543	11441.7625
1922.15534	11442.9625
1925.26322	11414.6625
1928.36908	11392.9625
1931.47292	11376.6625
1934.57473	11375.9625
1937.67453	11316.3625
1940.77232	11311.6625
1943.86808	11244.8625
1946.96184	11237.3625
1950.05358	11215.2625
1953.14331	11175.0625
1956.23103	11128.3625
1959.31675	11094.5625
1962.40046	11051.2625
1965.48217	11048.5625
1968.56188	11004.1625
1971.63959	10957.9625
1974.7153	10904.2625
1977.78901	10862.0625
1980.86073	10850.5625
1983.93046	10823.8625
1986.99819	10795.2625
1990.06394	10793.9625
1993.1277	10728.3625
1996.18947	10689.2625
1999.24925	10691.1625
2002.30706	10643.6625
2005.36288	10592.5625
2008.41672	10559.3625
2011.46859	10538.1625
2014.51848	10518.8625
2017.56639	10500.7625
2020.61233	10424.7625
2023.6563	10403.0625
2026.6983	10400.2625
2029.73833	10359.2625
2032.7764	10312.7625
2035.8125	10302.2625
2038.84664	10258.8625
2041.87881	10234.9625
2044.90903	10207.7625
2047.93729	10208.4625
2050.96359	10183.7625
2053.98794	10139.6625
2057.01034	10155.8625
2060.03078	10120.3625
2063.04927	10121.4625
2066.06582	10129.9625
2069.08042	10114.4625
2072.09307	10087.3625
2075.10378	10087.7625
2078.11255	10118.9625
2081.11938	10087.8625
2084.12426	10078.0625
2087.12722	10085.0625
2090.12824	10034.6625
2093.12732	10056.4625
2096.12447	10055.2625
2099.11969	10059.7625
2102.11299	10042.0625
2105.10435	10042.3625
2108.09379	10044.2625
2111.08131	10049.3625
2114.0669	10059.2625
2117.05057	10046.8625
2120.03233	10071.0625
2123.01216	10095.1625
2125.99008	10080.1625
2128.96609	10059.0625
2131.94018	10074.8625
2134.91236	10109.7625
2137.88263	10084.3625
2140.851	10096.7625
2143.81746	10103.3625
2146.78201	10084.7625
2149.74466	10093.8625
2152.7054	10103.5625
2155.66425	10092.3625
2158.6212	10070.8625
2161.57625	10078.9625
2164.52941	10061.1625
2167.48067	10066.1625
2170.43004	10055.8625
2173.37752	10023.5625
2176.32311	10049.8625
2179.26681	10062.0625
2182.20863	10035.3625
2185.14856	10008.6625
2188.08661	10026.0625
2191.02278	10024.4625
2193.95707	10009.1625
2196.88948	10011.3625
2199.82001	9999.0625
2202.74867	10001.7625
2205.67545	9948.8625
2208.60037	9951.7625
2211.52341	9923.4625
2214.44458	9912.8625
2217.36388	9883.9625
2220.28132	9842.3625
2223.1969	9814.1625
2226.11061	9819.5625
2229.02246	9786.9625
2231.93245	9769.6625
2234.84058	9765.5625
2237.74686	9741.0625
2240.65128	9728.7625
2243.55385	9708.3625
2246.45456	9682.5625
2249.35343	9657.2625
2252.25044	9643.9625
2255.14561	9622.6625
2258.03893	9636.9625
2260.93041	9605.4625
2263.82004	9572.1625
2266.70783	9549.7625
2269.59378	9504.4625
2272.4779	9473.6625
2275.36017	9447.4625
2278.24061	9459.5625
2281.11922	9429.8625
2283.996	9409.7625
2286.87094	9414.1625
2289.74405	9392.5625
2292.61534	9383.6625
2295.4848	9369.4625
2298.35243	9357.8625
2301.21824	9355.6625
2304.08223	9337.2625
2306.94439	9349.8625
2309.80474	9306.3625
2312.66327	9305.9625
2315.51999	9303.4625
2318.37489	9305.5625
2321.22797	9243.8625
2324.07925	9226.9625
2326.92871	9256.8625
2329.77637	9216.8625
2332.62222	9194.3625
2335.46626	9157.1625
2338.3085	9167.2625
2341.14893	9144.1625
2343.98756	9118.2625
2346.8244	9118.0625
2349.65943	9113.5625
2352.49267	9099.4625
2355.32411	9104.1625
2358.15376	9068.4625
2360.98161	9083.0625
2363.80768	9078.6625
2366.63195	9066.5625
2369.45444	9050.0625
2372.27514	9035.1625
2375.09405	9031.6625
2377.91118	9041.4625
2380.72652	9001.0625
2383.54009	8985.2625
2386.35187	8961.9625
2389.16188	8919.7625
2391.97011	8876.4625
2394.77657	8872.3625
2397.58125	8854.3625
2400.38416	8840.5625
2403.18529	8828.0625
2405.98466	8818.1625
2408.78226	8784.8625
2411.57809	8779.2625
2414.37216	8742.3625
2417.16446	8750.2625
2419.955	8745.6625
2422.74378	8745.9625
2425.5308	8710.7625
2428.31606	8736.2625
2431.09956	8733.1625
2433.88131	8688.9625
2436.6613	8694.7625
2439.43954	8681.3625
2442.21603	8634.3625
2444.99077	8667.1625
2447.76377	8653.2625
2450.53501	8641.0625
2453.30451	8616.8625
2456.07226	8605.7625
2458.83827	8599.6625
2461.60254	8605.0625
2464.36507	8580.9625
2467.12586	8553.4625
2469.88492	8565.3625
2472.64224	8547.0625
2475.39782	8540.2625
2478.15167	8544.7625
2480.90379	8527.3625
2483.65417	8534.4625
2486.40283	8510.6625
2489.14976	8506.8625
2491.89497	8509.6625
2494.63845	8483.8625
2497.3802	8468.8625
2500.12024	8454.2625
2502.85855	8459.0625
2505.59514	8448.3625
2508.33002	8429.4625
2511.06318	8438.3625
2513.79462	8396.3625
2516.52435	8392.8625
2519.25237	8376.5625
2521.97867	8350.1625
2524.70327	8375.9625
2527.42616	8355.9625
2530.14734	8345.0625
2532.86681	8336.0625
2535.58458	8328.3625
2538.30065	8320.4625
2541.01501	8307.7625
2543.72768	8283.0625
2546.43864	8251.0625
2549.14791	8278.9625
2551.85548	8269.2625
2554.56136	8235.0625
2557.26554	8203.4625
2559.96803	8173.0625
2562.66883	8168.5625
2565.36794	8125.4625
2568.06536	8140.4625
2570.7611	8127.4625
2573.45514	8073.7625
2576.14751	8052.5625
2578.83819	8060.2625
2581.52719	8057.0625
2584.21451	8002.2625
2586.90015	8029.8625
2589.58411	7982.1625
2592.2664	7991.6625
2594.94701	7963.1625
2597.62594	7988.0625
2600.30321	7944.8625
2602.9788	7918.3625
2605.65273	7891.1625
2608.32498	7893.5625
2610.99557	7880.6625
2613.66449	7871.0625
2616.33175	7827.3625
2618.99734	7838.8625
2621.66128	7814.9625
2624.32355	7834.5625
2626.98416	7806.5625
2629.64311	7771.5625
2632.30041	7783.1625
2634.95605	7748.6625
2637.61004	7738.0625
2640.26238	7727.7625
2642.91306	7715.2625
2645.56209	7734.1625
2648.20948	7713.7625
2650.85521	7700.8625
2653.4993	7696.4625
2656.14175	7672.7625
2658.78255	7715.0625
2661.42171	7688.3625
2664.05923	7708.0625
2666.6951	7699.4625
2669.32934	7710.9625
2671.96194	7669.8625
2674.59291	7693.6625
2677.22224	7691.8625
2679.84993	7696.5625
2682.476	7663.9625
2685.10043	7668.3625
2687.72324	7649.2625
2690.34441	7659.4625
2692.96396	7654.9625
2695.58188	7654.6625
2698.19818	7618.2625
2700.81285	7629.1625
2703.4259	7653.9625
2706.03733	7634.2625
2708.64714	7636.7625
2711.25533	7643.9625
2713.86191	7634.8625
2716.46687	7648.2625
2719.07021	7618.9625
2721.67194	7642.3625
2724.27206	7610.8625
2726.87057	7620.9625
2729.46747	7644.2625
2732.06276	7611.8625
2734.65644	7615.5625
2737.24852	7625.5625
2739.83899	7579.8625
2742.42786	7605.7625
2745.01513	7553.5625
2747.60079	7531.6625
2750.18486	7543.1625
2752.76733	7523.9625
2755.3482	7505.1625
2757.92747	7514.2625
2760.50515	7473.0625
2763.08123	7458.3625
2765.65573	7453.8625
2768.22863	7455.0625
2770.79994	7445.6625
2773.36967	7447.8625
2775.9378	7416.7625
2778.50435	7405.9625
2781.06932	7413.7625
2783.6327	7391.8625
2786.1945	7403.6625
2788.75471	7368.1625
2791.31335	7376.7625
2793.87041	7363.3625
2796.42589	7348.2625
2798.97979	7348.0625
2801.53212	7288.5625
2804.08288	7308.3625
2806.63206	7289.9625
2809.17967	7244.2625
2811.72571	7217.8625
2814.27018	7211.5625
2816.81308	7185.9625
2819.35442	7155.5625
2821.89419	7162.6625
2824.43239	7163.3625
2826.96904	7138.2625
2829.50412	7144.5625
2832.03763	7128.4625
2834.56959	7137.7625
2837.1	7110.9625
2839.62884	7097.1625
2842.15613	7112.1625
2844.68186	7124.5625
2847.20604	7127.5625
2849.72867	7148.6625
2852.24974	7134.5625
2854.76927	7088.9625
2857.28724	7084.5625
2859.80367	7077.5625
2862.31855	7049.8625
2864.83189	7066.2625
2867.34368	7034.7625
2869.85393	7032.5625
2872.36264	7024.7625
2874.8698	7041.7625
2877.37543	7017.5625
2879.87952	7002.5625
2882.38207	6996.5625
2884.88308	6979.9625
2887.38256	7002.3625
2889.88051	6981.0625
2892.37692	6974.2625
2894.8718	6987.4625
2897.36515	6978.3625
2899.85698	6997.8625
2902.34727	6998.5625
2904.83604	6991.4625
2907.32328	7016.3625
2909.809	7007.1625
2912.29319	6987.3625
2914.77587	6977.7625
2917.25702	6981.1625
2919.73665	6971.1625
2922.21476	6982.3625
2924.69136	6971.0625
2927.16644	6964.7625
2929.64	6966.4625
2932.11205	6940.8625
2934.58258	6909.0625
2937.05161	6920.2625
2939.51912	6934.0625
2941.98513	6916.7625
2944.44962	6896.1625
2946.91261	6871.7625
2949.37409	6888.7625
2951.83407	6872.3625
2954.29254	6863.1625
2956.74951	6844.8625
2959.20498	6850.8625
2961.65895	6837.7625
2964.11142	6825.5625
2966.56239	6832.2625
2969.01186	6820.4625
2971.45984	6817.8625
2973.90632	6796.2625
2976.35131	6766.7625
2978.7948	6787.5625
2981.23681	6740.0625
2983.67732	6762.8625
2986.11635	6719.7625
2988.55388	6705.1625
2990.98993	6692.7625
2993.4245	6679.9625
2995.85758	6650.7625
2998.28917	6637.1625
3000.71928	6628.1625
3003.14791	6617.2625
3005.57506	6634.1625
3008.00073	6611.3625
3010.42493	6580.7625
3012.84764	6580.4625
3015.26888	6560.7625
3017.68865	6558.1625
3020.10694	6535.2625
3022.52376	6532.0625
3024.9391	6518.2625
3027.35298	6501.0625
3029.76539	6502.8625
3032.17632	6516.4625
3034.5858	6510.4625
3036.9938	6497.7625
3039.40034	6481.5625
3041.80542	6479.8625
3044.20903	6472.6625
3046.61118	6462.3625
3049.01187	6441.3625
3051.4111	6429.0625
3053.80888	6421.0625
3056.20519	6424.8625
3058.60005	6394.3625
3060.99345	6387.3625
