Data from AgNP_FTO_APTES_UA_10uM_CRN_1uM_R6G_10uM_NaF_0.1M_Addition_RamanShift__21__13-17-10-522.txt Node

Date: Thu Feb 10 13:17:10 GMT 2022
User: TCL
Spectrometer: QEP01345
Trigger mode: 4
Integration Time (sec): 7.000000E0
Scans to average: 10
Electric dark correction enabled: true
Nonlinearity correction enabled: false
Boxcar width: 0
XAxis mode: Raman Shifts
Number of Pixels in Spectrum: 1044
>>>>>Begin Spectral Data<<<<<
46.04893	0.675
50.45542	-0.925
54.85868	-1.925
59.25871	-1.625
63.6555	81.475
68.04907	87.975
72.43941	91.575
76.82654	87.875
81.21044	94.775
85.59113	94.575
89.96862	98.875
94.34289	106.275
98.71396	106.175
103.08183	114.375
107.4465	114.575
111.80798	111.475
116.16626	124.375
120.52136	123.875
124.87327	133.275
129.222	134.975
133.56755	145.475
137.90993	157.875
142.24913	170.875
146.58517	193.575
150.91804	227.075
155.24774	269.075
159.57429	336.775
163.89768	435.575
168.21792	579.975
172.53501	787.675
176.84895	1096.075
181.15975	1545.575
185.46741	2166.375
189.77193	3002.075
194.07331	4002.275
198.37157	5160.175
202.6667	6380.675
206.9587	7585.275
211.24758	8764.075
215.53334	9981.575
219.81599	11322.975
224.09553	12743.875
228.37195	14328.275
232.64527	16100.775
236.91549	17910.175
241.18261	19708.675
245.44663	21330.375
249.70755	22736.075
253.96539	23995.675
258.22014	25059.675
262.4718	26011.775
266.72039	26683.075
270.96589	27092.075
275.20832	27209.175
279.44768	27033.675
283.68397	26764.575
287.91719	26596.175
292.14735	26531.575
296.37445	26578.175
300.59849	26817.175
304.81948	27110.275
309.03742	27211.375
313.25231	26880.575
317.46415	26130.075
321.67296	25074.675
325.87872	24188.575
330.08145	23804.275
334.28114	23793.975
338.47781	24073.075
342.67145	24463.075
346.86207	25013.675
351.04966	25757.475
355.23424	26655.375
359.4158	27343.175
363.59435	27803.475
367.76989	28018.575
371.94243	28173.175
376.11196	28233.875
380.27849	28314.775
384.44203	28387.875
388.60257	28447.375
392.76012	28562.175
396.91468	28897.175
401.06626	29480.575
405.21485	29928.175
409.36047	29773.175
413.50311	29126.175
417.64277	28632.975
421.77947	28409.775
425.9132	28482.675
430.04396	28625.075
434.17176	28800.975
438.2966	29126.675
442.41849	29705.375
446.53742	30544.875
450.6534	31546.775
454.76644	32304.575
458.87653	32606.975
462.98368	32325.375
467.08789	31873.375
471.18916	31184.175
475.2875	30543.175
479.38291	30169.575
483.4754	29883.675
487.56496	29515.075
491.6516	29108.875
495.73531	28711.375
499.81612	28525.575
503.89401	28692.975
507.96899	28801.375
512.04106	28783.075
516.11023	28750.675
520.1765	28626.175
524.23987	28482.075
528.30034	28187.875
532.35792	27788.175
536.41261	27336.975
540.46441	26915.975
544.51333	26850.175
548.55936	27161.275
552.60252	27766.275
556.64279	28426.175
560.6802	28815.575
564.71473	29142.975
568.7464	29710.775
572.7752	30446.975
576.80114	30733.375
580.82422	30908.775
584.84444	31186.875
588.86181	31616.275
592.87633	32040.075
596.888	32389.975
600.89682	32679.075
604.9028	34229.075
608.90594	38595.575
612.90624	43794.475
616.90371	41278.375
620.89834	33180.475
624.89015	29630.675
628.87913	29221.975
632.86528	29087.275
636.84862	28703.975
640.82913	28019.875
644.80683	27097.575
648.78172	26407.875
652.75379	26325.475
656.72306	26853.575
660.68952	27566.475
664.65319	27524.875
668.61405	26865.275
672.57211	26562.475
676.52738	26547.475
680.47986	26527.275
684.42955	26443.075
688.37646	26426.475
692.32058	26591.175
696.26192	26902.975
700.20048	27273.975
704.13626	27466.775
708.06928	27283.575
711.99952	26964.675
715.927	26853.375
719.85171	26925.375
723.77365	26835.375
727.69284	26454.475
731.60928	26177.775
735.52295	26130.975
739.43388	26220.075
743.34206	26362.775
747.24749	26538.775
751.15017	26829.075
755.05012	27308.075
758.94733	28277.575
762.8418	30045.575
766.73354	32896.675
770.62254	35732.675
774.50882	36724.475
778.39237	34946.075
782.27321	31831.075
786.15132	29118.475
790.02671	27565.675
793.89938	26825.075
797.76935	26547.075
801.6366	26466.475
805.50115	26366.275
809.36299	26186.375
813.22213	25941.375
817.07857	25864.975
820.93231	25811.375
824.78336	25804.075
828.63172	25813.075
832.47738	25891.375
836.32036	25947.375
840.16066	26117.075
843.99827	26280.275
847.8332	26190.775
851.66546	25973.975
855.49504	25888.175
859.32195	25825.175
863.1462	25657.775
866.96777	25474.975
870.78668	25398.975
874.60293	25416.275
878.41652	25375.975
882.22745	25523.775
886.03573	25601.175
889.84136	25602.075
893.64433	25413.075
897.44466	25343.475
901.24235	25268.175
905.0374	25199.375
908.8298	25173.475
912.61957	25195.375
916.40671	25413.975
920.19121	25839.875
923.97308	26241.675
927.75233	26591.475
931.52895	26614.075
935.30295	26301.875
939.07433	25641.775
942.84309	25131.775
946.60924	24938.675
950.37278	24827.875
954.13371	24683.775
957.89203	24452.375
961.64774	24329.275
965.40086	24243.875
969.15137	24134.975
972.89929	24038.475
976.64461	23992.375
980.38733	24064.575
984.12747	24240.475
987.86502	24569.775
991.59999	25064.975
995.33237	25836.375
999.06217	27052.275
1002.78939	28406.875
1006.51404	29170.175
1010.23611	29445.375
1013.95561	29692.375
1017.67255	29661.975
1021.38692	29231.675
1025.09872	29014.875
1028.80796	29597.175
1032.51465	31103.775
1036.21877	32455.075
1039.92035	32581.875
1043.61937	31793.175
1047.31584	30380.775
1051.00976	28872.775
1054.70114	28110.675
1058.38998	27852.275
1062.07627	27767.375
1065.76003	27825.975
1069.44126	27885.575
1073.11995	28176.975
1076.79611	28536.875
1080.46974	28833.175
1084.14085	29191.775
1087.80943	29653.875
1091.47549	29888.175
1095.13903	29590.375
1098.80005	28964.375
1102.45857	28340.075
1106.11456	28028.175
1109.76805	27953.275
1113.41903	28189.675
1117.06751	28524.175
1120.71348	29008.875
1124.35696	29476.575
1127.99793	29876.775
1131.63641	29992.375
1135.2724	29652.675
1138.90589	29157.575
1142.5369	28855.075
1146.16542	28674.775
1149.79145	28636.575
1153.415	28835.675
1157.03607	29125.975
1160.65467	29765.775
1164.27079	30916.475
1167.88443	32683.075
1171.49561	35114.475
1175.10432	38439.375
1178.71056	42757.375
1182.31434	46764.775
1185.91565	48959.375
1189.51451	48942.975
1193.11091	46843.275
1196.70485	43957.975
1200.29634	41342.875
1203.88538	39392.975
1207.47197	37807.075
1211.05612	36613.475
1214.63782	35927.975
1218.21708	35755.075
1221.79391	35965.075
1225.36829	36243.975
1228.94024	36019.175
1232.50976	35403.275
1236.07685	34796.275
1239.6415	34447.275
1243.20374	34296.675
1246.76355	34407.175
1250.32093	34925.875
1253.8759	35900.975
1257.42845	37214.575
1260.97859	38386.575
1264.52631	39539.475
1268.07163	40745.675
1271.61453	42120.175
1275.15503	43720.975
1278.69312	45296.175
1282.22882	46553.775
1285.76211	47473.475
1289.29301	48312.875
1292.82151	49439.475
1296.34761	51090.275
1299.87133	53697.675
1303.39266	57426.875
1306.9116	62282.875
1310.42815	67398.675
1313.94233	70692.075
1317.45412	70693.075
1320.96354	68345.175
1324.47058	65542.375
1327.97525	63069.375
1331.47754	61329.075
1334.97747	60778.675
1338.47502	60923.375
1341.97022	61138.475
1345.46305	60774.675
1348.95352	60020.375
1352.44163	59728.875
1355.92738	61145.975
1359.41078	64943.975
1362.89183	68780.775
1366.37053	67373.575
1369.84688	60599.875
1373.32088	53213.175
1376.79254	48310.775
1380.26186	45994.775
1383.72883	45163.375
1387.19347	44571.675
1390.65578	43995.275
1394.11575	43802.275
1397.57339	44407.675
1401.0287	45455.775
1404.48168	46651.975
1407.93234	47503.675
1411.38068	47808.475
1414.82669	47083.575
1418.27039	45505.675
1421.71177	43626.775
1425.15083	42026.475
1428.58758	41099.575
1432.02203	41036.075
1435.45416	41541.075
1438.88399	42251.475
1442.31151	42883.975
1445.73673	43430.275
1449.15965	43946.975
1452.58027	44274.975
1455.9986	44376.375
1459.41463	44548.575
1462.82837	45209.775
1466.23982	46164.875
1469.64898	47159.875
1473.05586	47728.275
1476.46045	47926.575
1479.86276	47832.175
1483.26279	47742.675
1486.66054	47887.575
1490.05602	48399.475
1493.44922	48924.075
1496.84016	49558.075
1500.22882	50467.875
1503.61521	52110.175
1506.99934	54358.375
1510.38121	56805.775
1513.76081	57795.075
1517.13816	56355.675
1520.51324	53121.475
1523.88607	49945.975
1527.25665	47730.075
1530.62498	46410.175
1533.99105	45684.975
1537.35488	45178.075
1540.71647	44875.275
1544.07581	44438.375
1547.4329	43905.675
1550.78776	43409.875
1554.14038	43045.875
1557.49077	42807.575
1560.83892	42819.575
1564.18484	42814.575
1567.52853	42784.075
1570.86999	42813.775
1574.20922	43034.275
1577.54624	43183.675
1580.88103	42953.875
1584.2136	42893.075
1587.54395	43926.675
1590.87208	46426.075
1594.19801	50131.575
1597.52172	53949.275
1600.84321	55435.475
1604.16251	53141.375
1607.47959	48663.675
1610.79447	43932.575
1614.10715	39610.175
1617.41763	36225.275
1620.7259	34098.975
1624.03199	33141.475
1627.33587	33228.075
1630.63757	34442.175
1633.93707	36846.075
1637.23439	40270.075
1640.52951	44513.275
1643.82246	49097.475
1647.11321	52454.675
1650.40179	53021.975
1653.68819	49551.775
1656.97241	43214.075
1660.25446	36837.575
1663.53433	32150.575
1666.81203	29195.775
1670.08756	27373.575
1673.36092	26298.375
1676.63211	25493.275
1679.90115	24977.175
1683.16801	24576.575
1686.43272	24264.575
1689.69527	24074.375
1692.95567	23927.875
1696.2139	23816.475
1699.46999	23750.975
1702.72392	23681.875
1705.97571	23634.875
1709.22535	23619.975
1712.47284	23577.975
1715.71819	23553.175
1718.96139	23467.975
1722.20246	23349.375
1725.44139	23278.375
1728.67818	23106.475
1731.91284	22991.975
1735.14537	22869.475
1738.37576	22769.975
1741.60403	22671.875
1744.83017	22612.075
1748.05418	22554.075
1751.27607	22508.975
1754.49584	22464.775
1757.71349	22474.875
1760.92903	22441.175
1764.14244	22428.675
1767.35375	22392.475
1770.56294	22387.575
1773.77002	22316.975
1776.97499	22315.275
1780.17785	22241.975
1783.37861	22206.775
1786.57727	22193.675
1789.77382	22147.675
1792.96828	22119.875
1796.16064	22079.875
1799.3509	22099.475
1802.53907	22044.075
1805.72514	22010.775
1808.90913	21972.475
1812.09102	21910.475
1815.27083	21853.875
1818.44856	21821.675
1821.6242	21792.675
1824.79776	21765.475
1827.96924	21757.575
1831.13864	21767.375
1834.30597	21810.175
1837.47122	21814.075
1840.6344	21782.475
1843.7955	21802.375
1846.95454	21776.575
1850.11151	21768.175
1853.26642	21805.975
1856.41926	21797.375
1859.57004	21897.175
1862.71876	21857.975
1865.86542	21902.375
1869.01003	21834.475
1872.15258	21898.775
1875.29308	21904.175
1878.43152	21915.275
1881.56792	21932.675
1884.70227	21945.275
1887.83457	21935.875
1890.96482	21950.075
1894.09304	21922.575
1897.21921	21900.975
1900.34335	21929.075
1903.46544	21928.875
1906.58551	21924.875
1909.70353	21926.475
1912.81953	21907.175
1915.93349	21901.775
1919.04543	21858.475
1922.15534	21817.175
1925.26322	21722.575
1928.36908	21636.275
1931.47292	21587.875
1934.57473	21501.475
1937.67453	21428.275
1940.77232	21362.975
1943.86808	21248.175
1946.96184	21135.075
1950.05358	21055.375
1953.14331	20980.775
1956.23103	20874.175
1959.31675	20792.675
1962.40046	20745.675
1965.48217	20681.975
1968.56188	20616.475
1971.63959	20565.975
1974.7153	20502.575
1977.78901	20467.575
1980.86073	20352.375
1983.93046	20302.375
1986.99819	20226.875
1990.06394	20186.275
1993.1277	20100.875
1996.18947	20037.575
1999.24925	20010.275
2002.30706	19947.175
2005.36288	19898.175
2008.41672	19843.175
2011.46859	19802.775
2014.51848	19725.275
2017.56639	19692.275
2020.61233	19674.275
2023.6563	19607.775
2026.6983	19593.675
2029.73833	19564.675
2032.7764	19543.175
2035.8125	19472.575
2038.84664	19451.475
2041.87881	19446.475
2044.90903	19450.175
2047.93729	19414.375
2050.96359	19376.175
2053.98794	19371.175
2057.01034	19323.875
2060.03078	19300.375
2063.04927	19296.275
2066.06582	19266.875
2069.08042	19209.475
2072.09307	19221.875
2075.10378	19193.675
2078.11255	19183.975
2081.11938	19178.875
2084.12426	19148.975
2087.12722	19121.875
2090.12824	19119.675
2093.12732	19086.375
2096.12447	19100.375
2099.11969	19077.175
2102.11299	19108.575
2105.10435	19099.075
2108.09379	19105.775
2111.08131	19117.975
2114.0669	19127.375
2117.05057	19141.875
2120.03233	19158.375
2123.01216	19175.175
2125.99008	19184.275
2128.96609	19201.975
2131.94018	19209.775
2134.91236	19263.775
2137.88263	19254.875
2140.851	19276.375
2143.81746	19267.175
2146.78201	19261.375
2149.74466	19271.575
2152.7054	19249.775
2155.66425	19253.775
2158.6212	19248.875
2161.57625	19222.275
2164.52941	19198.175
2167.48067	19182.475
2170.43004	19211.675
2173.37752	19226.575
2176.32311	19210.075
2179.26681	19244.575
2182.20863	19207.075
2185.14856	19250.975
2188.08661	19236.475
2191.02278	19265.575
2193.95707	19248.975
2196.88948	19251.575
2199.82001	19282.875
2202.74867	19247.875
2205.67545	19312.975
2208.60037	19280.975
2211.52341	19250.775
2214.44458	19284.175
2217.36388	19257.675
2220.28132	19233.875
2223.1969	19183.875
2226.11061	19165.675
2229.02246	19131.475
2231.93245	19111.375
2234.84058	19045.575
2237.74686	18968.475
2240.65128	18973.075
2243.55385	18916.975
2246.45456	18880.075
2249.35343	18899.375
2252.25044	18860.375
2255.14561	18849.475
2258.03893	18845.775
2260.93041	18808.675
2263.82004	18752.475
2266.70783	18707.675
2269.59378	18638.675
2272.4779	18617.275
2275.36017	18539.475
2278.24061	18497.275
2281.11922	18521.275
2283.996	18502.975
2286.87094	18477.775
2289.74405	18438.375
2292.61534	18473.175
2295.4848	18447.275
2298.35243	18505.575
2301.21824	18472.975
2304.08223	18526.175
2306.94439	18526.875
2309.80474	18547.675
2312.66327	18567.575
2315.51999	18600.875
2318.37489	18588.975
2321.22797	18578.575
2324.07925	18626.875
2326.92871	18600.175
2329.77637	18544.475
2332.62222	18558.575
2335.46626	18572.675
2338.3085	18553.475
2341.14893	18591.175
2343.98756	18607.775
2346.8244	18661.775
2349.65943	18682.675
2352.49267	18653.575
2355.32411	18643.475
2358.15376	18646.875
2360.98161	18625.275
2363.80768	18616.175
2366.63195	18551.375
2369.45444	18523.175
2372.27514	18479.775
2375.09405	18446.775
2377.91118	18419.175
2380.72652	18310.375
2383.54009	18285.675
2386.35187	18247.375
2389.16188	18218.475
2391.97011	18178.775
2394.77657	18128.875
2397.58125	18148.375
2400.38416	18103.375
2403.18529	18081.875
2405.98466	18039.675
2408.78226	17959.475
2411.57809	17920.775
2414.37216	17923.175
2417.16446	17855.775
2419.955	17829.675
2422.74378	17826.175
2425.5308	17798.875
2428.31606	17836.975
2431.09956	17817.675
2433.88131	17766.875
2436.6613	17846.675
2439.43954	17846.775
2442.21603	17822.475
2444.99077	17782.675
2447.76377	17770.275
2450.53501	17812.075
2453.30451	17796.675
2456.07226	17768.375
2458.83827	17772.775
2461.60254	17805.675
2464.36507	17782.875
2467.12586	17788.175
2469.88492	17798.875
2472.64224	17808.675
2475.39782	17835.775
2478.15167	17852.975
2480.90379	17840.675
2483.65417	17894.575
2486.40283	17892.875
2489.14976	17923.375
2491.89497	17934.475
2494.63845	17967.175
2497.3802	17937.575
2500.12024	17963.375
2502.85855	17964.475
2505.59514	17938.175
2508.33002	17895.275
2511.06318	17862.775
2513.79462	17862.675
2516.52435	17801.975
2519.25237	17773.475
2521.97867	17785.475
2524.70327	17774.675
2527.42616	17783.175
2530.14734	17757.375
2532.86681	17754.975
2535.58458	17822.275
2538.30065	17789.875
2541.01501	17794.575
2543.72768	17806.075
2546.43864	17755.575
2549.14791	17753.775
2551.85548	17756.875
2554.56136	17775.375
2557.26554	17698.275
2559.96803	17685.375
2562.66883	17633.775
2565.36794	17637.675
2568.06536	17622.175
2570.7611	17625.275
2573.45514	17637.575
2576.14751	17607.475
2578.83819	17636.175
2581.52719	17647.875
2584.21451	17593.175
2586.90015	17616.675
2589.58411	17648.575
2592.2664	17676.675
2594.94701	17665.475
2597.62594	17656.475
2600.30321	17651.975
2602.9788	17620.975
2605.65273	17623.075
2608.32498	17617.375
2610.99557	17641.775
2613.66449	17660.075
2616.33175	17658.975
2618.99734	17656.575
2621.66128	17662.675
2624.32355	17667.875
2626.98416	17708.075
2629.64311	17669.475
2632.30041	17677.075
2634.95605	17647.575
2637.61004	17605.375
2640.26238	17594.975
2642.91306	17608.275
2645.56209	17608.575
2648.20948	17541.975
2650.85521	17516.275
2653.4993	17487.475
2656.14175	17472.175
2658.78255	17537.475
2661.42171	17554.575
2664.05923	17579.575
2666.6951	17579.675
2669.32934	17596.475
2671.96194	17633.875
2674.59291	17632.375
2677.22224	17604.875
2679.84993	17607.475
2682.476	17570.975
2685.10043	17587.775
2687.72324	17545.875
2690.34441	17521.875
2692.96396	17522.675
2695.58188	17497.475
2698.19818	17466.175
2700.81285	17491.675
2703.4259	17473.275
2706.03733	17450.775
2708.64714	17467.275
2711.25533	17495.175
2713.86191	17461.275
2716.46687	17516.975
2719.07021	17544.175
2721.67194	17564.775
2724.27206	17546.975
2726.87057	17535.175
2729.46747	17583.775
2732.06276	17562.075
2734.65644	17532.075
2737.24852	17569.375
2739.83899	17565.875
2742.42786	17583.875
2745.01513	17508.275
2747.60079	17512.275
2750.18486	17507.575
2752.76733	17517.075
2755.3482	17519.875
2757.92747	17551.875
2760.50515	17501.075
2763.08123	17473.275
2765.65573	17435.175
2768.22863	17472.575
2770.79994	17462.575
2773.36967	17437.975
2775.9378	17415.375
2778.50435	17464.275
2781.06932	17455.575
2783.6327	17479.675
2786.1945	17492.675
2788.75471	17471.375
2791.31335	17422.775
2793.87041	17428.775
2796.42589	17396.275
2798.97979	17375.675
2801.53212	17334.675
2804.08288	17336.375
2806.63206	17289.475
2809.17967	17247.075
2811.72571	17201.975
2814.27018	17228.075
2816.81308	17177.575
2819.35442	17169.875
2821.89419	17142.175
2824.43239	17166.975
2826.96904	17169.975
2829.50412	17195.975
2832.03763	17114.175
2834.56959	17146.775
2837.1	17078.175
2839.62884	17087.975
2842.15613	17100.075
2844.68186	17125.375
2847.20604	17110.675
2849.72867	17153.375
2852.24974	17128.975
2854.76927	17124.275
2857.28724	17088.475
2859.80367	17055.975
2862.31855	17060.875
2864.83189	17064.275
2867.34368	17027.075
2869.85393	17064.575
2872.36264	17026.875
2874.8698	17026.375
2877.37543	17043.175
2879.87952	17041.075
2882.38207	17039.475
2884.88308	17020.675
2887.38256	17022.975
2889.88051	16993.275
2892.37692	17035.475
2894.8718	17017.575
2897.36515	17087.275
2899.85698	17078.775
2902.34727	17109.675
2904.83604	17109.675
2907.32328	17177.175
2909.809	17148.275
2912.29319	17158.275
2914.77587	17164.175
2917.25702	17145.375
2919.73665	17112.975
2922.21476	17102.475
2924.69136	17065.875
2927.16644	17057.475
2929.64	17028.075
2932.11205	17048.575
2934.58258	16999.575
2937.05161	16964.775
2939.51912	16925.675
2941.98513	16970.475
2944.44962	16910.975
2946.91261	16859.575
2949.37409	16859.475
2951.83407	16897.975
2954.29254	16910.975
2956.74951	16860.075
2959.20498	16838.775
2961.65895	16805.775
2964.11142	16781.675
2966.56239	16760.275
2969.01186	16785.575
2971.45984	16697.775
2973.90632	16678.975
2976.35131	16618.875
2978.7948	16596.275
2981.23681	16567.375
2983.67732	16531.075
2986.11635	16495.775
2988.55388	16458.875
2990.98993	16397.875
2993.4245	16380.475
2995.85758	16344.875
2998.28917	16283.175
3000.71928	16284.575
3003.14791	16247.375
3005.57506	16242.975
3008.00073	16181.175
3010.42493	16039.075
3012.84764	16119.475
3015.26888	16083.175
3017.68865	16029.575
3020.10694	15985.075
3022.52376	15968.975
3024.9391	15964.775
3027.35298	15951.575
3029.76539	15937.575
3032.17632	15935.075
3034.5858	15889.675
3036.9938	15893.475
3039.40034	15889.775
3041.80542	15878.475
3044.20903	15860.075
3046.61118	15856.775
3049.01187	15816.275
3051.4111	15769.175
3053.80888	15751.375
3056.20519	15732.375
3058.60005	15664.075
3060.99345	15643.475
3063.3854	15614.275
3065.7759	15551.975
3068.16494	15494.175
3070.55254	15461.375
3072.93868	15452.675
3075.32338	15400.975
3077.70662	15405.175
3080.08842	15341.275
3082.46878	15338.575
3084.84769	15293.075
3087.22515	15286.675
3089.60118	15261.875
3091.97576	15262.275
3094.3489	15263.975
3096.72061	15237.575
3099.09087	15254.375
3101.4597	15225.775
3103.82709	15218.275
3106.19305	15192.975
3108.55757	15165.375
3110.92066	15129.075
3113.28232	15150.175
3115.64255	15104.375
3118.00134	15064.075
3120.35871	15044.975
3122.71466	15005.375
3125.06917	14999.775
3127.42226	14961.875
