Data from AgNP_FTO_APTES_UA_10uM_CRN_100uM_R6G_10uM_NaF_0.1M_Addition_RamanShift__2__17-26-50-834.txt Node

Date: Thu Feb 10 17:26:50 GMT 2022
User: TCL
Spectrometer: QEP01345
Trigger mode: 4
Integration Time (sec): 7.000000E0
Scans to average: 10
Electric dark correction enabled: true
Nonlinearity correction enabled: false
Boxcar width: 0
XAxis mode: Raman Shifts
Number of Pixels in Spectrum: 1044
>>>>>Begin Spectral Data<<<<<
46.04893	-0.5125
50.45542	0.3875
54.85868	-2.8125
59.25871	0.1875
63.6555	62.9875
68.04907	64.5875
72.43941	64.3875
76.82654	65.3875
81.21044	71.9875
85.59113	69.7875
89.96862	76.9875
94.34289	80.8875
98.71396	80.3875
103.08183	84.8875
107.4465	83.5875
111.80798	85.6875
116.16626	92.3875
120.52136	95.2875
124.87327	95.6875
129.222	100.5875
133.56755	106.0875
137.90993	111.2875
142.24913	122.3875
146.58517	135.9875
150.91804	161.2875
155.24774	187.5875
159.57429	229.7875
163.89768	290.0875
168.21792	389.1875
172.53501	524.6875
176.84895	728.2875
181.15975	1018.2875
185.46741	1437.9875
189.77193	1984.4875
194.07331	2658.7875
198.37157	3416.0875
202.6667	4234.2875
206.9587	5004.5875
211.24758	5786.4875
215.53334	6563.9875
219.81599	7383.7875
224.09553	8274.5875
228.37195	9268.5875
232.64527	10339.2875
236.91549	11466.6875
241.18261	12652.5875
245.44663	13748.0875
249.70755	14767.4875
253.96539	15673.8875
258.22014	16437.9875
262.4718	17075.8875
266.72039	17558.7875
270.96589	17767.9875
275.20832	17805.7875
279.44768	17730.6875
283.68397	17574.5875
287.91719	17420.7875
292.14735	17301.4875
296.37445	17291.1875
300.59849	17327.6875
304.81948	17386.3875
309.03742	17325.3875
313.25231	17140.1875
317.46415	16874.1875
321.67296	16536.5875
325.87872	16252.3875
330.08145	16108.5875
334.28114	16104.1875
338.47781	16216.2875
342.67145	16401.1875
346.86207	16617.7875
351.04966	16846.9875
355.23424	17136.7875
359.4158	17355.7875
363.59435	17602.3875
367.76989	17762.5875
371.94243	17873.1875
376.11196	17970.3875
380.27849	18091.0875
384.44203	18202.0875
388.60257	18350.2875
392.76012	18498.6875
396.91468	18712.7875
401.06626	18945.7875
405.21485	19146.6875
409.36047	19091.1875
413.50311	18900.2875
417.64277	18856.0875
421.77947	18855.2875
425.9132	18889.3875
430.04396	19011.8875
434.17176	19129.0875
438.2966	19184.1875
442.41849	19447.7875
446.53742	19830.6875
450.6534	20302.1875
454.76644	20675.0875
458.87653	20815.6875
462.98368	20702.2875
467.08789	20535.7875
471.18916	20347.9875
475.2875	20138.1875
479.38291	20032.4875
483.4754	19965.0875
487.56496	19739.8875
491.6516	19467.0875
495.73531	19255.8875
499.81612	19109.9875
503.89401	19169.0875
507.96899	19291.1875
512.04106	19231.1875
516.11023	19194.1875
520.1765	19031.3875
524.23987	18850.6875
528.30034	18723.6875
532.35792	18570.2875
536.41261	18423.1875
540.46441	18313.2875
544.51333	18369.6875
548.55936	18563.8875
552.60252	18885.6875
556.64279	19246.7875
560.6802	19433.9875
564.71473	19570.0875
568.7464	19804.4875
572.7752	20201.3875
576.80114	20678.1875
580.82422	21102.4875
584.84444	21653.3875
588.86181	22235.3875
592.87633	22588.2875
596.888	22359.7875
600.89682	21822.0875
604.9028	21829.8875
608.90594	22959.8875
612.90624	24172.1875
616.90371	22902.5875
620.89834	20163.4875
624.89015	19009.3875
628.87913	18905.0875
632.86528	18984.2875
636.84862	18885.6875
640.82913	18692.1875
644.80683	18361.8875
648.78172	18160.7875
652.75379	18159.9875
656.72306	18284.2875
660.68952	18509.2875
664.65319	18382.9875
668.61405	18177.6875
672.57211	18144.0875
676.52738	18172.9875
680.47986	18218.9875
684.42955	18157.3875
688.37646	18116.1875
692.32058	18202.5875
696.26192	18389.3875
700.20048	18600.2875
704.13626	18684.5875
708.06928	18673.4875
711.99952	18631.3875
715.927	18626.4875
719.85171	18646.2875
723.77365	18580.4875
727.69284	18448.0875
731.60928	18226.8875
735.52295	18172.9875
739.43388	18154.3875
743.34206	18208.8875
747.24749	18245.0875
751.15017	18394.1875
755.05012	18667.1875
758.94733	19101.9875
762.8418	19798.6875
766.73354	20748.3875
770.62254	21636.8875
774.50882	21835.4875
778.39237	21141.5875
782.27321	19944.8875
786.15132	19048.4875
790.02671	18498.1875
793.89938	18230.4875
797.76935	18116.1875
801.6366	18108.1875
805.50115	18066.0875
809.36299	17992.7875
813.22213	17896.0875
817.07857	17863.1875
820.93231	17778.9875
824.78336	17742.7875
828.63172	17687.6875
832.47738	17694.5875
836.32036	17713.2875
840.16066	17751.6875
843.99827	17777.8875
847.8332	17769.5875
851.66546	17689.4875
855.49504	17743.5875
859.32195	17711.5875
863.1462	17711.9875
866.96777	17676.6875
870.78668	17569.4875
874.60293	17647.5875
878.41652	17646.9875
882.22745	17628.0875
886.03573	17697.7875
889.84136	17675.1875
893.64433	17618.1875
897.44466	17571.7875
901.24235	17550.0875
905.0374	17487.0875
908.8298	17493.2875
912.61957	17515.6875
916.40671	17673.6875
920.19121	17874.0875
923.97308	17984.4875
927.75233	17968.3875
931.52895	17849.6875
935.30295	17637.8875
939.07433	17424.7875
942.84309	17235.6875
946.60924	17185.2875
950.37278	17111.2875
954.13371	17106.9875
957.89203	17085.4875
961.64774	17077.9875
965.40086	17006.3875
969.15137	16972.3875
972.89929	16926.9875
976.64461	16876.6875
980.38733	16890.1875
984.12747	16930.0875
987.86502	17021.5875
991.59999	17139.4875
995.33237	17334.5875
999.06217	17646.6875
1002.78939	17985.9875
1006.51404	18187.0875
1010.23611	18316.2875
1013.95561	18466.3875
1017.67255	18466.3875
1021.38692	18333.5875
1025.09872	18174.3875
1028.80796	18187.6875
1032.51465	18457.0875
1036.21877	18795.5875
1039.92035	18894.3875
1043.61937	18773.2875
1047.31584	18556.4875
1051.00976	18281.8875
1054.70114	18169.9875
1058.38998	18154.9875
1062.07627	18265.5875
1065.76003	18367.8875
1069.44126	18462.7875
1073.11995	18665.5875
1076.79611	18786.5875
1080.46974	18927.8875
1084.14085	19017.8875
1087.80943	19167.7875
1091.47549	19268.5875
1095.13903	19262.0875
1098.80005	19117.0875
1102.45857	18823.5875
1106.11456	18612.6875
1109.76805	18542.8875
1113.41903	18548.5875
1117.06751	18574.4875
1120.71348	18701.3875
1124.35696	18833.2875
1127.99793	19012.0875
1131.63641	19095.5875
1135.2724	19046.7875
1138.90589	18955.0875
1142.5369	18964.3875
1146.16542	19046.7875
1149.79145	19156.0875
1153.415	19269.0875
1157.03607	19559.6875
1160.65467	20062.5875
1164.27079	20831.2875
1167.88443	21746.8875
1171.49561	22685.1875
1175.10432	23795.8875
1178.71056	25151.1875
1182.31434	26500.4875
1185.91565	27202.8875
1189.51451	27125.0875
1193.11091	26466.8875
1196.70485	25698.2875
1200.29634	24951.8875
1203.88538	24523.3875
1207.47197	24291.5875
1211.05612	23983.4875
1214.63782	23537.5875
1218.21708	23007.6875
1221.79391	22419.6875
1225.36829	22038.9875
1228.94024	21704.5875
1232.50976	21423.8875
1236.07685	21179.1875
1239.6415	21121.7875
1243.20374	21227.0875
1246.76355	21399.3875
1250.32093	21683.4875
1253.8759	22048.2875
1257.42845	22512.6875
1260.97859	22945.3875
1264.52631	23449.8875
1268.07163	23996.7875
1271.61453	24578.9875
1275.15503	25191.4875
1278.69312	25813.0875
1282.22882	26401.1875
1285.76211	26998.9875
1289.29301	27794.8875
1292.82151	28963.6875
1296.34761	30401.8875
1299.87133	32043.8875
1303.39266	33804.9875
1306.9116	35334.7875
1310.42815	36503.9875
1313.94233	36896.8875
1317.45412	36563.2875
1320.96354	35878.9875
1324.47058	35400.9875
1327.97525	34994.9875
1331.47754	34666.9875
1334.97747	34491.1875
1338.47502	34180.3875
1341.97022	33775.1875
1345.46305	33306.1875
1348.95352	32985.6875
1352.44163	32975.7875
1355.92738	33514.3875
1359.41078	34622.1875
1362.89183	35455.3875
1366.37053	34811.0875
1369.84688	32222.1875
1373.32088	29289.5875
1376.79254	27310.3875
1380.26186	26654.8875
1383.72883	26712.2875
1387.19347	26837.0875
1390.65578	26681.0875
1394.11575	26575.5875
1397.57339	26820.8875
1401.0287	27281.2875
1404.48168	27589.3875
1407.93234	27524.4875
1411.38068	27056.2875
1414.82669	26181.0875
1418.27039	25194.5875
1421.71177	24181.3875
1425.15083	23413.5875
1428.58758	22996.6875
1432.02203	23185.2875
1435.45416	23703.0875
1438.88399	24334.4875
1442.31151	24850.8875
1445.73673	25194.4875
1449.15965	25368.4875
1452.58027	25456.6875
1455.9986	25401.0875
1459.41463	25492.0875
1462.82837	25773.5875
1466.23982	26132.9875
1469.64898	26517.3875
1473.05586	26771.4875
1476.46045	26841.5875
1479.86276	26712.3875
1483.26279	26421.5875
1486.66054	26247.2875
1490.05602	26250.1875
1493.44922	26395.7875
1496.84016	26611.1875
1500.22882	27008.4875
1503.61521	27657.8875
1506.99934	28472.1875
1510.38121	29110.4875
1513.76081	29227.5875
1517.13816	28830.0875
1520.51324	28025.5875
1523.88607	27535.6875
1527.25665	27292.3875
1530.62498	27308.7875
1533.99105	27299.8875
1537.35488	27057.7875
1540.71647	26588.4875
1544.07581	25982.2875
1547.4329	25353.6875
1550.78776	24807.2875
1554.14038	24436.6875
1557.49077	24170.5875
1560.83892	24067.8875
1564.18484	24018.1875
1567.52853	24091.3875
1570.86999	24326.4875
1574.20922	24739.7875
1577.54624	25121.2875
1580.88103	25331.3875
1584.2136	25699.4875
1587.54395	26364.0875
1590.87208	27563.5875
1594.19801	28979.5875
1597.52172	30160.6875
1600.84321	30274.5875
1604.16251	28994.7875
1607.47959	26957.7875
1610.79447	24901.4875
1614.10715	23049.3875
1617.41763	21638.0875
1620.7259	20714.3875
1624.03199	20277.6875
1627.33587	20312.7875
1630.63757	20804.1875
1633.93707	21886.4875
1637.23439	23644.9875
1640.52951	26144.5875
1643.82246	29010.4875
1647.11321	31265.2875
1650.40179	31427.0875
1653.68819	29381.5875
1656.97241	25960.2875
1660.25446	22758.4875
1663.53433	20390.2875
1666.81203	18834.1875
1670.08756	17857.7875
1673.36092	17220.4875
1676.63211	16815.4875
1679.90115	16555.9875
1683.16801	16317.3875
1686.43272	16182.3875
1689.69527	16071.0875
1692.95567	15955.3875
1696.2139	15910.8875
1699.46999	15846.8875
1702.72392	15828.0875
1705.97571	15757.9875
1709.22535	15717.6875
1712.47284	15700.3875
1715.71819	15680.9875
1718.96139	15656.4875
1722.20246	15596.8875
1725.44139	15537.0875
1728.67818	15463.2875
1731.91284	15374.5875
1735.14537	15293.0875
1738.37576	15285.3875
1741.60403	15229.2875
1744.83017	15167.1875
1748.05418	15132.2875
1751.27607	15133.3875
1754.49584	15117.7875
1757.71349	15124.4875
1760.92903	15081.3875
1764.14244	15093.8875
1767.35375	15039.6875
1770.56294	15047.5875
1773.77002	15015.8875
1776.97499	14980.1875
1780.17785	14954.5875
1783.37861	14916.4875
1786.57727	14886.9875
1789.77382	14887.5875
1792.96828	14861.2875
1796.16064	14825.0875
1799.3509	14788.9875
1802.53907	14772.6875
1805.72514	14737.1875
1808.90913	14711.6875
1812.09102	14672.8875
1815.27083	14655.4875
1818.44856	14617.9875
1821.6242	14606.4875
1824.79776	14582.4875
1827.96924	14587.2875
1831.13864	14573.0875
1834.30597	14566.5875
1837.47122	14613.0875
1840.6344	14552.2875
1843.7955	14559.8875
1846.95454	14518.0875
1850.11151	14505.0875
1853.26642	14487.2875
1856.41926	14508.6875
1859.57004	14501.4875
1862.71876	14499.2875
1865.86542	14456.3875
1869.01003	14443.1875
1872.15258	14440.0875
1875.29308	14443.0875
1878.43152	14405.7875
1881.56792	14387.7875
1884.70227	14393.4875
1887.83457	14354.4875
1890.96482	14339.1875
1894.09304	14305.6875
1897.21921	14288.2875
1900.34335	14278.2875
1903.46544	14237.1875
1906.58551	14246.9875
1909.70353	14207.9875
1912.81953	14177.3875
1915.93349	14177.3875
1919.04543	14184.9875
1922.15534	14132.0875
1925.26322	14082.8875
1928.36908	14085.1875
1931.47292	14063.6875
1934.57473	14044.7875
1937.67453	14039.5875
1940.77232	13991.9875
1943.86808	13922.4875
1946.96184	13881.9875
1950.05358	13837.7875
1953.14331	13837.7875
1956.23103	13781.7875
1959.31675	13755.2875
1962.40046	13690.6875
1965.48217	13674.4875
1968.56188	13615.4875
1971.63959	13603.3875
1974.7153	13542.5875
1977.78901	13514.2875
1980.86073	13473.6875
1983.93046	13449.7875
1986.99819	13412.1875
1990.06394	13375.3875
1993.1277	13342.9875
1996.18947	13300.9875
1999.24925	13267.4875
2002.30706	13194.7875
2005.36288	13204.7875
2008.41672	13157.0875
2011.46859	13108.2875
2014.51848	13092.9875
2017.56639	13063.8875
2020.61233	13023.9875
2023.6563	12999.4875
2026.6983	12947.5875
2029.73833	12936.5875
2032.7764	12913.5875
2035.8125	12880.4875
2038.84664	12846.7875
2041.87881	12841.3875
2044.90903	12818.3875
2047.93729	12784.2875
2050.96359	12786.8875
2053.98794	12753.4875
2057.01034	12743.6875
2060.03078	12735.1875
2063.04927	12731.9875
2066.06582	12739.3875
2069.08042	12727.4875
2072.09307	12715.7875
2075.10378	12680.3875
2078.11255	12679.9875
2081.11938	12649.9875
2084.12426	12670.6875
2087.12722	12646.4875
2090.12824	12638.8875
2093.12732	12665.9875
2096.12447	12632.2875
2099.11969	12648.6875
2102.11299	12638.2875
2105.10435	12637.6875
2108.09379	12675.4875
2111.08131	12675.6875
2114.0669	12679.9875
2117.05057	12714.0875
2120.03233	12693.4875
2123.01216	12722.2875
2125.99008	12711.8875
2128.96609	12710.5875
2131.94018	12727.9875
2134.91236	12744.3875
2137.88263	12752.6875
2140.851	12746.9875
2143.81746	12761.9875
2146.78201	12779.4875
2149.74466	12782.0875
2152.7054	12772.1875
2155.66425	12759.1875
2158.6212	12786.0875
2161.57625	12758.3875
2164.52941	12748.1875
2167.48067	12741.3875
2170.43004	12743.2875
2173.37752	12730.4875
2176.32311	12734.4875
2179.26681	12747.3875
2182.20863	12714.8875
2185.14856	12755.3875
2188.08661	12737.3875
2191.02278	12758.0875
2193.95707	12734.9875
2196.88948	12731.0875
2199.82001	12738.9875
2202.74867	12718.4875
2205.67545	12687.0875
2208.60037	12690.1875
2211.52341	12629.8875
2214.44458	12670.4875
2217.36388	12650.3875
2220.28132	12624.9875
2223.1969	12601.3875
2226.11061	12592.9875
2229.02246	12556.9875
2231.93245	12504.0875
2234.84058	12515.1875
2237.74686	12496.4875
2240.65128	12488.4875
2243.55385	12458.5875
2246.45456	12457.0875
2249.35343	12444.2875
2252.25044	12396.4875
2255.14561	12391.9875
2258.03893	12392.3875
2260.93041	12358.5875
2263.82004	12292.7875
2266.70783	12264.7875
2269.59378	12217.2875
2272.4779	12234.1875
2275.36017	12192.3875
2278.24061	12175.5875
2281.11922	12178.3875
2283.996	12169.8875
2286.87094	12115.4875
2289.74405	12134.6875
2292.61534	12122.9875
2295.4848	12127.7875
2298.35243	12094.6875
2301.21824	12104.5875
2304.08223	12101.5875
2306.94439	12102.3875
2309.80474	12113.8875
2312.66327	12094.5875
2315.51999	12094.8875
2318.37489	12110.7875
2321.22797	12054.7875
2324.07925	12088.0875
2326.92871	12031.6875
2329.77637	12034.3875
2332.62222	12039.0875
2335.46626	12020.4875
2338.3085	11994.8875
2341.14893	12000.2875
2343.98756	12000.2875
2346.8244	11978.9875
2349.65943	11958.6875
2352.49267	11979.2875
2355.32411	11994.9875
2358.15376	11977.8875
2360.98161	11939.8875
2363.80768	11934.6875
2366.63195	11928.9875
2369.45444	11911.8875
2372.27514	11888.5875
2375.09405	11881.2875
2377.91118	11854.8875
2380.72652	11816.1875
2383.54009	11800.7875
2386.35187	11780.7875
2389.16188	11747.4875
2391.97011	11732.8875
2394.77657	11717.6875
2397.58125	11699.1875
2400.38416	11699.6875
2403.18529	11679.0875
2405.98466	11671.5875
2408.78226	11619.2875
2411.57809	11631.1875
2414.37216	11618.5875
2417.16446	11621.8875
2419.955	11634.3875
2422.74378	11591.0875
2425.5308	11588.2875
2428.31606	11571.0875
2431.09956	11588.2875
2433.88131	11574.9875
2436.6613	11571.4875
2439.43954	11564.9875
2442.21603	11559.0875
2444.99077	11558.5875
2447.76377	11527.9875
2450.53501	11515.5875
2453.30451	11511.9875
2456.07226	11495.8875
2458.83827	11488.2875
2461.60254	11500.4875
2464.36507	11477.3875
2467.12586	11480.0875
2469.88492	11479.9875
2472.64224	11496.9875
2475.39782	11480.7875
2478.15167	11510.3875
2480.90379	11488.6875
2483.65417	11490.6875
2486.40283	11508.8875
2489.14976	11515.4875
2491.89497	11515.1875
2494.63845	11480.5875
2497.3802	11505.8875
2500.12024	11490.7875
2502.85855	11471.7875
2505.59514	11456.8875
2508.33002	11461.9875
2511.06318	11461.4875
2513.79462	11443.9875
2516.52435	11441.9875
2519.25237	11429.9875
2521.97867	11397.5875
2524.70327	11428.5875
2527.42616	11425.7875
2530.14734	11390.1875
2532.86681	11383.0875
2535.58458	11392.6875
2538.30065	11408.6875
2541.01501	11383.8875
2543.72768	11366.7875
2546.43864	11380.8875
2549.14791	11373.2875
2551.85548	11360.4875
2554.56136	11334.5875
2557.26554	11327.2875
2559.96803	11288.0875
2562.66883	11290.1875
2565.36794	11256.6875
2568.06536	11246.9875
2570.7611	11258.9875
2573.45514	11247.6875
2576.14751	11215.1875
2578.83819	11215.3875
2581.52719	11180.3875
2584.21451	11186.7875
2586.90015	11191.2875
2589.58411	11204.8875
2592.2664	11169.2875
2594.94701	11162.4875
2597.62594	11162.3875
2600.30321	11144.1875
2602.9788	11110.2875
2605.65273	11117.1875
2608.32498	11120.5875
2610.99557	11080.3875
2613.66449	11098.6875
2616.33175	11097.4875
2618.99734	11099.3875
2621.66128	11104.0875
2624.32355	11079.0875
2626.98416	11106.5875
2629.64311	11080.6875
2632.30041	11033.5875
2634.95605	11050.7875
2637.61004	11031.3875
2640.26238	11028.5875
2642.91306	10997.2875
2645.56209	10988.3875
2648.20948	11026.3875
2650.85521	10993.4875
2653.4993	10988.5875
2656.14175	10992.7875
2658.78255	10988.2875
2661.42171	11016.9875
2664.05923	11013.5875
2666.6951	11038.7875
2669.32934	11031.0875
2671.96194	11033.7875
2674.59291	11082.0875
2677.22224	11048.8875
2679.84993	11081.4875
2682.476	11046.2875
2685.10043	11051.9875
2687.72324	10988.3875
2690.34441	11013.6875
2692.96396	11035.2875
2695.58188	11023.8875
2698.19818	10991.7875
2700.81285	11035.0875
2703.4259	11030.9875
2706.03733	11014.2875
2708.64714	11028.2875
2711.25533	11031.0875
2713.86191	11028.9875
2716.46687	11047.2875
2719.07021	11049.1875
2721.67194	11068.5875
2724.27206	11036.6875
2726.87057	11065.0875
2729.46747	11054.2875
2732.06276	11095.2875
2734.65644	11068.8875
2737.24852	11102.5875
2739.83899	11063.2875
2742.42786	11064.3875
2745.01513	11013.1875
2747.60079	11016.1875
2750.18486	11019.1875
2752.76733	10999.2875
2755.3482	11003.0875
2757.92747	11017.9875
2760.50515	10993.8875
2763.08123	10987.5875
2765.65573	10968.1875
2768.22863	10976.7875
2770.79994	10974.5875
2773.36967	10990.3875
2775.9378	10956.2875
2778.50435	10987.5875
2781.06932	10986.1875
2783.6327	10979.9875
2786.1945	10978.7875
2788.75471	10947.1875
2791.31335	10952.6875
2793.87041	10946.0875
2796.42589	10910.6875
2798.97979	10892.7875
2801.53212	10866.8875
2804.08288	10877.6875
2806.63206	10836.8875
2809.17967	10822.5875
2811.72571	10789.2875
2814.27018	10774.2875
2816.81308	10756.0875
2819.35442	10762.6875
2821.89419	10727.8875
2824.43239	10716.7875
2826.96904	10690.3875
2829.50412	10728.7875
2832.03763	10688.3875
2834.56959	10688.0875
2837.1	10677.9875
2839.62884	10671.1875
2842.15613	10688.8875
2844.68186	10702.2875
2847.20604	10710.9875
2849.72867	10698.5875
2852.24974	10737.8875
2854.76927	10699.8875
2857.28724	10657.3875
2859.80367	10661.9875
2862.31855	10649.3875
2864.83189	10629.3875
2867.34368	10619.3875
2869.85393	10616.9875
2872.36264	10602.1875
2874.8698	10620.1875
2877.37543	10602.4875
2879.87952	10587.0875
2882.38207	10582.7875
2884.88308	10606.0875
2887.38256	10602.3875
2889.88051	10621.4875
2892.37692	10602.1875
2894.8718	10609.5875
2897.36515	10626.8875
2899.85698	10652.1875
2902.34727	10654.3875
2904.83604	10670.7875
2907.32328	10674.8875
2909.809	10680.0875
2912.29319	10663.4875
2914.77587	10662.2875
2917.25702	10668.5875
2919.73665	10672.4875
2922.21476	10678.0875
2924.69136	10660.0875
2927.16644	10674.7875
2929.64	10624.7875
2932.11205	10628.1875
2934.58258	10618.0875
2937.05161	10636.6875
2939.51912	10635.1875
2941.98513	10630.1875
2944.44962	10588.9875
2946.91261	10535.1875
2949.37409	10556.4875
2951.83407	10549.1875
2954.29254	10548.4875
2956.74951	10539.7875
2959.20498	10527.6875
2961.65895	10555.6875
2964.11142	10561.2875
2966.56239	10531.0875
2969.01186	10533.8875
2971.45984	10513.1875
2973.90632	10499.5875
2976.35131	10499.9875
2978.7948	10479.1875
2981.23681	10458.7875
2983.67732	10414.5875
2986.11635	10407.9875
2988.55388	10396.6875
2990.98993	10368.2875
2993.4245	10357.0875
2995.85758	10343.3875
2998.28917	10316.3875
3000.71928	10312.5875
3003.14791	10278.1875
3005.57506	10284.6875
3008.00073	10263.2875
3010.42493	10230.1875
3012.84764	10224.7875
3015.26888	10203.0875
3017.68865	10180.5875
3020.10694	10180.0875
3022.52376	10155.3875
3024.9391	10156.2875
