Data from AgNP_FTO_APTES_UA_10uM_CRN_100uM_R6G_10uM_NaF_0.1M_Addition_RamanShift__17__17-44-20-855.txt Node

Date: Thu Feb 10 17:44:20 GMT 2022
User: TCL
Spectrometer: QEP01345
Trigger mode: 4
Integration Time (sec): 7.000000E0
Scans to average: 10
Electric dark correction enabled: true
Nonlinearity correction enabled: false
Boxcar width: 0
XAxis mode: Raman Shifts
Number of Pixels in Spectrum: 1044
>>>>>Begin Spectral Data<<<<<
46.04893	-0.4875
50.45542	-0.7875
54.85868	-2.1875
59.25871	-1.1875
63.6555	59.5125
68.04907	62.9125
72.43941	64.9125
76.82654	63.3125
81.21044	71.2125
85.59113	71.0125
89.96862	72.2125
94.34289	74.4125
98.71396	77.6125
103.08183	80.7125
107.4465	84.4125
111.80798	83.3125
116.16626	87.4125
120.52136	88.0125
124.87327	97.2125
129.222	102.4125
133.56755	105.8125
137.90993	111.3125
142.24913	119.1125
146.58517	134.6125
150.91804	153.2125
155.24774	181.6125
159.57429	220.5125
163.89768	280.0125
168.21792	368.9125
172.53501	500.5125
176.84895	690.6125
181.15975	985.5125
185.46741	1366.9125
189.77193	1901.0125
194.07331	2545.7125
198.37157	3277.9125
202.6667	4052.3125
206.9587	4823.3125
211.24758	5567.6125
215.53334	6300.2125
219.81599	7094.9125
224.09553	7951.0125
228.37195	8870.4125
232.64527	9898.5125
236.91549	11001.5125
241.18261	12129.9125
245.44663	13229.8125
249.70755	14239.6125
253.96539	15154.8125
258.22014	15892.0125
262.4718	16580.7125
266.72039	17036.8125
270.96589	17278.1125
275.20832	17342.9125
279.44768	17324.3125
283.68397	17146.3125
287.91719	17029.2125
292.14735	16968.6125
296.37445	16929.5125
300.59849	16921.3125
304.81948	16878.8125
309.03742	16759.3125
313.25231	16560.2125
317.46415	16248.4125
321.67296	15890.8125
325.87872	15606.5125
330.08145	15478.1125
334.28114	15529.0125
338.47781	15656.8125
342.67145	15820.2125
346.86207	16053.9125
351.04966	16259.5125
355.23424	16532.1125
359.4158	16780.3125
363.59435	16977.4125
367.76989	17112.3125
371.94243	17262.1125
376.11196	17394.6125
380.27849	17481.0125
384.44203	17642.3125
388.60257	17741.0125
392.76012	17864.2125
396.91468	18045.3125
401.06626	18268.7125
405.21485	18403.6125
409.36047	18396.4125
413.50311	18250.7125
417.64277	18122.8125
421.77947	18110.3125
425.9132	18182.5125
430.04396	18328.5125
434.17176	18410.1125
438.2966	18544.9125
442.41849	18812.2125
446.53742	19149.0125
450.6534	19550.9125
454.76644	19900.5125
458.87653	20076.1125
462.98368	20094.6125
467.08789	19985.0125
471.18916	19880.8125
475.2875	19740.8125
479.38291	19740.3125
483.4754	19646.3125
487.56496	19466.1125
491.6516	19183.8125
495.73531	18925.0125
499.81612	18816.7125
503.89401	18886.1125
507.96899	18900.4125
512.04106	18853.5125
516.11023	18845.3125
520.1765	18725.8125
524.23987	18640.8125
528.30034	18477.8125
532.35792	18371.2125
536.41261	18289.5125
540.46441	18205.6125
544.51333	18249.7125
548.55936	18432.7125
552.60252	18733.5125
556.64279	19036.8125
560.6802	19179.5125
564.71473	19264.6125
568.7464	19457.5125
572.7752	19767.0125
576.80114	19947.1125
580.82422	20133.2125
584.84444	20270.3125
588.86181	20412.9125
592.87633	20534.9125
596.888	20626.0125
600.89682	20658.2125
604.9028	21129.7125
608.90594	22208.0125
612.90624	23312.8125
616.90371	22294.2125
620.89834	19908.4125
624.89015	18959.2125
628.87913	18937.2125
632.86528	18943.6125
636.84862	18836.9125
640.82913	18658.7125
644.80683	18394.2125
648.78172	18159.0125
652.75379	18122.0125
656.72306	18195.1125
660.68952	18409.1125
664.65319	18319.1125
668.61405	18164.5125
672.57211	18147.9125
676.52738	18165.1125
680.47986	18181.5125
684.42955	18170.6125
688.37646	18155.0125
692.32058	18177.8125
696.26192	18302.3125
700.20048	18427.5125
704.13626	18527.3125
708.06928	18545.3125
711.99952	18397.9125
715.927	18411.5125
719.85171	18409.7125
723.77365	18349.4125
727.69284	18279.0125
731.60928	18182.4125
735.52295	18135.1125
739.43388	18120.1125
743.34206	18173.7125
747.24749	18194.7125
751.15017	18317.9125
755.05012	18521.0125
758.94733	18878.3125
762.8418	19466.0125
766.73354	20364.7125
770.62254	21233.4125
774.50882	21456.5125
778.39237	20775.9125
782.27321	19697.6125
786.15132	18897.8125
790.02671	18355.2125
793.89938	18140.6125
797.76935	18058.5125
801.6366	18020.9125
805.50115	18012.9125
809.36299	17924.0125
813.22213	17834.3125
817.07857	17794.9125
820.93231	17799.2125
824.78336	17749.0125
828.63172	17724.7125
832.47738	17722.0125
836.32036	17742.1125
840.16066	17751.9125
843.99827	17831.1125
847.8332	17805.2125
851.66546	17780.2125
855.49504	17732.7125
859.32195	17768.6125
863.1462	17722.5125
866.96777	17709.2125
870.78668	17667.0125
874.60293	17643.9125
878.41652	17665.6125
882.22745	17685.0125
886.03573	17690.3125
889.84136	17686.4125
893.64433	17643.0125
897.44466	17584.4125
901.24235	17540.0125
905.0374	17502.4125
908.8298	17496.2125
912.61957	17530.3125
916.40671	17633.5125
920.19121	17827.7125
923.97308	17901.4125
927.75233	17912.6125
931.52895	17843.7125
935.30295	17701.9125
939.07433	17477.3125
942.84309	17309.3125
946.60924	17252.9125
950.37278	17217.1125
954.13371	17143.5125
957.89203	17092.7125
961.64774	17053.9125
965.40086	17019.3125
969.15137	16949.9125
972.89929	16862.3125
976.64461	16838.9125
980.38733	16881.7125
984.12747	16901.9125
987.86502	17052.8125
991.59999	17198.9125
995.33237	17393.5125
999.06217	17723.6125
1002.78939	18067.4125
1006.51404	18212.3125
1010.23611	18249.2125
1013.95561	18313.9125
1017.67255	18394.9125
1021.38692	18240.2125
1025.09872	18181.2125
1028.80796	18300.0125
1032.51465	18719.6125
1036.21877	19099.7125
1039.92035	19103.8125
1043.61937	18896.3125
1047.31584	18592.8125
1051.00976	18255.6125
1054.70114	18155.8125
1058.38998	18178.1125
1062.07627	18259.6125
1065.76003	18348.2125
1069.44126	18368.0125
1073.11995	18451.2125
1076.79611	18550.1125
1080.46974	18622.5125
1084.14085	18694.9125
1087.80943	18784.3125
1091.47549	18921.2125
1095.13903	18908.3125
1098.80005	18740.8125
1102.45857	18566.5125
1106.11456	18432.2125
1109.76805	18375.3125
1113.41903	18413.5125
1117.06751	18474.3125
1120.71348	18641.3125
1124.35696	18739.1125
1127.99793	18851.7125
1131.63641	18947.0125
1135.2724	18886.8125
1138.90589	18753.4125
1142.5369	18717.2125
1146.16542	18710.5125
1149.79145	18780.0125
1153.415	18865.3125
1157.03607	19071.3125
1160.65467	19454.0125
1164.27079	20002.0125
1167.88443	20720.0125
1171.49561	21602.9125
1175.10432	22690.1125
1178.71056	24046.7125
1182.31434	25310.7125
1185.91565	26066.5125
1189.51451	26109.2125
1193.11091	25603.6125
1196.70485	24797.5125
1200.29634	24045.1125
1203.88538	23437.3125
1207.47197	23011.9125
1211.05612	22654.6125
1214.63782	22325.3125
1218.21708	21996.1125
1221.79391	21779.5125
1225.36829	21578.6125
1228.94024	21369.4125
1232.50976	21042.3125
1236.07685	20820.9125
1239.6415	20763.2125
1243.20374	20835.0125
1246.76355	20920.3125
1250.32093	21164.6125
1253.8759	21525.9125
1257.42845	21920.5125
1260.97859	22289.4125
1264.52631	22660.3125
1268.07163	23045.0125
1271.61453	23550.4125
1275.15503	24070.4125
1278.69312	24657.4125
1282.22882	25182.6125
1285.76211	25559.3125
1289.29301	26035.8125
1292.82151	26750.5125
1296.34761	27695.2125
1299.87133	28930.2125
1303.39266	30341.2125
1306.9116	31754.0125
1310.42815	33150.4125
1313.94233	33949.3125
1317.45412	33924.2125
1320.96354	33417.8125
1324.47058	32905.4125
1327.97525	32482.3125
1331.47754	32194.7125
1334.97747	32057.7125
1338.47502	32170.1125
1341.97022	32201.4125
1345.46305	32015.3125
1348.95352	31617.2125
1352.44163	31274.5125
1355.92738	31266.3125
1359.41078	31833.7125
1362.89183	32378.3125
1366.37053	31768.4125
1369.84688	29716.7125
1373.32088	27398.2125
1376.79254	25848.8125
1380.26186	25219.3125
1383.72883	25198.1125
1387.19347	25205.1125
1390.65578	25147.5125
1394.11575	25176.5125
1397.57339	25396.5125
1401.0287	25809.9125
1404.48168	26120.5125
1407.93234	26160.4125
1411.38068	25845.4125
1414.82669	25190.4125
1418.27039	24334.6125
1421.71177	23521.2125
1425.15083	22784.3125
1428.58758	22338.9125
1432.02203	22301.1125
1435.45416	22603.2125
1438.88399	23025.2125
1442.31151	23477.0125
1445.73673	23812.2125
1449.15965	24100.7125
1452.58027	24369.9125
1455.9986	24524.4125
1459.41463	24737.0125
1462.82837	24982.0125
1466.23982	25325.6125
1469.64898	25628.9125
1473.05586	25818.6125
1476.46045	25798.8125
1479.86276	25689.7125
1483.26279	25410.8125
1486.66054	25180.5125
1490.05602	25076.6125
1493.44922	25103.8125
1496.84016	25223.7125
1500.22882	25481.9125
1503.61521	26018.8125
1506.99934	26719.4125
1510.38121	27424.9125
1513.76081	27656.2125
1517.13816	27331.7125
1520.51324	26667.4125
1523.88607	26037.7125
1527.25665	25701.5125
1530.62498	25556.1125
1533.99105	25515.0125
1537.35488	25412.6125
1540.71647	25244.3125
1544.07581	24931.8125
1547.4329	24570.4125
1550.78776	24217.4125
1554.14038	23979.5125
1557.49077	23811.2125
1560.83892	23710.6125
1564.18484	23685.5125
1567.52853	23688.9125
1570.86999	23762.7125
1574.20922	23955.0125
1577.54624	24244.7125
1580.88103	24360.0125
1584.2136	24531.4125
1587.54395	24982.0125
1590.87208	25856.4125
1594.19801	26950.6125
1597.52172	28118.6125
1600.84321	28456.7125
1604.16251	27585.5125
1607.47959	25929.1125
1610.79447	24328.7125
1614.10715	22800.2125
1617.41763	21514.8125
1620.7259	20577.2125
1624.03199	20066.2125
1627.33587	20014.5125
1630.63757	20385.3125
1633.93707	21237.7125
1637.23439	22543.1125
1640.52951	24255.0125
1643.82246	26214.1125
1647.11321	27646.2125
1650.40179	27917.6125
1653.68819	26618.4125
1656.97241	24201.4125
1660.25446	21730.2125
1663.53433	19809.8125
1666.81203	18541.7125
1670.08756	17681.9125
1673.36092	17151.4125
1676.63211	16744.5125
1679.90115	16487.7125
1683.16801	16269.9125
1686.43272	16163.3125
1689.69527	16045.6125
1692.95567	15963.3125
1696.2139	15871.8125
1699.46999	15854.2125
1702.72392	15803.3125
1705.97571	15745.6125
1709.22535	15739.3125
1712.47284	15673.0125
1715.71819	15654.6125
1718.96139	15643.5125
1722.20246	15634.4125
1725.44139	15549.0125
1728.67818	15490.0125
1731.91284	15444.1125
1735.14537	15355.2125
1738.37576	15285.0125
1741.60403	15265.2125
1744.83017	15220.9125
1748.05418	15210.2125
1751.27607	15181.5125
1754.49584	15185.8125
1757.71349	15196.0125
1760.92903	15150.2125
1764.14244	15111.2125
1767.35375	15125.3125
1770.56294	15098.2125
1773.77002	15086.6125
1776.97499	15030.3125
1780.17785	15048.3125
1783.37861	14996.5125
1786.57727	14989.8125
1789.77382	14960.7125
1792.96828	14890.7125
1796.16064	14882.6125
1799.3509	14875.1125
1802.53907	14885.2125
1805.72514	14804.4125
1808.90913	14791.4125
1812.09102	14761.5125
1815.27083	14719.4125
1818.44856	14736.3125
1821.6242	14695.0125
1824.79776	14665.5125
1827.96924	14661.7125
1831.13864	14643.7125
1834.30597	14631.4125
1837.47122	14640.3125
1840.6344	14617.2125
1843.7955	14625.4125
1846.95454	14606.6125
1850.11151	14603.4125
1853.26642	14583.9125
1856.41926	14605.8125
1859.57004	14572.8125
1862.71876	14564.0125
1865.86542	14557.2125
1869.01003	14531.9125
1872.15258	14522.8125
1875.29308	14525.7125
1878.43152	14502.3125
1881.56792	14507.6125
1884.70227	14475.7125
1887.83457	14466.2125
1890.96482	14452.0125
1894.09304	14433.6125
1897.21921	14399.3125
1900.34335	14415.6125
1903.46544	14348.0125
1906.58551	14367.4125
1909.70353	14347.9125
1912.81953	14332.1125
1915.93349	14343.6125
1919.04543	14298.7125
1922.15534	14262.9125
1925.26322	14247.3125
1928.36908	14245.5125
1931.47292	14220.2125
1934.57473	14198.5125
1937.67453	14163.3125
1940.77232	14147.9125
1943.86808	14067.5125
1946.96184	14029.1125
1950.05358	14001.0125
1953.14331	13951.2125
1956.23103	13914.5125
1959.31675	13895.6125
1962.40046	13846.1125
1965.48217	13783.9125
1968.56188	13736.2125
1971.63959	13702.1125
1974.7153	13692.2125
1977.78901	13643.2125
1980.86073	13611.7125
1983.93046	13594.7125
1986.99819	13558.0125
1990.06394	13515.1125
1993.1277	13504.7125
1996.18947	13452.9125
1999.24925	13393.8125
2002.30706	13387.2125
2005.36288	13323.5125
2008.41672	13301.3125
2011.46859	13265.4125
2014.51848	13220.9125
2017.56639	13183.0125
2020.61233	13183.0125
2023.6563	13143.5125
2026.6983	13128.1125
2029.73833	13084.2125
2032.7764	13058.2125
2035.8125	13039.0125
2038.84664	13016.9125
2041.87881	12971.5125
2044.90903	12959.9125
2047.93729	12931.5125
2050.96359	12891.0125
2053.98794	12923.5125
2057.01034	12888.9125
2060.03078	12895.2125
2063.04927	12887.8125
2066.06582	12878.0125
2069.08042	12865.9125
2072.09307	12844.5125
2075.10378	12831.8125
2078.11255	12825.0125
2081.11938	12839.7125
2084.12426	12834.4125
2087.12722	12831.8125
2090.12824	12779.7125
2093.12732	12795.6125
2096.12447	12815.1125
2099.11969	12809.1125
2102.11299	12807.0125
2105.10435	12796.7125
2108.09379	12819.4125
2111.08131	12823.1125
2114.0669	12851.9125
2117.05057	12855.1125
2120.03233	12845.0125
2123.01216	12859.2125
2125.99008	12882.8125
2128.96609	12876.4125
2131.94018	12890.1125
2134.91236	12901.6125
2137.88263	12906.2125
2140.851	12917.8125
2143.81746	12947.8125
2146.78201	12963.7125
2149.74466	12965.5125
2152.7054	12946.0125
2155.66425	12958.4125
2158.6212	12975.9125
2161.57625	12946.4125
2164.52941	12934.7125
2167.48067	12941.6125
2170.43004	12937.1125
2173.37752	12937.9125
2176.32311	12945.5125
2179.26681	12918.8125
2182.20863	12919.7125
2185.14856	12933.3125
2188.08661	12926.8125
2191.02278	12912.0125
2193.95707	12957.0125
2196.88948	12948.6125
2199.82001	12947.1125
2202.74867	12925.3125
2205.67545	12891.6125
2208.60037	12915.2125
2211.52341	12894.6125
2214.44458	12880.9125
2217.36388	12876.4125
2220.28132	12845.2125
2223.1969	12832.8125
2226.11061	12824.6125
2229.02246	12772.1125
2231.93245	12731.6125
2234.84058	12706.7125
2237.74686	12702.9125
2240.65128	12690.8125
2243.55385	12668.2125
2246.45456	12652.3125
2249.35343	12633.2125
2252.25044	12620.4125
2255.14561	12628.7125
2258.03893	12596.3125
2260.93041	12574.9125
2263.82004	12538.7125
2266.70783	12502.6125
2269.59378	12449.5125
2272.4779	12450.1125
2275.36017	12395.7125
2278.24061	12390.6125
2281.11922	12384.1125
2283.996	12341.6125
2286.87094	12343.3125
2289.74405	12318.0125
2292.61534	12343.4125
2295.4848	12319.8125
2298.35243	12330.7125
2301.21824	12301.1125
2304.08223	12304.5125
2306.94439	12317.4125
2309.80474	12310.7125
2312.66327	12336.0125
2315.51999	12323.0125
2318.37489	12328.0125
2321.22797	12297.3125
2324.07925	12264.3125
2326.92871	12258.2125
2329.77637	12265.0125
2332.62222	12241.4125
2335.46626	12228.0125
2338.3085	12215.5125
2341.14893	12226.1125
2343.98756	12219.4125
2346.8244	12236.0125
2349.65943	12213.2125
2352.49267	12213.7125
2355.32411	12239.7125
2358.15376	12210.2125
2360.98161	12202.0125
2363.80768	12187.0125
2366.63195	12173.2125
2369.45444	12149.2125
2372.27514	12133.2125
2375.09405	12115.1125
2377.91118	12085.5125
2380.72652	12071.9125
2383.54009	12046.6125
2386.35187	12013.2125
2389.16188	11981.6125
2391.97011	11951.4125
2394.77657	11923.7125
2397.58125	11904.9125
2400.38416	11911.1125
2403.18529	11908.4125
2405.98466	11889.2125
2408.78226	11861.4125
2411.57809	11861.9125
2414.37216	11823.8125
2417.16446	11859.2125
2419.955	11823.8125
2422.74378	11835.6125
2425.5308	11805.5125
2428.31606	11802.5125
2431.09956	11790.4125
2433.88131	11770.1125
2436.6613	11759.3125
2439.43954	11772.0125
2442.21603	11762.9125
2444.99077	11748.3125
2447.76377	11737.0125
2450.53501	11724.9125
2453.30451	11726.0125
2456.07226	11705.2125
2458.83827	11697.0125
2461.60254	11696.6125
2464.36507	11669.3125
2467.12586	11671.3125
2469.88492	11676.7125
2472.64224	11673.6125
2475.39782	11658.2125
2478.15167	11674.3125
2480.90379	11698.3125
2483.65417	11705.0125
2486.40283	11711.6125
2489.14976	11683.9125
2491.89497	11696.9125
2494.63845	11715.8125
2497.3802	11703.0125
2500.12024	11733.8125
2502.85855	11693.4125
2505.59514	11692.0125
2508.33002	11675.2125
2511.06318	11656.9125
2513.79462	11666.1125
2516.52435	11629.7125
2519.25237	11601.4125
2521.97867	11616.9125
2524.70327	11616.5125
2527.42616	11622.4125
2530.14734	11602.5125
2532.86681	11607.5125
2535.58458	11596.2125
2538.30065	11605.1125
2541.01501	11578.2125
2543.72768	11580.5125
2546.43864	11583.7125
2549.14791	11558.2125
2551.85548	11565.1125
2554.56136	11530.3125
2557.26554	11507.6125
2559.96803	11467.4125
2562.66883	11431.9125
2565.36794	11446.0125
2568.06536	11413.9125
2570.7611	11413.7125
2573.45514	11408.3125
2576.14751	11382.1125
2578.83819	11372.2125
2581.52719	11382.2125
2584.21451	11380.9125
2586.90015	11362.1125
2589.58411	11357.8125
2592.2664	11341.9125
2594.94701	11336.4125
2597.62594	11364.9125
2600.30321	11306.9125
2602.9788	11287.9125
2605.65273	11258.3125
2608.32498	11267.2125
2610.99557	11272.4125
2613.66449	11246.5125
2616.33175	11259.2125
2618.99734	11267.8125
2621.66128	11273.0125
2624.32355	11270.9125
2626.98416	11266.6125
2629.64311	11270.6125
2632.30041	11230.7125
2634.95605	11221.8125
2637.61004	11211.4125
2640.26238	11212.6125
2642.91306	11185.4125
2645.56209	11187.3125
2648.20948	11180.1125
2650.85521	11182.5125
2653.4993	11190.5125
2656.14175	11183.5125
2658.78255	11164.1125
2661.42171	11175.6125
2664.05923	11210.6125
2666.6951	11208.4125
2669.32934	11198.3125
2671.96194	11199.7125
2674.59291	11219.1125
2677.22224	11161.1125
2679.84993	11199.5125
2682.476	11184.2125
2685.10043	11174.5125
2687.72324	11145.6125
2690.34441	11175.5125
2692.96396	11157.0125
2695.58188	11149.4125
2698.19818	11160.0125
2700.81285	11146.3125
2703.4259	11155.5125
2706.03733	11179.6125
2708.64714	11161.3125
2711.25533	11162.6125
2713.86191	11152.3125
2716.46687	11203.9125
2719.07021	11201.3125
2721.67194	11196.4125
2724.27206	11205.1125
2726.87057	11198.6125
2729.46747	11214.9125
2732.06276	11213.9125
2734.65644	11216.4125
2737.24852	11206.2125
2739.83899	11187.8125
2742.42786	11194.6125
2745.01513	11146.6125
2747.60079	11150.4125
2750.18486	11128.2125
2752.76733	11129.0125
2755.3482	11123.5125
2757.92747	11100.5125
2760.50515	11095.6125
2763.08123	11115.9125
2765.65573	11090.7125
2768.22863	11074.8125
2770.79994	11092.2125
2773.36967	11104.5125
2775.9378	11085.5125
2778.50435	11117.2125
2781.06932	11092.5125
2783.6327	11111.1125
2786.1945	11095.3125
2788.75471	11082.5125
2791.31335	11049.5125
2793.87041	11021.4125
2796.42589	11008.1125
2798.97979	11016.7125
2801.53212	10979.3125
2804.08288	10985.3125
2806.63206	10953.8125
2809.17967	10927.2125
2811.72571	10891.7125
2814.27018	10879.0125
2816.81308	10873.3125
2819.35442	10860.9125
2821.89419	10833.6125
2824.43239	10807.6125
2826.96904	10818.6125
2829.50412	10805.5125
2832.03763	10795.8125
2834.56959	10795.6125
2837.1	10779.1125
2839.62884	10770.7125
2842.15613	10787.3125
2844.68186	10794.0125
2847.20604	10806.7125
2849.72867	10801.1125
2852.24974	10794.1125
2854.76927	10789.3125
2857.28724	10742.8125
2859.80367	10738.1125
2862.31855	10745.4125
2864.83189	10714.9125
2867.34368	10696.4125
2869.85393	10704.6125
2872.36264	10701.5125
2874.8698	10682.8125
2877.37543	10679.9125
2879.87952	10680.3125
2882.38207	10708.3125
2884.88308	10693.1125
2887.38256	10707.2125
2889.88051	10707.9125
2892.37692	10700.9125
2894.8718	10714.2125
2897.36515	10725.0125
2899.85698	10718.7125
2902.34727	10758.5125
2904.83604	10767.2125
2907.32328	10796.0125
2909.809	10774.9125
2912.29319	10776.9125
2914.77587	10771.1125
2917.25702	10755.4125
2919.73665	10744.2125
2922.21476	10783.8125
2924.69136	10786.2125
2927.16644	10747.9125
2929.64	10738.9125
2932.11205	10721.4125
2934.58258	10702.9125
2937.05161	10700.5125
2939.51912	10733.4125
2941.98513	10733.2125
2944.44962	10674.2125
2946.91261	10665.0125
2949.37409	10661.1125
2951.83407	10665.4125
2954.29254	10658.5125
2956.74951	10648.1125
2959.20498	10637.6125
2961.65895	10629.3125
2964.11142	10658.6125
2966.56239	10642.3125
2969.01186	10620.4125
2971.45984	10618.3125
2973.90632	10589.8125
2976.35131	10568.8125
2978.7948	10570.7125
2981.23681	10539.5125
2983.67732	10531.9125
2986.11635	10517.4125
2988.55388	10492.6125
2990.98993	10473.9125
2993.4245	10452.9125
2995.85758	10423.1125
2998.28917	10430.4125
3000.71928	10410.2125
3003.14791	10363.4125
3005.57506	10380.7125
3008.00073	10329.9125
3010.42493	10329.8125
3012.84764	10331.7125
3015.26888	10298.4125
3017.68865	10282.7125
3020.10694	10274.0125
3022.52376	10290.7125
3024.9391	10270.7125
