Data from AgNP_FTO_APTES_UA_10uM_CRN_5uM_R6G_10uM_NaF_0.1M_Addition_RamanShift__32__15-19-40-676.txt Node

Date: Thu Feb 10 15:19:40 GMT 2022
User: TCL
Spectrometer: QEP01345
Trigger mode: 4
Integration Time (sec): 7.000000E0
Scans to average: 10
Electric dark correction enabled: true
Nonlinearity correction enabled: false
Boxcar width: 0
XAxis mode: Raman Shifts
Number of Pixels in Spectrum: 1044
>>>>>Begin Spectral Data<<<<<
46.04893	-0.1125
50.45542	-0.8125
54.85868	-1.0125
59.25871	-1.3125
63.6555	42.8875
68.04907	46.8875
72.43941	47.5875
76.82654	49.0875
81.21044	54.0875
85.59113	55.4875
89.96862	58.4875
94.34289	60.8875
98.71396	59.9875
103.08183	66.7875
107.4465	69.6875
111.80798	63.5875
116.16626	68.9875
120.52136	72.6875
124.87327	74.7875
129.222	76.8875
133.56755	81.0875
137.90993	82.7875
142.24913	86.5875
146.58517	92.6875
150.91804	111.6875
155.24774	128.6875
159.57429	157.0875
163.89768	196.7875
168.21792	258.0875
172.53501	344.8875
176.84895	472.7875
181.15975	653.4875
185.46741	916.7875
189.77193	1259.5875
194.07331	1660.4875
198.37157	2143.3875
202.6667	2639.5875
206.9587	3133.0875
211.24758	3641.0875
215.53334	4208.0875
219.81599	4793.9875
224.09553	5498.5875
228.37195	6288.2875
232.64527	7108.2875
236.91549	7922.3875
241.18261	8665.8875
245.44663	9212.6875
249.70755	9590.8875
253.96539	9927.4875
258.22014	10289.4875
262.4718	10592.1875
266.72039	10887.3875
270.96589	11093.2875
275.20832	11139.0875
279.44768	11046.5875
283.68397	10891.0875
287.91719	10831.9875
292.14735	10874.3875
296.37445	11198.1875
300.59849	11706.0875
304.81948	12369.6875
309.03742	12783.9875
313.25231	12714.6875
317.46415	11958.3875
321.67296	10795.2875
325.87872	9872.6875
330.08145	9418.5875
334.28114	9387.8875
338.47781	9534.8875
342.67145	9898.6875
346.86207	10438.2875
351.04966	11206.2875
355.23424	12066.9875
359.4158	12706.6875
363.59435	12989.4875
367.76989	13025.9875
371.94243	12969.1875
376.11196	12857.6875
380.27849	12692.5875
384.44203	12509.9875
388.60257	12276.2875
392.76012	12143.8875
396.91468	12255.4875
401.06626	12608.2875
405.21485	12918.5875
409.36047	12547.7875
413.50311	11705.4875
417.64277	10913.4875
421.77947	10464.4875
425.9132	10301.5875
430.04396	10291.1875
434.17176	10283.4875
438.2966	10430.4875
442.41849	10672.2875
446.53742	11004.6875
450.6534	11329.3875
454.76644	11525.1875
458.87653	11494.2875
462.98368	11398.9875
467.08789	11196.9875
471.18916	10926.0875
475.2875	10601.9875
479.38291	10337.1875
483.4754	10114.6875
487.56496	9959.4875
491.6516	9839.3875
495.73531	9808.3875
499.81612	9869.7875
503.89401	10005.3875
507.96899	10225.0875
512.04106	10400.7875
516.11023	10619.2875
520.1765	10768.2875
524.23987	10725.4875
528.30034	10423.1875
532.35792	10132.8875
536.41261	9836.8875
540.46441	9518.4875
544.51333	9388.0875
548.55936	9487.0875
552.60252	9822.6875
556.64279	10164.6875
560.6802	10321.9875
564.71473	10507.2875
568.7464	11115.2875
572.7752	11493.0875
576.80114	11123.5875
580.82422	10576.8875
584.84444	10319.3875
588.86181	10184.0875
592.87633	10120.4875
596.888	10246.2875
600.89682	10758.4875
604.9028	12452.9875
608.90594	17078.5875
612.90624	23283.0875
616.90371	22021.8875
620.89834	14091.3875
624.89015	10547.5875
628.87913	9883.9875
632.86528	9991.3875
636.84862	10262.5875
640.82913	10060.7875
644.80683	9459.1875
648.78172	9092.9875
652.75379	9157.7875
656.72306	9733.8875
660.68952	10400.2875
664.65319	10224.8875
668.61405	9517.0875
672.57211	9149.4875
676.52738	9119.1875
680.47986	9121.9875
684.42955	9036.6875
688.37646	8956.3875
692.32058	9011.0875
696.26192	9117.2875
700.20048	9312.8875
704.13626	9442.9875
708.06928	9430.0875
711.99952	9343.2875
715.927	9296.5875
719.85171	9290.4875
723.77365	9306.2875
727.69284	9172.4875
731.60928	9043.2875
735.52295	9022.8875
739.43388	9052.2875
743.34206	9126.0875
747.24749	9193.7875
751.15017	9287.2875
755.05012	9553.3875
758.94733	10183.2875
762.8418	11681.9875
766.73354	14286.7875
770.62254	16981.2875
774.50882	18313.3875
778.39237	17239.7875
782.27321	14385.2875
786.15132	11747.9875
790.02671	10234.5875
793.89938	9552.7875
797.76935	9292.0875
801.6366	9146.1875
805.50115	9050.2875
809.36299	9007.3875
813.22213	8961.9875
817.07857	8902.6875
820.93231	8915.2875
824.78336	8962.6875
828.63172	9010.7875
832.47738	9046.6875
836.32036	8994.1875
840.16066	8928.1875
843.99827	8860.4875
847.8332	8809.7875
851.66546	8815.4875
855.49504	8815.8875
859.32195	8793.5875
863.1462	8718.9875
866.96777	8686.8875
870.78668	8674.4875
874.60293	8712.8875
878.41652	8749.0875
882.22745	8814.6875
886.03573	8859.9875
889.84136	8816.5875
893.64433	8756.0875
897.44466	8724.7875
901.24235	8736.1875
905.0374	8710.6875
908.8298	8682.1875
912.61957	8703.0875
916.40671	8739.6875
920.19121	8845.7875
923.97308	8924.5875
927.75233	9073.6875
931.52895	9160.0875
935.30295	9041.1875
939.07433	8692.9875
942.84309	8388.8875
946.60924	8224.1875
950.37278	8148.9875
954.13371	8099.5875
957.89203	8080.4875
961.64774	8035.4875
965.40086	8024.5875
969.15137	7987.8875
972.89929	7952.1875
976.64461	7960.5875
980.38733	7959.9875
984.12747	7978.4875
987.86502	8027.4875
991.59999	8072.1875
995.33237	8195.2875
999.06217	8375.0875
1002.78939	8637.4875
1006.51404	8888.4875
1010.23611	9156.1875
1013.95561	9347.0875
1017.67255	9273.9875
1021.38692	9088.2875
1025.09872	8945.3875
1028.80796	8842.2875
1032.51465	8925.4875
1036.21877	9043.9875
1039.92035	9127.7875
1043.61937	9176.9875
1047.31584	9127.8875
1051.00976	9060.0875
1054.70114	9024.7875
1058.38998	8999.3875
1062.07627	9076.5875
1065.76003	9134.3875
1069.44126	9222.4875
1073.11995	9324.3875
1076.79611	9476.1875
1080.46974	9675.7875
1084.14085	10001.7875
1087.80943	10380.6875
1091.47549	10560.6875
1095.13903	10308.1875
1098.80005	9846.9875
1102.45857	9459.3875
1106.11456	9292.8875
1109.76805	9348.2875
1113.41903	9617.4875
1117.06751	10047.0875
1120.71348	10560.8875
1124.35696	11114.2875
1127.99793	11632.2875
1131.63641	11569.9875
1135.2724	10939.6875
1138.90589	10268.7875
1142.5369	9890.9875
1146.16542	9616.4875
1149.79145	9451.0875
1153.415	9466.7875
1157.03607	9602.8875
1160.65467	9879.4875
1164.27079	10304.5875
1167.88443	10998.8875
1171.49561	12166.6875
1175.10432	14108.9875
1178.71056	16684.8875
1182.31434	18463.2875
1185.91565	18743.8875
1189.51451	17999.4875
1193.11091	16521.6875
1196.70485	14848.2875
1200.29634	13715.0875
1203.88538	12897.7875
1207.47197	11967.1875
1211.05612	11131.3875
1214.63782	10690.2875
1218.21708	10530.7875
1221.79391	10564.7875
1225.36829	10629.5875
1228.94024	10719.3875
1232.50976	10795.7875
1236.07685	10849.6875
1239.6415	10881.6875
1243.20374	10900.2875
1246.76355	10972.6875
1250.32093	11137.8875
1253.8759	11453.4875
1257.42845	11895.4875
1260.97859	12334.8875
1264.52631	12821.5875
1268.07163	13254.0875
1271.61453	13716.8875
1275.15503	13988.0875
1278.69312	14083.1875
1282.22882	14085.3875
1285.76211	14367.5875
1289.29301	14901.1875
1292.82151	15448.6875
1296.34761	15956.8875
1299.87133	16843.7875
1303.39266	18402.6875
1306.9116	20945.5875
1310.42815	23880.2875
1313.94233	25788.0875
1317.45412	25373.5875
1320.96354	23467.8875
1324.47058	21204.8875
1327.97525	19236.9875
1331.47754	17978.6875
1334.97747	17548.5875
1338.47502	17583.1875
1341.97022	17998.5875
1345.46305	18783.3875
1348.95352	19995.8875
1352.44163	21747.8875
1355.92738	24317.0875
1359.41078	28531.0875
1362.89183	32745.2875
1366.37053	31788.5875
1369.84688	26241.4875
1373.32088	20835.0875
1376.79254	17447.1875
1380.26186	15849.2875
1383.72883	15065.8875
1387.19347	14444.3875
1390.65578	13799.1875
1394.11575	13240.0875
1397.57339	12957.5875
1401.0287	12931.9875
1404.48168	13095.6875
1407.93234	13352.2875
1411.38068	13527.0875
1414.82669	13549.6875
1418.27039	13343.3875
1421.71177	13006.0875
1425.15083	12658.9875
1428.58758	12404.7875
1432.02203	12443.9875
1435.45416	12531.8875
1438.88399	12625.5875
1442.31151	12673.8875
1445.73673	12733.7875
1449.15965	12832.8875
1452.58027	12812.1875
1455.9986	12684.8875
1459.41463	12649.7875
1462.82837	12764.7875
1466.23982	13063.6875
1469.64898	13392.8875
1473.05586	13652.4875
1476.46045	13836.9875
1479.86276	14183.7875
1483.26279	14594.0875
1486.66054	15105.2875
1490.05602	15742.5875
1493.44922	16627.0875
1496.84016	17975.5875
1500.22882	20145.5875
1503.61521	22991.1875
1506.99934	26313.3875
1510.38121	29605.2875
1513.76081	31232.3875
1517.13816	29834.3875
1520.51324	25874.3875
1523.88607	21709.7875
1527.25665	18782.0875
1530.62498	17014.6875
1533.99105	15960.8875
1537.35488	15255.6875
1540.71647	14821.7875
1544.07581	14574.6875
1547.4329	14433.9875
1550.78776	14372.1875
1554.14038	14367.9875
1557.49077	14565.6875
1560.83892	14976.9875
1564.18484	15593.9875
1567.52853	16172.4875
1570.86999	16611.4875
1574.20922	16874.3875
1577.54624	16683.1875
1580.88103	15698.7875
1584.2136	14391.1875
1587.54395	13722.9875
1590.87208	13946.9875
1594.19801	14849.6875
1597.52172	16053.7875
1600.84321	16439.5875
1604.16251	15710.7875
1607.47959	14498.0875
1610.79447	13349.2875
1614.10715	12164.6875
1617.41763	11233.8875
1620.7259	10664.9875
1624.03199	10405.8875
1627.33587	10444.1875
1630.63757	10768.7875
1633.93707	11409.1875
1637.23439	12368.9875
1640.52951	13788.9875
1643.82246	15740.3875
1647.11321	18224.9875
1650.40179	20259.0875
1653.68819	19942.5875
1656.97241	17087.1875
1660.25446	13773.5875
1663.53433	11386.3875
1666.81203	9992.2875
1670.08756	9182.3875
1673.36092	8708.1875
1676.63211	8390.6875
1679.90115	8210.8875
1683.16801	8034.4875
1686.43272	7919.0875
1689.69527	7870.1875
1692.95567	7826.0875
1696.2139	7823.4875
1699.46999	7835.5875
1702.72392	7808.5875
1705.97571	7753.9875
1709.22535	7724.5875
1712.47284	7721.4875
1715.71819	7718.0875
1718.96139	7714.6875
1722.20246	7680.7875
1725.44139	7645.6875
1728.67818	7564.7875
1731.91284	7492.5875
1735.14537	7418.3875
1738.37576	7389.1875
1741.60403	7339.3875
1744.83017	7311.0875
1748.05418	7289.4875
1751.27607	7270.9875
1754.49584	7245.8875
1757.71349	7295.8875
1760.92903	7282.8875
1764.14244	7245.8875
1767.35375	7243.5875
1770.56294	7216.6875
1773.77002	7198.1875
1776.97499	7140.0875
1780.17785	7091.3875
1783.37861	7083.8875
1786.57727	7038.1875
1789.77382	7042.8875
1792.96828	7033.3875
1796.16064	7013.9875
1799.3509	6991.0875
1802.53907	6995.8875
1805.72514	6969.5875
1808.90913	6940.1875
1812.09102	6915.2875
1815.27083	6890.4875
1818.44856	6889.1875
1821.6242	6848.3875
1824.79776	6846.4875
1827.96924	6838.6875
1831.13864	6828.3875
1834.30597	6822.5875
1837.47122	6816.9875
1840.6344	6809.0875
1843.7955	6827.8875
1846.95454	6806.0875
1850.11151	6800.1875
1853.26642	6809.9875
1856.41926	6816.8875
1859.57004	6827.9875
1862.71876	6827.2875
1865.86542	6821.2875
1869.01003	6798.9875
1872.15258	6841.1875
1875.29308	6844.8875
1878.43152	6848.1875
1881.56792	6843.8875
1884.70227	6842.0875
1887.83457	6853.7875
1890.96482	6847.6875
1894.09304	6841.0875
1897.21921	6835.6875
1900.34335	6837.5875
1903.46544	6842.1875
1906.58551	6859.0875
1909.70353	6862.2875
1912.81953	6854.0875
1915.93349	6866.9875
1919.04543	6860.7875
1922.15534	6837.5875
1925.26322	6830.5875
1928.36908	6800.3875
1931.47292	6772.8875
1934.57473	6735.7875
1937.67453	6687.0875
1940.77232	6659.4875
1943.86808	6613.7875
1946.96184	6580.3875
1950.05358	6531.3875
1953.14331	6509.2875
1956.23103	6480.4875
1959.31675	6462.2875
1962.40046	6448.9875
1965.48217	6414.4875
1968.56188	6419.7875
1971.63959	6391.2875
1974.7153	6374.6875
1977.78901	6341.8875
1980.86073	6315.6875
1983.93046	6290.2875
1986.99819	6256.0875
1990.06394	6242.6875
1993.1277	6227.3875
1996.18947	6203.8875
1999.24925	6184.8875
2002.30706	6138.3875
2005.36288	6144.9875
2008.41672	6136.7875
2011.46859	6096.2875
2014.51848	6082.7875
2017.56639	6054.1875
2020.61233	6059.0875
2023.6563	6055.3875
2026.6983	6016.9875
2029.73833	5992.4875
2032.7764	5995.7875
2035.8125	5959.4875
2038.84664	5945.6875
2041.87881	5952.4875
2044.90903	5923.7875
2047.93729	5929.1875
2050.96359	5905.3875
2053.98794	5902.2875
2057.01034	5907.1875
2060.03078	5871.7875
2063.04927	5872.7875
2066.06582	5864.9875
2069.08042	5866.2875
2072.09307	5841.9875
2075.10378	5833.3875
2078.11255	5837.8875
2081.11938	5835.1875
2084.12426	5834.7875
2087.12722	5840.7875
2090.12824	5799.2875
2093.12732	5819.7875
2096.12447	5806.4875
2099.11969	5820.2875
2102.11299	5810.8875
2105.10435	5817.2875
2108.09379	5809.4875
2111.08131	5817.3875
2114.0669	5802.6875
2117.05057	5817.8875
2120.03233	5831.6875
2123.01216	5818.0875
2125.99008	5824.8875
2128.96609	5841.7875
2131.94018	5832.9875
2134.91236	5829.5875
2137.88263	5835.0875
2140.851	5836.6875
2143.81746	5824.6875
2146.78201	5831.5875
2149.74466	5820.0875
2152.7054	5814.4875
2155.66425	5793.5875
2158.6212	5801.5875
2161.57625	5809.6875
2164.52941	5790.9875
2167.48067	5781.3875
2170.43004	5797.9875
2173.37752	5773.7875
2176.32311	5778.5875
2179.26681	5770.5875
2182.20863	5784.4875
2185.14856	5791.7875
2188.08661	5780.7875
2191.02278	5771.7875
2193.95707	5777.5875
2196.88948	5763.5875
2199.82001	5752.3875
2202.74867	5741.8875
2205.67545	5740.7875
2208.60037	5722.9875
2211.52341	5719.2875
2214.44458	5711.5875
2217.36388	5708.8875
2220.28132	5691.1875
2223.1969	5670.1875
2226.11061	5659.4875
2229.02246	5655.2875
2231.93245	5634.4875
2234.84058	5620.0875
2237.74686	5605.4875
2240.65128	5612.3875
2243.55385	5593.7875
2246.45456	5587.1875
2249.35343	5600.7875
2252.25044	5603.7875
2255.14561	5597.6875
2258.03893	5608.4875
2260.93041	5604.6875
2263.82004	5577.8875
2266.70783	5567.0875
2269.59378	5544.4875
2272.4779	5535.8875
2275.36017	5490.8875
2278.24061	5489.2875
2281.11922	5471.5875
2283.996	5505.8875
2286.87094	5465.9875
2289.74405	5456.7875
2292.61534	5443.8875
2295.4848	5437.6875
2298.35243	5422.9875
2301.21824	5431.7875
2304.08223	5417.4875
2306.94439	5419.2875
2309.80474	5424.7875
2312.66327	5420.6875
2315.51999	5414.6875
2318.37489	5413.1875
2321.22797	5401.1875
2324.07925	5387.3875
2326.92871	5401.3875
2329.77637	5383.8875
2332.62222	5379.1875
2335.46626	5375.9875
2338.3085	5374.0875
2341.14893	5386.8875
2343.98756	5390.7875
2346.8244	5386.7875
2349.65943	5389.7875
2352.49267	5395.8875
2355.32411	5393.8875
2358.15376	5421.2875
2360.98161	5441.9875
2363.80768	5448.2875
2366.63195	5451.2875
2369.45444	5455.9875
2372.27514	5437.6875
2375.09405	5425.9875
2377.91118	5408.4875
2380.72652	5378.8875
2383.54009	5340.7875
2386.35187	5326.1875
2389.16188	5302.3875
2391.97011	5269.5875
2394.77657	5248.4875
2397.58125	5251.4875
2400.38416	5239.8875
2403.18529	5209.6875
2405.98466	5207.6875
2408.78226	5178.8875
2411.57809	5193.7875
2414.37216	5177.3875
2417.16446	5169.8875
2419.955	5150.1875
2422.74378	5156.4875
2425.5308	5162.3875
2428.31606	5158.0875
2431.09956	5149.8875
2433.88131	5160.1875
2436.6613	5159.8875
2439.43954	5155.2875
2442.21603	5157.7875
2444.99077	5130.3875
2447.76377	5156.7875
2450.53501	5155.6875
2453.30451	5148.6875
2456.07226	5150.0875
2458.83827	5163.0875
2461.60254	5161.1875
2464.36507	5148.4875
2467.12586	5132.3875
2469.88492	5129.9875
2472.64224	5149.1875
2475.39782	5160.5875
2478.15167	5179.9875
2480.90379	5174.4875
2483.65417	5185.2875
2486.40283	5207.7875
2489.14976	5211.4875
2491.89497	5219.4875
2494.63845	5233.7875
2497.3802	5222.6875
2500.12024	5211.4875
2502.85855	5204.3875
2505.59514	5167.8875
2508.33002	5139.1875
2511.06318	5134.9875
2513.79462	5100.6875
2516.52435	5092.6875
2519.25237	5080.1875
2521.97867	5062.3875
2524.70327	5047.8875
2527.42616	5041.9875
2530.14734	5019.8875
2532.86681	5017.6875
2535.58458	5036.0875
2538.30065	5023.6875
2541.01501	5020.0875
2543.72768	5024.7875
2546.43864	5028.2875
2549.14791	5009.5875
2551.85548	5033.7875
2554.56136	5027.5875
2557.26554	5001.2875
2559.96803	4995.0875
2562.66883	4984.0875
2565.36794	4963.4875
2568.06536	4980.8875
2570.7611	4946.4875
2573.45514	4940.4875
2576.14751	4941.9875
2578.83819	4932.6875
2581.52719	4926.7875
2584.21451	4927.5875
2586.90015	4926.1875
2589.58411	4910.8875
2592.2664	4904.7875
2594.94701	4911.2875
2597.62594	4899.9875
2600.30321	4875.8875
2602.9788	4903.2875
2605.65273	4904.9875
2608.32498	4888.4875
2610.99557	4893.0875
2613.66449	4905.6875
2616.33175	4884.2875
2618.99734	4893.8875
2621.66128	4895.4875
2624.32355	4884.1875
2626.98416	4858.9875
2629.64311	4870.5875
2632.30041	4871.1875
2634.95605	4854.8875
2637.61004	4824.7875
2640.26238	4830.3875
2642.91306	4820.0875
2645.56209	4827.2875
2648.20948	4826.0875
2650.85521	4821.3875
2653.4993	4822.0875
2656.14175	4800.8875
2658.78255	4812.4875
2661.42171	4809.0875
2664.05923	4817.1875
2666.6951	4844.3875
2669.32934	4857.9875
2671.96194	4835.1875
2674.59291	4852.5875
2677.22224	4855.1875
2679.84993	4861.0875
2682.476	4868.8875
2685.10043	4870.1875
2687.72324	4856.8875
2690.34441	4856.4875
2692.96396	4847.7875
2695.58188	4845.7875
2698.19818	4848.5875
2700.81285	4839.8875
2703.4259	4862.2875
2706.03733	4871.7875
2708.64714	4833.4875
2711.25533	4853.8875
2713.86191	4880.3875
2716.46687	4859.0875
2719.07021	4857.7875
2721.67194	4856.9875
2724.27206	4861.2875
2726.87057	4868.0875
2729.46747	4854.2875
2732.06276	4847.0875
2734.65644	4842.2875
2737.24852	4849.6875
2739.83899	4834.3875
2742.42786	4842.8875
2745.01513	4816.5875
2747.60079	4824.9875
2750.18486	4805.6875
2752.76733	4802.8875
2755.3482	4798.2875
2757.92747	4785.8875
2760.50515	4772.9875
2763.08123	4768.7875
2765.65573	4761.5875
2768.22863	4757.1875
2770.79994	4739.4875
2773.36967	4730.4875
2775.9378	4752.1875
2778.50435	4741.7875
2781.06932	4750.4875
2783.6327	4739.2875
2786.1945	4751.0875
2788.75471	4748.6875
2791.31335	4746.6875
2793.87041	4732.5875
2796.42589	4722.7875
2798.97979	4732.4875
2801.53212	4703.1875
2804.08288	4723.2875
2806.63206	4702.2875
2809.17967	4703.8875
2811.72571	4703.0875
2814.27018	4713.4875
2816.81308	4713.6875
2819.35442	4696.4875
2821.89419	4704.6875
2824.43239	4717.8875
2826.96904	4725.8875
2829.50412	4723.7875
2832.03763	4725.4875
2834.56959	4712.6875
2837.1	4712.8875
2839.62884	4746.6875
2842.15613	4761.8875
2844.68186	4777.5875
2847.20604	4791.3875
2849.72867	4830.2875
2852.24974	4827.4875
2854.76927	4817.1875
2857.28724	4810.1875
2859.80367	4793.5875
2862.31855	4792.4875
2864.83189	4780.8875
2867.34368	4780.1875
2869.85393	4788.6875
2872.36264	4789.9875
2874.8698	4781.6875
2877.37543	4780.9875
2879.87952	4770.5875
2882.38207	4769.1875
2884.88308	4750.1875
2887.38256	4754.0875
2889.88051	4727.8875
2892.37692	4740.8875
2894.8718	4738.7875
2897.36515	4745.5875
2899.85698	4756.6875
2902.34727	4759.5875
2904.83604	4765.8875
2907.32328	4773.2875
2909.809	4772.0875
2912.29319	4765.5875
2914.77587	4758.3875
2917.25702	4744.8875
2919.73665	4755.1875
2922.21476	4766.9875
2924.69136	4755.4875
2927.16644	4752.6875
2929.64	4727.1875
2932.11205	4713.0875
2934.58258	4700.6875
2937.05161	4706.0875
2939.51912	4680.6875
2941.98513	4662.2875
2944.44962	4648.9875
2946.91261	4604.7875
2949.37409	4601.2875
2951.83407	4585.2875
2954.29254	4566.1875
2956.74951	4561.2875
2959.20498	4561.5875
2961.65895	4551.0875
2964.11142	4563.3875
2966.56239	4546.0875
2969.01186	4538.1875
2971.45984	4527.0875
2973.90632	4528.6875
2976.35131	4509.0875
2978.7948	4493.2875
2981.23681	4489.8875
2983.67732	4468.2875
2986.11635	4458.8875
2988.55388	4440.9875
2990.98993	4437.9875
2993.4245	4428.6875
2995.85758	4411.6875
2998.28917	4395.9875
3000.71928	4384.2875
3003.14791	4395.3875
3005.57506	4390.7875
3008.00073	4371.9875
3010.42493	4250.8875
3012.84764	4341.7875
3015.26888	4345.4875
3017.68865	4348.5875
3020.10694	4332.8875
3022.52376	4331.8875
3024.9391	4312.6875
3027.35298	4306.3875
3029.76539	4292.2875
3032.17632	4299.2875
3034.5858	4298.0875
3036.9938	4292.8875
3039.40034	4294.0875
3041.80542	4288.4875
3044.20903	4267.7875
3046.61118	4280.5875
3049.01187	4246.6875
3051.4111	4243.8875
3053.80888	4228.7875
3056.20519	4227.2875
3058.60005	4221.4875
3060.99345	4198.6875
3063.3854	4204.5875
3065.7759	4187.6875
3068.16494	4182.4875
3070.55254	4169.3875
3072.93868	4149.2875
3075.32338	4140.5875
3077.70662	4134.5875
3080.08842	4118.5875
3082.46878	4116.8875
3084.84769	4105.4875
3087.22515	4086.7875
3089.60118	4099.9875
3091.97576	4111.0875
3094.3489	4085.4875
3096.72061	4081.2875
