Data from AgNP_FTO_APTES_UA_10uM_CRN_1000uM_R6G_10uM_NaF_0.1M_Addition_RamanShift__4__19-25-50-980.txt Node

Date: Thu Feb 10 19:25:50 GMT 2022
User: TCL
Spectrometer: QEP01345
Trigger mode: 4
Integration Time (sec): 7.000000E0
Scans to average: 10
Electric dark correction enabled: true
Nonlinearity correction enabled: false
Boxcar width: 0
XAxis mode: Raman Shifts
Number of Pixels in Spectrum: 1044
>>>>>Begin Spectral Data<<<<<
46.04893	0.525
50.45542	-2.875
54.85868	-0.375
59.25871	-0.575
63.6555	58.425
68.04907	58.725
72.43941	65.525
76.82654	62.725
81.21044	71.225
85.59113	67.525
89.96862	75.425
94.34289	76.825
98.71396	78.225
103.08183	79.925
107.4465	83.825
111.80798	84.725
116.16626	88.125
120.52136	90.525
124.87327	97.625
129.222	96.925
133.56755	108.625
137.90993	110.025
142.24913	118.225
146.58517	134.525
150.91804	156.125
155.24774	184.225
159.57429	231.625
163.89768	291.125
168.21792	383.225
172.53501	528.625
176.84895	740.525
181.15975	1030.625
185.46741	1466.725
189.77193	2022.925
194.07331	2719.525
198.37157	3505.125
202.6667	4329.025
206.9587	5150.825
211.24758	5950.825
215.53334	6750.625
219.81599	7593.725
224.09553	8504.125
228.37195	9516.925
232.64527	10616.225
236.91549	11793.625
241.18261	13017.625
245.44663	14137.225
249.70755	15210.525
253.96539	16094.325
258.22014	16886.725
262.4718	17542.325
266.72039	17965.425
270.96589	18187.225
275.20832	18277.325
279.44768	18163.225
283.68397	17970.425
287.91719	17804.525
292.14735	17671.125
296.37445	17629.925
300.59849	17659.825
304.81948	17716.925
309.03742	17673.625
313.25231	17550.725
317.46415	17252.825
321.67296	16909.725
325.87872	16658.825
330.08145	16486.225
334.28114	16483.025
338.47781	16583.125
342.67145	16748.325
346.86207	16974.725
351.04966	17252.625
355.23424	17542.925
359.4158	17816.125
363.59435	18019.125
367.76989	18178.325
371.94243	18304.625
376.11196	18433.925
380.27849	18533.925
384.44203	18638.825
388.60257	18761.225
392.76012	18879.725
396.91468	19062.925
401.06626	19309.725
405.21485	19466.625
409.36047	19389.025
413.50311	19172.125
417.64277	19017.725
421.77947	19025.225
425.9132	19109.625
430.04396	19211.725
434.17176	19324.525
438.2966	19473.725
442.41849	19746.125
446.53742	20190.525
450.6534	20666.025
454.76644	20986.025
458.87653	21063.025
462.98368	20955.425
467.08789	20873.725
471.18916	20636.125
475.2875	20493.925
479.38291	20484.825
483.4754	20394.625
487.56496	20240.025
491.6516	19989.125
495.73531	19655.025
499.81612	19509.625
503.89401	19511.125
507.96899	19523.125
512.04106	19502.525
516.11023	19477.125
520.1765	19373.825
524.23987	19230.825
528.30034	19128.625
532.35792	19042.325
536.41261	18870.225
540.46441	18708.725
544.51333	18751.825
548.55936	18912.825
552.60252	19188.025
556.64279	19637.625
560.6802	19945.625
564.71473	20083.925
568.7464	20313.825
572.7752	20787.825
576.80114	21143.625
580.82422	21354.325
584.84444	21604.025
588.86181	22177.425
592.87633	22656.025
596.888	22587.725
600.89682	21979.725
604.9028	21869.425
608.90594	22958.525
612.90624	24444.225
616.90371	23485.925
620.89834	20545.425
624.89015	19184.425
628.87913	19054.325
632.86528	19106.925
636.84862	19176.125
640.82913	18999.925
644.80683	18734.525
648.78172	18478.925
652.75379	18482.525
656.72306	18602.925
660.68952	18821.525
664.65319	18716.625
668.61405	18468.725
672.57211	18383.025
676.52738	18501.525
680.47986	18503.425
684.42955	18487.625
688.37646	18403.825
692.32058	18448.925
696.26192	18588.325
700.20048	18810.625
704.13626	18880.125
708.06928	18883.825
711.99952	18832.725
715.927	18818.625
719.85171	18827.625
723.77365	18759.525
727.69284	18652.425
731.60928	18457.425
735.52295	18381.525
739.43388	18405.925
743.34206	18419.625
747.24749	18490.425
751.15017	18613.125
755.05012	18800.725
758.94733	19194.725
762.8418	19831.425
766.73354	20891.325
770.62254	21860.625
774.50882	22194.825
778.39237	21529.725
782.27321	20339.125
786.15132	19384.925
790.02671	18738.625
793.89938	18476.325
797.76935	18338.125
801.6366	18275.825
805.50115	18254.925
809.36299	18175.325
813.22213	18102.425
817.07857	18073.225
820.93231	18038.425
824.78336	17967.925
828.63172	17887.525
832.47738	17904.325
836.32036	17882.725
840.16066	17907.125
843.99827	17909.925
847.8332	17877.525
851.66546	17828.825
855.49504	17866.025
859.32195	17906.625
863.1462	17843.325
866.96777	17811.725
870.78668	17776.925
874.60293	17786.925
878.41652	17823.225
882.22745	17828.325
886.03573	17889.925
889.84136	17881.825
893.64433	17839.725
897.44466	17828.125
901.24235	17772.825
905.0374	17663.125
908.8298	17627.625
912.61957	17634.125
916.40671	17709.725
920.19121	17878.525
923.97308	17989.225
927.75233	17980.625
931.52895	17887.225
935.30295	17707.725
939.07433	17474.725
942.84309	17290.025
946.60924	17152.225
950.37278	17125.525
954.13371	17074.125
957.89203	17070.025
961.64774	17042.625
965.40086	16999.925
969.15137	16987.525
972.89929	16900.425
976.64461	16852.325
980.38733	16769.325
984.12747	16819.325
987.86502	16896.925
991.59999	16980.425
995.33237	17133.625
999.06217	17322.525
1002.78939	17579.425
1006.51404	17792.125
1010.23611	17939.825
1013.95561	18087.125
1017.67255	18142.225
1021.38692	18040.225
1025.09872	17890.825
1028.80796	17750.525
1032.51465	17804.125
1036.21877	17983.325
1039.92035	18048.125
1043.61937	17993.225
1047.31584	17878.325
1051.00976	17756.725
1054.70114	17731.025
1058.38998	17773.025
1062.07627	17851.525
1065.76003	17965.325
1069.44126	18017.425
1073.11995	18169.525
1076.79611	18314.525
1080.46974	18376.325
1084.14085	18465.025
1087.80943	18615.125
1091.47549	18755.325
1095.13903	18756.325
1098.80005	18628.425
1102.45857	18342.125
1106.11456	18133.125
1109.76805	18084.425
1113.41903	18110.525
1117.06751	18203.725
1120.71348	18357.825
1124.35696	18533.525
1127.99793	18755.125
1131.63641	18881.425
1135.2724	18744.825
1138.90589	18585.425
1142.5369	18545.425
1146.16542	18606.425
1149.79145	18720.825
1153.415	18811.825
1157.03607	19028.825
1160.65467	19421.625
1164.27079	20090.225
1167.88443	20888.025
1171.49561	21808.125
1175.10432	23005.525
1178.71056	24487.425
1182.31434	25876.325
1185.91565	26524.325
1189.51451	26429.625
1193.11091	25846.825
1196.70485	25063.725
1200.29634	24231.925
1203.88538	23682.825
1207.47197	23269.225
1211.05612	22915.625
1214.63782	22475.725
1218.21708	22033.625
1221.79391	21637.025
1225.36829	21410.925
1228.94024	21212.025
1232.50976	20936.825
1236.07685	20647.325
1239.6415	20473.325
1243.20374	20527.925
1246.76355	20623.925
1250.32093	20790.825
1253.8759	21089.925
1257.42845	21509.425
1260.97859	21931.625
1264.52631	22403.925
1268.07163	22896.225
1271.61453	23340.425
1275.15503	23789.625
1278.69312	24353.225
1282.22882	24847.625
1285.76211	25486.225
1289.29301	26305.225
1292.82151	27374.025
1296.34761	28691.725
1299.87133	30173.825
1303.39266	31775.325
1306.9116	33184.425
1310.42815	34454.825
1313.94233	35122.325
1317.45412	34860.525
1320.96354	34206.125
1324.47058	33456.225
1327.97525	32835.125
1331.47754	32373.125
1334.97747	32002.725
1338.47502	31758.325
1341.97022	31517.225
1345.46305	31213.725
1348.95352	31058.825
1352.44163	31271.825
1355.92738	31921.125
1359.41078	33052.225
1362.89183	33997.925
1366.37053	33492.325
1369.84688	31008.525
1373.32088	27999.525
1376.79254	26021.225
1380.26186	25325.325
1383.72883	25389.825
1387.19347	25460.625
1390.65578	25386.225
1394.11575	25357.325
1397.57339	25530.225
1401.0287	25898.225
1404.48168	26067.225
1407.93234	25895.225
1411.38068	25373.425
1414.82669	24606.125
1418.27039	23718.025
1421.71177	22896.625
1425.15083	22124.225
1428.58758	21765.225
1432.02203	21912.725
1435.45416	22359.525
1438.88399	22872.525
1442.31151	23353.225
1445.73673	23564.425
1449.15965	23768.425
1452.58027	23861.125
1455.9986	23895.525
1459.41463	23914.925
1462.82837	24116.125
1466.23982	24349.325
1469.64898	24614.425
1473.05586	24764.525
1476.46045	24755.325
1479.86276	24602.525
1483.26279	24377.725
1486.66054	24278.025
1490.05602	24341.325
1493.44922	24568.125
1496.84016	24854.425
1500.22882	25393.225
1503.61521	26146.725
1506.99934	27081.425
1510.38121	27930.625
1513.76081	28118.225
1517.13816	27584.825
1520.51324	26656.025
1523.88607	25882.225
1527.25665	25566.725
1530.62498	25456.525
1533.99105	25418.925
1537.35488	25256.425
1540.71647	24862.725
1544.07581	24347.225
1547.4329	23767.825
1550.78776	23246.925
1554.14038	22912.025
1557.49077	22708.725
1560.83892	22638.325
1564.18484	22631.725
1567.52853	22720.425
1570.86999	22997.525
1574.20922	23411.725
1577.54624	23799.125
1580.88103	23941.225
1584.2136	24035.125
1587.54395	24471.825
1590.87208	25251.325
1594.19801	26316.825
1597.52172	27334.725
1600.84321	27668.925
1604.16251	26787.925
1607.47959	25141.225
1610.79447	23328.825
1614.10715	21600.325
1617.41763	20279.625
1620.7259	19378.125
1624.03199	18913.025
1627.33587	18893.725
1630.63757	19329.325
1633.93707	20265.025
1637.23439	21833.625
1640.52951	24111.325
1643.82246	26822.425
1647.11321	28986.825
1650.40179	29488.325
1653.68819	27714.725
1656.97241	24512.525
1660.25446	21401.725
1663.53433	19120.425
1666.81203	17687.325
1670.08756	16764.725
1673.36092	16239.525
1676.63211	15855.825
1679.90115	15592.225
1683.16801	15373.325
1686.43272	15228.825
1689.69527	15120.025
1692.95567	15036.925
1696.2139	14980.425
1699.46999	14947.025
1702.72392	14887.925
1705.97571	14834.925
1709.22535	14795.725
1712.47284	14753.425
1715.71819	14717.825
1718.96139	14695.125
1722.20246	14658.325
1725.44139	14577.125
1728.67818	14524.925
1731.91284	14446.625
1735.14537	14361.325
1738.37576	14319.425
1741.60403	14268.425
1744.83017	14239.125
1748.05418	14209.325
1751.27607	14187.525
1754.49584	14184.525
1757.71349	14166.425
1760.92903	14165.625
1764.14244	14139.725
1767.35375	14148.025
1770.56294	14081.925
1773.77002	14064.925
1776.97499	14037.325
1780.17785	14002.025
1783.37861	13982.325
1786.57727	13915.125
1789.77382	13879.425
1792.96828	13886.825
1796.16064	13835.425
1799.3509	13829.125
1802.53907	13810.025
1805.72514	13751.425
1808.90913	13728.625
1812.09102	13691.625
1815.27083	13661.125
1818.44856	13646.125
1821.6242	13576.425
1824.79776	13578.725
1827.96924	13583.425
1831.13864	13539.525
1834.30597	13534.625
1837.47122	13505.025
1840.6344	13494.725
1843.7955	13482.525
1846.95454	13481.725
1850.11151	13463.325
1853.26642	13471.825
1856.41926	13442.625
1859.57004	13415.325
1862.71876	13412.625
1865.86542	13402.725
1869.01003	13365.925
1872.15258	13355.925
1875.29308	13342.425
1878.43152	13314.925
1881.56792	13311.025
1884.70227	13292.325
1887.83457	13296.525
1890.96482	13244.125
1894.09304	13219.825
1897.21921	13187.525
1900.34335	13190.525
1903.46544	13193.125
1906.58551	13180.025
1909.70353	13156.425
1912.81953	13148.325
1915.93349	13125.525
1919.04543	13081.325
1922.15534	13055.325
1925.26322	13017.525
1928.36908	12995.425
1931.47292	12995.325
1934.57473	12962.225
1937.67453	12949.425
1940.77232	12903.925
1943.86808	12858.925
1946.96184	12820.725
1950.05358	12758.625
1953.14331	12737.425
1956.23103	12680.625
1959.31675	12654.425
1962.40046	12620.725
1965.48217	12585.525
1968.56188	12566.425
1971.63959	12494.125
1974.7153	12458.325
1977.78901	12427.325
1980.86073	12413.425
1983.93046	12359.525
1986.99819	12310.425
1990.06394	12281.525
1993.1277	12247.325
1996.18947	12189.125
1999.24925	12157.125
2002.30706	12102.825
2005.36288	12070.225
2008.41672	12060.525
2011.46859	12025.425
2014.51848	11975.125
2017.56639	11956.325
2020.61233	11935.325
2023.6563	11907.125
2026.6983	11871.425
2029.73833	11857.925
2032.7764	11811.525
2035.8125	11780.025
2038.84664	11738.925
2041.87881	11709.025
2044.90903	11648.325
2047.93729	11660.125
2050.96359	11661.325
2053.98794	11616.225
2057.01034	11597.425
2060.03078	11615.125
2063.04927	11604.125
2066.06582	11588.725
2069.08042	11629.325
2072.09307	11602.425
2075.10378	11564.425
2078.11255	11553.625
2081.11938	11551.525
2084.12426	11562.425
2087.12722	11553.725
2090.12824	11505.925
2093.12732	11529.625
2096.12447	11541.025
2099.11969	11494.825
2102.11299	11502.025
2105.10435	11502.925
2108.09379	11497.325
2111.08131	11498.025
2114.0669	11505.125
2117.05057	11529.025
2120.03233	11543.725
2123.01216	11541.025
2125.99008	11546.025
2128.96609	11576.825
2131.94018	11582.425
2134.91236	11581.225
2137.88263	11550.725
2140.851	11564.325
2143.81746	11589.525
2146.78201	11572.925
2149.74466	11567.225
2152.7054	11581.325
2155.66425	11546.225
2158.6212	11570.725
2161.57625	11550.825
2164.52941	11529.525
2167.48067	11520.825
2170.43004	11530.025
2173.37752	11528.325
2176.32311	11532.625
2179.26681	11520.325
2182.20863	11511.025
2185.14856	11507.125
2188.08661	11490.225
2191.02278	11522.325
2193.95707	11508.025
2196.88948	11500.325
2199.82001	11511.825
2202.74867	11463.425
2205.67545	11436.025
2208.60037	11427.925
2211.52341	11413.225
2214.44458	11407.625
2217.36388	11386.925
2220.28132	11348.225
2223.1969	11320.125
2226.11061	11315.525
2229.02246	11279.425
2231.93245	11275.725
2234.84058	11214.925
2237.74686	11255.925
2240.65128	11228.325
2243.55385	11152.325
2246.45456	11158.925
2249.35343	11138.825
2252.25044	11128.425
2255.14561	11109.325
2258.03893	11107.925
2260.93041	11074.325
2263.82004	11036.925
2266.70783	11029.725
2269.59378	10994.425
2272.4779	10927.625
2275.36017	10900.225
2278.24061	10907.425
2281.11922	10878.325
2283.996	10874.525
2286.87094	10863.725
2289.74405	10863.925
2292.61534	10832.125
2295.4848	10822.225
2298.35243	10837.825
2301.21824	10787.125
2304.08223	10797.325
2306.94439	10807.225
2309.80474	10803.525
2312.66327	10775.025
2315.51999	10769.925
2318.37489	10775.725
2321.22797	10731.325
2324.07925	10711.625
2326.92871	10704.225
2329.77637	10691.325
2332.62222	10669.925
2335.46626	10659.325
2338.3085	10615.925
2341.14893	10638.425
2343.98756	10642.725
2346.8244	10621.825
2349.65943	10618.325
2352.49267	10609.525
2355.32411	10587.025
2358.15376	10571.025
2360.98161	10577.425
2363.80768	10568.825
2366.63195	10577.525
2369.45444	10558.725
2372.27514	10530.825
2375.09405	10530.025
2377.91118	10484.325
2380.72652	10484.025
2383.54009	10424.325
2386.35187	10446.525
2389.16188	10401.325
2391.97011	10387.625
2394.77657	10350.225
2397.58125	10357.725
2400.38416	10307.225
2403.18529	10325.625
2405.98466	10301.325
2408.78226	10288.225
2411.57809	10270.025
2414.37216	10270.125
2417.16446	10251.725
2419.955	10232.325
2422.74378	10232.825
2425.5308	10207.425
2428.31606	10204.025
2431.09956	10189.725
2433.88131	10176.125
2436.6613	10176.125
2439.43954	10174.025
2442.21603	10157.825
2444.99077	10141.425
2447.76377	10140.425
2450.53501	10132.325
2453.30451	10116.925
2456.07226	10109.825
2458.83827	10101.125
2461.60254	10115.625
2464.36507	10073.525
2467.12586	10057.625
2469.88492	10058.925
2472.64224	10081.525
2475.39782	10062.525
2478.15167	10083.925
2480.90379	10076.925
2483.65417	10089.025
2486.40283	10069.425
2489.14976	10083.325
2491.89497	10034.825
2494.63845	10073.825
2497.3802	10050.225
2500.12024	10021.125
2502.85855	10011.925
2505.59514	10020.525
2508.33002	9996.825
2511.06318	9994.625
2513.79462	9981.325
2516.52435	9947.525
2519.25237	9958.625
2521.97867	9923.625
2524.70327	9925.925
2527.42616	9935.025
2530.14734	9890.725
2532.86681	9887.225
2535.58458	9909.625
2538.30065	9911.125
2541.01501	9898.625
2543.72768	9867.925
2546.43864	9890.525
2549.14791	9845.925
2551.85548	9844.825
2554.56136	9825.125
2557.26554	9804.225
2559.96803	9770.125
2562.66883	9787.325
2565.36794	9738.425
2568.06536	9727.125
2570.7611	9716.725
2573.45514	9679.625
2576.14751	9694.825
2578.83819	9661.225
2581.52719	9674.325
2584.21451	9637.825
2586.90015	9643.025
2589.58411	9615.825
2592.2664	9619.325
2594.94701	9579.525
2597.62594	9602.125
2600.30321	9587.325
2602.9788	9552.925
2605.65273	9540.825
2608.32498	9563.525
2610.99557	9533.525
2613.66449	9553.825
2616.33175	9541.725
2618.99734	9550.225
2621.66128	9511.825
2624.32355	9497.125
2626.98416	9501.825
2629.64311	9492.525
2632.30041	9469.525
2634.95605	9439.325
2637.61004	9445.425
2640.26238	9411.225
2642.91306	9413.125
2645.56209	9431.425
2648.20948	9429.025
2650.85521	9403.925
2653.4993	9398.625
2656.14175	9402.325
2658.78255	9403.425
2661.42171	9422.525
2664.05923	9435.425
2666.6951	9432.225
2669.32934	9436.525
2671.96194	9415.725
2674.59291	9412.225
2677.22224	9407.725
2679.84993	9433.925
2682.476	9389.725
2685.10043	9378.925
2687.72324	9375.225
2690.34441	9379.025
2692.96396	9386.525
2695.58188	9379.425
2698.19818	9363.325
2700.81285	9364.125
2703.4259	9394.125
2706.03733	9401.325
2708.64714	9374.525
2711.25533	9405.525
2713.86191	9399.125
2716.46687	9401.525
2719.07021	9407.925
2721.67194	9420.225
2724.27206	9379.725
2726.87057	9407.625
2729.46747	9402.425
2732.06276	9398.625
2734.65644	9394.225
2737.24852	9391.625
2739.83899	9396.225
2742.42786	9414.625
2745.01513	9367.525
2747.60079	9354.025
2750.18486	9336.225
2752.76733	9334.025
2755.3482	9313.925
2757.92747	9329.225
2760.50515	9317.725
2763.08123	9291.725
2765.65573	9292.925
2768.22863	9274.725
2770.79994	9264.725
2773.36967	9236.125
2775.9378	9241.725
2778.50435	9231.425
2781.06932	9259.725
2783.6327	9249.925
2786.1945	9247.525
2788.75471	9238.925
2791.31335	9208.325
2793.87041	9202.725
2796.42589	9194.925
2798.97979	9179.725
2801.53212	9143.525
2804.08288	9131.225
2806.63206	9126.125
2809.17967	9077.925
2811.72571	9059.125
2814.27018	9064.925
2816.81308	9044.025
2819.35442	9027.425
2821.89419	9028.725
2824.43239	8999.825
2826.96904	8970.925
2829.50412	8988.925
2832.03763	8970.625
2834.56959	8975.325
2837.1	8961.425
2839.62884	8980.725
2842.15613	8979.125
2844.68186	9008.525
2847.20604	9023.525
2849.72867	9049.125
2852.24974	9031.425
2854.76927	9015.325
2857.28724	8995.425
2859.80367	8949.625
2862.31855	8958.225
2864.83189	8960.125
2867.34368	8928.125
2869.85393	8919.825
2872.36264	8918.925
2874.8698	8929.525
2877.37543	8906.625
2879.87952	8889.225
2882.38207	8920.625
2884.88308	8889.425
2887.38256	8903.825
2889.88051	8877.325
2892.37692	8890.225
2894.8718	8887.625
2897.36515	8909.625
2899.85698	8919.025
2902.34727	8928.425
2904.83604	8923.025
2907.32328	8953.125
2909.809	8930.625
2912.29319	8956.925
2914.77587	8938.725
2917.25702	8947.725
2919.73665	8897.325
2922.21476	8916.725
2924.69136	8887.425
2927.16644	8918.225
2929.64	8878.325
2932.11205	8910.425
2934.58258	8866.225
2937.05161	8878.825
2939.51912	8876.125
2941.98513	8873.825
2944.44962	8846.625
2946.91261	8806.625
2949.37409	8834.525
2951.83407	8824.825
2954.29254	8791.025
2956.74951	8799.725
2959.20498	8778.825
2961.65895	8758.925
2964.11142	8793.625
2966.56239	8752.525
2969.01186	8752.925
2971.45984	8731.425
2973.90632	8712.825
2976.35131	8680.225
2978.7948	8680.725
2981.23681	8659.325
2983.67732	8611.525
2986.11635	8619.125
2988.55388	8596.525
2990.98993	8561.825
2993.4245	8536.325
2995.85758	8514.625
2998.28917	8504.025
3000.71928	8486.325
3003.14791	8477.125
3005.57506	8460.325
3008.00073	8437.425
3010.42493	8438.025
3012.84764	8412.125
3015.26888	8379.325
3017.68865	8382.225
3020.10694	8396.925
3022.52376	8356.325
3024.9391	8355.625
3027.35298	8336.025
3029.76539	8331.225
3032.17632	8326.125
3034.5858	8323.025
3036.9938	8347.625
3039.40034	8329.825
3041.80542	8307.325
3044.20903	8299.225
3046.61118	8288.925
3049.01187	8284.525
3051.4111	8277.025
3053.80888	8281.125
3056.20519	8219.925
3058.60005	8209.525
3060.99345	8195.425
3063.3854	8164.525
3065.7759	8146.125
3068.16494	8134.825
3070.55254	8138.325
3072.93868	8146.125
3075.32338	8105.825
3077.70662	8077.625
3080.08842	8048.225
3082.46878	8047.025
3084.84769	8053.825
3087.22515	8043.625
3089.60118	8040.125
3091.97576	8015.825
3094.3489	8027.825
3096.72061	8034.525
3099.09087	8027.325
3101.4597	8023.225
3103.82709	8015.325
3106.19305	7989.925
3108.55757	7999.525
3110.92066	7969.225
3113.28232	7979.325
3115.64255	7965.325
3118.00134	7932.725
3120.35871	7944.825
3122.71466	7954.125
3125.06917	7917.525
3127.42226	7896.925
3129.77393	7924.625
3132.12417	7923.725
3134.47299	7885.825
3136.82039	7888.225
3139.16636	7899.725
3141.51092	7891.125
3143.85406	7869.325
3146.19579	7893.125
3148.53609	7876.125
3150.87499	7880.625
3153.21246	7885.925
3155.54853	7926.325
3157.88318	7903.925
