Data from AgNP_FTO_APTES_UA_10uM_CRN_10uM_R6G_10uM_NaF_0.1M_Addition_RamanShift__8__15-33-40-694.txt Node

Date: Thu Feb 10 15:33:40 GMT 2022
User: TCL
Spectrometer: QEP01345
Trigger mode: 4
Integration Time (sec): 7.000000E0
Scans to average: 10
Electric dark correction enabled: true
Nonlinearity correction enabled: false
Boxcar width: 0
XAxis mode: Raman Shifts
Number of Pixels in Spectrum: 1044
>>>>>Begin Spectral Data<<<<<
46.04893	0.125
50.45542	0.725
54.85868	-1.275
59.25871	-1.475
63.6555	73.325
68.04907	77.425
72.43941	82.225
76.82654	81.825
81.21044	84.925
85.59113	88.525
89.96862	95.225
94.34289	98.425
98.71396	98.625
103.08183	102.925
107.4465	105.625
111.80798	106.825
116.16626	111.725
120.52136	114.325
124.87327	120.925
129.222	127.725
133.56755	134.725
137.90993	145.225
142.24913	159.225
146.58517	177.425
150.91804	209.625
155.24774	253.525
159.57429	312.125
163.89768	404.325
168.21792	532.725
172.53501	726.025
176.84895	1024.325
181.15975	1435.725
185.46741	2005.025
189.77193	2765.325
194.07331	3700.225
198.37157	4764.425
202.6667	5861.825
206.9587	6974.225
211.24758	8045.825
215.53334	9144.325
219.81599	10275.125
224.09553	11521.725
228.37195	12904.125
232.64527	14414.725
236.91549	16023.525
241.18261	17630.425
245.44663	19094.425
249.70755	20423.825
253.96539	21597.725
258.22014	22646.525
262.4718	23394.025
266.72039	23934.725
270.96589	24260.925
275.20832	24328.125
279.44768	24229.325
283.68397	24091.025
287.91719	23875.625
292.14735	23763.925
296.37445	23756.625
300.59849	23809.625
304.81948	23936.925
309.03742	23933.225
313.25231	23831.225
317.46415	23452.825
321.67296	22980.025
325.87872	22577.925
330.08145	22427.425
334.28114	22362.325
338.47781	22516.025
342.67145	22764.725
346.86207	23104.025
351.04966	23489.325
355.23424	23823.225
359.4158	24158.725
363.59435	24441.025
367.76989	24614.725
371.94243	24726.225
376.11196	24790.825
380.27849	24866.925
384.44203	24960.825
388.60257	25145.625
392.76012	25461.325
396.91468	25808.525
401.06626	26213.725
405.21485	26514.125
409.36047	26446.325
413.50311	26213.425
417.64277	26169.325
421.77947	26338.625
425.9132	26544.225
430.04396	26712.525
434.17176	26790.225
438.2966	26836.725
442.41849	27169.925
446.53742	27734.825
450.6534	28474.725
454.76644	29020.225
458.87653	29170.625
462.98368	29075.225
467.08789	28734.425
471.18916	28329.225
475.2875	27866.725
479.38291	27606.825
483.4754	27447.425
487.56496	27154.825
491.6516	26753.125
495.73531	26382.825
499.81612	26220.325
503.89401	26344.625
507.96899	26521.725
512.04106	26565.725
516.11023	26396.925
520.1765	26102.725
524.23987	25762.625
528.30034	25527.625
532.35792	25257.825
536.41261	24940.525
540.46441	24706.125
544.51333	24713.025
548.55936	25016.825
552.60252	25468.625
556.64279	26069.225
560.6802	26578.025
564.71473	26905.625
568.7464	27506.125
572.7752	28472.025
576.80114	29716.025
580.82422	30945.125
584.84444	32179.925
588.86181	33889.125
592.87633	35230.825
596.888	34651.925
600.89682	32593.125
604.9028	31555.425
608.90594	32546.625
612.90624	33593.025
616.90371	31279.725
620.89834	27295.225
624.89015	25716.625
628.87913	25656.625
632.86528	25901.325
636.84862	25799.225
640.82913	25299.025
644.80683	24706.425
648.78172	24320.425
652.75379	24299.725
656.72306	24540.825
660.68952	24857.425
664.65319	24705.725
668.61405	24356.125
672.57211	24369.625
676.52738	24432.625
680.47986	24438.725
684.42955	24247.525
688.37646	24221.825
692.32058	24348.425
696.26192	24758.825
700.20048	25126.925
704.13626	25306.625
708.06928	25351.225
711.99952	25288.925
715.927	25246.425
719.85171	25281.725
723.77365	25125.625
727.69284	24694.625
731.60928	24298.225
735.52295	24129.525
739.43388	24079.025
743.34206	24155.425
747.24749	24375.925
751.15017	24686.225
755.05012	25199.425
758.94733	25910.725
762.8418	27046.525
766.73354	28605.125
770.62254	29949.125
774.50882	29856.725
778.39237	28537.425
782.27321	26856.025
786.15132	25603.825
790.02671	24804.825
793.89938	24372.525
797.76935	24242.625
801.6366	24116.125
805.50115	24011.325
809.36299	23911.525
813.22213	23727.225
817.07857	23688.125
820.93231	23571.925
824.78336	23409.625
828.63172	23295.725
832.47738	23215.725
836.32036	23211.925
840.16066	23232.625
843.99827	23253.725
847.8332	23236.425
851.66546	23263.325
855.49504	23338.125
859.32195	23329.525
863.1462	23281.425
866.96777	23177.325
870.78668	23127.625
874.60293	23138.325
878.41652	23144.025
882.22745	23228.925
886.03573	23250.625
889.84136	23254.125
893.64433	23126.825
897.44466	23065.525
901.24235	23033.225
905.0374	23008.925
908.8298	22960.325
912.61957	23069.925
916.40671	23316.725
920.19121	23708.625
923.97308	23979.025
927.75233	23945.525
931.52895	23555.625
935.30295	23130.425
939.07433	22722.925
942.84309	22417.825
946.60924	22308.025
950.37278	22340.025
954.13371	22326.725
957.89203	22304.325
961.64774	22309.125
965.40086	22301.225
969.15137	22295.325
972.89929	22205.225
976.64461	22077.025
980.38733	22090.425
984.12747	22073.325
987.86502	22163.725
991.59999	22282.725
995.33237	22511.825
999.06217	22894.825
1002.78939	23348.425
1006.51404	23872.425
1010.23611	24343.825
1013.95561	24670.825
1017.67255	24677.725
1021.38692	24403.425
1025.09872	23974.725
1028.80796	23678.925
1032.51465	23639.325
1036.21877	23781.925
1039.92035	23900.325
1043.61937	23948.625
1047.31584	23876.625
1051.00976	23837.325
1054.70114	23858.725
1058.38998	24025.225
1062.07627	24308.725
1065.76003	24630.025
1069.44126	24932.425
1073.11995	25406.725
1076.79611	25715.925
1080.46974	25900.825
1084.14085	26103.125
1087.80943	26410.625
1091.47549	26696.725
1095.13903	26698.725
1098.80005	26345.425
1102.45857	25696.625
1106.11456	25140.725
1109.76805	24882.325
1113.41903	24850.125
1117.06751	24902.425
1120.71348	25147.925
1124.35696	25375.725
1127.99793	25629.625
1131.63641	25855.025
1135.2724	25848.225
1138.90589	25919.825
1142.5369	26002.825
1146.16542	26257.325
1149.79145	26582.325
1153.415	26934.425
1157.03607	27425.225
1160.65467	28302.825
1164.27079	29646.325
1167.88443	31325.625
1171.49561	32794.725
1175.10432	34587.325
1178.71056	36798.225
1182.31434	38924.925
1185.91565	40035.225
1189.51451	40015.825
1193.11091	39305.325
1196.70485	38172.125
1200.29634	36990.225
1203.88538	36249.725
1207.47197	36056.525
1211.05612	35994.725
1214.63782	35484.025
1218.21708	34324.125
1221.79391	33049.825
1225.36829	32057.725
1228.94024	31494.425
1232.50976	31122.125
1236.07685	30711.125
1239.6415	30505.725
1243.20374	30391.525
1246.76355	30587.625
1250.32093	31114.125
1253.8759	31812.925
1257.42845	32652.725
1260.97859	33665.825
1264.52631	34692.125
1268.07163	35748.125
1271.61453	36781.325
1275.15503	37813.525
1278.69312	38958.825
1282.22882	40060.925
1285.76211	41536.725
1289.29301	43239.925
1292.82151	45332.025
1296.34761	47872.125
1299.87133	50832.525
1303.39266	53743.525
1306.9116	56101.325
1310.42815	57572.025
1313.94233	58103.325
1317.45412	57623.825
1320.96354	56797.425
1324.47058	56405.025
1327.97525	56378.525
1331.47754	56454.725
1334.97747	56407.725
1338.47502	56146.925
1341.97022	55542.025
1345.46305	54648.425
1348.95352	53673.325
1352.44163	52934.825
1355.92738	53007.125
1359.41078	54084.825
1362.89183	54885.225
1366.37053	53813.025
1369.84688	50263.125
1373.32088	45555.225
1376.79254	42222.125
1380.26186	41194.325
1383.72883	41543.125
1387.19347	41947.425
1390.65578	41700.025
1394.11575	41659.225
1397.57339	42229.125
1401.0287	43035.425
1404.48168	43706.825
1407.93234	43623.425
1411.38068	42659.925
1414.82669	41037.425
1418.27039	39069.225
1421.71177	37313.125
1425.15083	35965.825
1428.58758	35498.125
1432.02203	35944.125
1435.45416	37271.325
1438.88399	38620.125
1442.31151	39592.525
1445.73673	40022.425
1449.15965	40234.325
1452.58027	40232.625
1455.9986	40169.125
1459.41463	40434.125
1462.82837	41008.025
1466.23982	41717.425
1469.64898	42339.025
1473.05586	42553.825
1476.46045	42445.925
1479.86276	41923.125
1483.26279	41391.825
1486.66054	41116.025
1490.05602	41116.925
1493.44922	41377.325
1496.84016	41773.625
1500.22882	42293.825
1503.61521	43001.025
1506.99934	43852.125
1510.38121	44452.725
1513.76081	44487.125
1517.13816	44016.525
1520.51324	43405.025
1523.88607	43336.225
1527.25665	43570.525
1530.62498	43970.425
1533.99105	44056.325
1537.35488	43394.025
1540.71647	42278.025
1544.07581	40918.425
1547.4329	39509.225
1550.78776	38339.925
1554.14038	37587.625
1557.49077	37081.825
1560.83892	36715.425
1564.18484	36464.725
1567.52853	36474.925
1570.86999	36813.325
1574.20922	37566.325
1577.54624	38392.025
1580.88103	38971.925
1584.2136	39818.825
1587.54395	41335.925
1590.87208	43750.425
1594.19801	46466.025
1597.52172	48728.325
1600.84321	48823.725
1604.16251	46294.725
1607.47959	42327.225
1610.79447	38430.225
1614.10715	34990.325
1617.41763	32234.625
1620.7259	30440.725
1624.03199	29515.725
1627.33587	29554.625
1630.63757	30615.725
1633.93707	32861.025
1637.23439	36715.325
1640.52951	42243.025
1643.82246	48400.325
1647.11321	52884.125
1650.40179	52822.525
1653.68819	48032.725
1656.97241	41047.625
1660.25446	34588.425
1663.53433	29951.625
1666.81203	26990.125
1670.08756	25150.325
1673.36092	23957.725
1676.63211	23182.325
1679.90115	22642.225
1683.16801	22278.025
1686.43272	21962.025
1689.69527	21750.225
1692.95567	21542.925
1696.2139	21472.725
1699.46999	21383.125
1702.72392	21289.225
1705.97571	21201.925
1709.22535	21095.925
1712.47284	21042.725
1715.71819	21009.125
1718.96139	20951.125
1722.20246	20843.925
1725.44139	20754.825
1728.67818	20590.625
1731.91284	20445.725
1735.14537	20342.925
1738.37576	20231.925
1741.60403	20150.925
1744.83017	20059.525
1748.05418	20004.725
1751.27607	19993.925
1754.49584	19958.925
1757.71349	19940.225
1760.92903	19925.225
1764.14244	19920.025
1767.35375	19887.525
1770.56294	19851.325
1773.77002	19795.725
1776.97499	19746.025
1780.17785	19661.725
1783.37861	19634.125
1786.57727	19598.625
1789.77382	19571.325
1792.96828	19535.025
1796.16064	19489.925
1799.3509	19462.925
1802.53907	19419.325
1805.72514	19356.525
1808.90913	19292.125
1812.09102	19279.525
1815.27083	19212.925
1818.44856	19213.425
1821.6242	19187.525
1824.79776	19136.425
1827.96924	19137.325
1831.13864	19104.025
1834.30597	19104.025
1837.47122	19107.125
1840.6344	19105.625
1843.7955	19134.825
1846.95454	19119.825
1850.11151	19078.225
1853.26642	19085.325
1856.41926	19060.125
1859.57004	19060.425
1862.71876	18964.925
1865.86542	18971.425
1869.01003	18957.725
1872.15258	18923.825
1875.29308	18899.525
1878.43152	18850.225
1881.56792	18857.425
1884.70227	18832.625
1887.83457	18807.825
1890.96482	18768.425
1894.09304	18757.225
1897.21921	18761.525
1900.34335	18669.425
1903.46544	18685.425
1906.58551	18646.725
1909.70353	18628.925
1912.81953	18592.225
1915.93349	18573.825
1919.04543	18526.725
1922.15534	18450.225
1925.26322	18436.725
1928.36908	18377.625
1931.47292	18338.225
1934.57473	18289.125
1937.67453	18262.525
1940.77232	18231.725
1943.86808	18160.525
1946.96184	18110.125
1950.05358	18068.325
1953.14331	18002.925
1956.23103	17942.825
1959.31675	17906.725
1962.40046	17870.925
1965.48217	17796.625
1968.56188	17722.225
1971.63959	17629.225
1974.7153	17609.425
1977.78901	17569.825
1980.86073	17501.525
1983.93046	17500.025
1986.99819	17405.725
1990.06394	17377.225
1993.1277	17338.925
1996.18947	17263.925
1999.24925	17201.025
2002.30706	17155.425
2005.36288	17113.625
2008.41672	17072.725
2011.46859	16995.925
2014.51848	16942.525
2017.56639	16949.125
2020.61233	16888.425
2023.6563	16859.425
2026.6983	16782.325
2029.73833	16766.325
2032.7764	16728.625
2035.8125	16755.225
2038.84664	16654.925
2041.87881	16625.425
2044.90903	16568.425
2047.93729	16545.225
2050.96359	16505.825
2053.98794	16522.125
2057.01034	16521.925
2060.03078	16481.825
2063.04927	16472.825
2066.06582	16476.525
2069.08042	16490.125
2072.09307	16466.825
2075.10378	16428.125
2078.11255	16393.525
2081.11938	16410.625
2084.12426	16406.325
2087.12722	16375.425
2090.12824	16396.125
2093.12732	16388.325
2096.12447	16356.225
2099.11969	16384.025
2102.11299	16342.125
2105.10435	16372.625
2108.09379	16372.225
2111.08131	16397.025
2114.0669	16374.725
2117.05057	16369.125
2120.03233	16383.525
2123.01216	16428.125
2125.99008	16415.925
2128.96609	16436.525
2131.94018	16466.325
2134.91236	16455.125
2137.88263	16460.425
2140.851	16450.325
2143.81746	16459.825
2146.78201	16438.225
2149.74466	16442.925
2152.7054	16450.625
2155.66425	16440.225
2158.6212	16419.225
2161.57625	16436.225
2164.52941	16433.825
2167.48067	16408.925
2170.43004	16389.225
2173.37752	16382.225
2176.32311	16404.525
2179.26681	16423.825
2182.20863	16421.425
2185.14856	16415.025
2188.08661	16399.525
2191.02278	16431.025
2193.95707	16394.425
2196.88948	16371.525
2199.82001	16351.425
2202.74867	16332.925
2205.67545	16298.325
2208.60037	16283.425
2211.52341	16300.125
2214.44458	16239.225
2217.36388	16195.125
2220.28132	16171.825
2223.1969	16146.125
2226.11061	16128.725
2229.02246	16137.425
2231.93245	16068.425
2234.84058	16032.425
2237.74686	16068.525
2240.65128	16035.625
2243.55385	15994.725
2246.45456	15953.725
2249.35343	15908.525
2252.25044	15903.725
2255.14561	15862.325
2258.03893	15872.425
2260.93041	15815.225
2263.82004	15735.025
2266.70783	15716.825
2269.59378	15635.825
2272.4779	15595.625
2275.36017	15590.925
2278.24061	15552.325
2281.11922	15518.325
2283.996	15510.825
2286.87094	15488.525
2289.74405	15472.025
2292.61534	15442.025
2295.4848	15446.425
2298.35243	15436.225
2301.21824	15415.325
2304.08223	15427.025
2306.94439	15416.125
2309.80474	15447.925
2312.66327	15420.725
2315.51999	15377.325
2318.37489	15367.625
2321.22797	15374.725
2324.07925	15346.825
2326.92871	15340.625
2329.77637	15310.225
2332.62222	15287.025
2335.46626	15244.025
2338.3085	15250.425
2341.14893	15239.325
2343.98756	15281.625
2346.8244	15283.425
2349.65943	15251.525
2352.49267	15222.725
2355.32411	15257.425
2358.15376	15233.725
2360.98161	15250.325
2363.80768	15254.025
2366.63195	15231.225
2369.45444	15203.525
2372.27514	15173.325
2375.09405	15158.025
2377.91118	15128.625
2380.72652	15068.825
2383.54009	15051.225
2386.35187	15054.025
2389.16188	14998.825
2391.97011	14950.625
2394.77657	14964.325
2397.58125	14918.225
2400.38416	14914.225
2403.18529	14865.825
2405.98466	14852.525
2408.78226	14850.425
2411.57809	14817.225
2414.37216	14829.725
2417.16446	14810.225
2419.955	14770.725
2422.74378	14818.025
2425.5308	14757.025
2428.31606	14800.725
2431.09956	14779.825
2433.88131	14779.425
2436.6613	14741.425
2439.43954	14773.425
2442.21603	14716.725
2444.99077	14730.825
2447.76377	14744.925
2450.53501	14696.325
2453.30451	14699.125
2456.07226	14680.825
2458.83827	14667.225
2461.60254	14701.525
2464.36507	14667.125
2467.12586	14625.725
2469.88492	14623.725
2472.64224	14646.425
2475.39782	14683.225
2478.15167	14693.125
2480.90379	14681.425
2483.65417	14681.125
2486.40283	14692.025
2489.14976	14695.125
2491.89497	14667.325
2494.63845	14684.925
2497.3802	14691.725
2500.12024	14691.025
2502.85855	14645.225
2505.59514	14679.825
2508.33002	14638.525
2511.06318	14643.125
2513.79462	14639.825
2516.52435	14607.025
2519.25237	14602.325
2521.97867	14594.325
2524.70327	14593.025
2527.42616	14557.525
2530.14734	14567.425
2532.86681	14554.225
2535.58458	14561.225
2538.30065	14552.525
2541.01501	14559.125
2543.72768	14535.125
2546.43864	14554.125
2549.14791	14527.725
2551.85548	14529.425
2554.56136	14541.125
2557.26554	14514.425
2559.96803	14445.225
2562.66883	14426.125
2565.36794	14444.625
2568.06536	14425.025
2570.7611	14396.625
2573.45514	14425.325
2576.14751	14416.525
2578.83819	14358.925
2581.52719	14343.425
2584.21451	14343.725
2586.90015	14353.825
2589.58411	14323.025
2592.2664	14328.225
2594.94701	14288.725
2597.62594	14311.625
2600.30321	14267.625
2602.9788	14306.325
2605.65273	14301.025
2608.32498	14314.925
2610.99557	14320.925
2613.66449	14324.825
2616.33175	14278.225
2618.99734	14291.925
2621.66128	14260.925
2624.32355	14225.625
2626.98416	14232.625
2629.64311	14206.925
2632.30041	14209.825
2634.95605	14212.325
2637.61004	14210.525
2640.26238	14189.925
2642.91306	14188.125
2645.56209	14188.925
2648.20948	14197.725
2650.85521	14202.625
2653.4993	14178.025
2656.14175	14205.325
2658.78255	14218.225
2661.42171	14216.625
2664.05923	14248.825
2666.6951	14247.825
2669.32934	14291.325
2671.96194	14243.925
2674.59291	14277.725
2677.22224	14296.225
2679.84993	14263.925
2682.476	14267.525
2685.10043	14278.125
2687.72324	14231.625
2690.34441	14256.325
2692.96396	14256.325
2695.58188	14241.725
2698.19818	14231.625
2700.81285	14263.225
2703.4259	14266.625
2706.03733	14279.025
2708.64714	14244.025
2711.25533	14273.325
2713.86191	14257.825
2716.46687	14286.225
2719.07021	14285.225
2721.67194	14336.225
2724.27206	14311.325
2726.87057	14342.525
2729.46747	14336.025
2732.06276	14366.725
2734.65644	14352.325
2737.24852	14344.825
2739.83899	14350.125
2742.42786	14368.525
2745.01513	14376.025
2747.60079	14340.425
2750.18486	14303.825
2752.76733	14295.425
2755.3482	14282.525
2757.92747	14256.425
2760.50515	14281.125
2763.08123	14268.925
2765.65573	14221.625
2768.22863	14254.025
2770.79994	14254.225
2773.36967	14267.025
2775.9378	14244.525
2778.50435	14228.525
2781.06932	14251.825
2783.6327	14243.425
2786.1945	14237.925
2788.75471	14249.325
2791.31335	14208.825
2793.87041	14171.825
2796.42589	14179.125
2798.97979	14222.425
2801.53212	14155.325
2804.08288	14137.125
2806.63206	14131.725
2809.17967	14053.525
2811.72571	14024.425
2814.27018	14001.125
2816.81308	13965.025
2819.35442	13924.425
2821.89419	13922.925
2824.43239	13888.925
2826.96904	13869.725
2829.50412	13869.425
2832.03763	13855.025
2834.56959	13860.425
2837.1	13795.725
2839.62884	13848.725
2842.15613	13852.125
2844.68186	13852.025
2847.20604	13806.525
2849.72867	13827.325
2852.24974	13836.225
2854.76927	13787.025
2857.28724	13784.025
2859.80367	13765.325
2862.31855	13758.225
2864.83189	13718.025
2867.34368	13668.125
2869.85393	13702.025
2872.36264	13683.425
2874.8698	13665.425
2877.37543	13627.925
2879.87952	13631.325
2882.38207	13658.625
2884.88308	13632.825
2887.38256	13657.725
2889.88051	13634.825
2892.37692	13667.925
2894.8718	13671.825
2897.36515	13679.825
2899.85698	13700.525
2902.34727	13705.625
2904.83604	13702.925
2907.32328	13701.225
2909.809	13713.725
2912.29319	13754.325
2914.77587	13697.125
2917.25702	13698.025
2919.73665	13696.225
2922.21476	13707.025
2924.69136	13695.625
2927.16644	13694.825
2929.64	13692.525
2932.11205	13659.425
2934.58258	13625.225
2937.05161	13614.925
2939.51912	13603.525
2941.98513	13618.525
2944.44962	13574.925
2946.91261	13548.425
2949.37409	13573.625
2951.83407	13554.725
2954.29254	13553.525
2956.74951	13530.225
2959.20498	13520.925
2961.65895	13496.725
2964.11142	13528.025
2966.56239	13507.525
2969.01186	13507.625
2971.45984	13440.525
2973.90632	13449.025
2976.35131	13421.225
2978.7948	13403.325
2981.23681	13371.925
2983.67732	13330.325
2986.11635	13271.525
2988.55388	13253.725
2990.98993	13221.525
2993.4245	13191.425
2995.85758	13145.525
2998.28917	13106.525
3000.71928	13076.925
3003.14791	13061.225
3005.57506	13047.725
3008.00073	12987.925
3010.42493	12844.425
3012.84764	12909.925
3015.26888	12905.925
3017.68865	12881.125
3020.10694	12844.925
3022.52376	12827.925
3024.9391	12811.225
3027.35298	12806.725
3029.76539	12830.425
3032.17632	12825.925
3034.5858	12813.225
3036.9938	12793.125
3039.40034	12789.425
3041.80542	12801.725
3044.20903	12756.725
3046.61118	12742.025
3049.01187	12716.825
3051.4111	12704.325
3053.80888	12659.325
3056.20519	12615.525
3058.60005	12568.525
3060.99345	12570.825
3063.3854	12525.025
3065.7759	12461.525
3068.16494	12438.725
3070.55254	12422.425
3072.93868	12361.525
3075.32338	12333.825
3077.70662	12308.925
3080.08842	12298.025
3082.46878	12278.825
3084.84769	12250.925
3087.22515	12243.325
3089.60118	12246.025
3091.97576	12219.825
3094.3489	12210.625
3096.72061	12211.525
3099.09087	12202.025
3101.4597	12187.625
3103.82709	12183.525
3106.19305	12141.625
3108.55757	12136.025
3110.92066	12111.025
3113.28232	12081.725
3115.64255	12048.825
3118.00134	12039.325
3120.35871	12010.325
3122.71466	11980.525
3125.06917	11935.325
3127.42226	11936.025
