Data from AgNP_FTO_APTES_UA_10uM_CRN_1000uM_R6G_10uM_NaF_0.1M_Addition_RamanShift__10__19-32-50-988.txt Node

Date: Thu Feb 10 19:32:50 GMT 2022
User: TCL
Spectrometer: QEP01345
Trigger mode: 4
Integration Time (sec): 7.000000E0
Scans to average: 10
Electric dark correction enabled: true
Nonlinearity correction enabled: false
Boxcar width: 0
XAxis mode: Raman Shifts
Number of Pixels in Spectrum: 1044
>>>>>Begin Spectral Data<<<<<
46.04893	-0.325
50.45542	-0.025
54.85868	-1.325
59.25871	-0.825
63.6555	50.575
68.04907	52.775
72.43941	56.575
76.82654	58.875
81.21044	62.475
85.59113	59.675
89.96862	66.475
94.34289	66.575
98.71396	68.875
103.08183	71.175
107.4465	73.575
111.80798	72.875
116.16626	74.275
120.52136	80.675
124.87327	86.575
129.222	85.875
133.56755	91.775
137.90993	98.375
142.24913	102.675
146.58517	115.475
150.91804	136.275
155.24774	156.175
159.57429	197.575
163.89768	242.975
168.21792	324.175
172.53501	443.075
176.84895	612.175
181.15975	863.375
185.46741	1197.475
189.77193	1672.675
194.07331	2239.075
198.37157	2890.275
202.6667	3594.675
206.9587	4256.375
211.24758	4939.475
215.53334	5592.575
219.81599	6277.075
224.09553	7014.875
228.37195	7850.975
232.64527	8746.275
236.91549	9712.775
241.18261	10742.275
245.44663	11661.275
249.70755	12564.675
253.96539	13331.175
258.22014	13981.775
262.4718	14498.575
266.72039	14884.375
270.96589	15083.175
275.20832	15126.575
279.44768	15045.775
283.68397	14926.475
287.91719	14800.175
292.14735	14732.075
296.37445	14673.775
300.59849	14685.375
304.81948	14681.175
309.03742	14637.575
313.25231	14514.975
317.46415	14346.075
321.67296	14056.775
325.87872	13831.475
330.08145	13748.375
334.28114	13736.675
338.47781	13805.175
342.67145	13941.175
346.86207	14093.375
351.04966	14285.775
355.23424	14452.675
359.4158	14626.275
363.59435	14791.875
367.76989	14899.475
371.94243	14993.375
376.11196	15043.475
380.27849	15116.475
384.44203	15223.475
388.60257	15319.975
392.76012	15434.075
396.91468	15604.875
401.06626	15826.175
405.21485	15957.175
409.36047	15925.875
413.50311	15774.375
417.64277	15722.375
421.77947	15772.875
425.9132	15853.375
430.04396	15978.375
434.17176	16084.175
438.2966	16178.275
442.41849	16333.075
446.53742	16645.975
450.6534	16972.975
454.76644	17203.075
458.87653	17319.475
462.98368	17317.075
467.08789	17276.175
471.18916	17181.975
475.2875	17113.675
479.38291	17055.975
483.4754	17030.875
487.56496	16978.175
491.6516	16777.975
495.73531	16570.575
499.81612	16393.775
503.89401	16372.575
507.96899	16396.675
512.04106	16428.975
516.11023	16353.575
520.1765	16288.575
524.23987	16177.475
528.30034	16059.875
532.35792	15974.375
536.41261	15878.775
540.46441	15803.275
544.51333	15825.975
548.55936	15994.875
552.60252	16223.775
556.64279	16529.475
560.6802	16748.775
564.71473	16886.875
568.7464	17154.575
572.7752	17539.475
576.80114	18005.475
580.82422	18332.075
584.84444	18574.775
588.86181	18865.475
592.87633	19205.775
596.888	19137.975
600.89682	18683.875
604.9028	18469.275
608.90594	19014.075
612.90624	19709.075
616.90371	18906.375
620.89834	17065.675
624.89015	16222.275
628.87913	16173.975
632.86528	16300.475
636.84862	16368.875
640.82913	16244.775
644.80683	15998.275
648.78172	15807.675
652.75379	15800.875
656.72306	15864.275
660.68952	16005.275
664.65319	15968.675
668.61405	15810.775
672.57211	15820.775
676.52738	15863.575
680.47986	15872.575
684.42955	15883.075
688.37646	15835.975
692.32058	15848.675
696.26192	15994.075
700.20048	16084.075
704.13626	16183.175
708.06928	16235.475
711.99952	16263.475
715.927	16234.275
719.85171	16165.875
723.77365	16116.575
727.69284	15967.075
731.60928	15861.575
735.52295	15761.975
739.43388	15724.775
743.34206	15757.075
747.24749	15837.875
751.15017	15955.075
755.05012	16144.175
758.94733	16414.375
762.8418	16965.975
766.73354	17725.775
770.62254	18379.475
774.50882	18522.675
778.39237	17939.575
782.27321	17144.475
786.15132	16482.975
790.02671	16032.175
793.89938	15810.375
797.76935	15705.475
801.6366	15671.175
805.50115	15619.075
809.36299	15544.775
813.22213	15523.875
817.07857	15492.175
820.93231	15482.375
824.78336	15449.875
828.63172	15409.475
832.47738	15349.275
836.32036	15295.475
840.16066	15342.175
843.99827	15295.775
847.8332	15313.675
851.66546	15329.575
855.49504	15345.875
859.32195	15357.175
863.1462	15334.775
866.96777	15331.875
870.78668	15314.275
874.60293	15346.275
878.41652	15325.875
882.22745	15319.975
886.03573	15348.575
889.84136	15397.975
893.64433	15359.275
897.44466	15351.075
901.24235	15320.775
905.0374	15318.875
908.8298	15276.675
912.61957	15284.375
916.40671	15332.275
920.19121	15525.875
923.97308	15596.975
927.75233	15526.275
931.52895	15421.875
935.30295	15229.375
939.07433	15045.775
942.84309	14896.875
946.60924	14791.575
950.37278	14737.175
954.13371	14719.775
957.89203	14725.475
961.64774	14731.175
965.40086	14700.475
969.15137	14655.175
972.89929	14591.575
976.64461	14547.975
980.38733	14493.475
984.12747	14459.875
987.86502	14517.475
991.59999	14526.775
995.33237	14583.575
999.06217	14659.375
1002.78939	14812.575
1006.51404	14932.675
1010.23611	15108.475
1013.95561	15246.275
1017.67255	15273.975
1021.38692	15305.175
1025.09872	15148.675
1028.80796	15023.375
1032.51465	14916.475
1036.21877	14889.475
1039.92035	14923.575
1043.61937	14954.675
1047.31584	15014.175
1051.00976	15067.975
1054.70114	15184.575
1058.38998	15247.075
1062.07627	15356.475
1065.76003	15461.775
1069.44126	15558.175
1073.11995	15696.575
1076.79611	15814.675
1080.46974	15911.575
1084.14085	15907.075
1087.80943	16003.675
1091.47549	16120.175
1095.13903	16200.075
1098.80005	16113.875
1102.45857	15852.575
1106.11456	15653.075
1109.76805	15512.375
1113.41903	15494.775
1117.06751	15547.275
1120.71348	15632.075
1124.35696	15785.875
1127.99793	15950.575
1131.63641	16084.475
1135.2724	16029.675
1138.90589	15913.875
1142.5369	15910.075
1146.16542	16007.275
1149.79145	16097.575
1153.415	16189.275
1157.03607	16381.775
1160.65467	16661.875
1164.27079	17136.675
1167.88443	17741.275
1171.49561	18372.175
1175.10432	19125.575
1178.71056	20073.475
1182.31434	21019.475
1185.91565	21657.275
1189.51451	21842.975
1193.11091	21735.075
1196.70485	21353.975
1200.29634	20861.175
1203.88538	20357.675
1207.47197	20066.475
1211.05612	19788.975
1214.63782	19442.075
1218.21708	19065.775
1221.79391	18657.575
1225.36829	18263.775
1228.94024	18028.275
1232.50976	17884.675
1236.07685	17696.575
1239.6415	17631.175
1243.20374	17640.175
1246.76355	17716.275
1250.32093	17835.175
1253.8759	18029.575
1257.42845	18339.075
1260.97859	18703.075
1264.52631	19063.675
1268.07163	19451.775
1271.61453	19762.575
1275.15503	20086.175
1278.69312	20504.375
1282.22882	20944.775
1285.76211	21444.275
1289.29301	22063.575
1292.82151	22803.475
1296.34761	23755.775
1299.87133	24817.775
1303.39266	25798.475
1306.9116	26616.375
1310.42815	27279.775
1313.94233	27590.475
1317.45412	27530.775
1320.96354	27280.375
1324.47058	27062.075
1327.97525	26915.075
1331.47754	26849.975
1334.97747	26824.675
1338.47502	26752.175
1341.97022	26854.975
1345.46305	26790.675
1348.95352	26758.675
1352.44163	26693.075
1355.92738	26695.875
1359.41078	26918.575
1362.89183	27092.175
1366.37053	26612.775
1369.84688	25133.275
1373.32088	23286.775
1376.79254	21929.475
1380.26186	21396.575
1383.72883	21376.775
1387.19347	21442.475
1390.65578	21398.175
1394.11575	21423.375
1397.57339	21464.475
1401.0287	21583.875
1404.48168	21640.175
1407.93234	21484.375
1411.38068	21056.875
1414.82669	20428.975
1418.27039	19716.175
1421.71177	19052.175
1425.15083	18513.675
1428.58758	18195.075
1432.02203	18199.375
1435.45416	18476.275
1438.88399	18819.175
1442.31151	19113.075
1445.73673	19335.375
1449.15965	19478.675
1452.58027	19622.475
1455.9986	19752.075
1459.41463	19911.875
1462.82837	20056.875
1466.23982	20310.575
1469.64898	20442.875
1473.05586	20526.375
1476.46045	20530.575
1479.86276	20413.275
1483.26279	20269.875
1486.66054	20181.875
1490.05602	20257.275
1493.44922	20460.075
1496.84016	20778.275
1500.22882	21223.975
1503.61521	21815.675
1506.99934	22459.375
1510.38121	22963.775
1513.76081	23089.875
1517.13816	22856.475
1520.51324	22437.475
1523.88607	22160.075
1527.25665	22028.175
1530.62498	22063.475
1533.99105	21988.975
1537.35488	21840.775
1540.71647	21466.975
1544.07581	21000.475
1547.4329	20512.275
1550.78776	20061.075
1554.14038	19708.975
1557.49077	19458.175
1560.83892	19350.275
1564.18484	19332.375
1567.52853	19355.275
1570.86999	19523.575
1574.20922	19794.775
1577.54624	20065.175
1580.88103	20144.875
1584.2136	20198.775
1587.54395	20433.375
1590.87208	20915.875
1594.19801	21577.975
1597.52172	22326.075
1600.84321	22527.075
1604.16251	21945.775
1607.47959	20913.475
1610.79447	19745.775
1614.10715	18545.875
1617.41763	17520.375
1620.7259	16685.875
1624.03199	16219.575
1627.33587	16048.775
1630.63757	16245.475
1633.93707	16841.075
1637.23439	17921.775
1640.52951	19483.575
1643.82246	21444.775
1647.11321	23193.575
1650.40179	23910.075
1653.68819	23050.875
1656.97241	20992.275
1660.25446	18701.175
1663.53433	16821.175
1666.81203	15488.975
1670.08756	14603.275
1673.36092	14046.775
1676.63211	13660.775
1679.90115	13400.475
1683.16801	13257.375
1686.43272	13090.875
1689.69527	12998.475
1692.95567	12878.975
1696.2139	12866.975
1699.46999	12827.475
1702.72392	12771.475
1705.97571	12706.375
1709.22535	12646.675
1712.47284	12621.975
1715.71819	12572.475
1718.96139	12550.675
1722.20246	12513.975
1725.44139	12453.075
1728.67818	12418.075
1731.91284	12312.075
1735.14537	12276.175
1738.37576	12222.275
1741.60403	12168.375
1744.83017	12158.375
1748.05418	12105.675
1751.27607	12104.075
1754.49584	12058.175
1757.71349	12089.775
1760.92903	12077.075
1764.14244	12047.875
1767.35375	12054.175
1770.56294	12028.575
1773.77002	11991.575
1776.97499	11980.675
1780.17785	11928.575
1783.37861	11908.975
1786.57727	11836.675
1789.77382	11817.275
1792.96828	11796.675
1796.16064	11755.075
1799.3509	11734.775
1802.53907	11705.775
1805.72514	11672.275
1808.90913	11624.375
1812.09102	11600.175
1815.27083	11589.575
1818.44856	11557.975
1821.6242	11502.675
1824.79776	11486.575
1827.96924	11490.075
1831.13864	11477.075
1834.30597	11470.975
1837.47122	11428.275
1840.6344	11405.775
1843.7955	11414.375
1846.95454	11394.075
1850.11151	11381.175
1853.26642	11361.275
1856.41926	11360.375
1859.57004	11346.875
1862.71876	11317.475
1865.86542	11305.875
1869.01003	11280.275
1872.15258	11281.475
1875.29308	11264.775
1878.43152	11243.475
1881.56792	11236.675
1884.70227	11208.775
1887.83457	11205.175
1890.96482	11150.675
1894.09304	11108.175
1897.21921	11127.775
1900.34335	11110.175
1903.46544	11090.975
1906.58551	11065.375
1909.70353	11053.475
1912.81953	11032.775
1915.93349	11041.075
1919.04543	10988.075
1922.15534	10946.375
1925.26322	10948.775
1928.36908	10912.975
1931.47292	10906.775
1934.57473	10876.775
1937.67453	10854.775
1940.77232	10793.175
1943.86808	10770.175
1946.96184	10723.875
1950.05358	10700.975
1953.14331	10673.875
1956.23103	10653.075
1959.31675	10591.175
1962.40046	10563.375
1965.48217	10530.575
1968.56188	10496.575
1971.63959	10458.075
1974.7153	10406.675
1977.78901	10386.175
1980.86073	10363.075
1983.93046	10344.175
1986.99819	10296.975
1990.06394	10264.975
1993.1277	10237.975
1996.18947	10174.475
1999.24925	10149.275
2002.30706	10099.175
2005.36288	10091.175
2008.41672	10047.175
2011.46859	10036.675
2014.51848	9971.275
2017.56639	9954.475
2020.61233	9938.375
2023.6563	9891.775
2026.6983	9879.175
2029.73833	9849.575
2032.7764	9812.575
2035.8125	9792.675
2038.84664	9748.675
2041.87881	9717.575
2044.90903	9687.875
2047.93729	9669.975
2050.96359	9669.475
2053.98794	9628.375
2057.01034	9634.075
2060.03078	9609.975
2063.04927	9596.475
2066.06582	9621.275
2069.08042	9640.375
2072.09307	9609.475
2075.10378	9603.375
2078.11255	9568.375
2081.11938	9583.175
2084.12426	9541.475
2087.12722	9548.875
2090.12824	9536.475
2093.12732	9514.875
2096.12447	9513.175
2099.11969	9527.175
2102.11299	9499.575
2105.10435	9521.875
2108.09379	9517.175
2111.08131	9516.775
2114.0669	9501.775
2117.05057	9523.275
2120.03233	9504.675
2123.01216	9514.575
2125.99008	9530.775
2128.96609	9553.475
2131.94018	9545.475
2134.91236	9558.975
2137.88263	9519.375
2140.851	9536.375
2143.81746	9540.975
2146.78201	9512.075
2149.74466	9521.875
2152.7054	9519.975
2155.66425	9515.175
2158.6212	9505.575
2161.57625	9494.375
2164.52941	9472.575
2167.48067	9477.975
2170.43004	9476.575
2173.37752	9462.675
2176.32311	9462.475
2179.26681	9448.475
2182.20863	9454.975
2185.14856	9432.975
2188.08661	9409.875
2191.02278	9422.575
2193.95707	9427.475
2196.88948	9413.275
2199.82001	9386.775
2202.74867	9369.475
2205.67545	9366.775
2208.60037	9353.475
2211.52341	9343.575
2214.44458	9313.875
2217.36388	9279.175
2220.28132	9258.375
2223.1969	9218.875
2226.11061	9207.675
2229.02246	9162.575
2231.93245	9154.175
2234.84058	9185.675
2237.74686	9146.075
2240.65128	9117.075
2243.55385	9084.775
2246.45456	9089.475
2249.35343	9067.775
2252.25044	9067.375
2255.14561	9055.975
2258.03893	9034.075
2260.93041	9003.375
2263.82004	8967.575
2266.70783	8928.975
2269.59378	8917.675
2272.4779	8885.375
2275.36017	8866.375
2278.24061	8840.875
2281.11922	8816.275
2283.996	8821.775
2286.87094	8810.575
2289.74405	8781.375
2292.61534	8759.475
2295.4848	8743.875
2298.35243	8733.975
2301.21824	8719.175
2304.08223	8719.075
2306.94439	8694.175
2309.80474	8700.375
2312.66327	8686.375
2315.51999	8674.475
2318.37489	8659.675
2321.22797	8650.375
2324.07925	8629.075
2326.92871	8600.075
2329.77637	8596.675
2332.62222	8566.775
2335.46626	8556.775
2338.3085	8517.575
2341.14893	8527.175
2343.98756	8521.575
2346.8244	8491.175
2349.65943	8478.775
2352.49267	8491.575
2355.32411	8488.275
2358.15376	8468.175
2360.98161	8477.375
2363.80768	8462.975
2366.63195	8463.375
2369.45444	8436.875
2372.27514	8423.475
2375.09405	8407.475
2377.91118	8415.775
2380.72652	8366.775
2383.54009	8332.675
2386.35187	8331.475
2389.16188	8292.575
2391.97011	8291.375
2394.77657	8256.575
2397.58125	8256.475
2400.38416	8249.475
2403.18529	8223.775
2405.98466	8224.475
2408.78226	8190.475
2411.57809	8177.075
2414.37216	8177.375
2417.16446	8169.575
2419.955	8127.875
2422.74378	8154.675
2425.5308	8101.175
2428.31606	8118.075
2431.09956	8123.875
2433.88131	8100.175
2436.6613	8082.975
2439.43954	8070.175
2442.21603	8063.275
2444.99077	8033.975
2447.76377	8038.475
2450.53501	8024.375
2453.30451	8012.475
2456.07226	8006.575
2458.83827	7996.075
2461.60254	8002.875
2464.36507	7986.875
2467.12586	7957.175
2469.88492	7952.175
2472.64224	7955.775
2475.39782	7940.375
2478.15167	7953.375
2480.90379	7935.675
2483.65417	7920.775
2486.40283	7936.875
2489.14976	7933.975
2491.89497	7919.675
2494.63845	7904.675
2497.3802	7901.975
2500.12024	7877.475
2502.85855	7867.975
2505.59514	7866.675
2508.33002	7854.975
2511.06318	7849.075
2513.79462	7834.275
2516.52435	7825.675
2519.25237	7813.175
2521.97867	7808.975
2524.70327	7805.575
2527.42616	7792.475
2530.14734	7769.375
2532.86681	7763.375
2535.58458	7761.175
2538.30065	7737.975
2541.01501	7748.475
2543.72768	7723.075
2546.43864	7723.875
2549.14791	7710.275
2551.85548	7693.475
2554.56136	7653.275
2557.26554	7644.675
2559.96803	7611.575
2562.66883	7606.575
2565.36794	7579.575
2568.06536	7566.775
2570.7611	7549.575
2573.45514	7531.275
2576.14751	7502.775
2578.83819	7514.675
2581.52719	7477.775
2584.21451	7486.475
2586.90015	7472.775
2589.58411	7463.275
2592.2664	7448.275
2594.94701	7441.675
2597.62594	7432.175
2600.30321	7409.975
2602.9788	7403.575
2605.65273	7383.175
2608.32498	7387.075
2610.99557	7365.375
2613.66449	7377.575
2616.33175	7347.775
2618.99734	7333.775
2621.66128	7338.675
2624.32355	7307.075
2626.98416	7310.475
2629.64311	7277.875
2632.30041	7293.675
2634.95605	7275.875
2637.61004	7241.075
2640.26238	7250.275
2642.91306	7248.275
2645.56209	7255.475
2648.20948	7241.175
2650.85521	7229.975
2653.4993	7246.075
2656.14175	7206.175
2658.78255	7227.275
2661.42171	7222.375
2664.05923	7216.775
2666.6951	7212.475
2669.32934	7218.875
2671.96194	7204.775
2674.59291	7227.675
2677.22224	7210.175
2679.84993	7209.475
2682.476	7192.175
2685.10043	7188.375
2687.72324	7171.875
2690.34441	7203.275
2692.96396	7190.775
2695.58188	7171.675
2698.19818	7155.675
2700.81285	7161.675
2703.4259	7170.875
2706.03733	7170.575
2708.64714	7173.475
2711.25533	7175.575
2713.86191	7160.675
2716.46687	7169.375
2719.07021	7162.275
2721.67194	7170.975
2724.27206	7166.075
2726.87057	7147.875
2729.46747	7158.375
2732.06276	7160.575
2734.65644	7160.475
2737.24852	7138.475
2739.83899	7135.375
2742.42786	7140.275
2745.01513	7122.375
2747.60079	7111.375
2750.18486	7108.875
2752.76733	7098.375
2755.3482	7082.675
2757.92747	7067.275
2760.50515	7063.475
2763.08123	7052.675
2765.65573	7032.675
2768.22863	7029.675
2770.79994	7015.175
2773.36967	6988.175
2775.9378	6981.375
2778.50435	6978.075
2781.06932	6965.175
2783.6327	6959.775
2786.1945	6962.875
2788.75471	6966.375
2791.31335	6948.475
2793.87041	6922.275
2796.42589	6895.775
2798.97979	6905.775
2801.53212	6886.375
2804.08288	6878.475
2806.63206	6847.675
2809.17967	6827.075
2811.72571	6817.875
2814.27018	6824.575
2816.81308	6794.975
2819.35442	6761.975
2821.89419	6761.075
2824.43239	6751.975
2826.96904	6729.175
2829.50412	6740.275
2832.03763	6714.075
2834.56959	6720.975
2837.1	6717.675
2839.62884	6719.275
2842.15613	6727.575
2844.68186	6764.275
2847.20604	6765.975
2849.72867	6790.975
2852.24974	6769.575
2854.76927	6772.375
2857.28724	6721.275
2859.80367	6731.375
2862.31855	6726.175
2864.83189	6710.975
2867.34368	6679.575
2869.85393	6665.775
2872.36264	6670.175
2874.8698	6666.375
2877.37543	6656.775
2879.87952	6655.575
2882.38207	6629.075
2884.88308	6625.375
2887.38256	6632.875
2889.88051	6619.275
2892.37692	6628.775
2894.8718	6615.275
2897.36515	6631.775
2899.85698	6619.775
2902.34727	6646.775
2904.83604	6618.975
2907.32328	6630.775
2909.809	6631.275
2912.29319	6614.375
2914.77587	6609.775
2917.25702	6620.175
2919.73665	6610.275
2922.21476	6613.375
2924.69136	6607.475
2927.16644	6598.075
2929.64	6581.475
2932.11205	6599.075
2934.58258	6576.075
2937.05161	6574.175
2939.51912	6590.275
2941.98513	6560.775
2944.44962	6540.875
2946.91261	6506.975
2949.37409	6510.575
2951.83407	6495.775
2954.29254	6497.375
2956.74951	6486.275
2959.20498	6493.575
2961.65895	6470.475
2964.11142	6483.375
2966.56239	6451.175
2969.01186	6459.075
2971.45984	6431.775
2973.90632	6412.275
2976.35131	6388.975
2978.7948	6377.175
2981.23681	6344.675
2983.67732	6337.875
2986.11635	6308.775
2988.55388	6333.675
2990.98993	6297.775
2993.4245	6259.775
2995.85758	6248.275
2998.28917	6225.575
3000.71928	6227.675
3003.14791	6211.675
3005.57506	6196.875
3008.00073	6175.075
3010.42493	6164.375
3012.84764	6144.875
3015.26888	6137.775
3017.68865	6110.575
3020.10694	6107.075
3022.52376	6110.775
3024.9391	6099.575
3027.35298	6078.275
3029.76539	6074.275
3032.17632	6082.675
3034.5858	6065.775
3036.9938	6057.575
3039.40034	6089.275
3041.80542	6067.175
3044.20903	6044.175
3046.61118	6044.875
3049.01187	6026.775
3051.4111	6011.675
3053.80888	5993.975
3056.20519	5969.175
3058.60005	5980.775
3060.99345	5966.175
3063.3854	5944.975
3065.7759	5914.775
3068.16494	5916.475
3070.55254	5901.375
3072.93868	5901.675
3075.32338	5894.875
3077.70662	5865.375
3080.08842	5860.775
3082.46878	5834.075
3084.84769	5833.075
3087.22515	5823.975
3089.60118	5838.875
3091.97576	5824.775
3094.3489	5829.575
3096.72061	5809.175
3099.09087	5796.075
3101.4597	5792.175
3103.82709	5816.575
3106.19305	5793.875
3108.55757	5793.175
3110.92066	5775.075
3113.28232	5777.375
3115.64255	5783.475
3118.00134	5753.075
3120.35871	5733.975
3122.71466	5741.375
3125.06917	5728.875
3127.42226	5717.075
3129.77393	5709.375
3132.12417	5700.675
3134.47299	5708.375
3136.82039	5687.175
3139.16636	5702.175
3141.51092	5708.075
3143.85406	5692.775
3146.19579	5708.275
3148.53609	5711.075
3150.87499	5689.775
3153.21246	5698.675
3155.54853	5710.175
3157.88318	5719.875
3160.21642	5696.275
3162.54826	5711.375
3164.87868	5716.175
3167.2077	5703.875
3169.5353	5704.975
3171.86151	5696.975
3174.18631	5720.675
3176.5097	5718.975
3178.83169	5706.775
