Data from AgNP_FTO_APTES_UA_10uM_CRN_100uM_R6G_10uM_NaF_0.1M_Addition_RamanShift__18__17-45-30-857.txt Node

Date: Thu Feb 10 17:45:30 GMT 2022
User: TCL
Spectrometer: QEP01345
Trigger mode: 4
Integration Time (sec): 7.000000E0
Scans to average: 10
Electric dark correction enabled: true
Nonlinearity correction enabled: false
Boxcar width: 0
XAxis mode: Raman Shifts
Number of Pixels in Spectrum: 1044
>>>>>Begin Spectral Data<<<<<
46.04893	0.2875
50.45542	-0.5125
54.85868	-1.7125
59.25871	-1.7125
63.6555	67.6875
68.04907	67.6875
72.43941	70.8875
76.82654	69.2875
81.21044	78.8875
85.59113	74.6875
89.96862	78.9875
94.34289	83.0875
98.71396	84.6875
103.08183	90.1875
107.4465	91.6875
111.80798	87.6875
116.16626	95.7875
120.52136	96.3875
124.87327	101.2875
129.222	108.4875
133.56755	108.6875
137.90993	121.7875
142.24913	128.3875
146.58517	142.4875
150.91804	166.0875
155.24774	197.8875
159.57429	237.7875
163.89768	306.6875
168.21792	400.2875
172.53501	547.0875
176.84895	761.1875
181.15975	1075.0875
185.46741	1492.8875
189.77193	2090.0875
194.07331	2777.0875
198.37157	3579.0875
202.6667	4430.3875
206.9587	5282.6875
211.24758	6102.1875
215.53334	6916.8875
219.81599	7755.6875
224.09553	8710.1875
228.37195	9740.0875
232.64527	10875.7875
236.91549	12097.1875
241.18261	13360.2875
245.44663	14576.7875
249.70755	15667.8875
253.96539	16663.5875
258.22014	17514.7875
262.4718	18214.6875
266.72039	18731.6875
270.96589	19017.5875
275.20832	19077.8875
279.44768	19065.5875
283.68397	18922.4875
287.91719	18774.9875
292.14735	18665.8875
296.37445	18633.5875
300.59849	18636.8875
304.81948	18634.7875
309.03742	18513.5875
313.25231	18239.1875
317.46415	17882.4875
321.67296	17455.3875
325.87872	17157.3875
330.08145	17075.9875
334.28114	17073.7875
338.47781	17218.7875
342.67145	17465.0875
346.86207	17697.3875
351.04966	18023.8875
355.23424	18300.1875
359.4158	18622.5875
363.59435	18842.0875
367.76989	19038.7875
371.94243	19180.7875
376.11196	19334.6875
380.27849	19466.0875
384.44203	19592.8875
388.60257	19725.2875
392.76012	19873.1875
396.91468	20051.5875
401.06626	20275.6875
405.21485	20506.8875
409.36047	20507.8875
413.50311	20303.2875
417.64277	20146.5875
421.77947	20100.7875
425.9132	20193.5875
430.04396	20356.2875
434.17176	20480.6875
438.2966	20687.1875
442.41849	20942.0875
446.53742	21317.6875
450.6534	21791.9875
454.76644	22186.5875
458.87653	22372.8875
462.98368	22354.8875
467.08789	22210.3875
471.18916	22073.2875
475.2875	21979.3875
479.38291	21927.6875
483.4754	21807.1875
487.56496	21615.6875
491.6516	21315.5875
495.73531	21068.8875
499.81612	20918.4875
503.89401	20972.6875
507.96899	21002.1875
512.04106	20993.7875
516.11023	20967.3875
520.1765	20846.5875
524.23987	20768.0875
528.30034	20643.8875
532.35792	20511.1875
536.41261	20400.8875
540.46441	20317.1875
544.51333	20378.7875
548.55936	20582.8875
552.60252	20870.0875
556.64279	21196.7875
560.6802	21348.3875
564.71473	21432.0875
568.7464	21643.8875
572.7752	21943.3875
576.80114	22077.0875
580.82422	22199.6875
584.84444	22336.2875
588.86181	22471.4875
592.87633	22664.9875
596.888	22846.7875
600.89682	22985.9875
604.9028	23483.8875
608.90594	24860.3875
612.90624	26318.1875
616.90371	25252.2875
620.89834	22403.3875
624.89015	21228.7875
628.87913	21179.5875
632.86528	21177.3875
636.84862	21122.5875
640.82913	20936.3875
644.80683	20624.6875
648.78172	20362.5875
652.75379	20303.9875
656.72306	20416.7875
660.68952	20640.9875
664.65319	20598.0875
668.61405	20411.9875
672.57211	20335.3875
676.52738	20374.8875
680.47986	20399.1875
684.42955	20389.3875
688.37646	20381.8875
692.32058	20441.8875
696.26192	20557.5875
700.20048	20701.2875
704.13626	20831.7875
708.06928	20797.6875
711.99952	20686.3875
715.927	20637.4875
719.85171	20619.4875
723.77365	20613.7875
727.69284	20530.9875
731.60928	20425.6875
735.52295	20403.8875
739.43388	20369.6875
743.34206	20452.4875
747.24749	20513.0875
751.15017	20645.0875
755.05012	20857.3875
758.94733	21264.4875
762.8418	21934.4875
766.73354	22972.8875
770.62254	23976.3875
774.50882	24295.8875
778.39237	23547.3875
782.27321	22273.0875
786.15132	21284.4875
790.02671	20708.9875
793.89938	20447.3875
797.76935	20355.0875
801.6366	20332.0875
805.50115	20303.8875
809.36299	20192.2875
813.22213	20152.1875
817.07857	20117.6875
820.93231	20098.5875
824.78336	20037.4875
828.63172	20064.4875
832.47738	20090.8875
836.32036	20081.9875
840.16066	20160.7875
843.99827	20171.6875
847.8332	20180.8875
851.66546	20125.7875
855.49504	20091.8875
859.32195	20133.4875
863.1462	20090.3875
866.96777	20062.5875
870.78668	19998.2875
874.60293	19980.2875
878.41652	20020.2875
882.22745	20051.8875
886.03573	20080.9875
889.84136	20069.9875
893.64433	19989.8875
897.44466	19990.9875
901.24235	19942.2875
905.0374	19899.0875
908.8298	19828.2875
912.61957	19903.6875
916.40671	20021.9875
920.19121	20149.0875
923.97308	20275.6875
927.75233	20304.1875
931.52895	20244.7875
935.30295	20146.3875
939.07433	19925.9875
942.84309	19704.5875
946.60924	19623.3875
950.37278	19564.2875
954.13371	19501.2875
957.89203	19411.6875
961.64774	19382.9875
965.40086	19324.8875
969.15137	19256.0875
972.89929	19170.8875
976.64461	19186.2875
980.38733	19181.0875
984.12747	19272.5875
987.86502	19376.4875
991.59999	19543.9875
995.33237	19825.3875
999.06217	20234.5875
1002.78939	20596.4875
1006.51404	20766.2875
1010.23611	20858.5875
1013.95561	20930.3875
1017.67255	21000.9875
1021.38692	20889.8875
1025.09872	20817.3875
1028.80796	20972.5875
1032.51465	21408.6875
1036.21877	21775.3875
1039.92035	21835.9875
1043.61937	21575.8875
1047.31584	21212.3875
1051.00976	20834.1875
1054.70114	20684.4875
1058.38998	20673.5875
1062.07627	20787.6875
1065.76003	20841.9875
1069.44126	20887.2875
1073.11995	20993.1875
1076.79611	21065.2875
1080.46974	21113.3875
1084.14085	21248.7875
1087.80943	21383.4875
1091.47549	21456.2875
1095.13903	21461.5875
1098.80005	21295.7875
1102.45857	21081.9875
1106.11456	20929.8875
1109.76805	20948.2875
1113.41903	21029.8875
1117.06751	21123.3875
1120.71348	21336.4875
1124.35696	21425.7875
1127.99793	21576.0875
1131.63641	21645.7875
1135.2724	21518.7875
1138.90589	21388.1875
1142.5369	21266.9875
1146.16542	21231.0875
1149.79145	21263.0875
1153.415	21397.7875
1157.03607	21567.7875
1160.65467	21928.0875
1164.27079	22534.6875
1167.88443	23266.1875
1171.49561	24182.7875
1175.10432	25448.9875
1178.71056	26897.6875
1182.31434	28333.9875
1185.91565	29270.1875
1189.51451	29305.9875
1193.11091	28735.4875
1196.70485	27859.3875
1200.29634	26988.1875
1203.88538	26323.8875
1207.47197	25789.6875
1211.05612	25327.4875
1214.63782	24933.4875
1218.21708	24657.6875
1221.79391	24470.4875
1225.36829	24360.6875
1228.94024	24184.1875
1232.50976	23880.4875
1236.07685	23638.1875
1239.6415	23586.5875
1243.20374	23661.9875
1246.76355	23791.7875
1250.32093	24080.4875
1253.8759	24438.1875
1257.42845	24914.4875
1260.97859	25315.5875
1264.52631	25681.4875
1268.07163	26091.1875
1271.61453	26600.0875
1275.15503	27165.9875
1278.69312	27746.2875
1282.22882	28258.0875
1285.76211	28685.3875
1289.29301	29130.3875
1292.82151	29819.0875
1296.34761	30846.9875
1299.87133	32099.3875
1303.39266	33545.3875
1306.9116	35209.1875
1310.42815	36824.1875
1313.94233	37768.6875
1317.45412	37715.8875
1320.96354	37162.5875
1324.47058	36560.2875
1327.97525	35972.1875
1331.47754	35652.0875
1334.97747	35593.9875
1338.47502	35841.0875
1341.97022	36037.7875
1345.46305	35951.7875
1348.95352	35526.1875
1352.44163	35117.9875
1355.92738	35108.4875
1359.41078	35875.1875
1362.89183	36637.5875
1366.37053	35991.3875
1369.84688	33559.8875
1373.32088	30839.7875
1376.79254	29060.7875
1380.26186	28297.0875
1383.72883	28177.1875
1387.19347	28163.8875
1390.65578	28134.0875
1394.11575	28153.2875
1397.57339	28476.5875
1401.0287	28925.3875
1404.48168	29361.3875
1407.93234	29564.9875
1411.38068	29430.6875
1414.82669	28910.2875
1418.27039	28024.4875
1421.71177	27055.8875
1425.15083	26206.3875
1428.58758	25720.3875
1432.02203	25635.4875
1435.45416	25894.6875
1438.88399	26311.0875
1442.31151	26655.1875
1445.73673	27079.8875
1449.15965	27402.9875
1452.58027	27693.8875
1455.9986	27841.8875
1459.41463	28063.2875
1462.82837	28346.4875
1466.23982	28726.3875
1469.64898	29073.9875
1473.05586	29303.6875
1476.46045	29344.6875
1479.86276	29302.6875
1483.26279	29036.8875
1486.66054	28838.9875
1490.05602	28843.9875
1493.44922	28910.8875
1496.84016	28972.4875
1500.22882	29252.5875
1503.61521	29747.7875
1506.99934	30558.5875
1510.38121	31407.6875
1513.76081	31667.5875
1517.13816	31250.1875
1520.51324	30364.1875
1523.88607	29520.7875
1527.25665	28932.4875
1530.62498	28710.3875
1533.99105	28650.4875
1537.35488	28620.1875
1540.71647	28467.4875
1544.07581	28210.9875
1547.4329	27858.9875
1550.78776	27522.9875
1554.14038	27307.5875
1557.49077	27164.5875
1560.83892	27165.8875
1564.18484	27113.4875
1567.52853	27109.4875
1570.86999	27131.3875
1574.20922	27306.3875
1577.54624	27506.0875
1580.88103	27581.2875
1584.2136	27715.4875
1587.54395	28189.3875
1590.87208	29178.6875
1594.19801	30466.3875
1597.52172	31804.8875
1600.84321	32265.7875
1604.16251	31394.9875
1607.47959	29728.1875
1610.79447	27856.4875
1614.10715	26125.0875
1617.41763	24669.1875
1620.7259	23604.2875
1624.03199	23046.0875
1627.33587	22972.6875
1630.63757	23308.2875
1633.93707	24257.8875
1637.23439	25593.9875
1640.52951	27403.2875
1643.82246	29389.6875
1647.11321	30869.2875
1650.40179	31190.9875
1653.68819	29832.4875
1656.97241	27297.6875
1660.25446	24688.2875
1663.53433	22623.8875
1666.81203	21240.8875
1670.08756	20346.5875
1673.36092	19761.4875
1676.63211	19369.6875
1679.90115	19061.3875
1683.16801	18837.6875
1686.43272	18724.7875
1689.69527	18592.5875
1692.95567	18483.0875
1696.2139	18432.9875
1699.46999	18421.5875
1702.72392	18381.4875
1705.97571	18334.5875
1709.22535	18285.4875
1712.47284	18239.1875
1715.71819	18251.1875
1718.96139	18228.8875
1722.20246	18203.4875
1725.44139	18155.5875
1728.67818	18058.6875
1731.91284	17970.5875
1735.14537	17882.7875
1738.37576	17848.7875
1741.60403	17822.3875
1744.83017	17790.4875
1748.05418	17722.2875
1751.27607	17735.2875
1754.49584	17690.0875
1757.71349	17723.7875
1760.92903	17668.7875
1764.14244	17679.5875
1767.35375	17687.2875
1770.56294	17636.2875
1773.77002	17616.2875
1776.97499	17610.2875
1780.17785	17564.1875
1783.37861	17557.8875
1786.57727	17494.8875
1789.77382	17504.4875
1792.96828	17453.8875
1796.16064	17415.4875
1799.3509	17406.7875
1802.53907	17386.1875
1805.72514	17348.6875
1808.90913	17307.9875
1812.09102	17297.0875
1815.27083	17265.6875
1818.44856	17235.0875
1821.6242	17233.9875
1824.79776	17182.7875
1827.96924	17170.1875
1831.13864	17189.3875
1834.30597	17184.5875
1837.47122	17188.1875
1840.6344	17122.2875
1843.7955	17163.5875
1846.95454	17137.2875
1850.11151	17163.4875
1853.26642	17126.0875
1856.41926	17145.2875
1859.57004	17152.5875
1862.71876	17115.5875
1865.86542	17121.5875
1869.01003	17093.5875
1872.15258	17117.4875
1875.29308	17123.6875
1878.43152	17077.0875
1881.56792	17082.6875
1884.70227	17051.6875
1887.83457	17052.4875
1890.96482	17001.4875
1894.09304	16953.4875
1897.21921	16999.6875
1900.34335	16949.8875
1903.46544	16924.4875
1906.58551	16955.4875
1909.70353	16901.1875
1912.81953	16911.7875
1915.93349	16899.7875
1919.04543	16851.9875
1922.15534	16817.9875
1925.26322	16810.8875
1928.36908	16771.3875
1931.47292	16777.8875
1934.57473	16755.0875
1937.67453	16731.4875
1940.77232	16658.8875
1943.86808	16623.9875
1946.96184	16538.5875
1950.05358	16517.9875
1953.14331	16466.0875
1956.23103	16427.6875
1959.31675	16380.6875
1962.40046	16334.1875
1965.48217	16272.8875
1968.56188	16261.2875
1971.63959	16218.4875
1974.7153	16161.1875
1977.78901	16135.0875
1980.86073	16069.7875
1983.93046	16035.8875
1986.99819	15999.4875
1990.06394	15960.1875
1993.1277	15926.1875
1996.18947	15868.0875
1999.24925	15844.4875
2002.30706	15782.8875
2005.36288	15719.0875
2008.41672	15694.2875
2011.46859	15655.0875
2014.51848	15651.1875
2017.56639	15610.3875
2020.61233	15582.2875
2023.6563	15503.9875
2026.6983	15496.6875
2029.73833	15431.7875
2032.7764	15413.7875
2035.8125	15403.8875
2038.84664	15376.3875
2041.87881	15302.8875
2044.90903	15299.6875
2047.93729	15271.5875
2050.96359	15269.1875
2053.98794	15256.6875
2057.01034	15250.8875
2060.03078	15212.7875
2063.04927	15207.8875
2066.06582	15238.9875
2069.08042	15213.9875
2072.09307	15211.1875
2075.10378	15180.4875
2078.11255	15176.7875
2081.11938	15162.8875
2084.12426	15153.2875
2087.12722	15165.1875
2090.12824	15103.4875
2093.12732	15110.1875
2096.12447	15125.6875
2099.11969	15142.7875
2102.11299	15112.1875
2105.10435	15109.0875
2108.09379	15144.3875
2111.08131	15192.9875
2114.0669	15166.6875
2117.05057	15187.5875
2120.03233	15214.6875
2123.01216	15232.0875
2125.99008	15234.3875
2128.96609	15231.5875
2131.94018	15247.3875
2134.91236	15280.5875
2137.88263	15277.4875
2140.851	15283.0875
2143.81746	15323.9875
2146.78201	15309.5875
2149.74466	15328.9875
2152.7054	15297.8875
2155.66425	15318.5875
2158.6212	15299.4875
2161.57625	15319.2875
2164.52941	15309.2875
2167.48067	15309.0875
2170.43004	15289.4875
2173.37752	15306.3875
2176.32311	15297.1875
2179.26681	15325.4875
2182.20863	15277.7875
2185.14856	15301.4875
2188.08661	15294.1875
2191.02278	15316.2875
2193.95707	15322.3875
2196.88948	15334.1875
2199.82001	15318.2875
2202.74867	15262.1875
2205.67545	15289.4875
2208.60037	15273.2875
2211.52341	15273.1875
2214.44458	15280.8875
2217.36388	15244.4875
2220.28132	15204.2875
2223.1969	15160.0875
2226.11061	15170.1875
2229.02246	15125.7875
2231.93245	15072.6875
2234.84058	15040.8875
2237.74686	15070.5875
2240.65128	15042.4875
2243.55385	15014.5875
2246.45456	15001.5875
2249.35343	14960.1875
2252.25044	14947.0875
2255.14561	14963.1875
2258.03893	14946.5875
2260.93041	14898.1875
2263.82004	14868.1875
2266.70783	14801.3875
2269.59378	14752.1875
2272.4779	14734.4875
2275.36017	14718.4875
2278.24061	14687.0875
2281.11922	14661.2875
2283.996	14657.8875
2286.87094	14653.2875
2289.74405	14649.8875
2292.61534	14628.6875
2295.4848	14602.7875
2298.35243	14583.7875
2301.21824	14600.1875
2304.08223	14555.1875
2306.94439	14608.5875
2309.80474	14599.0875
2312.66327	14625.3875
2315.51999	14579.4875
2318.37489	14624.9875
2321.22797	14575.2875
2324.07925	14567.1875
2326.92871	14539.5875
2329.77637	14521.9875
2332.62222	14534.1875
2335.46626	14486.9875
2338.3085	14519.9875
2341.14893	14508.1875
2343.98756	14495.6875
2346.8244	14500.4875
2349.65943	14484.5875
2352.49267	14495.0875
2355.32411	14512.9875
2358.15376	14504.8875
2360.98161	14501.6875
2363.80768	14472.6875
2366.63195	14439.8875
2369.45444	14403.9875
2372.27514	14371.4875
2375.09405	14362.0875
2377.91118	14332.2875
2380.72652	14322.6875
2383.54009	14294.7875
2386.35187	14240.7875
2389.16188	14200.2875
2391.97011	14199.0875
2394.77657	14176.7875
2397.58125	14124.0875
2400.38416	14128.8875
2403.18529	14148.9875
2405.98466	14097.3875
2408.78226	14057.2875
2411.57809	14057.7875
2414.37216	14049.7875
2417.16446	14029.1875
2419.955	14027.6875
2422.74378	14033.0875
2425.5308	13962.9875
2428.31606	14000.0875
2431.09956	13989.4875
2433.88131	13969.7875
2436.6613	13957.8875
2439.43954	13969.1875
2442.21603	13960.3875
2444.99077	13943.3875
2447.76377	13949.8875
2450.53501	13925.5875
2453.30451	13907.7875
2456.07226	13893.6875
2458.83827	13883.4875
2461.60254	13891.1875
2464.36507	13868.2875
2467.12586	13853.6875
2469.88492	13832.3875
2472.64224	13874.2875
2475.39782	13864.2875
2478.15167	13870.4875
2480.90379	13881.6875
2483.65417	13878.5875
2486.40283	13884.4875
2489.14976	13893.2875
2491.89497	13886.6875
2494.63845	13912.1875
2497.3802	13890.6875
2500.12024	13876.3875
2502.85855	13879.8875
2505.59514	13860.0875
2508.33002	13828.2875
2511.06318	13847.6875
2513.79462	13834.7875
2516.52435	13797.8875
2519.25237	13781.6875
2521.97867	13751.1875
2524.70327	13803.1875
2527.42616	13772.0875
2530.14734	13768.1875
2532.86681	13744.3875
2535.58458	13784.1875
2538.30065	13754.8875
2541.01501	13790.2875
2543.72768	13740.1875
2546.43864	13732.9875
2549.14791	13708.7875
2551.85548	13698.2875
2554.56136	13669.7875
2557.26554	13660.4875
2559.96803	13613.2875
2562.66883	13588.2875
2565.36794	13569.7875
2568.06536	13571.2875
2570.7611	13547.2875
2573.45514	13551.4875
2576.14751	13525.9875
2578.83819	13517.1875
2581.52719	13522.0875
2584.21451	13498.5875
2586.90015	13480.0875
2589.58411	13468.2875
2592.2664	13448.7875
2594.94701	13455.7875
2597.62594	13462.2875
2600.30321	13438.4875
2602.9788	13415.6875
2605.65273	13384.0875
2608.32498	13395.5875
2610.99557	13385.6875
2613.66449	13398.0875
2616.33175	13353.0875
2618.99734	13373.1875
2621.66128	13380.8875
2624.32355	13394.5875
2626.98416	13364.3875
2629.64311	13367.4875
2632.30041	13371.9875
2634.95605	13341.4875
2637.61004	13321.3875
2640.26238	13284.9875
2642.91306	13296.3875
2645.56209	13271.7875
2648.20948	13262.2875
2650.85521	13264.9875
2653.4993	13258.7875
2656.14175	13271.4875
2658.78255	13268.2875
2661.42171	13286.1875
2664.05923	13299.1875
2666.6951	13283.9875
2669.32934	13280.0875
2671.96194	13314.5875
2674.59291	13313.2875
2677.22224	13289.3875
2679.84993	13311.9875
2682.476	13286.3875
2685.10043	13289.4875
2687.72324	13255.4875
2690.34441	13265.3875
2692.96396	13266.9875
2695.58188	13273.4875
2698.19818	13253.5875
2700.81285	13264.6875
2703.4259	13244.7875
2706.03733	13295.0875
2708.64714	13253.8875
2711.25533	13274.8875
2713.86191	13264.0875
2716.46687	13292.6875
2719.07021	13291.2875
2721.67194	13304.9875
2724.27206	13299.6875
2726.87057	13325.5875
2729.46747	13319.0875
2732.06276	13322.4875
2734.65644	13299.8875
2737.24852	13328.7875
2739.83899	13291.3875
2742.42786	13325.0875
2745.01513	13241.7875
2747.60079	13254.6875
2750.18486	13258.2875
2752.76733	13241.2875
2755.3482	13209.2875
2757.92747	13211.0875
2760.50515	13226.0875
2763.08123	13208.6875
2765.65573	13177.7875
2768.22863	13197.7875
2770.79994	13172.4875
2773.36967	13195.8875
2775.9378	13189.1875
2778.50435	13189.6875
2781.06932	13196.7875
2783.6327	13212.6875
2786.1945	13184.1875
2788.75471	13146.8875
2791.31335	13142.1875
2793.87041	13127.5875
2796.42589	13079.9875
2798.97979	13087.5875
2801.53212	13036.0875
2804.08288	13035.7875
2806.63206	12985.1875
2809.17967	12977.9875
2811.72571	12938.2875
2814.27018	12934.0875
2816.81308	12906.8875
2819.35442	12885.5875
2821.89419	12870.5875
2824.43239	12879.3875
2826.96904	12836.9875
2829.50412	12848.3875
2832.03763	12826.8875
2834.56959	12816.4875
2837.1	12810.9875
2839.62884	12822.2875
2842.15613	12795.6875
2844.68186	12825.5875
2847.20604	12834.0875
2849.72867	12839.5875
2852.24974	12813.0875
2854.76927	12781.6875
2857.28724	12795.9875
2859.80367	12740.8875
2862.31855	12731.9875
2864.83189	12760.6875
2867.34368	12712.5875
2869.85393	12695.2875
2872.36264	12692.8875
2874.8698	12674.9875
2877.37543	12687.6875
2879.87952	12689.9875
2882.38207	12684.0875
2884.88308	12686.2875
2887.38256	12707.5875
2889.88051	12710.5875
2892.37692	12702.5875
2894.8718	12705.8875
2897.36515	12720.4875
2899.85698	12731.7875
2902.34727	12761.0875
2904.83604	12746.1875
2907.32328	12797.0875
2909.809	12774.4875
2912.29319	12796.2875
2914.77587	12765.4875
2917.25702	12771.0875
2919.73665	12785.6875
2922.21476	12763.0875
2924.69136	12751.9875
2927.16644	12750.2875
2929.64	12740.0875
2932.11205	12710.3875
2934.58258	12670.8875
2937.05161	12718.1875
2939.51912	12715.9875
2941.98513	12707.0875
2944.44962	12682.2875
2946.91261	12641.5875
2949.37409	12656.8875
2951.83407	12648.1875
2954.29254	12634.4875
2956.74951	12605.1875
2959.20498	12610.4875
2961.65895	12609.0875
2964.11142	12624.4875
2966.56239	12615.1875
2969.01186	12608.3875
2971.45984	12581.3875
2973.90632	12577.8875
2976.35131	12550.1875
2978.7948	12511.8875
2981.23681	12496.0875
2983.67732	12499.6875
2986.11635	12473.3875
2988.55388	12441.3875
2990.98993	12426.7875
2993.4245	12397.2875
2995.85758	12370.4875
2998.28917	12352.4875
3000.71928	12301.6875
3003.14791	12324.9875
3005.57506	12293.4875
3008.00073	12268.1875
3010.42493	12250.0875
3012.84764	12235.5875
3015.26888	12217.3875
3017.68865	12200.6875
3020.10694	12185.2875
3022.52376	12188.7875
3024.9391	12147.9875
