Data from AgNP_FTO_APTES_UA_10uM_CRN_0uM_R6G_10uM_NaF_0.1M_Addition_RamanShift__6__12-15-20-440.txt Node

Date: Thu Feb 10 12:15:20 GMT 2022
User: TCL
Spectrometer: QEP01345
Trigger mode: 4
Integration Time (sec): 7.000000E0
Scans to average: 10
Electric dark correction enabled: true
Nonlinearity correction enabled: false
Boxcar width: 0
XAxis mode: Raman Shifts
Number of Pixels in Spectrum: 1044
>>>>>Begin Spectral Data<<<<<
46.04893	-0.1125
50.45542	-0.5125
54.85868	-1.8125
59.25871	-0.3125
63.6555	58.5875
68.04907	60.4875
72.43941	62.3875
76.82654	63.0875
81.21044	68.2875
85.59113	68.3875
89.96862	73.3875
94.34289	74.7875
98.71396	80.7875
103.08183	85.0875
107.4465	84.1875
111.80798	77.5875
116.16626	88.4875
120.52136	92.9875
124.87327	99.4875
129.222	98.7875
133.56755	110.5875
137.90993	115.9875
142.24913	123.7875
146.58517	139.6875
150.91804	165.2875
155.24774	196.0875
159.57429	245.2875
163.89768	323.5875
168.21792	425.7875
172.53501	579.1875
176.84895	816.4875
181.15975	1142.7875
185.46741	1614.9875
189.77193	2226.0875
194.07331	2977.1875
198.37157	3839.7875
202.6667	4771.9875
206.9587	5684.0875
211.24758	6586.9875
215.53334	7492.9875
219.81599	8478.7875
224.09553	9539.4875
228.37195	10723.0875
232.64527	12019.2875
236.91549	13428.3875
241.18261	14763.0875
245.44663	15926.0875
249.70755	16946.0875
253.96539	17833.5875
258.22014	18554.6875
262.4718	19149.1875
266.72039	19573.4875
270.96589	19773.8875
275.20832	19691.0875
279.44768	19443.2875
283.68397	19137.7875
287.91719	18884.0875
292.14735	18754.0875
296.37445	18787.5875
300.59849	18973.8875
304.81948	19165.4875
309.03742	19403.9875
313.25231	19411.2875
317.46415	19081.3875
321.67296	18488.6875
325.87872	18006.5875
330.08145	17703.6875
334.28114	17650.9875
338.47781	17738.3875
342.67145	18000.4875
346.86207	18406.1875
351.04966	18883.3875
355.23424	19441.2875
359.4158	19881.0875
363.59435	20189.3875
367.76989	20299.5875
371.94243	20297.1875
376.11196	20261.6875
380.27849	20232.6875
384.44203	20232.1875
388.60257	20317.8875
392.76012	20486.7875
396.91468	20802.8875
401.06626	21150.6875
405.21485	21343.9875
409.36047	21143.9875
413.50311	20628.1875
417.64277	20308.1875
421.77947	20263.3875
425.9132	20361.1875
430.04396	20402.5875
434.17176	20446.5875
438.2966	20428.0875
442.41849	20674.1875
446.53742	21151.3875
450.6534	21624.3875
454.76644	21852.9875
458.87653	21837.1875
462.98368	21756.0875
467.08789	21461.6875
471.18916	21121.7875
475.2875	20739.3875
479.38291	20403.1875
483.4754	20278.9875
487.56496	20128.6875
491.6516	20013.2875
495.73531	19879.3875
499.81612	19798.6875
503.89401	19994.6875
507.96899	20123.6875
512.04106	20161.9875
516.11023	20171.6875
520.1765	20063.5875
524.23987	19927.3875
528.30034	19714.2875
532.35792	19575.8875
536.41261	19312.4875
540.46441	18977.4875
544.51333	18859.3875
548.55936	18957.1875
552.60252	19376.5875
556.64279	19838.2875
560.6802	20171.0875
564.71473	20292.7875
568.7464	20647.6875
572.7752	21179.1875
576.80114	21654.5875
580.82422	22230.6875
584.84444	23165.9875
588.86181	24512.5875
592.87633	25716.8875
596.888	25856.9875
600.89682	24554.1875
604.9028	24118.9875
608.90594	26376.9875
612.90624	29643.6875
616.90371	28160.0875
620.89834	22638.5875
624.89015	19940.9875
628.87913	19494.1875
632.86528	19737.4875
636.84862	19853.6875
640.82913	19494.1875
644.80683	18922.3875
648.78172	18552.3875
652.75379	18550.4875
656.72306	18846.5875
660.68952	19279.7875
664.65319	19152.1875
668.61405	18589.3875
672.57211	18479.6875
676.52738	18527.8875
680.47986	18517.7875
684.42955	18334.3875
688.37646	18149.2875
692.32058	18233.5875
696.26192	18485.7875
700.20048	18868.1875
704.13626	19027.5875
708.06928	19037.3875
711.99952	18980.9875
715.927	18913.9875
719.85171	18975.6875
723.77365	18874.9875
727.69284	18600.1875
731.60928	18271.0875
735.52295	18155.1875
739.43388	18205.9875
743.34206	18293.8875
747.24749	18406.3875
751.15017	18568.7875
755.05012	18872.0875
758.94733	19479.3875
762.8418	20630.7875
766.73354	22570.0875
770.62254	24470.8875
774.50882	24940.3875
778.39237	23845.3875
782.27321	22050.5875
786.15132	20435.0875
790.02671	19287.5875
793.89938	18725.3875
797.76935	18445.6875
801.6366	18321.9875
805.50115	18235.9875
809.36299	18110.4875
813.22213	17942.6875
817.07857	17816.6875
820.93231	17700.2875
824.78336	17639.4875
828.63172	17595.1875
832.47738	17542.3875
836.32036	17571.1875
840.16066	17506.2875
843.99827	17518.7875
847.8332	17525.7875
851.66546	17549.1875
855.49504	17591.5875
859.32195	17564.0875
863.1462	17527.7875
866.96777	17472.7875
870.78668	17457.7875
874.60293	17491.5875
878.41652	17526.1875
882.22745	17612.7875
886.03573	17707.7875
889.84136	17735.4875
893.64433	17746.4875
897.44466	17747.4875
901.24235	17723.0875
905.0374	17634.7875
908.8298	17575.8875
912.61957	17534.9875
916.40671	17605.4875
920.19121	17799.0875
923.97308	18035.3875
927.75233	18215.5875
931.52895	18153.2875
935.30295	17884.9875
939.07433	17410.4875
942.84309	17046.5875
946.60924	16841.4875
950.37278	16808.8875
954.13371	16799.3875
957.89203	16758.6875
961.64774	16698.5875
965.40086	16688.3875
969.15137	16660.7875
972.89929	16582.3875
976.64461	16538.1875
980.38733	16529.2875
984.12747	16542.6875
987.86502	16595.4875
991.59999	16685.8875
995.33237	16801.1875
999.06217	17055.2875
1002.78939	17464.9875
1006.51404	17900.6875
1010.23611	18269.7875
1013.95561	18535.1875
1017.67255	18636.2875
1021.38692	18433.5875
1025.09872	18024.4875
1028.80796	17682.4875
1032.51465	17608.4875
1036.21877	17615.4875
1039.92035	17666.4875
1043.61937	17721.7875
1047.31584	17718.1875
1051.00976	17730.3875
1054.70114	17754.0875
1058.38998	17834.7875
1062.07627	17928.3875
1065.76003	18090.7875
1069.44126	18353.5875
1073.11995	18701.4875
1076.79611	19198.3875
1080.46974	19472.4875
1084.14085	19703.7875
1087.80943	20007.0875
1091.47549	20244.3875
1095.13903	20175.6875
1098.80005	19734.6875
1102.45857	19178.5875
1106.11456	18780.1875
1109.76805	18579.4875
1113.41903	18583.2875
1117.06751	18708.4875
1120.71348	18984.1875
1124.35696	19366.9875
1127.99793	19778.7875
1131.63641	19910.4875
1135.2724	19713.6875
1138.90589	19451.3875
1142.5369	19329.5875
1146.16542	19282.2875
1149.79145	19327.9875
1153.415	19378.5875
1157.03607	19535.8875
1160.65467	20135.1875
1164.27079	21080.8875
1167.88443	22310.7875
1171.49561	23789.0875
1175.10432	25743.4875
1178.71056	28215.5875
1182.31434	30526.8875
1185.91565	31609.0875
1189.51451	31363.6875
1193.11091	30294.1875
1196.70485	28692.7875
1200.29634	27029.8875
1203.88538	25793.6875
1207.47197	24955.2875
1211.05612	24399.9875
1214.63782	23810.6875
1218.21708	23162.1875
1221.79391	22710.4875
1225.36829	22450.3875
1228.94024	22380.3875
1232.50976	22235.4875
1236.07685	21950.3875
1239.6415	21688.3875
1243.20374	21563.9875
1246.76355	21554.0875
1250.32093	21787.5875
1253.8759	22235.2875
1257.42845	22968.1875
1260.97859	23831.3875
1264.52631	24812.7875
1268.07163	25731.5875
1271.61453	26542.1875
1275.15503	27260.0875
1278.69312	27849.4875
1282.22882	28561.4875
1285.76211	29461.0875
1289.29301	30602.7875
1292.82151	31844.0875
1296.34761	33238.0875
1299.87133	35059.6875
1303.39266	37211.4875
1306.9116	39515.2875
1310.42815	41751.6875
1313.94233	43006.9875
1317.45412	42551.0875
1320.96354	41081.4875
1324.47058	39670.1875
1327.97525	38680.9875
1331.47754	37994.5875
1334.97747	37401.7875
1338.47502	36793.1875
1341.97022	36381.5875
1345.46305	36303.6875
1348.95352	36597.5875
1352.44163	37391.0875
1355.92738	38852.6875
1359.41078	41348.6875
1362.89183	43838.9875
1366.37053	43775.2875
1369.84688	39849.1875
1373.32088	34394.1875
1376.79254	30565.3875
1380.26186	28843.5875
1383.72883	28254.1875
1387.19347	27743.8875
1390.65578	27130.9875
1394.11575	26849.5875
1397.57339	26988.8875
1401.0287	27410.6875
1404.48168	27704.4875
1407.93234	27666.2875
1411.38068	27196.8875
1414.82669	26532.5875
1418.27039	25753.3875
1421.71177	25027.7875
1425.15083	24414.9875
1428.58758	24181.2875
1432.02203	24508.1875
1435.45416	25173.9875
1438.88399	25740.9875
1442.31151	26024.4875
1445.73673	26102.8875
1449.15965	26236.0875
1452.58027	26193.0875
1455.9986	26031.2875
1459.41463	26247.7875
1462.82837	26698.1875
1466.23982	27247.8875
1469.64898	27751.9875
1473.05586	28052.2875
1476.46045	28108.4875
1479.86276	28056.8875
1483.26279	28113.8875
1486.66054	28314.7875
1490.05602	28814.3875
1493.44922	29655.6875
1496.84016	30738.9875
1500.22882	32143.0875
1503.61521	33941.6875
1506.99934	35957.1875
1510.38121	37610.4875
1513.76081	37887.4875
1517.13816	36467.4875
1520.51324	34073.8875
1523.88607	31886.2875
1527.25665	30495.2875
1530.62498	29700.9875
1533.99105	29036.4875
1537.35488	28292.9875
1540.71647	27499.9875
1544.07581	26712.5875
1547.4329	25948.3875
1550.78776	25451.8875
1554.14038	25166.0875
1557.49077	25123.4875
1560.83892	25168.8875
1564.18484	25426.5875
1567.52853	25752.9875
1570.86999	26196.1875
1574.20922	26631.8875
1577.54624	26867.8875
1580.88103	26580.8875
1584.2136	26230.4875
1587.54395	26514.5875
1590.87208	27672.8875
1594.19801	29444.6875
1597.52172	31182.2875
1600.84321	31592.1875
1604.16251	30116.3875
1607.47959	27720.2875
1610.79447	25339.0875
1614.10715	23109.0875
1617.41763	21292.8875
1620.7259	20065.3875
1624.03199	19547.1875
1627.33587	19536.5875
1630.63757	20276.5875
1633.93707	21730.7875
1637.23439	24303.1875
1640.52951	28132.8875
1643.82246	32853.0875
1647.11321	36832.8875
1650.40179	37905.0875
1653.68819	35123.1875
1656.97241	29738.9875
1660.25446	24537.3875
1663.53433	20819.9875
1666.81203	18629.3875
1670.08756	17384.3875
1673.36092	16602.6875
1676.63211	16108.5875
1679.90115	15771.5875
1683.16801	15539.1875
1686.43272	15320.8875
1689.69527	15196.7875
1692.95567	15074.3875
1696.2139	15014.8875
1699.46999	14938.6875
1702.72392	14916.8875
1705.97571	14845.5875
1709.22535	14828.6875
1712.47284	14816.5875
1715.71819	14769.9875
1718.96139	14706.9875
1722.20246	14678.6875
1725.44139	14585.2875
1728.67818	14486.2875
1731.91284	14414.1875
1735.14537	14285.5875
1738.37576	14184.0875
1741.60403	14160.8875
1744.83017	14121.4875
1748.05418	14089.3875
1751.27607	14032.8875
1754.49584	13980.7875
1757.71349	13981.9875
1760.92903	13928.9875
1764.14244	13935.3875
1767.35375	13912.2875
1770.56294	13897.9875
1773.77002	13852.1875
1776.97499	13804.1875
1780.17785	13780.9875
1783.37861	13731.8875
1786.57727	13755.8875
1789.77382	13667.8875
1792.96828	13656.7875
1796.16064	13638.8875
1799.3509	13634.3875
1802.53907	13603.5875
1805.72514	13540.4875
1808.90913	13473.9875
1812.09102	13477.1875
1815.27083	13486.9875
1818.44856	13440.2875
1821.6242	13414.2875
1824.79776	13406.6875
1827.96924	13428.3875
1831.13864	13429.5875
1834.30597	13436.1875
1837.47122	13458.7875
1840.6344	13462.4875
1843.7955	13444.9875
1846.95454	13462.7875
1850.11151	13460.3875
1853.26642	13439.5875
1856.41926	13449.8875
1859.57004	13433.7875
1862.71876	13397.3875
1865.86542	13368.0875
1869.01003	13340.2875
1872.15258	13330.4875
1875.29308	13271.5875
1878.43152	13255.1875
1881.56792	13272.5875
1884.70227	13222.3875
1887.83457	13183.1875
1890.96482	13141.7875
1894.09304	13091.2875
1897.21921	13112.0875
1900.34335	13076.6875
1903.46544	13037.9875
1906.58551	12997.8875
1909.70353	12981.1875
1912.81953	12957.7875
1915.93349	12944.1875
1919.04543	12885.2875
1922.15534	12849.9875
1925.26322	12811.7875
1928.36908	12765.1875
1931.47292	12707.0875
1934.57473	12690.1875
1937.67453	12668.5875
1940.77232	12636.1875
1943.86808	12555.4875
1946.96184	12552.9875
1950.05358	12494.9875
1953.14331	12449.4875
1956.23103	12424.0875
1959.31675	12388.7875
1962.40046	12369.3875
1965.48217	12303.3875
1968.56188	12260.2875
1971.63959	12184.4875
1974.7153	12198.4875
1977.78901	12124.6875
1980.86073	12086.0875
1983.93046	12033.5875
1986.99819	11989.8875
1990.06394	12003.3875
1993.1277	11973.1875
1996.18947	11899.2875
1999.24925	11864.7875
2002.30706	11838.1875
2005.36288	11795.3875
2008.41672	11761.6875
2011.46859	11717.1875
2014.51848	11698.2875
2017.56639	11665.2875
2020.61233	11647.6875
2023.6563	11591.0875
2026.6983	11557.4875
2029.73833	11535.4875
2032.7764	11488.9875
2035.8125	11523.4875
2038.84664	11440.5875
2041.87881	11420.0875
2044.90903	11406.4875
2047.93729	11379.1875
2050.96359	11382.1875
2053.98794	11321.7875
2057.01034	11340.3875
2060.03078	11328.9875
2063.04927	11310.9875
2066.06582	11297.1875
2069.08042	11300.6875
2072.09307	11315.6875
2075.10378	11301.0875
2078.11255	11300.3875
2081.11938	11274.6875
2084.12426	11244.1875
2087.12722	11262.1875
2090.12824	11228.2875
2093.12732	11236.1875
2096.12447	11251.6875
2099.11969	11250.1875
2102.11299	11245.0875
2105.10435	11247.8875
2108.09379	11257.0875
2111.08131	11262.7875
2114.0669	11285.9875
2117.05057	11257.7875
2120.03233	11272.0875
2123.01216	11271.0875
2125.99008	11287.8875
2128.96609	11287.1875
2131.94018	11265.6875
2134.91236	11335.1875
2137.88263	11301.6875
2140.851	11289.9875
2143.81746	11298.2875
2146.78201	11258.1875
2149.74466	11259.5875
2152.7054	11253.3875
2155.66425	11227.2875
2158.6212	11229.0875
2161.57625	11218.3875
2164.52941	11242.5875
2167.48067	11222.1875
2170.43004	11225.6875
2173.37752	11197.5875
2176.32311	11213.9875
2179.26681	11190.2875
2182.20863	11190.5875
2185.14856	11194.3875
2188.08661	11180.0875
2191.02278	11158.0875
2193.95707	11164.0875
2196.88948	11137.7875
2199.82001	11126.0875
2202.74867	11120.8875
2205.67545	11099.5875
2208.60037	11090.5875
2211.52341	11095.0875
2214.44458	11064.5875
2217.36388	11067.5875
2220.28132	11013.4875
2223.1969	10974.0875
2226.11061	10950.1875
2229.02246	10964.1875
2231.93245	10916.9875
2234.84058	10889.9875
2237.74686	10918.3875
2240.65128	10913.9875
2243.55385	10883.0875
2246.45456	10863.0875
2249.35343	10800.3875
2252.25044	10823.1875
2255.14561	10801.0875
2258.03893	10781.6875
2260.93041	10738.2875
2263.82004	10729.6875
2266.70783	10728.8875
2269.59378	10668.3875
2272.4779	10658.5875
2275.36017	10626.1875
2278.24061	10610.1875
2281.11922	10586.3875
2283.996	10564.1875
2286.87094	10545.8875
2289.74405	10540.1875
2292.61534	10509.9875
2295.4848	10484.3875
2298.35243	10485.4875
2301.21824	10495.3875
2304.08223	10479.8875
2306.94439	10474.0875
2309.80474	10468.6875
2312.66327	10477.6875
2315.51999	10440.6875
2318.37489	10425.1875
2321.22797	10385.0875
2324.07925	10399.0875
2326.92871	10380.0875
2329.77637	10398.5875
2332.62222	10360.3875
2335.46626	10356.4875
2338.3085	10297.2875
2341.14893	10338.5875
2343.98756	10351.7875
2346.8244	10344.4875
2349.65943	10324.9875
2352.49267	10311.6875
2355.32411	10330.4875
2358.15376	10338.2875
2360.98161	10323.6875
2363.80768	10348.1875
2366.63195	10339.1875
2369.45444	10306.0875
2372.27514	10286.5875
2375.09405	10299.1875
2377.91118	10261.8875
2380.72652	10238.1875
2383.54009	10196.8875
2386.35187	10183.9875
2389.16188	10141.5875
2391.97011	10102.8875
2394.77657	10063.8875
2397.58125	10086.6875
2400.38416	10071.3875
2403.18529	10037.5875
2405.98466	10020.4875
2408.78226	9984.5875
2411.57809	10004.6875
2414.37216	9967.9875
2417.16446	9956.2875
2419.955	9938.0875
2422.74378	9954.6875
2425.5308	9951.9875
2428.31606	9937.5875
2431.09956	9967.6875
2433.88131	9930.6875
2436.6613	9964.4875
2439.43954	9958.9875
2442.21603	9933.8875
2444.99077	9924.0875
2447.76377	9927.1875
2450.53501	9919.8875
2453.30451	9917.8875
2456.07226	9894.5875
2458.83827	9926.3875
2461.60254	9914.1875
2464.36507	9896.4875
2467.12586	9883.5875
2469.88492	9894.6875
2472.64224	9862.7875
2475.39782	9877.6875
2478.15167	9898.7875
2480.90379	9890.3875
2483.65417	9890.8875
2486.40283	9877.8875
2489.14976	9876.2875
2491.89497	9871.7875
2494.63845	9870.7875
2497.3802	9833.0875
2500.12024	9834.9875
2502.85855	9854.1875
2505.59514	9844.9875
2508.33002	9810.2875
2511.06318	9825.6875
2513.79462	9792.9875
2516.52435	9774.5875
2519.25237	9744.1875
2521.97867	9753.3875
2524.70327	9722.6875
2527.42616	9725.6875
2530.14734	9732.5875
2532.86681	9710.4875
2535.58458	9690.5875
2538.30065	9689.6875
2541.01501	9705.2875
2543.72768	9698.3875
2546.43864	9668.2875
2549.14791	9644.8875
2551.85548	9641.4875
2554.56136	9627.0875
2557.26554	9622.3875
2559.96803	9615.5875
2562.66883	9600.5875
2565.36794	9596.3875
2568.06536	9596.3875
2570.7611	9555.2875
2573.45514	9523.9875
2576.14751	9546.0875
2578.83819	9497.5875
2581.52719	9495.9875
2584.21451	9508.8875
2586.90015	9478.5875
2589.58411	9483.3875
2592.2664	9463.5875
2594.94701	9453.5875
2597.62594	9433.4875
2600.30321	9422.8875
2602.9788	9442.0875
2605.65273	9416.5875
2608.32498	9410.5875
2610.99557	9418.2875
2613.66449	9407.1875
2616.33175	9369.6875
2618.99734	9396.2875
2621.66128	9401.4875
2624.32355	9362.1875
2626.98416	9345.0875
2629.64311	9329.4875
2632.30041	9317.2875
2634.95605	9311.6875
2637.61004	9288.5875
2640.26238	9288.4875
2642.91306	9305.1875
2645.56209	9281.5875
2648.20948	9269.2875
2650.85521	9267.1875
2653.4993	9270.5875
2656.14175	9305.0875
2658.78255	9290.2875
2661.42171	9292.5875
2664.05923	9306.7875
2666.6951	9309.5875
2669.32934	9322.4875
2671.96194	9314.0875
2674.59291	9344.3875
2677.22224	9301.1875
2679.84993	9311.8875
2682.476	9306.7875
2685.10043	9312.3875
2687.72324	9280.3875
2690.34441	9296.3875
2692.96396	9286.4875
2695.58188	9272.5875
2698.19818	9279.4875
2700.81285	9290.2875
2703.4259	9265.0875
2706.03733	9263.8875
2708.64714	9252.8875
2711.25533	9280.4875
2713.86191	9283.1875
2716.46687	9279.8875
2719.07021	9295.9875
2721.67194	9320.9875
2724.27206	9327.1875
2726.87057	9327.9875
2729.46747	9304.8875
2732.06276	9328.5875
2734.65644	9335.5875
2737.24852	9359.3875
2739.83899	9318.2875
2742.42786	9298.2875
2745.01513	9296.7875
2747.60079	9280.8875
2750.18486	9275.0875
2752.76733	9262.1875
2755.3482	9233.0875
2757.92747	9226.5875
2760.50515	9211.6875
2763.08123	9244.7875
2765.65573	9187.4875
2768.22863	9205.6875
2770.79994	9199.2875
2773.36967	9187.8875
2775.9378	9157.3875
2778.50435	9177.7875
2781.06932	9141.0875
2783.6327	9139.8875
2786.1945	9194.4875
2788.75471	9170.6875
2791.31335	9121.6875
2793.87041	9143.8875
2796.42589	9109.2875
2798.97979	9106.3875
2801.53212	9089.2875
2804.08288	9096.5875
2806.63206	9059.4875
2809.17967	9031.4875
2811.72571	9032.9875
2814.27018	9023.4875
2816.81308	9002.1875
2819.35442	8974.5875
2821.89419	8964.3875
2824.43239	8966.2875
2826.96904	8946.6875
2829.50412	8957.0875
2832.03763	8940.6875
2834.56959	8950.6875
2837.1	8941.2875
2839.62884	8949.9875
2842.15613	8949.5875
2844.68186	8940.1875
2847.20604	8956.6875
2849.72867	8974.4875
2852.24974	8948.8875
2854.76927	8949.7875
2857.28724	8935.9875
2859.80367	8942.0875
2862.31855	8913.1875
2864.83189	8906.1875
2867.34368	8916.7875
2869.85393	8896.4875
2872.36264	8909.6875
2874.8698	8898.3875
2877.37543	8918.0875
2879.87952	8897.8875
2882.38207	8901.5875
2884.88308	8902.6875
2887.38256	8891.5875
2889.88051	8896.6875
2892.37692	8894.7875
2894.8718	8911.3875
2897.36515	8914.1875
2899.85698	8929.7875
2902.34727	8917.0875
2904.83604	8931.7875
2907.32328	8938.9875
2909.809	8933.1875
2912.29319	8920.5875
2914.77587	8927.7875
2917.25702	8912.4875
2919.73665	8912.3875
2922.21476	8938.4875
2924.69136	8921.1875
2927.16644	8908.7875
2929.64	8876.5875
2932.11205	8864.2875
2934.58258	8819.8875
2937.05161	8834.0875
2939.51912	8859.4875
2941.98513	8840.8875
2944.44962	8803.1875
2946.91261	8776.0875
2949.37409	8778.5875
2951.83407	8767.2875
2954.29254	8774.9875
2956.74951	8749.4875
2959.20498	8727.0875
2961.65895	8720.0875
2964.11142	8740.8875
2966.56239	8688.0875
2969.01186	8691.1875
2971.45984	8656.3875
2973.90632	8661.5875
2976.35131	8656.2875
2978.7948	8637.4875
2981.23681	8589.3875
2983.67732	8554.1875
2986.11635	8533.2875
2988.55388	8518.3875
2990.98993	8514.6875
2993.4245	8501.0875
2995.85758	8448.6875
2998.28917	8444.8875
3000.71928	8452.2875
3003.14791	8431.3875
3005.57506	8417.0875
3008.00073	8385.9875
3010.42493	8379.1875
3012.84764	8344.6875
3015.26888	8339.9875
3017.68865	8319.3875
3020.10694	8308.4875
3022.52376	8294.7875
3024.9391	8274.9875
3027.35298	8271.4875
3029.76539	8265.2875
3032.17632	8261.5875
3034.5858	8249.5875
3036.9938	8271.4875
3039.40034	8253.6875
3041.80542	8246.2875
3044.20903	8212.7875
3046.61118	8204.8875
3049.01187	8173.8875
3051.4111	8172.1875
