Data from AgNP_FTO_APTES_UA_10uM_CRN_10uM_R6G_10uM_NaF_0.1M_Addition_RamanShift__9__15-34-50-695.txt Node

Date: Thu Feb 10 15:34:50 GMT 2022
User: TCL
Spectrometer: QEP01345
Trigger mode: 4
Integration Time (sec): 7.000000E0
Scans to average: 10
Electric dark correction enabled: true
Nonlinearity correction enabled: false
Boxcar width: 0
XAxis mode: Raman Shifts
Number of Pixels in Spectrum: 1044
>>>>>Begin Spectral Data<<<<<
46.04893	0.2125
50.45542	-1.3875
54.85868	-3.0875
59.25871	-0.4875
63.6555	74.4125
68.04907	77.4125
72.43941	81.5125
76.82654	81.1125
81.21044	90.4125
85.59113	90.1125
89.96862	95.6125
94.34289	99.3125
98.71396	99.9125
103.08183	106.3125
107.4465	104.9125
111.80798	109.7125
116.16626	115.8125
120.52136	114.5125
124.87327	121.9125
129.222	127.2125
133.56755	139.3125
137.90993	146.4125
142.24913	157.2125
146.58517	185.4125
150.91804	213.9125
155.24774	254.4125
159.57429	318.5125
163.89768	410.5125
168.21792	538.9125
172.53501	731.2125
176.84895	1033.7125
181.15975	1443.0125
185.46741	2019.9125
189.77193	2793.6125
194.07331	3730.9125
198.37157	4802.5125
202.6667	5924.1125
206.9587	7039.5125
211.24758	8144.2125
215.53334	9222.4125
219.81599	10380.7125
224.09553	11625.3125
228.37195	13044.6125
232.64527	14589.1125
236.91549	16167.8125
241.18261	17785.6125
245.44663	19283.2125
249.70755	20619.9125
253.96539	21837.8125
258.22014	22838.2125
262.4718	23654.6125
266.72039	24211.3125
270.96589	24505.8125
275.20832	24595.4125
279.44768	24470.8125
283.68397	24255.2125
287.91719	24142.4125
292.14735	23996.0125
296.37445	23998.9125
300.59849	24137.7125
304.81948	24234.7125
309.03742	24261.4125
313.25231	24108.8125
317.46415	23731.7125
321.67296	23208.1125
325.87872	22792.1125
330.08145	22590.7125
334.28114	22559.8125
338.47781	22699.6125
342.67145	22940.6125
346.86207	23296.8125
351.04966	23672.2125
355.23424	24059.9125
359.4158	24371.6125
363.59435	24599.1125
367.76989	24787.1125
371.94243	24953.6125
376.11196	24983.4125
380.27849	25042.5125
384.44203	25102.8125
388.60257	25336.2125
392.76012	25603.6125
396.91468	25971.4125
401.06626	26425.1125
405.21485	26649.4125
409.36047	26583.1125
413.50311	26306.7125
417.64277	26260.1125
421.77947	26400.5125
425.9132	26643.3125
430.04396	26794.2125
434.17176	26914.3125
438.2966	26946.0125
442.41849	27191.6125
446.53742	27786.2125
450.6534	28522.8125
454.76644	29007.6125
458.87653	29224.4125
462.98368	29138.8125
467.08789	28811.2125
471.18916	28441.7125
475.2875	28020.8125
479.38291	27797.0125
483.4754	27613.5125
487.56496	27331.7125
491.6516	26944.8125
495.73531	26547.8125
499.81612	26353.1125
503.89401	26466.0125
507.96899	26623.3125
512.04106	26699.2125
516.11023	26549.1125
520.1765	26276.0125
524.23987	25963.0125
528.30034	25620.5125
532.35792	25403.6125
536.41261	25104.4125
540.46441	24877.7125
544.51333	24898.1125
548.55936	25196.6125
552.60252	25680.8125
556.64279	26265.7125
560.6802	26756.9125
564.71473	27090.0125
568.7464	27665.5125
572.7752	28700.9125
576.80114	29921.0125
580.82422	31023.9125
584.84444	32235.8125
588.86181	33712.0125
592.87633	34830.2125
596.888	34309.6125
600.89682	32441.0125
604.9028	31614.6125
608.90594	32652.8125
612.90624	33807.9125
616.90371	31565.4125
620.89834	27489.6125
624.89015	25903.6125
628.87913	25822.6125
632.86528	26041.4125
636.84862	25983.3125
640.82913	25546.1125
644.80683	24889.8125
648.78172	24521.7125
652.75379	24482.0125
656.72306	24759.6125
660.68952	25061.6125
664.65319	24941.2125
668.61405	24575.0125
672.57211	24588.6125
676.52738	24697.3125
680.47986	24708.6125
684.42955	24434.3125
688.37646	24433.2125
692.32058	24584.3125
696.26192	24939.6125
700.20048	25289.5125
704.13626	25489.2125
708.06928	25580.3125
711.99952	25506.8125
715.927	25399.2125
719.85171	25432.6125
723.77365	25275.9125
727.69284	24842.4125
731.60928	24531.4125
735.52295	24340.4125
739.43388	24206.9125
743.34206	24333.1125
747.24749	24529.8125
751.15017	24850.8125
755.05012	25302.2125
758.94733	26080.5125
762.8418	27189.9125
766.73354	28836.8125
770.62254	30155.5125
774.50882	30146.5125
778.39237	28819.2125
782.27321	27161.1125
786.15132	25823.0125
790.02671	25050.4125
793.89938	24604.7125
797.76935	24357.3125
801.6366	24306.0125
805.50115	24230.4125
809.36299	24076.5125
813.22213	23907.6125
817.07857	23868.8125
820.93231	23780.2125
824.78336	23649.0125
828.63172	23483.5125
832.47738	23415.8125
836.32036	23370.4125
840.16066	23387.3125
843.99827	23420.0125
847.8332	23416.8125
851.66546	23473.6125
855.49504	23545.1125
859.32195	23539.4125
863.1462	23440.5125
866.96777	23428.6125
870.78668	23361.1125
874.60293	23366.3125
878.41652	23360.7125
882.22745	23412.7125
886.03573	23434.4125
889.84136	23468.6125
893.64433	23329.4125
897.44466	23302.6125
901.24235	23241.4125
905.0374	23222.5125
908.8298	23201.1125
912.61957	23278.3125
916.40671	23506.0125
920.19121	23920.9125
923.97308	24215.3125
927.75233	24081.6125
931.52895	23732.8125
935.30295	23372.4125
939.07433	22936.0125
942.84309	22649.0125
946.60924	22526.6125
950.37278	22475.5125
954.13371	22532.0125
957.89203	22530.2125
961.64774	22529.7125
965.40086	22477.9125
969.15137	22466.7125
972.89929	22396.5125
976.64461	22279.8125
980.38733	22259.1125
984.12747	22278.0125
987.86502	22344.2125
991.59999	22498.8125
995.33237	22642.7125
999.06217	23021.1125
1002.78939	23507.6125
1006.51404	23960.2125
1010.23611	24439.5125
1013.95561	24722.3125
1017.67255	24721.4125
1021.38692	24499.1125
1025.09872	24097.9125
1028.80796	23802.7125
1032.51465	23746.6125
1036.21877	23865.3125
1039.92035	24023.3125
1043.61937	24028.0125
1047.31584	24011.0125
1051.00976	24009.4125
1054.70114	24045.6125
1058.38998	24219.5125
1062.07627	24500.8125
1065.76003	24831.5125
1069.44126	25161.4125
1073.11995	25610.2125
1076.79611	25917.0125
1080.46974	26046.7125
1084.14085	26281.9125
1087.80943	26585.0125
1091.47549	26862.7125
1095.13903	26890.2125
1098.80005	26536.7125
1102.45857	25879.0125
1106.11456	25340.8125
1109.76805	25044.0125
1113.41903	25017.3125
1117.06751	25105.1125
1120.71348	25292.5125
1124.35696	25556.1125
1127.99793	25803.0125
1131.63641	25993.9125
1135.2724	26015.3125
1138.90589	26007.9125
1142.5369	26139.9125
1146.16542	26389.8125
1149.79145	26700.6125
1153.415	27054.2125
1157.03607	27448.6125
1160.65467	28293.1125
1164.27079	29639.8125
1167.88443	31201.2125
1171.49561	32734.4125
1175.10432	34501.2125
1178.71056	36670.2125
1182.31434	38829.5125
1185.91565	39981.8125
1189.51451	40036.4125
1193.11091	39390.4125
1196.70485	38263.4125
1200.29634	37077.6125
1203.88538	36250.5125
1207.47197	36068.1125
1211.05612	35917.1125
1214.63782	35349.3125
1218.21708	34270.8125
1221.79391	32971.7125
1225.36829	31998.0125
1228.94024	31463.4125
1232.50976	31118.7125
1236.07685	30762.1125
1239.6415	30472.0125
1243.20374	30489.8125
1246.76355	30644.5125
1250.32093	31129.6125
1253.8759	31785.7125
1257.42845	32691.4125
1260.97859	33656.0125
1264.52631	34630.0125
1268.07163	35651.7125
1271.61453	36692.6125
1275.15503	37674.3125
1278.69312	38749.7125
1282.22882	39853.0125
1285.76211	41171.1125
1289.29301	42855.0125
1292.82151	44934.4125
1296.34761	47269.2125
1299.87133	50119.6125
1303.39266	52995.8125
1306.9116	55198.3125
1310.42815	56576.1125
1313.94233	57138.8125
1317.45412	56701.9125
1320.96354	55955.9125
1324.47058	55589.8125
1327.97525	55632.9125
1331.47754	55797.8125
1334.97747	55821.6125
1338.47502	55568.7125
1341.97022	55232.0125
1345.46305	54500.8125
1348.95352	53584.2125
1352.44163	52860.1125
1355.92738	52800.2125
1359.41078	53670.9125
1362.89183	54456.2125
1366.37053	53354.9125
1369.84688	49761.5125
1373.32088	45219.8125
1376.79254	41973.8125
1380.26186	40903.1125
1383.72883	41297.6125
1387.19347	41551.4125
1390.65578	41366.4125
1394.11575	41339.1125
1397.57339	41787.6125
1401.0287	42559.3125
1404.48168	43145.0125
1407.93234	43013.9125
1411.38068	42067.6125
1414.82669	40469.4125
1418.27039	38604.1125
1421.71177	36926.5125
1425.15083	35607.5125
1428.58758	35139.0125
1432.02203	35667.4125
1435.45416	36809.9125
1438.88399	38134.0125
1442.31151	39023.8125
1445.73673	39506.3125
1449.15965	39738.8125
1452.58027	39762.1125
1455.9986	39778.4125
1459.41463	40043.2125
1462.82837	40658.3125
1466.23982	41259.8125
1469.64898	41860.0125
1473.05586	42027.9125
1476.46045	41916.2125
1479.86276	41430.8125
1483.26279	40957.5125
1486.66054	40712.8125
1490.05602	40740.1125
1493.44922	41061.3125
1496.84016	41486.5125
1500.22882	42112.0125
1503.61521	43017.3125
1506.99934	44015.4125
1510.38121	44713.0125
1513.76081	44795.0125
1517.13816	44170.0125
1520.51324	43552.0125
1523.88607	43307.8125
1527.25665	43542.4125
1530.62498	43835.0125
1533.99105	43830.6125
1537.35488	43197.6125
1540.71647	42102.4125
1544.07581	40749.2125
1547.4329	39360.4125
1550.78776	38229.4125
1554.14038	37512.3125
1557.49077	37004.5125
1560.83892	36671.7125
1564.18484	36482.7125
1567.52853	36457.1125
1570.86999	36838.2125
1574.20922	37570.3125
1577.54624	38339.1125
1580.88103	38860.6125
1584.2136	39540.8125
1587.54395	40994.4125
1590.87208	43208.6125
1594.19801	45708.8125
1597.52172	47847.6125
1600.84321	47925.1125
1604.16251	45517.4125
1607.47959	41859.8125
1610.79447	38163.9125
1614.10715	34887.2125
1617.41763	32223.8125
1620.7259	30370.2125
1624.03199	29484.0125
1627.33587	29479.7125
1630.63757	30484.3125
1633.93707	32697.6125
1637.23439	36305.7125
1640.52951	41594.6125
1643.82246	47554.6125
1647.11321	51795.4125
1650.40179	51930.7125
1653.68819	47461.0125
1656.97241	40701.3125
1660.25446	34506.1125
1663.53433	29961.1125
1666.81203	27026.4125
1670.08756	25130.6125
1673.36092	24013.6125
1676.63211	23242.1125
1679.90115	22704.6125
1683.16801	22315.0125
1686.43272	21993.4125
1689.69527	21789.2125
1692.95567	21625.1125
1696.2139	21535.6125
1699.46999	21448.2125
1702.72392	21336.6125
1705.97571	21250.8125
1709.22535	21190.7125
1712.47284	21075.2125
1715.71819	21052.1125
1718.96139	20968.1125
1722.20246	20871.4125
1725.44139	20788.7125
1728.67818	20650.7125
1731.91284	20501.8125
1735.14537	20381.6125
1738.37576	20327.9125
1741.60403	20248.6125
1744.83017	20119.6125
1748.05418	20071.4125
1751.27607	20014.0125
1754.49584	20023.9125
1757.71349	19972.9125
1760.92903	19942.7125
1764.14244	19923.5125
1767.35375	19930.7125
1770.56294	19882.2125
1773.77002	19820.4125
1776.97499	19767.1125
1780.17785	19726.0125
1783.37861	19689.9125
1786.57727	19615.8125
1789.77382	19599.1125
1792.96828	19564.0125
1796.16064	19516.8125
1799.3509	19507.8125
1802.53907	19442.3125
1805.72514	19391.8125
1808.90913	19328.6125
1812.09102	19297.5125
1815.27083	19260.1125
1818.44856	19221.7125
1821.6242	19211.2125
1824.79776	19155.5125
1827.96924	19177.0125
1831.13864	19170.0125
1834.30597	19155.5125
1837.47122	19150.4125
1840.6344	19175.8125
1843.7955	19152.9125
1846.95454	19158.9125
1850.11151	19128.0125
1853.26642	19134.2125
1856.41926	19099.7125
1859.57004	19079.4125
1862.71876	19041.0125
1865.86542	19036.8125
1869.01003	18992.4125
1872.15258	18937.5125
1875.29308	18970.3125
1878.43152	18875.0125
1881.56792	18864.5125
1884.70227	18901.0125
1887.83457	18853.9125
1890.96482	18792.8125
1894.09304	18800.3125
1897.21921	18725.4125
1900.34335	18730.4125
1903.46544	18664.3125
1906.58551	18659.5125
1909.70353	18645.1125
1912.81953	18582.7125
1915.93349	18574.1125
1919.04543	18529.1125
1922.15534	18505.7125
1925.26322	18435.5125
1928.36908	18406.1125
1931.47292	18356.1125
1934.57473	18305.8125
1937.67453	18315.2125
1940.77232	18243.1125
1943.86808	18183.6125
1946.96184	18128.8125
1950.05358	18049.5125
1953.14331	17995.4125
1956.23103	17960.2125
1959.31675	17897.0125
1962.40046	17883.2125
1965.48217	17813.1125
1968.56188	17756.3125
1971.63959	17668.2125
1974.7153	17643.5125
1977.78901	17574.8125
1980.86073	17496.5125
1983.93046	17485.2125
1986.99819	17418.5125
1990.06394	17342.9125
1993.1277	17350.4125
1996.18947	17282.3125
1999.24925	17216.0125
2002.30706	17194.9125
2005.36288	17128.5125
2008.41672	17036.1125
2011.46859	16998.0125
2014.51848	16978.8125
2017.56639	16948.8125
2020.61233	16894.7125
2023.6563	16869.6125
2026.6983	16807.4125
2029.73833	16777.5125
2032.7764	16740.6125
2035.8125	16709.0125
2038.84664	16663.6125
2041.87881	16613.9125
2044.90903	16572.6125
2047.93729	16543.5125
2050.96359	16522.4125
2053.98794	16494.8125
2057.01034	16507.9125
2060.03078	16456.9125
2063.04927	16469.7125
2066.06582	16475.6125
2069.08042	16466.2125
2072.09307	16450.1125
2075.10378	16424.3125
2078.11255	16420.9125
2081.11938	16405.2125
2084.12426	16414.3125
2087.12722	16406.2125
2090.12824	16345.4125
2093.12732	16379.1125
2096.12447	16372.7125
2099.11969	16360.3125
2102.11299	16358.6125
2105.10435	16362.0125
2108.09379	16371.5125
2111.08131	16358.8125
2114.0669	16357.8125
2117.05057	16338.5125
2120.03233	16387.7125
2123.01216	16416.7125
2125.99008	16417.6125
2128.96609	16446.5125
2131.94018	16487.5125
2134.91236	16460.5125
2137.88263	16436.6125
2140.851	16451.0125
2143.81746	16439.4125
2146.78201	16436.4125
2149.74466	16426.0125
2152.7054	16433.0125
2155.66425	16429.1125
2158.6212	16436.8125
2161.57625	16391.3125
2164.52941	16427.5125
2167.48067	16389.5125
2170.43004	16375.0125
2173.37752	16389.0125
2176.32311	16393.4125
2179.26681	16396.1125
2182.20863	16410.3125
2185.14856	16370.9125
2188.08661	16358.0125
2191.02278	16404.4125
2193.95707	16375.8125
2196.88948	16365.5125
2199.82001	16322.8125
2202.74867	16309.4125
2205.67545	16287.9125
2208.60037	16285.8125
2211.52341	16258.2125
2214.44458	16207.4125
2217.36388	16229.3125
2220.28132	16199.9125
2223.1969	16115.4125
2226.11061	16148.2125
2229.02246	16073.1125
2231.93245	16074.5125
2234.84058	16015.9125
2237.74686	16006.8125
2240.65128	16021.2125
2243.55385	15985.8125
2246.45456	15931.1125
2249.35343	15918.7125
2252.25044	15891.8125
2255.14561	15843.6125
2258.03893	15861.8125
2260.93041	15793.0125
2263.82004	15738.5125
2266.70783	15694.0125
2269.59378	15643.1125
2272.4779	15601.3125
2275.36017	15554.4125
2278.24061	15535.8125
2281.11922	15511.5125
2283.996	15502.7125
2286.87094	15496.1125
2289.74405	15465.2125
2292.61534	15456.3125
2295.4848	15448.9125
2298.35243	15420.5125
2301.21824	15381.2125
2304.08223	15382.4125
2306.94439	15394.0125
2309.80474	15384.6125
2312.66327	15413.1125
2315.51999	15380.5125
2318.37489	15346.4125
2321.22797	15353.0125
2324.07925	15355.2125
2326.92871	15312.1125
2329.77637	15299.9125
2332.62222	15283.5125
2335.46626	15261.1125
2338.3085	15236.1125
2341.14893	15216.9125
2343.98756	15207.7125
2346.8244	15222.6125
2349.65943	15216.5125
2352.49267	15233.3125
2355.32411	15218.4125
2358.15376	15190.8125
2360.98161	15207.7125
2363.80768	15223.6125
2366.63195	15183.5125
2369.45444	15127.4125
2372.27514	15131.1125
2375.09405	15125.6125
2377.91118	15067.6125
2380.72652	15043.7125
2383.54009	15013.6125
2386.35187	15016.4125
2389.16188	14949.6125
2391.97011	14933.0125
2394.77657	14908.0125
2397.58125	14861.4125
2400.38416	14902.7125
2403.18529	14850.9125
2405.98466	14829.8125
2408.78226	14814.7125
2411.57809	14802.4125
2414.37216	14793.3125
2417.16446	14807.9125
2419.955	14743.8125
2422.74378	14766.2125
2425.5308	14735.9125
2428.31606	14717.0125
2431.09956	14745.5125
2433.88131	14720.2125
2436.6613	14699.8125
2439.43954	14718.6125
2442.21603	14700.5125
2444.99077	14687.5125
2447.76377	14667.4125
2450.53501	14638.4125
2453.30451	14686.7125
2456.07226	14651.4125
2458.83827	14644.8125
2461.60254	14644.6125
2464.36507	14619.1125
2467.12586	14600.3125
2469.88492	14592.0125
2472.64224	14605.0125
2475.39782	14659.1125
2478.15167	14636.6125
2480.90379	14614.3125
2483.65417	14632.9125
2486.40283	14655.1125
2489.14976	14647.6125
2491.89497	14618.9125
2494.63845	14644.1125
2497.3802	14654.4125
2500.12024	14664.2125
2502.85855	14605.9125
2505.59514	14592.9125
2508.33002	14582.7125
2511.06318	14593.6125
2513.79462	14598.9125
2516.52435	14555.4125
2519.25237	14541.4125
2521.97867	14523.3125
2524.70327	14560.2125
2527.42616	14524.5125
2530.14734	14538.3125
2532.86681	14515.5125
2535.58458	14500.1125
2538.30065	14501.7125
2541.01501	14499.9125
2543.72768	14498.5125
2546.43864	14507.7125
2549.14791	14457.1125
2551.85548	14480.4125
2554.56136	14463.9125
2557.26554	14433.6125
2559.96803	14369.4125
2562.66883	14364.4125
2565.36794	14353.6125
2568.06536	14340.3125
2570.7611	14349.9125
2573.45514	14335.4125
2576.14751	14331.8125
2578.83819	14293.2125
2581.52719	14303.8125
2584.21451	14276.7125
2586.90015	14263.5125
2589.58411	14248.2125
2592.2664	14263.9125
2594.94701	14249.1125
2597.62594	14217.0125
2600.30321	14213.6125
2602.9788	14210.2125
2605.65273	14193.4125
2608.32498	14215.7125
2610.99557	14216.9125
2613.66449	14201.7125
2616.33175	14218.4125
2618.99734	14211.3125
2621.66128	14171.3125
2624.32355	14183.5125
2626.98416	14151.2125
2629.64311	14167.9125
2632.30041	14119.9125
2634.95605	14098.0125
2637.61004	14120.2125
2640.26238	14100.8125
2642.91306	14083.7125
2645.56209	14113.6125
2648.20948	14099.3125
2650.85521	14120.2125
2653.4993	14108.7125
2656.14175	14088.4125
2658.78255	14114.0125
2661.42171	14127.3125
2664.05923	14171.1125
2666.6951	14161.9125
2669.32934	14167.6125
2671.96194	14174.7125
2674.59291	14181.4125
2677.22224	14169.0125
2679.84993	14167.8125
2682.476	14144.2125
2685.10043	14170.1125
2687.72324	14144.2125
2690.34441	14147.2125
2692.96396	14158.4125
2695.58188	14168.9125
2698.19818	14139.8125
2700.81285	14173.5125
2703.4259	14195.2125
2706.03733	14210.2125
2708.64714	14183.8125
2711.25533	14189.0125
2713.86191	14177.1125
2716.46687	14174.0125
2719.07021	14189.4125
2721.67194	14228.1125
2724.27206	14221.7125
2726.87057	14247.9125
2729.46747	14226.2125
2732.06276	14260.1125
2734.65644	14244.9125
2737.24852	14250.6125
2739.83899	14235.8125
2742.42786	14274.5125
2745.01513	14227.9125
2747.60079	14225.1125
2750.18486	14221.2125
2752.76733	14214.4125
2755.3482	14154.7125
2757.92747	14163.0125
2760.50515	14142.6125
2763.08123	14171.4125
2765.65573	14160.3125
2768.22863	14149.5125
2770.79994	14117.8125
2773.36967	14151.5125
2775.9378	14155.0125
2778.50435	14127.7125
2781.06932	14137.4125
2783.6327	14121.2125
2786.1945	14125.9125
2788.75471	14107.7125
2791.31335	14084.3125
2793.87041	14057.7125
2796.42589	14052.1125
2798.97979	14039.7125
2801.53212	14011.9125
2804.08288	13991.3125
2806.63206	13953.9125
2809.17967	13929.9125
2811.72571	13896.9125
2814.27018	13907.4125
2816.81308	13869.1125
2819.35442	13822.3125
2821.89419	13796.1125
2824.43239	13779.2125
2826.96904	13734.1125
2829.50412	13748.6125
2832.03763	13716.2125
2834.56959	13717.8125
2837.1	13672.9125
2839.62884	13695.5125
2842.15613	13695.3125
2844.68186	13716.5125
2847.20604	13701.7125
2849.72867	13680.0125
2852.24974	13680.9125
2854.76927	13654.2125
2857.28724	13642.5125
2859.80367	13653.8125
2862.31855	13572.6125
2864.83189	13582.8125
2867.34368	13530.4125
2869.85393	13550.8125
2872.36264	13550.4125
2874.8698	13530.0125
2877.37543	13515.6125
2879.87952	13519.5125
2882.38207	13486.9125
2884.88308	13529.5125
2887.38256	13522.8125
2889.88051	13514.6125
2892.37692	13534.7125
2894.8718	13526.3125
2897.36515	13568.0125
2899.85698	13549.8125
2902.34727	13573.2125
2904.83604	13564.9125
2907.32328	13578.0125
2909.809	13588.4125
2912.29319	13583.6125
2914.77587	13573.9125
2917.25702	13561.5125
2919.73665	13561.1125
2922.21476	13579.9125
2924.69136	13558.4125
2927.16644	13569.9125
2929.64	13547.0125
2932.11205	13523.6125
2934.58258	13482.3125
2937.05161	13492.2125
2939.51912	13490.2125
2941.98513	13473.3125
2944.44962	13457.8125
2946.91261	13414.3125
2949.37409	13441.9125
2951.83407	13399.7125
2954.29254	13417.7125
2956.74951	13406.0125
2959.20498	13382.4125
2961.65895	13393.4125
2964.11142	13368.2125
2966.56239	13337.6125
2969.01186	13342.3125
2971.45984	13322.1125
2973.90632	13296.9125
2976.35131	13307.8125
2978.7948	13232.9125
2981.23681	13228.9125
2983.67732	13205.3125
2986.11635	13179.2125
2988.55388	13129.6125
2990.98993	13102.1125
2993.4245	13074.4125
2995.85758	13045.2125
2998.28917	12959.7125
3000.71928	12953.0125
3003.14791	12917.0125
3005.57506	12890.7125
3008.00073	12854.0125
3010.42493	12717.4125
3012.84764	12782.3125
3015.26888	12753.5125
3017.68865	12713.2125
3020.10694	12716.1125
3022.52376	12689.7125
