Data from AgNP_FTO_APTES_UA_10uM_CRN_1uM_R6G_10uM_NaF_0.1M_Addition_RamanShift__2__12-55-00-493.txt Node

Date: Thu Feb 10 12:55:00 GMT 2022
User: TCL
Spectrometer: QEP01345
Trigger mode: 4
Integration Time (sec): 7.000000E0
Scans to average: 10
Electric dark correction enabled: true
Nonlinearity correction enabled: false
Boxcar width: 0
XAxis mode: Raman Shifts
Number of Pixels in Spectrum: 1044
>>>>>Begin Spectral Data<<<<<
46.04893	-0.525
50.45542	-0.625
54.85868	-1.025
59.25871	-1.825
63.6555	82.775
68.04907	86.075
72.43941	91.575
76.82654	87.475
81.21044	92.975
85.59113	95.475
89.96862	97.875
94.34289	106.575
98.71396	104.975
103.08183	110.675
107.4465	116.075
111.80798	113.975
116.16626	118.275
120.52136	124.575
124.87327	129.775
129.222	132.175
133.56755	146.775
137.90993	157.875
142.24913	170.175
146.58517	196.375
150.91804	225.075
155.24774	272.575
159.57429	337.675
163.89768	435.075
168.21792	574.875
172.53501	794.375
176.84895	1112.075
181.15975	1555.775
185.46741	2184.875
189.77193	3025.075
194.07331	4040.675
198.37157	5212.175
202.6667	6436.775
206.9587	7655.975
211.24758	8834.975
215.53334	10092.575
219.81599	11385.575
224.09553	12805.575
228.37195	14407.875
232.64527	16100.975
236.91549	17915.575
241.18261	19680.075
245.44663	21305.075
249.70755	22742.475
253.96539	23933.875
258.22014	25003.875
262.4718	25851.475
266.72039	26485.475
270.96589	26748.975
275.20832	26730.975
279.44768	26497.475
283.68397	26124.975
287.91719	25836.075
292.14735	25642.075
296.37445	25629.775
300.59849	25761.475
304.81948	25940.475
309.03742	26076.475
313.25231	26056.175
317.46415	25687.175
321.67296	25227.575
325.87872	24777.275
330.08145	24555.975
334.28114	24545.375
338.47781	24716.775
342.67145	25058.075
346.86207	25527.675
351.04966	26110.875
355.23424	26713.175
359.4158	27215.675
363.59435	27553.975
367.76989	27773.475
371.94243	27948.875
376.11196	28025.975
380.27849	28145.975
384.44203	28334.075
388.60257	28571.475
392.76012	28805.775
396.91468	29095.375
401.06626	29530.875
405.21485	29817.775
409.36047	29806.075
413.50311	29507.775
417.64277	29399.275
421.77947	29542.675
425.9132	29709.875
430.04396	29831.075
434.17176	29945.375
438.2966	30069.375
442.41849	30563.375
446.53742	31497.775
450.6534	32477.375
454.76644	33146.575
458.87653	33171.575
462.98368	32731.675
467.08789	32175.475
471.18916	31445.875
475.2875	30637.075
479.38291	30115.175
483.4754	29694.075
487.56496	29506.175
491.6516	29239.275
495.73531	29162.475
499.81612	29179.575
503.89401	29456.275
507.96899	29614.175
512.04106	29499.975
516.11023	29285.075
520.1765	29047.175
524.23987	28851.575
528.30034	28724.175
532.35792	28472.675
536.41261	28081.975
540.46441	27637.075
544.51333	27505.775
548.55936	27689.975
552.60252	28247.275
556.64279	28979.875
560.6802	29554.475
564.71473	29765.375
568.7464	30098.075
572.7752	30825.675
576.80114	31721.575
580.82422	32885.075
584.84444	34650.475
588.86181	36860.775
592.87633	38631.375
596.888	38451.575
600.89682	36182.575
604.9028	35257.275
608.90594	37461.275
612.90624	40387.275
616.90371	38139.475
620.89834	32176.075
624.89015	29487.175
628.87913	29045.075
632.86528	29055.675
636.84862	28895.075
640.82913	28322.475
644.80683	27606.075
648.78172	27177.375
652.75379	27224.675
656.72306	27655.075
660.68952	28152.275
664.65319	28037.275
668.61405	27495.375
672.57211	27439.375
676.52738	27682.175
680.47986	27595.975
684.42955	27360.575
688.37646	27221.675
692.32058	27519.975
696.26192	28047.475
700.20048	28606.075
704.13626	28756.575
708.06928	28566.175
711.99952	28356.775
715.927	28394.675
719.85171	28611.075
723.77365	28520.575
727.69284	27983.275
731.60928	27512.675
735.52295	27336.375
739.43388	27378.375
743.34206	27509.575
747.24749	27715.175
751.15017	27984.575
755.05012	28410.375
758.94733	29178.875
762.8418	30459.175
766.73354	32458.375
770.62254	34293.375
774.50882	34762.475
778.39237	33480.475
782.27321	31496.675
786.15132	29733.575
790.02671	28629.875
793.89938	28016.675
797.76935	27858.075
801.6366	27830.375
805.50115	27812.175
809.36299	27648.075
813.22213	27377.275
817.07857	27155.475
820.93231	27000.175
824.78336	26848.775
828.63172	26792.975
832.47738	26825.975
836.32036	26854.975
840.16066	26960.575
843.99827	27081.675
847.8332	27027.975
851.66546	26950.675
855.49504	26939.775
859.32195	26940.275
863.1462	26890.375
866.96777	26787.475
870.78668	26717.575
874.60293	26773.975
878.41652	26837.775
882.22745	26950.375
886.03573	27064.375
889.84136	27043.675
893.64433	26937.575
897.44466	26792.275
901.24235	26670.075
905.0374	26590.175
908.8298	26537.575
912.61957	26537.375
916.40671	26738.075
920.19121	27007.775
923.97308	27387.375
927.75233	27671.175
931.52895	27565.575
935.30295	27193.175
939.07433	26673.175
942.84309	26330.875
946.60924	26243.875
950.37278	26252.375
954.13371	26249.575
957.89203	26131.675
961.64774	26072.775
965.40086	26088.875
969.15137	26125.975
972.89929	26050.975
976.64461	26014.275
980.38733	26091.875
984.12747	26299.075
987.86502	26536.975
991.59999	26825.775
995.33237	27345.875
999.06217	28062.275
1002.78939	29019.975
1006.51404	29805.575
1010.23611	30389.875
1013.95561	30738.875
1017.67255	30786.475
1021.38692	30253.475
1025.09872	29695.075
1028.80796	29612.575
1032.51465	30204.975
1036.21877	30868.875
1039.92035	31081.075
1043.61937	30827.175
1047.31584	30257.375
1051.00976	29561.175
1054.70114	29141.475
1058.38998	29052.975
1062.07627	29128.675
1065.76003	29313.775
1069.44126	29590.475
1073.11995	30179.275
1076.79611	30788.875
1080.46974	31148.375
1084.14085	31475.275
1087.80943	31885.875
1091.47549	32117.675
1095.13903	31982.775
1098.80005	31457.375
1102.45857	30755.675
1106.11456	30248.475
1109.76805	30021.575
1113.41903	29974.875
1117.06751	30073.775
1120.71348	30309.075
1124.35696	30520.975
1127.99793	30841.175
1131.63641	31075.875
1135.2724	30996.475
1138.90589	30829.675
1142.5369	30852.575
1146.16542	31019.175
1149.79145	31202.375
1153.415	31337.575
1157.03607	31610.475
1160.65467	32362.075
1164.27079	33854.775
1167.88443	35655.875
1171.49561	37692.575
1175.10432	40255.475
1178.71056	43605.075
1182.31434	46813.275
1185.91565	48478.775
1189.51451	48014.475
1193.11091	46375.075
1196.70485	44476.675
1200.29634	42819.375
1203.88538	41704.175
1207.47197	41074.775
1211.05612	40635.275
1214.63782	39853.475
1218.21708	38888.375
1221.79391	38111.875
1225.36829	37731.075
1228.94024	37304.775
1232.50976	36669.275
1236.07685	35899.375
1239.6415	35358.275
1243.20374	35233.275
1246.76355	35538.875
1250.32093	36232.775
1253.8759	37177.375
1257.42845	38335.575
1260.97859	39592.775
1264.52631	40983.575
1268.07163	42467.775
1271.61453	43921.075
1275.15503	45287.275
1278.69312	46535.875
1282.22882	47615.775
1285.76211	48914.275
1289.29301	50433.775
1292.82151	52364.675
1296.34761	54843.575
1299.87133	58208.675
1303.39266	62151.775
1306.9116	66309.675
1310.42815	69426.875
1313.94233	71058.175
1317.45412	70003.875
1320.96354	67478.475
1324.47058	65262.075
1327.97525	63806.375
1331.47754	62955.375
1334.97747	62418.075
1338.47502	61706.175
1341.97022	60326.075
1345.46305	58849.075
1348.95352	57995.575
1352.44163	58459.675
1355.92738	60835.975
1359.41078	64569.575
1362.89183	67542.675
1366.37053	66756.075
1369.84688	61334.875
1373.32088	54207.275
1376.79254	49199.875
1380.26186	47406.075
1383.72883	47201.475
1387.19347	46958.375
1390.65578	46223.775
1394.11575	45921.675
1397.57339	46429.675
1401.0287	47292.875
1404.48168	48212.875
1407.93234	48513.275
1411.38068	48127.475
1414.82669	46978.375
1418.27039	45420.175
1421.71177	43747.975
1425.15083	42421.375
1428.58758	42055.675
1432.02203	42771.875
1435.45416	44331.575
1438.88399	45775.475
1442.31151	46588.575
1445.73673	46766.575
1449.15965	46686.275
1452.58027	46324.375
1455.9986	45842.075
1459.41463	46006.775
1462.82837	46806.675
1466.23982	47987.175
1469.64898	49070.575
1473.05586	49713.875
1476.46045	49774.275
1479.86276	49430.775
1483.26279	48870.475
1486.66054	48644.775
1490.05602	48837.675
1493.44922	49206.875
1496.84016	49463.875
1500.22882	49914.175
1503.61521	50909.775
1506.99934	52295.475
1510.38121	53361.875
1513.76081	53330.175
1517.13816	51874.175
1520.51324	49807.875
1523.88607	48200.575
1527.25665	47592.375
1530.62498	47510.875
1533.99105	47486.675
1537.35488	47078.375
1540.71647	46356.575
1544.07581	45399.675
1547.4329	44358.975
1550.78776	43434.075
1554.14038	42706.075
1557.49077	42195.675
1560.83892	41802.475
1564.18484	41712.475
1567.52853	41823.275
1570.86999	42207.475
1574.20922	42751.475
1577.54624	43259.275
1580.88103	43455.475
1584.2136	44004.975
1587.54395	45768.575
1590.87208	49031.275
1594.19801	53135.375
1597.52172	56998.775
1600.84321	58100.975
1604.16251	55242.975
1607.47959	50043.575
1610.79447	44659.375
1614.10715	40008.775
1617.41763	36659.275
1620.7259	34716.475
1624.03199	33918.175
1627.33587	34114.375
1630.63757	35369.975
1633.93707	37930.975
1637.23439	42053.075
1640.52951	48200.375
1643.82246	55338.475
1647.11321	60729.775
1650.40179	60843.375
1653.68819	55096.275
1656.97241	46645.175
1660.25446	39243.475
1663.53433	34233.875
1666.81203	31239.575
1670.08756	29479.375
1673.36092	28331.175
1676.63211	27588.275
1679.90115	27121.275
1683.16801	26753.075
1686.43272	26443.675
1689.69527	26222.575
1692.95567	26077.175
1696.2139	25997.975
1699.46999	25909.375
1702.72392	25855.275
1705.97571	25782.475
1709.22535	25778.875
1712.47284	25721.975
1715.71819	25694.275
1718.96139	25621.775
1722.20246	25549.575
1725.44139	25411.875
1728.67818	25314.275
1731.91284	25118.775
1735.14537	25002.575
1738.37576	24947.075
1741.60403	24819.775
1744.83017	24763.175
1748.05418	24693.675
1751.27607	24636.375
1754.49584	24596.575
1757.71349	24560.575
1760.92903	24555.475
1764.14244	24571.975
1767.35375	24594.175
1770.56294	24500.075
1773.77002	24475.575
1776.97499	24425.875
1780.17785	24387.075
1783.37861	24348.875
1786.57727	24388.675
1789.77382	24301.275
1792.96828	24221.075
1796.16064	24191.075
1799.3509	24191.875
1802.53907	24159.575
1805.72514	24093.375
1808.90913	24000.775
1812.09102	23958.775
1815.27083	23948.675
1818.44856	23890.675
1821.6242	23889.075
1824.79776	23846.975
1827.96924	23858.675
1831.13864	23848.675
1834.30597	23859.875
1837.47122	23881.775
1840.6344	23916.575
1843.7955	23919.175
1846.95454	23864.175
1850.11151	23850.375
1853.26642	23824.975
1856.41926	23836.875
1859.57004	23876.575
1862.71876	23877.075
1865.86542	23861.875
1869.01003	23786.875
1872.15258	23781.275
1875.29308	23793.475
1878.43152	23784.575
1881.56792	23762.575
1884.70227	23717.175
1887.83457	23746.075
1890.96482	23657.575
1894.09304	23617.375
1897.21921	23603.075
1900.34335	23576.275
1903.46544	23614.375
1906.58551	23551.775
1909.70353	23514.975
1912.81953	23483.775
1915.93349	23439.775
1919.04543	23368.375
1922.15534	23351.075
1925.26322	23280.475
1928.36908	23213.675
1931.47292	23231.475
1934.57473	23181.075
1937.67453	23126.175
1940.77232	23046.875
1943.86808	23006.075
1946.96184	22927.775
1950.05358	22874.575
1953.14331	22816.175
1956.23103	22798.375
1959.31675	22722.275
1962.40046	22663.775
1965.48217	22579.575
1968.56188	22540.375
1971.63959	22488.375
1974.7153	22417.675
1977.78901	22382.175
1980.86073	22281.375
1983.93046	22251.175
1986.99819	22148.975
1990.06394	22122.975
1993.1277	22033.775
1996.18947	22013.175
1999.24925	21970.775
2002.30706	21917.175
2005.36288	21871.975
2008.41672	21802.175
2011.46859	21709.375
2014.51848	21669.675
2017.56639	21644.575
2020.61233	21582.975
2023.6563	21570.375
2026.6983	21558.375
2029.73833	21501.975
2032.7764	21449.975
2035.8125	21403.975
2038.84664	21413.675
2041.87881	21358.775
2044.90903	21341.975
2047.93729	21335.375
2050.96359	21327.675
2053.98794	21262.075
2057.01034	21300.975
2060.03078	21238.175
2063.04927	21243.375
2066.06582	21217.675
2069.08042	21183.475
2072.09307	21148.875
2075.10378	21184.775
2078.11255	21164.375
2081.11938	21140.275
2084.12426	21128.575
2087.12722	21150.375
2090.12824	21143.675
2093.12732	21091.075
2096.12447	21091.675
2099.11969	21114.375
2102.11299	21137.075
2105.10435	21163.675
2108.09379	21182.275
2111.08131	21187.575
2114.0669	21171.075
2117.05057	21199.175
2120.03233	21224.975
2123.01216	21272.875
2125.99008	21289.475
2128.96609	21281.675
2131.94018	21340.575
2134.91236	21353.775
2137.88263	21365.575
2140.851	21368.875
2143.81746	21389.675
2146.78201	21412.375
2149.74466	21389.075
2152.7054	21368.675
2155.66425	21372.675
2158.6212	21393.975
2161.57625	21323.775
2164.52941	21360.675
2167.48067	21316.575
2170.43004	21373.275
2173.37752	21351.775
2176.32311	21368.775
2179.26681	21443.275
2182.20863	21431.675
2185.14856	21401.575
2188.08661	21357.675
2191.02278	21403.775
2193.95707	21423.175
2196.88948	21424.975
2199.82001	21442.175
2202.74867	21397.675
2205.67545	21408.975
2208.60037	21408.375
2211.52341	21341.075
2214.44458	21379.975
2217.36388	21301.175
2220.28132	21281.475
2223.1969	21210.675
2226.11061	21200.275
2229.02246	21160.575
2231.93245	21159.875
2234.84058	21143.775
2237.74686	21126.175
2240.65128	21100.875
2243.55385	21057.675
2246.45456	21042.875
2249.35343	21030.775
2252.25044	20992.775
2255.14561	20940.575
2258.03893	20941.275
2260.93041	20849.275
2263.82004	20853.475
2266.70783	20801.275
2269.59378	20735.975
2272.4779	20743.275
2275.36017	20664.075
2278.24061	20637.675
2281.11922	20649.475
2283.996	20606.475
2286.87094	20567.275
2289.74405	20549.675
2292.61534	20527.075
2295.4848	20555.475
2298.35243	20591.675
2301.21824	20593.275
2304.08223	20629.575
2306.94439	20620.675
2309.80474	20602.075
2312.66327	20586.975
2315.51999	20628.175
2318.37489	20632.475
2321.22797	20647.775
2324.07925	20632.975
2326.92871	20573.575
2329.77637	20546.175
2332.62222	20530.375
2335.46626	20525.275
2338.3085	20540.575
2341.14893	20530.475
2343.98756	20536.375
2346.8244	20556.575
2349.65943	20576.675
2352.49267	20532.075
2355.32411	20503.775
2358.15376	20539.275
2360.98161	20539.175
2363.80768	20497.875
2366.63195	20508.875
2369.45444	20471.075
2372.27514	20436.775
2375.09405	20408.675
2377.91118	20383.275
2380.72652	20321.575
2383.54009	20276.175
2386.35187	20285.175
2389.16188	20209.975
2391.97011	20207.975
2394.77657	20176.975
2397.58125	20139.275
2400.38416	20125.275
2403.18529	20121.875
2405.98466	20054.475
2408.78226	20025.375
2411.57809	20019.275
2414.37216	20052.575
2417.16446	19990.375
2419.955	19962.175
2422.74378	19948.675
2425.5308	19939.575
2428.31606	19978.575
2431.09956	19930.975
2433.88131	19913.275
2436.6613	20005.875
2439.43954	19964.275
2442.21603	19981.575
2444.99077	19910.875
2447.76377	19940.675
2450.53501	19931.575
2453.30451	19915.275
2456.07226	19886.875
2458.83827	19903.475
2461.60254	19952.675
2464.36507	19939.475
2467.12586	19933.075
2469.88492	19913.475
2472.64224	19956.575
2475.39782	19952.475
2478.15167	19936.875
2480.90379	19958.575
2483.65417	19994.075
2486.40283	19974.375
2489.14976	19993.075
2491.89497	19969.475
2494.63845	20018.475
2497.3802	19993.575
2500.12024	19961.375
2502.85855	19978.475
2505.59514	19949.775
2508.33002	19952.575
2511.06318	19912.775
2513.79462	19929.475
2516.52435	19907.775
2519.25237	19871.075
2521.97867	19868.975
2524.70327	19896.175
2527.42616	19846.475
2530.14734	19895.075
2532.86681	19880.675
2535.58458	19895.675
2538.30065	19901.875
2541.01501	19905.775
2543.72768	19905.375
2546.43864	19877.875
2549.14791	19873.475
2551.85548	19864.875
2554.56136	19843.675
2557.26554	19819.175
2559.96803	19769.075
2562.66883	19756.575
2565.36794	19737.075
2568.06536	19724.875
2570.7611	19720.075
2573.45514	19704.475
2576.14751	19704.375
2578.83819	19705.575
2581.52719	19703.475
2584.21451	19713.775
2586.90015	19690.375
2589.58411	19669.475
2592.2664	19676.375
2594.94701	19674.375
2597.62594	19665.275
2600.30321	19618.775
2602.9788	19599.275
2605.65273	19587.975
2608.32498	19621.775
2610.99557	19633.075
2613.66449	19641.175
2616.33175	19601.675
2618.99734	19604.275
2621.66128	19562.675
2624.32355	19532.175
2626.98416	19542.375
2629.64311	19550.775
2632.30041	19518.375
2634.95605	19494.175
2637.61004	19469.775
2640.26238	19464.575
2642.91306	19503.475
2645.56209	19507.875
2648.20948	19462.075
2650.85521	19448.875
2653.4993	19454.175
2656.14175	19494.175
2658.78255	19503.175
2661.42171	19530.875
2664.05923	19563.275
2666.6951	19592.175
2669.32934	19585.775
2671.96194	19607.475
2674.59291	19621.375
2677.22224	19584.775
2679.84993	19557.875
2682.476	19566.375
2685.10043	19557.375
2687.72324	19540.775
2690.34441	19535.275
2692.96396	19510.075
2695.58188	19546.475
2698.19818	19515.075
2700.81285	19525.775
2703.4259	19522.575
2706.03733	19509.775
2708.64714	19554.575
2711.25533	19569.975
2713.86191	19557.975
2716.46687	19621.375
2719.07021	19622.775
2721.67194	19694.575
2724.27206	19647.475
2726.87057	19683.675
2729.46747	19683.275
2732.06276	19722.975
2734.65644	19753.475
2737.24852	19732.175
2739.83899	19708.575
2742.42786	19690.275
2745.01513	19693.375
2747.60079	19702.075
2750.18486	19689.475
2752.76733	19688.275
2755.3482	19656.975
2757.92747	19669.275
2760.50515	19665.875
2763.08123	19650.775
2765.65573	19602.475
2768.22863	19609.975
2770.79994	19629.475
2773.36967	19592.175
2775.9378	19586.575
2778.50435	19626.975
2781.06932	19623.975
2783.6327	19629.275
2786.1945	19607.075
2788.75471	19564.675
2791.31335	19541.575
2793.87041	19538.375
2796.42589	19495.075
2798.97979	19488.375
2801.53212	19446.275
2804.08288	19480.475
2806.63206	19397.875
2809.17967	19356.075
2811.72571	19287.175
2814.27018	19296.175
2816.81308	19266.975
2819.35442	19241.075
2821.89419	19191.875
2824.43239	19177.975
2826.96904	19185.775
2829.50412	19172.975
2832.03763	19080.175
2834.56959	19121.375
2837.1	19065.275
2839.62884	19096.275
2842.15613	19080.775
2844.68186	19146.575
2847.20604	19148.475
2849.72867	19123.675
2852.24974	19175.275
2854.76927	19128.975
2857.28724	19111.575
2859.80367	19068.775
2862.31855	19033.675
2864.83189	19053.775
2867.34368	19042.275
2869.85393	19057.375
2872.36264	19006.875
2874.8698	19020.675
2877.37543	19018.375
2879.87952	19048.275
2882.38207	19038.475
2884.88308	19013.175
2887.38256	19034.175
2889.88051	19016.775
2892.37692	19038.275
2894.8718	19033.575
2897.36515	19097.775
2899.85698	19112.175
2902.34727	19168.075
2904.83604	19126.875
2907.32328	19179.875
2909.809	19196.575
2912.29319	19169.175
2914.77587	19182.675
2917.25702	19160.675
2919.73665	19124.175
2922.21476	19143.475
2924.69136	19100.375
2927.16644	19121.975
2929.64	19066.875
2932.11205	19121.875
2934.58258	19061.775
2937.05161	19055.375
2939.51912	19041.275
2941.98513	19030.975
2944.44962	18989.875
2946.91261	18933.175
2949.37409	18961.575
2951.83407	18970.675
2954.29254	18947.875
2956.74951	18949.075
2959.20498	18915.675
2961.65895	18900.575
2964.11142	18907.675
2966.56239	18893.475
2969.01186	18888.875
2971.45984	18851.275
2973.90632	18811.275
2976.35131	18743.575
2978.7948	18772.075
2981.23681	18704.175
2983.67732	18678.975
2986.11635	18671.275
2988.55388	18616.775
2990.98993	18542.975
2993.4245	18535.575
2995.85758	18498.375
2998.28917	18429.075
3000.71928	18408.575
3003.14791	18388.675
3005.57506	18390.575
3008.00073	18333.175
3010.42493	18341.575
3012.84764	18270.675
3015.26888	18281.275
3017.68865	18192.975
3020.10694	18151.175
3022.52376	18118.875
3024.9391	18118.775
3027.35298	18103.675
3029.76539	18082.775
3032.17632	18078.275
3034.5858	18072.075
3036.9938	18077.375
3039.40034	18077.675
3041.80542	18029.375
3044.20903	17991.975
3046.61118	18016.775
3049.01187	18004.075
3051.4111	17978.275
3053.80888	17921.775
3056.20519	17912.075
3058.60005	17815.475
3060.99345	17829.675
3063.3854	17788.275
3065.7759	17725.075
3068.16494	17699.975
3070.55254	17655.175
3072.93868	17603.375
3075.32338	17585.975
3077.70662	17574.375
3080.08842	17493.275
3082.46878	17500.975
3084.84769	17455.775
3087.22515	17459.775
3089.60118	17441.175
3091.97576	17425.475
3094.3489	17410.675
3096.72061	17416.875
3099.09087	17416.375
3101.4597	17431.475
3103.82709	17446.175
3106.19305	17412.975
3108.55757	17370.675
3110.92066	17360.575
3113.28232	17366.075
3115.64255	17286.875
3118.00134	17245.375
3120.35871	17222.275
3122.71466	17193.575
3125.06917	17164.375
3127.42226	17115.275
