Data from AgNP_FTO_APTES_UA_10uM_CRN_50uM_R6G_10uM_NaF_0.1M_Addition_RamanShift__31__17-18-40-827.txt Node

Date: Thu Feb 10 17:18:40 GMT 2022
User: TCL
Spectrometer: QEP01345
Trigger mode: 4
Integration Time (sec): 7.000000E0
Scans to average: 10
Electric dark correction enabled: true
Nonlinearity correction enabled: false
Boxcar width: 0
XAxis mode: Raman Shifts
Number of Pixels in Spectrum: 1044
>>>>>Begin Spectral Data<<<<<
46.04893	0.5625
50.45542	-0.8375
54.85868	-1.1375
59.25871	0.0625
63.6555	43.1625
68.04907	45.7625
72.43941	53.1625
76.82654	49.2625
81.21044	57.7625
85.59113	55.0625
89.96862	58.3625
94.34289	59.8625
98.71396	59.7625
103.08183	64.3625
107.4465	67.6625
111.80798	64.5625
116.16626	68.2625
120.52136	71.7625
124.87327	71.7625
129.222	73.3625
133.56755	73.8625
137.90993	79.8625
142.24913	80.1625
146.58517	86.7625
150.91804	98.7625
155.24774	121.5625
159.57429	141.9625
163.89768	176.0625
168.21792	231.5625
172.53501	309.4625
176.84895	418.5625
181.15975	590.7625
185.46741	810.8625
189.77193	1125.3625
194.07331	1487.9625
198.37157	1913.6625
202.6667	2355.2625
206.9587	2804.9625
211.24758	3248.0625
215.53334	3722.6625
219.81599	4245.5625
224.09553	4821.1625
228.37195	5459.9625
232.64527	6180.7625
236.91549	6893.7625
241.18261	7564.1625
245.44663	8116.5625
249.70755	8522.4625
253.96539	8908.0625
258.22014	9248.1625
262.4718	9546.2625
266.72039	9821.0625
270.96589	9991.3625
275.20832	10049.0625
279.44768	9977.1625
283.68397	9866.6625
287.91719	9774.7625
292.14735	9830.0625
296.37445	10023.3625
300.59849	10379.0625
304.81948	10763.4625
309.03742	11018.1625
313.25231	10950.0625
317.46415	10381.2625
321.67296	9600.2625
325.87872	8949.1625
330.08145	8641.4625
334.28114	8648.7625
338.47781	8783.0625
342.67145	9060.7625
346.86207	9457.7625
351.04966	9991.0625
355.23424	10634.3625
359.4158	11096.5625
363.59435	11324.5625
367.76989	11389.6625
371.94243	11415.5625
376.11196	11346.5625
380.27849	11296.5625
384.44203	11203.2625
388.60257	11035.7625
392.76012	10993.8625
396.91468	11050.7625
401.06626	11345.6625
405.21485	11573.4625
409.36047	11365.8625
413.50311	10780.2625
417.64277	10214.3625
421.77947	9916.3625
425.9132	9792.8625
430.04396	9789.1625
434.17176	9836.4625
438.2966	9949.0625
442.41849	10198.4625
446.53742	10457.9625
450.6534	10708.5625
454.76644	10886.4625
458.87653	10924.8625
462.98368	10864.5625
467.08789	10706.1625
471.18916	10501.3625
475.2875	10237.7625
479.38291	10052.1625
483.4754	9908.5625
487.56496	9770.2625
491.6516	9665.7625
495.73531	9651.6625
499.81612	9667.4625
503.89401	9780.0625
507.96899	9908.6625
512.04106	10073.8625
516.11023	10256.9625
520.1765	10389.7625
524.23987	10355.5625
528.30034	10143.0625
532.35792	9926.4625
536.41261	9710.6625
540.46441	9508.5625
544.51333	9437.0625
548.55936	9518.1625
552.60252	9738.9625
556.64279	10002.5625
560.6802	10095.5625
564.71473	10210.6625
568.7464	10588.2625
572.7752	10846.6625
576.80114	10558.5625
580.82422	10170.2625
584.84444	10000.5625
588.86181	9908.8625
592.87633	9961.6625
596.888	10067.7625
600.89682	10414.1625
604.9028	11599.2625
608.90594	14841.8625
612.90624	19269.4625
616.90371	18498.2625
620.89834	12923.7625
624.89015	10349.7625
628.87913	9875.6625
632.86528	9902.2625
636.84862	10076.2625
640.82913	9951.7625
644.80683	9596.2625
648.78172	9313.9625
652.75379	9365.7625
656.72306	9731.6625
660.68952	10223.2625
664.65319	10123.0625
668.61405	9651.6625
672.57211	9385.5625
676.52738	9362.4625
680.47986	9421.4625
684.42955	9368.5625
688.37646	9338.8625
692.32058	9364.4625
696.26192	9437.1625
700.20048	9562.5625
704.13626	9645.3625
708.06928	9613.0625
711.99952	9534.7625
715.927	9512.1625
719.85171	9559.4625
723.77365	9556.3625
727.69284	9456.9625
731.60928	9363.7625
735.52295	9362.8625
739.43388	9375.2625
743.34206	9424.4625
747.24749	9461.4625
751.15017	9521.1625
755.05012	9703.6625
758.94733	10131.3625
762.8418	11172.8625
766.73354	12979.2625
770.62254	14938.0625
774.50882	16002.4625
778.39237	15308.8625
782.27321	13214.4625
786.15132	11269.3625
790.02671	10166.7625
793.89938	9712.8625
797.76935	9526.5625
801.6366	9418.0625
805.50115	9361.8625
809.36299	9304.2625
813.22213	9284.3625
817.07857	9249.4625
820.93231	9252.4625
824.78336	9290.3625
828.63172	9363.7625
832.47738	9338.1625
836.32036	9327.8625
840.16066	9288.9625
843.99827	9246.0625
847.8332	9216.3625
851.66546	9190.7625
855.49504	9197.7625
859.32195	9198.2625
863.1462	9169.9625
866.96777	9128.6625
870.78668	9125.8625
874.60293	9171.5625
878.41652	9172.4625
882.22745	9236.1625
886.03573	9269.5625
889.84136	9246.3625
893.64433	9165.9625
897.44466	9156.7625
901.24235	9161.9625
905.0374	9160.4625
908.8298	9141.5625
912.61957	9128.4625
916.40671	9190.5625
920.19121	9235.8625
923.97308	9267.0625
927.75233	9328.5625
931.52895	9443.3625
935.30295	9348.0625
939.07433	9107.8625
942.84309	8912.4625
946.60924	8767.6625
950.37278	8709.9625
954.13371	8682.7625
957.89203	8640.9625
961.64774	8627.4625
965.40086	8590.0625
969.15137	8588.7625
972.89929	8567.1625
976.64461	8535.2625
980.38733	8542.5625
984.12747	8571.8625
987.86502	8590.4625
991.59999	8630.7625
995.33237	8719.7625
999.06217	8868.5625
1002.78939	9023.0625
1006.51404	9181.4625
1010.23611	9392.0625
1013.95561	9549.0625
1017.67255	9526.7625
1021.38692	9432.3625
1025.09872	9322.2625
1028.80796	9226.5625
1032.51465	9254.2625
1036.21877	9361.0625
1039.92035	9415.6625
1043.61937	9430.3625
1047.31584	9414.9625
1051.00976	9371.5625
1054.70114	9367.4625
1058.38998	9384.1625
1062.07627	9415.2625
1065.76003	9475.8625
1069.44126	9470.4625
1073.11995	9543.4625
1076.79611	9680.6625
1080.46974	9818.7625
1084.14085	10011.9625
1087.80943	10276.5625
1091.47549	10406.8625
1095.13903	10237.7625
1098.80005	9885.6625
1102.45857	9625.5625
1106.11456	9526.3625
1109.76805	9604.4625
1113.41903	9802.4625
1117.06751	10090.4625
1120.71348	10480.6625
1124.35696	10875.2625
1127.99793	11205.2625
1131.63641	11225.1625
1135.2724	10700.4625
1138.90589	10224.8625
1142.5369	9946.1625
1146.16542	9740.4625
1149.79145	9665.0625
1153.415	9648.8625
1157.03607	9745.6625
1160.65467	9912.6625
1164.27079	10239.4625
1167.88443	10720.5625
1171.49561	11500.2625
1175.10432	12901.4625
1178.71056	14678.6625
1182.31434	15931.8625
1185.91565	16128.0625
1189.51451	15674.4625
1193.11091	14657.6625
1196.70485	13481.2625
1200.29634	12682.9625
1203.88538	12121.5625
1207.47197	11441.7625
1211.05612	10870.5625
1214.63782	10510.1625
1218.21708	10415.5625
1221.79391	10401.7625
1225.36829	10445.9625
1228.94024	10480.6625
1232.50976	10529.9625
1236.07685	10573.7625
1239.6415	10646.1625
1243.20374	10698.5625
1246.76355	10792.4625
1250.32093	10958.6625
1253.8759	11215.9625
1257.42845	11515.3625
1260.97859	11853.2625
1264.52631	12124.2625
1268.07163	12428.6625
1271.61453	12703.2625
1275.15503	12874.6625
1278.69312	12922.8625
1282.22882	12899.9625
1285.76211	13066.1625
1289.29301	13391.8625
1292.82151	13788.7625
1296.34761	14178.1625
1299.87133	14792.5625
1303.39266	15839.0625
1306.9116	17601.8625
1310.42815	19646.5625
1313.94233	20881.9625
1317.45412	20519.3625
1320.96354	19181.2625
1324.47058	17613.3625
1327.97525	16294.2625
1331.47754	15546.0625
1334.97747	15278.5625
1338.47502	15485.8625
1341.97022	15897.4625
1345.46305	16472.2625
1348.95352	17347.3625
1352.44163	18533.0625
1355.92738	20392.6625
1359.41078	23296.8625
1362.89183	26158.3625
1366.37053	25479.1625
1369.84688	21504.5625
1373.32088	17664.5625
1376.79254	15264.6625
1380.26186	14050.6625
1383.72883	13488.2625
1387.19347	13066.8625
1390.65578	12648.3625
1394.11575	12196.2625
1397.57339	11938.4625
1401.0287	11945.9625
1404.48168	12051.1625
1407.93234	12283.6625
1411.38068	12469.1625
1414.82669	12515.3625
1418.27039	12383.4625
1421.71177	12137.9625
1425.15083	11921.3625
1428.58758	11759.3625
1432.02203	11747.3625
1435.45416	11875.6625
1438.88399	11921.5625
1442.31151	11939.5625
1445.73673	11977.6625
1449.15965	12032.1625
1452.58027	11974.9625
1455.9986	11916.0625
1459.41463	11882.0625
1462.82837	11971.8625
1466.23982	12148.6625
1469.64898	12482.0625
1473.05586	12639.9625
1476.46045	12825.3625
1479.86276	13077.5625
1483.26279	13395.7625
1486.66054	13766.8625
1490.05602	14228.0625
1493.44922	14855.4625
1496.84016	15763.5625
1500.22882	17164.6625
1503.61521	19139.0625
1506.99934	21421.7625
1510.38121	23743.8625
1513.76081	24861.9625
1517.13816	23857.6625
1520.51324	21054.3625
1523.88607	18101.4625
1527.25665	16041.6625
1530.62498	14838.1625
1533.99105	14135.4625
1537.35488	13681.1625
1540.71647	13413.3625
1544.07581	13315.7625
1547.4329	13271.4625
1550.78776	13200.6625
1554.14038	13215.6625
1557.49077	13353.7625
1560.83892	13611.3625
1564.18484	13972.5625
1567.52853	14365.3625
1570.86999	14637.0625
1574.20922	14815.5625
1577.54624	14711.3625
1580.88103	14043.7625
1584.2136	13138.4625
1587.54395	12638.6625
1590.87208	12704.6625
1594.19801	13329.1625
1597.52172	14203.1625
1600.84321	14641.6625
1604.16251	14205.8625
1607.47959	13428.5625
1610.79447	12530.3625
1614.10715	11691.8625
1617.41763	10958.5625
1620.7259	10522.4625
1624.03199	10307.3625
1627.33587	10288.6625
1630.63757	10471.7625
1633.93707	10888.7625
1637.23439	11537.9625
1640.52951	12475.2625
1643.82246	13804.3625
1647.11321	15525.7625
1650.40179	16951.8625
1653.68819	16768.5625
1656.97241	14772.9625
1660.25446	12471.0625
1663.53433	10803.9625
1666.81203	9839.2625
1670.08756	9261.8625
1673.36092	8900.7625
1676.63211	8680.7625
1679.90115	8557.9625
1683.16801	8415.3625
1686.43272	8356.6625
1689.69527	8288.9625
1692.95567	8249.3625
1696.2139	8231.2625
1699.46999	8218.4625
1702.72392	8208.6625
1705.97571	8175.2625
1709.22535	8141.3625
1712.47284	8158.7625
1715.71819	8172.1625
1718.96139	8162.9625
1722.20246	8127.1625
1725.44139	8108.4625
1728.67818	8059.6625
1731.91284	7992.3625
1735.14537	7947.6625
1738.37576	7890.5625
1741.60403	7874.1625
1744.83017	7862.3625
1748.05418	7836.8625
1751.27607	7826.3625
1754.49584	7831.4625
1757.71349	7843.2625
1760.92903	7817.5625
1764.14244	7791.0625
1767.35375	7784.3625
1770.56294	7778.8625
1773.77002	7754.8625
1776.97499	7713.4625
1780.17785	7684.3625
1783.37861	7674.6625
1786.57727	7652.5625
1789.77382	7641.1625
1792.96828	7625.2625
1796.16064	7614.5625
1799.3509	7608.6625
1802.53907	7585.6625
1805.72514	7555.8625
1808.90913	7532.2625
1812.09102	7523.5625
1815.27083	7485.5625
1818.44856	7485.9625
1821.6242	7450.6625
1824.79776	7462.3625
1827.96924	7458.6625
1831.13864	7431.9625
1834.30597	7455.8625
1837.47122	7447.9625
1840.6344	7429.2625
1843.7955	7422.9625
1846.95454	7403.6625
1850.11151	7411.2625
1853.26642	7401.0625
1856.41926	7423.8625
1859.57004	7407.7625
1862.71876	7417.3625
1865.86542	7409.3625
1869.01003	7384.7625
1872.15258	7391.1625
1875.29308	7393.1625
1878.43152	7402.3625
1881.56792	7399.0625
1884.70227	7381.5625
1887.83457	7381.6625
1890.96482	7363.8625
1894.09304	7336.6625
1897.21921	7357.7625
1900.34335	7343.2625
1903.46544	7350.5625
1906.58551	7341.6625
1909.70353	7361.0625
1912.81953	7339.4625
1915.93349	7355.2625
1919.04543	7335.2625
1922.15534	7321.6625
1925.26322	7295.8625
1928.36908	7284.9625
1931.47292	7280.0625
1934.57473	7237.2625
1937.67453	7228.7625
1940.77232	7208.2625
1943.86808	7170.7625
1946.96184	7133.8625
1950.05358	7114.3625
1953.14331	7095.8625
1956.23103	7086.9625
1959.31675	7053.1625
1962.40046	7030.9625
1965.48217	7001.1625
1968.56188	6983.0625
1971.63959	6947.9625
1974.7153	6947.1625
1977.78901	6927.2625
1980.86073	6905.9625
1983.93046	6871.8625
1986.99819	6859.3625
1990.06394	6831.1625
1993.1277	6815.0625
1996.18947	6821.5625
1999.24925	6783.0625
2002.30706	6750.2625
2005.36288	6733.1625
2008.41672	6711.1625
2011.46859	6687.2625
2014.51848	6696.0625
2017.56639	6675.5625
2020.61233	6648.3625
2023.6563	6634.5625
2026.6983	6618.6625
2029.73833	6584.1625
2032.7764	6562.1625
2035.8125	6548.1625
2038.84664	6544.7625
2041.87881	6515.4625
2044.90903	6492.1625
2047.93729	6509.7625
2050.96359	6482.7625
2053.98794	6470.5625
2057.01034	6472.3625
2060.03078	6452.1625
2063.04927	6443.3625
2066.06582	6447.7625
2069.08042	6450.3625
2072.09307	6453.3625
2075.10378	6435.0625
2078.11255	6417.0625
2081.11938	6421.8625
2084.12426	6416.3625
2087.12722	6410.1625
2090.12824	6400.7625
2093.12732	6403.0625
2096.12447	6409.0625
2099.11969	6394.6625
2102.11299	6385.2625
2105.10435	6401.0625
2108.09379	6400.0625
2111.08131	6382.2625
2114.0669	6390.2625
2117.05057	6403.6625
2120.03233	6406.2625
2123.01216	6404.9625
2125.99008	6411.0625
2128.96609	6418.1625
2131.94018	6432.0625
2134.91236	6425.8625
2137.88263	6420.6625
2140.851	6421.8625
2143.81746	6445.1625
2146.78201	6437.2625
2149.74466	6438.1625
2152.7054	6437.3625
2155.66425	6414.3625
2158.6212	6428.6625
2161.57625	6426.3625
2164.52941	6398.0625
2167.48067	6382.0625
2170.43004	6401.1625
2173.37752	6384.9625
2176.32311	6385.6625
2179.26681	6382.0625
2182.20863	6390.2625
2185.14856	6393.6625
2188.08661	6402.7625
2191.02278	6381.6625
2193.95707	6372.7625
2196.88948	6379.9625
2199.82001	6393.4625
2202.74867	6368.1625
2205.67545	6368.5625
2208.60037	6367.8625
2211.52341	6335.5625
2214.44458	6324.7625
2217.36388	6319.2625
2220.28132	6303.0625
2223.1969	6284.3625
2226.11061	6290.4625
2229.02246	6248.3625
2231.93245	6244.2625
2234.84058	6228.0625
2237.74686	6229.3625
2240.65128	6225.0625
2243.55385	6202.6625
2246.45456	6195.1625
2249.35343	6187.6625
2252.25044	6181.9625
2255.14561	6178.0625
2258.03893	6175.4625
2260.93041	6158.9625
2263.82004	6151.5625
2266.70783	6136.8625
2269.59378	6125.6625
2272.4779	6110.6625
2275.36017	6092.0625
2278.24061	6080.8625
2281.11922	6080.6625
2283.996	6042.3625
2286.87094	6038.6625
2289.74405	6033.1625
2292.61534	6019.5625
2295.4848	6007.5625
2298.35243	5999.1625
2301.21824	5995.8625
2304.08223	6002.5625
2306.94439	5982.8625
2309.80474	5982.5625
2312.66327	5996.0625
2315.51999	5974.2625
2318.37489	5978.7625
2321.22797	5981.4625
2324.07925	5972.8625
2326.92871	5945.2625
2329.77637	5956.2625
2332.62222	5946.3625
2335.46626	5910.4625
2338.3085	5909.6625
2341.14893	5914.1625
2343.98756	5931.7625
2346.8244	5933.0625
2349.65943	5918.1625
2352.49267	5938.0625
2355.32411	5951.2625
2358.15376	5936.7625
2360.98161	5966.3625
2363.80768	5955.1625
2366.63195	5952.3625
2369.45444	5962.7625
2372.27514	5933.1625
2375.09405	5931.5625
2377.91118	5927.4625
2380.72652	5880.9625
2383.54009	5859.7625
2386.35187	5846.3625
2389.16188	5808.8625
2391.97011	5798.6625
2394.77657	5767.6625
2397.58125	5753.4625
2400.38416	5744.9625
2403.18529	5739.2625
2405.98466	5741.0625
2408.78226	5713.4625
2411.57809	5710.5625
2414.37216	5707.3625
2417.16446	5701.8625
2419.955	5690.0625
2422.74378	5683.8625
2425.5308	5688.7625
2428.31606	5686.2625
2431.09956	5677.6625
2433.88131	5665.4625
2436.6613	5663.7625
2439.43954	5665.2625
2442.21603	5670.3625
2444.99077	5649.2625
2447.76377	5652.6625
2450.53501	5653.5625
2453.30451	5666.7625
2456.07226	5653.3625
2458.83827	5647.7625
2461.60254	5634.3625
2464.36507	5638.1625
2467.12586	5625.8625
2469.88492	5606.2625
2472.64224	5609.3625
2475.39782	5622.3625
2478.15167	5636.5625
2480.90379	5640.9625
2483.65417	5626.1625
2486.40283	5655.6625
2489.14976	5656.0625
2491.89497	5678.9625
2494.63845	5673.5625
2497.3802	5657.9625
2500.12024	5647.3625
2502.85855	5632.5625
2505.59514	5627.0625
2508.33002	5580.5625
2511.06318	5575.7625
2513.79462	5562.5625
2516.52435	5537.1625
2519.25237	5517.8625
2521.97867	5500.5625
2524.70327	5509.3625
2527.42616	5498.5625
2530.14734	5489.1625
2532.86681	5485.5625
2535.58458	5506.5625
2538.30065	5478.2625
2541.01501	5484.1625
2543.72768	5488.3625
2546.43864	5491.2625
2549.14791	5479.0625
2551.85548	5468.9625
2554.56136	5464.2625
2557.26554	5446.9625
2559.96803	5414.8625
2562.66883	5433.1625
2565.36794	5412.7625
2568.06536	5392.2625
2570.7611	5404.4625
2573.45514	5384.5625
2576.14751	5371.4625
2578.83819	5374.6625
2581.52719	5365.5625
2584.21451	5339.1625
2586.90015	5338.9625
2589.58411	5335.7625
2592.2664	5334.0625
2594.94701	5316.0625
2597.62594	5314.1625
2600.30321	5296.6625
2602.9788	5288.0625
2605.65273	5292.0625
2608.32498	5306.0625
2610.99557	5272.9625
2613.66449	5289.0625
2616.33175	5290.1625
2618.99734	5276.4625
2621.66128	5279.1625
2624.32355	5275.2625
2626.98416	5273.0625
2629.64311	5282.8625
2632.30041	5241.2625
2634.95605	5241.0625
2637.61004	5234.9625
2640.26238	5210.1625
2642.91306	5198.6625
2645.56209	5205.6625
2648.20948	5192.3625
2650.85521	5208.6625
2653.4993	5193.1625
2656.14175	5188.1625
2658.78255	5197.3625
2661.42171	5200.7625
2664.05923	5210.2625
2666.6951	5213.8625
2669.32934	5233.4625
2671.96194	5219.9625
2674.59291	5221.4625
2677.22224	5217.1625
2679.84993	5229.2625
2682.476	5231.0625
2685.10043	5228.9625
2687.72324	5217.8625
2690.34441	5209.4625
2692.96396	5218.0625
2695.58188	5203.9625
2698.19818	5214.2625
2700.81285	5207.9625
2703.4259	5219.3625
2706.03733	5213.0625
2708.64714	5199.3625
2711.25533	5212.3625
2713.86191	5228.9625
2716.46687	5226.5625
2719.07021	5214.8625
2721.67194	5223.8625
2724.27206	5224.4625
2726.87057	5214.9625
2729.46747	5228.4625
2732.06276	5210.8625
2734.65644	5217.9625
2737.24852	5221.2625
2739.83899	5190.3625
2742.42786	5199.9625
2745.01513	5174.1625
2747.60079	5180.6625
2750.18486	5159.4625
2752.76733	5144.4625
2755.3482	5167.7625
2757.92747	5148.6625
2760.50515	5127.1625
2763.08123	5133.5625
2765.65573	5113.6625
2768.22863	5115.4625
2770.79994	5105.0625
2773.36967	5117.7625
2775.9378	5103.0625
2778.50435	5098.4625
2781.06932	5103.2625
2783.6327	5108.8625
2786.1945	5103.4625
2788.75471	5067.0625
2791.31335	5105.7625
2793.87041	5073.3625
2796.42589	5066.1625
2798.97979	5081.7625
2801.53212	5059.9625
2804.08288	5041.9625
2806.63206	5042.9625
2809.17967	5025.3625
2811.72571	5020.1625
2814.27018	5012.5625
2816.81308	5027.0625
2819.35442	5021.0625
2821.89419	5033.9625
2824.43239	5028.6625
2826.96904	5033.4625
2829.50412	5021.5625
2832.03763	5020.1625
2834.56959	5029.6625
2837.1	5017.6625
2839.62884	5031.6625
2842.15613	5036.4625
2844.68186	5077.2625
2847.20604	5107.1625
2849.72867	5125.5625
2852.24974	5133.6625
2854.76927	5114.2625
2857.28724	5129.6625
2859.80367	5121.0625
2862.31855	5088.5625
2864.83189	5085.5625
2867.34368	5076.5625
2869.85393	5059.7625
2872.36264	5076.9625
2874.8698	5055.3625
2877.37543	5055.3625
2879.87952	5057.8625
2882.38207	5042.9625
2884.88308	5039.1625
2887.38256	5037.5625
2889.88051	5047.1625
2892.37692	5044.7625
2894.8718	5016.6625
2897.36515	5043.7625
2899.85698	5050.0625
2902.34727	5034.0625
2904.83604	5037.3625
2907.32328	5039.1625
2909.809	5028.1625
2912.29319	5044.1625
2914.77587	5035.6625
2917.25702	5024.7625
2919.73665	5035.5625
2922.21476	5036.0625
2924.69136	5031.1625
2927.16644	5019.9625
2929.64	5009.1625
2932.11205	5002.7625
2934.58258	4983.9625
2937.05161	4973.9625
2939.51912	4982.9625
2941.98513	4935.8625
2944.44962	4922.7625
2946.91261	4882.1625
2949.37409	4896.8625
2951.83407	4884.3625
2954.29254	4878.5625
2956.74951	4860.7625
2959.20498	4867.2625
2961.65895	4853.0625
2964.11142	4835.3625
2966.56239	4829.1625
2969.01186	4830.1625
2971.45984	4813.5625
2973.90632	4805.9625
2976.35131	4785.0625
2978.7948	4786.8625
2981.23681	4772.3625
2983.67732	4765.1625
2986.11635	4748.2625
2988.55388	4744.4625
2990.98993	4730.1625
2993.4245	4716.1625
2995.85758	4717.2625
2998.28917	4690.5625
3000.71928	4686.0625
3003.14791	4680.7625
3005.57506	4685.2625
3008.00073	4670.2625
3010.42493	4645.5625
3012.84764	4633.5625
3015.26888	4646.7625
3017.68865	4641.7625
3020.10694	4632.9625
3022.52376	4624.6625
3024.9391	4617.3625
3027.35298	4609.6625
3029.76539	4604.2625
3032.17632	4607.4625
3034.5858	4589.1625
3036.9938	4587.9625
3039.40034	4590.4625
3041.80542	4586.4625
3044.20903	4566.9625
3046.61118	4569.0625
3049.01187	4567.3625
3051.4111	4559.6625
3053.80888	4546.6625
3056.20519	4528.1625
3058.60005	4512.4625
3060.99345	4537.2625
3063.3854	4522.6625
3065.7759	4493.1625
3068.16494	4497.8625
3070.55254	4474.4625
3072.93868	4465.2625
3075.32338	4470.4625
3077.70662	4435.3625
3080.08842	4444.3625
3082.46878	4426.8625
3084.84769	4426.0625
3087.22515	4426.4625
3089.60118	4435.9625
3091.97576	4412.2625
3094.3489	4411.9625
3096.72061	4407.6625
3099.09087	4407.4625
