Data from AgNP_FTO_APTES_UA_10uM_CRN_200uM_R6G_10uM_NaF_0.1M_Addition_RamanShift__26__18-31-00-913.txt Node

Date: Thu Feb 10 18:31:00 GMT 2022
User: TCL
Spectrometer: QEP01345
Trigger mode: 4
Integration Time (sec): 7.000000E0
Scans to average: 10
Electric dark correction enabled: true
Nonlinearity correction enabled: false
Boxcar width: 0
XAxis mode: Raman Shifts
Number of Pixels in Spectrum: 1044
>>>>>Begin Spectral Data<<<<<
46.04893	-0.6125
50.45542	-0.9125
54.85868	-1.3125
59.25871	-1.4125
63.6555	67.6875
68.04907	72.0875
72.43941	75.1875
76.82654	73.9875
81.21044	81.5875
85.59113	80.6875
89.96862	85.4875
94.34289	91.6875
98.71396	90.3875
103.08183	95.1875
107.4465	101.2875
111.80798	96.9875
116.16626	102.2875
120.52136	104.7875
124.87327	111.4875
129.222	114.9875
133.56755	121.4875
137.90993	130.0875
142.24913	139.8875
146.58517	156.9875
150.91804	185.9875
155.24774	218.6875
159.57429	273.4875
163.89768	344.4875
168.21792	458.9875
172.53501	625.2875
176.84895	869.6875
181.15975	1229.8875
185.46741	1721.5875
189.77193	2379.8875
194.07331	3191.9875
198.37157	4112.5875
202.6667	5104.8875
206.9587	6067.4875
211.24758	7057.1875
215.53334	8023.9875
219.81599	9080.3875
224.09553	10209.1875
228.37195	11484.0875
232.64527	12911.8875
236.91549	14409.7875
241.18261	15848.9875
245.44663	17133.1875
249.70755	18317.7875
253.96539	19340.5875
258.22014	20229.2875
262.4718	21037.7875
266.72039	21571.2875
270.96589	21901.2875
275.20832	21959.6875
279.44768	21845.3875
283.68397	21599.8875
287.91719	21405.8875
292.14735	21301.0875
296.37445	21454.7875
300.59849	21768.0875
304.81948	22110.0875
309.03742	22260.4875
313.25231	22071.2875
317.46415	21370.7875
321.67296	20420.6875
325.87872	19635.7875
330.08145	19325.3875
334.28114	19345.9875
338.47781	19542.4875
342.67145	19933.9875
346.86207	20438.6875
351.04966	21122.4875
355.23424	21906.9875
359.4158	22565.0875
363.59435	22971.4875
367.76989	23215.9875
371.94243	23344.1875
376.11196	23401.9875
380.27849	23502.7875
384.44203	23491.3875
388.60257	23443.9875
392.76012	23426.2875
396.91468	23601.5875
401.06626	24034.7875
405.21485	24331.4875
409.36047	24141.3875
413.50311	23516.8875
417.64277	22930.2875
421.77947	22601.9875
425.9132	22599.1875
430.04396	22625.1875
434.17176	22829.4875
438.2966	23105.1875
442.41849	23532.6875
446.53742	24150.2875
450.6534	24712.2875
454.76644	25167.5875
458.87653	25306.3875
462.98368	25214.3875
467.08789	24937.9875
471.18916	24576.7875
475.2875	24279.0875
479.38291	24063.2875
483.4754	23810.6875
487.56496	23529.2875
491.6516	23213.0875
495.73531	22959.7875
499.81612	22850.6875
503.89401	22966.4875
507.96899	23111.9875
512.04106	23239.6875
516.11023	23363.7875
520.1765	23495.7875
524.23987	23413.6875
528.30034	23172.0875
532.35792	22968.6875
536.41261	22745.0875
540.46441	22490.3875
544.51333	22385.8875
548.55936	22570.9875
552.60252	22926.6875
556.64279	23329.8875
560.6802	23597.2875
564.71473	23789.7875
568.7464	24278.3875
572.7752	24703.9875
576.80114	24504.3875
580.82422	24064.2875
584.84444	23908.5875
588.86181	23962.6875
592.87633	24177.3875
596.888	24487.8875
600.89682	24806.8875
604.9028	26105.8875
608.90594	29888.8875
612.90624	35047.2875
616.90371	33884.8875
620.89834	27011.3875
624.89015	23869.3875
628.87913	23302.6875
632.86528	23320.5875
636.84862	23338.6875
640.82913	23096.9875
644.80683	22509.4875
648.78172	22103.5875
652.75379	22120.2875
656.72306	22507.1875
660.68952	23179.1875
664.65319	23105.2875
668.61405	22543.8875
672.57211	22268.8875
676.52738	22248.6875
680.47986	22301.4875
684.42955	22217.8875
688.37646	22154.5875
692.32058	22231.7875
696.26192	22393.6875
700.20048	22557.5875
704.13626	22692.7875
708.06928	22647.5875
711.99952	22490.6875
715.927	22441.2875
719.85171	22477.2875
723.77365	22503.0875
727.69284	22382.4875
731.60928	22266.1875
735.52295	22235.4875
739.43388	22241.2875
743.34206	22317.1875
747.24749	22382.2875
751.15017	22513.2875
755.05012	22794.8875
758.94733	23412.9875
762.8418	24716.3875
766.73354	26900.5875
770.62254	29289.4875
774.50882	30433.6875
778.39237	29474.9875
782.27321	26841.8875
786.15132	24499.1875
790.02671	23121.0875
793.89938	22494.5875
797.76935	22260.6875
801.6366	22174.7875
805.50115	22122.4875
809.36299	22021.4875
813.22213	21971.1875
817.07857	21993.4875
820.93231	21951.9875
824.78336	22007.1875
828.63172	22028.7875
832.47738	22084.8875
836.32036	22062.4875
840.16066	22019.7875
843.99827	22055.9875
847.8332	22026.8875
851.66546	21970.2875
855.49504	21945.7875
859.32195	21969.7875
863.1462	21877.8875
866.96777	21828.5875
870.78668	21765.9875
874.60293	21797.4875
878.41652	21830.2875
882.22745	21899.5875
886.03573	21975.6875
889.84136	21945.8875
893.64433	21806.6875
897.44466	21807.7875
901.24235	21783.1875
905.0374	21676.5875
908.8298	21670.3875
912.61957	21662.8875
916.40671	21717.7875
920.19121	21847.6875
923.97308	22061.3875
927.75233	22186.0875
931.52895	22238.1875
935.30295	22144.0875
939.07433	21754.3875
942.84309	21414.6875
946.60924	21258.4875
950.37278	21134.3875
954.13371	21022.7875
957.89203	20909.2875
961.64774	20909.7875
965.40086	20817.6875
969.15137	20753.7875
972.89929	20696.5875
976.64461	20643.8875
980.38733	20683.1875
984.12747	20744.3875
987.86502	20895.5875
991.59999	21063.9875
995.33237	21360.9875
999.06217	21824.4875
1002.78939	22327.5875
1006.51404	22656.3875
1010.23611	22828.1875
1013.95561	22997.2875
1017.67255	23059.1875
1021.38692	22900.7875
1025.09872	22707.4875
1028.80796	22769.0875
1032.51465	23130.0875
1036.21877	23532.5875
1039.92035	23620.9875
1043.61937	23375.3875
1047.31584	23002.2875
1051.00976	22545.4875
1054.70114	22358.4875
1058.38998	22353.9875
1062.07627	22395.7875
1065.76003	22460.7875
1069.44126	22501.9875
1073.11995	22561.1875
1076.79611	22732.8875
1080.46974	22896.3875
1084.14085	23125.5875
1087.80943	23451.8875
1091.47549	23612.4875
1095.13903	23432.0875
1098.80005	23094.1875
1102.45857	22695.2875
1106.11456	22579.0875
1109.76805	22646.8875
1113.41903	22965.0875
1117.06751	23292.8875
1120.71348	23788.5875
1124.35696	24148.7875
1127.99793	24575.1875
1131.63641	24638.0875
1135.2724	24107.2875
1138.90589	23521.4875
1142.5369	23179.4875
1146.16542	22953.6875
1149.79145	22865.6875
1153.415	22919.0875
1157.03607	23050.2875
1160.65467	23407.9875
1164.27079	23991.1875
1167.88443	24854.8875
1171.49561	26176.6875
1175.10432	28136.4875
1178.71056	30739.0875
1182.31434	32896.9875
1185.91565	33865.7875
1189.51451	33585.7875
1193.11091	32317.5875
1196.70485	30653.3875
1200.29634	29335.3875
1203.88538	28379.2875
1207.47197	27357.1875
1211.05612	26526.6875
1214.63782	26005.2875
1218.21708	25811.4875
1221.79391	25872.6875
1225.36829	25847.3875
1228.94024	25678.1875
1232.50976	25414.3875
1236.07685	25277.3875
1239.6415	25290.3875
1243.20374	25372.6875
1246.76355	25627.2875
1250.32093	25963.2875
1253.8759	26380.4875
1257.42845	27044.2875
1260.97859	27601.5875
1264.52631	28079.6875
1268.07163	28581.6875
1271.61453	29151.3875
1275.15503	29650.0875
1278.69312	30054.4875
1282.22882	30391.3875
1285.76211	30769.0875
1289.29301	31325.3875
1292.82151	32085.9875
1296.34761	33027.1875
1299.87133	34402.4875
1303.39266	36370.5875
1306.9116	39020.2875
1310.42815	42121.5875
1313.94233	44014.3875
1317.45412	43789.3875
1320.96354	42251.0875
1324.47058	40272.7875
1327.97525	38555.5875
1331.47754	37431.8875
1334.97747	37099.4875
1338.47502	37479.2875
1341.97022	38085.9875
1345.46305	38558.8875
1348.95352	38866.9875
1352.44163	39507.2875
1355.92738	41089.6875
1359.41078	44216.0875
1362.89183	47449.4875
1366.37053	46410.2875
1369.84688	41301.0875
1373.32088	36004.0875
1376.79254	32665.5875
1380.26186	31153.4875
1383.72883	30559.7875
1387.19347	30281.8875
1390.65578	29914.0875
1394.11575	29715.4875
1397.57339	29862.9875
1401.0287	30228.3875
1404.48168	30795.7875
1407.93234	31220.7875
1411.38068	31432.6875
1414.82669	31191.5875
1418.27039	30494.8875
1421.71177	29583.9875
1425.15083	28761.9875
1428.58758	28224.7875
1432.02203	28169.8875
1435.45416	28310.8875
1438.88399	28643.6875
1442.31151	28804.0875
1445.73673	29124.5875
1449.15965	29376.4875
1452.58027	29533.4875
1455.9986	29585.3875
1459.41463	29649.1875
1462.82837	29935.3875
1466.23982	30369.7875
1469.64898	30844.5875
1473.05586	31192.3875
1476.46045	31236.4875
1479.86276	31352.6875
1483.26279	31532.1875
1486.66054	31787.7875
1490.05602	32187.1875
1493.44922	32711.5875
1496.84016	33376.3875
1500.22882	34515.7875
1503.61521	36262.8875
1506.99934	38630.9875
1510.38121	41117.5875
1513.76081	42420.6875
1517.13816	41424.3875
1520.51324	38471.0875
1523.88607	35333.4875
1527.25665	33128.7875
1530.62498	31866.9875
1533.99105	31161.6875
1537.35488	30829.5875
1540.71647	30654.3875
1544.07581	30525.5875
1547.4329	30416.0875
1550.78776	30172.3875
1554.14038	30034.7875
1557.49077	30166.8875
1560.83892	30340.8875
1564.18484	30605.2875
1567.52853	30828.8875
1570.86999	30975.8875
1574.20922	31100.4875
1577.54624	31133.2875
1580.88103	30648.4875
1584.2136	29997.0875
1587.54395	30007.6875
1590.87208	30796.1875
1594.19801	32349.3875
1597.52172	34231.6875
1600.84321	35142.9875
1604.16251	34241.4875
1607.47959	32247.6875
1610.79447	30030.5875
1614.10715	27938.4875
1617.41763	26237.5875
1620.7259	25087.2875
1624.03199	24518.6875
1627.33587	24491.6875
1630.63757	24958.5875
1633.93707	25887.0875
1637.23439	27388.2875
1640.52951	29328.2875
1643.82246	31733.5875
1647.11321	34084.2875
1650.40179	35394.6875
1653.68819	34349.7875
1656.97241	30949.9875
1660.25446	27249.6875
1663.53433	24521.8875
1666.81203	22810.5875
1670.08756	21794.9875
1673.36092	21172.5875
1676.63211	20722.7875
1679.90115	20394.4875
1683.16801	20171.2875
1686.43272	20032.4875
1689.69527	19900.5875
1692.95567	19829.2875
1696.2139	19771.7875
1699.46999	19725.6875
1702.72392	19690.9875
1705.97571	19678.8875
1709.22535	19643.9875
1712.47284	19610.2875
1715.71819	19616.8875
1718.96139	19597.4875
1722.20246	19605.7875
1725.44139	19536.2875
1728.67818	19411.3875
1731.91284	19340.3875
1735.14537	19260.2875
1738.37576	19174.6875
1741.60403	19170.1875
1744.83017	19134.4875
1748.05418	19102.3875
1751.27607	19030.0875
1754.49584	19032.9875
1757.71349	19033.4875
1760.92903	19009.5875
1764.14244	18962.3875
1767.35375	18941.2875
1770.56294	18910.3875
1773.77002	18903.3875
1776.97499	18883.5875
1780.17785	18871.9875
1783.37861	18841.8875
1786.57727	18794.2875
1789.77382	18778.5875
1792.96828	18778.1875
1796.16064	18742.9875
1799.3509	18718.0875
1802.53907	18660.3875
1805.72514	18655.7875
1808.90913	18588.0875
1812.09102	18562.8875
1815.27083	18502.0875
1818.44856	18471.5875
1821.6242	18425.6875
1824.79776	18444.1875
1827.96924	18454.0875
1831.13864	18389.1875
1834.30597	18372.3875
1837.47122	18392.1875
1840.6344	18366.3875
1843.7955	18364.8875
1846.95454	18351.6875
1850.11151	18337.4875
1853.26642	18347.9875
1856.41926	18360.4875
1859.57004	18356.7875
1862.71876	18331.1875
1865.86542	18315.3875
1869.01003	18334.3875
1872.15258	18350.0875
1875.29308	18332.4875
1878.43152	18325.6875
1881.56792	18308.5875
1884.70227	18309.3875
1887.83457	18291.6875
1890.96482	18263.0875
1894.09304	18246.6875
1897.21921	18228.6875
1900.34335	18224.7875
1903.46544	18241.3875
1906.58551	18222.7875
1909.70353	18195.9875
1912.81953	18197.5875
1915.93349	18206.5875
1919.04543	18153.2875
1922.15534	18107.3875
1925.26322	18081.7875
1928.36908	18040.1875
1931.47292	18022.4875
1934.57473	18003.1875
1937.67453	17928.7875
1940.77232	17933.0875
1943.86808	17848.5875
1946.96184	17804.8875
1950.05358	17713.7875
1953.14331	17699.0875
1956.23103	17631.6875
1959.31675	17572.6875
1962.40046	17542.4875
1965.48217	17493.6875
1968.56188	17445.6875
1971.63959	17358.9875
1974.7153	17348.6875
1977.78901	17306.5875
1980.86073	17260.3875
1983.93046	17205.0875
1986.99819	17146.5875
1990.06394	17123.1875
1993.1277	17062.3875
1996.18947	17016.2875
1999.24925	16978.8875
2002.30706	16915.4875
2005.36288	16844.6875
2008.41672	16805.0875
2011.46859	16769.9875
2014.51848	16740.0875
2017.56639	16723.6875
2020.61233	16675.2875
2023.6563	16633.6875
2026.6983	16576.5875
2029.73833	16542.0875
2032.7764	16518.4875
2035.8125	16489.4875
2038.84664	16439.7875
2041.87881	16475.1875
2044.90903	16368.3875
2047.93729	16353.4875
2050.96359	16345.4875
2053.98794	16325.2875
2057.01034	16329.4875
2060.03078	16292.9875
2063.04927	16273.8875
2066.06582	16270.8875
2069.08042	16260.6875
2072.09307	16250.9875
2075.10378	16272.1875
2078.11255	16246.4875
2081.11938	16226.6875
2084.12426	16225.1875
2087.12722	16218.9875
2090.12824	16212.3875
2093.12732	16199.7875
2096.12447	16208.5875
2099.11969	16191.4875
2102.11299	16171.0875
2105.10435	16189.0875
2108.09379	16176.5875
2111.08131	16193.6875
2114.0669	16203.2875
2117.05057	16218.7875
2120.03233	16252.2875
2123.01216	16241.8875
2125.99008	16262.6875
2128.96609	16247.8875
2131.94018	16287.9875
2134.91236	16292.3875
2137.88263	16290.0875
2140.851	16317.8875
2143.81746	16324.3875
2146.78201	16301.6875
2149.74466	16334.3875
2152.7054	16337.5875
2155.66425	16336.8875
2158.6212	16306.2875
2161.57625	16323.9875
2164.52941	16268.4875
2167.48067	16280.3875
2170.43004	16297.6875
2173.37752	16260.6875
2176.32311	16320.2875
2179.26681	16315.8875
2182.20863	16282.1875
2185.14856	16317.1875
2188.08661	16311.8875
2191.02278	16291.1875
2193.95707	16317.3875
2196.88948	16308.6875
2199.82001	16292.1875
2202.74867	16262.2875
2205.67545	16254.2875
2208.60037	16225.1875
2211.52341	16240.2875
2214.44458	16236.6875
2217.36388	16203.5875
2220.28132	16166.9875
2223.1969	16136.8875
2226.11061	16113.4875
2229.02246	16098.1875
2231.93245	16025.9875
2234.84058	15996.1875
2237.74686	15996.2875
2240.65128	15956.3875
2243.55385	15945.0875
2246.45456	15921.0875
2249.35343	15891.0875
2252.25044	15887.3875
2255.14561	15872.6875
2258.03893	15871.0875
2260.93041	15856.4875
2263.82004	15796.5875
2266.70783	15753.0875
2269.59378	15712.8875
2272.4779	15691.4875
2275.36017	15622.6875
2278.24061	15632.4875
2281.11922	15609.9875
2283.996	15554.8875
2286.87094	15553.5875
2289.74405	15534.4875
2292.61534	15524.4875
2295.4848	15529.3875
2298.35243	15543.9875
2301.21824	15505.1875
2304.08223	15516.2875
2306.94439	15527.2875
2309.80474	15511.2875
2312.66327	15520.8875
2315.51999	15520.1875
2318.37489	15498.2875
2321.22797	15479.2875
2324.07925	15465.0875
2326.92871	15451.9875
2329.77637	15428.9875
2332.62222	15416.9875
2335.46626	15372.9875
2338.3085	15409.6875
2341.14893	15415.0875
2343.98756	15428.5875
2346.8244	15412.2875
2349.65943	15404.5875
2352.49267	15390.9875
2355.32411	15410.1875
2358.15376	15400.6875
2360.98161	15380.0875
2363.80768	15368.1875
2366.63195	15378.3875
2369.45444	15331.6875
2372.27514	15304.8875
2375.09405	15281.5875
2377.91118	15261.9875
2380.72652	15231.5875
2383.54009	15160.7875
2386.35187	15126.6875
2389.16188	15098.7875
2391.97011	15073.0875
2394.77657	15036.7875
2397.58125	15020.3875
2400.38416	15003.9875
2403.18529	14954.8875
2405.98466	14927.9875
2408.78226	14870.1875
2411.57809	14866.7875
2414.37216	14825.1875
2417.16446	14800.1875
2419.955	14806.4875
2422.74378	14811.7875
2425.5308	14779.2875
2428.31606	14814.0875
2431.09956	14800.5875
2433.88131	14794.3875
2436.6613	14761.0875
2439.43954	14767.0875
2442.21603	14768.8875
2444.99077	14734.4875
2447.76377	14751.2875
2450.53501	14720.4875
2453.30451	14695.8875
2456.07226	14699.4875
2458.83827	14697.5875
2461.60254	14696.7875
2464.36507	14663.3875
2467.12586	14646.6875
2469.88492	14670.0875
2472.64224	14668.7875
2475.39782	14662.7875
2478.15167	14662.6875
2480.90379	14672.5875
2483.65417	14678.7875
2486.40283	14689.6875
2489.14976	14722.9875
2491.89497	14717.2875
2494.63845	14728.3875
2497.3802	14698.1875
2500.12024	14686.2875
2502.85855	14663.3875
2505.59514	14651.5875
2508.33002	14602.4875
2511.06318	14623.8875
2513.79462	14563.3875
2516.52435	14548.5875
2519.25237	14533.5875
2521.97867	14512.8875
2524.70327	14510.0875
2527.42616	14476.4875
2530.14734	14499.6875
2532.86681	14485.0875
2535.58458	14480.7875
2538.30065	14480.8875
2541.01501	14466.1875
2543.72768	14454.9875
2546.43864	14434.1875
2549.14791	14391.4875
2551.85548	14421.8875
2554.56136	14381.0875
2557.26554	14359.6875
2559.96803	14343.9875
2562.66883	14320.8875
2565.36794	14261.8875
2568.06536	14239.3875
2570.7611	14227.8875
2573.45514	14211.9875
2576.14751	14206.7875
2578.83819	14193.6875
2581.52719	14161.4875
2584.21451	14166.2875
2586.90015	14179.4875
2589.58411	14155.7875
2592.2664	14138.7875
2594.94701	14121.4875
2597.62594	14129.7875
2600.30321	14091.7875
2602.9788	14063.2875
2605.65273	14039.0875
2608.32498	14063.5875
2610.99557	14035.8875
2613.66449	14050.0875
2616.33175	14025.7875
2618.99734	14023.4875
2621.66128	14001.3875
2624.32355	13998.7875
2626.98416	14014.2875
2629.64311	13996.3875
2632.30041	13988.9875
2634.95605	13955.8875
2637.61004	13945.8875
2640.26238	13889.5875
2642.91306	13915.5875
2645.56209	13911.1875
2648.20948	13863.6875
2650.85521	13854.3875
2653.4993	13869.3875
2656.14175	13865.4875
2658.78255	13871.0875
2661.42171	13878.4875
2664.05923	13892.8875
2666.6951	13906.3875
2669.32934	13950.8875
2671.96194	13923.3875
2674.59291	13927.1875
2677.22224	13909.5875
2679.84993	13924.0875
2682.476	13900.3875
2685.10043	13878.3875
2687.72324	13875.2875
2690.34441	13883.4875
2692.96396	13892.6875
2695.58188	13855.7875
2698.19818	13875.4875
2700.81285	13874.2875
2703.4259	13864.1875
2706.03733	13876.1875
2708.64714	13882.1875
2711.25533	13867.1875
2713.86191	13836.0875
2716.46687	13869.9875
2719.07021	13881.8875
2721.67194	13857.7875
2724.27206	13875.9875
2726.87057	13915.8875
2729.46747	13889.3875
2732.06276	13905.2875
2734.65644	13894.5875
2737.24852	13881.9875
2739.83899	13862.5875
2742.42786	13872.6875
2745.01513	13830.2875
2747.60079	13818.6875
2750.18486	13807.2875
2752.76733	13799.7875
2755.3482	13798.2875
2757.92747	13777.7875
2760.50515	13759.5875
2763.08123	13759.0875
2765.65573	13702.6875
2768.22863	13741.7875
2770.79994	13719.4875
2773.36967	13726.4875
2775.9378	13689.7875
2778.50435	13703.2875
2781.06932	13701.5875
2783.6327	13676.6875
2786.1945	13721.7875
2788.75471	13678.4875
2791.31335	13673.7875
2793.87041	13663.4875
2796.42589	13630.4875
2798.97979	13608.7875
2801.53212	13585.8875
2804.08288	13583.6875
2806.63206	13525.7875
2809.17967	13505.9875
2811.72571	13449.6875
2814.27018	13454.3875
2816.81308	13445.0875
2819.35442	13425.7875
2821.89419	13400.1875
2824.43239	13424.4875
2826.96904	13375.9875
2829.50412	13367.5875
2832.03763	13347.3875
2834.56959	13390.4875
2837.1	13351.4875
2839.62884	13375.3875
2842.15613	13357.5875
2844.68186	13361.8875
2847.20604	13419.5875
2849.72867	13429.7875
2852.24974	13433.0875
2854.76927	13403.7875
2857.28724	13374.2875
2859.80367	13376.3875
2862.31855	13324.8875
2864.83189	13331.3875
2867.34368	13310.6875
2869.85393	13302.4875
2872.36264	13276.6875
2874.8698	13316.8875
2877.37543	13305.4875
2879.87952	13284.9875
2882.38207	13278.2875
2884.88308	13251.0875
2887.38256	13275.7875
2889.88051	13282.8875
2892.37692	13257.7875
2894.8718	13275.6875
2897.36515	13289.6875
2899.85698	13284.9875
2902.34727	13319.3875
2904.83604	13316.7875
2907.32328	13346.4875
2909.809	13318.0875
2912.29319	13305.2875
2914.77587	13323.8875
2917.25702	13316.7875
2919.73665	13298.0875
2922.21476	13305.9875
2924.69136	13279.7875
2927.16644	13275.2875
2929.64	13261.9875
2932.11205	13225.1875
2934.58258	13194.3875
2937.05161	13241.9875
2939.51912	13230.6875
2941.98513	13181.1875
2944.44962	13161.2875
2946.91261	13107.1875
2949.37409	13115.5875
2951.83407	13108.9875
2954.29254	13081.8875
2956.74951	13098.4875
2959.20498	13085.0875
2961.65895	13076.4875
2964.11142	13043.8875
2966.56239	13036.3875
2969.01186	13012.4875
2971.45984	13015.9875
2973.90632	12977.4875
2976.35131	12954.4875
2978.7948	12947.1875
2981.23681	12922.7875
2983.67732	12886.9875
2986.11635	12869.6875
2988.55388	12816.8875
2990.98993	12802.3875
2993.4245	12787.0875
2995.85758	12725.4875
2998.28917	12707.9875
3000.71928	12699.0875
3003.14791	12658.9875
3005.57506	12673.9875
3008.00073	12641.1875
3010.42493	12636.8875
3012.84764	12611.0875
3015.26888	12598.9875
3017.68865	12566.4875
3020.10694	12551.0875
3022.52376	12498.9875
3024.9391	12517.1875
