Data from AgNP_FTO_APTES_UA_10uM_CRN_200uM_R6G_10uM_NaF_0.1M_Addition_RamanShift__19__18-22-50-903.txt Node

Date: Thu Feb 10 18:22:50 GMT 2022
User: TCL
Spectrometer: QEP01345
Trigger mode: 4
Integration Time (sec): 7.000000E0
Scans to average: 10
Electric dark correction enabled: true
Nonlinearity correction enabled: false
Boxcar width: 0
XAxis mode: Raman Shifts
Number of Pixels in Spectrum: 1044
>>>>>Begin Spectral Data<<<<<
46.04893	-0.125
50.45542	-1.325
54.85868	-3.025
59.25871	-0.725
63.6555	58.575
68.04907	58.975
72.43941	67.275
76.82654	64.875
81.21044	69.575
85.59113	69.775
89.96862	74.575
94.34289	77.275
98.71396	80.375
103.08183	84.775
107.4465	85.175
111.80798	84.575
116.16626	91.275
120.52136	89.875
124.87327	95.875
129.222	97.275
133.56755	106.975
137.90993	105.075
142.24913	117.475
146.58517	128.175
150.91804	150.875
155.24774	175.575
159.57429	219.175
163.89768	278.275
168.21792	359.875
172.53501	492.775
176.84895	690.475
181.15975	969.175
185.46741	1357.275
189.77193	1876.375
194.07331	2511.275
198.37157	3253.775
202.6667	4028.075
206.9587	4781.475
211.24758	5533.075
215.53334	6275.475
219.81599	7035.275
224.09553	7862.875
228.37195	8812.275
232.64527	9831.375
236.91549	10929.575
241.18261	12080.075
245.44663	13119.075
249.70755	14125.075
253.96539	15002.575
258.22014	15746.275
262.4718	16378.675
266.72039	16795.575
270.96589	17058.875
275.20832	17134.275
279.44768	17050.075
283.68397	16917.075
287.91719	16780.875
292.14735	16669.675
296.37445	16638.975
300.59849	16654.675
304.81948	16618.775
309.03742	16499.275
313.25231	16331.975
317.46415	16012.575
321.67296	15675.075
325.87872	15410.275
330.08145	15311.775
334.28114	15308.975
338.47781	15410.375
342.67145	15574.975
346.86207	15779.375
351.04966	16013.975
355.23424	16267.575
359.4158	16515.775
363.59435	16727.975
367.76989	16879.675
371.94243	17031.075
376.11196	17180.675
380.27849	17294.875
384.44203	17425.475
388.60257	17523.875
392.76012	17651.275
396.91468	17833.075
401.06626	18006.675
405.21485	18158.775
409.36047	18155.075
413.50311	17973.275
417.64277	17868.675
421.77947	17875.575
425.9132	17910.175
430.04396	18022.375
434.17176	18137.275
438.2966	18300.275
442.41849	18537.875
446.53742	18924.575
450.6534	19306.375
454.76644	19635.675
458.87653	19780.875
462.98368	19758.975
467.08789	19637.475
471.18916	19543.175
475.2875	19413.075
479.38291	19402.775
483.4754	19337.875
487.56496	19186.575
491.6516	18898.575
495.73531	18616.975
499.81612	18480.975
503.89401	18521.875
507.96899	18555.475
512.04106	18581.675
516.11023	18493.675
520.1765	18383.575
524.23987	18275.175
528.30034	18166.175
532.35792	18068.875
536.41261	17952.575
540.46441	17820.975
544.51333	17855.975
548.55936	18038.075
552.60252	18267.975
556.64279	18593.375
560.6802	18818.175
564.71473	18966.675
568.7464	19167.075
572.7752	19492.075
576.80114	19727.675
580.82422	19876.175
584.84444	20058.075
588.86181	20242.775
592.87633	20465.875
596.888	20466.375
600.89682	20384.475
604.9028	20687.975
608.90594	21742.875
612.90624	22921.075
616.90371	21927.175
620.89834	19450.275
624.89015	18412.375
628.87913	18358.375
632.86528	18423.375
636.84862	18368.175
640.82913	18208.575
644.80683	17963.875
648.78172	17729.875
652.75379	17650.275
656.72306	17787.975
660.68952	17961.175
664.65319	17884.675
668.61405	17712.475
672.57211	17643.975
676.52738	17714.575
680.47986	17757.875
684.42955	17725.975
688.37646	17687.075
692.32058	17696.175
696.26192	17790.075
700.20048	17920.975
704.13626	18026.475
708.06928	18017.675
711.99952	17935.575
715.927	17903.975
719.85171	17942.975
723.77365	17944.375
727.69284	17823.975
731.60928	17740.975
735.52295	17697.775
739.43388	17655.475
743.34206	17658.675
747.24749	17719.275
751.15017	17804.475
755.05012	17973.775
758.94733	18313.175
762.8418	18923.275
766.73354	19817.875
770.62254	20719.575
774.50882	20955.775
778.39237	20353.975
782.27321	19263.375
786.15132	18405.975
790.02671	17890.175
793.89938	17635.375
797.76935	17576.575
801.6366	17538.975
805.50115	17529.975
809.36299	17470.575
813.22213	17347.275
817.07857	17297.675
820.93231	17279.375
824.78336	17245.775
828.63172	17218.475
832.47738	17190.475
836.32036	17205.475
840.16066	17215.675
843.99827	17302.775
847.8332	17260.375
851.66546	17217.075
855.49504	17217.875
859.32195	17219.775
863.1462	17203.775
866.96777	17188.075
870.78668	17137.875
874.60293	17135.875
878.41652	17090.275
882.22745	17152.075
886.03573	17163.175
889.84136	17197.475
893.64433	17181.075
897.44466	17104.275
901.24235	17023.275
905.0374	16975.575
908.8298	16954.975
912.61957	16959.775
916.40671	17055.675
920.19121	17185.475
923.97308	17336.675
927.75233	17318.975
931.52895	17234.075
935.30295	17131.575
939.07433	16944.075
942.84309	16713.775
946.60924	16612.175
950.37278	16567.375
954.13371	16537.675
957.89203	16504.375
961.64774	16461.675
965.40086	16433.075
969.15137	16375.675
972.89929	16309.475
976.64461	16273.075
980.38733	16247.275
984.12747	16316.075
987.86502	16373.375
991.59999	16535.775
995.33237	16661.775
999.06217	16978.775
1002.78939	17263.675
1006.51404	17421.775
1010.23611	17475.275
1013.95561	17581.475
1017.67255	17585.575
1021.38692	17525.975
1025.09872	17425.375
1028.80796	17444.475
1032.51465	17700.575
1036.21877	17942.475
1039.92035	18021.175
1043.61937	17868.575
1047.31584	17614.475
1051.00976	17398.075
1054.70114	17345.275
1058.38998	17374.375
1062.07627	17482.975
1065.76003	17525.075
1069.44126	17573.575
1073.11995	17672.175
1076.79611	17740.375
1080.46974	17809.175
1084.14085	17873.575
1087.80943	18009.775
1091.47549	18119.075
1095.13903	18117.275
1098.80005	18025.475
1102.45857	17811.375
1106.11456	17661.675
1109.76805	17593.575
1113.41903	17638.075
1117.06751	17746.275
1120.71348	17855.275
1124.35696	17993.975
1127.99793	18127.475
1131.63641	18243.575
1135.2724	18177.875
1138.90589	18062.475
1142.5369	18013.875
1146.16542	17994.375
1149.79145	18054.575
1153.415	18202.375
1157.03607	18409.375
1160.65467	18777.975
1164.27079	19334.275
1167.88443	20044.975
1171.49561	20917.875
1175.10432	22010.075
1178.71056	23342.175
1182.31434	24619.475
1185.91565	25331.275
1189.51451	25337.275
1193.11091	24776.575
1196.70485	24058.775
1200.29634	23322.675
1203.88538	22753.575
1207.47197	22351.075
1211.05612	21998.175
1214.63782	21582.475
1218.21708	21277.175
1221.79391	21038.775
1225.36829	20838.575
1228.94024	20626.175
1232.50976	20304.975
1236.07685	20025.975
1239.6415	19907.775
1243.20374	19950.175
1246.76355	20078.175
1250.32093	20291.875
1253.8759	20579.675
1257.42845	20972.275
1260.97859	21355.675
1264.52631	21730.775
1268.07163	22186.175
1271.61453	22614.675
1275.15503	23088.075
1278.69312	23651.375
1282.22882	24112.975
1285.76211	24640.375
1289.29301	25177.075
1292.82151	25984.975
1296.34761	27030.275
1299.87133	28345.075
1303.39266	29709.675
1306.9116	31116.175
1310.42815	32408.775
1313.94233	33213.675
1317.45412	33189.775
1320.96354	32678.875
1324.47058	32146.375
1327.97525	31705.675
1331.47754	31407.475
1334.97747	31281.375
1338.47502	31172.475
1341.97022	31129.275
1345.46305	30836.875
1348.95352	30488.675
1352.44163	30184.575
1355.92738	30358.475
1359.41078	30985.675
1362.89183	31672.275
1366.37053	31135.075
1369.84688	29007.475
1373.32088	26557.875
1376.79254	24941.675
1380.26186	24381.275
1383.72883	24318.675
1387.19347	24414.075
1390.65578	24397.175
1394.11575	24421.675
1397.57339	24713.275
1401.0287	25109.575
1404.48168	25427.775
1407.93234	25452.775
1411.38068	25067.575
1414.82669	24351.975
1418.27039	23443.875
1421.71177	22597.175
1425.15083	21867.575
1428.58758	21426.575
1432.02203	21446.675
1435.45416	21759.875
1438.88399	22248.775
1442.31151	22717.675
1445.73673	23078.375
1449.15965	23350.975
1452.58027	23609.775
1455.9986	23741.775
1459.41463	23908.875
1462.82837	24140.075
1466.23982	24386.275
1469.64898	24663.775
1473.05586	24813.375
1476.46045	24791.375
1479.86276	24593.675
1483.26279	24324.175
1486.66054	24099.275
1490.05602	23991.175
1493.44922	24038.175
1496.84016	24126.175
1500.22882	24401.175
1503.61521	24911.475
1506.99934	25660.175
1510.38121	26344.575
1513.76081	26569.575
1517.13816	26203.675
1520.51324	25472.175
1523.88607	24865.375
1527.25665	24460.775
1530.62498	24376.375
1533.99105	24368.175
1537.35488	24284.975
1540.71647	24086.575
1544.07581	23741.975
1547.4329	23338.575
1550.78776	22975.575
1554.14038	22720.175
1557.49077	22583.875
1560.83892	22510.575
1564.18484	22483.375
1567.52853	22491.475
1570.86999	22658.275
1574.20922	22914.875
1577.54624	23212.475
1580.88103	23352.075
1584.2136	23553.875
1587.54395	23995.775
1590.87208	24800.175
1594.19801	25870.875
1597.52172	26985.375
1600.84321	27318.375
1604.16251	26438.175
1607.47959	24892.775
1610.79447	23175.175
1614.10715	21621.075
1617.41763	20318.875
1620.7259	19394.475
1624.03199	18937.075
1627.33587	18852.275
1630.63757	19185.375
1633.93707	20037.075
1637.23439	21414.075
1640.52951	23344.375
1643.82246	25498.775
1647.11321	27157.675
1650.40179	27454.875
1653.68819	26004.475
1656.97241	23368.975
1660.25446	20790.775
1663.53433	18836.775
1666.81203	17527.875
1670.08756	16667.175
1673.36092	16130.075
1676.63211	15786.175
1679.90115	15507.375
1683.16801	15314.075
1686.43272	15186.675
1689.69527	15074.275
1692.95567	15006.075
1696.2139	14923.975
1699.46999	14906.475
1702.72392	14869.775
1705.97571	14811.375
1709.22535	14764.475
1712.47284	14726.975
1715.71819	14705.375
1718.96139	14654.075
1722.20246	14659.875
1725.44139	14606.675
1728.67818	14535.175
1731.91284	14470.875
1735.14537	14383.475
1738.37576	14353.675
1741.60403	14344.775
1744.83017	14295.975
1748.05418	14231.175
1751.27607	14254.575
1754.49584	14268.175
1757.71349	14259.775
1760.92903	14202.375
1764.14244	14191.175
1767.35375	14179.075
1770.56294	14157.575
1773.77002	14124.775
1776.97499	14097.675
1780.17785	14063.075
1783.37861	14041.175
1786.57727	14014.575
1789.77382	13973.375
1792.96828	13942.975
1796.16064	13909.475
1799.3509	13877.275
1802.53907	13887.875
1805.72514	13857.475
1808.90913	13788.075
1812.09102	13756.975
1815.27083	13736.675
1818.44856	13707.075
1821.6242	13696.175
1824.79776	13691.275
1827.96924	13662.275
1831.13864	13642.175
1834.30597	13619.775
1837.47122	13645.075
1840.6344	13632.875
1843.7955	13609.475
1846.95454	13615.675
1850.11151	13612.675
1853.26642	13602.675
1856.41926	13595.675
1859.57004	13586.175
1862.71876	13572.175
1865.86542	13536.375
1869.01003	13538.775
1872.15258	13519.175
1875.29308	13538.975
1878.43152	13508.475
1881.56792	13466.975
1884.70227	13496.375
1887.83457	13467.475
1890.96482	13443.775
1894.09304	13441.375
1897.21921	13424.475
1900.34335	13395.875
1903.46544	13375.375
1906.58551	13379.975
1909.70353	13350.375
1912.81953	13317.075
1915.93349	13346.275
1919.04543	13315.775
1922.15534	13279.675
1925.26322	13218.275
1928.36908	13188.975
1931.47292	13196.875
1934.57473	13185.175
1937.67453	13143.475
1940.77232	13120.175
1943.86808	13069.975
1946.96184	13017.075
1950.05358	12962.175
1953.14331	12973.875
1956.23103	12876.375
1959.31675	12848.075
1962.40046	12828.875
1965.48217	12790.675
1968.56188	12752.975
1971.63959	12720.475
1974.7153	12698.375
1977.78901	12638.775
1980.86073	12647.475
1983.93046	12579.075
1986.99819	12555.875
1990.06394	12524.075
1993.1277	12487.275
1996.18947	12449.275
1999.24925	12395.275
2002.30706	12370.175
2005.36288	12330.475
2008.41672	12288.175
2011.46859	12276.775
2014.51848	12259.275
2017.56639	12231.775
2020.61233	12192.975
2023.6563	12157.375
2026.6983	12132.975
2029.73833	12107.375
2032.7764	12060.475
2035.8125	12045.975
2038.84664	12028.875
2041.87881	12013.075
2044.90903	11958.575
2047.93729	11944.475
2050.96359	11949.075
2053.98794	11937.775
2057.01034	11913.475
2060.03078	11904.475
2063.04927	11899.475
2066.06582	11925.175
2069.08042	11886.675
2072.09307	11892.875
2075.10378	11898.875
2078.11255	11857.375
2081.11938	11866.275
2084.12426	11864.375
2087.12722	11854.975
2090.12824	11850.275
2093.12732	11834.675
2096.12447	11851.575
2099.11969	11853.675
2102.11299	11845.475
2105.10435	11837.975
2108.09379	11835.875
2111.08131	11844.475
2114.0669	11849.275
2117.05057	11857.975
2120.03233	11898.575
2123.01216	11883.175
2125.99008	11857.775
2128.96609	11886.075
2131.94018	11896.975
2134.91236	11910.175
2137.88263	11922.775
2140.851	11912.475
2143.81746	11912.575
2146.78201	11931.875
2149.74466	11922.175
2152.7054	11906.775
2155.66425	11931.875
2158.6212	11935.075
2161.57625	11922.175
2164.52941	11920.175
2167.48067	11901.475
2170.43004	11918.175
2173.37752	11906.075
2176.32311	11925.575
2179.26681	11922.675
2182.20863	11908.775
2185.14856	11921.975
2188.08661	11905.975
2191.02278	11912.275
2193.95707	11898.075
2196.88948	11911.475
2199.82001	11903.975
2202.74867	11868.375
2205.67545	11846.075
2208.60037	11840.275
2211.52341	11859.875
2214.44458	11826.375
2217.36388	11814.675
2220.28132	11787.875
2223.1969	11752.075
2226.11061	11754.975
2229.02246	11739.075
2231.93245	11704.475
2234.84058	11654.875
2237.74686	11645.575
2240.65128	11635.675
2243.55385	11594.775
2246.45456	11596.175
2249.35343	11583.875
2252.25044	11566.975
2255.14561	11548.875
2258.03893	11535.375
2260.93041	11527.175
2263.82004	11478.675
2266.70783	11464.175
2269.59378	11425.575
2272.4779	11367.675
2275.36017	11364.875
2278.24061	11363.375
2281.11922	11333.975
2283.996	11324.375
2286.87094	11322.575
2289.74405	11322.475
2292.61534	11287.375
2295.4848	11301.575
2298.35243	11303.375
2301.21824	11286.475
2304.08223	11279.375
2306.94439	11260.675
2309.80474	11282.075
2312.66327	11280.575
2315.51999	11270.475
2318.37489	11276.075
2321.22797	11224.175
2324.07925	11215.175
2326.92871	11189.275
2329.77637	11195.375
2332.62222	11182.775
2335.46626	11171.575
2338.3085	11172.375
2341.14893	11183.175
2343.98756	11154.575
2346.8244	11142.475
2349.65943	11161.775
2352.49267	11142.175
2355.32411	11160.075
2358.15376	11125.175
2360.98161	11121.375
2363.80768	11120.275
2366.63195	11105.475
2369.45444	11084.475
2372.27514	11036.475
2375.09405	11050.775
2377.91118	11050.675
2380.72652	11018.075
2383.54009	10978.175
2386.35187	10987.475
2389.16188	10933.575
2391.97011	10910.975
2394.77657	10901.175
2397.58125	10872.875
2400.38416	10871.775
2403.18529	10852.775
2405.98466	10832.075
2408.78226	10781.475
2411.57809	10773.375
2414.37216	10754.075
2417.16446	10744.775
2419.955	10726.975
2422.74378	10743.675
2425.5308	10724.575
2428.31606	10734.575
2431.09956	10723.475
2433.88131	10721.575
2436.6613	10725.675
2439.43954	10711.175
2442.21603	10671.475
2444.99077	10681.875
2447.76377	10683.975
2450.53501	10660.575
2453.30451	10652.875
2456.07226	10647.075
2458.83827	10661.175
2461.60254	10668.175
2464.36507	10631.475
2467.12586	10605.175
2469.88492	10601.675
2472.64224	10597.875
2475.39782	10619.175
2478.15167	10607.875
2480.90379	10617.075
2483.65417	10632.175
2486.40283	10635.575
2489.14976	10636.375
2491.89497	10627.675
2494.63845	10628.075
2497.3802	10612.375
2500.12024	10592.175
2502.85855	10615.575
2505.59514	10604.475
2508.33002	10581.975
2511.06318	10574.375
2513.79462	10551.975
2516.52435	10537.475
2519.25237	10512.775
2521.97867	10487.375
2524.70327	10527.075
2527.42616	10507.975
2530.14734	10513.075
2532.86681	10522.775
2535.58458	10548.275
2538.30065	10520.375
2541.01501	10497.575
2543.72768	10478.075
2546.43864	10468.375
2549.14791	10457.975
2551.85548	10458.275
2554.56136	10443.675
2557.26554	10402.375
2559.96803	10383.875
2562.66883	10375.375
2565.36794	10357.975
2568.06536	10336.875
2570.7611	10323.575
2573.45514	10315.575
2576.14751	10298.775
2578.83819	10307.075
2581.52719	10283.475
2584.21451	10265.875
2586.90015	10262.575
2589.58411	10256.375
2592.2664	10244.075
2594.94701	10238.775
2597.62594	10238.975
2600.30321	10209.275
2602.9788	10193.675
2605.65273	10163.975
2608.32498	10158.175
2610.99557	10174.375
2613.66449	10164.175
2616.33175	10146.575
2618.99734	10160.275
2621.66128	10146.475
2624.32355	10139.075
2626.98416	10141.075
2629.64311	10132.575
2632.30041	10118.375
2634.95605	10097.375
2637.61004	10075.875
2640.26238	10072.975
2642.91306	10097.475
2645.56209	10097.775
2648.20948	10074.575
2650.85521	10074.575
2653.4993	10084.875
2656.14175	10051.575
2658.78255	10070.475
2661.42171	10040.875
2664.05923	10098.175
2666.6951	10099.475
2669.32934	10094.075
2671.96194	10055.375
2674.59291	10067.475
2677.22224	10075.275
2679.84993	10058.775
2682.476	10043.175
2685.10043	10041.175
2687.72324	10034.175
2690.34441	10045.775
2692.96396	10056.575
2695.58188	10009.575
2698.19818	9980.275
2700.81285	10033.675
2703.4259	10041.375
2706.03733	10077.975
2708.64714	10058.675
2711.25533	10061.375
2713.86191	10025.175
2716.46687	10035.975
2719.07021	10059.275
2721.67194	10060.475
2724.27206	10052.975
2726.87057	10074.875
2729.46747	10074.575
2732.06276	10077.875
2734.65644	10043.375
2737.24852	10078.675
2739.83899	10040.675
2742.42786	10035.675
2745.01513	10042.575
2747.60079	10021.275
2750.18486	9995.775
2752.76733	10004.775
2755.3482	9977.375
2757.92747	9980.675
2760.50515	9970.575
2763.08123	9970.575
2765.65573	9931.675
2768.22863	9933.775
2770.79994	9939.975
2773.36967	9959.775
2775.9378	9955.075
2778.50435	9946.275
2781.06932	9943.875
2783.6327	9925.175
2786.1945	9930.175
2788.75471	9936.075
2791.31335	9897.275
2793.87041	9878.275
2796.42589	9887.975
2798.97979	9862.375
2801.53212	9836.975
2804.08288	9827.175
2806.63206	9809.875
2809.17967	9786.475
2811.72571	9756.875
2814.27018	9752.975
2816.81308	9720.275
2819.35442	9695.875
2821.89419	9679.675
2824.43239	9682.875
2826.96904	9658.875
2829.50412	9667.875
2832.03763	9633.975
2834.56959	9662.475
2837.1	9636.275
2839.62884	9650.775
2842.15613	9656.275
2844.68186	9674.275
2847.20604	9695.275
2849.72867	9683.075
2852.24974	9670.175
2854.76927	9649.075
2857.28724	9642.675
2859.80367	9606.575
2862.31855	9610.475
2864.83189	9606.175
2867.34368	9577.375
2869.85393	9579.775
2872.36264	9590.975
2874.8698	9590.575
2877.37543	9585.175
2879.87952	9572.375
2882.38207	9585.075
2884.88308	9583.375
2887.38256	9571.775
2889.88051	9580.375
2892.37692	9578.075
2894.8718	9561.575
2897.36515	9585.975
2899.85698	9581.575
2902.34727	9616.975
2904.83604	9621.475
2907.32328	9647.775
2909.809	9639.175
2912.29319	9645.475
2914.77587	9640.675
2917.25702	9633.875
2919.73665	9633.175
2922.21476	9649.775
2924.69136	9618.275
2927.16644	9618.575
2929.64	9617.975
2932.11205	9611.275
2934.58258	9593.075
2937.05161	9581.775
2939.51912	9587.975
2941.98513	9576.975
2944.44962	9564.975
2946.91261	9526.975
2949.37409	9529.575
2951.83407	9536.275
2954.29254	9505.775
2956.74951	9490.175
2959.20498	9528.975
2961.65895	9503.175
2964.11142	9489.575
2966.56239	9460.975
2969.01186	9467.075
2971.45984	9465.875
2973.90632	9458.075
2976.35131	9411.975
2978.7948	9389.175
2981.23681	9405.375
2983.67732	9377.675
2986.11635	9351.775
2988.55388	9323.475
2990.98993	9302.375
2993.4245	9295.575
2995.85758	9261.375
2998.28917	9242.875
3000.71928	9236.875
3003.14791	9231.475
3005.57506	9229.575
3008.00073	9181.175
3010.42493	9167.775
3012.84764	9182.675
3015.26888	9162.075
3017.68865	9128.575
3020.10694	9122.575
3022.52376	9117.075
3024.9391	9128.175
3027.35298	9090.775
3029.76539	9090.875
3032.17632	9076.775
3034.5858	9089.775
3036.9938	9093.975
3039.40034	9074.275
3041.80542	9088.675
3044.20903	9066.875
3046.61118	9056.175
3049.01187	9044.475
3051.4111	9032.975
3053.80888	9019.275
3056.20519	9008.175
3058.60005	8985.675
3060.99345	8973.175
3063.3854	8960.775
3065.7759	8924.675
3068.16494	8923.875
3070.55254	8917.875
3072.93868	8919.675
3075.32338	8890.975
3077.70662	8857.775
3080.08842	8854.775
3082.46878	8837.175
3084.84769	8830.775
3087.22515	8833.575
3089.60118	8814.875
3091.97576	8840.375
3094.3489	8814.275
3096.72061	8820.675
3099.09087	8838.775
3101.4597	8822.875
3103.82709	8816.975
3106.19305	8790.975
3108.55757	8789.475
3110.92066	8779.275
3113.28232	8787.075
3115.64255	8776.475
3118.00134	8753.175
3120.35871	8766.675
3122.71466	8749.175
3125.06917	8693.975
3127.42226	8700.275
3129.77393	8702.475
3132.12417	8698.975
3134.47299	8697.375
3136.82039	8645.775
3139.16636	8688.475
3141.51092	8713.075
3143.85406	8704.375
3146.19579	8691.875
