Data from AgNP_FTO_APTES_UA_10uM_CRN_5uM_R6G_10uM_NaF_0.1M_Addition_RamanShift__33__15-20-50-678.txt Node

Date: Thu Feb 10 15:20:50 GMT 2022
User: TCL
Spectrometer: QEP01345
Trigger mode: 4
Integration Time (sec): 7.000000E0
Scans to average: 10
Electric dark correction enabled: true
Nonlinearity correction enabled: false
Boxcar width: 0
XAxis mode: Raman Shifts
Number of Pixels in Spectrum: 1044
>>>>>Begin Spectral Data<<<<<
46.04893	1.0875
50.45542	-0.9125
54.85868	-1.7125
59.25871	-0.5125
63.6555	21.1875
68.04907	22.3875
72.43941	23.5875
76.82654	19.9875
81.21044	27.0875
85.59113	21.7875
89.96862	28.1875
94.34289	29.2875
98.71396	28.4875
103.08183	31.1875
107.4465	32.7875
111.80798	29.8875
116.16626	32.7875
120.52136	34.1875
124.87327	35.4875
129.222	36.5875
133.56755	38.2875
137.90993	38.4875
142.24913	42.4875
146.58517	42.2875
150.91804	53.5875
155.24774	59.5875
159.57429	73.6875
163.89768	88.2875
168.21792	119.5875
172.53501	163.6875
176.84895	226.1875
181.15975	312.0875
185.46741	430.2875
189.77193	597.7875
194.07331	796.0875
198.37157	1016.9875
202.6667	1249.4875
206.9587	1481.5875
211.24758	1728.6875
215.53334	1985.9875
219.81599	2263.3875
224.09553	2595.3875
228.37195	2948.9875
232.64527	3342.1875
236.91549	3722.8875
241.18261	4081.4875
245.44663	4333.6875
249.70755	4535.2875
253.96539	4714.5875
258.22014	4872.1875
262.4718	5014.6875
266.72039	5150.0875
270.96589	5261.3875
275.20832	5264.9875
279.44768	5241.6875
283.68397	5156.0875
287.91719	5118.0875
292.14735	5150.9875
296.37445	5290.0875
300.59849	5523.2875
304.81948	5800.8875
309.03742	6003.7875
313.25231	5968.0875
317.46415	5646.0875
321.67296	5116.8875
325.87872	4693.2875
330.08145	4481.6875
334.28114	4467.3875
338.47781	4527.6875
342.67145	4695.5875
346.86207	4926.6875
351.04966	5289.4875
355.23424	5677.4875
359.4158	5971.3875
363.59435	6101.4875
367.76989	6140.8875
371.94243	6099.1875
376.11196	6048.7875
380.27849	6002.8875
384.44203	5909.8875
388.60257	5813.4875
392.76012	5780.4875
396.91468	5832.7875
401.06626	6025.4875
405.21485	6199.2875
409.36047	6080.4875
413.50311	5786.0875
417.64277	5543.2875
421.77947	5528.4875
425.9132	5674.1875
430.04396	5824.6875
434.17176	5833.9875
438.2966	5703.9875
442.41849	5629.8875
446.53742	5641.9875
450.6534	5715.7875
454.76644	5747.0875
458.87653	5680.2875
462.98368	5580.4875
467.08789	5422.5875
471.18916	5291.0875
475.2875	5159.2875
479.38291	5066.3875
483.4754	5053.3875
487.56496	5041.2875
491.6516	5036.8875
495.73531	5027.3875
499.81612	5004.1875
503.89401	4991.3875
507.96899	5033.0875
512.04106	5096.3875
516.11023	5179.2875
520.1765	5231.3875
524.23987	5207.1875
528.30034	5054.9875
532.35792	4921.4875
536.41261	4781.9875
540.46441	4645.1875
544.51333	4573.1875
548.55936	4600.5875
552.60252	4742.4875
556.64279	4897.0875
560.6802	4980.2875
564.71473	5068.3875
568.7464	5325.6875
572.7752	5513.4875
576.80114	5325.2875
580.82422	5086.5875
584.84444	4972.0875
588.86181	4938.2875
592.87633	4926.2875
596.888	5027.1875
600.89682	5267.5875
604.9028	6046.7875
608.90594	8113.1875
612.90624	10879.8875
616.90371	10265.5875
620.89834	6634.3875
624.89015	5037.5875
628.87913	4727.1875
632.86528	4768.3875
636.84862	4881.9875
640.82913	4787.8875
644.80683	4528.1875
648.78172	4355.8875
652.75379	4376.2875
656.72306	4625.7875
660.68952	4933.3875
664.65319	4850.6875
668.61405	4516.7875
672.57211	4368.6875
676.52738	4372.0875
680.47986	4385.3875
684.42955	4362.8875
688.37646	4397.1875
692.32058	4501.6875
696.26192	4673.5875
700.20048	4941.3875
704.13626	5185.7875
708.06928	5260.9875
711.99952	5131.2875
715.927	4958.5875
719.85171	4798.7875
723.77365	4707.9875
727.69284	4584.8875
731.60928	4486.0875
735.52295	4479.7875
739.43388	4476.1875
743.34206	4474.8875
747.24749	4455.4875
751.15017	4497.8875
755.05012	4593.1875
758.94733	4863.4875
762.8418	5530.7875
766.73354	6688.5875
770.62254	7917.1875
774.50882	8531.6875
778.39237	8047.9875
782.27321	6736.1875
786.15132	5556.3875
790.02671	4890.3875
793.89938	4588.3875
797.76935	4463.3875
801.6366	4411.6875
805.50115	4369.5875
809.36299	4349.1875
813.22213	4331.1875
817.07857	4313.7875
820.93231	4325.3875
824.78336	4337.1875
828.63172	4364.3875
832.47738	4361.4875
836.32036	4338.2875
840.16066	4305.0875
843.99827	4269.8875
847.8332	4238.5875
851.66546	4243.4875
855.49504	4234.0875
859.32195	4219.1875
863.1462	4204.0875
866.96777	4166.7875
870.78668	4171.5875
874.60293	4182.2875
878.41652	4196.3875
882.22745	4223.5875
886.03573	4253.0875
889.84136	4233.5875
893.64433	4201.9875
897.44466	4202.3875
901.24235	4196.7875
905.0374	4185.4875
908.8298	4175.0875
912.61957	4179.7875
916.40671	4207.8875
920.19121	4237.8875
923.97308	4270.8875
927.75233	4306.3875
931.52895	4364.3875
935.30295	4305.5875
939.07433	4159.0875
942.84309	4011.8875
946.60924	3934.8875
950.37278	3882.9875
954.13371	3861.7875
957.89203	3858.3875
961.64774	3832.5875
965.40086	3819.5875
969.15137	3800.6875
972.89929	3790.9875
976.64461	3792.4875
980.38733	3774.7875
984.12747	3810.8875
987.86502	3808.3875
991.59999	3841.1875
995.33237	3880.1875
999.06217	3960.8875
1002.78939	4081.6875
1006.51404	4191.3875
1010.23611	4307.4875
1013.95561	4373.9875
1017.67255	4345.2875
1021.38692	4264.7875
1025.09872	4203.7875
1028.80796	4161.3875
1032.51465	4172.7875
1036.21877	4251.2875
1039.92035	4276.7875
1043.61937	4296.3875
1047.31584	4289.0875
1051.00976	4275.1875
1054.70114	4249.1875
1058.38998	4261.0875
1062.07627	4282.3875
1065.76003	4306.7875
1069.44126	4347.2875
1073.11995	4416.7875
1076.79611	4485.9875
1080.46974	4580.5875
1084.14085	4745.9875
1087.80943	4929.5875
1091.47549	5001.3875
1095.13903	4909.9875
1098.80005	4705.9875
1102.45857	4528.7875
1106.11456	4476.5875
1109.76805	4488.5875
1113.41903	4616.0875
1117.06751	4812.5875
1120.71348	5051.3875
1124.35696	5281.9875
1127.99793	5501.2875
1131.63641	5486.5875
1135.2724	5172.3875
1138.90589	4854.6875
1142.5369	4675.0875
1146.16542	4539.4875
1149.79145	4489.3875
1153.415	4482.7875
1157.03607	4539.5875
1160.65467	4643.9875
1164.27079	4843.7875
1167.88443	5162.5875
1171.49561	5667.9875
1175.10432	6554.9875
1178.71056	7719.7875
1182.31434	8513.1875
1185.91565	8633.2875
1189.51451	8313.5875
1193.11091	7640.5875
1196.70485	6896.7875
1200.29634	6405.8875
1203.88538	6040.3875
1207.47197	5608.1875
1211.05612	5249.2875
1214.63782	5041.7875
1218.21708	5012.0875
1221.79391	5023.6875
1225.36829	5064.7875
1228.94024	5130.1875
1232.50976	5184.5875
1236.07685	5259.0875
1239.6415	5324.1875
1243.20374	5404.1875
1246.76355	5518.4875
1250.32093	5705.7875
1253.8759	5926.5875
1257.42845	6203.8875
1260.97859	6441.5875
1264.52631	6668.6875
1268.07163	6813.5875
1271.61453	6946.4875
1275.15503	6981.8875
1278.69312	6900.1875
1282.22882	6784.6875
1285.76211	6867.1875
1289.29301	7021.7875
1292.82151	7211.2875
1296.34761	7397.5875
1299.87133	7786.4875
1303.39266	8451.5875
1306.9116	9570.5875
1310.42815	10865.7875
1313.94233	11701.2875
1317.45412	11498.3875
1320.96354	10631.1875
1324.47058	9767.0875
1327.97525	9013.0875
1331.47754	8215.8875
1334.97747	7937.8875
1338.47502	7961.9875
1341.97022	8115.8875
1345.46305	8469.3875
1348.95352	9020.6875
1352.44163	9818.6875
1355.92738	11011.4875
1359.41078	12927.0875
1362.89183	14845.5875
1366.37053	14449.0875
1369.84688	11970.1875
1373.32088	9568.8875
1376.79254	8149.6875
1380.26186	7597.8875
1383.72883	7469.4875
1387.19347	7454.3875
1390.65578	7167.1875
1394.11575	6653.9875
1397.57339	6267.7875
1401.0287	6079.0875
1404.48168	6054.1875
1407.93234	6115.3875
1411.38068	6167.6875
1414.82669	6173.4875
1418.27039	6024.4875
1421.71177	5879.3875
1425.15083	5732.1875
1428.58758	5620.2875
1432.02203	5625.6875
1435.45416	5665.9875
1438.88399	5728.9875
1442.31151	5749.7875
1445.73673	5928.3875
1449.15965	6014.2875
1452.58027	5822.9875
1455.9986	5698.1875
1459.41463	5708.0875
1462.82837	5743.6875
1466.23982	5873.0875
1469.64898	6033.2875
1473.05586	6143.9875
1476.46045	6239.8875
1479.86276	6383.0875
1483.26279	6568.2875
1486.66054	6810.4875
1490.05602	7088.2875
1493.44922	7491.0875
1496.84016	8079.5875
1500.22882	9058.3875
1503.61521	10333.7875
1506.99934	11857.9875
1510.38121	13332.8875
1513.76081	14064.8875
1517.13816	13452.9875
1520.51324	11654.5875
1523.88607	9794.3875
1527.25665	8459.2875
1530.62498	7665.3875
1533.99105	7200.9875
1537.35488	6875.1875
1540.71647	6675.8875
1544.07581	6579.3875
1547.4329	6542.7875
1550.78776	6501.7875
1554.14038	6505.7875
1557.49077	6614.9875
1560.83892	6797.2875
1564.18484	7071.4875
1567.52853	7314.6875
1570.86999	7537.6875
1574.20922	7690.2875
1577.54624	7612.3875
1580.88103	7209.2875
1584.2136	6626.4875
1587.54395	6338.4875
1590.87208	6454.0875
1594.19801	6874.0875
1597.52172	7477.2875
1600.84321	7705.4875
1604.16251	7335.8875
1607.47959	6801.4875
1610.79447	6249.3875
1614.10715	5755.2875
1617.41763	5375.5875
1620.7259	5193.5875
1624.03199	5139.0875
1627.33587	5236.7875
1630.63757	5474.6875
1633.93707	5884.1875
1637.23439	6475.1875
1640.52951	7273.9875
1643.82246	8350.9875
1647.11321	9728.1875
1650.40179	10891.9875
1653.68819	11132.5875
1656.97241	9950.9875
1660.25446	8445.0875
1663.53433	7313.2875
1666.81203	6544.1875
1670.08756	5881.6875
1673.36092	5352.9875
1676.63211	4922.5875
1679.90115	4667.3875
1683.16801	4555.3875
1686.43272	4535.4875
1689.69527	4765.6875
1692.95567	5311.3875
1696.2139	6257.4875
1699.46999	7147.2875
1702.72392	7191.8875
1705.97571	6313.4875
1709.22535	5299.5875
1712.47284	4623.7875
1715.71819	4228.0875
1718.96139	4029.4875
1722.20246	3912.8875
1725.44139	3822.0875
1728.67818	3760.2875
1731.91284	3728.1875
1735.14537	3712.5875
1738.37576	3745.7875
1741.60403	3800.1875
1744.83017	3902.4875
1748.05418	4048.6875
1751.27607	4351.1875
1754.49584	4837.5875
1757.71349	5402.8875
1760.92903	5710.9875
1764.14244	5648.7875
1767.35375	5579.5875
1770.56294	5597.9875
1773.77002	5300.7875
1776.97499	4680.9875
1780.17785	4145.7875
1783.37861	3788.3875
1786.57727	3589.3875
1789.77382	3470.4875
1792.96828	3377.4875
1796.16064	3345.4875
1799.3509	3305.9875
1802.53907	3276.5875
1805.72514	3228.4875
1808.90913	3213.8875
1812.09102	3204.2875
1815.27083	3171.1875
1818.44856	3161.6875
1821.6242	3127.1875
1824.79776	3118.7875
1827.96924	3116.3875
1831.13864	3110.8875
1834.30597	3095.8875
1837.47122	3093.9875
1840.6344	3085.4875
1843.7955	3086.9875
1846.95454	3087.6875
1850.11151	3076.6875
1853.26642	3080.9875
1856.41926	3075.2875
1859.57004	3072.9875
1862.71876	3072.9875
1865.86542	3067.4875
1869.01003	3066.9875
1872.15258	3078.3875
1875.29308	3082.9875
1878.43152	3070.9875
1881.56792	3080.5875
1884.70227	3065.1875
1887.83457	3075.0875
1890.96482	3067.4875
1894.09304	3077.4875
1897.21921	3078.3875
1900.34335	3071.6875
1903.46544	3079.3875
1906.58551	3069.0875
1909.70353	3092.7875
1912.81953	3084.4875
1915.93349	3070.1875
1919.04543	3077.8875
1922.15534	3076.9875
1925.26322	3068.1875
1928.36908	3052.4875
1931.47292	3035.4875
1934.57473	3014.6875
1937.67453	3000.9875
1940.77232	2981.1875
1943.86808	2970.4875
1946.96184	2960.1875
1950.05358	2937.3875
1953.14331	2915.8875
1956.23103	2903.7875
1959.31675	2897.5875
1962.40046	2886.6875
1965.48217	2875.2875
1968.56188	2872.5875
1971.63959	2867.9875
1974.7153	2847.4875
1977.78901	2839.8875
1980.86073	2817.9875
1983.93046	2813.0875
1986.99819	2807.7875
1990.06394	2802.2875
1993.1277	2777.1875
1996.18947	2760.8875
1999.24925	2764.0875
2002.30706	2770.5875
2005.36288	2761.1875
2008.41672	2748.4875
2011.46859	2734.9875
2014.51848	2734.8875
2017.56639	2726.2875
2020.61233	2707.4875
2023.6563	2697.5875
2026.6983	2689.4875
2029.73833	2687.4875
2032.7764	2680.1875
2035.8125	2656.7875
2038.84664	2655.9875
2041.87881	2651.9875
2044.90903	2660.3875
2047.93729	2646.8875
2050.96359	2664.0875
2053.98794	2700.9875
2057.01034	2663.1875
2060.03078	2635.2875
2063.04927	2631.1875
2066.06582	2629.3875
2069.08042	2622.0875
2072.09307	2604.4875
2075.10378	2618.8875
2078.11255	2613.3875
2081.11938	2604.0875
2084.12426	2602.0875
2087.12722	2616.2875
2090.12824	2604.1875
2093.12732	2598.4875
2096.12447	2596.1875
2099.11969	2601.3875
2102.11299	2587.4875
2105.10435	2595.9875
2108.09379	2598.5875
2111.08131	2593.9875
2114.0669	2597.8875
2117.05057	2597.5875
2120.03233	2596.2875
2123.01216	2606.2875
2125.99008	2605.1875
2128.96609	2611.8875
2131.94018	2617.5875
2134.91236	2606.8875
2137.88263	2601.6875
2140.851	2596.2875
2143.81746	2608.0875
2146.78201	2599.2875
2149.74466	2595.2875
2152.7054	2584.8875
2155.66425	2578.7875
2158.6212	2573.0875
2161.57625	2580.6875
2164.52941	2571.2875
2167.48067	2567.9875
2170.43004	2572.1875
2173.37752	2577.0875
2176.32311	2574.6875
2179.26681	2574.1875
2182.20863	2578.0875
2185.14856	2571.8875
2188.08661	2569.5875
2191.02278	2566.1875
2193.95707	2565.2875
2196.88948	2547.2875
2199.82001	2540.3875
2202.74867	2551.1875
2205.67545	2543.6875
2208.60037	2538.9875
2211.52341	2548.0875
2214.44458	2545.1875
2217.36388	2534.5875
2220.28132	2521.2875
2223.1969	2523.4875
2226.11061	2516.5875
2229.02246	2514.8875
2231.93245	2511.4875
2234.84058	2493.6875
2237.74686	2495.9875
2240.65128	2484.8875
2243.55385	2488.3875
2246.45456	2487.0875
2249.35343	2483.0875
2252.25044	2500.2875
2255.14561	2502.8875
2258.03893	2648.3875
2260.93041	2860.7875
2263.82004	2663.1875
2266.70783	2562.0875
2269.59378	2514.3875
2272.4779	2479.0875
2275.36017	2438.2875
2278.24061	2444.8875
2281.11922	2434.2875
2283.996	2433.4875
2286.87094	2429.8875
2289.74405	2430.0875
2292.61534	2421.9875
2295.4848	2414.6875
2298.35243	2420.5875
2301.21824	2415.5875
2304.08223	2409.6875
2306.94439	2413.7875
2309.80474	2432.9875
2312.66327	2426.1875
2315.51999	2423.4875
2318.37489	2429.5875
2321.22797	2425.4875
2324.07925	2448.8875
2326.92871	2434.5875
2329.77637	2452.5875
2332.62222	2453.8875
2335.46626	2450.2875
2338.3085	2466.6875
2341.14893	2472.6875
2343.98756	2464.8875
2346.8244	2465.2875
2349.65943	2448.6875
2352.49267	2443.0875
2355.32411	2429.6875
2358.15376	2436.9875
2360.98161	2436.0875
2363.80768	2427.5875
2366.63195	2439.7875
2369.45444	2422.1875
2372.27514	2411.1875
2375.09405	2410.9875
2377.91118	2402.1875
2380.72652	2391.8875
2383.54009	2364.4875
2386.35187	2371.5875
2389.16188	2353.5875
2391.97011	2339.6875
2394.77657	2336.6875
2397.58125	2330.6875
2400.38416	2329.5875
2403.18529	2332.5875
2405.98466	2327.9875
2408.78226	2316.1875
2411.57809	2324.5875
2414.37216	2330.0875
2417.16446	2326.1875
2419.955	2312.6875
2422.74378	2321.7875
2425.5308	2293.6875
2428.31606	2296.6875
2431.09956	2294.1875
2433.88131	2286.2875
2436.6613	2294.6875
2439.43954	2283.0875
2442.21603	2284.0875
2444.99077	2283.0875
2447.76377	2284.6875
2450.53501	2283.1875
2453.30451	2291.6875
2456.07226	2281.9875
2458.83827	2282.9875
2461.60254	2275.9875
2464.36507	2282.3875
2467.12586	2261.2875
2469.88492	2276.9875
2472.64224	2305.6875
2475.39782	2493.5875
2478.15167	2545.1875
2480.90379	2402.0875
2483.65417	2375.9875
2486.40283	2354.1875
2489.14976	2342.3875
2491.89497	2361.8875
2494.63845	2591.3875
2497.3802	2615.2875
2500.12024	2436.9875
2502.85855	2376.9875
2505.59514	2350.5875
2508.33002	2309.8875
2511.06318	2274.0875
2513.79462	2266.0875
2516.52435	2250.8875
2519.25237	2250.1875
2521.97867	2244.6875
2524.70327	2235.7875
2527.42616	2220.0875
2530.14734	2216.6875
2532.86681	2213.0875
2535.58458	2223.6875
2538.30065	2222.7875
2541.01501	2217.7875
2543.72768	2222.7875
2546.43864	2223.3875
2549.14791	2214.2875
2551.85548	2227.6875
2554.56136	2206.2875
2557.26554	2203.7875
2559.96803	2202.3875
2562.66883	2198.8875
2565.36794	2192.2875
2568.06536	2195.2875
2570.7611	2189.0875
2573.45514	2184.8875
2576.14751	2184.4875
2578.83819	2184.2875
2581.52719	2171.0875
2584.21451	2166.9875
2586.90015	2168.0875
2589.58411	2155.0875
2592.2664	2178.7875
2594.94701	2159.7875
2597.62594	2162.6875
2600.30321	2163.6875
2602.9788	2163.4875
2605.65273	2163.7875
2608.32498	2163.1875
2610.99557	2161.2875
2613.66449	2160.3875
2616.33175	2162.2875
2618.99734	2162.5875
2621.66128	2158.5875
2624.32355	2169.8875
2626.98416	2152.7875
2629.64311	2142.0875
2632.30041	2138.4875
2634.95605	2131.5875
2637.61004	2127.9875
2640.26238	2119.8875
2642.91306	2107.7875
2645.56209	2128.7875
2648.20948	2176.1875
2650.85521	2137.8875
2653.4993	2120.1875
2656.14175	2116.1875
2658.78255	2117.6875
2661.42171	2107.4875
2664.05923	2104.6875
2666.6951	2123.7875
2669.32934	2120.5875
2671.96194	2125.7875
2674.59291	2129.2875
2677.22224	2135.1875
2679.84993	2143.3875
2682.476	2140.5875
2685.10043	2129.3875
2687.72324	2126.2875
2690.34441	2144.5875
2692.96396	2128.4875
2695.58188	2127.4875
2698.19818	2140.3875
2700.81285	2179.7875
2703.4259	2681.6875
2706.03733	3580.1875
2708.64714	2918.2875
2711.25533	2548.2875
2713.86191	2411.4875
2716.46687	2339.6875
2719.07021	2263.8875
2721.67194	2186.5875
2724.27206	2154.0875
2726.87057	2148.7875
2729.46747	2131.7875
2732.06276	2135.2875
2734.65644	2138.0875
2737.24852	2124.7875
2739.83899	2121.9875
2742.42786	2123.1875
2745.01513	2125.2875
2747.60079	2112.5875
2750.18486	2103.5875
2752.76733	2110.5875
2755.3482	2110.0875
2757.92747	2106.7875
2760.50515	2111.1875
2763.08123	2089.5875
2765.65573	2090.2875
2768.22863	2090.6875
2770.79994	2093.5875
2773.36967	2089.6875
2775.9378	2080.3875
2778.50435	2083.7875
2781.06932	2095.1875
2783.6327	2090.8875
2786.1945	2085.6875
2788.75471	2085.0875
2791.31335	2093.5875
2793.87041	2087.9875
2796.42589	2085.5875
2798.97979	2088.6875
2801.53212	2081.0875
2804.08288	2080.0875
2806.63206	2084.3875
2809.17967	2085.3875
2811.72571	2087.6875
2814.27018	2081.7875
2816.81308	2079.5875
2819.35442	2074.9875
2821.89419	2077.3875
2824.43239	2077.5875
2826.96904	2080.9875
2829.50412	2077.2875
2832.03763	2090.3875
2834.56959	2083.0875
2837.1	2082.5875
2839.62884	2093.6875
2842.15613	2089.2875
2844.68186	2103.3875
2847.20604	2125.0875
2849.72867	2148.1875
2852.24974	2160.9875
2854.76927	2365.5875
2857.28724	2582.9875
2859.80367	2349.9875
2862.31855	2263.2875
2864.83189	2246.7875
2867.34368	2210.9875
2869.85393	2165.7875
2872.36264	2144.4875
2874.8698	2130.2875
2877.37543	2124.1875
2879.87952	2116.2875
2882.38207	2113.3875
2884.88308	2099.2875
2887.38256	2095.0875
2889.88051	2098.8875
2892.37692	2100.4875
2894.8718	2096.5875
2897.36515	2104.3875
2899.85698	2095.9875
2902.34727	2091.8875
2904.83604	2099.7875
2907.32328	2111.4875
2909.809	2093.2875
2912.29319	2109.9875
2914.77587	2097.0875
2917.25702	2094.8875
2919.73665	2099.9875
2922.21476	2102.1875
2924.69136	2094.7875
2927.16644	2092.9875
2929.64	2087.1875
2932.11205	2090.1875
2934.58258	2070.2875
2937.05161	2077.3875
2939.51912	2067.0875
2941.98513	2059.5875
2944.44962	2042.1875
2946.91261	2030.0875
2949.37409	2029.0875
2951.83407	2028.9875
2954.29254	2019.3875
2956.74951	2016.4875
2959.20498	2016.9875
2961.65895	2000.0875
2964.11142	2002.6875
2966.56239	1994.5875
2969.01186	1988.2875
2971.45984	1992.8875
2973.90632	1986.9875
2976.35131	1982.2875
2978.7948	1987.4875
2981.23681	1972.2875
2983.67732	1976.0875
2986.11635	1973.8875
2988.55388	1959.9875
2990.98993	1950.9875
2993.4245	1944.3875
2995.85758	1944.1875
2998.28917	1940.0875
3000.71928	1934.1875
3003.14791	1935.0875
3005.57506	1937.8875
3008.00073	1929.5875
3010.42493	1812.6875
3012.84764	1918.6875
3015.26888	1909.1875
3017.68865	1907.6875
3020.10694	1913.4875
3022.52376	1904.5875
3024.9391	1902.8875
3027.35298	1907.7875
3029.76539	1899.5875
3032.17632	1895.4875
3034.5858	1897.8875
3036.9938	1890.5875
3039.40034	1887.3875
3041.80542	1887.3875
3044.20903	1876.6875
3046.61118	1881.8875
3049.01187	1882.8875
3051.4111	1879.2875
3053.80888	1869.1875
3056.20519	1864.7875
3058.60005	1857.0875
3060.99345	1856.2875
3063.3854	1855.6875
3065.7759	1849.8875
3068.16494	1841.1875
3070.55254	1847.8875
3072.93868	1836.7875
3075.32338	1834.6875
3077.70662	1829.7875
3080.08842	1818.6875
3082.46878	1815.1875
3084.84769	1807.0875
3087.22515	1805.9875
3089.60118	1809.7875
3091.97576	1809.5875
3094.3489	1797.2875
3096.72061	1812.4875
3099.09087	1806.4875
3101.4597	1808.3875
3103.82709	1801.4875
3106.19305	1794.1875
3108.55757	1800.8875
3110.92066	1795.6875
3113.28232	1786.4875
3115.64255	1787.5875
3118.00134	1775.6875
3120.35871	1777.5875
3122.71466	1784.1875
