Data from AgNP_FTO_APTES_UA_10uM_CRN_200uM_R6G_10uM_NaF_0.1M_Addition_RamanShift__11__18-13-30-891.txt Node

Date: Thu Feb 10 18:13:30 GMT 2022
User: TCL
Spectrometer: QEP01345
Trigger mode: 4
Integration Time (sec): 7.000000E0
Scans to average: 10
Electric dark correction enabled: true
Nonlinearity correction enabled: false
Boxcar width: 0
XAxis mode: Raman Shifts
Number of Pixels in Spectrum: 1044
>>>>>Begin Spectral Data<<<<<
46.04893	0.725
50.45542	-0.675
54.85868	-2.175
59.25871	-0.075
63.6555	53.425
68.04907	55.525
72.43941	58.525
76.82654	55.525
81.21044	62.725
85.59113	62.525
89.96862	68.325
94.34289	68.225
98.71396	73.125
103.08183	79.425
107.4465	77.525
111.80798	76.925
116.16626	79.325
120.52136	83.325
124.87327	89.325
129.222	85.825
133.56755	94.125
137.90993	99.225
142.24913	106.025
146.58517	117.525
150.91804	137.525
155.24774	159.525
159.57429	196.025
163.89768	237.425
168.21792	320.525
172.53501	426.725
176.84895	601.525
181.15975	847.225
185.46741	1189.125
189.77193	1647.825
194.07331	2204.925
198.37157	2843.125
202.6667	3506.025
206.9587	4143.225
211.24758	4814.225
215.53334	5461.025
219.81599	6108.925
224.09553	6843.725
228.37195	7625.425
232.64527	8519.025
236.91549	9454.225
241.18261	10441.325
245.44663	11393.625
249.70755	12257.925
253.96539	13041.725
258.22014	13673.925
262.4718	14196.725
266.72039	14552.125
270.96589	14756.825
275.20832	14801.125
279.44768	14749.525
283.68397	14626.125
287.91719	14514.725
292.14735	14386.025
296.37445	14352.025
300.59849	14373.625
304.81948	14349.425
309.03742	14281.225
313.25231	14199.525
317.46415	14010.825
321.67296	13794.125
325.87872	13580.425
330.08145	13524.725
334.28114	13528.725
338.47781	13632.825
342.67145	13750.925
346.86207	13929.225
351.04966	14109.725
355.23424	14238.625
359.4158	14457.925
363.59435	14573.025
367.76989	14719.925
371.94243	14795.725
376.11196	14899.125
380.27849	14990.325
384.44203	15063.125
388.60257	15161.625
392.76012	15296.125
396.91468	15481.225
401.06626	15675.925
405.21485	15808.525
409.36047	15789.625
413.50311	15703.325
417.64277	15660.525
421.77947	15719.725
425.9132	15793.425
430.04396	15888.425
434.17176	15975.025
438.2966	16056.725
442.41849	16211.625
446.53742	16451.425
450.6534	16693.225
454.76644	16876.825
458.87653	16995.825
462.98368	16990.825
467.08789	16942.725
471.18916	16833.225
475.2875	16764.325
479.38291	16709.225
483.4754	16650.125
487.56496	16532.725
491.6516	16424.025
495.73531	16236.825
499.81612	16159.025
503.89401	16217.225
507.96899	16282.125
512.04106	16328.325
516.11023	16299.425
520.1765	16197.725
524.23987	16111.725
528.30034	15962.225
532.35792	15916.125
536.41261	15833.525
540.46441	15764.625
544.51333	15782.825
548.55936	15908.525
552.60252	16141.825
556.64279	16366.725
560.6802	16553.925
564.71473	16655.625
568.7464	16778.925
572.7752	17117.725
576.80114	17488.225
580.82422	17887.225
584.84444	18196.025
588.86181	18588.025
592.87633	18876.725
596.888	18822.725
600.89682	18382.125
604.9028	18254.925
608.90594	18783.625
612.90624	19514.425
616.90371	18694.425
620.89834	17009.225
624.89015	16285.225
628.87913	16225.425
632.86528	16377.825
636.84862	16437.425
640.82913	16297.425
644.80683	16090.725
648.78172	15916.425
652.75379	15909.325
656.72306	16016.125
660.68952	16146.925
664.65319	16135.525
668.61405	15972.725
672.57211	15964.825
676.52738	16042.525
680.47986	16034.625
684.42955	16027.725
688.37646	15954.125
692.32058	16002.825
696.26192	16090.525
700.20048	16249.225
704.13626	16350.725
708.06928	16402.525
711.99952	16389.225
715.927	16349.325
719.85171	16305.025
723.77365	16271.025
727.69284	16155.825
731.60928	16026.525
735.52295	15948.825
739.43388	15953.025
743.34206	15972.025
747.24749	16018.625
751.15017	16136.825
755.05012	16286.825
758.94733	16581.125
762.8418	17022.125
766.73354	17705.725
770.62254	18344.225
774.50882	18441.925
778.39237	17998.025
782.27321	17254.025
786.15132	16652.425
790.02671	16240.025
793.89938	16040.925
797.76935	15937.225
801.6366	15903.725
805.50115	15865.425
809.36299	15829.825
813.22213	15791.125
817.07857	15720.925
820.93231	15755.425
824.78336	15700.625
828.63172	15654.325
832.47738	15658.125
836.32036	15615.925
840.16066	15610.425
843.99827	15636.925
847.8332	15653.725
851.66546	15671.025
855.49504	15682.625
859.32195	15685.725
863.1462	15688.625
866.96777	15652.725
870.78668	15633.025
874.60293	15663.525
878.41652	15665.125
882.22745	15695.725
886.03573	15713.025
889.84136	15713.425
893.64433	15734.725
897.44466	15679.525
901.24235	15669.425
905.0374	15605.225
908.8298	15623.125
912.61957	15615.525
916.40671	15733.025
920.19121	15836.825
923.97308	15893.825
927.75233	15883.425
931.52895	15784.025
935.30295	15606.125
939.07433	15464.525
942.84309	15329.525
946.60924	15227.125
950.37278	15163.725
954.13371	15157.125
957.89203	15124.425
961.64774	15131.725
965.40086	15114.025
969.15137	15093.725
972.89929	15044.325
976.64461	15011.725
980.38733	14968.925
984.12747	14997.225
987.86502	15001.425
991.59999	15038.125
995.33237	15073.125
999.06217	15173.825
1002.78939	15282.425
1006.51404	15432.725
1010.23611	15574.425
1013.95561	15678.425
1017.67255	15706.925
1021.38692	15682.325
1025.09872	15583.125
1028.80796	15456.725
1032.51465	15386.125
1036.21877	15385.425
1039.92035	15410.725
1043.61937	15463.825
1047.31584	15511.625
1051.00976	15535.925
1054.70114	15648.225
1058.38998	15722.625
1062.07627	15846.225
1065.76003	16003.025
1069.44126	16129.425
1073.11995	16254.225
1076.79611	16362.025
1080.46974	16430.725
1084.14085	16440.825
1087.80943	16515.625
1091.47549	16611.425
1095.13903	16646.225
1098.80005	16579.025
1102.45857	16376.325
1106.11456	16151.625
1109.76805	15999.225
1113.41903	15964.525
1117.06751	15992.925
1120.71348	16104.325
1124.35696	16207.125
1127.99793	16374.525
1131.63641	16493.925
1135.2724	16388.825
1138.90589	16320.425
1142.5369	16295.525
1146.16542	16338.725
1149.79145	16420.225
1153.415	16515.825
1157.03607	16636.825
1160.65467	16858.525
1164.27079	17297.425
1167.88443	17781.525
1171.49561	18362.925
1175.10432	18995.025
1178.71056	19807.925
1182.31434	20620.425
1185.91565	21137.625
1189.51451	21283.725
1193.11091	21193.225
1196.70485	20792.525
1200.29634	20335.525
1203.88538	19954.225
1207.47197	19631.825
1211.05612	19443.925
1214.63782	19184.125
1218.21708	18780.825
1221.79391	18394.725
1225.36829	18058.625
1228.94024	17870.125
1232.50976	17776.925
1236.07685	17699.425
1239.6415	17705.725
1243.20374	17716.925
1246.76355	17793.725
1250.32093	17937.325
1253.8759	18115.425
1257.42845	18390.225
1260.97859	18757.025
1264.52631	19064.125
1268.07163	19376.525
1271.61453	19686.625
1275.15503	19931.825
1278.69312	20266.725
1282.22882	20589.425
1285.76211	21051.425
1289.29301	21510.025
1292.82151	22197.925
1296.34761	22948.325
1299.87133	23782.825
1303.39266	24625.525
1306.9116	25273.725
1310.42815	25807.925
1313.94233	26022.125
1317.45412	25978.125
1320.96354	25748.025
1324.47058	25561.425
1327.97525	25452.525
1331.47754	25411.825
1334.97747	25379.125
1338.47502	25434.025
1341.97022	25514.725
1345.46305	25585.625
1348.95352	25516.325
1352.44163	25522.325
1355.92738	25602.125
1359.41078	25934.925
1362.89183	26168.825
1366.37053	25705.425
1369.84688	24374.125
1373.32088	22630.425
1376.79254	21382.325
1380.26186	20880.225
1383.72883	20775.425
1387.19347	20721.625
1390.65578	20604.825
1394.11575	20512.525
1397.57339	20553.525
1401.0287	20673.825
1404.48168	20732.625
1407.93234	20606.325
1411.38068	20293.225
1414.82669	19810.925
1418.27039	19209.425
1421.71177	18715.125
1425.15083	18267.325
1428.58758	18032.625
1432.02203	18079.925
1435.45416	18306.525
1438.88399	18600.425
1442.31151	18847.625
1445.73673	18989.225
1449.15965	19125.325
1452.58027	19219.425
1455.9986	19288.725
1459.41463	19429.225
1462.82837	19618.725
1466.23982	19872.625
1469.64898	20088.225
1473.05586	20217.625
1476.46045	20232.725
1479.86276	20204.925
1483.26279	20105.125
1486.66054	20089.525
1490.05602	20172.325
1493.44922	20391.425
1496.84016	20686.325
1500.22882	21187.125
1503.61521	21788.025
1506.99934	22413.925
1510.38121	22826.325
1513.76081	22873.225
1517.13816	22600.025
1520.51324	22208.225
1523.88607	21884.125
1527.25665	21712.725
1530.62498	21621.625
1533.99105	21503.425
1537.35488	21295.525
1540.71647	20906.025
1544.07581	20520.025
1547.4329	20099.425
1550.78776	19735.925
1554.14038	19457.525
1557.49077	19296.525
1560.83892	19238.025
1564.18484	19242.225
1567.52853	19268.125
1570.86999	19371.425
1574.20922	19622.425
1577.54624	19825.925
1580.88103	19847.025
1584.2136	19823.125
1587.54395	20026.325
1590.87208	20452.225
1594.19801	21074.825
1597.52172	21727.925
1600.84321	21885.025
1604.16251	21363.625
1607.47959	20447.225
1610.79447	19458.425
1614.10715	18423.125
1617.41763	17591.225
1620.7259	16881.725
1624.03199	16461.125
1627.33587	16393.425
1630.63757	16533.725
1633.93707	17030.725
1637.23439	17984.225
1640.52951	19360.725
1643.82246	21092.525
1647.11321	22650.125
1650.40179	23169.525
1653.68819	22384.325
1656.97241	20584.025
1660.25446	18558.325
1663.53433	16978.625
1666.81203	15826.325
1670.08756	15093.925
1673.36092	14620.425
1676.63211	14315.925
1679.90115	14061.825
1683.16801	13880.825
1686.43272	13784.725
1689.69527	13685.025
1692.95567	13652.525
1696.2139	13588.725
1699.46999	13569.525
1702.72392	13521.625
1705.97571	13478.825
1709.22535	13422.525
1712.47284	13398.525
1715.71819	13388.325
1718.96139	13347.925
1722.20246	13320.025
1725.44139	13315.225
1728.67818	13229.525
1731.91284	13147.325
1735.14537	13114.225
1738.37576	13058.725
1741.60403	13046.025
1744.83017	13001.125
1748.05418	12980.425
1751.27607	12930.125
1754.49584	12941.025
1757.71349	12966.325
1760.92903	12945.225
1764.14244	12890.125
1767.35375	12902.925
1770.56294	12870.925
1773.77002	12854.025
1776.97499	12835.625
1780.17785	12799.725
1783.37861	12776.025
1786.57727	12722.925
1789.77382	12693.725
1792.96828	12673.525
1796.16064	12645.525
1799.3509	12626.225
1802.53907	12592.825
1805.72514	12569.325
1808.90913	12533.125
1812.09102	12500.525
1815.27083	12464.425
1818.44856	12462.125
1821.6242	12442.225
1824.79776	12410.525
1827.96924	12391.825
1831.13864	12373.825
1834.30597	12370.325
1837.47122	12359.325
1840.6344	12355.225
1843.7955	12355.525
1846.95454	12298.725
1850.11151	12277.025
1853.26642	12299.325
1856.41926	12311.725
1859.57004	12313.225
1862.71876	12269.225
1865.86542	12250.625
1869.01003	12236.625
1872.15258	12227.525
1875.29308	12187.725
1878.43152	12179.925
1881.56792	12160.525
1884.70227	12148.725
1887.83457	12119.025
1890.96482	12079.025
1894.09304	12061.725
1897.21921	12051.625
1900.34335	12039.625
1903.46544	12006.125
1906.58551	12011.225
1909.70353	11961.625
1912.81953	11972.325
1915.93349	11981.125
1919.04543	11936.425
1922.15534	11888.125
1925.26322	11836.625
1928.36908	11832.525
1931.47292	11822.425
1934.57473	11776.725
1937.67453	11752.425
1940.77232	11738.325
1943.86808	11725.025
1946.96184	11681.925
1950.05358	11635.225
1953.14331	11579.125
1956.23103	11568.925
1959.31675	11537.525
1962.40046	11486.425
1965.48217	11450.525
1968.56188	11414.925
1971.63959	11396.725
1974.7153	11358.325
1977.78901	11326.125
1980.86073	11296.425
1983.93046	11252.325
1986.99819	11224.225
1990.06394	11212.325
1993.1277	11188.325
1996.18947	11117.625
1999.24925	11097.625
2002.30706	11052.725
2005.36288	11011.025
2008.41672	10977.825
2011.46859	10939.325
2014.51848	10928.225
2017.56639	10904.725
2020.61233	10857.525
2023.6563	10853.725
2026.6983	10799.025
2029.73833	10763.525
2032.7764	10717.625
2035.8125	10712.625
2038.84664	10683.625
2041.87881	10651.025
2044.90903	10622.225
2047.93729	10609.325
2050.96359	10591.425
2053.98794	10580.325
2057.01034	10571.025
2060.03078	10559.725
2063.04927	10542.925
2066.06582	10549.825
2069.08042	10513.825
2072.09307	10525.725
2075.10378	10531.625
2078.11255	10505.425
2081.11938	10511.025
2084.12426	10516.825
2087.12722	10498.725
2090.12824	10494.425
2093.12732	10469.425
2096.12447	10477.425
2099.11969	10472.725
2102.11299	10477.625
2105.10435	10452.525
2108.09379	10446.625
2111.08131	10474.025
2114.0669	10473.225
2117.05057	10463.325
2120.03233	10480.425
2123.01216	10482.125
2125.99008	10491.425
2128.96609	10483.025
2131.94018	10524.825
2134.91236	10491.025
2137.88263	10498.525
2140.851	10495.625
2143.81746	10526.325
2146.78201	10473.825
2149.74466	10501.625
2152.7054	10514.525
2155.66425	10501.625
2158.6212	10506.225
2161.57625	10482.225
2164.52941	10485.125
2167.48067	10491.125
2170.43004	10468.125
2173.37752	10465.825
2176.32311	10452.225
2179.26681	10459.625
2182.20863	10460.725
2185.14856	10470.025
2188.08661	10420.325
2191.02278	10452.925
2193.95707	10452.925
2196.88948	10421.025
2199.82001	10409.425
2202.74867	10397.725
2205.67545	10377.625
2208.60037	10340.325
2211.52341	10324.725
2214.44458	10319.125
2217.36388	10310.725
2220.28132	10268.825
2223.1969	10249.325
2226.11061	10240.925
2229.02246	10199.025
2231.93245	10188.325
2234.84058	10172.525
2237.74686	10144.225
2240.65128	10150.725
2243.55385	10104.025
2246.45456	10088.825
2249.35343	10067.625
2252.25044	10070.025
2255.14561	10059.425
2258.03893	10039.325
2260.93041	10024.525
2263.82004	9998.525
2266.70783	9952.325
2269.59378	9918.525
2272.4779	9890.325
2275.36017	9862.525
2278.24061	9837.925
2281.11922	9831.325
2283.996	9817.825
2286.87094	9808.725
2289.74405	9788.325
2292.61534	9780.725
2295.4848	9780.225
2298.35243	9752.925
2301.21824	9729.725
2304.08223	9739.225
2306.94439	9736.125
2309.80474	9725.625
2312.66327	9715.125
2315.51999	9680.225
2318.37489	9677.125
2321.22797	9671.425
2324.07925	9633.025
2326.92871	9617.425
2329.77637	9616.925
2332.62222	9590.725
2335.46626	9561.625
2338.3085	9548.825
2341.14893	9547.025
2343.98756	9545.525
2346.8244	9524.125
2349.65943	9530.025
2352.49267	9527.625
2355.32411	9511.125
2358.15376	9484.625
2360.98161	9503.225
2363.80768	9487.925
2366.63195	9463.725
2369.45444	9474.525
2372.27514	9453.925
2375.09405	9429.825
2377.91118	9452.125
2380.72652	9401.325
2383.54009	9377.125
2386.35187	9356.225
2389.16188	9320.025
2391.97011	9310.625
2394.77657	9263.725
2397.58125	9251.325
2400.38416	9252.425
2403.18529	9220.225
2405.98466	9213.125
2408.78226	9208.425
2411.57809	9173.525
2414.37216	9170.125
2417.16446	9155.425
2419.955	9155.525
2422.74378	9142.525
2425.5308	9143.025
2428.31606	9124.425
2431.09956	9114.725
2433.88131	9118.425
2436.6613	9101.125
2439.43954	9089.125
2442.21603	9079.425
2444.99077	9070.025
2447.76377	9062.525
2450.53501	9032.225
2453.30451	9034.125
2456.07226	9008.125
2458.83827	9019.325
2461.60254	9014.725
2464.36507	9001.225
2467.12586	8981.125
2469.88492	8988.825
2472.64224	8941.925
2475.39782	8952.725
2478.15167	8972.625
2480.90379	8923.825
2483.65417	8958.025
2486.40283	8954.525
2489.14976	8936.025
2491.89497	8922.825
2494.63845	8919.625
2497.3802	8918.025
2500.12024	8908.925
2502.85855	8874.625
2505.59514	8873.825
2508.33002	8857.325
2511.06318	8830.725
2513.79462	8856.425
2516.52435	8832.625
2519.25237	8821.425
2521.97867	8801.525
2524.70327	8777.925
2527.42616	8773.825
2530.14734	8804.625
2532.86681	8771.925
2535.58458	8781.725
2538.30065	8761.025
2541.01501	8757.225
2543.72768	8717.225
2546.43864	8728.425
2549.14791	8700.125
2551.85548	8707.525
2554.56136	8657.125
2557.26554	8663.225
2559.96803	8619.525
2562.66883	8604.425
2565.36794	8565.825
2568.06536	8570.225
2570.7611	8553.425
2573.45514	8540.225
2576.14751	8511.725
2578.83819	8505.725
2581.52719	8498.625
2584.21451	8483.525
2586.90015	8468.325
2589.58411	8459.825
2592.2664	8443.425
2594.94701	8440.025
2597.62594	8413.925
2600.30321	8394.925
2602.9788	8392.925
2605.65273	8354.625
2608.32498	8349.325
2610.99557	8341.525
2613.66449	8330.125
2616.33175	8320.925
2618.99734	8310.925
2621.66128	8295.225
2624.32355	8282.825
2626.98416	8269.125
2629.64311	8253.725
2632.30041	8241.125
2634.95605	8214.725
2637.61004	8208.025
2640.26238	8187.125
2642.91306	8192.125
2645.56209	8193.825
2648.20948	8218.925
2650.85521	8204.625
2653.4993	8171.025
2656.14175	8205.325
2658.78255	8179.625
2661.42171	8169.825
2664.05923	8199.725
2666.6951	8202.725
2669.32934	8196.425
2671.96194	8191.925
2674.59291	8166.525
2677.22224	8190.125
2679.84993	8174.225
2682.476	8160.025
2685.10043	8156.925
2687.72324	8137.925
2690.34441	8150.725
2692.96396	8145.225
2695.58188	8123.625
2698.19818	8136.325
2700.81285	8143.325
2703.4259	8142.825
2706.03733	8149.325
2708.64714	8141.125
2711.25533	8169.025
2713.86191	8125.725
2716.46687	8130.825
2719.07021	8128.625
2721.67194	8119.125
2724.27206	8134.125
2726.87057	8133.725
2729.46747	8118.525
2732.06276	8138.625
2734.65644	8110.925
2737.24852	8120.325
2739.83899	8105.525
2742.42786	8105.125
2745.01513	8076.425
2747.60079	8074.825
2750.18486	8035.125
2752.76733	8030.025
2755.3482	8026.825
2757.92747	8004.125
2760.50515	8013.625
2763.08123	7969.525
2765.65573	7966.425
2768.22863	7973.325
2770.79994	7958.825
2773.36967	7957.625
2775.9378	7941.025
2778.50435	7936.225
2781.06932	7909.325
2783.6327	7938.725
2786.1945	7939.825
2788.75471	7895.025
2791.31335	7887.125
2793.87041	7904.525
2796.42589	7839.125
2798.97979	7864.425
2801.53212	7840.425
2804.08288	7810.925
2806.63206	7783.025
2809.17967	7783.725
2811.72571	7740.425
2814.27018	7719.525
2816.81308	7696.225
2819.35442	7707.925
2821.89419	7687.425
2824.43239	7670.425
2826.96904	7665.625
2829.50412	7649.025
2832.03763	7638.825
2834.56959	7636.625
2837.1	7635.225
2839.62884	7654.525
2842.15613	7634.925
2844.68186	7659.825
2847.20604	7674.625
2849.72867	7672.425
2852.24974	7665.125
2854.76927	7648.925
2857.28724	7649.025
2859.80367	7603.225
2862.31855	7610.825
2864.83189	7601.725
2867.34368	7569.125
2869.85393	7562.825
2872.36264	7561.425
2874.8698	7555.825
2877.37543	7555.025
2879.87952	7525.825
2882.38207	7535.025
2884.88308	7534.125
2887.38256	7523.125
2889.88051	7527.325
2892.37692	7521.725
2894.8718	7504.625
2897.36515	7505.825
2899.85698	7510.925
2902.34727	7527.925
2904.83604	7526.125
2907.32328	7533.425
2909.809	7522.025
2912.29319	7513.025
2914.77587	7520.225
2917.25702	7510.325
2919.73665	7495.725
2922.21476	7519.325
2924.69136	7504.125
2927.16644	7506.025
2929.64	7498.025
2932.11205	7486.625
2934.58258	7454.625
2937.05161	7467.425
2939.51912	7465.425
2941.98513	7460.125
2944.44962	7427.725
2946.91261	7408.525
2949.37409	7431.025
2951.83407	7391.125
2954.29254	7385.125
2956.74951	7387.225
2959.20498	7365.625
2961.65895	7367.725
2964.11142	7363.625
2966.56239	7341.925
2969.01186	7365.325
2971.45984	7334.225
2973.90632	7317.925
2976.35131	7307.725
2978.7948	7293.825
2981.23681	7266.525
2983.67732	7249.025
2986.11635	7213.825
2988.55388	7227.025
2990.98993	7188.625
2993.4245	7196.125
2995.85758	7151.325
2998.28917	7134.725
3000.71928	7132.425
3003.14791	7120.925
3005.57506	7120.525
3008.00073	7103.725
3010.42493	7074.425
3012.84764	7066.525
3015.26888	7059.025
3017.68865	7030.425
3020.10694	7027.425
3022.52376	7005.825
3024.9391	7026.025
3027.35298	7000.325
3029.76539	6987.925
3032.17632	6975.025
3034.5858	6997.725
3036.9938	6984.025
3039.40034	6980.425
3041.80542	6976.725
3044.20903	6941.425
3046.61118	6934.325
3049.01187	6925.725
3051.4111	6910.225
3053.80888	6890.925
3056.20519	6892.325
3058.60005	6866.725
3060.99345	6858.425
3063.3854	6849.025
3065.7759	6839.725
3068.16494	6810.025
3070.55254	6820.425
3072.93868	6815.125
3075.32338	6786.425
3077.70662	6768.825
3080.08842	6766.325
3082.46878	6753.325
3084.84769	6729.125
3087.22515	6732.625
3089.60118	6738.425
3091.97576	6731.925
3094.3489	6724.525
3096.72061	6727.425
3099.09087	6737.125
3101.4597	6726.625
3103.82709	6715.425
3106.19305	6705.925
3108.55757	6705.525
3110.92066	6685.825
3113.28232	6679.325
3115.64255	6667.325
3118.00134	6652.125
3120.35871	6637.425
3122.71466	6617.725
3125.06917	6604.125
3127.42226	6581.625
3129.77393	6617.725
3132.12417	6599.225
3134.47299	6570.325
3136.82039	6611.625
3139.16636	6600.825
3141.51092	6606.825
3143.85406	6590.725
3146.19579	6585.125
3148.53609	6587.425
3150.87499	6579.025
3153.21246	6624.325
3155.54853	6619.225
3157.88318	6595.025
3160.21642	6609.825
3162.54826	6617.925
3164.87868	6623.125
3167.2077	6618.825
3169.5353	6619.425
