Data from AgNP_FTO_APTES_UA_10uM_CRN_500uM_R6G_10uM_NaF_0.1M_Addition_RamanShift__14__18-56-40-945.txt Node

Date: Thu Feb 10 18:56:40 GMT 2022
User: TCL
Spectrometer: QEP01345
Trigger mode: 4
Integration Time (sec): 7.000000E0
Scans to average: 10
Electric dark correction enabled: true
Nonlinearity correction enabled: false
Boxcar width: 0
XAxis mode: Raman Shifts
Number of Pixels in Spectrum: 1044
>>>>>Begin Spectral Data<<<<<
46.04893	-0.725
50.45542	0.375
54.85868	-2.325
59.25871	-0.725
63.6555	48.375
68.04907	51.875
72.43941	55.975
76.82654	52.575
81.21044	59.075
85.59113	57.475
89.96862	61.275
94.34289	64.975
98.71396	67.575
103.08183	68.175
107.4465	71.975
111.80798	68.575
116.16626	72.575
120.52136	74.475
124.87327	80.775
129.222	81.275
133.56755	87.075
137.90993	89.875
142.24913	94.175
146.58517	108.675
150.91804	128.675
155.24774	146.775
159.57429	178.875
163.89768	224.775
168.21792	298.475
172.53501	404.975
176.84895	558.875
181.15975	784.475
185.46741	1108.975
189.77193	1544.475
194.07331	2054.775
198.37157	2661.675
202.6667	3307.375
206.9587	3931.175
211.24758	4564.175
215.53334	5167.975
219.81599	5821.475
224.09553	6507.575
228.37195	7252.275
232.64527	8116.175
236.91549	9003.175
241.18261	9914.675
245.44663	10841.075
249.70755	11647.975
253.96539	12377.475
258.22014	12963.175
262.4718	13479.275
266.72039	13796.475
270.96589	13996.675
275.20832	14052.775
279.44768	14000.075
283.68397	13870.175
287.91719	13766.975
292.14735	13677.475
296.37445	13635.375
300.59849	13604.475
304.81948	13617.375
309.03742	13521.075
313.25231	13418.075
317.46415	13206.775
321.67296	12995.475
325.87872	12817.475
330.08145	12735.975
334.28114	12780.875
338.47781	12822.975
342.67145	12963.275
346.86207	13122.575
351.04966	13277.775
355.23424	13435.075
359.4158	13588.875
363.59435	13727.075
367.76989	13858.475
371.94243	13949.875
376.11196	14011.075
380.27849	14103.575
384.44203	14198.675
388.60257	14252.375
392.76012	14401.375
396.91468	14563.675
401.06626	14732.075
405.21485	14861.375
409.36047	14857.175
413.50311	14779.975
417.64277	14686.675
421.77947	14675.275
425.9132	14709.375
430.04396	14814.175
434.17176	14909.875
438.2966	15009.675
442.41849	15145.275
446.53742	15319.275
450.6534	15557.475
454.76644	15713.275
458.87653	15840.875
462.98368	15882.575
467.08789	15917.475
471.18916	15888.575
475.2875	15817.575
479.38291	15779.675
483.4754	15727.475
487.56496	15655.875
491.6516	15550.475
495.73531	15448.575
499.81612	15319.575
503.89401	15336.975
507.96899	15425.375
512.04106	15438.475
516.11023	15450.975
520.1765	15408.175
524.23987	15359.175
528.30034	15279.975
532.35792	15160.175
536.41261	15101.775
540.46441	15067.775
544.51333	15109.875
548.55936	15211.375
552.60252	15412.975
556.64279	15618.475
560.6802	15741.675
564.71473	15831.775
568.7464	16010.775
572.7752	16224.775
576.80114	16529.075
580.82422	16741.375
584.84444	16848.875
588.86181	16905.375
592.87633	16908.675
596.888	16872.175
600.89682	16795.575
604.9028	16962.075
608.90594	17629.375
612.90624	18306.275
616.90371	17744.175
620.89834	16233.175
624.89015	15563.975
628.87913	15476.075
632.86528	15572.375
636.84862	15695.875
640.82913	15609.875
644.80683	15412.775
648.78172	15271.775
652.75379	15239.975
656.72306	15297.575
660.68952	15451.175
664.65319	15449.675
668.61405	15342.775
672.57211	15351.375
676.52738	15387.975
680.47986	15417.275
684.42955	15394.175
688.37646	15385.275
692.32058	15367.375
696.26192	15489.275
700.20048	15574.975
704.13626	15606.875
708.06928	15690.475
711.99952	15696.675
715.927	15639.675
719.85171	15603.775
723.77365	15567.875
727.69284	15496.475
731.60928	15378.975
735.52295	15299.475
739.43388	15278.875
743.34206	15296.175
747.24749	15304.675
751.15017	15405.975
755.05012	15496.075
758.94733	15764.175
762.8418	16161.875
766.73354	16779.575
770.62254	17389.575
774.50882	17608.275
778.39237	17198.875
782.27321	16530.175
786.15132	15964.275
790.02671	15580.675
793.89938	15382.775
797.76935	15290.275
801.6366	15210.675
805.50115	15187.275
809.36299	15129.075
813.22213	15120.575
817.07857	15129.875
820.93231	15161.175
824.78336	15108.875
828.63172	15091.075
832.47738	15098.175
836.32036	15052.475
840.16066	15082.175
843.99827	15059.275
847.8332	15037.175
851.66546	15082.875
855.49504	15096.975
859.32195	15115.875
863.1462	15110.775
866.96777	15072.275
870.78668	15081.975
874.60293	15116.375
878.41652	15097.675
882.22745	15070.975
886.03573	15135.775
889.84136	15145.575
893.64433	15135.075
897.44466	15120.075
901.24235	15076.675
905.0374	15091.375
908.8298	15054.675
912.61957	15027.975
916.40671	15121.575
920.19121	15219.075
923.97308	15264.175
927.75233	15236.875
931.52895	15130.675
935.30295	15055.475
939.07433	14918.275
942.84309	14791.875
946.60924	14702.475
950.37278	14660.675
954.13371	14635.575
957.89203	14610.275
961.64774	14610.875
965.40086	14562.075
969.15137	14563.475
972.89929	14513.675
976.64461	14453.175
980.38733	14437.275
984.12747	14481.075
987.86502	14483.275
991.59999	14507.675
995.33237	14513.375
999.06217	14582.975
1002.78939	14698.875
1006.51404	14760.275
1010.23611	14874.575
1013.95561	14958.975
1017.67255	14988.775
1021.38692	14975.775
1025.09872	14912.675
1028.80796	14825.275
1032.51465	14790.375
1036.21877	14749.575
1039.92035	14830.275
1043.61937	14844.975
1047.31584	14909.275
1051.00976	14901.675
1054.70114	14969.775
1058.38998	15071.275
1062.07627	15148.975
1065.76003	15282.175
1069.44126	15310.975
1073.11995	15427.475
1076.79611	15527.175
1080.46974	15600.075
1084.14085	15582.175
1087.80943	15628.175
1091.47549	15727.375
1095.13903	15764.375
1098.80005	15726.375
1102.45857	15554.675
1106.11456	15401.375
1109.76805	15331.275
1113.41903	15259.675
1117.06751	15272.075
1120.71348	15355.575
1124.35696	15442.475
1127.99793	15590.875
1131.63641	15694.675
1135.2724	15614.475
1138.90589	15529.575
1142.5369	15484.475
1146.16542	15502.675
1149.79145	15555.075
1153.415	15600.775
1157.03607	15652.575
1160.65467	15826.575
1164.27079	16166.475
1167.88443	16500.075
1171.49561	16926.575
1175.10432	17479.475
1178.71056	18131.975
1182.31434	18833.375
1185.91565	19323.475
1189.51451	19623.875
1193.11091	19573.175
1196.70485	19370.775
1200.29634	18918.075
1203.88538	18497.875
1207.47197	18154.875
1211.05612	17839.275
1214.63782	17553.475
1218.21708	17313.975
1221.79391	17052.275
1225.36829	16808.075
1228.94024	16645.475
1232.50976	16564.875
1236.07685	16546.475
1239.6415	16566.575
1243.20374	16587.375
1246.76355	16626.975
1250.32093	16722.475
1253.8759	16841.675
1257.42845	17093.475
1260.97859	17328.575
1264.52631	17593.075
1268.07163	17813.275
1271.61453	18028.075
1275.15503	18206.975
1278.69312	18430.175
1282.22882	18608.375
1285.76211	18871.675
1289.29301	19147.175
1292.82151	19559.275
1296.34761	20045.275
1299.87133	20599.475
1303.39266	21191.975
1306.9116	21737.075
1310.42815	22191.975
1313.94233	22400.175
1317.45412	22359.575
1320.96354	22245.675
1324.47058	22122.475
1327.97525	22039.375
1331.47754	22021.375
1334.97747	22087.875
1338.47502	22292.575
1341.97022	22550.375
1345.46305	22828.675
1348.95352	22981.475
1352.44163	23061.175
1355.92738	22980.075
1359.41078	22983.675
1362.89183	23052.475
1366.37053	22586.875
1369.84688	21496.175
1373.32088	20187.375
1376.79254	19254.575
1380.26186	18786.275
1383.72883	18649.175
1387.19347	18594.875
1390.65578	18489.675
1394.11575	18349.375
1397.57339	18285.175
1401.0287	18228.975
1404.48168	18213.475
1407.93234	18064.975
1411.38068	17829.975
1414.82669	17548.875
1418.27039	17152.675
1421.71177	16820.175
1425.15083	16463.775
1428.58758	16261.275
1432.02203	16285.075
1435.45416	16355.775
1438.88399	16512.375
1442.31151	16631.775
1445.73673	16762.175
1449.15965	16900.175
1452.58027	17043.675
1455.9986	17165.075
1459.41463	17312.975
1462.82837	17421.075
1466.23982	17599.675
1469.64898	17761.975
1473.05586	17882.975
1476.46045	17928.675
1479.86276	17884.075
1483.26279	17904.075
1486.66054	17941.075
1490.05602	18033.375
1493.44922	18214.375
1496.84016	18560.475
1500.22882	19056.475
1503.61521	19657.375
1506.99934	20327.375
1510.38121	20764.275
1513.76081	20821.875
1517.13816	20527.775
1520.51324	20061.775
1523.88607	19657.875
1527.25665	19409.275
1530.62498	19293.875
1533.99105	19200.375
1537.35488	18972.575
1540.71647	18753.875
1544.07581	18466.775
1547.4329	18168.575
1550.78776	17910.375
1554.14038	17729.375
1557.49077	17627.275
1560.83892	17591.675
1564.18484	17616.075
1567.52853	17673.975
1570.86999	17759.975
1574.20922	17887.875
1577.54624	18009.175
1580.88103	17929.775
1584.2136	17788.975
1587.54395	17799.875
1590.87208	17962.375
1594.19801	18282.675
1597.52172	18695.975
1600.84321	18813.475
1604.16251	18543.975
1607.47959	18081.075
1610.79447	17451.975
1614.10715	16791.275
1617.41763	16113.375
1620.7259	15571.375
1624.03199	15204.675
1627.33587	15050.375
1630.63757	15101.175
1633.93707	15397.175
1637.23439	15945.275
1640.52951	16806.675
1643.82246	17899.475
1647.11321	18864.675
1650.40179	19455.575
1653.68819	19139.275
1656.97241	18093.975
1660.25446	16732.275
1663.53433	15572.375
1666.81203	14667.275
1670.08756	14035.975
1673.36092	13659.775
1676.63211	13368.975
1679.90115	13203.875
1683.16801	13045.775
1686.43272	12935.575
1689.69527	12858.075
1692.95567	12793.875
1696.2139	12735.975
1699.46999	12757.475
1702.72392	12693.475
1705.97571	12680.875
1709.22535	12613.875
1712.47284	12621.675
1715.71819	12563.775
1718.96139	12548.675
1722.20246	12522.975
1725.44139	12455.175
1728.67818	12444.075
1731.91284	12375.375
1735.14537	12315.475
1738.37576	12245.175
1741.60403	12231.575
1744.83017	12197.375
1748.05418	12195.875
1751.27607	12176.275
1754.49584	12154.275
1757.71349	12143.975
1760.92903	12165.775
1764.14244	12142.375
1767.35375	12129.375
1770.56294	12109.775
1773.77002	12065.775
1776.97499	12045.875
1780.17785	11978.875
1783.37861	11988.075
1786.57727	11944.075
1789.77382	11890.275
1792.96828	11897.675
1796.16064	11865.375
1799.3509	11829.875
1802.53907	11814.875
1805.72514	11786.075
1808.90913	11758.875
1812.09102	11731.575
1815.27083	11689.575
1818.44856	11657.075
1821.6242	11644.375
1824.79776	11637.475
1827.96924	11579.275
1831.13864	11583.375
1834.30597	11579.575
1837.47122	11569.575
1840.6344	11564.675
1843.7955	11546.275
1846.95454	11506.475
1850.11151	11510.175
1853.26642	11502.475
1856.41926	11480.375
1859.57004	11469.175
1862.71876	11446.975
1865.86542	11437.075
1869.01003	11413.075
1872.15258	11416.075
1875.29308	11397.875
1878.43152	11382.175
1881.56792	11334.875
1884.70227	11354.175
1887.83457	11313.475
1890.96482	11276.975
1894.09304	11254.075
1897.21921	11240.775
1900.34335	11253.075
1903.46544	11252.675
1906.58551	11208.175
1909.70353	11192.975
1912.81953	11160.875
1915.93349	11159.475
1919.04543	11127.975
1922.15534	11073.575
1925.26322	11062.075
1928.36908	11040.975
1931.47292	11025.775
1934.57473	11012.575
1937.67453	10969.875
1940.77232	10954.475
1943.86808	10921.875
1946.96184	10898.175
1950.05358	10854.075
1953.14331	10848.475
1956.23103	10810.075
1959.31675	10756.875
1962.40046	10716.075
1965.48217	10699.175
1968.56188	10656.875
1971.63959	10625.475
1974.7153	10607.075
1977.78901	10565.875
1980.86073	10518.275
1983.93046	10496.875
1986.99819	10456.775
1990.06394	10417.675
1993.1277	10393.675
1996.18947	10350.375
1999.24925	10329.675
2002.30706	10279.075
2005.36288	10226.575
2008.41672	10206.975
2011.46859	10164.975
2014.51848	10162.675
2017.56639	10133.275
2020.61233	10107.975
2023.6563	10081.675
2026.6983	10049.875
2029.73833	10022.275
2032.7764	9996.275
2035.8125	9979.475
2038.84664	9930.875
2041.87881	9856.675
2044.90903	9855.275
2047.93729	9868.675
2050.96359	9821.575
2053.98794	9820.175
2057.01034	9810.675
2060.03078	9794.575
2063.04927	9782.775
2066.06582	9766.075
2069.08042	9782.875
2072.09307	9775.975
2075.10378	9743.075
2078.11255	9716.375
2081.11938	9759.175
2084.12426	9728.675
2087.12722	9710.575
2090.12824	9694.175
2093.12732	9680.575
2096.12447	9690.675
2099.11969	9669.475
2102.11299	9677.975
2105.10435	9683.975
2108.09379	9670.675
2111.08131	9693.575
2114.0669	9695.275
2117.05057	9713.975
2120.03233	9689.075
2123.01216	9695.075
2125.99008	9710.475
2128.96609	9712.475
2131.94018	9729.675
2134.91236	9719.875
2137.88263	9723.175
2140.851	9696.875
2143.81746	9708.375
2146.78201	9719.675
2149.74466	9722.975
2152.7054	9723.375
2155.66425	9699.375
2158.6212	9689.675
2161.57625	9688.875
2164.52941	9650.475
2167.48067	9679.575
2170.43004	9640.675
2173.37752	9666.075
2176.32311	9660.175
2179.26681	9654.775
2182.20863	9634.675
2185.14856	9627.075
2188.08661	9662.975
2191.02278	9642.275
2193.95707	9613.375
2196.88948	9621.475
2199.82001	9623.075
2202.74867	9586.875
2205.67545	9549.575
2208.60037	9541.675
2211.52341	9540.375
2214.44458	9516.175
2217.36388	9499.975
2220.28132	9490.175
2223.1969	9435.875
2226.11061	9454.075
2229.02246	9392.275
2231.93245	9389.775
2234.84058	9371.775
2237.74686	9331.875
2240.65128	9346.475
2243.55385	9301.775
2246.45456	9292.075
2249.35343	9252.875
2252.25044	9265.375
2255.14561	9237.175
2258.03893	9250.375
2260.93041	9235.775
2263.82004	9186.275
2266.70783	9158.475
2269.59378	9139.175
2272.4779	9107.075
2275.36017	9051.075
2278.24061	9068.375
2281.11922	9036.675
2283.996	9050.975
2286.87094	9034.475
2289.74405	9012.275
2292.61534	8995.675
2295.4848	9002.675
2298.35243	8956.675
2301.21824	8948.075
2304.08223	8951.175
2306.94439	8954.775
2309.80474	8915.075
2312.66327	8919.875
2315.51999	8867.775
2318.37489	8892.175
2321.22797	8879.275
2324.07925	8829.175
2326.92871	8825.075
2329.77637	8799.675
2332.62222	8758.875
2335.46626	8769.975
2338.3085	8758.375
2341.14893	8743.575
2343.98756	8726.175
2346.8244	8732.075
2349.65943	8707.475
2352.49267	8685.375
2355.32411	8700.875
2358.15376	8697.875
2360.98161	8677.775
2363.80768	8671.475
2366.63195	8691.675
2369.45444	8651.075
2372.27514	8628.575
2375.09405	8636.275
2377.91118	8613.875
2380.72652	8598.675
2383.54009	8572.175
2386.35187	8537.175
2389.16188	8505.975
2391.97011	8493.775
2394.77657	8476.875
2397.58125	8475.575
2400.38416	8447.975
2403.18529	8412.175
2405.98466	8421.075
2408.78226	8394.375
2411.57809	8403.175
2414.37216	8385.375
2417.16446	8366.375
2419.955	8359.075
2422.74378	8337.375
2425.5308	8340.375
2428.31606	8320.575
2431.09956	8328.575
2433.88131	8297.875
2436.6613	8291.875
2439.43954	8286.675
2442.21603	8247.075
2444.99077	8232.175
2447.76377	8238.775
2450.53501	8212.075
2453.30451	8236.075
2456.07226	8210.575
2458.83827	8221.075
2461.60254	8186.675
2464.36507	8175.675
2467.12586	8156.075
2469.88492	8144.375
2472.64224	8140.575
2475.39782	8143.875
2478.15167	8139.475
2480.90379	8118.775
2483.65417	8131.975
2486.40283	8105.475
2489.14976	8108.375
2491.89497	8093.175
2494.63845	8100.775
2497.3802	8080.675
2500.12024	8060.275
2502.85855	8054.175
2505.59514	8064.875
2508.33002	8033.375
2511.06318	8017.975
2513.79462	8028.375
2516.52435	8014.875
2519.25237	7975.475
2521.97867	7960.575
2524.70327	8003.075
2527.42616	7939.975
2530.14734	7938.575
2532.86681	7907.775
2535.58458	7925.375
2538.30065	7897.375
2541.01501	7887.075
2543.72768	7864.575
2546.43864	7865.975
2549.14791	7852.975
2551.85548	7831.175
2554.56136	7822.275
2557.26554	7823.975
2559.96803	7770.175
2562.66883	7767.075
2565.36794	7740.175
2568.06536	7723.175
2570.7611	7711.075
2573.45514	7682.975
2576.14751	7681.675
2578.83819	7657.975
2581.52719	7635.975
2584.21451	7628.075
2586.90015	7623.775
2589.58411	7584.075
2592.2664	7576.375
2594.94701	7570.175
2597.62594	7563.775
2600.30321	7523.275
2602.9788	7523.375
2605.65273	7490.275
2608.32498	7501.575
2610.99557	7481.675
2613.66449	7476.375
2616.33175	7468.275
2618.99734	7459.075
2621.66128	7444.675
2624.32355	7438.475
2626.98416	7410.075
2629.64311	7393.675
2632.30041	7401.175
2634.95605	7386.275
2637.61004	7351.375
2640.26238	7344.475
2642.91306	7351.575
2645.56209	7328.175
2648.20948	7339.475
2650.85521	7315.175
2653.4993	7307.275
2656.14175	7302.575
2658.78255	7329.475
2661.42171	7319.175
2664.05923	7316.075
2666.6951	7315.175
2669.32934	7321.075
2671.96194	7281.075
2674.59291	7299.675
2677.22224	7314.775
2679.84993	7304.275
2682.476	7299.975
2685.10043	7282.875
2687.72324	7265.575
2690.34441	7264.975
2692.96396	7264.375
2695.58188	7267.375
2698.19818	7265.075
2700.81285	7260.675
2703.4259	7239.875
2706.03733	7267.075
2708.64714	7246.175
2711.25533	7246.875
2713.86191	7255.475
2716.46687	7242.875
2719.07021	7255.475
2721.67194	7244.175
2724.27206	7232.075
2726.87057	7233.375
2729.46747	7260.975
2732.06276	7239.175
2734.65644	7217.275
2737.24852	7233.375
2739.83899	7224.475
2742.42786	7228.375
2745.01513	7174.075
2747.60079	7186.375
2750.18486	7171.375
2752.76733	7156.975
2755.3482	7127.275
2757.92747	7132.875
2760.50515	7095.975
2763.08123	7071.375
2765.65573	7068.675
2768.22863	7082.075
2770.79994	7066.375
2773.36967	7051.275
2775.9378	7039.175
2778.50435	7035.875
2781.06932	7036.475
2783.6327	7008.475
2786.1945	6996.875
2788.75471	6985.975
2791.31335	6986.975
2793.87041	6958.875
2796.42589	6969.975
2798.97979	6950.675
2801.53212	6954.675
2804.08288	6931.075
2806.63206	6899.675
2809.17967	6888.275
2811.72571	6851.575
2814.27018	6833.875
2816.81308	6828.775
2819.35442	6804.775
2821.89419	6799.775
2824.43239	6790.175
2826.96904	6757.175
2829.50412	6761.775
2832.03763	6755.275
2834.56959	6750.575
2837.1	6750.875
2839.62884	6739.775
2842.15613	6758.875
2844.68186	6773.475
2847.20604	6801.375
2849.72867	6775.475
2852.24974	6767.275
2854.76927	6761.775
2857.28724	6740.575
2859.80367	6739.975
2862.31855	6722.375
2864.83189	6685.375
2867.34368	6677.775
2869.85393	6667.175
2872.36264	6665.275
2874.8698	6673.475
2877.37543	6661.375
2879.87952	6651.775
2882.38207	6650.175
2884.88308	6642.575
2887.38256	6634.575
2889.88051	6634.975
2892.37692	6615.275
2894.8718	6618.675
2897.36515	6632.575
2899.85698	6632.175
2902.34727	6639.175
2904.83604	6649.475
2907.32328	6661.275
2909.809	6655.375
2912.29319	6649.575
2914.77587	6647.075
2917.25702	6623.675
2919.73665	6622.175
2922.21476	6625.375
2924.69136	6608.275
2927.16644	6597.975
2929.64	6619.775
2932.11205	6594.475
2934.58258	6590.575
2937.05161	6568.875
2939.51912	6597.075
2941.98513	6562.475
2944.44962	6551.375
2946.91261	6526.275
2949.37409	6545.075
2951.83407	6510.775
2954.29254	6496.775
2956.74951	6505.375
2959.20498	6489.975
2961.65895	6497.175
2964.11142	6492.375
2966.56239	6462.875
2969.01186	6466.575
2971.45984	6449.775
2973.90632	6436.375
2976.35131	6414.975
2978.7948	6407.475
2981.23681	6383.175
2983.67732	6367.875
2986.11635	6358.675
2988.55388	6335.675
2990.98993	6348.275
2993.4245	6316.475
2995.85758	6303.475
2998.28917	6289.675
3000.71928	6284.675
3003.14791	6261.175
3005.57506	6257.275
3008.00073	6238.075
3010.42493	6234.375
3012.84764	6229.075
3015.26888	6201.675
3017.68865	6182.775
3020.10694	6178.975
3022.52376	6180.875
3024.9391	6161.675
3027.35298	6150.975
3029.76539	6157.675
3032.17632	6136.275
3034.5858	6141.175
3036.9938	6133.475
3039.40034	6126.075
3041.80542	6131.375
3044.20903	6099.475
3046.61118	6099.675
3049.01187	6084.375
3051.4111	6094.975
3053.80888	6070.175
3056.20519	6053.575
3058.60005	6042.875
3060.99345	6045.875
3063.3854	6016.575
3065.7759	6015.775
3068.16494	6013.175
3070.55254	5980.675
3072.93868	5981.875
3075.32338	5962.475
3077.70662	5946.475
3080.08842	5930.575
3082.46878	5929.375
3084.84769	5918.575
3087.22515	5903.275
3089.60118	5932.375
3091.97576	5934.575
3094.3489	5921.875
3096.72061	5915.675
3099.09087	5915.775
3101.4597	5901.275
3103.82709	5905.875
3106.19305	5906.375
3108.55757	5892.375
3110.92066	5913.375
3113.28232	5898.475
3115.64255	5884.675
3118.00134	5866.275
3120.35871	5877.575
3122.71466	5852.175
3125.06917	5837.475
3127.42226	5817.875
3129.77393	5836.475
3132.12417	5817.675
3134.47299	5821.575
3136.82039	5799.775
3139.16636	5829.275
3141.51092	5826.575
3143.85406	5830.675
3146.19579	5832.775
3148.53609	5829.975
3150.87499	5852.575
3153.21246	5834.175
3155.54853	5850.675
3157.88318	5856.575
3160.21642	5848.875
3162.54826	5833.075
3164.87868	5844.275
3167.2077	5860.775
3169.5353	5852.575
3171.86151	5872.475
3174.18631	5853.975
3176.5097	5848.875
3178.83169	5841.175
