Data from AgNP_FTO_APTES_UA_10uM_CRN_20uM_R6G_10uM_NaF_0.1M_Addition_RamanShift__6__16-09-50-738.txt Node

Date: Thu Feb 10 16:09:50 GMT 2022
User: TCL
Spectrometer: QEP01345
Trigger mode: 4
Integration Time (sec): 7.000000E0
Scans to average: 10
Electric dark correction enabled: true
Nonlinearity correction enabled: false
Boxcar width: 0
XAxis mode: Raman Shifts
Number of Pixels in Spectrum: 1044
>>>>>Begin Spectral Data<<<<<
46.04893	-0.375
50.45542	-0.375
54.85868	-1.575
59.25871	-0.575
63.6555	74.325
68.04907	74.825
72.43941	82.325
76.82654	79.225
81.21044	85.325
85.59113	84.425
89.96862	91.525
94.34289	93.325
98.71396	95.025
103.08183	99.925
107.4465	104.425
111.80798	102.025
116.16626	111.125
120.52136	113.225
124.87327	119.325
129.222	125.125
133.56755	133.125
137.90993	139.025
142.24913	154.325
146.58517	168.625
150.91804	201.925
155.24774	243.925
159.57429	300.925
163.89768	387.625
168.21792	514.625
172.53501	709.125
176.84895	978.025
181.15975	1376.425
185.46741	1922.825
189.77193	2664.725
194.07331	3546.725
198.37157	4546.125
202.6667	5622.325
206.9587	6655.025
211.24758	7698.925
215.53334	8735.125
219.81599	9830.325
224.09553	11033.825
228.37195	12333.125
232.64527	13804.225
236.91549	15334.525
241.18261	16858.225
245.44663	18263.325
249.70755	19529.925
253.96539	20707.825
258.22014	21643.425
262.4718	22462.725
266.72039	22960.025
270.96589	23282.625
275.20832	23334.925
279.44768	23275.825
283.68397	23088.925
287.91719	22908.325
292.14735	22764.625
296.37445	22740.525
300.59849	22803.825
304.81948	22930.025
309.03742	22920.325
313.25231	22791.825
317.46415	22453.125
321.67296	22032.425
325.87872	21653.825
330.08145	21476.025
334.28114	21463.925
338.47781	21614.925
342.67145	21827.825
346.86207	22149.125
351.04966	22504.425
355.23424	22873.225
359.4158	23168.125
363.59435	23431.725
367.76989	23646.825
371.94243	23752.425
376.11196	23866.525
380.27849	23941.525
384.44203	24036.025
388.60257	24226.725
392.76012	24528.825
396.91468	24857.725
401.06626	25263.125
405.21485	25497.025
409.36047	25373.725
413.50311	25177.025
417.64277	25176.925
421.77947	25294.625
425.9132	25500.825
430.04396	25673.225
434.17176	25731.825
438.2966	25879.025
442.41849	26271.625
446.53742	26944.225
450.6534	27683.225
454.76644	28278.625
458.87653	28437.525
462.98368	28302.125
467.08789	27932.325
471.18916	27503.225
475.2875	27105.625
479.38291	26881.125
483.4754	26698.225
487.56496	26403.725
491.6516	25990.525
495.73531	25610.725
499.81612	25394.925
503.89401	25440.425
507.96899	25599.825
512.04106	25623.125
516.11023	25474.225
520.1765	25133.325
524.23987	24842.725
528.30034	24659.925
532.35792	24413.425
536.41261	24133.425
540.46441	23934.225
544.51333	23900.825
548.55936	24197.825
552.60252	24665.925
556.64279	25266.125
560.6802	25800.725
564.71473	26124.925
568.7464	26604.025
572.7752	27543.325
576.80114	28533.225
580.82422	29569.525
584.84444	30748.525
588.86181	32245.525
592.87633	33416.525
596.888	32969.325
600.89682	31131.325
604.9028	30344.925
608.90594	31342.225
612.90624	32431.425
616.90371	30211.425
620.89834	26429.125
624.89015	24908.225
628.87913	24822.925
632.86528	24954.625
636.84862	24833.325
640.82913	24378.125
644.80683	23850.025
648.78172	23527.225
652.75379	23551.525
656.72306	23811.625
660.68952	24065.025
664.65319	23890.925
668.61405	23530.925
672.57211	23546.625
676.52738	23693.325
680.47986	23677.425
684.42955	23452.725
688.37646	23409.225
692.32058	23578.125
696.26192	23939.425
700.20048	24292.125
704.13626	24506.625
708.06928	24547.025
711.99952	24459.825
715.927	24466.225
719.85171	24510.725
723.77365	24381.625
727.69284	24004.725
731.60928	23700.725
735.52295	23504.625
739.43388	23488.125
743.34206	23569.325
747.24749	23721.225
751.15017	24060.825
755.05012	24512.125
758.94733	25247.625
762.8418	26252.725
766.73354	27730.725
770.62254	28828.425
774.50882	28792.625
778.39237	27601.225
782.27321	26010.225
786.15132	24800.725
790.02671	24088.425
793.89938	23703.325
797.76935	23529.925
801.6366	23449.625
805.50115	23408.225
809.36299	23283.525
813.22213	23164.025
817.07857	23070.025
820.93231	22982.925
824.78336	22852.425
828.63172	22724.225
832.47738	22662.325
836.32036	22673.825
840.16066	22765.825
843.99827	22832.525
847.8332	22781.025
851.66546	22809.325
855.49504	22841.025
859.32195	22866.725
863.1462	22769.425
866.96777	22689.325
870.78668	22644.425
874.60293	22588.225
878.41652	22653.225
882.22745	22728.325
886.03573	22738.925
889.84136	22717.625
893.64433	22593.325
897.44466	22491.725
901.24235	22464.725
905.0374	22445.625
908.8298	22453.225
912.61957	22543.425
916.40671	22781.725
920.19121	23173.925
923.97308	23464.125
927.75233	23380.125
931.52895	23055.325
935.30295	22678.125
939.07433	22301.425
942.84309	22030.025
946.60924	21926.025
950.37278	21966.525
954.13371	21951.525
957.89203	21909.225
961.64774	21894.025
965.40086	21910.725
969.15137	21867.225
972.89929	21807.025
976.64461	21740.225
980.38733	21718.525
984.12747	21782.225
987.86502	21899.225
991.59999	22021.725
995.33237	22265.525
999.06217	22687.425
1002.78939	23224.025
1006.51404	23649.025
1010.23611	24102.225
1013.95561	24333.225
1017.67255	24345.025
1021.38692	24093.225
1025.09872	23701.425
1028.80796	23528.025
1032.51465	23713.225
1036.21877	23986.925
1039.92035	24121.125
1043.61937	24069.225
1047.31584	23846.325
1051.00976	23671.925
1054.70114	23637.625
1058.38998	23732.525
1062.07627	23935.125
1065.76003	24181.425
1069.44126	24454.125
1073.11995	24822.425
1076.79611	25155.825
1080.46974	25268.825
1084.14085	25445.125
1087.80943	25715.925
1091.47549	25927.625
1095.13903	25938.925
1098.80005	25653.025
1102.45857	25048.025
1106.11456	24576.925
1109.76805	24386.325
1113.41903	24372.525
1117.06751	24450.125
1120.71348	24651.725
1124.35696	24861.725
1127.99793	25060.325
1131.63641	25293.825
1135.2724	25278.125
1138.90589	25308.025
1142.5369	25438.725
1146.16542	25680.125
1149.79145	25990.225
1153.415	26338.425
1157.03607	26833.925
1160.65467	27736.225
1164.27079	29128.825
1167.88443	30705.925
1171.49561	32220.825
1175.10432	33910.125
1178.71056	36093.625
1182.31434	38142.225
1185.91565	39176.225
1189.51451	39001.525
1193.11091	38177.625
1196.70485	37111.325
1200.29634	36036.325
1203.88538	35398.125
1207.47197	35316.125
1211.05612	35126.025
1214.63782	34576.725
1218.21708	33503.025
1221.79391	32361.625
1225.36829	31478.325
1228.94024	30934.625
1232.50976	30433.425
1236.07685	30019.325
1239.6415	29744.525
1243.20374	29759.825
1246.76355	30074.625
1250.32093	30515.525
1253.8759	31198.125
1257.42845	32002.925
1260.97859	32914.625
1264.52631	33855.225
1268.07163	34870.025
1271.61453	35940.925
1275.15503	36960.925
1278.69312	38057.425
1282.22882	39261.625
1285.76211	40663.725
1289.29301	42322.225
1292.82151	44480.125
1296.34761	47035.525
1299.87133	49961.825
1303.39266	52923.525
1306.9116	55241.925
1310.42815	56666.825
1313.94233	57215.325
1317.45412	56712.025
1320.96354	55973.025
1324.47058	55527.825
1327.97525	55340.325
1331.47754	55145.625
1334.97747	54932.625
1338.47502	54434.725
1341.97022	53608.425
1345.46305	52450.825
1348.95352	51334.525
1352.44163	50740.925
1355.92738	51130.625
1359.41078	52586.625
1362.89183	53585.425
1366.37053	52552.225
1369.84688	48890.225
1373.32088	44240.025
1376.79254	41018.125
1380.26186	40199.525
1383.72883	40655.425
1387.19347	41097.125
1390.65578	40913.625
1394.11575	40912.625
1397.57339	41484.125
1401.0287	42355.525
1404.48168	42984.025
1407.93234	42936.025
1411.38068	41923.525
1414.82669	40339.525
1418.27039	38447.225
1421.71177	36618.225
1425.15083	35224.725
1428.58758	34633.125
1432.02203	35043.725
1435.45416	36190.325
1438.88399	37592.825
1442.31151	38622.125
1445.73673	39175.425
1449.15965	39419.825
1452.58027	39432.025
1455.9986	39316.225
1459.41463	39453.725
1462.82837	39990.525
1466.23982	40662.125
1469.64898	41296.925
1473.05586	41661.025
1476.46045	41613.325
1479.86276	41204.225
1483.26279	40643.025
1486.66054	40265.725
1490.05602	40269.925
1493.44922	40498.825
1496.84016	40669.025
1500.22882	40983.925
1503.61521	41517.625
1506.99934	42154.325
1510.38121	42703.925
1513.76081	42782.125
1517.13816	42384.225
1520.51324	41800.925
1523.88607	41711.725
1527.25665	41979.025
1530.62498	42353.725
1533.99105	42380.925
1537.35488	41899.925
1540.71647	40885.225
1544.07581	39599.625
1547.4329	38293.125
1550.78776	37204.925
1554.14038	36485.025
1557.49077	36028.725
1560.83892	35616.625
1564.18484	35507.325
1567.52853	35513.725
1570.86999	35837.725
1574.20922	36609.825
1577.54624	37494.525
1580.88103	38143.025
1584.2136	39024.525
1587.54395	40673.525
1590.87208	43105.425
1594.19801	45739.725
1597.52172	47892.825
1600.84321	48004.225
1604.16251	45379.325
1607.47959	41382.425
1610.79447	37388.625
1614.10715	34051.425
1617.41763	31444.225
1620.7259	29761.025
1624.03199	29047.025
1627.33587	29202.725
1630.63757	30258.225
1633.93707	32499.025
1637.23439	36181.825
1640.52951	41286.925
1643.82246	47161.325
1647.11321	51329.425
1650.40179	51265.125
1653.68819	46719.925
1656.97241	39904.625
1660.25446	33830.625
1663.53433	29392.925
1666.81203	26622.625
1670.08756	24805.325
1673.36092	23757.425
1676.63211	23000.125
1679.90115	22509.925
1683.16801	22133.425
1686.43272	21836.825
1689.69527	21646.825
1692.95567	21481.525
1696.2139	21415.525
1699.46999	21327.025
1702.72392	21202.125
1705.97571	21131.625
1709.22535	21046.125
1712.47284	21010.625
1715.71819	20948.025
1718.96139	20915.325
1722.20246	20862.325
1725.44139	20703.425
1728.67818	20609.725
1731.91284	20464.925
1735.14537	20366.225
1738.37576	20290.825
1741.60403	20197.425
1744.83017	20135.425
1748.05418	20046.925
1751.27607	20074.425
1754.49584	19996.325
1757.71349	20029.925
1760.92903	19950.725
1764.14244	19897.925
1767.35375	19921.925
1770.56294	19890.825
1773.77002	19832.525
1776.97499	19821.125
1780.17785	19767.425
1783.37861	19744.625
1786.57727	19716.325
1789.77382	19656.225
1792.96828	19639.625
1796.16064	19631.725
1799.3509	19565.325
1802.53907	19545.025
1805.72514	19449.625
1808.90913	19405.425
1812.09102	19349.225
1815.27083	19327.025
1818.44856	19326.325
1821.6242	19297.525
1824.79776	19246.725
1827.96924	19251.825
1831.13864	19253.325
1834.30597	19275.525
1837.47122	19271.825
1840.6344	19252.225
1843.7955	19241.525
1846.95454	19222.725
1850.11151	19245.825
1853.26642	19207.825
1856.41926	19226.325
1859.57004	19204.225
1862.71876	19142.725
1865.86542	19091.425
1869.01003	19088.525
1872.15258	19064.725
1875.29308	19062.725
1878.43152	19058.825
1881.56792	19009.925
1884.70227	19007.425
1887.83457	18985.825
1890.96482	18979.225
1894.09304	18928.525
1897.21921	18906.625
1900.34335	18895.325
1903.46544	18888.025
1906.58551	18871.025
1909.70353	18836.225
1912.81953	18796.925
1915.93349	18752.025
1919.04543	18710.025
1922.15534	18700.925
1925.26322	18656.025
1928.36908	18616.925
1931.47292	18603.025
1934.57473	18544.725
1937.67453	18470.425
1940.77232	18478.325
1943.86808	18412.225
1946.96184	18354.125
1950.05358	18283.525
1953.14331	18245.825
1956.23103	18182.625
1959.31675	18173.925
1962.40046	18093.225
1965.48217	18044.325
1968.56188	17996.325
1971.63959	17927.125
1974.7153	17899.925
1977.78901	17817.725
1980.86073	17785.525
1983.93046	17731.025
1986.99819	17697.725
1990.06394	17629.625
1993.1277	17556.525
1996.18947	17555.525
1999.24925	17464.325
2002.30706	17446.925
2005.36288	17403.525
2008.41672	17339.825
2011.46859	17286.425
2014.51848	17237.725
2017.56639	17229.325
2020.61233	17173.425
2023.6563	17117.025
2026.6983	17105.025
2029.73833	17082.325
2032.7764	17041.825
2035.8125	17031.625
2038.84664	16975.625
2041.87881	16896.025
2044.90903	16875.225
2047.93729	16852.225
2050.96359	16832.725
2053.98794	16829.525
2057.01034	16847.625
2060.03078	16802.925
2063.04927	16763.325
2066.06582	16819.825
2069.08042	16772.925
2072.09307	16764.825
2075.10378	16755.625
2078.11255	16710.325
2081.11938	16727.625
2084.12426	16697.925
2087.12722	16738.525
2090.12824	16715.125
2093.12732	16701.725
2096.12447	16729.025
2099.11969	16677.325
2102.11299	16672.925
2105.10435	16714.725
2108.09379	16722.425
2111.08131	16710.525
2114.0669	16701.225
2117.05057	16708.925
2120.03233	16760.925
2123.01216	16764.225
2125.99008	16777.225
2128.96609	16795.425
2131.94018	16799.725
2134.91236	16815.525
2137.88263	16833.925
2140.851	16824.925
2143.81746	16834.925
2146.78201	16801.325
2149.74466	16810.425
2152.7054	16817.525
2155.66425	16823.925
2158.6212	16848.225
2161.57625	16805.025
2164.52941	16832.925
2167.48067	16800.125
2170.43004	16805.725
2173.37752	16771.125
2176.32311	16801.725
2179.26681	16804.725
2182.20863	16793.325
2185.14856	16783.825
2188.08661	16759.525
2191.02278	16812.225
2193.95707	16793.225
2196.88948	16799.425
2199.82001	16771.925
2202.74867	16724.525
2205.67545	16717.325
2208.60037	16684.225
2211.52341	16691.225
2214.44458	16706.925
2217.36388	16638.525
2220.28132	16589.725
2223.1969	16601.225
2226.11061	16582.925
2229.02246	16524.325
2231.93245	16523.625
2234.84058	16471.725
2237.74686	16480.225
2240.65128	16480.625
2243.55385	16428.725
2246.45456	16382.825
2249.35343	16364.425
2252.25044	16364.425
2255.14561	16294.925
2258.03893	16289.325
2260.93041	16239.025
2263.82004	16184.925
2266.70783	16143.525
2269.59378	16072.625
2272.4779	16043.425
2275.36017	16019.525
2278.24061	16011.725
2281.11922	15973.125
2283.996	15973.225
2286.87094	15988.025
2289.74405	15994.725
2292.61534	15951.625
2295.4848	15923.325
2298.35243	15936.325
2301.21824	15895.925
2304.08223	15940.025
2306.94439	15896.325
2309.80474	15897.425
2312.66327	15954.825
2315.51999	15896.025
2318.37489	15868.625
2321.22797	15862.225
2324.07925	15861.025
2326.92871	15826.125
2329.77637	15785.525
2332.62222	15784.025
2335.46626	15784.425
2338.3085	15774.325
2341.14893	15780.925
2343.98756	15771.225
2346.8244	15751.925
2349.65943	15761.725
2352.49267	15758.125
2355.32411	15737.225
2358.15376	15727.625
2360.98161	15728.925
2363.80768	15744.525
2366.63195	15747.925
2369.45444	15714.425
2372.27514	15699.525
2375.09405	15659.125
2377.91118	15632.425
2380.72652	15609.525
2383.54009	15568.825
2386.35187	15547.325
2389.16188	15501.125
2391.97011	15488.125
2394.77657	15439.725
2397.58125	15452.325
2400.38416	15457.425
2403.18529	15411.925
2405.98466	15369.425
2408.78226	15364.625
2411.57809	15364.625
2414.37216	15352.625
2417.16446	15337.125
2419.955	15289.825
2422.74378	15322.325
2425.5308	15263.725
2428.31606	15280.725
2431.09956	15284.725
2433.88131	15264.625
2436.6613	15259.825
2439.43954	15273.525
2442.21603	15275.925
2444.99077	15250.825
2447.76377	15255.825
2450.53501	15246.125
2453.30451	15262.625
2456.07226	15226.425
2458.83827	15232.725
2461.60254	15270.725
2464.36507	15193.925
2467.12586	15194.925
2469.88492	15179.625
2472.64224	15198.925
2475.39782	15208.625
2478.15167	15222.225
2480.90379	15231.025
2483.65417	15244.125
2486.40283	15246.325
2489.14976	15263.225
2491.89497	15244.825
2494.63845	15265.225
2497.3802	15221.225
2500.12024	15236.225
2502.85855	15259.325
2505.59514	15221.125
2508.33002	15217.725
2511.06318	15196.325
2513.79462	15185.725
2516.52435	15178.425
2519.25237	15184.425
2521.97867	15156.225
2524.70327	15127.225
2527.42616	15133.025
2530.14734	15160.525
2532.86681	15126.025
2535.58458	15116.625
2538.30065	15126.725
2541.01501	15125.725
2543.72768	15126.925
2546.43864	15122.625
2549.14791	15113.725
2551.85548	15095.725
2554.56136	15072.125
2557.26554	15031.725
2559.96803	15038.425
2562.66883	15023.325
2565.36794	14999.925
2568.06536	15005.725
2570.7611	14985.625
2573.45514	14999.425
2576.14751	14983.225
2578.83819	14978.525
2581.52719	14936.125
2584.21451	14949.725
2586.90015	14953.225
2589.58411	14921.825
2592.2664	14929.325
2594.94701	14903.025
2597.62594	14907.025
2600.30321	14882.125
2602.9788	14892.225
2605.65273	14893.825
2608.32498	14911.025
2610.99557	14917.025
2613.66449	14909.925
2616.33175	14902.925
2618.99734	14954.125
2621.66128	14874.225
2624.32355	14849.625
2626.98416	14879.625
2629.64311	14834.825
2632.30041	14813.425
2634.95605	14826.425
2637.61004	14819.125
2640.26238	14796.325
2642.91306	14791.425
2645.56209	14785.325
2648.20948	14797.825
2650.85521	14778.025
2653.4993	14810.225
2656.14175	14824.025
2658.78255	14832.825
2661.42171	14827.625
2664.05923	14814.125
2666.6951	14849.525
2669.32934	14914.825
2671.96194	14878.525
2674.59291	14887.425
2677.22224	14874.425
2679.84993	14911.025
2682.476	14861.625
2685.10043	14871.925
2687.72324	14859.325
2690.34441	14878.525
2692.96396	14865.325
2695.58188	14853.025
2698.19818	14859.625
2700.81285	14849.525
2703.4259	14885.525
2706.03733	14878.525
2708.64714	14899.325
2711.25533	14909.625
2713.86191	14893.725
2716.46687	14914.925
2719.07021	14918.925
2721.67194	14954.525
2724.27206	14936.325
2726.87057	14952.625
2729.46747	14979.725
2732.06276	14975.425
2734.65644	14984.525
2737.24852	14999.325
2739.83899	14940.025
2742.42786	15005.825
2745.01513	14999.425
2747.60079	14949.725
2750.18486	14933.425
2752.76733	14932.425
2755.3482	14902.425
2757.92747	14934.925
2760.50515	14899.325
2763.08123	14925.025
2765.65573	14898.125
2768.22863	14902.525
2770.79994	14902.425
2773.36967	14924.825
2775.9378	14919.625
2778.50435	14935.325
2781.06932	14916.725
2783.6327	14917.325
2786.1945	14912.525
2788.75471	14905.725
2791.31335	14852.625
2793.87041	14844.225
2796.42589	14850.325
2798.97979	14829.125
2801.53212	14788.025
2804.08288	14815.725
2806.63206	14776.125
2809.17967	14732.125
2811.72571	14728.425
2814.27018	14672.825
2816.81308	14635.725
2819.35442	14634.725
2821.89419	14587.925
2824.43239	14566.825
2826.96904	14551.625
2829.50412	14536.425
2832.03763	14495.625
2834.56959	14539.225
2837.1	14496.225
2839.62884	14520.525
2842.15613	14521.725
2844.68186	14518.625
2847.20604	14489.925
2849.72867	14531.625
2852.24974	14496.125
2854.76927	14465.025
2857.28724	14448.125
2859.80367	14456.225
2862.31855	14431.625
2864.83189	14402.425
2867.34368	14390.425
2869.85393	14400.725
2872.36264	14368.325
2874.8698	14351.725
2877.37543	14371.625
2879.87952	14310.925
2882.38207	14360.925
2884.88308	14348.125
2887.38256	14383.625
2889.88051	14386.925
2892.37692	14378.925
2894.8718	14364.225
2897.36515	14420.825
2899.85698	14426.225
2902.34727	14431.225
2904.83604	14444.525
2907.32328	14488.025
2909.809	14486.725
2912.29319	14468.625
2914.77587	14437.225
2917.25702	14434.625
2919.73665	14460.725
2922.21476	14473.425
2924.69136	14444.925
2927.16644	14454.325
2929.64	14427.625
2932.11205	14416.525
2934.58258	14355.025
2937.05161	14368.325
2939.51912	14384.925
2941.98513	14385.825
2944.44962	14340.825
2946.91261	14313.825
2949.37409	14363.525
2951.83407	14339.425
2954.29254	14337.725
2956.74951	14295.025
2959.20498	14318.725
2961.65895	14288.725
2964.11142	14283.525
2966.56239	14247.525
2969.01186	14273.925
2971.45984	14237.125
2973.90632	14241.425
2976.35131	14210.825
2978.7948	14183.925
2981.23681	14158.525
2983.67732	14114.425
2986.11635	14068.725
2988.55388	14067.125
2990.98993	14010.625
2993.4245	13999.425
2995.85758	13929.625
2998.28917	13891.225
3000.71928	13891.625
3003.14791	13881.625
3005.57506	13829.825
3008.00073	13801.225
3010.42493	13643.525
3012.84764	13718.225
3015.26888	13691.225
3017.68865	13685.225
3020.10694	13659.125
3022.52376	13649.425
3024.9391	13652.625
3027.35298	13651.425
3029.76539	13657.425
3032.17632	13641.225
3034.5858	13625.825
3036.9938	13655.625
3039.40034	13613.725
3041.80542	13618.025
3044.20903	13601.825
3046.61118	13605.925
3049.01187	13535.225
3051.4111	13533.125
3053.80888	13492.825
3056.20519	13465.125
3058.60005	13430.325
3060.99345	13385.425
3063.3854	13392.025
3065.7759	13329.925
3068.16494	13316.425
3070.55254	13289.425
3072.93868	13217.725
3075.32338	13180.425
3077.70662	13155.625
3080.08842	13155.325
3082.46878	13117.725
3084.84769	13117.025
3087.22515	13124.025
3089.60118	13101.325
3091.97576	13075.225
3094.3489	13076.325
3096.72061	13069.725
3099.09087	13083.225
3101.4597	13069.925
3103.82709	13059.425
3106.19305	13042.925
3108.55757	13017.525
3110.92066	12985.825
3113.28232	12982.225
3115.64255	12966.425
3118.00134	12923.625
3120.35871	12905.525
3122.71466	12868.525
3125.06917	12870.925
3127.42226	12845.725
