Data from AgNP_FTO_APTES_UA_10uM_CRN_100uM_R6G_10uM_NaF_0.1M_Addition_RamanShift__1__17-25-40-832.txt Node

Date: Thu Feb 10 17:25:40 GMT 2022
User: TCL
Spectrometer: QEP01345
Trigger mode: 4
Integration Time (sec): 7.000000E0
Scans to average: 10
Electric dark correction enabled: true
Nonlinearity correction enabled: false
Boxcar width: 0
XAxis mode: Raman Shifts
Number of Pixels in Spectrum: 1044
>>>>>Begin Spectral Data<<<<<
46.04893	-0.5125
50.45542	-0.2125
54.85868	-1.7125
59.25871	-2.1125
63.6555	63.8875
68.04907	61.5875
72.43941	67.2875
76.82654	67.4875
81.21044	74.9875
85.59113	73.2875
89.96862	77.6875
94.34289	78.9875
98.71396	81.9875
103.08183	85.0875
107.4465	87.3875
111.80798	88.0875
116.16626	92.7875
120.52136	95.4875
124.87327	97.3875
129.222	104.3875
133.56755	113.8875
137.90993	116.5875
142.24913	125.1875
146.58517	139.7875
150.91804	162.3875
155.24774	195.3875
159.57429	234.1875
163.89768	299.2875
168.21792	393.9875
172.53501	537.9875
176.84895	754.4875
181.15975	1053.1875
185.46741	1474.9875
189.77193	2041.3875
194.07331	2726.3875
198.37157	3519.3875
202.6667	4344.5875
206.9587	5141.1875
211.24758	5957.3875
215.53334	6749.8875
219.81599	7596.0875
224.09553	8509.0875
228.37195	9535.7875
232.64527	10639.1875
236.91549	11815.6875
241.18261	13022.7875
245.44663	14171.4875
249.70755	15239.3875
253.96539	16146.7875
258.22014	16929.6875
262.4718	17592.2875
266.72039	18046.4875
270.96589	18295.6875
275.20832	18338.8875
279.44768	18234.1875
283.68397	18086.2875
287.91719	17931.9875
292.14735	17809.2875
296.37445	17787.2875
300.59849	17833.9875
304.81948	17871.9875
309.03742	17823.8875
313.25231	17680.3875
317.46415	17349.0875
321.67296	17031.6875
325.87872	16717.3875
330.08145	16586.0875
334.28114	16614.1875
338.47781	16706.9875
342.67145	16923.6875
346.86207	17120.2875
351.04966	17393.1875
355.23424	17677.4875
359.4158	17932.7875
363.59435	18156.4875
367.76989	18369.5875
371.94243	18471.4875
376.11196	18597.3875
380.27849	18723.8875
384.44203	18810.8875
388.60257	18930.2875
392.76012	19114.1875
396.91468	19324.1875
401.06626	19598.1875
405.21485	19748.2875
409.36047	19722.2875
413.50311	19552.9875
417.64277	19445.4875
421.77947	19419.0875
425.9132	19493.7875
430.04396	19609.2875
434.17176	19688.9875
438.2966	19811.2875
442.41849	20053.6875
446.53742	20504.5875
450.6534	20973.2875
454.76644	21319.5875
458.87653	21477.7875
462.98368	21401.9875
467.08789	21210.1875
471.18916	20992.7875
475.2875	20795.5875
479.38291	20706.4875
483.4754	20538.9875
487.56496	20370.9875
491.6516	20082.2875
495.73531	19886.9875
499.81612	19737.2875
503.89401	19846.9875
507.96899	19900.3875
512.04106	19884.2875
516.11023	19805.5875
520.1765	19656.7875
524.23987	19508.4875
528.30034	19375.6875
532.35792	19231.0875
536.41261	19095.9875
540.46441	18942.2875
544.51333	18993.7875
548.55936	19176.4875
552.60252	19514.1875
556.64279	19837.8875
560.6802	20090.8875
564.71473	20224.4875
568.7464	20485.7875
572.7752	20893.4875
576.80114	21355.0875
580.82422	21781.8875
584.84444	22276.4875
588.86181	22923.9875
592.87633	23269.8875
596.888	23092.9875
600.89682	22504.1875
604.9028	22549.8875
608.90594	23735.8875
612.90624	25051.8875
616.90371	23814.9875
620.89834	20917.9875
624.89015	19686.3875
628.87913	19616.6875
632.86528	19649.7875
636.84862	19603.1875
640.82913	19349.5875
644.80683	19047.1875
648.78172	18819.2875
652.75379	18830.3875
656.72306	18998.3875
660.68952	19179.0875
664.65319	19080.1875
668.61405	18867.8875
672.57211	18792.3875
676.52738	18884.4875
680.47986	18900.5875
684.42955	18800.5875
688.37646	18769.5875
692.32058	18859.2875
696.26192	19028.2875
700.20048	19276.7875
704.13626	19424.3875
708.06928	19373.9875
711.99952	19282.0875
715.927	19301.4875
719.85171	19338.4875
723.77365	19292.5875
727.69284	19150.7875
731.60928	18957.9875
735.52295	18857.8875
739.43388	18830.5875
743.34206	18913.4875
747.24749	18998.5875
751.15017	19123.7875
755.05012	19397.1875
758.94733	19808.1875
762.8418	20472.0875
766.73354	21526.4875
770.62254	22414.3875
774.50882	22690.9875
778.39237	21935.8875
782.27321	20745.7875
786.15132	19806.1875
790.02671	19203.6875
793.89938	18952.8875
797.76935	18852.7875
801.6366	18809.8875
805.50115	18775.3875
809.36299	18685.3875
813.22213	18587.6875
817.07857	18553.9875
820.93231	18514.7875
824.78336	18416.4875
828.63172	18409.6875
832.47738	18401.2875
836.32036	18447.1875
840.16066	18460.8875
843.99827	18505.3875
847.8332	18494.0875
851.66546	18450.4875
855.49504	18453.3875
859.32195	18445.8875
863.1462	18407.5875
866.96777	18340.7875
870.78668	18316.4875
874.60293	18341.7875
878.41652	18348.5875
882.22745	18370.3875
886.03573	18389.6875
889.84136	18403.2875
893.64433	18352.5875
897.44466	18299.6875
901.24235	18253.1875
905.0374	18207.2875
908.8298	18206.5875
912.61957	18249.5875
916.40671	18394.4875
920.19121	18574.8875
923.97308	18712.5875
927.75233	18726.7875
931.52895	18553.1875
935.30295	18411.3875
939.07433	18138.6875
942.84309	17977.5875
946.60924	17907.5875
950.37278	17861.2875
954.13371	17844.5875
957.89203	17784.0875
961.64774	17759.1875
965.40086	17752.4875
969.15137	17689.6875
972.89929	17673.4875
976.64461	17645.0875
980.38733	17629.7875
984.12747	17680.3875
987.86502	17780.1875
991.59999	17932.5875
995.33237	18112.6875
999.06217	18442.9875
1002.78939	18765.4875
1006.51404	19020.2875
1010.23611	19137.4875
1013.95561	19284.7875
1017.67255	19323.3875
1021.38692	19160.7875
1025.09872	18993.6875
1028.80796	19025.6875
1032.51465	19328.6875
1036.21877	19700.0875
1039.92035	19780.0875
1043.61937	19640.4875
1047.31584	19388.5875
1051.00976	19112.5875
1054.70114	18999.3875
1058.38998	18986.1875
1062.07627	19090.2875
1065.76003	19170.0875
1069.44126	19269.8875
1073.11995	19490.8875
1076.79611	19637.1875
1080.46974	19757.3875
1084.14085	19846.4875
1087.80943	19995.9875
1091.47549	20082.6875
1095.13903	20123.2875
1098.80005	19926.8875
1102.45857	19649.6875
1106.11456	19462.9875
1109.76805	19374.3875
1113.41903	19362.9875
1117.06751	19427.5875
1120.71348	19522.0875
1124.35696	19672.5875
1127.99793	19839.1875
1131.63641	19924.3875
1135.2724	19860.9875
1138.90589	19785.3875
1142.5369	19812.6875
1146.16542	19856.9875
1149.79145	19980.8875
1153.415	20121.3875
1157.03607	20353.5875
1160.65467	20861.2875
1164.27079	21655.3875
1167.88443	22564.4875
1171.49561	23496.3875
1175.10432	24723.5875
1178.71056	26119.3875
1182.31434	27510.5875
1185.91565	28230.6875
1189.51451	28106.6875
1193.11091	27466.9875
1196.70485	26608.8875
1200.29634	25886.4875
1203.88538	25449.5875
1207.47197	25243.8875
1211.05612	24902.5875
1214.63782	24406.4875
1218.21708	23879.1875
1221.79391	23322.0875
1225.36829	22929.7875
1228.94024	22602.8875
1232.50976	22286.1875
1236.07685	22053.7875
1239.6415	22007.0875
1243.20374	22061.8875
1246.76355	22246.0875
1250.32093	22547.8875
1253.8759	22937.0875
1257.42845	23427.3875
1260.97859	23880.7875
1264.52631	24402.1875
1268.07163	25011.2875
1271.61453	25588.1875
1275.15503	26215.2875
1278.69312	26798.6875
1282.22882	27391.4875
1285.76211	28032.6875
1289.29301	28836.2875
1292.82151	29979.2875
1296.34761	31408.5875
1299.87133	33167.9875
1303.39266	34984.3875
1306.9116	36628.1875
1310.42815	37848.1875
1313.94233	38303.4875
1317.45412	37855.0875
1320.96354	37127.4875
1324.47058	36542.9875
1327.97525	36032.1875
1331.47754	35731.3875
1334.97747	35475.3875
1338.47502	35196.5875
1341.97022	34805.5875
1345.46305	34280.3875
1348.95352	33969.9875
1352.44163	34022.6875
1355.92738	34639.7875
1359.41078	35888.0875
1362.89183	36775.1875
1366.37053	36096.5875
1369.84688	33493.6875
1373.32088	30385.5875
1376.79254	28332.5875
1380.26186	27623.1875
1383.72883	27696.5875
1387.19347	27774.8875
1390.65578	27574.7875
1394.11575	27504.1875
1397.57339	27768.2875
1401.0287	28156.7875
1404.48168	28465.0875
1407.93234	28451.1875
1411.38068	27946.8875
1414.82669	27152.2875
1418.27039	26107.0875
1421.71177	25169.3875
1425.15083	24364.7875
1428.58758	23930.0875
1432.02203	24100.8875
1435.45416	24664.8875
1438.88399	25328.4875
1442.31151	25818.4875
1445.73673	26107.9875
1449.15965	26288.5875
1452.58027	26329.2875
1455.9986	26339.1875
1459.41463	26399.5875
1462.82837	26684.1875
1466.23982	27064.1875
1469.64898	27524.4875
1473.05586	27770.7875
1476.46045	27847.9875
1479.86276	27752.9875
1483.26279	27438.7875
1486.66054	27251.9875
1490.05602	27290.9875
1493.44922	27481.8875
1496.84016	27669.5875
1500.22882	28064.5875
1503.61521	28717.0875
1506.99934	29590.0875
1510.38121	30280.1875
1513.76081	30391.5875
1517.13816	29918.2875
1520.51324	29159.4875
1523.88607	28553.9875
1527.25665	28279.6875
1530.62498	28286.6875
1533.99105	28266.1875
1537.35488	28039.7875
1540.71647	27522.3875
1544.07581	26939.8875
1547.4329	26322.8875
1550.78776	25764.6875
1554.14038	25381.8875
1557.49077	25224.9875
1560.83892	25022.5875
1564.18484	24992.4875
1567.52853	25076.7875
1570.86999	25326.3875
1574.20922	25701.6875
1577.54624	26073.1875
1580.88103	26298.6875
1584.2136	26633.4875
1587.54395	27358.1875
1590.87208	28568.0875
1594.19801	30042.0875
1597.52172	31270.1875
1600.84321	31412.2875
1604.16251	30124.9875
1607.47959	27977.7875
1610.79447	25918.0875
1614.10715	24017.4875
1617.41763	22535.0875
1620.7259	21579.7875
1624.03199	21160.0875
1627.33587	21227.2875
1630.63757	21722.8875
1633.93707	22849.2875
1637.23439	24602.4875
1640.52951	27103.4875
1643.82246	30064.4875
1647.11321	32297.0875
1650.40179	32602.8875
1653.68819	30512.1875
1656.97241	27030.5875
1660.25446	23683.7875
1663.53433	21275.4875
1666.81203	19713.7875
1670.08756	18693.7875
1673.36092	18077.1875
1676.63211	17661.1875
1679.90115	17393.5875
1683.16801	17136.4875
1686.43272	17029.5875
1689.69527	16870.7875
1692.95567	16785.6875
1696.2139	16714.6875
1699.46999	16681.1875
1702.72392	16664.2875
1705.97571	16621.3875
1709.22535	16534.1875
1712.47284	16519.5875
1715.71819	16505.6875
1718.96139	16487.5875
1722.20246	16442.1875
1725.44139	16375.5875
1728.67818	16313.6875
1731.91284	16199.0875
1735.14537	16161.4875
1738.37576	16088.0875
1741.60403	16050.4875
1744.83017	15980.8875
1748.05418	15965.9875
1751.27607	15956.4875
1754.49584	15941.5875
1757.71349	15927.2875
1760.92903	15907.2875
1764.14244	15926.5875
1767.35375	15887.0875
1770.56294	15878.4875
1773.77002	15843.6875
1776.97499	15821.3875
1780.17785	15785.8875
1783.37861	15756.1875
1786.57727	15712.5875
1789.77382	15704.1875
1792.96828	15683.5875
1796.16064	15610.8875
1799.3509	15652.6875
1802.53907	15585.8875
1805.72514	15546.2875
1808.90913	15516.2875
1812.09102	15476.5875
1815.27083	15466.6875
1818.44856	15441.5875
1821.6242	15413.5875
1824.79776	15392.1875
1827.96924	15385.4875
1831.13864	15380.9875
1834.30597	15408.1875
1837.47122	15393.5875
1840.6344	15358.0875
1843.7955	15352.7875
1846.95454	15336.9875
1850.11151	15319.3875
1853.26642	15314.9875
1856.41926	15305.0875
1859.57004	15312.9875
1862.71876	15294.6875
1865.86542	15283.5875
1869.01003	15285.9875
1872.15258	15245.2875
1875.29308	15233.2875
1878.43152	15238.8875
1881.56792	15214.1875
1884.70227	15205.1875
1887.83457	15165.3875
1890.96482	15140.9875
1894.09304	15110.9875
1897.21921	15092.6875
1900.34335	15074.3875
1903.46544	15042.2875
1906.58551	15065.3875
1909.70353	15019.4875
1912.81953	15024.1875
1915.93349	15023.0875
1919.04543	14972.5875
1922.15534	14916.4875
1925.26322	14914.4875
1928.36908	14880.5875
1931.47292	14896.9875
1934.57473	14848.3875
1937.67453	14833.7875
1940.77232	14796.6875
1943.86808	14715.2875
1946.96184	14679.7875
1950.05358	14673.3875
1953.14331	14626.0875
1956.23103	14581.8875
1959.31675	14556.6875
1962.40046	14489.5875
1965.48217	14435.3875
1968.56188	14399.7875
1971.63959	14363.5875
1974.7153	14326.9875
1977.78901	14277.9875
1980.86073	14270.2875
1983.93046	14232.2875
1986.99819	14191.7875
1990.06394	14156.8875
1993.1277	14108.3875
1996.18947	14056.4875
1999.24925	14016.1875
2002.30706	13984.7875
2005.36288	13964.5875
2008.41672	13886.3875
2011.46859	13877.9875
2014.51848	13849.8875
2017.56639	13833.9875
2020.61233	13803.1875
2023.6563	13775.7875
2026.6983	13741.0875
2029.73833	13689.9875
2032.7764	13669.9875
2035.8125	13643.4875
2038.84664	13597.5875
2041.87881	13586.4875
2044.90903	13535.1875
2047.93729	13531.5875
2050.96359	13538.4875
2053.98794	13509.2875
2057.01034	13505.2875
2060.03078	13482.3875
2063.04927	13473.9875
2066.06582	13503.8875
2069.08042	13484.0875
2072.09307	13465.7875
2075.10378	13436.3875
2078.11255	13405.5875
2081.11938	13408.6875
2084.12426	13409.8875
2087.12722	13395.5875
2090.12824	13388.6875
2093.12732	13383.8875
2096.12447	13397.5875
2099.11969	13378.7875
2102.11299	13434.1875
2105.10435	13400.8875
2108.09379	13430.9875
2111.08131	13427.0875
2114.0669	13464.9875
2117.05057	13468.8875
2120.03233	13456.5875
2123.01216	13476.9875
2125.99008	13488.4875
2128.96609	13510.2875
2131.94018	13489.5875
2134.91236	13540.5875
2137.88263	13511.9875
2140.851	13535.3875
2143.81746	13556.6875
2146.78201	13568.3875
2149.74466	13581.7875
2152.7054	13525.7875
2155.66425	13522.8875
2158.6212	13564.7875
2161.57625	13524.4875
2164.52941	13527.8875
2167.48067	13510.3875
2170.43004	13528.9875
2173.37752	13510.4875
2176.32311	13519.1875
2179.26681	13509.8875
2182.20863	13509.5875
2185.14856	13510.4875
2188.08661	13505.5875
2191.02278	13513.6875
2193.95707	13529.6875
2196.88948	13503.3875
2199.82001	13520.2875
2202.74867	13484.9875
2205.67545	13491.9875
2208.60037	13436.5875
2211.52341	13445.9875
2214.44458	13449.9875
2217.36388	13427.5875
2220.28132	13416.8875
2223.1969	13363.0875
2226.11061	13388.1875
2229.02246	13337.7875
2231.93245	13311.5875
2234.84058	13267.8875
2237.74686	13286.5875
2240.65128	13277.6875
2243.55385	13252.9875
2246.45456	13220.9875
2249.35343	13201.1875
2252.25044	13206.5875
2255.14561	13173.5875
2258.03893	13162.0875
2260.93041	13113.6875
2263.82004	13072.9875
2266.70783	13046.4875
2269.59378	12997.8875
2272.4779	12988.4875
2275.36017	12938.5875
2278.24061	12963.2875
2281.11922	12939.0875
2283.996	12885.0875
2286.87094	12921.0875
2289.74405	12870.5875
2292.61534	12889.9875
2295.4848	12893.7875
2298.35243	12867.9875
2301.21824	12836.1875
2304.08223	12874.1875
2306.94439	12869.2875
2309.80474	12869.6875
2312.66327	12858.6875
2315.51999	12845.9875
2318.37489	12878.1875
2321.22797	12812.9875
2324.07925	12825.3875
2326.92871	12805.7875
2329.77637	12785.6875
2332.62222	12778.6875
2335.46626	12767.2875
2338.3085	12727.9875
2341.14893	12759.7875
2343.98756	12760.5875
2346.8244	12738.5875
2349.65943	12726.1875
2352.49267	12722.8875
2355.32411	12737.5875
2358.15376	12717.6875
2360.98161	12711.0875
2363.80768	12723.9875
2366.63195	12719.1875
2369.45444	12664.1875
2372.27514	12642.1875
2375.09405	12662.3875
2377.91118	12617.4875
2380.72652	12567.0875
2383.54009	12577.7875
2386.35187	12536.4875
2389.16188	12481.0875
2391.97011	12493.0875
2394.77657	12457.4875
2397.58125	12434.7875
2400.38416	12426.8875
2403.18529	12416.2875
2405.98466	12387.6875
2408.78226	12357.5875
2411.57809	12376.2875
2414.37216	12367.6875
2417.16446	12352.6875
2419.955	12351.7875
2422.74378	12348.4875
2425.5308	12354.3875
2428.31606	12332.0875
2431.09956	12336.6875
2433.88131	12303.2875
2436.6613	12321.5875
2439.43954	12290.6875
2442.21603	12273.1875
2444.99077	12265.8875
2447.76377	12294.7875
2450.53501	12272.5875
2453.30451	12272.2875
2456.07226	12248.3875
2458.83827	12220.6875
2461.60254	12241.7875
2464.36507	12243.2875
2467.12586	12235.1875
2469.88492	12233.8875
2472.64224	12234.0875
2475.39782	12239.1875
2478.15167	12254.2875
2480.90379	12248.3875
2483.65417	12259.9875
2486.40283	12241.9875
2489.14976	12252.4875
2491.89497	12245.8875
2494.63845	12257.0875
2497.3802	12246.9875
2500.12024	12268.4875
2502.85855	12235.5875
2505.59514	12200.8875
2508.33002	12195.0875
2511.06318	12212.9875
2513.79462	12205.5875
2516.52435	12165.5875
2519.25237	12177.4875
2521.97867	12147.1875
2524.70327	12191.9875
2527.42616	12135.4875
2530.14734	12153.3875
2532.86681	12133.3875
2535.58458	12152.0875
2538.30065	12141.7875
2541.01501	12128.9875
2543.72768	12136.5875
2546.43864	12136.1875
2549.14791	12113.6875
2551.85548	12097.9875
2554.56136	12075.3875
2557.26554	12042.5875
2559.96803	12040.6875
2562.66883	11997.7875
2565.36794	12012.7875
2568.06536	11983.9875
2570.7611	11992.3875
2573.45514	11990.0875
2576.14751	11962.0875
2578.83819	11979.8875
2581.52719	11941.7875
2584.21451	11949.1875
2586.90015	11929.0875
2589.58411	11901.0875
2592.2664	11911.6875
2594.94701	11892.2875
2597.62594	11881.5875
2600.30321	11854.7875
2602.9788	11849.2875
2605.65273	11813.2875
2608.32498	11846.8875
2610.99557	11840.3875
2613.66449	11819.1875
2616.33175	11831.3875
2618.99734	11824.5875
2621.66128	11831.9875
2624.32355	11820.6875
2626.98416	11804.9875
2629.64311	11810.5875
2632.30041	11780.4875
2634.95605	11769.6875
2637.61004	11754.7875
2640.26238	11746.9875
2642.91306	11741.1875
2645.56209	11727.1875
2648.20948	11718.1875
2650.85521	11723.5875
2653.4993	11733.3875
2656.14175	11728.6875
2658.78255	11741.2875
2661.42171	11758.7875
2664.05923	11773.4875
2666.6951	11778.0875
2669.32934	11772.8875
2671.96194	11731.6875
2674.59291	11782.6875
2677.22224	11768.7875
2679.84993	11751.4875
2682.476	11769.3875
2685.10043	11754.9875
2687.72324	11715.0875
2690.34441	11755.0875
2692.96396	11775.9875
2695.58188	11702.0875
2698.19818	11726.2875
2700.81285	11732.2875
2703.4259	11757.9875
2706.03733	11751.3875
2708.64714	11748.3875
2711.25533	11753.2875
2713.86191	11751.2875
2716.46687	11792.5875
2719.07021	11795.1875
2721.67194	11780.3875
2724.27206	11794.3875
2726.87057	11803.2875
2729.46747	11806.0875
2732.06276	11811.3875
2734.65644	11799.5875
2737.24852	11816.0875
2739.83899	11793.0875
2742.42786	11818.8875
2745.01513	11753.2875
2747.60079	11769.9875
2750.18486	11748.1875
2752.76733	11749.7875
2755.3482	11747.1875
2757.92747	11747.4875
2760.50515	11731.6875
2763.08123	11730.5875
2765.65573	11709.8875
2768.22863	11680.1875
2770.79994	11698.4875
2773.36967	11709.0875
2775.9378	11716.3875
2778.50435	11727.6875
2781.06932	11731.5875
2783.6327	11692.9875
2786.1945	11689.9875
2788.75471	11688.3875
2791.31335	11656.9875
2793.87041	11676.5875
2796.42589	11632.6875
2798.97979	11626.9875
2801.53212	11596.3875
2804.08288	11620.4875
2806.63206	11574.0875
2809.17967	11524.3875
2811.72571	11506.2875
2814.27018	11510.7875
2816.81308	11463.3875
2819.35442	11469.4875
2821.89419	11454.7875
2824.43239	11411.3875
2826.96904	11419.3875
2829.50412	11430.2875
2832.03763	11395.1875
2834.56959	11409.3875
2837.1	11393.7875
2839.62884	11391.9875
2842.15613	11397.1875
2844.68186	11412.2875
2847.20604	11427.1875
2849.72867	11442.2875
2852.24974	11414.9875
2854.76927	11399.5875
2857.28724	11393.0875
2859.80367	11341.4875
2862.31855	11358.0875
2864.83189	11327.0875
2867.34368	11317.9875
2869.85393	11331.6875
2872.36264	11324.1875
2874.8698	11317.9875
2877.37543	11320.0875
2879.87952	11322.2875
2882.38207	11317.4875
2884.88308	11286.9875
2887.38256	11317.2875
2889.88051	11319.1875
2892.37692	11325.0875
2894.8718	11315.6875
2897.36515	11331.8875
2899.85698	11350.1875
2902.34727	11376.7875
2904.83604	11382.9875
2907.32328	11413.9875
2909.809	11382.4875
2912.29319	11382.3875
2914.77587	11394.4875
2917.25702	11381.7875
2919.73665	11391.0875
2922.21476	11377.2875
2924.69136	11366.6875
2927.16644	11400.2875
2929.64	11362.7875
2932.11205	11346.7875
2934.58258	11310.7875
2937.05161	11347.4875
2939.51912	11332.4875
2941.98513	11326.3875
2944.44962	11301.9875
2946.91261	11273.1875
2949.37409	11267.2875
2951.83407	11251.2875
2954.29254	11274.4875
2956.74951	11248.0875
2959.20498	11256.6875
2961.65895	11254.1875
2964.11142	11270.3875
2966.56239	11239.0875
2969.01186	11250.3875
2971.45984	11205.6875
2973.90632	11211.3875
2976.35131	11185.0875
2978.7948	11190.5875
2981.23681	11160.6875
2983.67732	11136.5875
2986.11635	11148.1875
2988.55388	11104.2875
2990.98993	11081.0875
2993.4245	11081.1875
2995.85758	11045.7875
2998.28917	11044.7875
3000.71928	10990.0875
3003.14791	10971.0875
3005.57506	10979.8875
3008.00073	10970.6875
3010.42493	10916.2875
3012.84764	10900.0875
3015.26888	10900.7875
3017.68865	10864.2875
3020.10694	10872.6875
3022.52376	10863.9875
3024.9391	10880.3875
