Data from AgNP_FTO_APTES_UA_10uM_CRN_10uM_R6G_10uM_NaF_0.1M_Addition_RamanShift__5__15-30-10-689.txt Node

Date: Thu Feb 10 15:30:10 GMT 2022
User: TCL
Spectrometer: QEP01345
Trigger mode: 4
Integration Time (sec): 7.000000E0
Scans to average: 10
Electric dark correction enabled: true
Nonlinearity correction enabled: false
Boxcar width: 0
XAxis mode: Raman Shifts
Number of Pixels in Spectrum: 1044
>>>>>Begin Spectral Data<<<<<
46.04893	0.5125
50.45542	-1.2875
54.85868	-1.7875
59.25871	-0.7875
63.6555	79.7125
68.04907	79.3125
72.43941	83.5125
76.82654	85.3125
81.21044	92.4125
85.59113	91.1125
89.96862	97.7125
94.34289	101.0125
98.71396	104.3125
103.08183	105.8125
107.4465	114.0125
111.80798	109.8125
116.16626	117.3125
120.52136	117.5125
124.87327	126.3125
129.222	130.4125
133.56755	146.1125
137.90993	150.0125
142.24913	167.1125
146.58517	185.5125
150.91804	216.4125
155.24774	255.4125
159.57429	323.0125
163.89768	414.8125
168.21792	556.8125
172.53501	758.2125
176.84895	1051.2125
181.15975	1473.9125
185.46741	2061.9125
189.77193	2845.5125
194.07331	3788.7125
198.37157	4885.4125
202.6667	6034.7125
206.9587	7145.4125
211.24758	8244.6125
215.53334	9362.4125
219.81599	10590.7125
224.09553	11863.6125
228.37195	13283.1125
232.64527	14851.4125
236.91549	16508.4125
241.18261	18117.4125
245.44663	19640.1125
249.70755	20967.8125
253.96539	22208.0125
258.22014	23220.4125
262.4718	24059.7125
266.72039	24638.0125
270.96589	24917.8125
275.20832	24958.4125
279.44768	24811.5125
283.68397	24642.2125
287.91719	24459.9125
292.14735	24334.9125
296.37445	24310.8125
300.59849	24393.2125
304.81948	24534.9125
309.03742	24544.6125
313.25231	24425.6125
317.46415	24036.9125
321.67296	23617.4125
325.87872	23175.1125
330.08145	23007.1125
334.28114	22961.7125
338.47781	23087.3125
342.67145	23372.5125
346.86207	23748.2125
351.04966	24164.4125
355.23424	24614.9125
359.4158	24994.3125
363.59435	25219.1125
367.76989	25477.7125
371.94243	25603.0125
376.11196	25720.3125
380.27849	25794.3125
384.44203	25951.3125
388.60257	26177.6125
392.76012	26503.7125
396.91468	26888.7125
401.06626	27274.2125
405.21485	27499.7125
409.36047	27452.6125
413.50311	27248.2125
417.64277	27245.4125
421.77947	27537.4125
425.9132	27729.7125
430.04396	27939.6125
434.17176	28028.8125
438.2966	28081.1125
442.41849	28560.1125
446.53742	29372.8125
450.6534	30343.1125
454.76644	31020.8125
458.87653	31191.1125
462.98368	30937.5125
467.08789	30386.2125
471.18916	29701.4125
475.2875	29049.9125
479.38291	28696.8125
483.4754	28487.0125
487.56496	28174.0125
491.6516	27736.9125
495.73531	27356.0125
499.81612	27195.7125
503.89401	27432.3125
507.96899	27593.7125
512.04106	27592.3125
516.11023	27373.3125
520.1765	26984.3125
524.23987	26673.7125
528.30034	26412.9125
532.35792	26182.5125
536.41261	25826.8125
540.46441	25541.1125
544.51333	25512.6125
548.55936	25812.8125
552.60252	26386.5125
556.64279	27092.7125
560.6802	27708.1125
564.71473	28011.9125
568.7464	28497.7125
572.7752	29458.2125
576.80114	30566.7125
580.82422	31798.0125
584.84444	33382.2125
588.86181	35368.3125
592.87633	36816.3125
596.888	36214.5125
600.89682	33982.7125
604.9028	33009.3125
608.90594	34241.4125
612.90624	35659.7125
616.90371	33151.4125
620.89834	28610.9125
624.89015	26776.2125
628.87913	26627.8125
632.86528	26659.4125
636.84862	26443.6125
640.82913	25884.5125
644.80683	25242.1125
648.78172	24897.4125
652.75379	24968.5125
656.72306	25281.7125
660.68952	25602.5125
664.65319	25369.9125
668.61405	24986.1125
672.57211	24977.4125
676.52738	25160.1125
680.47986	25115.2125
684.42955	24847.7125
688.37646	24791.2125
692.32058	25019.0125
696.26192	25502.5125
700.20048	25924.3125
704.13626	26100.4125
708.06928	26068.1125
711.99952	25966.4125
715.927	25955.8125
719.85171	26103.8125
723.77365	25995.0125
727.69284	25553.9125
731.60928	25126.7125
735.52295	24990.3125
739.43388	24908.4125
743.34206	25060.5125
747.24749	25277.9125
751.15017	25618.3125
755.05012	26088.2125
758.94733	26902.1125
762.8418	28063.4125
766.73354	29674.5125
770.62254	31045.5125
774.50882	31010.0125
778.39237	29594.8125
782.27321	27788.5125
786.15132	26427.6125
790.02671	25623.6125
793.89938	25218.7125
797.76935	25067.1125
801.6366	25042.8125
805.50115	24979.9125
809.36299	24880.2125
813.22213	24628.9125
817.07857	24518.0125
820.93231	24361.1125
824.78336	24188.4125
828.63172	24064.5125
832.47738	24022.4125
836.32036	24051.2125
840.16066	24127.5125
843.99827	24242.3125
847.8332	24223.6125
851.66546	24181.3125
855.49504	24210.2125
859.32195	24190.8125
863.1462	24125.3125
866.96777	24012.5125
870.78668	23920.6125
874.60293	23930.7125
878.41652	23955.2125
882.22745	24024.0125
886.03573	24100.3125
889.84136	24073.1125
893.64433	23949.4125
897.44466	23817.2125
901.24235	23758.4125
905.0374	23722.0125
908.8298	23695.0125
912.61957	23821.7125
916.40671	24055.4125
920.19121	24463.4125
923.97308	24800.4125
927.75233	24835.6125
931.52895	24521.5125
935.30295	24083.3125
939.07433	23609.8125
942.84309	23362.4125
946.60924	23311.6125
950.37278	23298.1125
954.13371	23263.4125
957.89203	23254.0125
961.64774	23178.2125
965.40086	23210.7125
969.15137	23167.1125
972.89929	23063.0125
976.64461	23041.7125
980.38733	23013.8125
984.12747	23114.6125
987.86502	23248.2125
991.59999	23482.8125
995.33237	23888.9125
999.06217	24518.0125
1002.78939	25289.1125
1006.51404	25921.5125
1010.23611	26475.6125
1013.95561	26783.6125
1017.67255	26712.0125
1021.38692	26367.6125
1025.09872	25852.5125
1028.80796	25767.5125
1032.51465	26162.9125
1036.21877	26742.7125
1039.92035	26918.1125
1043.61937	26781.4125
1047.31584	26281.3125
1051.00976	25766.2125
1054.70114	25534.3125
1058.38998	25521.8125
1062.07627	25696.4125
1065.76003	25886.5125
1069.44126	26188.9125
1073.11995	26593.1125
1076.79611	27012.1125
1080.46974	27218.7125
1084.14085	27468.7125
1087.80943	27780.7125
1091.47549	28052.9125
1095.13903	28024.0125
1098.80005	27579.3125
1102.45857	26926.9125
1106.11456	26462.6125
1109.76805	26288.2125
1113.41903	26262.6125
1117.06751	26375.8125
1120.71348	26596.9125
1124.35696	26777.1125
1127.99793	27034.2125
1131.63641	27286.6125
1135.2724	27290.4125
1138.90589	27318.8125
1142.5369	27486.2125
1146.16542	27765.3125
1149.79145	28096.5125
1153.415	28449.8125
1157.03607	28982.4125
1160.65467	30066.2125
1164.27079	31734.8125
1167.88443	33594.7125
1171.49561	35448.7125
1175.10432	37654.0125
1178.71056	40450.6125
1182.31434	43103.5125
1185.91565	44428.6125
1189.51451	44042.4125
1193.11091	42743.9125
1196.70485	41282.6125
1200.29634	39907.3125
1203.88538	39194.9125
1207.47197	38969.0125
1211.05612	38756.1125
1214.63782	38021.5125
1218.21708	36960.4125
1221.79391	35791.5125
1225.36829	34975.7125
1228.94024	34330.4125
1232.50976	33694.8125
1236.07685	33004.4125
1239.6415	32593.0125
1243.20374	32559.5125
1246.76355	32884.9125
1250.32093	33489.7125
1253.8759	34326.6125
1257.42845	35368.7125
1260.97859	36514.8125
1264.52631	37643.9125
1268.07163	38953.4125
1271.61453	40301.6125
1275.15503	41570.4125
1278.69312	42997.7125
1282.22882	44267.6125
1285.76211	45835.0125
1289.29301	47644.9125
1292.82151	50043.8125
1296.34761	53051.0125
1299.87133	56749.2125
1303.39266	60806.2125
1306.9116	64105.3125
1310.42815	66365.1125
1313.94233	67135.7125
1317.45412	66429.1125
1320.96354	65004.5125
1324.47058	63985.0125
1327.97525	63413.3125
1331.47754	63069.7125
1334.97747	62699.6125
1338.47502	62037.0125
1341.97022	60777.7125
1345.46305	59131.6125
1348.95352	57669.2125
1352.44163	57229.9125
1355.92738	58292.0125
1359.41078	60565.3125
1362.89183	62068.4125
1366.37053	60816.4125
1369.84688	56193.6125
1373.32088	50281.3125
1376.79254	46241.0125
1380.26186	45064.7125
1383.72883	45551.8125
1387.19347	45924.5125
1390.65578	45525.5125
1394.11575	45570.4125
1397.57339	46440.3125
1401.0287	47612.7125
1404.48168	48602.5125
1407.93234	48890.3125
1411.38068	47953.0125
1414.82669	46296.7125
1418.27039	44082.2125
1421.71177	41870.9125
1425.15083	40180.7125
1428.58758	39437.5125
1432.02203	40047.7125
1435.45416	41479.9125
1438.88399	43250.2125
1442.31151	44458.9125
1445.73673	45004.4125
1449.15965	45184.7125
1452.58027	45023.1125
1455.9986	44692.8125
1459.41463	44828.2125
1462.82837	45467.3125
1466.23982	46463.0125
1469.64898	47434.2125
1473.05586	47902.8125
1476.46045	47907.1125
1479.86276	47386.1125
1483.26279	46608.7125
1486.66054	46125.4125
1490.05602	46030.4125
1493.44922	46086.2125
1496.84016	46073.3125
1500.22882	46214.8125
1503.61521	46585.7125
1506.99934	47259.6125
1510.38121	47768.7125
1513.76081	47672.0125
1517.13816	47005.0125
1520.51324	46259.8125
1523.88607	45977.4125
1527.25665	46339.9125
1530.62498	46883.5125
1533.99105	47179.5125
1537.35488	46802.8125
1540.71647	45856.9125
1544.07581	44497.8125
1547.4329	43113.6125
1550.78776	41831.2125
1554.14038	40832.8125
1557.49077	40206.7125
1560.83892	39676.8125
1564.18484	39302.9125
1567.52853	39281.2125
1570.86999	39593.5125
1574.20922	40391.2125
1577.54624	41305.4125
1580.88103	42023.5125
1584.2136	43170.8125
1587.54395	45371.5125
1590.87208	48708.1125
1594.19801	52476.2125
1597.52172	55769.3125
1600.84321	56327.9125
1604.16251	53158.3125
1607.47959	47908.5125
1610.79447	42577.7125
1614.10715	38123.8125
1617.41763	34843.5125
1620.7259	32777.3125
1624.03199	31861.0125
1627.33587	32089.0125
1630.63757	33388.6125
1633.93707	36125.8125
1637.23439	40580.1125
1640.52951	46930.1125
1643.82246	54026.6125
1647.11321	59040.1125
1650.40179	58607.2125
1653.68819	52647.2125
1656.97241	44291.1125
1660.25446	36932.2125
1663.53433	31842.6125
1666.81203	28694.5125
1670.08756	26724.7125
1673.36092	25478.4125
1676.63211	24644.2125
1679.90115	24155.7125
1683.16801	23699.3125
1686.43272	23391.4125
1689.69527	23166.8125
1692.95567	22955.7125
1696.2139	22862.1125
1699.46999	22830.8125
1702.72392	22697.7125
1705.97571	22599.1125
1709.22535	22505.1125
1712.47284	22480.5125
1715.71819	22399.0125
1718.96139	22354.5125
1722.20246	22273.7125
1725.44139	22147.4125
1728.67818	22018.3125
1731.91284	21839.5125
1735.14537	21728.9125
1738.37576	21589.8125
1741.60403	21533.8125
1744.83017	21437.4125
1748.05418	21412.8125
1751.27607	21335.3125
1754.49584	21291.6125
1757.71349	21320.6125
1760.92903	21262.9125
1764.14244	21269.4125
1767.35375	21240.3125
1770.56294	21239.1125
1773.77002	21226.1125
1776.97499	21119.8125
1780.17785	21066.1125
1783.37861	21033.9125
1786.57727	21003.4125
1789.77382	20954.3125
1792.96828	20928.8125
1796.16064	20856.0125
1799.3509	20874.0125
1802.53907	20816.8125
1805.72514	20705.2125
1808.90913	20662.2125
1812.09102	20638.3125
1815.27083	20584.1125
1818.44856	20596.6125
1821.6242	20596.7125
1824.79776	20570.9125
1827.96924	20538.9125
1831.13864	20538.9125
1834.30597	20539.0125
1837.47122	20505.8125
1840.6344	20543.8125
1843.7955	20555.1125
1846.95454	20559.3125
1850.11151	20523.4125
1853.26642	20513.7125
1856.41926	20500.3125
1859.57004	20480.2125
1862.71876	20444.5125
1865.86542	20389.8125
1869.01003	20431.5125
1872.15258	20364.1125
1875.29308	20399.8125
1878.43152	20385.7125
1881.56792	20327.8125
1884.70227	20352.6125
1887.83457	20293.7125
1890.96482	20283.2125
1894.09304	20240.4125
1897.21921	20229.7125
1900.34335	20189.1125
1903.46544	20155.2125
1906.58551	20170.2125
1909.70353	20127.4125
1912.81953	20101.1125
1915.93349	20094.8125
1919.04543	20047.0125
1922.15534	19990.0125
1925.26322	19950.4125
1928.36908	19889.6125
1931.47292	19882.6125
1934.57473	19790.2125
1937.67453	19742.1125
1940.77232	19760.8125
1943.86808	19667.6125
1946.96184	19612.6125
1950.05358	19545.9125
1953.14331	19474.7125
1956.23103	19449.8125
1959.31675	19401.4125
1962.40046	19337.5125
1965.48217	19269.6125
1968.56188	19224.9125
1971.63959	19149.9125
1974.7153	19074.4125
1977.78901	19070.9125
1980.86073	18981.4125
1983.93046	18950.3125
1986.99819	18901.0125
1990.06394	18862.6125
1993.1277	18797.2125
1996.18947	18710.1125
1999.24925	18709.6125
2002.30706	18640.5125
2005.36288	18587.1125
2008.41672	18493.9125
2011.46859	18454.7125
2014.51848	18471.7125
2017.56639	18411.9125
2020.61233	18392.7125
2023.6563	18336.1125
2026.6983	18307.5125
2029.73833	18278.2125
2032.7764	18253.2125
2035.8125	18233.2125
2038.84664	18189.2125
2041.87881	18133.2125
2044.90903	18101.3125
2047.93729	18066.3125
2050.96359	18071.6125
2053.98794	18058.0125
2057.01034	18057.1125
2060.03078	18026.6125
2063.04927	17990.3125
2066.06582	18010.5125
2069.08042	18001.5125
2072.09307	18008.8125
2075.10378	17965.8125
2078.11255	17968.1125
2081.11938	17932.9125
2084.12426	17911.6125
2087.12722	17917.3125
2090.12824	17905.9125
2093.12732	17893.2125
2096.12447	17906.8125
2099.11969	17883.2125
2102.11299	17883.3125
2105.10435	17912.8125
2108.09379	17908.3125
2111.08131	17943.4125
2114.0669	17899.6125
2117.05057	17921.6125
2120.03233	17934.7125
2123.01216	17991.4125
2125.99008	17989.8125
2128.96609	17990.6125
2131.94018	18055.0125
2134.91236	18021.3125
2137.88263	18056.6125
2140.851	18039.0125
2143.81746	18009.9125
2146.78201	18044.4125
2149.74466	18031.3125
2152.7054	18039.0125
2155.66425	18037.3125
2158.6212	18023.8125
2161.57625	18018.6125
2164.52941	18042.6125
2167.48067	18037.2125
2170.43004	18016.1125
2173.37752	18022.2125
2176.32311	18029.2125
2179.26681	18051.7125
2182.20863	18057.1125
2185.14856	18071.7125
2188.08661	18024.6125
2191.02278	18044.5125
2193.95707	18073.3125
2196.88948	18049.3125
2199.82001	18024.6125
2202.74867	18011.7125
2205.67545	18010.0125
2208.60037	17948.2125
2211.52341	17979.5125
2214.44458	17937.2125
2217.36388	17918.6125
2220.28132	17890.9125
2223.1969	17848.0125
2226.11061	17866.7125
2229.02246	17804.8125
2231.93245	17804.0125
2234.84058	17755.4125
2237.74686	17714.9125
2240.65128	17719.8125
2243.55385	17674.8125
2246.45456	17649.1125
2249.35343	17610.0125
2252.25044	17591.0125
2255.14561	17542.6125
2258.03893	17528.2125
2260.93041	17486.5125
2263.82004	17407.4125
2266.70783	17393.4125
2269.59378	17344.9125
2272.4779	17281.8125
2275.36017	17250.5125
2278.24061	17229.2125
2281.11922	17224.5125
2283.996	17220.6125
2286.87094	17198.2125
2289.74405	17219.9125
2292.61534	17183.7125
2295.4848	17161.3125
2298.35243	17193.5125
2301.21824	17169.9125
2304.08223	17171.4125
2306.94439	17206.3125
2309.80474	17208.6125
2312.66327	17236.3125
2315.51999	17224.2125
2318.37489	17188.2125
2321.22797	17181.3125
2324.07925	17191.7125
2326.92871	17128.7125
2329.77637	17127.0125
2332.62222	17120.2125
2335.46626	17072.6125
2338.3085	17113.0125
2341.14893	17125.1125
2343.98756	17146.8125
2346.8244	17143.7125
2349.65943	17112.8125
2352.49267	17085.0125
2355.32411	17105.7125
2358.15376	17106.3125
2360.98161	17085.3125
2363.80768	17101.2125
2366.63195	17075.2125
2369.45444	17005.5125
2372.27514	16999.8125
2375.09405	16980.9125
2377.91118	16935.5125
2380.72652	16904.1125
2383.54009	16892.9125
2386.35187	16853.9125
2389.16188	16828.0125
2391.97011	16756.5125
2394.77657	16737.6125
2397.58125	16759.3125
2400.38416	16766.2125
2403.18529	16695.1125
2405.98466	16696.4125
2408.78226	16675.8125
2411.57809	16634.1125
2414.37216	16625.5125
2417.16446	16638.1125
2419.955	16599.8125
2422.74378	16598.7125
2425.5308	16574.7125
2428.31606	16576.1125
2431.09956	16581.0125
2433.88131	16567.7125
2436.6613	16586.9125
2439.43954	16612.3125
2442.21603	16568.3125
2444.99077	16552.0125
2447.76377	16542.8125
2450.53501	16571.0125
2453.30451	16544.0125
2456.07226	16557.0125
2458.83827	16561.1125
2461.60254	16571.2125
2464.36507	16509.6125
2467.12586	16521.9125
2469.88492	16495.2125
2472.64224	16521.8125
2475.39782	16548.8125
2478.15167	16586.7125
2480.90379	16585.7125
2483.65417	16609.0125
2486.40283	16640.0125
2489.14976	16621.4125
2491.89497	16630.4125
2494.63845	16638.3125
2497.3802	16645.7125
2500.12024	16644.5125
2502.85855	16620.8125
2505.59514	16610.3125
2508.33002	16589.9125
2511.06318	16584.5125
2513.79462	16586.3125
2516.52435	16580.8125
2519.25237	16572.4125
2521.97867	16576.3125
2524.70327	16559.6125
2527.42616	16534.3125
2530.14734	16569.6125
2532.86681	16544.2125
2535.58458	16521.3125
2538.30065	16548.5125
2541.01501	16544.5125
2543.72768	16551.3125
2546.43864	16547.7125
2549.14791	16534.0125
2551.85548	16537.1125
2554.56136	16517.8125
2557.26554	16509.5125
2559.96803	16512.8125
2562.66883	16468.0125
2565.36794	16476.3125
2568.06536	16463.0125
2570.7611	16435.4125
2573.45514	16455.0125
2576.14751	16443.0125
2578.83819	16434.1125
2581.52719	16443.1125
2584.21451	16447.2125
2586.90015	16426.4125
2589.58411	16431.2125
2592.2664	16415.5125
2594.94701	16426.9125
2597.62594	16421.1125
2600.30321	16424.7125
2602.9788	16414.3125
2605.65273	16397.9125
2608.32498	16397.0125
2610.99557	16454.6125
2613.66449	16448.2125
2616.33175	16439.8125
2618.99734	16456.2125
2621.66128	16413.3125
2624.32355	16427.5125
2626.98416	16423.1125
2629.64311	16391.1125
2632.30041	16385.2125
2634.95605	16371.8125
2637.61004	16380.9125
2640.26238	16332.3125
2642.91306	16328.6125
2645.56209	16336.1125
2648.20948	16324.1125
2650.85521	16339.5125
2653.4993	16350.0125
2656.14175	16344.2125
2658.78255	16397.6125
2661.42171	16392.9125
2664.05923	16411.4125
2666.6951	16453.1125
2669.32934	16466.9125
2671.96194	16451.8125
2674.59291	16480.2125
2677.22224	16485.1125
2679.84993	16444.3125
2682.476	16419.9125
2685.10043	16448.6125
2687.72324	16406.2125
2690.34441	16415.4125
2692.96396	16396.3125
2695.58188	16383.1125
2698.19818	16422.1125
2700.81285	16458.7125
2703.4259	16422.0125
2706.03733	16447.0125
2708.64714	16446.2125
2711.25533	16462.1125
2713.86191	16452.8125
2716.46687	16472.1125
2719.07021	16457.2125
2721.67194	16560.3125
2724.27206	16524.4125
2726.87057	16550.7125
2729.46747	16565.7125
2732.06276	16595.7125
2734.65644	16571.1125
2737.24852	16587.1125
2739.83899	16582.8125
2742.42786	16642.5125
2745.01513	16576.8125
2747.60079	16549.9125
2750.18486	16521.0125
2752.76733	16533.6125
2755.3482	16549.7125
2757.92747	16533.7125
2760.50515	16536.2125
2763.08123	16528.0125
2765.65573	16492.6125
2768.22863	16554.5125
2770.79994	16529.5125
2773.36967	16563.6125
2775.9378	16545.9125
2778.50435	16518.9125
2781.06932	16546.8125
2783.6327	16555.9125
2786.1945	16559.3125
2788.75471	16538.6125
2791.31335	16509.9125
2793.87041	16518.8125
2796.42589	16521.7125
2798.97979	16486.7125
2801.53212	16482.7125
2804.08288	16431.2125
2806.63206	16416.8125
2809.17967	16376.5125
2811.72571	16329.5125
2814.27018	16275.3125
2816.81308	16258.4125
2819.35442	16246.5125
2821.89419	16200.3125
2824.43239	16196.8125
2826.96904	16176.7125
2829.50412	16187.0125
2832.03763	16151.8125
2834.56959	16137.8125
2837.1	16097.6125
2839.62884	16121.1125
2842.15613	16121.3125
2844.68186	16125.3125
2847.20604	16121.1125
2849.72867	16130.5125
2852.24974	16099.4125
2854.76927	16119.1125
2857.28724	16113.9125
2859.80367	16045.3125
2862.31855	16046.9125
2864.83189	16026.1125
2867.34368	15996.6125
2869.85393	16002.6125
2872.36264	16005.3125
2874.8698	16014.7125
2877.37543	15972.4125
2879.87952	15997.0125
2882.38207	15993.9125
2884.88308	16015.7125
2887.38256	16016.3125
2889.88051	16007.4125
2892.37692	16059.5125
2894.8718	16050.4125
2897.36515	16066.1125
2899.85698	16105.2125
2902.34727	16125.3125
2904.83604	16120.3125
2907.32328	16153.9125
2909.809	16159.9125
2912.29319	16149.4125
2914.77587	16152.5125
2917.25702	16108.1125
2919.73665	16102.1125
2922.21476	16137.1125
2924.69136	16085.7125
2927.16644	16123.1125
2929.64	16069.8125
2932.11205	16059.9125
2934.58258	16035.7125
2937.05161	16018.1125
2939.51912	16031.6125
2941.98513	16018.4125
2944.44962	16000.0125
2946.91261	15950.0125
2949.37409	15987.2125
2951.83407	16005.8125
2954.29254	15989.9125
2956.74951	15963.6125
2959.20498	15959.8125
2961.65895	15940.3125
2964.11142	15942.9125
2966.56239	15937.0125
2969.01186	15935.1125
2971.45984	15855.7125
2973.90632	15867.6125
2976.35131	15782.6125
2978.7948	15782.7125
2981.23681	15769.3125
2983.67732	15758.5125
2986.11635	15688.1125
2988.55388	15678.0125
2990.98993	15625.0125
2993.4245	15588.0125
2995.85758	15569.0125
2998.28917	15495.8125
3000.71928	15461.7125
3003.14791	15453.2125
3005.57506	15452.1125
3008.00073	15340.2125
3010.42493	15199.8125
3012.84764	15293.9125
3015.26888	15304.8125
3017.68865	15213.5125
3020.10694	15248.2125
3022.52376	15194.3125
