Data from AgNP_FTO_APTES_UA_10uM_CRN_5uM_R6G_10uM_NaF_0.1M_Addition_RamanShift__28__15-15-00-670.txt Node

Date: Thu Feb 10 15:15:00 GMT 2022
User: TCL
Spectrometer: QEP01345
Trigger mode: 4
Integration Time (sec): 7.000000E0
Scans to average: 10
Electric dark correction enabled: true
Nonlinearity correction enabled: false
Boxcar width: 0
XAxis mode: Raman Shifts
Number of Pixels in Spectrum: 1044
>>>>>Begin Spectral Data<<<<<
46.04893	0.175
50.45542	-1.425
54.85868	-0.725
59.25871	-0.925
63.6555	61.075
68.04907	67.275
72.43941	67.675
76.82654	67.175
81.21044	75.075
85.59113	75.775
89.96862	79.575
94.34289	84.575
98.71396	83.975
103.08183	90.975
107.4465	90.875
111.80798	90.775
116.16626	94.675
120.52136	100.475
124.87327	104.575
129.222	106.875
133.56755	116.875
137.90993	119.575
142.24913	129.075
146.58517	144.175
150.91804	172.075
155.24774	200.175
159.57429	246.875
163.89768	314.175
168.21792	418.375
172.53501	565.975
176.84895	788.575
181.15975	1097.775
185.46741	1520.875
189.77193	2110.775
194.07331	2817.775
198.37157	3611.275
202.6667	4461.475
206.9587	5295.275
211.24758	6129.775
215.53334	7000.375
219.81599	7909.875
224.09553	8973.775
228.37195	10126.875
232.64527	11435.475
236.91549	12722.975
241.18261	13986.975
245.44663	15042.575
249.70755	15973.075
253.96539	16787.475
258.22014	17520.075
262.4718	18143.575
266.72039	18654.675
270.96589	18999.775
275.20832	19124.575
279.44768	19100.675
283.68397	18966.375
287.91719	18909.875
292.14735	18953.475
296.37445	19145.575
300.59849	19467.275
304.81948	19853.075
309.03742	20004.075
313.25231	19750.475
317.46415	19028.975
321.67296	17893.175
325.87872	17018.175
330.08145	16576.475
334.28114	16582.075
338.47781	16804.475
342.67145	17165.775
346.86207	17704.775
351.04966	18431.275
355.23424	19285.975
359.4158	19926.375
363.59435	20213.875
367.76989	20306.375
371.94243	20353.275
376.11196	20294.175
380.27849	20265.375
384.44203	20124.275
388.60257	20076.475
392.76012	20096.775
396.91468	20339.075
401.06626	20830.875
405.21485	21175.075
409.36047	20900.775
413.50311	20196.175
417.64277	19565.075
421.77947	19288.975
425.9132	19229.675
430.04396	19330.175
434.17176	19435.275
438.2966	19667.175
442.41849	20036.775
446.53742	20621.075
450.6534	21223.175
454.76644	21724.075
458.87653	21879.875
462.98368	21801.975
467.08789	21558.975
471.18916	21089.775
475.2875	20679.375
479.38291	20368.875
483.4754	20142.375
487.56496	19811.475
491.6516	19508.975
495.73531	19272.375
499.81612	19233.675
503.89401	19377.775
507.96899	19502.775
512.04106	19526.975
516.11023	19604.675
520.1765	19609.875
524.23987	19521.975
528.30034	19208.875
532.35792	18892.275
536.41261	18582.675
540.46441	18258.775
544.51333	18239.175
548.55936	18503.075
552.60252	19008.875
556.64279	19530.575
560.6802	19835.475
564.71473	20054.175
568.7464	20645.175
572.7752	21177.675
576.80114	21078.175
580.82422	20769.175
584.84444	20670.575
588.86181	20693.575
592.87633	20761.075
596.888	21016.875
600.89682	21521.375
604.9028	23299.475
608.90594	27782.175
612.90624	33070.075
616.90371	30947.875
620.89834	23319.875
624.89015	20005.375
628.87913	19507.275
632.86528	19505.175
636.84862	19483.675
640.82913	19036.775
644.80683	18319.775
648.78172	17852.275
652.75379	17826.575
656.72306	18412.575
660.68952	19067.475
664.65319	19012.275
668.61405	18361.575
672.57211	18037.275
676.52738	18015.975
680.47986	18002.775
684.42955	17927.175
688.37646	17889.375
692.32058	17992.775
696.26192	18178.275
700.20048	18453.575
704.13626	18631.175
708.06928	18581.275
711.99952	18450.275
715.927	18360.075
719.85171	18317.975
723.77365	18259.375
727.69284	18014.975
731.60928	17806.975
735.52295	17759.075
739.43388	17791.575
743.34206	17900.575
747.24749	18050.875
751.15017	18286.375
755.05012	18670.975
758.94733	19521.375
762.8418	21200.475
766.73354	23972.875
770.62254	26626.275
774.50882	27508.275
778.39237	25846.375
782.27321	22925.175
786.15132	20391.875
790.02671	18949.575
793.89938	18294.875
797.76935	18023.875
801.6366	17892.975
805.50115	17813.775
809.36299	17710.475
813.22213	17599.575
817.07857	17572.175
820.93231	17550.375
824.78336	17598.875
828.63172	17649.675
832.47738	17670.375
836.32036	17671.675
840.16066	17720.375
843.99827	17706.475
847.8332	17615.075
851.66546	17548.475
855.49504	17482.675
859.32195	17506.975
863.1462	17382.075
866.96777	17242.675
870.78668	17217.375
874.60293	17229.575
878.41652	17246.575
882.22745	17354.175
886.03573	17420.975
889.84136	17323.175
893.64433	17223.775
897.44466	17168.875
901.24235	17166.175
905.0374	17193.675
908.8298	17152.175
912.61957	17219.275
916.40671	17355.075
920.19121	17640.675
923.97308	17881.275
927.75233	18013.675
931.52895	18042.275
935.30295	17821.075
939.07433	17321.175
942.84309	16950.775
946.60924	16793.575
950.37278	16695.875
954.13371	16558.575
957.89203	16474.975
961.64774	16422.775
965.40086	16352.375
969.15137	16324.275
972.89929	16251.275
976.64461	16218.075
980.38733	16250.475
984.12747	16318.375
987.86502	16482.575
991.59999	16709.975
995.33237	17065.575
999.06217	17691.875
1002.78939	18451.475
1006.51404	18997.575
1010.23611	19327.175
1013.95561	19538.975
1017.67255	19474.175
1021.38692	19219.775
1025.09872	19068.575
1028.80796	19275.075
1032.51465	19943.775
1036.21877	20540.575
1039.92035	20584.475
1043.61937	20223.775
1047.31584	19566.275
1051.00976	18930.075
1054.70114	18629.175
1058.38998	18561.975
1062.07627	18642.875
1065.76003	18765.775
1069.44126	18852.275
1073.11995	19033.075
1076.79611	19200.575
1080.46974	19398.375
1084.14085	19695.775
1087.80943	20084.175
1091.47549	20214.575
1095.13903	20006.875
1098.80005	19485.275
1102.45857	18955.575
1106.11456	18723.575
1109.76805	18702.375
1113.41903	18956.175
1117.06751	19338.975
1120.71348	19812.275
1124.35696	20279.875
1127.99793	20767.375
1131.63641	20775.375
1135.2724	20302.675
1138.90589	19770.075
1142.5369	19488.075
1146.16542	19281.675
1149.79145	19190.875
1153.415	19329.975
1157.03607	19592.075
1160.65467	20095.275
1164.27079	20850.375
1167.88443	21956.275
1171.49561	23603.075
1175.10432	26110.175
1178.71056	29331.175
1182.31434	31993.175
1185.91565	33193.475
1189.51451	32944.575
1193.11091	31429.975
1196.70485	29345.875
1200.29634	27626.975
1203.88538	26187.675
1207.47197	24950.775
1211.05612	23878.275
1214.63782	23317.375
1218.21708	23195.775
1221.79391	23318.775
1225.36829	23417.275
1228.94024	23379.275
1232.50976	23213.875
1236.07685	23072.675
1239.6415	22948.075
1243.20374	22874.175
1246.76355	23036.475
1250.32093	23419.675
1253.8759	24050.075
1257.42845	24876.375
1260.97859	25620.075
1264.52631	26290.275
1268.07163	26998.375
1271.61453	27788.275
1275.15503	28606.575
1278.69312	29297.675
1282.22882	29893.575
1285.76211	30469.075
1289.29301	31161.775
1292.82151	31972.575
1296.34761	33021.175
1299.87133	34597.975
1303.39266	36979.475
1306.9116	40312.975
1310.42815	44114.575
1313.94233	46690.975
1317.45412	46700.175
1320.96354	44990.875
1324.47058	42894.075
1327.97525	40974.475
1331.47754	39679.975
1334.97747	39267.875
1338.47502	39466.675
1341.97022	39928.775
1345.46305	40205.875
1348.95352	40317.975
1352.44163	40694.075
1355.92738	42317.175
1359.41078	45946.975
1362.89183	49478.375
1366.37053	48256.175
1369.84688	42434.475
1373.32088	36562.975
1376.79254	32903.175
1380.26186	31202.975
1383.72883	30461.375
1387.19347	29939.975
1390.65578	29417.075
1394.11575	29193.175
1397.57339	29336.475
1401.0287	29860.975
1404.48168	30564.075
1407.93234	31166.575
1411.38068	31454.175
1414.82669	31097.675
1418.27039	30087.875
1421.71177	28899.575
1425.15083	27769.075
1428.58758	27096.375
1432.02203	26987.175
1435.45416	27196.975
1438.88399	27479.875
1442.31151	27758.475
1445.73673	28144.075
1449.15965	28455.475
1452.58027	28641.775
1455.9986	28635.275
1459.41463	28787.775
1462.82837	29143.575
1466.23982	29733.175
1469.64898	30374.375
1473.05586	30725.575
1476.46045	30920.175
1479.86276	31120.175
1483.26279	31380.375
1486.66054	31779.375
1490.05602	32247.475
1493.44922	32962.175
1496.84016	33876.775
1500.22882	35262.575
1503.61521	37267.975
1506.99934	39857.775
1510.38121	42573.475
1513.76081	44110.075
1517.13816	43123.275
1520.51324	40046.775
1523.88607	36623.575
1527.25665	34120.875
1530.62498	32600.975
1533.99105	31658.375
1537.35488	31064.575
1540.71647	30641.575
1544.07581	30311.375
1547.4329	29969.975
1550.78776	29644.475
1554.14038	29472.375
1557.49077	29543.875
1560.83892	29821.475
1564.18484	30103.875
1567.52853	30253.975
1570.86999	30313.375
1574.20922	30445.675
1577.54624	30443.475
1580.88103	29790.275
1584.2136	29101.075
1587.54395	29348.175
1590.87208	30640.475
1594.19801	32787.175
1597.52172	35155.875
1600.84321	36036.375
1604.16251	34544.275
1607.47959	31889.275
1610.79447	29057.275
1614.10715	26500.775
1617.41763	24500.575
1620.7259	23154.375
1624.03199	22502.375
1627.33587	22593.675
1630.63757	23254.275
1633.93707	24738.675
1637.23439	26743.575
1640.52951	29228.975
1643.82246	32087.275
1647.11321	34698.475
1650.40179	35989.275
1653.68819	34435.175
1656.97241	30305.175
1660.25446	25763.075
1663.53433	22391.375
1666.81203	20313.575
1670.08756	19047.475
1673.36092	18252.375
1676.63211	17703.175
1679.90115	17359.375
1683.16801	17054.075
1686.43272	16899.375
1689.69527	16718.975
1692.95567	16648.675
1696.2139	16622.375
1699.46999	16555.575
1702.72392	16519.775
1705.97571	16433.975
1709.22535	16426.075
1712.47284	16400.975
1715.71819	16397.775
1718.96139	16345.575
1722.20246	16303.775
1725.44139	16245.675
1728.67818	16123.975
1731.91284	16032.375
1735.14537	15936.575
1738.37576	15859.675
1741.60403	15831.375
1744.83017	15772.475
1748.05418	15716.075
1751.27607	15695.675
1754.49584	15636.275
1757.71349	15705.875
1760.92903	15684.975
1764.14244	15689.275
1767.35375	15664.675
1770.56294	15614.775
1773.77002	15610.375
1776.97499	15572.775
1780.17785	15531.975
1783.37861	15509.275
1786.57727	15464.775
1789.77382	15433.275
1792.96828	15412.575
1796.16064	15428.975
1799.3509	15394.275
1802.53907	15380.675
1805.72514	15340.675
1808.90913	15287.775
1812.09102	15288.475
1815.27083	15229.575
1818.44856	15208.475
1821.6242	15180.975
1824.79776	15173.575
1827.96924	15139.275
1831.13864	15164.375
1834.30597	15180.175
1837.47122	15136.875
1840.6344	15113.775
1843.7955	15159.575
1846.95454	15160.175
1850.11151	15136.075
1853.26642	15149.175
1856.41926	15170.275
1859.57004	15208.875
1862.71876	15183.075
1865.86542	15213.375
1869.01003	15185.375
1872.15258	15203.475
1875.29308	15222.475
1878.43152	15198.675
1881.56792	15218.375
1884.70227	15245.575
1887.83457	15267.175
1890.96482	15234.175
1894.09304	15239.475
1897.21921	15265.675
1900.34335	15257.375
1903.46544	15265.275
1906.58551	15280.675
1909.70353	15284.975
1912.81953	15317.175
1915.93349	15316.875
1919.04543	15301.475
1922.15534	15270.275
1925.26322	15223.975
1928.36908	15197.675
1931.47292	15138.075
1934.57473	15054.575
1937.67453	15017.975
1940.77232	14921.375
1943.86808	14844.375
1946.96184	14780.175
1950.05358	14708.775
1953.14331	14651.475
1956.23103	14607.375
1959.31675	14544.075
1962.40046	14494.075
1965.48217	14425.975
1968.56188	14413.675
1971.63959	14362.975
1974.7153	14311.875
1977.78901	14289.175
1980.86073	14219.675
1983.93046	14176.775
1986.99819	14175.775
1990.06394	14098.575
1993.1277	14086.875
1996.18947	14000.775
1999.24925	13961.375
2002.30706	13937.775
2005.36288	13882.875
2008.41672	13853.175
2011.46859	13815.575
2014.51848	13793.575
2017.56639	13764.375
2020.61233	13731.275
2023.6563	13706.675
2026.6983	13700.875
2029.73833	13647.375
2032.7764	13626.275
2035.8125	13597.775
2038.84664	13582.875
2041.87881	13544.075
2044.90903	13542.675
2047.93729	13501.775
2050.96359	13500.275
2053.98794	13505.375
2057.01034	13484.375
2060.03078	13451.075
2063.04927	13435.275
2066.06582	13394.775
2069.08042	13414.575
2072.09307	13411.075
2075.10378	13390.875
2078.11255	13378.975
2081.11938	13364.575
2084.12426	13334.375
2087.12722	13370.475
2090.12824	13341.975
2093.12732	13337.775
2096.12447	13323.875
2099.11969	13330.975
2102.11299	13320.275
2105.10435	13307.575
2108.09379	13355.575
2111.08131	13340.875
2114.0669	13349.475
2117.05057	13336.175
2120.03233	13356.875
2123.01216	13379.175
2125.99008	13383.875
2128.96609	13362.175
2131.94018	13373.275
2134.91236	13413.275
2137.88263	13419.875
2140.851	13424.775
2143.81746	13464.675
2146.78201	13419.175
2149.74466	13431.875
2152.7054	13426.275
2155.66425	13395.775
2158.6212	13424.775
2161.57625	13406.175
2164.52941	13422.475
2167.48067	13390.475
2170.43004	13388.175
2173.37752	13387.175
2176.32311	13395.575
2179.26681	13398.175
2182.20863	13400.875
2185.14856	13412.075
2188.08661	13401.275
2191.02278	13407.775
2193.95707	13398.875
2196.88948	13407.575
2199.82001	13378.875
2202.74867	13375.475
2205.67545	13373.375
2208.60037	13390.575
2211.52341	13341.275
2214.44458	13371.575
2217.36388	13372.775
2220.28132	13308.475
2223.1969	13299.275
2226.11061	13300.675
2229.02246	13258.175
2231.93245	13228.275
2234.84058	13193.175
2237.74686	13141.975
2240.65128	13169.075
2243.55385	13150.975
2246.45456	13133.275
2249.35343	13134.875
2252.25044	13123.175
2255.14561	13115.475
2258.03893	13109.375
2260.93041	13079.575
2263.82004	13030.875
2266.70783	13006.275
2269.59378	12953.875
2272.4779	12912.075
2275.36017	12872.975
2278.24061	12836.175
2281.11922	12839.975
2283.996	12830.775
2286.87094	12823.375
2289.74405	12815.675
2292.61534	12798.275
2295.4848	12823.475
2298.35243	12827.475
2301.21824	12808.975
2304.08223	12814.275
2306.94439	12837.275
2309.80474	12878.475
2312.66327	12862.475
2315.51999	12834.175
2318.37489	12873.575
2321.22797	12834.675
2324.07925	12814.475
2326.92871	12839.075
2329.77637	12844.675
2332.62222	12807.575
2335.46626	12828.575
2338.3085	12831.675
2341.14893	12853.675
2343.98756	12870.175
2346.8244	12912.575
2349.65943	12905.575
2352.49267	12892.475
2355.32411	12907.475
2358.15376	12908.775
2360.98161	12893.875
2363.80768	12900.775
2366.63195	12855.975
2369.45444	12825.775
2372.27514	12780.875
2375.09405	12793.475
2377.91118	12745.875
2380.72652	12691.175
2383.54009	12653.875
2386.35187	12637.075
2389.16188	12593.275
2391.97011	12601.275
2394.77657	12560.075
2397.58125	12553.075
2400.38416	12513.475
2403.18529	12503.175
2405.98466	12491.075
2408.78226	12413.175
2411.57809	12373.075
2414.37216	12395.075
2417.16446	12402.175
2419.955	12334.475
2422.74378	12317.175
2425.5308	12335.075
2428.31606	12322.775
2431.09956	12335.575
2433.88131	12339.275
2436.6613	12292.475
2439.43954	12343.975
2442.21603	12315.675
2444.99077	12317.075
2447.76377	12313.575
2450.53501	12265.275
2453.30451	12296.275
2456.07226	12256.575
2458.83827	12269.175
2461.60254	12284.575
2464.36507	12286.975
2467.12586	12273.875
2469.88492	12252.075
2472.64224	12272.775
2475.39782	12306.475
2478.15167	12332.875
2480.90379	12333.975
2483.65417	12365.375
2486.40283	12392.575
2489.14976	12407.675
2491.89497	12408.475
2494.63845	12431.575
2497.3802	12429.275
2500.12024	12418.975
2502.85855	12384.375
2505.59514	12373.775
2508.33002	12365.375
2511.06318	12333.775
2513.79462	12315.375
2516.52435	12305.875
2519.25237	12295.075
2521.97867	12272.775
2524.70327	12262.075
2527.42616	12250.875
2530.14734	12272.175
2532.86681	12254.075
2535.58458	12238.675
2538.30065	12238.475
2541.01501	12237.275
2543.72768	12231.775
2546.43864	12217.075
2549.14791	12233.575
2551.85548	12229.175
2554.56136	12220.375
2557.26554	12186.175
2559.96803	12173.075
2562.66883	12155.575
2565.36794	12121.875
2568.06536	12136.675
2570.7611	12110.475
2573.45514	12096.575
2576.14751	12132.675
2578.83819	12091.775
2581.52719	12098.375
2584.21451	12080.875
2586.90015	12118.375
2589.58411	12120.175
2592.2664	12104.075
2594.94701	12079.675
2597.62594	12110.075
2600.30321	12075.675
2602.9788	12093.975
2605.65273	12103.675
2608.32498	12104.375
2610.99557	12103.875
2613.66449	12104.275
2616.33175	12109.775
2618.99734	12135.275
2621.66128	12119.375
2624.32355	12132.675
2626.98416	12124.375
2629.64311	12117.775
2632.30041	12125.075
2634.95605	12114.575
2637.61004	12087.075
2640.26238	12079.175
2642.91306	12046.675
2645.56209	12042.675
2648.20948	12044.575
2650.85521	12016.175
2653.4993	12009.975
2656.14175	11993.175
2658.78255	12026.975
2661.42171	12036.575
2664.05923	12057.975
2666.6951	12066.875
2669.32934	12089.375
2671.96194	12072.275
2674.59291	12082.175
2677.22224	12103.775
2679.84993	12103.575
2682.476	12087.275
2685.10043	12046.375
2687.72324	12063.275
2690.34441	12075.475
2692.96396	12043.075
2695.58188	12028.775
2698.19818	12003.775
2700.81285	12040.075
2703.4259	12015.775
2706.03733	12065.575
2708.64714	12033.175
2711.25533	12074.775
2713.86191	12039.075
2716.46687	12044.475
2719.07021	12038.875
2721.67194	12071.775
2724.27206	12076.775
2726.87057	12053.175
2729.46747	12081.275
2732.06276	12093.075
2734.65644	12062.075
2737.24852	12112.175
2739.83899	12076.475
2742.42786	12074.975
2745.01513	12020.575
2747.60079	12057.575
2750.18486	12017.375
2752.76733	12039.475
2755.3482	12019.375
2757.92747	12017.675
2760.50515	12012.275
2763.08123	12007.875
2765.65573	11998.375
2768.22863	11977.875
2770.79994	11979.875
2773.36967	11990.875
2775.9378	11975.175
2778.50435	11996.175
2781.06932	11982.675
2783.6327	11992.175
2786.1945	12010.375
2788.75471	11980.875
2791.31335	11976.675
2793.87041	11946.075
2796.42589	11932.075
2798.97979	11906.875
2801.53212	11913.175
2804.08288	11908.575
2806.63206	11872.875
2809.17967	11849.575
2811.72571	11868.675
2814.27018	11845.375
2816.81308	11812.475
2819.35442	11795.475
2821.89419	11786.875
2824.43239	11777.575
2826.96904	11773.475
2829.50412	11795.775
2832.03763	11757.475
2834.56959	11801.775
2837.1	11745.075
2839.62884	11804.475
2842.15613	11785.075
2844.68186	11821.575
2847.20604	11810.675
2849.72867	11850.475
2852.24974	11815.675
2854.76927	11830.075
2857.28724	11789.875
2859.80367	11744.375
2862.31855	11755.375
2864.83189	11723.375
2867.34368	11715.475
2869.85393	11738.075
2872.36264	11756.175
2874.8698	11714.775
2877.37543	11717.275
2879.87952	11714.175
2882.38207	11726.475
2884.88308	11704.075
2887.38256	11703.175
2889.88051	11715.975
2892.37692	11704.275
2894.8718	11718.775
2897.36515	11731.275
2899.85698	11767.875
2902.34727	11785.675
2904.83604	11772.675
2907.32328	11819.475
2909.809	11812.775
2912.29319	11813.775
2914.77587	11824.375
2917.25702	11762.475
2919.73665	11774.475
2922.21476	11788.375
2924.69136	11734.875
2927.16644	11745.675
2929.64	11731.175
2932.11205	11691.175
2934.58258	11685.475
2937.05161	11681.375
2939.51912	11662.175
2941.98513	11649.275
2944.44962	11641.275
2946.91261	11573.775
2949.37409	11602.075
2951.83407	11583.375
2954.29254	11535.575
2956.74951	11530.375
2959.20498	11536.875
2961.65895	11516.075
2964.11142	11544.875
2966.56239	11496.775
2969.01186	11492.875
2971.45984	11459.475
2973.90632	11456.375
2976.35131	11417.275
2978.7948	11417.275
2981.23681	11372.675
2983.67732	11346.775
2986.11635	11319.875
2988.55388	11281.975
2990.98993	11268.875
2993.4245	11230.875
2995.85758	11224.075
2998.28917	11175.475
3000.71928	11181.175
3003.14791	11159.475
3005.57506	11167.675
3008.00073	11125.875
3010.42493	11013.375
3012.84764	11072.175
3015.26888	11049.275
3017.68865	11016.675
3020.10694	11025.475
3022.52376	10995.275
3024.9391	10972.775
3027.35298	10950.475
3029.76539	10959.075
3032.17632	10940.875
3034.5858	10919.575
3036.9938	10950.575
3039.40034	10928.875
3041.80542	10928.775
3044.20903	10883.275
3046.61118	10885.575
3049.01187	10862.375
3051.4111	10817.975
3053.80888	10813.975
3056.20519	10806.575
3058.60005	10765.675
3060.99345	10755.075
3063.3854	10721.375
3065.7759	10694.275
3068.16494	10645.975
3070.55254	10646.675
3072.93868	10617.375
3075.32338	10548.875
3077.70662	10551.675
3080.08842	10516.575
3082.46878	10502.375
3084.84769	10504.775
3087.22515	10488.075
3089.60118	10486.775
3091.97576	10509.875
3094.3489	10458.075
3096.72061	10486.875
3099.09087	10472.275
3101.4597	10452.475
3103.82709	10456.675
3106.19305	10433.075
3108.55757	10454.475
3110.92066	10407.275
3113.28232	10381.775
3115.64255	10365.875
3118.00134	10325.775
3120.35871	10342.075
3122.71466	10325.375
3125.06917	10292.175
3127.42226	10282.475
