Data from AgNP_FTO_APTES_UA_10uM_CRN_0uM_R6G_10uM_NaF_0.1M_Addition_RamanShift__23__12-35-10-467.txt Node

Date: Thu Feb 10 12:35:10 GMT 2022
User: TCL
Spectrometer: QEP01345
Trigger mode: 4
Integration Time (sec): 7.000000E0
Scans to average: 10
Electric dark correction enabled: true
Nonlinearity correction enabled: false
Boxcar width: 0
XAxis mode: Raman Shifts
Number of Pixels in Spectrum: 1044
>>>>>Begin Spectral Data<<<<<
46.04893	-0.125
50.45542	-0.725
54.85868	-1.825
59.25871	-2.225
63.6555	57.875
68.04907	63.075
72.43941	68.775
76.82654	62.475
81.21044	70.075
85.59113	70.175
89.96862	75.975
94.34289	76.775
98.71396	79.875
103.08183	82.275
107.4465	82.375
111.80798	79.575
116.16626	85.475
120.52136	93.275
124.87327	97.375
129.222	95.875
133.56755	107.975
137.90993	114.375
142.24913	120.075
146.58517	136.575
150.91804	159.175
155.24774	187.875
159.57429	237.075
163.89768	302.575
168.21792	409.375
172.53501	559.575
176.84895	766.475
181.15975	1081.775
185.46741	1508.075
189.77193	2109.975
194.07331	2806.375
198.37157	3609.375
202.6667	4462.075
206.9587	5313.675
211.24758	6152.575
215.53334	7011.975
219.81599	7950.475
224.09553	8978.475
228.37195	10134.375
232.64527	11425.475
236.91549	12720.775
241.18261	13957.975
245.44663	15008.675
249.70755	15901.675
253.96539	16721.075
258.22014	17432.375
262.4718	17993.875
266.72039	18425.975
270.96589	18654.875
275.20832	18693.275
279.44768	18542.475
283.68397	18305.475
287.91719	18165.275
292.14735	18140.575
296.37445	18292.175
300.59849	18568.675
304.81948	18964.575
309.03742	19226.675
313.25231	19103.775
317.46415	18455.975
321.67296	17482.775
325.87872	16673.075
330.08145	16282.875
334.28114	16245.575
338.47781	16417.475
342.67145	16751.875
346.86207	17201.675
351.04966	17881.575
355.23424	18673.075
359.4158	19330.175
363.59435	19691.075
367.76989	19801.675
371.94243	19883.575
376.11196	19859.975
380.27849	19886.575
384.44203	19889.375
388.60257	19796.675
392.76012	19853.375
396.91468	20088.675
401.06626	20523.375
405.21485	20876.475
409.36047	20626.275
413.50311	19971.975
417.64277	19374.975
421.77947	19086.275
425.9132	19070.575
430.04396	19115.075
434.17176	19186.875
438.2966	19410.875
442.41849	19862.575
446.53742	20520.975
450.6534	21190.275
454.76644	21679.175
458.87653	21767.175
462.98368	21544.675
467.08789	21119.475
471.18916	20619.275
475.2875	20168.775
479.38291	19895.175
483.4754	19719.075
487.56496	19491.675
491.6516	19217.075
495.73531	18991.175
499.81612	18903.275
503.89401	18999.775
507.96899	19123.875
512.04106	19161.575
516.11023	19285.275
520.1765	19299.075
524.23987	19200.475
528.30034	18970.675
532.35792	18663.575
536.41261	18273.475
540.46441	17925.475
544.51333	17749.875
548.55936	17890.175
552.60252	18350.575
556.64279	18816.475
560.6802	19118.775
564.71473	19375.875
568.7464	19973.575
572.7752	20558.675
576.80114	20615.675
580.82422	20531.375
584.84444	20677.275
588.86181	20888.575
592.87633	21253.175
596.888	21615.675
600.89682	21905.275
604.9028	23113.475
608.90594	27000.275
612.90624	31869.575
616.90371	30331.575
620.89834	23069.975
624.89015	19764.675
628.87913	19288.175
632.86528	19296.575
636.84862	19175.275
640.82913	18781.275
644.80683	18027.575
648.78172	17468.475
652.75379	17397.775
656.72306	17823.875
660.68952	18473.575
664.65319	18407.075
668.61405	17798.075
672.57211	17506.975
676.52738	17463.375
680.47986	17430.975
684.42955	17314.875
688.37646	17249.975
692.32058	17327.675
696.26192	17504.175
700.20048	17742.075
704.13626	17910.075
708.06928	17823.875
711.99952	17665.975
715.927	17567.075
719.85171	17592.375
723.77365	17497.175
727.69284	17315.675
731.60928	17109.575
735.52295	17087.175
739.43388	17153.075
743.34206	17267.675
747.24749	17424.675
751.15017	17558.475
755.05012	17880.175
758.94733	18599.775
762.8418	20016.775
766.73354	22536.175
770.62254	25182.775
774.50882	26250.475
778.39237	25009.175
782.27321	22290.975
786.15132	19871.375
790.02671	18377.775
793.89938	17680.675
797.76935	17426.575
801.6366	17288.475
805.50115	17200.075
809.36299	17072.675
813.22213	16938.575
817.07857	16843.775
820.93231	16796.775
824.78336	16788.975
828.63172	16849.375
832.47738	16901.275
836.32036	16906.575
840.16066	16999.775
843.99827	17005.375
847.8332	17007.575
851.66546	16897.675
855.49504	16838.875
859.32195	16772.875
863.1462	16714.975
866.96777	16604.375
870.78668	16521.875
874.60293	16529.075
878.41652	16533.775
882.22745	16647.475
886.03573	16709.375
889.84136	16694.475
893.64433	16636.275
897.44466	16579.175
901.24235	16519.775
905.0374	16456.875
908.8298	16385.075
912.61957	16380.575
916.40671	16504.175
920.19121	16751.675
923.97308	17058.475
927.75233	17303.775
931.52895	17427.275
935.30295	17212.775
939.07433	16718.275
942.84309	16250.575
946.60924	16029.475
950.37278	15961.575
954.13371	15833.475
957.89203	15718.575
961.64774	15651.775
965.40086	15610.575
969.15137	15498.975
972.89929	15451.475
976.64461	15394.075
980.38733	15436.475
984.12747	15511.375
987.86502	15686.175
991.59999	15991.175
995.33237	16437.875
999.06217	17247.075
1002.78939	18111.775
1006.51404	18684.875
1010.23611	18952.675
1013.95561	19091.875
1017.67255	19123.675
1021.38692	18823.875
1025.09872	18564.775
1028.80796	18826.275
1032.51465	19575.775
1036.21877	20281.775
1039.92035	20356.575
1043.61937	19877.375
1047.31584	19144.375
1051.00976	18301.675
1054.70114	17897.975
1058.38998	17695.275
1062.07627	17668.375
1065.76003	17701.875
1069.44126	17759.975
1073.11995	17982.975
1076.79611	18235.575
1080.46974	18478.975
1084.14085	18756.175
1087.80943	19149.875
1091.47549	19307.475
1095.13903	19150.075
1098.80005	18611.475
1102.45857	18081.275
1106.11456	17756.075
1109.76805	17761.875
1113.41903	18004.175
1117.06751	18298.475
1120.71348	18733.175
1124.35696	19222.675
1127.99793	19761.375
1131.63641	19874.275
1135.2724	19463.475
1138.90589	18959.675
1142.5369	18570.575
1146.16542	18340.875
1149.79145	18214.675
1153.415	18248.675
1157.03607	18458.575
1160.65467	18903.375
1164.27079	19699.475
1167.88443	20892.675
1171.49561	22667.775
1175.10432	25267.475
1178.71056	28692.975
1182.31434	31735.475
1185.91565	33229.975
1189.51451	32942.075
1193.11091	31217.175
1196.70485	28852.475
1200.29634	26820.475
1203.88538	25230.375
1207.47197	23975.575
1211.05612	22959.275
1214.63782	22454.675
1218.21708	22451.875
1221.79391	22678.775
1225.36829	23028.275
1228.94024	22963.175
1232.50976	22617.375
1236.07685	22291.575
1239.6415	22024.675
1243.20374	21818.175
1246.76355	21802.275
1250.32093	21996.675
1253.8759	22602.875
1257.42845	23479.875
1260.97859	24343.575
1264.52631	25225.475
1268.07163	26125.775
1271.61453	27096.275
1275.15503	28146.575
1278.69312	29051.575
1282.22882	29846.675
1285.76211	30510.575
1289.29301	31225.575
1292.82151	32081.475
1296.34761	33168.875
1299.87133	34914.075
1303.39266	37460.275
1306.9116	41038.575
1310.42815	45062.775
1313.94233	47754.075
1317.45412	47831.675
1320.96354	45860.475
1324.47058	43357.875
1327.97525	41145.275
1331.47754	39538.875
1334.97747	38737.675
1338.47502	38600.175
1341.97022	38737.375
1345.46305	38749.175
1348.95352	38747.975
1352.44163	39291.975
1355.92738	41087.875
1359.41078	44722.475
1362.89183	48520.275
1366.37053	48050.275
1369.84688	42653.775
1373.32088	36397.575
1376.79254	32149.775
1380.26186	30147.075
1383.72883	29232.875
1387.19347	28579.175
1390.65578	27944.775
1394.11575	27773.875
1397.57339	28118.675
1401.0287	28746.775
1404.48168	29475.175
1407.93234	29970.375
1411.38068	30009.875
1414.82669	29517.175
1418.27039	28576.275
1421.71177	27487.375
1425.15083	26487.375
1428.58758	25907.975
1432.02203	25902.975
1435.45416	26156.875
1438.88399	26570.975
1442.31151	26847.875
1445.73673	27156.575
1449.15965	27569.675
1452.58027	27753.075
1455.9986	27781.275
1459.41463	27844.975
1462.82837	28323.475
1466.23982	28959.375
1469.64898	29522.375
1473.05586	29841.875
1476.46045	29875.275
1479.86276	29883.775
1483.26279	29971.075
1486.66054	30214.975
1490.05602	30767.675
1493.44922	31484.375
1496.84016	32348.975
1500.22882	33598.775
1503.61521	35496.475
1506.99934	37998.775
1510.38121	40612.475
1513.76081	41830.975
1517.13816	40542.875
1520.51324	37247.175
1523.88607	33872.675
1527.25665	31560.175
1530.62498	30177.875
1533.99105	29298.875
1537.35488	28774.275
1540.71647	28378.675
1544.07581	28060.175
1547.4329	27751.175
1550.78776	27467.575
1554.14038	27274.075
1557.49077	27343.975
1560.83892	27470.975
1564.18484	27657.475
1567.52853	27809.375
1570.86999	27957.375
1574.20922	28131.175
1577.54624	28161.375
1580.88103	27684.475
1584.2136	27092.075
1587.54395	27382.775
1590.87208	28739.275
1594.19801	31122.575
1597.52172	33715.975
1600.84321	34872.275
1604.16251	33508.075
1607.47959	30629.475
1610.79447	27513.475
1614.10715	24703.075
1617.41763	22554.475
1620.7259	21172.275
1624.03199	20563.075
1627.33587	20647.975
1630.63757	21462.475
1633.93707	23027.575
1637.23439	25363.875
1640.52951	28307.875
1643.82246	31576.375
1647.11321	34436.275
1650.40179	35534.975
1653.68819	33609.975
1656.97241	29144.575
1660.25446	24355.475
1663.53433	20825.475
1666.81203	18648.875
1670.08756	17318.075
1673.36092	16514.375
1676.63211	15994.675
1679.90115	15628.375
1683.16801	15385.375
1686.43272	15224.375
1689.69527	15076.175
1692.95567	14941.075
1696.2139	14889.775
1699.46999	14867.875
1702.72392	14811.975
1705.97571	14765.675
1709.22535	14743.875
1712.47284	14726.875
1715.71819	14696.575
1718.96139	14653.075
1722.20246	14627.975
1725.44139	14501.975
1728.67818	14430.875
1731.91284	14331.575
1735.14537	14237.075
1738.37576	14186.175
1741.60403	14126.275
1744.83017	14093.875
1748.05418	14051.675
1751.27607	14038.375
1754.49584	13992.775
1757.71349	13949.375
1760.92903	13966.275
1764.14244	13932.875
1767.35375	13912.075
1770.56294	13919.375
1773.77002	13871.775
1776.97499	13871.075
1780.17785	13827.775
1783.37861	13833.775
1786.57727	13793.075
1789.77382	13751.075
1792.96828	13753.775
1796.16064	13723.175
1799.3509	13737.675
1802.53907	13682.675
1805.72514	13650.175
1808.90913	13587.675
1812.09102	13590.175
1815.27083	13557.275
1818.44856	13534.975
1821.6242	13479.875
1824.79776	13500.975
1827.96924	13503.375
1831.13864	13482.275
1834.30597	13517.175
1837.47122	13485.975
1840.6344	13507.475
1843.7955	13487.375
1846.95454	13510.275
1850.11151	13490.275
1853.26642	13529.475
1856.41926	13541.775
1859.57004	13556.475
1862.71876	13570.175
1865.86542	13579.275
1869.01003	13569.775
1872.15258	13569.975
1875.29308	13589.975
1878.43152	13621.075
1881.56792	13650.875
1884.70227	13679.075
1887.83457	13679.075
1890.96482	13670.275
1894.09304	13660.275
1897.21921	13665.575
1900.34335	13698.275
1903.46544	13707.275
1906.58551	13699.975
1909.70353	13689.975
1912.81953	13726.175
1915.93349	13698.475
1919.04543	13647.075
1922.15534	13604.475
1925.26322	13570.575
1928.36908	13497.275
1931.47292	13424.875
1934.57473	13368.275
1937.67453	13316.075
1940.77232	13235.775
1943.86808	13140.675
1946.96184	13091.375
1950.05358	13029.375
1953.14331	12966.975
1956.23103	12908.975
1959.31675	12868.975
1962.40046	12832.275
1965.48217	12773.175
1968.56188	12756.875
1971.63959	12707.975
1974.7153	12679.375
1977.78901	12641.875
1980.86073	12554.875
1983.93046	12526.075
1986.99819	12517.675
1990.06394	12485.875
1993.1277	12414.875
1996.18947	12384.675
1999.24925	12348.375
2002.30706	12318.375
2005.36288	12284.575
2008.41672	12247.475
2011.46859	12205.975
2014.51848	12175.075
2017.56639	12171.475
2020.61233	12125.475
2023.6563	12102.475
2026.6983	12092.175
2029.73833	12065.275
2032.7764	12021.575
2035.8125	11999.075
2038.84664	12000.575
2041.87881	11990.975
2044.90903	11996.475
2047.93729	11947.875
2050.96359	11922.275
2053.98794	11923.975
2057.01034	11912.375
2060.03078	11908.375
2063.04927	11907.175
2066.06582	11906.975
2069.08042	11895.375
2072.09307	11856.675
2075.10378	11873.175
2078.11255	11854.675
2081.11938	11827.575
2084.12426	11800.175
2087.12722	11799.575
2090.12824	11801.375
2093.12732	11785.875
2096.12447	11773.675
2099.11969	11795.075
2102.11299	11745.275
2105.10435	11767.375
2108.09379	11770.575
2111.08131	11801.275
2114.0669	11820.175
2117.05057	11783.975
2120.03233	11812.875
2123.01216	11833.275
2125.99008	11814.175
2128.96609	11815.675
2131.94018	11834.075
2134.91236	11856.475
2137.88263	11851.575
2140.851	11845.875
2143.81746	11873.375
2146.78201	11868.175
2149.74466	11862.875
2152.7054	11843.075
2155.66425	11839.375
2158.6212	11820.775
2161.57625	11813.575
2164.52941	11837.575
2167.48067	11819.075
2170.43004	11833.775
2173.37752	11844.475
2176.32311	11798.075
2179.26681	11807.775
2182.20863	11816.475
2185.14856	11824.375
2188.08661	11824.475
2191.02278	11841.975
2193.95707	11851.675
2196.88948	11824.875
2199.82001	11843.175
2202.74867	11815.775
2205.67545	11837.375
2208.60037	11850.175
2211.52341	11859.475
2214.44458	11825.075
2217.36388	11809.875
2220.28132	11799.075
2223.1969	11773.275
2226.11061	11768.275
2229.02246	11742.875
2231.93245	11710.075
2234.84058	11651.475
2237.74686	11670.275
2240.65128	11634.775
2243.55385	11606.675
2246.45456	11610.175
2249.35343	11599.275
2252.25044	11562.875
2255.14561	11567.575
2258.03893	11580.475
2260.93041	11541.075
2263.82004	11525.775
2266.70783	11502.775
2269.59378	11449.475
2272.4779	11426.575
2275.36017	11376.275
2278.24061	11375.675
2281.11922	11372.375
2283.996	11353.375
2286.87094	11351.675
2289.74405	11310.275
2292.61534	11335.575
2295.4848	11313.575
2298.35243	11340.775
2301.21824	11340.075
2304.08223	11342.775
2306.94439	11360.775
2309.80474	11370.575
2312.66327	11381.075
2315.51999	11382.375
2318.37489	11391.275
2321.22797	11370.575
2324.07925	11359.675
2326.92871	11376.875
2329.77637	11339.375
2332.62222	11344.675
2335.46626	11351.675
2338.3085	11363.375
2341.14893	11380.575
2343.98756	11380.075
2346.8244	11424.975
2349.65943	11427.775
2352.49267	11435.875
2355.32411	11448.375
2358.15376	11428.975
2360.98161	11440.375
2363.80768	11423.975
2366.63195	11384.275
2369.45444	11360.375
2372.27514	11318.075
2375.09405	11326.275
2377.91118	11277.775
2380.72652	11232.775
2383.54009	11219.675
2386.35187	11174.975
2389.16188	11148.675
2391.97011	11137.075
2394.77657	11095.375
2397.58125	11101.975
2400.38416	11080.375
2403.18529	11050.875
2405.98466	11038.475
2408.78226	10992.875
2411.57809	10968.975
2414.37216	10944.475
2417.16446	10917.275
2419.955	10894.375
2422.74378	10902.775
2425.5308	10888.375
2428.31606	10906.775
2431.09956	10914.175
2433.88131	10894.175
2436.6613	10891.675
2439.43954	10893.575
2442.21603	10908.175
2444.99077	10865.375
2447.76377	10863.675
2450.53501	10883.475
2453.30451	10874.975
2456.07226	10880.375
2458.83827	10896.375
2461.60254	10877.575
2464.36507	10858.775
2467.12586	10862.475
2469.88492	10896.175
2472.64224	10899.575
2475.39782	10931.575
2478.15167	10941.475
2480.90379	10967.975
2483.65417	10956.575
2486.40283	10986.175
2489.14976	11004.375
2491.89497	11008.075
2494.63845	11031.675
2497.3802	11032.075
2500.12024	11021.775
2502.85855	10991.275
2505.59514	11016.075
2508.33002	10971.975
2511.06318	10945.775
2513.79462	10941.675
2516.52435	10899.875
2519.25237	10878.775
2521.97867	10891.575
2524.70327	10873.975
2527.42616	10838.475
2530.14734	10869.975
2532.86681	10853.075
2535.58458	10864.475
2538.30065	10844.575
2541.01501	10848.375
2543.72768	10832.875
2546.43864	10858.575
2549.14791	10845.675
2551.85548	10861.375
2554.56136	10846.175
2557.26554	10817.275
2559.96803	10815.475
2562.66883	10791.975
2565.36794	10786.775
2568.06536	10779.575
2570.7611	10771.475
2573.45514	10769.675
2576.14751	10753.975
2578.83819	10759.675
2581.52719	10752.875
2584.21451	10774.375
2586.90015	10770.575
2589.58411	10772.975
2592.2664	10776.575
2594.94701	10747.475
2597.62594	10783.075
2600.30321	10767.375
2602.9788	10755.775
2605.65273	10773.875
2608.32498	10769.575
2610.99557	10753.075
2613.66449	10784.375
2616.33175	10756.375
2618.99734	10768.075
2621.66128	10772.175
2624.32355	10790.775
2626.98416	10803.775
2629.64311	10781.075
2632.30041	10796.275
2634.95605	10775.275
2637.61004	10768.475
2640.26238	10763.675
2642.91306	10727.475
2645.56209	10700.475
2648.20948	10676.675
2650.85521	10673.475
2653.4993	10684.675
2656.14175	10715.675
2658.78255	10694.775
2661.42171	10690.875
2664.05923	10716.675
2666.6951	10754.475
2669.32934	10744.275
2671.96194	10748.575
2674.59291	10756.575
2677.22224	10759.375
2679.84993	10746.575
2682.476	10720.175
2685.10043	10705.675
2687.72324	10705.575
2690.34441	10697.775
2692.96396	10682.475
2695.58188	10674.375
2698.19818	10642.275
2700.81285	10657.275
2703.4259	10663.875
2706.03733	10650.475
2708.64714	10649.675
2711.25533	10653.075
2713.86191	10681.175
2716.46687	10657.575
2719.07021	10689.975
2721.67194	10700.975
2724.27206	10715.975
2726.87057	10721.575
2729.46747	10712.675
2732.06276	10727.075
2734.65644	10734.875
2737.24852	10728.875
2739.83899	10704.775
2742.42786	10743.275
2745.01513	10668.775
2747.60079	10687.075
2750.18486	10672.775
2752.76733	10690.175
2755.3482	10671.875
2757.92747	10666.975
2760.50515	10639.775
2763.08123	10650.775
2765.65573	10625.375
2768.22863	10620.175
2770.79994	10646.075
2773.36967	10636.175
2775.9378	10655.275
2778.50435	10619.075
2781.06932	10638.075
2783.6327	10639.375
2786.1945	10659.675
2788.75471	10662.175
2791.31335	10610.975
2793.87041	10637.475
2796.42589	10616.575
2798.97979	10587.075
2801.53212	10569.775
2804.08288	10564.975
2806.63206	10554.675
2809.17967	10519.275
2811.72571	10501.875
2814.27018	10509.675
2816.81308	10479.975
2819.35442	10477.175
2821.89419	10469.075
2824.43239	10490.875
2826.96904	10471.775
2829.50412	10517.175
2832.03763	10500.975
2834.56959	10509.475
2837.1	10493.775
2839.62884	10490.875
2842.15613	10489.975
2844.68186	10533.875
2847.20604	10547.875
2849.72867	10552.975
2852.24974	10550.675
2854.76927	10534.475
2857.28724	10515.275
2859.80367	10514.575
2862.31855	10504.775
2864.83189	10525.975
2867.34368	10508.875
2869.85393	10509.675
2872.36264	10489.675
2874.8698	10505.975
2877.37543	10471.075
2879.87952	10502.575
2882.38207	10517.175
2884.88308	10491.775
2887.38256	10494.975
2889.88051	10506.175
2892.37692	10535.075
2894.8718	10504.575
2897.36515	10506.975
2899.85698	10538.575
2902.34727	10576.875
2904.83604	10564.375
2907.32328	10601.475
2909.809	10601.775
2912.29319	10600.475
2914.77587	10575.475
2917.25702	10554.775
2919.73665	10544.375
2922.21476	10568.375
2924.69136	10552.275
2927.16644	10546.075
2929.64	10510.675
2932.11205	10488.275
2934.58258	10422.975
2937.05161	10429.775
2939.51912	10442.175
2941.98513	10426.675
2944.44962	10376.675
2946.91261	10349.575
2949.37409	10354.975
2951.83407	10368.575
2954.29254	10351.075
2956.74951	10329.075
2959.20498	10329.575
2961.65895	10310.275
2964.11142	10319.375
2966.56239	10274.575
2969.01186	10258.875
2971.45984	10229.975
2973.90632	10228.275
2976.35131	10188.275
2978.7948	10171.875
2981.23681	10113.575
2983.67732	10069.475
2986.11635	10052.175
2988.55388	10021.875
2990.98993	10011.075
2993.4245	10005.475
2995.85758	9969.675
2998.28917	9953.675
3000.71928	9954.275
3003.14791	9915.675
3005.57506	9904.775
3008.00073	9887.675
3010.42493	9873.975
3012.84764	9836.275
3015.26888	9836.275
3017.68865	9822.075
3020.10694	9791.975
3022.52376	9758.775
3024.9391	9766.575
3027.35298	9741.075
3029.76539	9774.675
3032.17632	9740.575
3034.5858	9758.175
3036.9938	9736.575
3039.40034	9727.675
3041.80542	9748.075
3044.20903	9685.575
3046.61118	9707.175
3049.01187	9675.075
3051.4111	9667.575
3053.80888	9648.375
3056.20519	9639.475
3058.60005	9578.375
3060.99345	9574.775
3063.3854	9549.375
3065.7759	9546.875
3068.16494	9499.575
3070.55254	9470.775
3072.93868	9468.275
3075.32338	9440.875
3077.70662	9421.575
3080.08842	9373.975
3082.46878	9378.075
3084.84769	9349.175
3087.22515	9347.275
3089.60118	9366.275
3091.97576	9358.975
3094.3489	9355.175
3096.72061	9351.875
3099.09087	9356.375
3101.4597	9331.775
3103.82709	9324.375
3106.19305	9326.975
3108.55757	9291.475
3110.92066	9308.575
3113.28232	9288.475
3115.64255	9247.675
3118.00134	9259.275
3120.35871	9238.975
3122.71466	9217.475
3125.06917	9197.875
3127.42226	9188.975
3129.77393	9203.875
3132.12417	9174.375
3134.47299	9176.375
