Data from AgNP_FTO_APTES_UA_10uM_CRN_10uM_R6G_10uM_NaF_0.1M_Addition_RamanShift__4__15-29-00-688.txt Node

Date: Thu Feb 10 15:29:00 GMT 2022
User: TCL
Spectrometer: QEP01345
Trigger mode: 4
Integration Time (sec): 7.000000E0
Scans to average: 10
Electric dark correction enabled: true
Nonlinearity correction enabled: false
Boxcar width: 0
XAxis mode: Raman Shifts
Number of Pixels in Spectrum: 1044
>>>>>Begin Spectral Data<<<<<
46.04893	0.4125
50.45542	-1.9875
54.85868	-1.5875
59.25871	-2.2875
63.6555	80.2125
68.04907	82.1125
72.43941	88.9125
76.82654	84.1125
81.21044	91.3125
85.59113	90.8125
89.96862	98.2125
94.34289	103.1125
98.71396	102.4125
103.08183	109.6125
107.4465	113.8125
111.80798	111.4125
116.16626	117.3125
120.52136	120.8125
124.87327	126.5125
129.222	131.7125
133.56755	140.4125
137.90993	152.8125
142.24913	168.4125
146.58517	186.6125
150.91804	215.2125
155.24774	259.0125
159.57429	325.2125
163.89768	409.8125
168.21792	549.2125
172.53501	748.3125
176.84895	1038.4125
181.15975	1460.7125
185.46741	2050.4125
189.77193	2823.5125
194.07331	3767.2125
198.37157	4856.7125
202.6667	5983.4125
206.9587	7105.2125
211.24758	8182.4125
215.53334	9304.6125
219.81599	10495.8125
224.09553	11771.9125
228.37195	13222.6125
232.64527	14798.5125
236.91549	16425.8125
241.18261	18018.8125
245.44663	19516.0125
249.70755	20832.5125
253.96539	22034.5125
258.22014	23008.1125
262.4718	23864.2125
266.72039	24455.2125
270.96589	24760.6125
275.20832	24822.6125
279.44768	24652.5125
283.68397	24510.5125
287.91719	24315.7125
292.14735	24175.1125
296.37445	24142.1125
300.59849	24257.2125
304.81948	24368.9125
309.03742	24374.9125
313.25231	24222.1125
317.46415	23863.5125
321.67296	23362.0125
325.87872	23000.9125
330.08145	22792.0125
334.28114	22757.9125
338.47781	22893.6125
342.67145	23172.8125
346.86207	23543.1125
351.04966	23992.0125
355.23424	24426.5125
359.4158	24820.4125
363.59435	25104.3125
367.76989	25344.9125
371.94243	25506.1125
376.11196	25624.5125
380.27849	25747.6125
384.44203	25894.7125
388.60257	26073.1125
392.76012	26426.1125
396.91468	26761.3125
401.06626	27152.6125
405.21485	27426.0125
409.36047	27382.9125
413.50311	27180.4125
417.64277	27152.7125
421.77947	27338.0125
425.9132	27562.2125
430.04396	27789.2125
434.17176	27882.4125
438.2966	28011.2125
442.41849	28444.6125
446.53742	29317.7125
450.6534	30276.2125
454.76644	30945.4125
458.87653	31142.3125
462.98368	30800.9125
467.08789	30252.2125
471.18916	29562.7125
475.2875	28924.3125
479.38291	28601.8125
483.4754	28335.2125
487.56496	27983.3125
491.6516	27607.5125
495.73531	27290.0125
499.81612	27157.6125
503.89401	27328.6125
507.96899	27541.0125
512.04106	27487.3125
516.11023	27278.9125
520.1765	26910.7125
524.23987	26606.5125
528.30034	26425.7125
532.35792	26159.3125
536.41261	25799.4125
540.46441	25520.4125
544.51333	25508.3125
548.55936	25742.2125
552.60252	26340.6125
556.64279	27014.2125
560.6802	27617.6125
564.71473	27946.4125
568.7464	28385.1125
572.7752	29281.9125
576.80114	30308.3125
580.82422	31451.1125
584.84444	32977.6125
588.86181	34768.9125
592.87633	36129.1125
596.888	35559.7125
600.89682	33513.1125
604.9028	32714.0125
608.90594	34250.4125
612.90624	35786.8125
616.90371	33352.1125
620.89834	28657.3125
624.89015	26772.2125
628.87913	26547.4125
632.86528	26553.3125
636.84862	26314.4125
640.82913	25823.7125
644.80683	25192.3125
648.78172	24870.7125
652.75379	24889.4125
656.72306	25213.0125
660.68952	25533.2125
664.65319	25331.7125
668.61405	24944.5125
672.57211	24936.3125
676.52738	25085.1125
680.47986	25027.4125
684.42955	24812.3125
688.37646	24744.0125
692.32058	24982.2125
696.26192	25429.9125
700.20048	25886.2125
704.13626	26068.1125
708.06928	26042.3125
711.99952	25821.0125
715.927	25836.5125
719.85171	26004.4125
723.77365	25916.2125
727.69284	25511.7125
731.60928	25071.5125
735.52295	24917.4125
739.43388	24934.5125
743.34206	25030.8125
747.24749	25249.4125
751.15017	25495.3125
755.05012	26060.5125
758.94733	26791.7125
762.8418	28018.1125
766.73354	29654.3125
770.62254	31020.3125
774.50882	31005.9125
778.39237	29623.0125
782.27321	27792.1125
786.15132	26425.2125
790.02671	25592.6125
793.89938	25203.3125
797.76935	25057.8125
801.6366	25053.2125
805.50115	25041.5125
809.36299	24887.6125
813.22213	24644.9125
817.07857	24484.7125
820.93231	24349.8125
824.78336	24210.5125
828.63172	24063.3125
832.47738	24058.3125
836.32036	24079.7125
840.16066	24195.0125
843.99827	24318.0125
847.8332	24270.0125
851.66546	24169.6125
855.49504	24177.0125
859.32195	24224.9125
863.1462	24105.9125
866.96777	24030.3125
870.78668	23895.8125
874.60293	23976.5125
878.41652	23981.8125
882.22745	24054.9125
886.03573	24094.9125
889.84136	24057.3125
893.64433	23955.5125
897.44466	23819.0125
901.24235	23782.2125
905.0374	23710.6125
908.8298	23709.4125
912.61957	23795.6125
916.40671	24031.3125
920.19121	24426.4125
923.97308	24765.9125
927.75233	24809.5125
931.52895	24510.0125
935.30295	24130.4125
939.07433	23698.4125
942.84309	23395.2125
946.60924	23355.6125
950.37278	23365.9125
954.13371	23356.0125
957.89203	23250.5125
961.64774	23218.2125
965.40086	23246.8125
969.15137	23211.0125
972.89929	23042.3125
976.64461	23027.0125
980.38733	23013.6125
984.12747	23142.5125
987.86502	23328.0125
991.59999	23600.2125
995.33237	24040.7125
999.06217	24744.9125
1002.78939	25598.2125
1006.51404	26253.3125
1010.23611	26743.7125
1013.95561	27040.6125
1017.67255	26990.5125
1021.38692	26576.8125
1025.09872	26146.1125
1028.80796	26148.4125
1032.51465	26668.8125
1036.21877	27376.2125
1039.92035	27509.4125
1043.61937	27259.4125
1047.31584	26701.6125
1051.00976	26078.9125
1054.70114	25711.5125
1058.38998	25665.2125
1062.07627	25780.7125
1065.76003	25933.8125
1069.44126	26188.5125
1073.11995	26610.9125
1076.79611	27025.1125
1080.46974	27295.7125
1084.14085	27528.9125
1087.80943	27860.2125
1091.47549	28090.8125
1095.13903	27999.0125
1098.80005	27621.9125
1102.45857	27008.4125
1106.11456	26560.6125
1109.76805	26376.7125
1113.41903	26393.3125
1117.06751	26491.0125
1120.71348	26650.9125
1124.35696	26888.8125
1127.99793	27144.1125
1131.63641	27363.5125
1135.2724	27366.7125
1138.90589	27374.7125
1142.5369	27528.9125
1146.16542	27772.0125
1149.79145	28093.5125
1153.415	28427.1125
1157.03607	28947.6125
1160.65467	30011.9125
1164.27079	31740.3125
1167.88443	33617.2125
1171.49561	35451.7125
1175.10432	37716.6125
1178.71056	40595.3125
1182.31434	43450.1125
1185.91565	44747.2125
1189.51451	44394.7125
1193.11091	43039.7125
1196.70485	41484.9125
1200.29634	40021.0125
1203.88538	39231.0125
1207.47197	38953.3125
1211.05612	38649.4125
1214.63782	37982.6125
1218.21708	36931.3125
1221.79391	35852.0125
1225.36829	35072.9125
1228.94024	34475.4125
1232.50976	33770.5125
1236.07685	33066.1125
1239.6415	32690.8125
1243.20374	32623.7125
1246.76355	32965.6125
1250.32093	33624.1125
1253.8759	34492.6125
1257.42845	35542.1125
1260.97859	36665.6125
1264.52631	37828.0125
1268.07163	39143.8125
1271.61453	40587.7125
1275.15503	41918.8125
1278.69312	43278.2125
1282.22882	44535.2125
1285.76211	46035.4125
1289.29301	47730.6125
1292.82151	50081.1125
1296.34761	53052.0125
1299.87133	56771.1125
1303.39266	60820.4125
1306.9116	64396.6125
1310.42815	66780.1125
1313.94233	67708.7125
1317.45412	66859.8125
1320.96354	65365.9125
1324.47058	64278.7125
1327.97525	63509.5125
1331.47754	63060.6125
1334.97747	62694.3125
1338.47502	62030.0125
1341.97022	60721.0125
1345.46305	59104.9125
1348.95352	57609.1125
1352.44163	57170.8125
1355.92738	58464.5125
1359.41078	60922.4125
1362.89183	62534.0125
1366.37053	61207.7125
1369.84688	56489.9125
1373.32088	50426.5125
1376.79254	46286.0125
1380.26186	45077.3125
1383.72883	45497.0125
1387.19347	45792.7125
1390.65578	45473.7125
1394.11575	45468.0125
1397.57339	46317.7125
1401.0287	47546.6125
1404.48168	48617.7125
1407.93234	48888.1125
1411.38068	48092.2125
1414.82669	46436.3125
1418.27039	44324.4125
1421.71177	42094.8125
1425.15083	40332.0125
1428.58758	39630.2125
1432.02203	40210.8125
1435.45416	41714.4125
1438.88399	43392.3125
1442.31151	44625.0125
1445.73673	45185.0125
1449.15965	45328.0125
1452.58027	45169.7125
1455.9986	44828.1125
1459.41463	44954.2125
1462.82837	45645.2125
1466.23982	46596.9125
1469.64898	47588.7125
1473.05586	48162.3125
1476.46045	48173.2125
1479.86276	47632.7125
1483.26279	46876.6125
1486.66054	46318.8125
1490.05602	46216.2125
1493.44922	46238.0125
1496.84016	46228.7125
1500.22882	46387.6125
1503.61521	46755.0125
1506.99934	47453.8125
1510.38121	47972.1125
1513.76081	47953.7125
1517.13816	47204.1125
1520.51324	46273.4125
1523.88607	45830.1125
1527.25665	46020.3125
1530.62498	46626.6125
1533.99105	46921.3125
1537.35488	46611.0125
1540.71647	45806.8125
1544.07581	44521.8125
1547.4329	43165.3125
1550.78776	41845.6125
1554.14038	40926.7125
1557.49077	40257.5125
1560.83892	39790.2125
1564.18484	39411.9125
1567.52853	39333.5125
1570.86999	39655.9125
1574.20922	40417.2125
1577.54624	41314.1125
1580.88103	42042.9125
1584.2136	43119.7125
1587.54395	45379.6125
1590.87208	48723.6125
1594.19801	52668.3125
1597.52172	56029.3125
1600.84321	56689.3125
1604.16251	53555.7125
1607.47959	48252.5125
1610.79447	42829.8125
1614.10715	38251.4125
1617.41763	34907.2125
1620.7259	32856.9125
1624.03199	31974.1125
1627.33587	32206.4125
1630.63757	33580.2125
1633.93707	36258.6125
1637.23439	40619.6125
1640.52951	46825.0125
1643.82246	53803.6125
1647.11321	58559.0125
1650.40179	58091.0125
1653.68819	52144.2125
1656.97241	43867.7125
1660.25446	36761.8125
1663.53433	31765.7125
1666.81203	28659.6125
1670.08756	26764.6125
1673.36092	25562.1125
1676.63211	24781.0125
1679.90115	24176.0125
1683.16801	23779.9125
1686.43272	23496.5125
1689.69527	23261.5125
1692.95567	23089.8125
1696.2139	23002.2125
1699.46999	22928.3125
1702.72392	22831.4125
1705.97571	22740.5125
1709.22535	22657.6125
1712.47284	22613.7125
1715.71819	22545.3125
1718.96139	22502.3125
1722.20246	22389.8125
1725.44139	22313.7125
1728.67818	22146.0125
1731.91284	22002.2125
1735.14537	21865.7125
1738.37576	21782.5125
1741.60403	21706.6125
1744.83017	21599.4125
1748.05418	21558.8125
1751.27607	21514.8125
1754.49584	21476.4125
1757.71349	21463.0125
1760.92903	21447.8125
1764.14244	21439.8125
1767.35375	21420.2125
1770.56294	21374.7125
1773.77002	21375.9125
1776.97499	21288.5125
1780.17785	21232.5125
1783.37861	21213.4125
1786.57727	21143.4125
1789.77382	21134.4125
1792.96828	21070.8125
1796.16064	21058.4125
1799.3509	21042.6125
1802.53907	20992.9125
1805.72514	20901.9125
1808.90913	20887.4125
1812.09102	20827.3125
1815.27083	20782.4125
1818.44856	20760.8125
1821.6242	20756.5125
1824.79776	20730.7125
1827.96924	20727.9125
1831.13864	20739.0125
1834.30597	20718.9125
1837.47122	20721.6125
1840.6344	20732.0125
1843.7955	20768.7125
1846.95454	20758.5125
1850.11151	20706.6125
1853.26642	20709.8125
1856.41926	20693.9125
1859.57004	20722.8125
1862.71876	20644.2125
1865.86542	20626.6125
1869.01003	20615.8125
1872.15258	20584.4125
1875.29308	20624.0125
1878.43152	20585.2125
1881.56792	20582.0125
1884.70227	20563.3125
1887.83457	20534.3125
1890.96482	20485.7125
1894.09304	20509.9125
1897.21921	20444.9125
1900.34335	20439.1125
1903.46544	20383.6125
1906.58551	20408.6125
1909.70353	20344.1125
1912.81953	20330.6125
1915.93349	20284.9125
1919.04543	20280.0125
1922.15534	20177.0125
1925.26322	20136.8125
1928.36908	20115.0125
1931.47292	20108.3125
1934.57473	20018.5125
1937.67453	19998.7125
1940.77232	19973.0125
1943.86808	19877.6125
1946.96184	19838.4125
1950.05358	19787.6125
1953.14331	19718.7125
1956.23103	19666.9125
1959.31675	19626.7125
1962.40046	19558.1125
1965.48217	19472.4125
1968.56188	19471.8125
1971.63959	19406.0125
1974.7153	19343.0125
1977.78901	19274.5125
1980.86073	19224.3125
1983.93046	19202.4125
1986.99819	19137.6125
1990.06394	19089.7125
1993.1277	19036.7125
1996.18947	18966.3125
1999.24925	18974.7125
2002.30706	18863.6125
2005.36288	18846.0125
2008.41672	18765.3125
2011.46859	18708.4125
2014.51848	18710.1125
2017.56639	18702.0125
2020.61233	18639.8125
2023.6563	18593.0125
2026.6983	18517.5125
2029.73833	18534.6125
2032.7764	18525.2125
2035.8125	18494.1125
2038.84664	18465.1125
2041.87881	18388.4125
2044.90903	18335.7125
2047.93729	18315.0125
2050.96359	18305.0125
2053.98794	18306.8125
2057.01034	18298.4125
2060.03078	18270.2125
2063.04927	18256.9125
2066.06582	18252.5125
2069.08042	18261.6125
2072.09307	18227.6125
2075.10378	18188.7125
2078.11255	18185.5125
2081.11938	18169.0125
2084.12426	18188.5125
2087.12722	18170.9125
2090.12824	18194.0125
2093.12732	18180.0125
2096.12447	18150.2125
2099.11969	18155.1125
2102.11299	18137.1125
2105.10435	18176.3125
2108.09379	18182.5125
2111.08131	18193.2125
2114.0669	18149.2125
2117.05057	18169.5125
2120.03233	18203.4125
2123.01216	18249.3125
2125.99008	18279.9125
2128.96609	18288.1125
2131.94018	18320.9125
2134.91236	18267.0125
2137.88263	18308.6125
2140.851	18298.0125
2143.81746	18356.3125
2146.78201	18323.4125
2149.74466	18301.1125
2152.7054	18305.2125
2155.66425	18324.1125
2158.6212	18299.9125
2161.57625	18310.7125
2164.52941	18292.9125
2167.48067	18338.4125
2170.43004	18316.5125
2173.37752	18293.5125
2176.32311	18313.9125
2179.26681	18364.3125
2182.20863	18313.9125
2185.14856	18320.4125
2188.08661	18345.3125
2191.02278	18338.3125
2193.95707	18384.8125
2196.88948	18378.0125
2199.82001	18316.8125
2202.74867	18285.9125
2205.67545	18297.7125
2208.60037	18299.7125
2211.52341	18280.4125
2214.44458	18249.0125
2217.36388	18214.2125
2220.28132	18198.4125
2223.1969	18167.3125
2226.11061	18121.7125
2229.02246	18137.9125
2231.93245	18075.2125
2234.84058	18032.4125
2237.74686	18030.5125
2240.65128	18017.9125
2243.55385	17992.9125
2246.45456	17958.7125
2249.35343	17918.2125
2252.25044	17913.3125
2255.14561	17871.9125
2258.03893	17841.2125
2260.93041	17797.0125
2263.82004	17760.7125
2266.70783	17719.7125
2269.59378	17666.7125
2272.4779	17600.4125
2275.36017	17585.7125
2278.24061	17534.7125
2281.11922	17526.4125
2283.996	17494.0125
2286.87094	17517.5125
2289.74405	17510.0125
2292.61534	17491.6125
2295.4848	17515.3125
2298.35243	17533.0125
2301.21824	17509.3125
2304.08223	17525.5125
2306.94439	17530.8125
2309.80474	17572.3125
2312.66327	17576.7125
2315.51999	17552.1125
2318.37489	17551.0125
2321.22797	17560.6125
2324.07925	17531.4125
2326.92871	17501.1125
2329.77637	17487.9125
2332.62222	17473.7125
2335.46626	17478.4125
2338.3085	17464.2125
2341.14893	17433.3125
2343.98756	17521.3125
2346.8244	17484.7125
2349.65943	17489.3125
2352.49267	17474.8125
2355.32411	17442.9125
2358.15376	17465.5125
2360.98161	17465.3125
2363.80768	17455.4125
2366.63195	17444.0125
2369.45444	17362.7125
2372.27514	17334.7125
2375.09405	17322.3125
2377.91118	17334.0125
2380.72652	17242.7125
2383.54009	17208.3125
2386.35187	17230.7125
2389.16188	17164.6125
2391.97011	17179.7125
2394.77657	17120.6125
2397.58125	17113.3125
2400.38416	17111.4125
2403.18529	17070.8125
2405.98466	17047.3125
2408.78226	17030.5125
2411.57809	17028.9125
2414.37216	17006.9125
2417.16446	16992.5125
2419.955	16967.7125
2422.74378	16963.1125
2425.5308	16919.5125
2428.31606	16936.4125
2431.09956	16953.4125
2433.88131	16934.2125
2436.6613	16951.8125
2439.43954	16921.3125
2442.21603	16921.9125
2444.99077	16921.0125
2447.76377	16916.4125
2450.53501	16935.7125
2453.30451	16952.4125
2456.07226	16953.5125
2458.83827	16909.8125
2461.60254	16925.6125
2464.36507	16906.3125
2467.12586	16893.5125
2469.88492	16872.3125
2472.64224	16908.5125
2475.39782	16937.3125
2478.15167	16974.4125
2480.90379	16947.9125
2483.65417	17005.2125
2486.40283	17006.1125
2489.14976	17014.6125
2491.89497	17005.1125
2494.63845	17031.4125
2497.3802	17040.0125
2500.12024	17037.2125
2502.85855	16998.0125
2505.59514	16999.8125
2508.33002	16992.0125
2511.06318	16987.6125
2513.79462	16994.7125
2516.52435	16973.2125
2519.25237	16965.4125
2521.97867	16959.5125
2524.70327	16928.8125
2527.42616	16942.2125
2530.14734	16963.6125
2532.86681	16935.6125
2535.58458	16939.2125
2538.30065	16970.1125
2541.01501	16934.0125
2543.72768	16939.0125
2546.43864	16949.2125
2549.14791	16950.7125
2551.85548	16954.1125
2554.56136	16930.5125
2557.26554	16930.7125
2559.96803	16902.5125
2562.66883	16883.8125
2565.36794	16847.3125
2568.06536	16830.6125
2570.7611	16867.0125
2573.45514	16844.1125
2576.14751	16879.8125
2578.83819	16841.0125
2581.52719	16862.9125
2584.21451	16854.3125
2586.90015	16857.7125
2589.58411	16840.3125
2592.2664	16839.5125
2594.94701	16824.6125
2597.62594	16848.8125
2600.30321	16801.7125
2602.9788	16794.1125
2605.65273	16830.4125
2608.32498	16857.2125
2610.99557	16857.1125
2613.66449	16858.3125
2616.33175	16869.6125
2618.99734	16888.5125
2621.66128	16855.0125
2624.32355	16811.9125
2626.98416	16861.1125
2629.64311	16833.2125
2632.30041	16847.1125
2634.95605	16792.2125
2637.61004	16752.5125
2640.26238	16807.3125
2642.91306	16793.3125
2645.56209	16750.5125
2648.20948	16733.1125
2650.85521	16743.8125
2653.4993	16745.0125
2656.14175	16769.6125
2658.78255	16825.0125
2661.42171	16806.1125
2664.05923	16860.5125
2666.6951	16874.5125
2669.32934	16902.6125
2671.96194	16893.9125
2674.59291	16892.3125
2677.22224	16905.1125
2679.84993	16914.1125
2682.476	16863.9125
2685.10043	16862.5125
2687.72324	16851.8125
2690.34441	16854.4125
2692.96396	16858.3125
2695.58188	16834.4125
2698.19818	16830.9125
2700.81285	16846.3125
2703.4259	16861.9125
2706.03733	16923.5125
2708.64714	16854.0125
2711.25533	16891.3125
2713.86191	16878.3125
2716.46687	16933.0125
2719.07021	16937.6125
2721.67194	16981.6125
2724.27206	16952.8125
2726.87057	16999.5125
2729.46747	16983.2125
2732.06276	17006.4125
2734.65644	17035.0125
2737.24852	17034.0125
2739.83899	16997.4125
2742.42786	17081.1125
2745.01513	17048.2125
2747.60079	16998.9125
2750.18486	16987.1125
2752.76733	17009.2125
2755.3482	16993.5125
2757.92747	17007.4125
2760.50515	16956.8125
2763.08123	16975.1125
2765.65573	16940.9125
2768.22863	16969.3125
2770.79994	16974.4125
2773.36967	17001.8125
2775.9378	16999.7125
2778.50435	17003.5125
2781.06932	17002.7125
2783.6327	16996.5125
2786.1945	17020.5125
2788.75471	17028.6125
2791.31335	16958.9125
2793.87041	16966.8125
2796.42589	16944.3125
2798.97979	16930.7125
2801.53212	16920.7125
2804.08288	16898.6125
2806.63206	16889.2125
2809.17967	16810.8125
2811.72571	16780.7125
2814.27018	16775.2125
2816.81308	16743.7125
2819.35442	16682.1125
2821.89419	16644.1125
2824.43239	16636.4125
2826.96904	16615.7125
2829.50412	16628.1125
2832.03763	16614.5125
2834.56959	16576.2125
2837.1	16589.9125
2839.62884	16593.6125
2842.15613	16578.5125
2844.68186	16607.9125
2847.20604	16583.2125
2849.72867	16581.5125
2852.24974	16583.1125
2854.76927	16558.5125
2857.28724	16541.6125
2859.80367	16540.3125
2862.31855	16519.5125
2864.83189	16501.9125
2867.34368	16453.7125
2869.85393	16457.4125
2872.36264	16467.2125
2874.8698	16439.8125
2877.37543	16446.2125
2879.87952	16465.5125
2882.38207	16478.3125
2884.88308	16470.3125
2887.38256	16474.7125
2889.88051	16530.6125
2892.37692	16547.2125
2894.8718	16530.0125
2897.36515	16573.0125
2899.85698	16578.7125
2902.34727	16631.0125
2904.83604	16611.7125
2907.32328	16634.8125
2909.809	16659.2125
2912.29319	16620.7125
2914.77587	16634.7125
2917.25702	16632.4125
2919.73665	16629.5125
2922.21476	16632.2125
2924.69136	16610.2125
2927.16644	16599.7125
2929.64	16576.3125
2932.11205	16541.5125
2934.58258	16519.2125
2937.05161	16529.9125
2939.51912	16553.8125
2941.98513	16496.8125
2944.44962	16485.2125
2946.91261	16474.3125
2949.37409	16496.0125
2951.83407	16491.7125
2954.29254	16471.3125
2956.74951	16464.4125
2959.20498	16447.3125
2961.65895	16435.8125
2964.11142	16438.9125
2966.56239	16413.7125
2969.01186	16402.5125
2971.45984	16350.3125
2973.90632	16378.4125
2976.35131	16345.2125
2978.7948	16281.2125
2981.23681	16246.8125
2983.67732	16221.4125
2986.11635	16180.6125
2988.55388	16162.1125
2990.98993	16131.7125
2993.4245	16064.7125
2995.85758	16052.7125
2998.28917	15985.2125
3000.71928	15967.5125
3003.14791	15915.7125
3005.57506	15911.2125
3008.00073	15883.8125
3010.42493	15709.4125
3012.84764	15779.7125
3015.26888	15767.2125
3017.68865	15753.7125
3020.10694	15742.8125
3022.52376	15707.3125
