Data from AgNPs_FTO_APTES_UA_0.1mM_CRN_20uM_NaF_0.1M_Addition_RamanShift__26__12-27-17-611.txt Node

Date: Mon Dec 20 12:27:17 GMT 2021
User: TCL
Spectrometer: QEP01345
Trigger mode: 4
Integration Time (sec): 7.000000E0
Scans to average: 10
Electric dark correction enabled: true
Nonlinearity correction enabled: false
Boxcar width: 0
XAxis mode: Raman Shifts
Number of Pixels in Spectrum: 1044
>>>>>Begin Spectral Data<<<<<
46.04893	0.625
50.45542	-0.875
54.85868	-1.075
59.25871	1.725
63.6555	33.025
68.04907	35.525
72.43941	38.225
76.82654	39.825
81.21044	40.025
85.59113	45.225
89.96862	45.625
94.34289	46.725
98.71396	48.125
103.08183	42.125
107.4465	52.725
111.80798	51.725
116.16626	50.025
120.52136	55.525
124.87327	56.825
129.222	55.325
133.56755	60.925
137.90993	65.225
142.24913	68.825
146.58517	75.425
150.91804	87.125
155.24774	104.825
159.57429	120.725
163.89768	157.325
168.21792	203.625
172.53501	269.525
176.84895	364.025
181.15975	505.625
185.46741	705.025
189.77193	970.825
194.07331	1301.425
198.37157	1682.625
202.6667	2094.225
206.9587	2493.225
211.24758	2894.125
215.53334	3281.525
219.81599	3714.625
224.09553	4148.925
228.37195	4616.725
232.64527	5131.525
236.91549	5645.025
241.18261	6149.625
245.44663	6624.425
249.70755	7079.725
253.96539	7448.525
258.22014	7781.125
262.4718	8022.625
266.72039	8166.425
270.96589	8207.425
275.20832	8187.425
279.44768	8101.225
283.68397	7993.125
287.91719	7891.525
292.14735	7838.225
296.37445	7827.725
300.59849	7836.725
304.81948	7884.825
309.03742	7886.725
313.25231	7831.725
317.46415	7700.825
321.67296	7455.525
325.87872	7265.425
330.08145	7200.025
334.28114	7174.725
338.47781	7200.025
342.67145	7294.025
346.86207	7388.525
351.04966	7573.025
355.23424	7785.425
359.4158	7962.825
363.59435	8090.925
367.76989	8178.125
371.94243	8236.125
376.11196	8303.925
380.27849	8362.625
384.44203	8418.125
388.60257	8456.925
392.76012	8506.225
396.91468	8546.625
401.06626	8679.925
405.21485	8749.025
409.36047	8707.125
413.50311	8574.225
417.64277	8446.925
421.77947	8382.625
425.9132	8336.925
430.04396	8355.125
434.17176	8393.925
438.2966	8458.025
442.41849	8559.825
446.53742	8691.025
450.6534	8850.325
454.76644	8961.025
458.87653	8982.425
462.98368	8962.225
467.08789	8902.825
471.18916	8884.925
475.2875	8857.325
479.38291	8916.925
483.4754	8988.525
487.56496	9085.725
491.6516	9193.225
495.73531	9219.625
499.81612	9165.825
503.89401	9088.125
507.96899	8964.625
512.04106	8916.225
516.11023	8923.825
520.1765	9003.325
524.23987	9081.225
528.30034	9099.125
532.35792	9088.225
536.41261	8956.425
540.46441	8832.925
544.51333	8728.125
548.55936	8655.825
552.60252	8656.125
556.64279	8726.425
560.6802	8763.325
564.71473	8836.325
568.7464	8958.125
572.7752	9051.025
576.80114	9036.225
580.82422	8990.025
584.84444	9082.425
588.86181	9219.825
592.87633	9324.325
596.888	9362.425
600.89682	9335.425
604.9028	9581.325
608.90594	10404.825
612.90624	11604.625
616.90371	11639.925
620.89834	10510.925
624.89015	10213.525
628.87913	10641.725
632.86528	11166.825
636.84862	11474.425
640.82913	11264.625
644.80683	10677.825
648.78172	10060.625
652.75379	9584.725
656.72306	9359.125
660.68952	9300.325
664.65319	9225.025
668.61405	9082.725
672.57211	9036.925
676.52738	9027.225
680.47986	9006.525
684.42955	8980.425
688.37646	8976.525
692.32058	8963.025
696.26192	8910.925
700.20048	8898.425
704.13626	8850.025
708.06928	8775.325
711.99952	8721.425
715.927	8676.925
719.85171	8707.425
723.77365	8762.025
727.69284	8773.925
731.60928	8692.125
735.52295	8596.025
739.43388	8532.125
743.34206	8553.325
747.24749	8572.125
751.15017	8570.025
755.05012	8618.225
758.94733	8719.825
762.8418	9020.525
766.73354	9486.525
770.62254	10041.025
774.50882	10283.525
778.39237	10076.225
782.27321	9484.325
786.15132	9012.625
790.02671	8727.225
793.89938	8650.725
797.76935	8663.825
801.6366	8787.325
805.50115	9075.325
809.36299	9375.425
813.22213	9500.125
817.07857	9365.425
820.93231	9039.125
824.78336	8701.825
828.63172	8441.725
832.47738	8301.525
836.32036	8264.625
840.16066	8207.025
843.99827	8190.425
847.8332	8159.425
851.66546	8139.125
855.49504	8128.225
859.32195	8129.925
863.1462	8153.325
866.96777	8221.625
870.78668	8372.625
874.60293	8540.425
878.41652	8740.025
882.22745	8951.825
886.03573	9076.925
889.84136	9043.525
893.64433	8851.925
897.44466	8560.425
901.24235	8298.325
905.0374	8077.825
908.8298	7953.125
912.61957	7864.725
916.40671	7821.325
920.19121	7797.425
923.97308	7824.625
927.75233	7826.225
931.52895	7829.925
935.30295	7792.625
939.07433	7707.025
942.84309	7644.225
946.60924	7608.225
950.37278	7601.325
954.13371	7579.425
957.89203	7526.925
961.64774	7529.125
965.40086	7494.525
969.15137	7486.225
972.89929	7426.625
976.64461	7391.525
980.38733	7375.325
984.12747	7364.825
987.86502	7401.225
991.59999	7452.225
995.33237	7533.025
999.06217	7665.325
1002.78939	7799.925
1006.51404	7970.525
1010.23611	8126.825
1013.95561	8202.025
1017.67255	8231.225
1021.38692	8164.125
1025.09872	8046.325
1028.80796	7907.825
1032.51465	7792.925
1036.21877	7724.225
1039.92035	7671.425
1043.61937	7620.425
1047.31584	7589.325
1051.00976	7573.025
1054.70114	7574.125
1058.38998	7618.625
1062.07627	7692.825
1065.76003	7763.325
1069.44126	7832.225
1073.11995	7884.525
1076.79611	7889.425
1080.46974	7845.625
1084.14085	7817.425
1087.80943	7830.025
1091.47549	7793.425
1095.13903	7730.325
1098.80005	7601.225
1102.45857	7558.225
1106.11456	7515.425
1109.76805	7564.125
1113.41903	7683.525
1117.06751	7903.825
1120.71348	8238.725
1124.35696	8679.625
1127.99793	9233.025
1131.63641	9730.725
1135.2724	9964.325
1138.90589	9922.825
1142.5369	9669.425
1146.16542	9253.325
1149.79145	8739.525
1153.415	8340.625
1157.03607	8025.725
1160.65467	7908.325
1164.27079	7896.725
1167.88443	8018.225
1171.49561	8242.425
1175.10432	8618.425
1178.71056	9154.125
1182.31434	9710.025
1185.91565	9961.425
1189.51451	10002.425
1193.11091	9994.825
1196.70485	9970.925
1200.29634	9987.925
1203.88538	9975.425
1207.47197	9768.925
1211.05612	9435.425
1214.63782	9090.425
1218.21708	8760.725
1221.79391	8460.825
1225.36829	8266.225
1228.94024	8121.125
1232.50976	7988.825
1236.07685	7904.825
1239.6415	7895.925
1243.20374	7922.325
1246.76355	7959.725
1250.32093	8007.825
1253.8759	8086.325
1257.42845	8194.525
1260.97859	8287.425
1264.52631	8363.725
1268.07163	8449.725
1271.61453	8520.025
1275.15503	8583.025
1278.69312	8631.725
1282.22882	8687.225
1285.76211	8761.025
1289.29301	8929.725
1292.82151	9143.925
1296.34761	9433.525
1299.87133	9796.725
1303.39266	10268.025
1306.9116	10881.725
1310.42815	11515.525
1313.94233	11928.225
1317.45412	11940.725
1320.96354	11663.125
1324.47058	11333.725
1327.97525	11029.125
1331.47754	10858.725
1334.97747	10815.725
1338.47502	10914.325
1341.97022	11058.725
1345.46305	11193.525
1348.95352	11409.725
1352.44163	11703.125
1355.92738	12127.325
1359.41078	12888.125
1362.89183	13630.025
1366.37053	13437.125
1369.84688	12381.725
1373.32088	11143.625
1376.79254	10336.925
1380.26186	9931.225
1383.72883	9741.425
1387.19347	9630.125
1390.65578	9474.125
1394.11575	9360.925
1397.57339	9328.425
1401.0287	9344.925
1404.48168	9380.125
1407.93234	9317.125
1411.38068	9200.625
1414.82669	8960.225
1418.27039	8668.025
1421.71177	8372.825
1425.15083	8082.725
1428.58758	7923.125
1432.02203	7874.625
1435.45416	7895.525
1438.88399	7926.525
1442.31151	7989.325
1445.73673	8031.025
1449.15965	8110.325
1452.58027	8136.125
1455.9986	8145.425
1459.41463	8155.825
1462.82837	8217.925
1466.23982	8299.425
1469.64898	8405.925
1473.05586	8467.825
1476.46045	8484.925
1479.86276	8487.825
1483.26279	8495.325
1486.66054	8563.925
1490.05602	8628.725
1493.44922	8775.725
1496.84016	8972.925
1500.22882	9313.325
1503.61521	9788.125
1506.99934	10392.925
1510.38121	10932.925
1513.76081	11106.025
1517.13816	10730.725
1520.51324	10043.025
1523.88607	9369.925
1527.25665	8958.925
1530.62498	8796.925
1533.99105	8745.425
1537.35488	8728.925
1540.71647	8776.725
1544.07581	8790.025
1547.4329	8784.325
1550.78776	8795.025
1554.14038	8766.125
1557.49077	8779.225
1560.83892	8829.125
1564.18484	8897.025
1567.52853	8961.225
1570.86999	9067.725
1574.20922	9156.925
1577.54624	9212.425
1580.88103	9113.425
1584.2136	8980.225
1587.54395	8905.625
1590.87208	9048.825
1594.19801	9333.925
1597.52172	9663.025
1600.84321	9873.225
1604.16251	9755.725
1607.47959	9441.525
1610.79447	9083.625
1614.10715	8696.625
1617.41763	8396.225
1620.7259	8210.125
1624.03199	8100.725
1627.33587	8114.825
1630.63757	8199.325
1633.93707	8429.825
1637.23439	8787.225
1640.52951	9331.725
1643.82246	9998.025
1647.11321	10718.625
1650.40179	11149.025
1653.68819	10937.425
1656.97241	10127.325
1660.25446	9208.725
1663.53433	8494.125
1666.81203	8035.325
1670.08756	7681.025
1673.36092	7471.025
1676.63211	7303.825
1679.90115	7180.425
1683.16801	7048.925
1686.43272	6935.725
1689.69527	6827.725
1692.95567	6731.325
1696.2139	6649.225
1699.46999	6539.625
1702.72392	6427.925
1705.97571	6311.525
1709.22535	6212.125
1712.47284	6123.925
1715.71819	6053.425
1718.96139	5985.525
1722.20246	5932.825
1725.44139	5879.625
1728.67818	5800.025
1731.91284	5749.525
1735.14537	5664.925
1738.37576	5647.825
1741.60403	5615.125
1744.83017	5592.125
1748.05418	5587.025
1751.27607	5578.925
1754.49584	5547.725
1757.71349	5554.425
1760.92903	5536.425
1764.14244	5501.625
1767.35375	5490.625
1770.56294	5466.525
1773.77002	5414.825
1776.97499	5415.625
1780.17785	5376.825
1783.37861	5346.625
1786.57727	5329.825
1789.77382	5293.525
1792.96828	5265.025
1796.16064	5264.625
1799.3509	5232.425
1802.53907	5210.425
1805.72514	5181.425
1808.90913	5180.425
1812.09102	5174.125
1815.27083	5145.725
1818.44856	5139.125
1821.6242	5115.925
1824.79776	5123.825
1827.96924	5104.925
1831.13864	5090.325
1834.30597	5077.525
1837.47122	5079.625
1840.6344	5071.025
1843.7955	5078.925
1846.95454	5057.425
1850.11151	5064.525
1853.26642	5045.925
1856.41926	5062.025
1859.57004	5045.725
1862.71876	5020.525
1865.86542	5029.425
1869.01003	5027.125
1872.15258	4996.425
1875.29308	4996.925
1878.43152	5000.025
1881.56792	4991.225
1884.70227	4968.325
1887.83457	4972.225
1890.96482	4958.225
1894.09304	4946.325
1897.21921	4940.425
1900.34335	4957.225
1903.46544	4928.325
1906.58551	4936.325
1909.70353	4928.725
1912.81953	4921.725
1915.93349	4891.725
1919.04543	4892.725
1922.15534	4866.525
1925.26322	4862.325
1928.36908	4847.925
1931.47292	4839.125
1934.57473	4839.925
1937.67453	4826.425
1940.77232	4793.625
1943.86808	4781.025
1946.96184	4763.725
1950.05358	4750.025
1953.14331	4745.325
1956.23103	4714.225
1959.31675	4727.725
1962.40046	4693.925
1965.48217	4672.825
1968.56188	4676.125
1971.63959	4652.125
1974.7153	4624.225
1977.78901	4631.525
1980.86073	4599.325
1983.93046	4588.325
1986.99819	4579.025
1990.06394	4542.525
1993.1277	4550.025
1996.18947	4537.925
1999.24925	4530.225
2002.30706	4514.025
2005.36288	4487.525
2008.41672	4468.025
2011.46859	4448.325
2014.51848	4434.925
2017.56639	4428.225
2020.61233	4406.225
2023.6563	4406.725
2026.6983	4390.025
2029.73833	4390.525
2032.7764	4389.625
2035.8125	4369.625
2038.84664	4359.325
2041.87881	4349.925
2044.90903	4329.425
2047.93729	4336.425
2050.96359	4325.325
2053.98794	4326.725
2057.01034	4329.425
2060.03078	4318.525
2063.04927	4295.525
2066.06582	4295.525
2069.08042	4286.725
2072.09307	4289.025
2075.10378	4283.525
2078.11255	4269.725
2081.11938	4280.525
2084.12426	4271.925
2087.12722	4270.925
2090.12824	4261.125
2093.12732	4264.825
2096.12447	4262.325
2099.11969	4261.525
2102.11299	4268.125
2105.10435	4262.925
2108.09379	4257.925
2111.08131	4247.925
2114.0669	4251.725
2117.05057	4248.925
2120.03233	4271.325
2123.01216	4257.525
2125.99008	4260.125
2128.96609	4269.425
2131.94018	4270.425
2134.91236	4274.525
2137.88263	4273.325
2140.851	4265.125
2143.81746	4266.425
2146.78201	4272.925
2149.74466	4256.425
2152.7054	4264.125
2155.66425	4271.125
2158.6212	4266.925
2161.57625	4257.825
2164.52941	4255.125
2167.48067	4254.425
2170.43004	4252.025
2173.37752	4250.025
2176.32311	4249.325
2179.26681	4242.025
2182.20863	4248.725
2185.14856	4241.025
2188.08661	4231.525
2191.02278	4239.325
2193.95707	4230.225
2196.88948	4217.525
2199.82001	4205.525
2202.74867	4221.725
2205.67545	4193.225
2208.60037	4192.625
2211.52341	4188.825
2214.44458	4186.425
2217.36388	4164.025
2220.28132	4169.525
2223.1969	4147.925
2226.11061	4145.425
2229.02246	4143.525
2231.93245	4111.125
2234.84058	4120.225
2237.74686	4111.225
2240.65128	4095.725
2243.55385	4095.025
2246.45456	4093.525
2249.35343	4070.525
2252.25044	4062.825
2255.14561	4066.625
2258.03893	4071.125
2260.93041	4069.925
2263.82004	4043.125
2266.70783	4040.125
2269.59378	4032.325
2272.4779	4023.125
2275.36017	4018.825
2278.24061	4001.225
2281.11922	3992.725
2283.996	3988.425
2286.87094	3970.925
2289.74405	3959.525
2292.61534	3954.525
2295.4848	3951.925
2298.35243	3936.825
2301.21824	3933.225
2304.08223	3934.625
2306.94439	3936.425
2309.80474	3914.825
2312.66327	3931.325
2315.51999	3931.325
2318.37489	3919.125
2321.22797	3917.225
2324.07925	3899.625
2326.92871	3895.025
2329.77637	3897.325
2332.62222	3878.325
2335.46626	3873.025
2338.3085	3874.825
2341.14893	3869.825
2343.98756	3866.825
2346.8244	3871.725
2349.65943	3856.125
2352.49267	3861.525
2355.32411	3855.425
2358.15376	3848.225
2360.98161	3846.525
2363.80768	3838.425
2366.63195	3826.125
2369.45444	3836.225
2372.27514	3837.225
2375.09405	3832.125
2377.91118	3828.025
2380.72652	3807.625
2383.54009	3794.625
2386.35187	3805.425
2389.16188	3788.325
2391.97011	3780.725
2394.77657	3771.225
2397.58125	3775.325
2400.38416	3760.325
2403.18529	3744.125
2405.98466	3737.825
2408.78226	3740.125
2411.57809	3740.225
2414.37216	3713.225
2417.16446	3723.925
2419.955	3693.525
2422.74378	3701.525
2425.5308	3695.025
2428.31606	3684.725
2431.09956	3669.525
2433.88131	3674.625
2436.6613	3678.925
2439.43954	3663.125
2442.21603	3654.725
2444.99077	3669.325
2447.76377	3656.525
2450.53501	3645.725
2453.30451	3646.025
2456.07226	3645.925
2458.83827	3648.925
2461.60254	3635.825
2464.36507	3623.625
2467.12586	3613.525
2469.88492	3606.725
2472.64224	3619.625
2475.39782	3626.925
2478.15167	3632.725
2480.90379	3607.925
2483.65417	3601.225
2486.40283	3609.925
2489.14976	3618.725
2491.89497	3606.625
2494.63845	3620.925
2497.3802	3604.625
2500.12024	3602.425
2502.85855	3599.325
2505.59514	3591.025
2508.33002	3580.325
2511.06318	3560.425
2513.79462	3556.925
2516.52435	3548.425
2519.25237	3550.225
2521.97867	3549.825
2524.70327	3543.725
2527.42616	3541.625
2530.14734	3533.325
2532.86681	3523.825
2535.58458	3517.325
2538.30065	3524.525
2541.01501	3524.825
2543.72768	3505.625
2546.43864	3490.425
2549.14791	3487.025
2551.85548	3491.025
2554.56136	3469.225
2557.26554	3478.725
2559.96803	3463.725
2562.66883	3459.725
2565.36794	3451.625
2568.06536	3443.625
2570.7611	3447.125
2573.45514	3436.025
2576.14751	3429.525
2578.83819	3415.625
2581.52719	3415.125
2584.21451	3409.025
2586.90015	3411.525
2589.58411	3395.625
2592.2664	3394.125
2594.94701	3386.025
2597.62594	3389.325
2600.30321	3377.525
2602.9788	3369.725
2605.65273	3375.225
2608.32498	3375.425
2610.99557	3361.825
2613.66449	3353.725
2616.33175	3345.725
2618.99734	3339.025
2621.66128	3349.725
2624.32355	3326.825
2626.98416	3322.825
2629.64311	3334.425
2632.30041	3333.425
2634.95605	3327.925
2637.61004	3320.325
2640.26238	3319.625
2642.91306	3309.225
2645.56209	3310.825
2648.20948	3302.425
2650.85521	3290.725
2653.4993	3299.625
2656.14175	3300.925
2658.78255	3295.925
2661.42171	3293.525
2664.05923	3295.525
2666.6951	3290.425
2669.32934	3291.625
2671.96194	3284.225
2674.59291	3290.325
2677.22224	3292.125
2679.84993	3282.225
2682.476	3288.725
2685.10043	3303.825
2687.72324	3286.025
2690.34441	3288.825
2692.96396	3284.825
2695.58188	3306.225
2698.19818	3283.125
2700.81285	3292.625
2703.4259	3306.525
2706.03733	3325.925
2708.64714	3310.325
2711.25533	3309.725
2713.86191	3305.225
2716.46687	3316.925
2719.07021	3302.225
2721.67194	3304.025
2724.27206	3296.725
2726.87057	3311.325
2729.46747	3287.725
2732.06276	3304.825
2734.65644	3303.525
2737.24852	3287.825
2739.83899	3287.525
2742.42786	3283.325
2745.01513	3257.625
2747.60079	3275.225
2750.18486	3267.325
2752.76733	3261.725
2755.3482	3254.725
2757.92747	3258.125
2760.50515	3246.825
2763.08123	3248.825
2765.65573	3245.625
2768.22863	3243.425
2770.79994	3239.225
2773.36967	3236.925
2775.9378	3245.225
2778.50435	3226.125
2781.06932	3220.625
2783.6327	3227.225
2786.1945	3205.825
2788.75471	3214.225
2791.31335	3193.825
2793.87041	3197.125
2796.42589	3190.825
2798.97979	3187.225
2801.53212	3176.925
2804.08288	3171.425
2806.63206	3181.525
2809.17967	3152.525
2811.72571	3141.525
2814.27018	3161.325
2816.81308	3149.325
2819.35442	3131.825
2821.89419	3120.825
2824.43239	3136.125
2826.96904	3131.625
2829.50412	3129.625
2832.03763	3129.325
2834.56959	3134.325
2837.1	3121.225
2839.62884	3131.025
2842.15613	3114.325
2844.68186	3114.225
2847.20604	3117.925
2849.72867	3138.825
2852.24974	3138.325
2854.76927	3126.625
2857.28724	3130.725
2859.80367	3111.925
2862.31855	3112.925
2864.83189	3122.625
2867.34368	3113.825
2869.85393	3108.725
2872.36264	3109.425
2874.8698	3125.825
2877.37543	3114.825
2879.87952	3120.525
2882.38207	3119.525
2884.88308	3110.525
2887.38256	3127.825
2889.88051	3111.325
2892.37692	3116.625
2894.8718	3119.025
2897.36515	3133.525
2899.85698	3130.225
2902.34727	3133.125
2904.83604	3129.625
2907.32328	3122.425
2909.809	3145.925
2912.29319	3135.025
2914.77587	3129.825
2917.25702	3132.625
2919.73665	3137.125
2922.21476	3128.525
2924.69136	3123.425
2927.16644	3132.525
2929.64	3124.425
2932.11205	3131.525
2934.58258	3118.825
2937.05161	3112.025
2939.51912	3115.925
2941.98513	3107.325
2944.44962	3105.125
2946.91261	3095.025
2949.37409	3101.225
2951.83407	3095.925
2954.29254	3094.625
2956.74951	3088.925
2959.20498	3077.525
2961.65895	3087.325
2964.11142	3081.825
2966.56239	3061.825
2969.01186	3072.925
2971.45984	3073.225
2973.90632	3056.425
2976.35131	3054.925
2978.7948	3051.125
2981.23681	3045.525
2983.67732	3034.025
2986.11635	3023.225
2988.55388	3017.625
2990.98993	3036.625
2993.4245	3016.425
2995.85758	3017.925
2998.28917	3011.325
3000.71928	3012.225
3003.14791	3017.425
3005.57506	3005.425
3008.00073	3008.325
3010.42493	3000.725
3012.84764	2992.925
3015.26888	3003.025
3017.68865	2993.025
3020.10694	2983.925
3022.52376	2978.425
3024.9391	2987.025
3027.35298	2981.225
3029.76539	2980.225
3032.17632	2976.725
3034.5858	2971.125
3036.9938	2973.225
3039.40034	2976.325
3041.80542	2979.825
3044.20903	2965.625
3046.61118	2965.125
3049.01187	2970.825
3051.4111	2984.425
3053.80888	2966.825
3056.20519	2969.025
3058.60005	2945.725
3060.99345	2963.825
3063.3854	2955.625
3065.7759	2947.825
3068.16494	2954.025
3070.55254	2945.425
3072.93868	2946.625
3075.32338	2947.225
3077.70662	2948.825
3080.08842	2942.325
3082.46878	2949.225
3084.84769	2948.025
3087.22515	2947.925
3089.60118	2958.225
3091.97576	2956.825
3094.3489	2960.725
3096.72061	2966.925
3099.09087	2969.025
3101.4597	2965.125
3103.82709	2972.625
3106.19305	2966.025
3108.55757	2971.825
3110.92066	2969.925
3113.28232	2973.025
3115.64255	2969.825
3118.00134	2969.225
3120.35871	2969.225
3122.71466	2982.425
3125.06917	2970.025
3127.42226	2967.825
3129.77393	2977.725
3132.12417	2978.425
3134.47299	2986.225
3136.82039	2992.325
3139.16636	3012.425
3141.51092	3012.025
3143.85406	3020.825
3146.19579	3017.225
3148.53609	3031.725
3150.87499	3033.025
3153.21246	3052.025
3155.54853	3053.925
3157.88318	3064.625
3160.21642	3063.225
3162.54826	3079.725
3164.87868	3078.325
3167.2077	3080.325
3169.5353	3071.525
3171.86151	3071.125
3174.18631	3093.725
3176.5097	3085.025
3178.83169	3093.625
3181.15228	3073.625
3183.47147	3092.225
3185.78926	3094.525
3188.10565	3103.425
3190.42065	3109.825
3192.73424	3109.525
3195.04645	3117.125
3197.35725	3121.225
3199.66667	3125.025
3201.97469	3125.025
3204.28132	3142.125
3206.58656	3145.925
3208.8904	3153.825
3211.19287	3156.025
3213.49394	3161.125
3215.79363	3177.125
3218.09193	3182.225
3220.38884	3182.525
3222.68438	3181.625
3224.97853	3173.425
3227.2713	3172.325
3229.56269	3165.025
3231.8527	3168.625
