Data from AgNPs_FTO_APTES_UA_0.1mM_CRN_100uM_NaF_0.1M_Addition_RamanShift__23__13-43-07-696.txt Node

Date: Mon Dec 20 13:43:07 GMT 2021
User: TCL
Spectrometer: QEP01345
Trigger mode: 4
Integration Time (sec): 7.000000E0
Scans to average: 10
Electric dark correction enabled: true
Nonlinearity correction enabled: false
Boxcar width: 0
XAxis mode: Raman Shifts
Number of Pixels in Spectrum: 1044
>>>>>Begin Spectral Data<<<<<
46.04893	0.875
50.45542	-0.625
54.85868	-0.725
59.25871	-0.225
63.6555	30.975
68.04907	30.275
72.43941	34.075
76.82654	36.275
81.21044	35.875
85.59113	39.675
89.96862	37.475
94.34289	42.175
98.71396	41.675
103.08183	43.275
107.4465	43.975
111.80798	47.675
116.16626	45.075
120.52136	48.375
124.87327	48.675
129.222	50.075
133.56755	54.675
137.90993	55.975
142.24913	60.675
146.58517	61.875
150.91804	76.475
155.24774	88.375
159.57429	105.575
163.89768	136.675
168.21792	172.475
172.53501	230.075
176.84895	314.175
181.15975	434.675
185.46741	600.375
189.77193	840.775
194.07331	1121.175
198.37157	1451.475
202.6667	1807.075
206.9587	2181.975
211.24758	2532.675
215.53334	2900.375
219.81599	3255.575
224.09553	3645.575
228.37195	4059.775
232.64527	4496.075
236.91549	4940.475
241.18261	5398.575
245.44663	5793.775
249.70755	6158.575
253.96539	6451.975
258.22014	6696.275
262.4718	6894.075
266.72039	7000.775
270.96589	7033.475
275.20832	6993.975
279.44768	6903.775
283.68397	6801.675
287.91719	6687.475
292.14735	6607.775
296.37445	6569.875
300.59849	6563.275
304.81948	6588.075
309.03742	6576.175
313.25231	6526.675
317.46415	6423.275
321.67296	6282.975
325.87872	6144.175
330.08145	6088.975
334.28114	6092.275
338.47781	6107.475
342.67145	6167.375
346.86207	6246.675
351.04966	6352.075
355.23424	6508.175
359.4158	6611.375
363.59435	6698.475
367.76989	6773.375
371.94243	6834.175
376.11196	6904.875
380.27849	6950.075
384.44203	6995.575
388.60257	7048.775
392.76012	7103.875
396.91468	7157.675
401.06626	7217.375
405.21485	7277.575
409.36047	7271.175
413.50311	7208.675
417.64277	7104.975
421.77947	7067.875
425.9132	7044.475
430.04396	7045.375
434.17176	7103.575
438.2966	7163.475
442.41849	7212.275
446.53742	7287.175
450.6534	7385.175
454.76644	7467.875
458.87653	7507.875
462.98368	7520.375
467.08789	7490.875
471.18916	7477.075
475.2875	7488.075
479.38291	7541.175
483.4754	7618.775
487.56496	7705.275
491.6516	7825.575
495.73531	7861.275
499.81612	7823.675
503.89401	7757.775
507.96899	7660.275
512.04106	7639.775
516.11023	7646.375
520.1765	7662.975
524.23987	7704.375
528.30034	7744.875
532.35792	7755.775
536.41261	7686.475
540.46441	7582.075
544.51333	7462.575
548.55936	7405.875
552.60252	7407.575
556.64279	7424.075
560.6802	7446.175
564.71473	7507.175
568.7464	7572.775
572.7752	7663.675
576.80114	7641.675
580.82422	7641.675
584.84444	7683.675
588.86181	7782.175
592.87633	7881.775
596.888	7869.975
600.89682	7882.775
604.9028	8031.375
608.90594	8551.075
612.90624	9295.875
616.90371	9356.575
620.89834	8701.275
624.89015	8630.775
628.87913	8997.375
632.86528	9511.875
636.84862	9816.375
640.82913	9686.375
644.80683	9275.975
648.78172	8757.975
652.75379	8345.575
656.72306	8135.975
660.68952	8086.475
664.65319	8047.375
668.61405	7960.975
672.57211	7989.975
676.52738	8052.875
680.47986	8072.475
684.42955	8081.375
688.37646	8051.775
692.32058	7950.775
696.26192	7901.775
700.20048	7843.875
704.13626	7794.175
708.06928	7722.275
711.99952	7632.075
715.927	7577.175
719.85171	7566.975
723.77365	7592.375
727.69284	7606.175
731.60928	7551.375
735.52295	7444.375
739.43388	7424.075
743.34206	7370.975
747.24749	7400.975
751.15017	7406.275
755.05012	7442.075
758.94733	7489.275
762.8418	7714.575
766.73354	7992.075
770.62254	8322.475
774.50882	8474.175
778.39237	8327.575
782.27321	7958.475
786.15132	7634.875
790.02671	7462.075
793.89938	7417.675
797.76935	7444.975
801.6366	7524.275
805.50115	7717.175
809.36299	7959.875
813.22213	8074.375
817.07857	7978.275
820.93231	7716.075
824.78336	7450.775
828.63172	7276.375
832.47738	7129.075
836.32036	7066.375
840.16066	7052.475
843.99827	7017.675
847.8332	6996.775
851.66546	7001.675
855.49504	6979.075
859.32195	7013.675
863.1462	7031.475
866.96777	7070.375
870.78668	7160.275
874.60293	7303.475
878.41652	7435.675
882.22745	7612.775
886.03573	7733.575
889.84136	7751.075
893.64433	7593.775
897.44466	7372.275
901.24235	7156.175
905.0374	6968.875
908.8298	6844.875
912.61957	6791.075
916.40671	6751.675
920.19121	6760.375
923.97308	6762.675
927.75233	6724.175
931.52895	6734.775
935.30295	6723.475
939.07433	6687.575
942.84309	6625.275
946.60924	6604.275
950.37278	6599.875
954.13371	6589.875
957.89203	6540.275
961.64774	6527.575
965.40086	6488.675
969.15137	6458.475
972.89929	6423.475
976.64461	6404.875
980.38733	6422.575
984.12747	6392.075
987.86502	6416.475
991.59999	6433.875
995.33237	6502.775
999.06217	6558.875
1002.78939	6665.775
1006.51404	6761.875
1010.23611	6895.375
1013.95561	6961.175
1017.67255	7000.175
1021.38692	6943.875
1025.09872	6826.175
1028.80796	6755.575
1032.51465	6656.775
1036.21877	6591.275
1039.92035	6560.775
1043.61937	6552.575
1047.31584	6523.575
1051.00976	6518.775
1054.70114	6513.175
1058.38998	6566.675
1062.07627	6637.075
1065.76003	6692.175
1069.44126	6736.075
1073.11995	6814.875
1076.79611	6826.675
1080.46974	6784.875
1084.14085	6739.675
1087.80943	6683.175
1091.47549	6629.375
1095.13903	6598.775
1098.80005	6517.875
1102.45857	6479.775
1106.11456	6463.675
1109.76805	6487.675
1113.41903	6596.475
1117.06751	6770.475
1120.71348	7027.075
1124.35696	7396.775
1127.99793	7867.875
1131.63641	8316.175
1135.2724	8538.375
1138.90589	8534.675
1142.5369	8295.875
1146.16542	7942.875
1149.79145	7545.075
1153.415	7173.475
1157.03607	6936.575
1160.65467	6785.075
1164.27079	6751.675
1167.88443	6804.075
1171.49561	6941.375
1175.10432	7175.775
1178.71056	7506.075
1182.31434	7824.275
1185.91565	7994.875
1189.51451	8035.875
1193.11091	8017.375
1196.70485	8034.375
1200.29634	8092.175
1203.88538	8098.975
1207.47197	7997.375
1211.05612	7789.675
1214.63782	7513.575
1218.21708	7278.775
1221.79391	7074.075
1225.36829	6915.675
1228.94024	6814.075
1232.50976	6732.175
1236.07685	6685.375
1239.6415	6689.975
1243.20374	6716.575
1246.76355	6758.975
1250.32093	6777.175
1253.8759	6824.675
1257.42845	6892.175
1260.97859	6968.675
1264.52631	6999.475
1268.07163	7078.275
1271.61453	7076.775
1275.15503	7115.875
1278.69312	7145.275
1282.22882	7156.075
1285.76211	7202.675
1289.29301	7297.175
1292.82151	7444.375
1296.34761	7593.375
1299.87133	7818.675
1303.39266	8121.575
1306.9116	8462.875
1310.42815	8896.175
1313.94233	9157.275
1317.45412	9131.875
1320.96354	8951.575
1324.47058	8789.975
1327.97525	8625.975
1331.47754	8579.375
1334.97747	8570.875
1338.47502	8639.875
1341.97022	8740.975
1345.46305	8883.675
1348.95352	9069.675
1352.44163	9271.175
1355.92738	9578.275
1359.41078	10039.675
1362.89183	10527.475
1366.37053	10447.875
1369.84688	9775.675
1373.32088	8974.475
1376.79254	8461.375
1380.26186	8167.775
1383.72883	7987.675
1387.19347	7859.675
1390.65578	7742.475
1394.11575	7629.875
1397.57339	7588.275
1401.0287	7565.675
1404.48168	7524.475
1407.93234	7486.175
1411.38068	7371.075
1414.82669	7240.275
1418.27039	7038.375
1421.71177	6865.775
1425.15083	6685.975
1428.58758	6539.875
1432.02203	6473.975
1435.45416	6463.375
1438.88399	6476.175
1442.31151	6465.675
1445.73673	6480.075
1449.15965	6514.975
1452.58027	6525.175
1455.9986	6512.175
1459.41463	6529.075
1462.82837	6576.975
1466.23982	6627.775
1469.64898	6703.475
1473.05586	6761.575
1476.46045	6774.375
1479.86276	6776.875
1483.26279	6778.075
1486.66054	6798.175
1490.05602	6870.775
1493.44922	6967.975
1496.84016	7078.975
1500.22882	7324.075
1503.61521	7678.775
1506.99934	8101.275
1510.38121	8453.075
1513.76081	8586.075
1517.13816	8309.375
1520.51324	7865.775
1523.88607	7443.675
1527.25665	7208.875
1530.62498	7076.775
1533.99105	7056.875
1537.35488	7047.075
1540.71647	7084.075
1544.07581	7081.275
1547.4329	7111.175
1550.78776	7135.075
1554.14038	7136.475
1557.49077	7185.375
1560.83892	7203.875
1564.18484	7266.275
1567.52853	7319.975
1570.86999	7397.375
1574.20922	7444.175
1577.54624	7498.775
1580.88103	7453.575
1584.2136	7339.875
1587.54395	7283.975
1590.87208	7319.975
1594.19801	7425.975
1597.52172	7600.075
1600.84321	7726.375
1604.16251	7653.775
1607.47959	7466.575
1610.79447	7295.875
1614.10715	7099.775
1617.41763	6933.875
1620.7259	6849.775
1624.03199	6768.275
1627.33587	6747.675
1630.63757	6781.475
1633.93707	6901.375
1637.23439	7108.275
1640.52951	7396.875
1643.82246	7801.075
1647.11321	8197.975
1650.40179	8500.275
1653.68819	8443.375
1656.97241	7988.075
1660.25446	7463.175
1663.53433	7058.175
1666.81203	6828.875
1670.08756	6662.275
1673.36092	6538.975
1676.63211	6453.275
1679.90115	6412.475
1683.16801	6315.175
1686.43272	6244.075
1689.69527	6155.975
1692.95567	6044.675
1696.2139	5934.475
1699.46999	5815.875
1702.72392	5676.575
1705.97571	5547.275
1709.22535	5420.975
1712.47284	5343.575
1715.71819	5283.275
1718.96139	5223.875
1722.20246	5173.175
1725.44139	5125.275
1728.67818	5072.275
1731.91284	5024.675
1735.14537	4978.375
1738.37576	4952.875
1741.60403	4902.475
1744.83017	4902.575
1748.05418	4891.575
1751.27607	4878.475
1754.49584	4884.475
1757.71349	4883.275
1760.92903	4845.775
1764.14244	4832.775
1767.35375	4809.275
1770.56294	4775.875
1773.77002	4726.375
1776.97499	4712.275
1780.17785	4664.975
1783.37861	4636.275
1786.57727	4619.775
1789.77382	4563.875
1792.96828	4546.875
1796.16064	4524.875
1799.3509	4511.075
1802.53907	4495.575
1805.72514	4452.275
1808.90913	4444.575
1812.09102	4425.275
1815.27083	4436.175
1818.44856	4397.675
1821.6242	4396.475
1824.79776	4383.575
1827.96924	4378.775
1831.13864	4360.275
1834.30597	4367.575
1837.47122	4354.175
1840.6344	4351.775
1843.7955	4355.675
1846.95454	4334.275
1850.11151	4327.975
1853.26642	4315.975
1856.41926	4322.975
1859.57004	4315.175
1862.71876	4297.175
1865.86542	4307.575
1869.01003	4287.675
1872.15258	4295.575
1875.29308	4293.775
1878.43152	4271.875
1881.56792	4260.975
1884.70227	4251.475
1887.83457	4251.875
1890.96482	4241.875
1894.09304	4233.275
1897.21921	4223.675
1900.34335	4203.275
1903.46544	4199.075
1906.58551	4216.175
1909.70353	4198.975
1912.81953	4189.275
1915.93349	4171.875
1919.04543	4172.375
1922.15534	4167.075
1925.26322	4144.175
1928.36908	4146.775
1931.47292	4137.775
1934.57473	4124.675
1937.67453	4103.875
1940.77232	4106.575
1943.86808	4096.575
1946.96184	4074.975
1950.05358	4057.475
1953.14331	4039.175
1956.23103	4023.175
1959.31675	4024.075
1962.40046	4003.075
1965.48217	3982.475
1968.56188	3986.375
1971.63959	3981.675
1974.7153	3949.175
1977.78901	3953.475
1980.86073	3929.575
1983.93046	3912.975
1986.99819	3904.675
1990.06394	3884.175
1993.1277	3887.475
1996.18947	3868.375
1999.24925	3868.975
2002.30706	3845.675
2005.36288	3825.575
2008.41672	3825.575
2011.46859	3802.975
2014.51848	3798.575
2017.56639	3773.375
2020.61233	3777.175
2023.6563	3767.975
2026.6983	3764.775
2029.73833	3738.975
2032.7764	3738.075
2035.8125	3736.575
2038.84664	3715.675
2041.87881	3706.575
2044.90903	3698.275
2047.93729	3697.475
2050.96359	3688.575
2053.98794	3661.675
2057.01034	3676.175
2060.03078	3669.275
2063.04927	3665.475
2066.06582	3662.075
2069.08042	3659.375
2072.09307	3653.575
2075.10378	3651.075
2078.11255	3653.775
2081.11938	3649.275
2084.12426	3654.675
2087.12722	3642.975
2090.12824	3653.675
2093.12732	3647.975
2096.12447	3642.175
2099.11969	3663.175
2102.11299	3650.775
2105.10435	3648.375
2108.09379	3617.775
2111.08131	3642.775
2114.0669	3629.375
2117.05057	3639.775
2120.03233	3643.575
2123.01216	3646.075
2125.99008	3645.275
2128.96609	3662.775
2131.94018	3646.875
2134.91236	3657.975
2137.88263	3656.975
2140.851	3656.675
2143.81746	3661.275
2146.78201	3657.075
2149.74466	3663.175
2152.7054	3669.975
2155.66425	3659.375
2158.6212	3647.675
2161.57625	3646.575
2164.52941	3640.175
2167.48067	3650.975
2170.43004	3638.575
2173.37752	3638.375
2176.32311	3638.275
2179.26681	3621.775
2182.20863	3615.475
2185.14856	3622.275
2188.08661	3638.475
2191.02278	3620.775
2193.95707	3624.975
2196.88948	3611.675
2199.82001	3611.975
2202.74867	3596.675
2205.67545	3597.775
2208.60037	3588.375
2211.52341	3575.275
2214.44458	3589.775
2217.36388	3574.375
2220.28132	3565.575
2223.1969	3549.975
2226.11061	3538.875
2229.02246	3527.975
2231.93245	3529.175
2234.84058	3507.675
2237.74686	3517.575
2240.65128	3509.575
2243.55385	3500.675
2246.45456	3500.975
2249.35343	3487.875
2252.25044	3484.375
2255.14561	3472.175
2258.03893	3478.575
2260.93041	3485.175
2263.82004	3468.175
2266.70783	3444.675
2269.59378	3440.475
2272.4779	3425.875
2275.36017	3419.375
2278.24061	3414.075
2281.11922	3420.675
2283.996	3411.475
2286.87094	3402.675
2289.74405	3386.275
2292.61534	3389.675
2295.4848	3376.775
2298.35243	3373.175
2301.21824	3369.775
2304.08223	3367.675
2306.94439	3372.675
2309.80474	3358.575
2312.66327	3348.575
2315.51999	3358.775
2318.37489	3347.975
2321.22797	3347.675
2324.07925	3337.275
2326.92871	3340.275
2329.77637	3326.075
2332.62222	3330.375
2335.46626	3311.175
2338.3085	3316.675
2341.14893	3314.975
2343.98756	3303.975
2346.8244	3298.975
2349.65943	3294.575
2352.49267	3288.275
2355.32411	3282.175
2358.15376	3290.175
2360.98161	3273.275
2363.80768	3272.475
2366.63195	3263.375
2369.45444	3272.975
2372.27514	3271.275
2375.09405	3274.075
2377.91118	3258.375
2380.72652	3243.975
2383.54009	3232.675
2386.35187	3232.075
2389.16188	3221.075
2391.97011	3221.875
2394.77657	3213.275
2397.58125	3203.975
2400.38416	3210.475
2403.18529	3196.575
2405.98466	3198.975
2408.78226	3188.575
2411.57809	3173.575
2414.37216	3167.375
2417.16446	3173.775
2419.955	3176.075
2422.74378	3157.975
2425.5308	3164.875
2428.31606	3148.575
2431.09956	3144.375
2433.88131	3142.875
2436.6613	3142.175
2439.43954	3128.675
2442.21603	3124.575
2444.99077	3124.975
2447.76377	3122.975
2450.53501	3123.275
2453.30451	3118.475
2456.07226	3112.375
2458.83827	3106.875
2461.60254	3107.875
2464.36507	3094.375
2467.12586	3084.475
2469.88492	3089.375
2472.64224	3094.475
2475.39782	3085.775
2478.15167	3082.675
2480.90379	3085.975
2483.65417	3082.175
2486.40283	3064.675
2489.14976	3075.575
2491.89497	3077.975
2494.63845	3069.275
2497.3802	3080.075
2500.12024	3067.875
2502.85855	3054.275
2505.59514	3064.175
2508.33002	3052.075
2511.06318	3056.975
2513.79462	3034.175
2516.52435	3029.775
2519.25237	3027.275
2521.97867	3026.275
2524.70327	3023.075
2527.42616	3015.475
2530.14734	3016.575
2532.86681	3002.275
2535.58458	2996.075
2538.30065	2990.475
2541.01501	2996.275
2543.72768	2980.975
2546.43864	2972.475
2549.14791	2982.675
2551.85548	2959.275
2554.56136	2965.675
2557.26554	2948.075
2559.96803	2958.675
2562.66883	2946.675
2565.36794	2939.375
2568.06536	2927.275
2570.7611	2934.275
2573.45514	2921.375
2576.14751	2923.475
2578.83819	2911.075
2581.52719	2906.475
2584.21451	2897.975
2586.90015	2907.675
2589.58411	2883.975
2592.2664	2894.075
2594.94701	2889.675
2597.62594	2875.175
2600.30321	2865.575
2602.9788	2862.175
2605.65273	2847.075
2608.32498	2848.275
2610.99557	2840.875
2613.66449	2839.475
2616.33175	2834.975
2618.99734	2835.575
2621.66128	2841.375
2624.32355	2829.975
2626.98416	2818.375
2629.64311	2828.175
2632.30041	2831.575
2634.95605	2818.675
2637.61004	2812.175
2640.26238	2800.575
2642.91306	2815.875
2645.56209	2813.175
2648.20948	2809.575
2650.85521	2800.475
2653.4993	2804.175
2656.14175	2789.475
2658.78255	2801.375
2661.42171	2810.075
2664.05923	2804.075
2666.6951	2792.775
2669.32934	2785.475
2671.96194	2788.075
2674.59291	2792.975
2677.22224	2778.875
2679.84993	2797.675
2682.476	2787.775
2685.10043	2803.775
2687.72324	2793.075
2690.34441	2783.975
2692.96396	2781.475
2695.58188	2799.275
2698.19818	2780.675
2700.81285	2793.475
2703.4259	2802.775
2706.03733	2821.775
2708.64714	2806.075
2711.25533	2799.775
2713.86191	2787.775
2716.46687	2805.575
2719.07021	2785.875
2721.67194	2800.175
2724.27206	2782.975
2726.87057	2803.675
2729.46747	2780.075
2732.06276	2790.575
2734.65644	2788.075
2737.24852	2782.275
2739.83899	2774.675
2742.42786	2775.975
2745.01513	2778.575
2747.60079	2766.975
2750.18486	2755.275
2752.76733	2759.175
2755.3482	2756.175
2757.92747	2763.475
2760.50515	2742.275
2763.08123	2738.975
2765.65573	2734.975
2768.22863	2735.975
2770.79994	2736.175
2773.36967	2735.275
2775.9378	2739.375
2778.50435	2724.575
2781.06932	2720.875
2783.6327	2717.475
2786.1945	2715.175
2788.75471	2717.575
2791.31335	2706.375
2793.87041	2696.375
2796.42589	2697.475
2798.97979	2694.175
2801.53212	2683.075
2804.08288	2678.875
2806.63206	2676.575
2809.17967	2676.375
2811.72571	2667.875
2814.27018	2659.375
2816.81308	2651.575
2819.35442	2662.275
2821.89419	2655.675
2824.43239	2657.775
2826.96904	2653.375
2829.50412	2644.975
2832.03763	2646.575
2834.56959	2654.375
2837.1	2642.875
2839.62884	2646.575
2842.15613	2642.575
2844.68186	2647.575
2847.20604	2641.175
2849.72867	2647.875
2852.24974	2639.175
2854.76927	2642.575
2857.28724	2652.775
2859.80367	2645.475
2862.31855	2629.575
2864.83189	2632.775
2867.34368	2627.375
2869.85393	2636.275
2872.36264	2628.275
2874.8698	2634.075
2877.37543	2627.775
2879.87952	2634.775
2882.38207	2633.475
2884.88308	2638.175
2887.38256	2643.375
2889.88051	2650.575
2892.37692	2636.275
2894.8718	2640.975
2897.36515	2637.975
2899.85698	2652.575
2902.34727	2665.275
2904.83604	2659.975
2907.32328	2653.175
2909.809	2664.375
2912.29319	2676.675
2914.77587	2681.075
2917.25702	2670.175
2919.73665	2658.175
2922.21476	2695.875
2924.69136	2676.375
2927.16644	2687.275
2929.64	2686.175
2932.11205	2692.875
2934.58258	2679.775
2937.05161	2687.775
2939.51912	2688.075
2941.98513	2680.475
2944.44962	2689.475
2946.91261	2675.475
2949.37409	2682.475
2951.83407	2671.875
2954.29254	2681.475
2956.74951	2664.675
2959.20498	2665.675
2961.65895	2661.275
2964.11142	2657.275
2966.56239	2649.575
2969.01186	2644.175
2971.45984	2631.975
2973.90632	2622.075
2976.35131	2602.375
2978.7948	2603.875
2981.23681	2599.875
2983.67732	2594.875
2986.11635	2590.575
2988.55388	2591.275
2990.98993	2581.675
2993.4245	2574.475
2995.85758	2576.175
2998.28917	2578.875
3000.71928	2572.775
3003.14791	2559.275
3005.57506	2573.875
3008.00073	2572.875
3010.42493	2572.475
3012.84764	2570.575
3015.26888	2568.475
3017.68865	2561.575
3020.10694	2565.375
3022.52376	2548.775
3024.9391	2563.775
3027.35298	2552.275
3029.76539	2549.675
3032.17632	2549.875
3034.5858	2541.675
3036.9938	2556.075
3039.40034	2546.775
3041.80542	2547.475
3044.20903	2543.575
3046.61118	2543.775
3049.01187	2537.275
3051.4111	2545.775
3053.80888	2543.675
3056.20519	2543.775
3058.60005	2535.375
3060.99345	2545.875
3063.3854	2532.775
3065.7759	2532.275
3068.16494	2536.475
3070.55254	2521.275
3072.93868	2528.975
3075.32338	2535.375
3077.70662	2522.975
3080.08842	2530.075
3082.46878	2529.675
3084.84769	2527.675
3087.22515	2541.275
3089.60118	2541.675
3091.97576	2548.075
3094.3489	2552.475
3096.72061	2554.175
3099.09087	2559.675
3101.4597	2550.275
3103.82709	2570.875
3106.19305	2562.875
3108.55757	2567.075
3110.92066	2561.975
3113.28232	2568.575
3115.64255	2566.175
3118.00134	2572.975
3120.35871	2564.575
3122.71466	2571.475
3125.06917	2572.375
3127.42226	2579.175
3129.77393	2586.475
3132.12417	2591.975
3134.47299	2611.075
3136.82039	2599.475
3139.16636	2597.675
3141.51092	2614.275
3143.85406	2622.075
3146.19579	2627.975
3148.53609	2631.275
3150.87499	2638.375
3153.21246	2653.275
3155.54853	2674.875
3157.88318	2677.975
3160.21642	2679.275
3162.54826	2681.675
3164.87868	2690.675
3167.2077	2695.375
3169.5353	2704.375
3171.86151	2705.775
3174.18631	2716.175
3176.5097	2700.275
3178.83169	2715.375
3181.15228	2718.675
3183.47147	2720.775
3185.78926	2733.675
3188.10565	2731.975
3190.42065	2729.775
3192.73424	2736.875
3195.04645	2740.375
3197.35725	2758.075
3199.66667	2744.775
3201.97469	2765.375
3204.28132	2791.675
3206.58656	2790.175
3208.8904	2777.775
3211.19287	2790.375
3213.49394	2794.375
3215.79363	2788.575
3218.09193	2793.575
3220.38884	2804.775
3222.68438	2808.775
3224.97853	2814.775
3227.2713	2821.575
3229.56269	2800.975
3231.8527	2809.175
3234.14133	2801.275
3236.42858	2799.975
