Data from AgNPs_FTO_APTES_UA_0.1mM_CRN_0uM_NaF_0.1M_Addition_RamanShift__10__10-14-17-459.txt Node

Date: Mon Dec 20 10:14:17 GMT 2021
User: TCL
Spectrometer: QEP01345
Trigger mode: 4
Integration Time (sec): 7.000000E0
Scans to average: 10
Electric dark correction enabled: true
Nonlinearity correction enabled: false
Boxcar width: 0
XAxis mode: Raman Shifts
Number of Pixels in Spectrum: 1044
>>>>>Begin Spectral Data<<<<<
46.04893	1.4125
50.45542	-1.0875
54.85868	-2.2875
59.25871	0.8125
63.6555	22.6125
68.04907	23.4125
72.43941	27.0125
76.82654	27.7125
81.21044	25.8125
85.59113	31.3125
89.96862	31.5125
94.34289	31.5125
98.71396	34.0125
103.08183	33.0125
107.4465	34.7125
111.80798	32.6125
116.16626	33.5125
120.52136	37.2125
124.87327	35.7125
129.222	37.4125
133.56755	36.8125
137.90993	40.7125
142.24913	38.7125
146.58517	37.8125
150.91804	48.8125
155.24774	51.3125
159.57429	55.8125
163.89768	70.5125
168.21792	88.9125
172.53501	104.2125
176.84895	141.1125
181.15975	193.1125
185.46741	260.7125
189.77193	363.1125
194.07331	482.1125
198.37157	633.3125
202.6667	791.0125
206.9587	952.3125
211.24758	1119.7125
215.53334	1295.5125
219.81599	1480.5125
224.09553	1692.4125
228.37195	1920.5125
232.64527	2180.5125
236.91549	2456.6125
241.18261	2731.0125
245.44663	2982.7125
249.70755	3190.8125
253.96539	3338.3125
258.22014	3422.9125
262.4718	3447.3125
266.72039	3408.2125
270.96589	3319.2125
275.20832	3178.3125
279.44768	3057.4125
283.68397	2895.3125
287.91719	2747.9125
292.14735	2618.2125
296.37445	2494.1125
300.59849	2407.9125
304.81948	2335.5125
309.03742	2263.1125
313.25231	2218.1125
317.46415	2169.3125
321.67296	2109.6125
325.87872	2081.5125
330.08145	2043.7125
334.28114	2028.7125
338.47781	2019.2125
342.67145	2024.0125
346.86207	2024.6125
351.04966	2014.2125
355.23424	2033.1125
359.4158	2048.0125
363.59435	2040.6125
367.76989	2042.2125
371.94243	2043.3125
376.11196	2041.4125
380.27849	2057.1125
384.44203	2047.7125
388.60257	2059.9125
392.76012	2069.5125
396.91468	2099.5125
401.06626	2126.3125
405.21485	2162.3125
409.36047	2164.2125
413.50311	2174.7125
417.64277	2183.6125
421.77947	2188.1125
425.9132	2143.8125
430.04396	2110.0125
434.17176	2127.4125
438.2966	2132.2125
442.41849	2138.7125
446.53742	2147.4125
450.6534	2173.2125
454.76644	2183.1125
458.87653	2183.6125
462.98368	2187.3125
467.08789	2187.3125
471.18916	2189.0125
475.2875	2190.4125
479.38291	2208.7125
483.4754	2219.3125
487.56496	2237.6125
491.6516	2262.7125
495.73531	2289.6125
499.81612	2296.0125
503.89401	2309.9125
507.96899	2324.9125
512.04106	2308.4125
516.11023	2289.3125
520.1765	2259.8125
524.23987	2236.8125
528.30034	2200.3125
532.35792	2189.9125
536.41261	2169.7125
540.46441	2157.5125
544.51333	2156.4125
548.55936	2152.5125
552.60252	2160.8125
556.64279	2163.7125
560.6802	2177.0125
564.71473	2168.9125
568.7464	2178.8125
572.7752	2173.0125
576.80114	2176.6125
580.82422	2162.1125
584.84444	2174.8125
588.86181	2184.8125
592.87633	2196.9125
596.888	2191.2125
600.89682	2207.1125
604.9028	2276.1125
608.90594	2374.4125
612.90624	2521.4125
616.90371	2549.8125
620.89834	2418.3125
624.89015	2340.1125
628.87913	2340.5125
632.86528	2384.5125
636.84862	2399.4125
640.82913	2413.1125
644.80683	2395.9125
648.78172	2376.1125
652.75379	2366.9125
656.72306	2356.6125
660.68952	2388.7125
664.65319	2424.5125
668.61405	2468.6125
672.57211	2532.2125
676.52738	2578.5125
680.47986	2599.7125
684.42955	2621.0125
688.37646	2645.2125
692.32058	2635.2125
696.26192	2597.9125
700.20048	2554.5125
704.13626	2509.8125
708.06928	2463.7125
711.99952	2418.0125
715.927	2366.9125
719.85171	2322.9125
723.77365	2286.2125
727.69284	2255.5125
731.60928	2249.1125
735.52295	2227.0125
739.43388	2234.0125
743.34206	2235.8125
747.24749	2246.0125
751.15017	2272.4125
755.05012	2284.2125
758.94733	2298.0125
762.8418	2328.1125
766.73354	2382.3125
770.62254	2430.0125
774.50882	2465.4125
778.39237	2442.5125
782.27321	2387.4125
786.15132	2310.5125
790.02671	2288.0125
793.89938	2266.0125
797.76935	2280.2125
801.6366	2322.2125
805.50115	2333.5125
809.36299	2369.8125
813.22213	2384.2125
817.07857	2355.0125
820.93231	2310.3125
824.78336	2258.0125
828.63172	2215.0125
832.47738	2195.0125
836.32036	2175.7125
840.16066	2168.0125
843.99827	2160.0125
847.8332	2152.3125
851.66546	2150.7125
855.49504	2130.4125
859.32195	2140.6125
863.1462	2130.6125
866.96777	2130.9125
870.78668	2127.6125
874.60293	2129.2125
878.41652	2143.6125
882.22745	2154.6125
886.03573	2171.6125
889.84136	2210.9125
893.64433	2227.7125
897.44466	2253.4125
901.24235	2280.9125
905.0374	2281.1125
908.8298	2296.5125
912.61957	2322.4125
916.40671	2365.0125
920.19121	2419.9125
923.97308	2475.2125
927.75233	2511.9125
931.52895	2505.5125
935.30295	2496.0125
939.07433	2442.5125
942.84309	2411.8125
946.60924	2378.7125
950.37278	2363.8125
954.13371	2361.2125
957.89203	2321.8125
961.64774	2285.6125
965.40086	2271.6125
969.15137	2238.9125
972.89929	2224.4125
976.64461	2224.3125
980.38733	2204.1125
984.12747	2195.2125
987.86502	2194.2125
991.59999	2188.5125
995.33237	2177.0125
999.06217	2200.8125
1002.78939	2205.0125
1006.51404	2217.6125
1010.23611	2225.8125
1013.95561	2244.2125
1017.67255	2263.4125
1021.38692	2279.5125
1025.09872	2297.9125
1028.80796	2281.6125
1032.51465	2274.9125
1036.21877	2277.5125
1039.92035	2264.4125
1043.61937	2262.4125
1047.31584	2251.2125
1051.00976	2248.1125
1054.70114	2246.6125
1058.38998	2228.0125
1062.07627	2206.5125
1065.76003	2194.8125
1069.44126	2164.7125
1073.11995	2141.0125
1076.79611	2138.0125
1080.46974	2120.9125
1084.14085	2109.4125
1087.80943	2099.5125
1091.47549	2092.1125
1095.13903	2090.4125
1098.80005	2062.2125
1102.45857	2062.1125
1106.11456	2058.7125
1109.76805	2067.7125
1113.41903	2081.3125
1117.06751	2127.0125
1120.71348	2161.1125
1124.35696	2221.4125
1127.99793	2281.5125
1131.63641	2346.4125
1135.2724	2362.4125
1138.90589	2354.4125
1142.5369	2334.9125
1146.16542	2303.1125
1149.79145	2250.5125
1153.415	2199.4125
1157.03607	2159.8125
1160.65467	2141.2125
1164.27079	2118.1125
1167.88443	2108.2125
1171.49561	2118.4125
1175.10432	2154.0125
1178.71056	2189.0125
1182.31434	2235.8125
1185.91565	2248.6125
1189.51451	2243.0125
1193.11091	2225.2125
1196.70485	2205.5125
1200.29634	2213.9125
1203.88538	2201.8125
1207.47197	2206.3125
1211.05612	2201.3125
1214.63782	2209.6125
1218.21708	2241.9125
1221.79391	2235.1125
1225.36829	2228.5125
1228.94024	2238.1125
1232.50976	2237.8125
1236.07685	2223.7125
1239.6415	2215.3125
1243.20374	2228.6125
1246.76355	2232.7125
1250.32093	2248.5125
1253.8759	2258.2125
1257.42845	2277.6125
1260.97859	2286.6125
1264.52631	2304.2125
1268.07163	2320.0125
1271.61453	2317.7125
1275.15503	2324.9125
1278.69312	2334.3125
1282.22882	2335.6125
1285.76211	2348.0125
1289.29301	2365.1125
1292.82151	2403.7125
1296.34761	2435.8125
1299.87133	2479.6125
1303.39266	2545.2125
1306.9116	2620.4125
1310.42815	2707.5125
1313.94233	2734.7125
1317.45412	2728.9125
1320.96354	2729.0125
1324.47058	2684.4125
1327.97525	2676.7125
1331.47754	2672.5125
1334.97747	2684.6125
1338.47502	2709.3125
1341.97022	2755.4125
1345.46305	2822.9125
1348.95352	2926.9125
1352.44163	3032.1125
1355.92738	3139.2125
1359.41078	3313.9125
1362.89183	3465.6125
1366.37053	3484.0125
1369.84688	3380.2125
1373.32088	3228.0125
1376.79254	3118.3125
1380.26186	3053.8125
1383.72883	3010.6125
1387.19347	2978.1125
1390.65578	2956.4125
1394.11575	2923.8125
1397.57339	2907.1125
1401.0287	2865.5125
1404.48168	2841.6125
1407.93234	2807.9125
1411.38068	2764.1125
1414.82669	2741.5125
1418.27039	2714.2125
1421.71177	2672.7125
1425.15083	2632.0125
1428.58758	2582.4125
1432.02203	2516.1125
1435.45416	2488.7125
1438.88399	2458.8125
1442.31151	2411.9125
1445.73673	2392.3125
1449.15965	2362.3125
1452.58027	2334.6125
1455.9986	2329.2125
1459.41463	2327.2125
1462.82837	2326.9125
1466.23982	2329.6125
1469.64898	2355.1125
1473.05586	2364.3125
1476.46045	2376.4125
1479.86276	2396.4125
1483.26279	2391.5125
1486.66054	2416.7125
1490.05602	2421.9125
1493.44922	2448.4125
1496.84016	2468.3125
1500.22882	2513.2125
1503.61521	2594.8125
1506.99934	2668.0125
1510.38121	2746.4125
1513.76081	2744.9125
1517.13816	2695.1125
1520.51324	2603.4125
1523.88607	2518.3125
1527.25665	2469.8125
1530.62498	2454.6125
1533.99105	2454.4125
1537.35488	2460.7125
1540.71647	2469.0125
1544.07581	2491.0125
1547.4329	2523.1125
1550.78776	2548.7125
1554.14038	2561.0125
1557.49077	2590.2125
1560.83892	2603.9125
1564.18484	2603.2125
1567.52853	2603.9125
1570.86999	2603.6125
1574.20922	2607.2125
1577.54624	2581.9125
1580.88103	2558.3125
1584.2136	2502.5125
1587.54395	2469.4125
1590.87208	2461.2125
1594.19801	2423.1125
1597.52172	2425.5125
1600.84321	2434.8125
1604.16251	2424.6125
1607.47959	2402.2125
1610.79447	2379.7125
1614.10715	2364.9125
1617.41763	2354.7125
1620.7259	2339.7125
1624.03199	2335.8125
1627.33587	2326.1125
1630.63757	2314.2125
1633.93707	2324.4125
1637.23439	2337.4125
1640.52951	2325.8125
1643.82246	2353.8125
1647.11321	2376.6125
1650.40179	2414.6125
1653.68819	2406.0125
1656.97241	2372.9125
1660.25446	2287.9125
1663.53433	2237.5125
1666.81203	2206.2125
1670.08756	2182.3125
1673.36092	2148.4125
1676.63211	2117.1125
1679.90115	2099.2125
1683.16801	2058.9125
1686.43272	2023.8125
1689.69527	1985.7125
1692.95567	1952.7125
1696.2139	1917.0125
1699.46999	1868.5125
1702.72392	1845.5125
1705.97571	1806.6125
1709.22535	1787.7125
1712.47284	1770.2125
1715.71819	1752.7125
1718.96139	1727.3125
1722.20246	1707.7125
1725.44139	1677.9125
1728.67818	1648.8125
1731.91284	1617.4125
1735.14537	1587.6125
1738.37576	1558.8125
1741.60403	1536.6125
1744.83017	1513.3125
1748.05418	1491.4125
1751.27607	1483.6125
1754.49584	1474.8125
1757.71349	1456.2125
1760.92903	1448.3125
1764.14244	1439.0125
1767.35375	1433.6125
1770.56294	1426.5125
1773.77002	1426.1125
1776.97499	1411.8125
1780.17785	1416.4125
1783.37861	1413.4125
1786.57727	1405.5125
1789.77382	1391.9125
1792.96828	1384.7125
1796.16064	1371.9125
1799.3509	1368.0125
1802.53907	1358.3125
1805.72514	1360.5125
1808.90913	1366.7125
1812.09102	1350.4125
1815.27083	1345.1125
1818.44856	1340.2125
1821.6242	1336.7125
1824.79776	1329.0125
1827.96924	1326.9125
1831.13864	1327.1125
1834.30597	1316.6125
1837.47122	1320.0125
1840.6344	1305.0125
1843.7955	1313.0125
1846.95454	1316.9125
1850.11151	1309.1125
1853.26642	1301.3125
1856.41926	1297.7125
1859.57004	1301.3125
1862.71876	1299.1125
1865.86542	1299.3125
1869.01003	1289.2125
1872.15258	1287.6125
1875.29308	1287.0125
1878.43152	1278.9125
1881.56792	1272.5125
1884.70227	1276.8125
1887.83457	1281.7125
1890.96482	1269.7125
1894.09304	1275.7125
1897.21921	1262.0125
1900.34335	1268.3125
1903.46544	1262.8125
1906.58551	1258.9125
1909.70353	1256.5125
1912.81953	1251.0125
1915.93349	1251.1125
1919.04543	1249.7125
1922.15534	1240.9125
1925.26322	1249.0125
1928.36908	1244.3125
1931.47292	1232.6125
1934.57473	1235.1125
1937.67453	1223.7125
1940.77232	1230.9125
1943.86808	1218.3125
1946.96184	1215.3125
1950.05358	1206.9125
1953.14331	1218.8125
1956.23103	1206.9125
1959.31675	1207.3125
1962.40046	1195.3125
1965.48217	1192.1125
1968.56188	1200.6125
1971.63959	1179.6125
1974.7153	1185.9125
1977.78901	1186.5125
1980.86073	1178.2125
1983.93046	1174.1125
1986.99819	1166.7125
1990.06394	1152.2125
1993.1277	1161.6125
1996.18947	1153.5125
1999.24925	1158.5125
2002.30706	1152.9125
2005.36288	1146.6125
2008.41672	1139.6125
2011.46859	1140.7125
2014.51848	1130.3125
2017.56639	1124.6125
2020.61233	1132.1125
2023.6563	1128.1125
2026.6983	1114.9125
2029.73833	1112.4125
2032.7764	1122.5125
2035.8125	1118.5125
2038.84664	1103.2125
2041.87881	1108.3125
2044.90903	1102.8125
2047.93729	1106.8125
2050.96359	1097.8125
2053.98794	1105.6125
2057.01034	1102.5125
2060.03078	1108.8125
2063.04927	1108.3125
2066.06582	1110.1125
2069.08042	1111.1125
2072.09307	1114.2125
2075.10378	1118.0125
2078.11255	1116.6125
2081.11938	1121.4125
2084.12426	1129.0125
2087.12722	1129.1125
2090.12824	1127.0125
2093.12732	1125.0125
2096.12447	1135.9125
2099.11969	1132.6125
2102.11299	1133.4125
2105.10435	1135.7125
2108.09379	1135.6125
2111.08131	1123.4125
2114.0669	1134.9125
2117.05057	1128.0125
2120.03233	1137.0125
2123.01216	1129.7125
2125.99008	1136.9125
2128.96609	1124.8125
2131.94018	1127.8125
2134.91236	1133.0125
2137.88263	1109.7125
2140.851	1117.0125
2143.81746	1118.1125
2146.78201	1107.7125
2149.74466	1102.4125
2152.7054	1104.5125
2155.66425	1103.8125
2158.6212	1108.3125
2161.57625	1094.9125
2164.52941	1097.2125
2167.48067	1088.3125
2170.43004	1081.2125
2173.37752	1072.2125
2176.32311	1080.0125
2179.26681	1079.0125
2182.20863	1068.4125
2185.14856	1073.7125
2188.08661	1079.1125
2191.02278	1063.4125
2193.95707	1068.5125
2196.88948	1062.7125
2199.82001	1059.7125
2202.74867	1058.6125
2205.67545	1064.0125
2208.60037	1058.6125
2211.52341	1053.7125
2214.44458	1050.3125
2217.36388	1052.8125
2220.28132	1052.2125
2223.1969	1040.8125
2226.11061	1039.7125
2229.02246	1033.7125
2231.93245	1034.8125
2234.84058	1039.3125
2237.74686	1026.1125
2240.65128	1029.3125
2243.55385	1022.4125
2246.45456	1019.2125
2249.35343	1024.8125
2252.25044	1011.1125
2255.14561	1008.9125
2258.03893	1014.7125
2260.93041	1018.3125
2263.82004	1005.9125
2266.70783	1005.4125
2269.59378	1006.0125
2272.4779	1004.3125
2275.36017	994.8125
2278.24061	996.4125
2281.11922	992.6125
2283.996	990.4125
2286.87094	985.1125
2289.74405	989.6125
2292.61534	984.7125
2295.4848	975.8125
2298.35243	989.7125
2301.21824	982.0125
2304.08223	980.0125
2306.94439	965.1125
2309.80474	972.5125
2312.66327	976.0125
2315.51999	973.5125
2318.37489	966.6125
2321.22797	967.7125
2324.07925	969.7125
2326.92871	969.7125
2329.77637	967.6125
2332.62222	961.8125
2335.46626	955.0125
2338.3085	954.8125
2341.14893	954.1125
2343.98756	946.8125
2346.8244	940.2125
2349.65943	940.3125
2352.49267	943.9125
2355.32411	938.7125
2358.15376	941.5125
2360.98161	947.9125
2363.80768	946.2125
2366.63195	938.0125
2369.45444	936.6125
2372.27514	938.1125
2375.09405	937.4125
2377.91118	935.8125
2380.72652	939.6125
2383.54009	937.8125
2386.35187	935.0125
2389.16188	919.7125
2391.97011	923.8125
2394.77657	929.7125
2397.58125	913.8125
2400.38416	916.2125
2403.18529	908.0125
2405.98466	917.9125
2408.78226	914.7125
2411.57809	904.1125
2414.37216	903.5125
2417.16446	908.9125
2419.955	905.3125
2422.74378	900.7125
2425.5308	899.9125
2428.31606	900.5125
2431.09956	894.4125
2433.88131	892.7125
2436.6613	899.5125
2439.43954	892.9125
2442.21603	899.1125
2444.99077	890.6125
2447.76377	892.4125
2450.53501	887.8125
2453.30451	895.4125
2456.07226	892.4125
2458.83827	892.7125
2461.60254	891.0125
2464.36507	881.5125
2467.12586	879.7125
2469.88492	889.3125
2472.64224	882.7125
2475.39782	884.8125
2478.15167	883.1125
2480.90379	876.0125
2483.65417	872.9125
2486.40283	865.2125
2489.14976	867.4125
2491.89497	874.4125
2494.63845	868.0125
2497.3802	870.0125
2500.12024	868.7125
2502.85855	872.6125
2505.59514	867.3125
2508.33002	864.1125
2511.06318	863.6125
2513.79462	860.4125
2516.52435	863.4125
2519.25237	862.8125
2521.97867	855.1125
2524.70327	850.9125
2527.42616	850.4125
2530.14734	853.1125
2532.86681	848.1125
2535.58458	847.8125
2538.30065	849.8125
2541.01501	845.4125
2543.72768	847.6125
2546.43864	840.4125
2549.14791	845.1125
2551.85548	835.3125
2554.56136	828.3125
2557.26554	829.8125
2559.96803	820.0125
2562.66883	832.9125
2565.36794	826.4125
2568.06536	831.5125
2570.7611	828.2125
2573.45514	828.7125
2576.14751	834.7125
2578.83819	820.8125
2581.52719	820.5125
2584.21451	818.8125
2586.90015	823.0125
2589.58411	812.8125
2592.2664	815.9125
2594.94701	815.2125
2597.62594	804.1125
2600.30321	804.8125
2602.9788	803.1125
2605.65273	809.5125
2608.32498	800.9125
2610.99557	803.9125
2613.66449	799.4125
2616.33175	801.1125
2618.99734	803.9125
2621.66128	800.8125
2624.32355	796.4125
2626.98416	797.3125
2629.64311	798.9125
2632.30041	800.3125
2634.95605	790.4125
2637.61004	789.4125
2640.26238	792.4125
2642.91306	788.3125
2645.56209	798.2125
2648.20948	790.6125
2650.85521	787.0125
2653.4993	791.5125
2656.14175	787.5125
2658.78255	788.8125
2661.42171	789.0125
2664.05923	780.2125
2666.6951	789.7125
2669.32934	792.8125
2671.96194	784.6125
2674.59291	785.5125
2677.22224	794.8125
2679.84993	791.9125
2682.476	794.4125
2685.10043	803.0125
2687.72324	788.8125
2690.34441	790.1125
2692.96396	796.9125
2695.58188	790.6125
2698.19818	788.3125
2700.81285	795.5125
2703.4259	789.8125
2706.03733	787.8125
2708.64714	790.2125
2711.25533	791.9125
2713.86191	790.4125
2716.46687	789.7125
2719.07021	788.2125
2721.67194	795.4125
2724.27206	788.7125
2726.87057	792.0125
2729.46747	792.3125
2732.06276	791.2125
2734.65644	793.1125
2737.24852	788.6125
2739.83899	784.5125
2742.42786	782.1125
2745.01513	779.7125
2747.60079	786.3125
2750.18486	782.4125
2752.76733	777.3125
2755.3482	786.6125
2757.92747	773.2125
2760.50515	775.9125
2763.08123	772.5125
2765.65573	770.5125
2768.22863	775.7125
2770.79994	764.9125
2773.36967	776.3125
2775.9378	769.1125
2778.50435	766.8125
2781.06932	760.1125
2783.6327	766.3125
2786.1945	761.9125
2788.75471	758.0125
2791.31335	760.2125
2793.87041	761.1125
2796.42589	749.7125
2798.97979	751.9125
2801.53212	753.9125
2804.08288	744.3125
2806.63206	750.4125
2809.17967	750.8125
2811.72571	747.1125
2814.27018	748.0125
2816.81308	739.2125
2819.35442	736.7125
2821.89419	745.1125
2824.43239	745.0125
2826.96904	737.9125
2829.50412	738.2125
2832.03763	732.3125
2834.56959	737.2125
2837.1	734.4125
2839.62884	736.8125
2842.15613	731.2125
2844.68186	731.1125
2847.20604	734.0125
2849.72867	738.3125
2852.24974	736.0125
2854.76927	734.2125
2857.28724	733.4125
2859.80367	735.7125
2862.31855	735.9125
2864.83189	726.1125
2867.34368	739.0125
2869.85393	733.2125
2872.36264	739.2125
2874.8698	738.5125
2877.37543	737.9125
2879.87952	747.4125
2882.38207	751.8125
2884.88308	742.7125
2887.38256	747.3125
2889.88051	749.5125
2892.37692	754.3125
2894.8718	755.1125
2897.36515	761.3125
2899.85698	759.1125
2902.34727	774.2125
2904.83604	777.0125
2907.32328	791.3125
2909.809	791.1125
2912.29319	784.8125
2914.77587	790.9125
2917.25702	803.1125
2919.73665	803.2125
2922.21476	808.5125
2924.69136	810.9125
2927.16644	819.9125
2929.64	819.2125
2932.11205	819.8125
2934.58258	817.1125
2937.05161	817.5125
2939.51912	807.2125
2941.98513	816.1125
2944.44962	806.8125
2946.91261	808.8125
2949.37409	797.7125
2951.83407	791.4125
2954.29254	792.5125
2956.74951	778.6125
2959.20498	776.9125
2961.65895	768.6125
2964.11142	768.8125
2966.56239	759.9125
2969.01186	757.4125
2971.45984	756.2125
2973.90632	745.1125
2976.35131	751.0125
2978.7948	753.5125
2981.23681	745.5125
2983.67732	748.0125
2986.11635	750.5125
2988.55388	740.4125
2990.98993	741.5125
2993.4245	734.8125
2995.85758	739.4125
2998.28917	739.4125
3000.71928	735.2125
3003.14791	734.2125
3005.57506	743.3125
3008.00073	730.3125
3010.42493	734.9125
3012.84764	739.0125
3015.26888	739.1125
3017.68865	732.8125
3020.10694	734.6125
3022.52376	737.3125
3024.9391	737.9125
3027.35298	732.4125
3029.76539	738.6125
3032.17632	739.3125
3034.5858	740.4125
3036.9938	737.9125
3039.40034	745.2125
3041.80542	742.9125
3044.20903	752.6125
3046.61118	746.9125
3049.01187	745.6125
3051.4111	745.6125
3053.80888	745.1125
3056.20519	750.9125
3058.60005	747.8125
3060.99345	748.7125
3063.3854	749.0125
3065.7759	752.5125
3068.16494	753.5125
3070.55254	751.8125
3072.93868	756.4125
3075.32338	762.2125
3077.70662	758.2125
3080.08842	764.4125
3082.46878	769.9125
3084.84769	766.6125
3087.22515	774.0125
3089.60118	765.7125
3091.97576	779.8125
3094.3489	784.2125
3096.72061	784.5125
3099.09087	789.4125
3101.4597	790.7125
3103.82709	795.8125
3106.19305	792.4125
3108.55757	806.6125
3110.92066	807.1125
3113.28232	807.1125
3115.64255	811.5125
3118.00134	810.7125
3120.35871	817.8125
3122.71466	818.9125
3125.06917	824.5125
3127.42226	815.5125
3129.77393	827.5125
3132.12417	833.8125
3134.47299	836.8125
3136.82039	854.4125
3139.16636	848.8125
3141.51092	851.5125
3143.85406	865.6125
3146.19579	867.9125
3148.53609	878.2125
3150.87499	874.9125
3153.21246	881.9125
3155.54853	891.8125
3157.88318	896.3125
3160.21642	894.7125
3162.54826	909.2125
3164.87868	908.6125
