Data from AgNPs_FTO_APTES_UA_0.1mM_CRN_0uM_NaF_0.1M_Addition_RamanShift__3__10-06-07-450.txt Node

Date: Mon Dec 20 10:06:07 GMT 2021
User: TCL
Spectrometer: QEP01345
Trigger mode: 4
Integration Time (sec): 7.000000E0
Scans to average: 10
Electric dark correction enabled: true
Nonlinearity correction enabled: false
Boxcar width: 0
XAxis mode: Raman Shifts
Number of Pixels in Spectrum: 1044
>>>>>Begin Spectral Data<<<<<
46.04893	2
50.45542	-0.1
54.85868	-1
59.25871	1.1
63.6555	20.6
68.04907	22.3
72.43941	25.9
76.82654	25.3
81.21044	25.5
85.59113	30.9
89.96862	28.8
94.34289	31.9
98.71396	32.7
103.08183	29.5
107.4465	33.2
111.80798	34.3
116.16626	33.5
120.52136	34
124.87327	33.5
129.222	32.3
133.56755	36.4
137.90993	37
142.24913	38
146.58517	35.2
150.91804	41.5
155.24774	46.6
159.57429	49.5
163.89768	63.6
168.21792	74.7
172.53501	92.2
176.84895	120.6
181.15975	160.4
185.46741	210.1
189.77193	292.9
194.07331	387.8
198.37157	503.1
202.6667	626.5
206.9587	748.7
211.24758	872.1
215.53334	1003.4
219.81599	1134.1
224.09553	1279.1
228.37195	1435.1
232.64527	1606.5
236.91549	1779
241.18261	1937.2
245.44663	2076.6
249.70755	2205.8
253.96539	2309.7
258.22014	2379.5
262.4718	2422.4
266.72039	2450.2
270.96589	2424.9
275.20832	2407.6
279.44768	2348.8
283.68397	2276.4
287.91719	2225.4
292.14735	2160.2
296.37445	2102.9
300.59849	2064.6
304.81948	2033.6
309.03742	1997.9
313.25231	1957
317.46415	1915.2
321.67296	1879.2
325.87872	1849.9
330.08145	1824.3
334.28114	1829.6
338.47781	1822.4
342.67145	1828.9
346.86207	1827.2
351.04966	1835.7
355.23424	1855.8
359.4158	1867.1
363.59435	1862.3
367.76989	1871.7
371.94243	1874.7
376.11196	1872.8
380.27849	1875.5
384.44203	1876.4
388.60257	1885.7
392.76012	1898.7
396.91468	1905.7
401.06626	1904.5
405.21485	1913.8
409.36047	1904.6
413.50311	1891
417.64277	1881.2
421.77947	1877.4
425.9132	1874.1
430.04396	1880.7
434.17176	1897.7
438.2966	1903.8
442.41849	1915.3
446.53742	1930.1
450.6534	1946.8
454.76644	1952.9
458.87653	1960.4
462.98368	1974.4
467.08789	1973.7
471.18916	1974.2
475.2875	1970.7
479.38291	1980.6
483.4754	1997.2
487.56496	2023.7
491.6516	2044.3
495.73531	2074.5
499.81612	2069.7
503.89401	2059
507.96899	2053.6
512.04106	2050.4
516.11023	2024.2
520.1765	2029.5
524.23987	2036.6
528.30034	2024
532.35792	2013.2
536.41261	1995.7
540.46441	1985.8
544.51333	1965.3
548.55936	1956.7
552.60252	1940.2
556.64279	1949
560.6802	1961.5
564.71473	1954.7
568.7464	1959.3
572.7752	1973.1
576.80114	1959.5
580.82422	1952.2
584.84444	1978.4
588.86181	2001
592.87633	2021.2
596.888	2007.7
600.89682	2010.2
604.9028	2050.3
608.90594	2148.7
612.90624	2315.9
616.90371	2359.1
620.89834	2235.9
624.89015	2204.5
628.87913	2308.1
632.86528	2414.6
636.84862	2520.9
640.82913	2527.6
644.80683	2441.2
648.78172	2327.9
652.75379	2248
656.72306	2179.2
660.68952	2152.8
664.65319	2140.2
668.61405	2110
672.57211	2114.1
676.52738	2144.2
680.47986	2180.4
684.42955	2236.3
688.37646	2262.2
692.32058	2255.6
696.26192	2191.9
700.20048	2164
704.13626	2148.7
708.06928	2140.7
711.99952	2146.5
715.927	2131.3
719.85171	2124.9
723.77365	2139
727.69284	2137.5
731.60928	2146.3
735.52295	2123.2
739.43388	2095.2
743.34206	2084.3
747.24749	2068.1
751.15017	2059.2
755.05012	2066.1
758.94733	2073.6
762.8418	2103.1
766.73354	2175.7
770.62254	2236.2
774.50882	2284.5
778.39237	2276.2
782.27321	2210.6
786.15132	2160.5
790.02671	2131.2
793.89938	2151.4
797.76935	2186.1
801.6366	2248
805.50115	2298.8
809.36299	2348.6
813.22213	2355.3
817.07857	2312.6
820.93231	2243.7
824.78336	2173.6
828.63172	2115.1
832.47738	2074.8
836.32036	2066.9
840.16066	2055.1
843.99827	2059.5
847.8332	2049.8
851.66546	2023.2
855.49504	1993.6
859.32195	1984.2
863.1462	1978.5
866.96777	1986.4
870.78668	1999.6
874.60293	2029.3
878.41652	2065.1
882.22745	2110.8
886.03573	2153.9
889.84136	2222.3
893.64433	2223.3
897.44466	2223.1
901.24235	2193.3
905.0374	2170.9
908.8298	2159.6
912.61957	2196.1
916.40671	2254.4
920.19121	2346.8
923.97308	2428.2
927.75233	2475.2
931.52895	2478.5
935.30295	2462
939.07433	2409.4
942.84309	2354.9
946.60924	2314.8
950.37278	2309.6
954.13371	2282.4
957.89203	2234.2
961.64774	2188.7
965.40086	2140.8
969.15137	2104.3
972.89929	2072.4
976.64461	2032.9
980.38733	2037.9
984.12747	2006.8
987.86502	1998.3
991.59999	1994.5
995.33237	2021.4
999.06217	2046.1
1002.78939	2077.3
1006.51404	2125.5
1010.23611	2177.1
1013.95561	2246.7
1017.67255	2281.8
1021.38692	2296.6
1025.09872	2305.7
1028.80796	2288.1
1032.51465	2249.3
1036.21877	2200.4
1039.92035	2147.2
1043.61937	2104.3
1047.31584	2049
1051.00976	2023.4
1054.70114	2013.6
1058.38998	2004.4
1062.07627	2002.4
1065.76003	2006.7
1069.44126	1997.2
1073.11995	2014.5
1076.79611	2012.2
1080.46974	2015
1084.14085	2002.8
1087.80943	1982.6
1091.47549	1961.9
1095.13903	1940
1098.80005	1923.2
1102.45857	1921.7
1106.11456	1914.6
1109.76805	1916
1113.41903	1953.6
1117.06751	2028.5
1120.71348	2127
1124.35696	2242.2
1127.99793	2391.1
1131.63641	2501.8
1135.2724	2560.8
1138.90589	2521.2
1142.5369	2447.5
1146.16542	2325.1
1149.79145	2201.9
1153.415	2105.5
1157.03607	2025.2
1160.65467	1975.4
1164.27079	1948.9
1167.88443	1942.3
1171.49561	1968.5
1175.10432	2015.4
1178.71056	2069.8
1182.31434	2136.1
1185.91565	2165.2
1189.51451	2180.1
1193.11091	2180.5
1196.70485	2183.5
1200.29634	2192.9
1203.88538	2198.6
1207.47197	2169.1
1211.05612	2131.6
1214.63782	2090.7
1218.21708	2056.5
1221.79391	2020.6
1225.36829	2015.9
1228.94024	1999.1
1232.50976	2002.9
1236.07685	2007.3
1239.6415	2016.7
1243.20374	2028.6
1246.76355	2045.5
1250.32093	2083.9
1253.8759	2099.9
1257.42845	2126.9
1260.97859	2155.9
1264.52631	2188.3
1268.07163	2216.3
1271.61453	2241.9
1275.15503	2267.2
1278.69312	2278.7
1282.22882	2308.9
1285.76211	2336.1
1289.29301	2379.5
1292.82151	2433.3
1296.34761	2505.5
1299.87133	2569.6
1303.39266	2631
1306.9116	2690.9
1310.42815	2776.8
1313.94233	2792.5
1317.45412	2767.2
1320.96354	2719.4
1324.47058	2649.9
1327.97525	2607
1331.47754	2593.6
1334.97747	2611.9
1338.47502	2649.8
1341.97022	2717.9
1345.46305	2826.6
1348.95352	2951.7
1352.44163	3090.2
1355.92738	3258.1
1359.41078	3455.4
1362.89183	3633.9
1366.37053	3706.2
1369.84688	3588.2
1373.32088	3410.5
1376.79254	3297.6
1380.26186	3230.6
1383.72883	3197
1387.19347	3177.3
1390.65578	3155.9
1394.11575	3141.6
1397.57339	3111.4
1401.0287	3088.5
1404.48168	3042.6
1407.93234	3001.1
1411.38068	2956.7
1414.82669	2923.9
1418.27039	2886.5
1421.71177	2840.9
1425.15083	2756.7
1428.58758	2692.2
1432.02203	2613.5
1435.45416	2558
1438.88399	2507.3
1442.31151	2460
1445.73673	2421.2
1449.15965	2407.1
1452.58027	2382.1
1455.9986	2370.3
1459.41463	2366.3
1462.82837	2371.5
1466.23982	2359
1469.64898	2376.5
1473.05586	2407.7
1476.46045	2418.6
1479.86276	2437.6
1483.26279	2454.7
1486.66054	2478.3
1490.05602	2489.5
1493.44922	2486.8
1496.84016	2528.4
1500.22882	2570.2
1503.61521	2643.7
1506.99934	2739.4
1510.38121	2818.1
1513.76081	2829
1517.13816	2760.7
1520.51324	2646.2
1523.88607	2518.7
1527.25665	2445.8
1530.62498	2398.1
1533.99105	2376.4
1537.35488	2368.6
1540.71647	2359.1
1544.07581	2360.4
1547.4329	2379
1550.78776	2380.3
1554.14038	2375.6
1557.49077	2393.1
1560.83892	2383.9
1564.18484	2376.5
1567.52853	2369.7
1570.86999	2362.3
1574.20922	2336
1577.54624	2310.6
1580.88103	2246.4
1584.2136	2195
1587.54395	2139.7
1590.87208	2109.6
1594.19801	2083.6
1597.52172	2092.1
1600.84321	2085.3
1604.16251	2073.9
1607.47959	2049
1610.79447	2049.6
1614.10715	2033.1
1617.41763	2020
1620.7259	2014
1624.03199	2017.9
1627.33587	1997
1630.63757	2001.4
1633.93707	1997.6
1637.23439	2009.1
1640.52951	2008.4
1643.82246	2037.6
1647.11321	2092.2
1650.40179	2146.8
1653.68819	2142.5
1656.97241	2085.6
1660.25446	1995.4
1663.53433	1936.7
1666.81203	1890.4
1670.08756	1870.7
1673.36092	1860.2
1676.63211	1850.6
1679.90115	1861.4
1683.16801	1849.4
1686.43272	1824.9
1689.69527	1809.7
1692.95567	1797.7
1696.2139	1772.7
1699.46999	1743.4
1702.72392	1706.1
1705.97571	1654
1709.22535	1615.5
1712.47284	1557.5
1715.71819	1504.2
1718.96139	1454.6
1722.20246	1416.1
1725.44139	1391.2
1728.67818	1360.7
1731.91284	1334.1
1735.14537	1313.6
1738.37576	1293.4
1741.60403	1279.7
1744.83017	1263.7
1748.05418	1257.2
1751.27607	1242.3
1754.49584	1240
1757.71349	1225.7
1760.92903	1219.8
1764.14244	1215
1767.35375	1201.7
1770.56294	1200.9
1773.77002	1194.3
1776.97499	1198.6
1780.17785	1193.3
1783.37861	1184.6
1786.57727	1187.5
1789.77382	1175.8
1792.96828	1170.7
1796.16064	1170.5
1799.3509	1161.3
1802.53907	1161
1805.72514	1161.9
1808.90913	1146.5
1812.09102	1139.8
1815.27083	1143.8
1818.44856	1148.4
1821.6242	1131.6
1824.79776	1132.5
1827.96924	1139.3
1831.13864	1127.4
1834.30597	1126.3
1837.47122	1117
1840.6344	1120.5
1843.7955	1118.6
1846.95454	1106.9
1850.11151	1108.5
1853.26642	1110.4
1856.41926	1105.2
1859.57004	1112.4
1862.71876	1111.2
1865.86542	1103.8
1869.01003	1100.5
1872.15258	1093.6
1875.29308	1091.7
1878.43152	1097.5
1881.56792	1090
1884.70227	1089.6
1887.83457	1087.7
1890.96482	1086.4
1894.09304	1091.3
1897.21921	1075.5
1900.34335	1085.8
1903.46544	1077
1906.58551	1085.7
1909.70353	1076
1912.81953	1069
1915.93349	1073.8
1919.04543	1064.1
1922.15534	1061
1925.26322	1070.1
1928.36908	1055.5
1931.47292	1063.5
1934.57473	1054.3
1937.67453	1047.4
1940.77232	1045.8
1943.86808	1053.4
1946.96184	1041.4
1950.05358	1040.9
1953.14331	1036.6
1956.23103	1027.7
1959.31675	1028.7
1962.40046	1022.5
1965.48217	1023.3
1968.56188	1019.5
1971.63959	1020.7
1974.7153	1010.8
1977.78901	1006.9
1980.86073	1013.9
1983.93046	1000.7
1986.99819	1001.6
1990.06394	992.6
1993.1277	992.7
1996.18947	983
1999.24925	993.3
2002.30706	981.5
2005.36288	982.3
2008.41672	977.5
2011.46859	976.3
2014.51848	974.1
2017.56639	969.9
2020.61233	964.7
2023.6563	968
2026.6983	958.6
2029.73833	956.5
2032.7764	949.4
2035.8125	955.1
2038.84664	951.4
2041.87881	955.4
2044.90903	950.1
2047.93729	953.8
2050.96359	952.9
2053.98794	950.3
2057.01034	953.9
2060.03078	956.5
2063.04927	962.4
2066.06582	960.5
2069.08042	965.9
2072.09307	968.9
2075.10378	975.3
2078.11255	980.1
2081.11938	980.6
2084.12426	989.7
2087.12722	1000.9
2090.12824	1005.7
2093.12732	1013
2096.12447	1017.3
2099.11969	1018.6
2102.11299	1022.9
2105.10435	1016.9
2108.09379	1030.4
2111.08131	1026.2
2114.0669	1030.3
2117.05057	1030.2
2120.03233	1023.1
2123.01216	1022.1
2125.99008	1015.5
2128.96609	1017.5
2131.94018	1005.7
2134.91236	1011.6
2137.88263	1001.2
2140.851	1001.7
2143.81746	993.7
2146.78201	989.2
2149.74466	973.7
2152.7054	975.3
2155.66425	968.9
2158.6212	960.7
2161.57625	949.6
2164.52941	947.8
2167.48067	940.7
2170.43004	931
2173.37752	927.7
2176.32311	925.6
2179.26681	926.5
2182.20863	918.7
2185.14856	923.3
2188.08661	917.2
2191.02278	917.9
2193.95707	914.7
2196.88948	912.3
2199.82001	913.3
2202.74867	905.7
2205.67545	911
2208.60037	901.7
2211.52341	901.7
2214.44458	895.6
2217.36388	895
2220.28132	886.5
2223.1969	883.7
2226.11061	886.6
2229.02246	881.6
2231.93245	880.9
2234.84058	873.1
2237.74686	874.2
2240.65128	872.5
2243.55385	870.8
2246.45456	870.3
2249.35343	864
2252.25044	871.2
2255.14561	862.3
2258.03893	869.6
2260.93041	865.3
2263.82004	858.9
2266.70783	853.4
2269.59378	862.6
2272.4779	857.3
2275.36017	851.4
2278.24061	854.8
2281.11922	847.8
2283.996	850.8
2286.87094	846.5
2289.74405	842.3
2292.61534	835.1
2295.4848	840.3
2298.35243	844.6
2301.21824	834.9
2304.08223	843.3
2306.94439	825.5
2309.80474	833.4
2312.66327	836.8
2315.51999	830.5
2318.37489	838.8
2321.22797	829.4
2324.07925	821.7
2326.92871	836.4
2329.77637	829.8
2332.62222	820.1
2335.46626	818.2
2338.3085	814.8
2341.14893	821.7
2343.98756	810.1
2346.8244	813.6
2349.65943	809.6
2352.49267	811.5
2355.32411	807.1
2358.15376	814.2
2360.98161	813.1
2363.80768	803.6
2366.63195	810.1
2369.45444	801.6
2372.27514	803.6
2375.09405	808.2
2377.91118	794.3
2380.72652	798.7
2383.54009	794.6
2386.35187	799.1
2389.16188	789.6
2391.97011	795
2394.77657	786
2397.58125	783.6
2400.38416	783
2403.18529	783.2
2405.98466	785.7
2408.78226	785.5
2411.57809	778.3
2414.37216	777.6
2417.16446	775.8
2419.955	776.1
2422.74378	777.1
2425.5308	772.9
2428.31606	769
2431.09956	772.1
2433.88131	769.1
2436.6613	772.8
2439.43954	768.6
2442.21603	761.8
2444.99077	760.3
2447.76377	764
2450.53501	763.5
2453.30451	759.2
2456.07226	759.6
2458.83827	760
2461.60254	763.8
2464.36507	762
2467.12586	754.9
2469.88492	759.6
2472.64224	744.5
2475.39782	748.1
2478.15167	753.7
2480.90379	753.7
2483.65417	745.4
2486.40283	753.8
2489.14976	750.5
2491.89497	746.5
2494.63845	745.9
2497.3802	740.7
2500.12024	739.9
2502.85855	745
2505.59514	741.4
2508.33002	736.2
2511.06318	745.8
2513.79462	738.8
2516.52435	736.4
2519.25237	735.6
2521.97867	731.4
2524.70327	720.4
2527.42616	733.4
2530.14734	727.6
2532.86681	721.9
2535.58458	726
2538.30065	723
2541.01501	723.1
2543.72768	716.1
2546.43864	720.8
2549.14791	717.5
2551.85548	724.3
2554.56136	712.7
2557.26554	715.8
2559.96803	704.6
2562.66883	709.2
2565.36794	710.1
2568.06536	710.7
2570.7611	710.9
2573.45514	702.7
2576.14751	705.1
2578.83819	703
2581.52719	706.5
2584.21451	703.2
2586.90015	698.2
2589.58411	697.2
2592.2664	700.1
2594.94701	700.9
2597.62594	694
2600.30321	690.1
2602.9788	684.7
2605.65273	684
2608.32498	684.7
2610.99557	682.2
2613.66449	676.9
2616.33175	690
2618.99734	687.3
2621.66128	687.2
2624.32355	685.7
2626.98416	687.1
2629.64311	679.8
2632.30041	680.8
2634.95605	680.8
2637.61004	682.7
2640.26238	676.3
2642.91306	679.3
2645.56209	679.1
2648.20948	678.8
2650.85521	679.5
2653.4993	680.9
2656.14175	682.6
2658.78255	677.5
2661.42171	672.5
2664.05923	672.2
2666.6951	673.4
2669.32934	678
2671.96194	677
2674.59291	681.8
2677.22224	678.5
2679.84993	683.4
2682.476	683.9
2685.10043	686.4
2687.72324	690
2690.34441	688
2692.96396	678.9
2695.58188	692.6
2698.19818	682.7
2700.81285	687.6
2703.4259	694.5
2706.03733	690.8
2708.64714	692
2711.25533	697.9
2713.86191	686.3
2716.46687	696
2719.07021	696.2
2721.67194	689.8
2724.27206	690.2
2726.87057	697.1
2729.46747	698.3
2732.06276	694.9
2734.65644	691.2
2737.24852	692.7
2739.83899	695.1
2742.42786	691.2
2745.01513	686.1
2747.60079	679.9
2750.18486	688.8
2752.76733	687.6
2755.3482	683.5
2757.92747	679.3
2760.50515	683.2
2763.08123	681.9
2765.65573	677.4
2768.22863	686.3
2770.79994	676.4
2773.36967	673.3
2775.9378	673.8
2778.50435	673.7
2781.06932	671
2783.6327	672.8
2786.1945	678.1
2788.75471	671.2
2791.31335	668.8
2793.87041	671.7
2796.42589	666.6
2798.97979	667.9
2801.53212	659.7
2804.08288	662
2806.63206	668.7
2809.17967	657.5
2811.72571	662.8
2814.27018	660
2816.81308	662.8
2819.35442	656.7
2821.89419	650.5
2824.43239	656.6
2826.96904	662.1
2829.50412	650.2
2832.03763	654.4
2834.56959	654.8
2837.1	652.5
2839.62884	656.5
2842.15613	653
2844.68186	652.6
2847.20604	653.7
2849.72867	655.5
2852.24974	653
2854.76927	656.8
2857.28724	660.5
2859.80367	656.1
2862.31855	661
2864.83189	658.5
2867.34368	658
2869.85393	667.8
2872.36264	667.1
2874.8698	672.8
2877.37543	668.9
2879.87952	679.8
2882.38207	684.3
2884.88308	681.7
2887.38256	683.6
2889.88051	681.8
2892.37692	686.8
2894.8718	687.2
2897.36515	699.2
2899.85698	705.5
2902.34727	713.1
2904.83604	715.3
2907.32328	724.1
2909.809	736.4
2912.29319	744.3
2914.77587	746.3
2917.25702	754.6
2919.73665	762.1
2922.21476	773
2924.69136	770.2
2927.16644	780.5
2929.64	789
2932.11205	789.9
2934.58258	789
2937.05161	791.2
2939.51912	789.9
2941.98513	790.2
2944.44962	776.4
2946.91261	776.1
2949.37409	769.5
2951.83407	759.3
2954.29254	751.5
2956.74951	744.6
2959.20498	740.8
2961.65895	725.3
2964.11142	716.9
2966.56239	710.8
2969.01186	701.5
2971.45984	694.8
2973.90632	688.1
2976.35131	684.7
2978.7948	686.2
2981.23681	683.5
2983.67732	680.1
2986.11635	683.2
2988.55388	673
2990.98993	670.1
2993.4245	669.3
2995.85758	666.1
2998.28917	659.6
3000.71928	666.1
3003.14791	671
3005.57506	665.6
3008.00073	668.3
3010.42493	665.1
3012.84764	668.3
3015.26888	664.2
3017.68865	666.6
3020.10694	670
3022.52376	666.4
3024.9391	666.4
3027.35298	663.8
3029.76539	659.8
3032.17632	676.5
3034.5858	671
3036.9938	669.1
3039.40034	670.9
3041.80542	675.7
3044.20903	671.8
3046.61118	671.4
3049.01187	675.1
3051.4111	674.5
3053.80888	678.8
3056.20519	686.3
3058.60005	677.4
3060.99345	690.2
3063.3854	679.6
3065.7759	690.6
3068.16494	687.3
3070.55254	690.6
3072.93868	691.8
3075.32338	700.2
3077.70662	696.5
3080.08842	702.4
3082.46878	702
3084.84769	708.7
3087.22515	705.5
3089.60118	716.9
3091.97576	718.7
3094.3489	724
3096.72061	730.2
3099.09087	738.2
3101.4597	730.1
3103.82709	739.6
3106.19305	739.2
3108.55757	749
3110.92066	744.8
3113.28232	748.9
3115.64255	756.7
3118.00134	758.5
3120.35871	763.9
3122.71466	766.5
3125.06917	768.3
3127.42226	772.5
3129.77393	777.1
3132.12417	792.2
3134.47299	793
3136.82039	798.3
3139.16636	807.2
3141.51092	813.8
3143.85406	816
3146.19579	819.9
3148.53609	828.6
3150.87499	834.5
3153.21246	841.9
3155.54853	847.7
3157.88318	849
3160.21642	858.7
3162.54826	865.6
3164.87868	864.9
3167.2077	871
3169.5353	874.5
3171.86151	885.6
3174.18631	890.1
3176.5097	895.9
3178.83169	895.9
3181.15228	889.7
3183.47147	908.4
3185.78926	905.3
3188.10565	908.1
3190.42065	917.8
3192.73424	929.8
3195.04645	932
3197.35725	929.2
3199.66667	932.5
3201.97469	932.5
3204.28132	945.2
3206.58656	949.6
3208.8904	955.3
3211.19287	962.1
3213.49394	964.9
3215.79363	969.1
3218.09193	962.8
3220.38884	968.9
3222.68438	967.3
3224.97853	975.3
3227.2713	981.7
3229.56269	977
3231.8527	978.9
3234.14133	976.9
3236.42858	975
3238.71446	975.4
3240.99896	976.8
3243.28209	987
3245.56384	980.8
3247.84423	975.7
3250.12324	983.3
3252.40088	988
3254.67715	986.4
3256.95205	986.7
3259.22558	984
3261.49775	983.3
3263.76855	993.2
3266.03799	988.8
3268.30606	987.5
3270.57277	982.4
3272.83812	983.2
3275.10211	981.9
3277.36474	980.3
3279.62601	991.1
3281.88593	976.9
3284.14448	986.2
3286.40168	976.6
3288.65753	982.7
3290.91202	983.5
3293.16516	974.3
3295.41695	974.5
3297.66738	968.1
3299.91647	964.7
3302.16421	958.1
3304.4106	966.7
3306.65564	954.8
3308.89933	950.6
3311.14169	954.8
3313.38269	938.8
3315.62236	944
3317.86068	931.3
3320.09766	925.2
3322.3333	924.2
3324.5676	923
3326.80056	904.6
3329.03219	899.4
3331.26248	-0.6
3333.49143	-0.6
3335.71905	-0.8
