Data from AgNPs_FTO_APTES_UA_0.1mM_CRN_0uM_NaF_0.1M_Addition_RamanShift__49__10-59-47-511.txt Node

Date: Mon Dec 20 10:59:47 GMT 2021
User: TCL
Spectrometer: QEP01345
Trigger mode: 4
Integration Time (sec): 7.000000E0
Scans to average: 10
Electric dark correction enabled: true
Nonlinearity correction enabled: false
Boxcar width: 0
XAxis mode: Raman Shifts
Number of Pixels in Spectrum: 1044
>>>>>Begin Spectral Data<<<<<
46.04893	-0.025
50.45542	-0.425
54.85868	-1.825
59.25871	1.575
63.6555	28.475
68.04907	32.175
72.43941	32.175
76.82654	34.175
81.21044	32.475
85.59113	41.475
89.96862	35.075
94.34289	39.775
98.71396	44.275
103.08183	40.975
107.4465	44.775
111.80798	44.075
116.16626	43.775
120.52136	47.175
124.87327	50.775
129.222	50.175
133.56755	54.775
137.90993	55.675
142.24913	60.275
146.58517	60.875
150.91804	73.475
155.24774	84.775
159.57429	99.175
163.89768	127.675
168.21792	163.975
172.53501	209.675
176.84895	286.275
181.15975	396.575
185.46741	546.175
189.77193	748.375
194.07331	1000.475
198.37157	1282.675
202.6667	1591.775
206.9587	1894.375
211.24758	2199.975
215.53334	2519.075
219.81599	2832.875
224.09553	3165.875
228.37195	3535.775
232.64527	3973.075
236.91549	4376.875
241.18261	4814.375
245.44663	5189.175
249.70755	5536.975
253.96539	5814.975
258.22014	6020.775
262.4718	6169.875
266.72039	6230.375
270.96589	6251.375
275.20832	6186.875
279.44768	6103.275
283.68397	5988.875
287.91719	5899.375
292.14735	5819.975
296.37445	5758.175
300.59849	5765.575
304.81948	5767.675
309.03742	5731.975
313.25231	5683.575
317.46415	5600.175
321.67296	5464.875
325.87872	5360.675
330.08145	5306.975
334.28114	5295.275
338.47781	5305.775
342.67145	5331.075
346.86207	5397.475
351.04966	5471.075
355.23424	5569.575
359.4158	5644.875
363.59435	5720.675
367.76989	5786.075
371.94243	5852.075
376.11196	5936.275
380.27849	5953.775
384.44203	6006.675
388.60257	6072.475
392.76012	6147.875
396.91468	6204.275
401.06626	6284.675
405.21485	6309.675
409.36047	6327.175
413.50311	6270.175
417.64277	6193.375
421.77947	6174.675
425.9132	6172.275
430.04396	6190.475
434.17176	6197.175
438.2966	6260.375
442.41849	6292.175
446.53742	6390.275
450.6534	6483.475
454.76644	6568.675
458.87653	6629.475
462.98368	6616.275
467.08789	6599.875
471.18916	6595.475
475.2875	6586.475
479.38291	6624.675
483.4754	6681.875
487.56496	6757.675
491.6516	6886.875
495.73531	6990.175
499.81612	7004.675
503.89401	7001.275
507.96899	6932.075
512.04106	6859.075
516.11023	6782.375
520.1765	6745.075
524.23987	6739.975
528.30034	6742.275
532.35792	6746.375
536.41261	6717.675
540.46441	6647.875
544.51333	6597.875
548.55936	6544.275
552.60252	6548.175
556.64279	6570.575
560.6802	6584.175
564.71473	6594.875
568.7464	6616.775
572.7752	6668.475
576.80114	6745.975
580.82422	6846.275
584.84444	6965.675
588.86181	7126.275
592.87633	7226.375
596.888	7214.675
600.89682	7154.375
604.9028	7207.775
608.90594	7641.975
612.90624	8171.975
616.90371	8104.775
620.89834	7404.475
624.89015	7247.775
628.87913	7520.775
632.86528	7941.175
636.84862	8257.075
640.82913	8271.775
644.80683	8036.975
648.78172	7679.575
652.75379	7374.175
656.72306	7178.775
660.68952	7095.275
664.65319	6992.275
668.61405	6933.875
672.57211	6936.275
676.52738	6992.075
680.47986	7035.875
684.42955	7046.375
688.37646	7004.075
692.32058	6998.975
696.26192	6855.875
700.20048	6778.475
704.13626	6709.975
708.06928	6640.175
711.99952	6595.575
715.927	6556.575
719.85171	6567.575
723.77365	6548.875
727.69284	6551.075
731.60928	6500.475
735.52295	6462.075
739.43388	6445.175
743.34206	6476.375
747.24749	6468.475
751.15017	6474.575
755.05012	6494.175
758.94733	6540.575
762.8418	6744.975
766.73354	7063.675
770.62254	7433.575
774.50882	7642.975
778.39237	7476.175
782.27321	7081.375
786.15132	6733.675
790.02671	6494.075
793.89938	6427.175
797.76935	6408.875
801.6366	6469.675
805.50115	6554.475
809.36299	6692.875
813.22213	6752.775
817.07857	6638.175
820.93231	6488.675
824.78336	6334.975
828.63172	6157.075
832.47738	6108.875
836.32036	6061.175
840.16066	6062.175
843.99827	6033.475
847.8332	6019.075
851.66546	6023.375
855.49504	6005.175
859.32195	6034.575
863.1462	6063.775
866.96777	6093.675
870.78668	6155.975
874.60293	6259.775
878.41652	6334.975
882.22745	6432.675
886.03573	6502.475
889.84136	6521.475
893.64433	6448.475
897.44466	6294.475
901.24235	6164.375
905.0374	6030.875
908.8298	5943.875
912.61957	5890.675
916.40671	5869.675
920.19121	5883.775
923.97308	5918.875
927.75233	5877.675
931.52895	5868.775
935.30295	5823.975
939.07433	5766.075
942.84309	5734.975
946.60924	5709.675
950.37278	5708.275
954.13371	5713.575
957.89203	5684.675
961.64774	5672.775
965.40086	5659.575
969.15137	5616.975
972.89929	5578.375
976.64461	5552.975
980.38733	5539.775
984.12747	5545.175
987.86502	5554.475
991.59999	5577.375
995.33237	5600.475
999.06217	5690.575
1002.78939	5792.575
1006.51404	5888.975
1010.23611	5978.175
1013.95561	6075.875
1017.67255	6116.175
1021.38692	6074.375
1025.09872	5980.975
1028.80796	5891.075
1032.51465	5852.275
1036.21877	5822.275
1039.92035	5810.475
1043.61937	5807.975
1047.31584	5782.675
1051.00976	5774.575
1054.70114	5781.175
1058.38998	5810.675
1062.07627	5855.075
1065.76003	5906.575
1069.44126	5959.775
1073.11995	6016.875
1076.79611	6079.375
1080.46974	6083.775
1084.14085	6069.575
1087.80943	6051.975
1091.47549	6033.675
1095.13903	5996.875
1098.80005	5938.775
1102.45857	5882.575
1106.11456	5853.775
1109.76805	5860.375
1113.41903	5933.675
1117.06751	6094.675
1120.71348	6345.075
1124.35696	6677.375
1127.99793	7098.775
1131.63641	7475.075
1135.2724	7690.975
1138.90589	7725.975
1142.5369	7571.675
1146.16542	7271.575
1149.79145	6923.575
1153.415	6624.175
1157.03607	6392.675
1160.65467	6261.275
1164.27079	6302.675
1167.88443	6395.375
1171.49561	6570.075
1175.10432	6829.175
1178.71056	7174.175
1182.31434	7527.375
1185.91565	7728.975
1189.51451	7754.275
1193.11091	7720.175
1196.70485	7659.175
1200.29634	7624.475
1203.88538	7540.175
1207.47197	7446.675
1211.05612	7275.475
1214.63782	7103.675
1218.21708	6899.075
1221.79391	6753.675
1225.36829	6614.675
1228.94024	6518.675
1232.50976	6440.475
1236.07685	6356.375
1239.6415	6325.775
1243.20374	6320.175
1246.76355	6354.575
1250.32093	6391.975
1253.8759	6489.575
1257.42845	6605.275
1260.97859	6703.675
1264.52631	6800.475
1268.07163	6922.375
1271.61453	7040.275
1275.15503	7132.275
1278.69312	7228.875
1282.22882	7326.075
1285.76211	7461.175
1289.29301	7592.675
1292.82151	7812.475
1296.34761	8064.475
1299.87133	8369.075
1303.39266	8715.075
1306.9116	9066.775
1310.42815	9402.875
1313.94233	9619.675
1317.45412	9603.275
1320.96354	9483.275
1324.47058	9326.875
1327.97525	9164.575
1331.47754	9057.375
1334.97747	8999.775
1338.47502	9019.475
1341.97022	9040.575
1345.46305	9085.975
1348.95352	9281.675
1352.44163	9507.475
1355.92738	9871.475
1359.41078	10328.975
1362.89183	10658.075
1366.37053	10538.475
1369.84688	9874.375
1373.32088	9030.975
1376.79254	8418.475
1380.26186	8130.775
1383.72883	8000.075
1387.19347	7922.575
1390.65578	7773.075
1394.11575	7655.475
1397.57339	7622.475
1401.0287	7608.275
1404.48168	7587.775
1407.93234	7531.075
1411.38068	7371.875
1414.82669	7161.775
1418.27039	6939.975
1421.71177	6722.275
1425.15083	6514.575
1428.58758	6399.475
1432.02203	6370.775
1435.45416	6421.275
1438.88399	6524.475
1442.31151	6596.275
1445.73673	6671.175
1449.15965	6740.275
1452.58027	6818.375
1455.9986	6841.675
1459.41463	6898.075
1462.82837	6980.075
1466.23982	7085.975
1469.64898	7164.975
1473.05586	7249.275
1476.46045	7254.375
1479.86276	7253.775
1483.26279	7210.375
1486.66054	7218.275
1490.05602	7228.775
1493.44922	7310.075
1496.84016	7402.275
1500.22882	7588.175
1503.61521	7860.675
1506.99934	8142.375
1510.38121	8417.075
1513.76081	8483.075
1517.13816	8285.075
1520.51324	7948.675
1523.88607	7623.475
1527.25665	7430.175
1530.62498	7373.175
1533.99105	7340.875
1537.35488	7334.575
1540.71647	7297.375
1544.07581	7293.775
1547.4329	7268.475
1550.78776	7227.875
1554.14038	7236.975
1557.49077	7274.475
1560.83892	7311.375
1564.18484	7368.475
1567.52853	7375.375
1570.86999	7431.575
1574.20922	7470.475
1577.54624	7488.375
1580.88103	7432.275
1584.2136	7338.375
1587.54395	7364.275
1590.87208	7482.975
1594.19801	7706.575
1597.52172	7971.575
1600.84321	8122.875
1604.16251	7988.775
1607.47959	7709.575
1610.79447	7391.375
1614.10715	7094.875
1617.41763	6846.675
1620.7259	6693.675
1624.03199	6612.575
1627.33587	6637.275
1630.63757	6725.275
1633.93707	6951.875
1637.23439	7273.375
1640.52951	7755.175
1643.82246	8375.675
1647.11321	8942.675
1650.40179	9157.175
1653.68819	8898.275
1656.97241	8282.875
1660.25446	7578.775
1663.53433	7032.475
1666.81203	6671.675
1670.08756	6439.075
1673.36092	6266.875
1676.63211	6138.775
1679.90115	6058.775
1683.16801	5927.775
1686.43272	5810.575
1689.69527	5665.475
1692.95567	5519.275
1696.2139	5408.975
1699.46999	5278.475
1702.72392	5165.875
1705.97571	5083.175
1709.22535	4980.075
1712.47284	4930.175
1715.71819	4875.075
1718.96139	4818.275
1722.20246	4753.875
1725.44139	4699.675
1728.67818	4624.775
1731.91284	4577.275
1735.14537	4517.275
1738.37576	4465.675
1741.60403	4418.475
1744.83017	4403.575
1748.05418	4366.675
1751.27607	4347.775
1754.49584	4335.475
1757.71349	4329.075
1760.92903	4308.475
1764.14244	4299.875
1767.35375	4292.275
1770.56294	4287.175
1773.77002	4257.475
1776.97499	4234.475
1780.17785	4222.275
1783.37861	4195.775
1786.57727	4197.375
1789.77382	4145.875
1792.96828	4146.475
1796.16064	4130.775
1799.3509	4120.375
1802.53907	4105.375
1805.72514	4089.675
1808.90913	4077.675
1812.09102	4051.975
1815.27083	4068.375
1818.44856	4044.375
1821.6242	4033.975
1824.79776	4025.675
1827.96924	4030.475
1831.13864	4011.975
1834.30597	4018.275
1837.47122	3987.875
1840.6344	3995.075
1843.7955	3985.775
1846.95454	3979.975
1850.11151	3968.875
1853.26642	3972.775
1856.41926	3981.575
1859.57004	3966.575
1862.71876	3957.675
1865.86542	3946.275
1869.01003	3956.575
1872.15258	3944.075
1875.29308	3936.675
1878.43152	3928.275
1881.56792	3922.675
1884.70227	3925.275
1887.83457	3910.975
1890.96482	3912.975
1894.09304	3905.975
1897.21921	3886.175
1900.34335	3892.475
1903.46544	3874.775
1906.58551	3876.475
1909.70353	3872.975
1912.81953	3868.875
1915.93349	3845.875
1919.04543	3859.475
1922.15534	3840.975
1925.26322	3832.975
1928.36908	3827.675
1931.47292	3816.575
1934.57473	3789.975
1937.67453	3778.575
1940.77232	3774.075
1943.86808	3769.575
1946.96184	3755.275
1950.05358	3738.575
1953.14331	3744.875
1956.23103	3712.275
1959.31675	3708.275
1962.40046	3707.075
1965.48217	3702.475
1968.56188	3683.875
1971.63959	3675.675
1974.7153	3656.975
1977.78901	3655.475
1980.86073	3639.875
1983.93046	3631.575
1986.99819	3611.075
1990.06394	3599.075
1993.1277	3595.975
1996.18947	3572.075
1999.24925	3575.875
2002.30706	3569.075
2005.36288	3543.875
2008.41672	3539.175
2011.46859	3521.475
2014.51848	3514.275
2017.56639	3513.975
2020.61233	3497.375
2023.6563	3493.175
2026.6983	3482.175
2029.73833	3459.775
2032.7764	3453.975
2035.8125	3461.175
2038.84664	3450.975
2041.87881	3446.375
2044.90903	3430.575
2047.93729	3426.575
2050.96359	3424.575
2053.98794	3433.875
2057.01034	3423.175
2060.03078	3408.575
2063.04927	3415.475
2066.06582	3409.875
2069.08042	3407.575
2072.09307	3402.175
2075.10378	3398.875
2078.11255	3388.575
2081.11938	3397.575
2084.12426	3388.175
2087.12722	3398.875
2090.12824	3389.475
2093.12732	3399.175
2096.12447	3380.775
2099.11969	3400.475
2102.11299	3385.975
2105.10435	3384.575
2108.09379	3399.875
2111.08131	3389.175
2114.0669	3386.175
2117.05057	3390.275
2120.03233	3379.175
2123.01216	3389.675
2125.99008	3407.375
2128.96609	3403.875
2131.94018	3414.475
2134.91236	3409.875
2137.88263	3406.075
2140.851	3393.275
2143.81746	3412.075
2146.78201	3407.675
2149.74466	3420.375
2152.7054	3406.575
2155.66425	3391.975
2158.6212	3393.075
2161.57625	3396.375
2164.52941	3391.675
2167.48067	3397.775
2170.43004	3387.575
2173.37752	3388.075
2176.32311	3375.275
2179.26681	3379.875
2182.20863	3386.775
2185.14856	3383.675
2188.08661	3364.175
2191.02278	3376.175
2193.95707	3373.675
2196.88948	3373.575
2199.82001	3360.675
2202.74867	3351.275
2205.67545	3350.775
2208.60037	3350.875
2211.52341	3338.175
2214.44458	3322.775
2217.36388	3322.575
2220.28132	3325.675
2223.1969	3310.175
2226.11061	3315.775
2229.02246	3293.475
2231.93245	3298.175
2234.84058	3282.475
2237.74686	3279.475
2240.65128	3273.175
2243.55385	3270.575
2246.45456	3271.875
2249.35343	3266.475
2252.25044	3246.275
2255.14561	3244.875
2258.03893	3250.175
2260.93041	3240.475
2263.82004	3232.075
2266.70783	3217.975
2269.59378	3204.775
2272.4779	3197.375
2275.36017	3209.375
2278.24061	3201.075
2281.11922	3178.675
2283.996	3172.375
2286.87094	3181.975
2289.74405	3167.775
2292.61534	3171.775
2295.4848	3157.975
2298.35243	3157.575
2301.21824	3144.275
2304.08223	3153.075
2306.94439	3150.375
2309.80474	3137.475
2312.66327	3139.875
2315.51999	3138.275
2318.37489	3141.175
2321.22797	3117.975
2324.07925	3120.075
2326.92871	3130.375
2329.77637	3100.975
2332.62222	3108.375
2335.46626	3109.575
2338.3085	3095.775
2341.14893	3099.975
2343.98756	3096.775
2346.8244	3090.375
2349.65943	3082.375
2352.49267	3091.575
2355.32411	3072.875
2358.15376	3086.675
2360.98161	3085.775
2363.80768	3077.275
2366.63195	3065.975
2369.45444	3072.475
2372.27514	3052.475
2375.09405	3070.375
2377.91118	3057.275
2380.72652	3059.175
2383.54009	3043.275
2386.35187	3034.475
2389.16188	3042.075
2391.97011	3025.475
2394.77657	3015.975
2397.58125	3023.775
2400.38416	3009.675
2403.18529	2996.075
2405.98466	2989.075
2408.78226	3005.275
2411.57809	2992.275
2414.37216	2976.275
2417.16446	2973.975
2419.955	2963.275
2422.74378	2971.475
2425.5308	2966.375
2428.31606	2965.675
2431.09956	2943.375
2433.88131	2962.275
2436.6613	2957.575
2439.43954	2945.175
2442.21603	2945.775
2444.99077	2935.475
2447.76377	2950.475
2450.53501	2934.675
2453.30451	2939.775
2456.07226	2931.675
2458.83827	2925.375
2461.60254	2918.375
2464.36507	2934.975
2467.12586	2930.975
2469.88492	2924.075
2472.64224	2919.675
2475.39782	2920.275
2478.15167	2924.875
2480.90379	2905.975
2483.65417	2905.975
2486.40283	2907.275
2489.14976	2902.275
2491.89497	2908.575
2494.63845	2915.475
2497.3802	2889.775
2500.12024	2903.875
2502.85855	2896.375
2505.59514	2900.175
2508.33002	2886.075
2511.06318	2893.175
2513.79462	2893.075
2516.52435	2886.375
2519.25237	2874.975
2521.97867	2862.975
2524.70327	2863.475
2527.42616	2859.675
2530.14734	2867.375
2532.86681	2842.175
2535.58458	2843.375
2538.30065	2851.075
2541.01501	2841.675
2543.72768	2846.275
2546.43864	2830.175
2549.14791	2820.275
2551.85548	2826.575
2554.56136	2822.575
2557.26554	2814.275
2559.96803	2812.075
2562.66883	2812.975
2565.36794	2803.175
2568.06536	2802.875
2570.7611	2799.375
2573.45514	2796.175
2576.14751	2792.375
2578.83819	2789.175
2581.52719	2791.375
2584.21451	2779.675
2586.90015	2775.375
2589.58411	2766.475
2592.2664	2768.675
2594.94701	2753.375
2597.62594	2765.575
2600.30321	2756.775
2602.9788	2750.375
2605.65273	2745.875
2608.32498	2749.875
2610.99557	2732.875
2613.66449	2741.175
2616.33175	2725.775
2618.99734	2729.875
2621.66128	2730.875
2624.32355	2729.375
2626.98416	2721.775
2629.64311	2733.875
2632.30041	2723.975
2634.95605	2719.475
2637.61004	2709.375
2640.26238	2707.775
2642.91306	2714.875
2645.56209	2718.875
2648.20948	2701.975
2650.85521	2695.975
2653.4993	2712.175
2656.14175	2698.275
2658.78255	2694.675
2661.42171	2703.075
2664.05923	2695.775
2666.6951	2699.075
2669.32934	2706.775
2671.96194	2704.175
2674.59291	2712.475
2677.22224	2699.575
2679.84993	2707.675
2682.476	2705.875
2685.10043	2702.975
2687.72324	2701.875
2690.34441	2694.275
2692.96396	2698.275
2695.58188	2695.175
2698.19818	2698.275
2700.81285	2693.375
2703.4259	2705.375
2706.03733	2713.975
2708.64714	2704.175
2711.25533	2703.575
2713.86191	2709.875
2716.46687	2711.975
2719.07021	2701.175
2721.67194	2703.475
2724.27206	2691.775
2726.87057	2708.475
2729.46747	2698.975
2732.06276	2696.875
2734.65644	2695.675
2737.24852	2710.075
2739.83899	2706.575
2742.42786	2687.675
2745.01513	2685.175
2747.60079	2702.675
2750.18486	2692.675
2752.76733	2687.675
2755.3482	2694.975
2757.92747	2684.575
2760.50515	2679.375
2763.08123	2678.975
2765.65573	2685.175
2768.22863	2676.275
2770.79994	2680.175
2773.36967	2677.175
2775.9378	2668.875
2778.50435	2653.275
2781.06932	2658.775
2783.6327	2662.175
2786.1945	2653.275
2788.75471	2647.475
2791.31335	2649.675
2793.87041	2656.675
2796.42589	2635.275
2798.97979	2627.075
2801.53212	2625.675
2804.08288	2619.075
2806.63206	2624.175
2809.17967	2595.975
2811.72571	2610.775
2814.27018	2604.575
2816.81308	2589.275
2819.35442	2593.675
2821.89419	2593.375
2824.43239	2604.775
2826.96904	2591.975
2829.50412	2590.575
2832.03763	2593.375
2834.56959	2586.075
2837.1	2580.075
2839.62884	2581.275
2842.15613	2584.075
2844.68186	2579.675
2847.20604	2583.375
2849.72867	2588.175
2852.24974	2583.875
2854.76927	2591.175
2857.28724	2588.975
2859.80367	2576.275
2862.31855	2585.675
2864.83189	2585.975
2867.34368	2580.575
2869.85393	2587.675
2872.36264	2591.175
2874.8698	2589.675
2877.37543	2581.075
2879.87952	2597.375
2882.38207	2585.475
2884.88308	2596.875
2887.38256	2587.075
2889.88051	2587.475
2892.37692	2591.075
2894.8718	2600.575
2897.36515	2615.775
2899.85698	2600.075
2902.34727	2608.375
2904.83604	2593.575
2907.32328	2618.975
2909.809	2618.375
2912.29319	2606.675
2914.77587	2609.775
2917.25702	2616.775
2919.73665	2608.975
2922.21476	2612.075
2924.69136	2609.675
2927.16644	2612.275
2929.64	2597.675
2932.11205	2603.675
2934.58258	2605.775
2937.05161	2596.475
2939.51912	2602.375
2941.98513	2608.475
2944.44962	2580.175
2946.91261	2575.875
2949.37409	2596.075
2951.83407	2593.675
2954.29254	2588.475
2956.74951	2591.075
2959.20498	2564.975
2961.65895	2564.275
2964.11142	2573.775
2966.56239	2576.275
2969.01186	2572.875
2971.45984	2552.775
2973.90632	2559.075
2976.35131	2543.175
2978.7948	2558.675
2981.23681	2534.075
2983.67732	2539.375
2986.11635	2541.275
2988.55388	2526.275
2990.98993	2519.075
2993.4245	2524.075
2995.85758	2523.275
2998.28917	2512.975
3000.71928	2514.275
3003.14791	2512.475
3005.57506	2514.775
3008.00073	2511.175
3010.42493	2519.875
3012.84764	2509.575
3015.26888	2508.675
3017.68865	2513.775
3020.10694	2512.875
3022.52376	2498.675
3024.9391	2504.875
3027.35298	2493.275
3029.76539	2497.175
3032.17632	2505.075
3034.5858	2496.375
3036.9938	2500.975
3039.40034	2507.075
3041.80542	2505.475
3044.20903	2498.875
3046.61118	2489.875
3049.01187	2485.675
3051.4111	2493.275
3053.80888	2501.875
3056.20519	2499.975
3058.60005	2490.375
3060.99345	2496.275
3063.3854	2489.675
3065.7759	2482.875
3068.16494	2491.875
3070.55254	2492.575
3072.93868	2479.775
3075.32338	2482.275
3077.70662	2480.475
3080.08842	2482.575
3082.46878	2484.175
3084.84769	2481.975
3087.22515	2501.275
3089.60118	2497.975
3091.97576	2498.975
3094.3489	2497.575
3096.72061	2490.075
3099.09087	2518.975
3101.4597	2519.775
3103.82709	2515.375
3106.19305	2520.575
3108.55757	2522.275
3110.92066	2514.975
3113.28232	2526.575
3115.64255	2515.075
3118.00134	2511.875
3120.35871	2523.775
3122.71466	2522.775
3125.06917	2531.475
3127.42226	2517.675
3129.77393	2530.875
3132.12417	2534.775
3134.47299	2531.375
3136.82039	2548.475
3139.16636	2554.775
3141.51092	2549.975
3143.85406	2561.475
3146.19579	2571.475
3148.53609	2575.875
3150.87499	2580.575
3153.21246	2595.175
3155.54853	2599.075
3157.88318	2594.075
3160.21642	2605.775
3162.54826	2613.075
3164.87868	2611.775
3167.2077	2621.175
3169.5353	2625.675
3171.86151	2629.675
3174.18631	2633.075
3176.5097	2636.875
3178.83169	2621.875
3181.15228	2643.675
3183.47147	2646.275
3185.78926	2645.775
3188.10565	2637.375
3190.42065	2648.775
3192.73424	2662.275
3195.04645	2658.375
3197.35725	2671.275
3199.66667	2676.375
3201.97469	2678.375
3204.28132	2681.375
3206.58656	2693.175
3208.8904	2698.375
3211.19287	2704.175
3213.49394	2708.875
3215.79363	2696.875
3218.09193	2720.875
3220.38884	2719.475
3222.68438	2715.575
3224.97853	2710.375
3227.2713	2714.575
3229.56269	2708.475
3231.8527	2710.075
3234.14133	2706.775
3236.42858	2711.475
