Data from AgNPs_FTO_APTES_UA_0.1mM_CRN_10uM_NaF_0.1M_Addition_RamanShift__8__11-27-47-543.txt Node

Date: Mon Dec 20 11:27:47 GMT 2021
User: TCL
Spectrometer: QEP01345
Trigger mode: 4
Integration Time (sec): 7.000000E0
Scans to average: 10
Electric dark correction enabled: true
Nonlinearity correction enabled: false
Boxcar width: 0
XAxis mode: Raman Shifts
Number of Pixels in Spectrum: 1044
>>>>>Begin Spectral Data<<<<<
46.04893	1.275
50.45542	-1.225
54.85868	-1.425
59.25871	-0.125
63.6555	29.775
68.04907	30.675
72.43941	34.475
76.82654	33.775
81.21044	36.975
85.59113	41.775
89.96862	39.575
94.34289	41.075
98.71396	39.375
103.08183	39.975
107.4465	44.975
111.80798	46.675
116.16626	44.375
120.52136	46.575
124.87327	48.175
129.222	49.475
133.56755	48.075
137.90993	51.975
142.24913	53.075
146.58517	55.375
150.91804	65.975
155.24774	75.875
159.57429	84.875
163.89768	110.775
168.21792	146.875
172.53501	183.275
176.84895	247.975
181.15975	343.875
185.46741	469.475
189.77193	648.975
194.07331	863.375
198.37157	1111.775
202.6667	1374.475
206.9587	1641.375
211.24758	1919.475
215.53334	2177.475
219.81599	2473.575
224.09553	2778.075
228.37195	3141.175
232.64527	3537.875
236.91549	3944.975
241.18261	4329.875
245.44663	4695.675
249.70755	5000.575
253.96539	5233.975
258.22014	5384.975
262.4718	5483.275
266.72039	5530.475
270.96589	5528.275
275.20832	5481.175
279.44768	5381.975
283.68397	5283.375
287.91719	5201.475
292.14735	5136.275
296.37445	5088.575
300.59849	5076.175
304.81948	5057.775
309.03742	5041.775
313.25231	4994.175
317.46415	4926.475
321.67296	4830.875
325.87872	4731.475
330.08145	4692.875
334.28114	4669.175
338.47781	4681.675
342.67145	4701.475
346.86207	4726.375
351.04966	4792.075
355.23424	4843.775
359.4158	4912.175
363.59435	4961.975
367.76989	4995.975
371.94243	5057.175
376.11196	5096.575
380.27849	5122.475
384.44203	5171.075
388.60257	5227.675
392.76012	5271.175
396.91468	5323.675
401.06626	5389.975
405.21485	5418.375
409.36047	5421.775
413.50311	5379.375
417.64277	5363.275
421.77947	5341.775
425.9132	5367.375
430.04396	5361.975
434.17176	5391.775
438.2966	5419.075
442.41849	5462.875
446.53742	5512.975
450.6534	5557.475
454.76644	5623.275
458.87653	5655.975
462.98368	5645.475
467.08789	5672.375
471.18916	5663.875
475.2875	5675.675
479.38291	5703.875
483.4754	5758.275
487.56496	5848.975
491.6516	5931.275
495.73531	6014.475
499.81612	6044.875
503.89401	6031.875
507.96899	5994.475
512.04106	5938.475
516.11023	5857.675
520.1765	5811.375
524.23987	5807.975
528.30034	5778.675
532.35792	5778.475
536.41261	5733.175
540.46441	5694.575
544.51333	5635.575
548.55936	5602.775
552.60252	5608.475
556.64279	5637.675
560.6802	5661.875
564.71473	5666.475
568.7464	5688.075
572.7752	5767.175
576.80114	5849.575
580.82422	5944.875
584.84444	6085.675
588.86181	6234.875
592.87633	6314.575
596.888	6289.275
600.89682	6190.275
604.9028	6182.875
608.90594	6426.975
612.90624	6805.775
616.90371	6715.775
620.89834	6263.575
624.89015	6208.675
628.87913	6520.175
632.86528	6935.175
636.84862	7272.075
640.82913	7292.175
644.80683	7075.675
648.78172	6750.675
652.75379	6472.475
656.72306	6240.775
660.68952	6082.475
664.65319	5959.975
668.61405	5822.875
672.57211	5772.675
676.52738	5784.375
680.47986	5818.575
684.42955	5802.175
688.37646	5792.175
692.32058	5750.575
696.26192	5685.075
700.20048	5643.675
704.13626	5614.675
708.06928	5600.675
711.99952	5577.875
715.927	5579.175
719.85171	5607.375
723.77365	5651.075
727.69284	5653.775
731.60928	5633.075
735.52295	5554.175
739.43388	5503.475
743.34206	5478.075
747.24749	5511.375
751.15017	5520.575
755.05012	5570.575
758.94733	5623.375
762.8418	5781.075
766.73354	6010.375
770.62254	6230.375
774.50882	6269.075
778.39237	6114.375
782.27321	5833.375
786.15132	5606.975
790.02671	5477.775
793.89938	5439.275
797.76935	5425.875
801.6366	5491.375
805.50115	5609.275
809.36299	5777.275
813.22213	5879.675
817.07857	5851.775
820.93231	5707.175
824.78336	5531.875
828.63172	5373.275
832.47738	5276.775
836.32036	5211.475
840.16066	5215.875
843.99827	5204.575
847.8332	5203.575
851.66546	5198.675
855.49504	5186.175
859.32195	5193.575
863.1462	5211.975
866.96777	5239.275
870.78668	5296.275
874.60293	5382.475
878.41652	5475.275
882.22745	5578.875
886.03573	5671.275
889.84136	5719.575
893.64433	5675.675
897.44466	5565.275
901.24235	5406.175
905.0374	5276.375
908.8298	5190.075
912.61957	5141.575
916.40671	5114.175
920.19121	5103.975
923.97308	5125.575
927.75233	5116.475
931.52895	5085.275
935.30295	5049.075
939.07433	4990.275
942.84309	4935.675
946.60924	4919.075
950.37278	4883.875
954.13371	4891.275
957.89203	4875.975
961.64774	4865.775
965.40086	4862.475
969.15137	4837.575
972.89929	4833.275
976.64461	4807.475
980.38733	4792.675
984.12747	4790.875
987.86502	4799.075
991.59999	4810.175
995.33237	4861.775
999.06217	4901.675
1002.78939	4980.275
1006.51404	5057.875
1010.23611	5122.075
1013.95561	5173.375
1017.67255	5195.475
1021.38692	5188.175
1025.09872	5145.575
1028.80796	5084.475
1032.51465	5031.375
1036.21877	4985.075
1039.92035	4971.075
1043.61937	4924.975
1047.31584	4935.375
1051.00976	4939.675
1054.70114	4952.075
1058.38998	4958.775
1062.07627	5020.075
1065.76003	5082.475
1069.44126	5142.475
1073.11995	5210.675
1076.79611	5257.575
1080.46974	5262.175
1084.14085	5254.675
1087.80943	5228.975
1091.47549	5205.275
1095.13903	5185.375
1098.80005	5147.175
1102.45857	5071.875
1106.11456	5027.575
1109.76805	5049.975
1113.41903	5150.375
1117.06751	5339.575
1120.71348	5624.875
1124.35696	6000.175
1127.99793	6414.875
1131.63641	6766.375
1135.2724	6885.375
1138.90589	6853.575
1142.5369	6645.775
1146.16542	6366.875
1149.79145	6049.875
1153.415	5769.575
1157.03607	5524.375
1160.65467	5411.475
1164.27079	5391.675
1167.88443	5430.075
1171.49561	5533.775
1175.10432	5714.975
1178.71056	5994.875
1182.31434	6228.175
1185.91565	6356.575
1189.51451	6403.275
1193.11091	6395.975
1196.70485	6384.475
1200.29634	6379.375
1203.88538	6381.575
1207.47197	6349.475
1211.05612	6245.775
1214.63782	6129.675
1218.21708	5965.575
1221.79391	5769.675
1225.36829	5627.575
1228.94024	5540.775
1232.50976	5477.075
1236.07685	5420.475
1239.6415	5372.275
1243.20374	5383.475
1246.76355	5436.975
1250.32093	5482.175
1253.8759	5539.775
1257.42845	5627.075
1260.97859	5700.175
1264.52631	5792.975
1268.07163	5853.475
1271.61453	5912.775
1275.15503	5964.175
1278.69312	6008.075
1282.22882	6060.175
1285.76211	6125.475
1289.29301	6247.175
1292.82151	6382.575
1296.34761	6555.475
1299.87133	6757.075
1303.39266	7013.075
1306.9116	7232.175
1310.42815	7464.575
1313.94233	7599.975
1317.45412	7582.575
1320.96354	7537.075
1324.47058	7440.175
1327.97525	7386.075
1331.47754	7325.575
1334.97747	7279.675
1338.47502	7277.575
1341.97022	7312.775
1345.46305	7363.175
1348.95352	7440.175
1352.44163	7594.275
1355.92738	7817.075
1359.41078	8127.775
1362.89183	8448.975
1366.37053	8456.775
1369.84688	8045.775
1373.32088	7460.375
1376.79254	7046.375
1380.26186	6833.775
1383.72883	6732.275
1387.19347	6622.975
1390.65578	6517.575
1394.11575	6404.375
1397.57339	6329.875
1401.0287	6270.375
1404.48168	6218.175
1407.93234	6104.575
1411.38068	5966.875
1414.82669	5787.575
1418.27039	5615.775
1421.71177	5441.975
1425.15083	5304.375
1428.58758	5218.475
1432.02203	5201.675
1435.45416	5249.775
1438.88399	5299.075
1442.31151	5330.275
1445.73673	5353.775
1449.15965	5385.675
1452.58027	5398.075
1455.9986	5427.375
1459.41463	5452.075
1462.82837	5490.175
1466.23982	5573.575
1469.64898	5626.675
1473.05586	5677.175
1476.46045	5681.975
1479.86276	5691.875
1483.26279	5707.075
1486.66054	5752.075
1490.05602	5824.075
1493.44922	5909.375
1496.84016	6070.575
1500.22882	6269.275
1503.61521	6516.275
1506.99934	6795.175
1510.38121	7011.475
1513.76081	7048.975
1517.13816	6885.675
1520.51324	6636.775
1523.88607	6401.175
1527.25665	6289.175
1530.62498	6250.375
1533.99105	6225.075
1537.35488	6224.775
1540.71647	6156.775
1544.07581	6134.875
1547.4329	6078.675
1550.78776	6059.575
1554.14038	6015.175
1557.49077	6023.475
1560.83892	6043.775
1564.18484	6060.475
1567.52853	6086.475
1570.86999	6125.175
1574.20922	6168.175
1577.54624	6176.475
1580.88103	6138.975
1584.2136	6078.675
1587.54395	6050.075
1590.87208	6092.775
1594.19801	6207.775
1597.52172	6373.575
1600.84321	6398.175
1604.16251	6301.375
1607.47959	6117.175
1610.79447	5907.075
1614.10715	5731.475
1617.41763	5552.775
1620.7259	5456.775
1624.03199	5401.275
1627.33587	5428.375
1630.63757	5524.575
1633.93707	5704.875
1637.23439	5947.775
1640.52951	6325.275
1643.82246	6792.075
1647.11321	7227.075
1650.40179	7457.175
1653.68819	7306.475
1656.97241	6867.075
1660.25446	6373.875
1663.53433	5963.075
1666.81203	5703.075
1670.08756	5539.875
1673.36092	5439.575
1676.63211	5355.375
1679.90115	5309.475
1683.16801	5252.175
1686.43272	5164.175
1689.69527	5087.675
1692.95567	5013.775
1696.2139	4902.375
1699.46999	4834.575
1702.72392	4768.575
1705.97571	4658.175
1709.22535	4536.675
1712.47284	4438.075
1715.71819	4310.575
1718.96139	4211.075
1722.20246	4110.775
1725.44139	4019.275
1728.67818	3979.175
1731.91284	3900.775
1735.14537	3848.775
1738.37576	3812.475
1741.60403	3785.275
1744.83017	3745.775
1748.05418	3732.175
1751.27607	3717.775
1754.49584	3706.875
1757.71349	3700.975
1760.92903	3668.675
1764.14244	3686.475
1767.35375	3668.575
1770.56294	3653.675
1773.77002	3637.275
1776.97499	3619.875
1780.17785	3602.075
1783.37861	3589.575
1786.57727	3587.075
1789.77382	3568.675
1792.96828	3558.575
1796.16064	3565.875
1799.3509	3536.075
1802.53907	3535.875
1805.72514	3512.175
1808.90913	3512.575
1812.09102	3504.475
1815.27083	3486.075
1818.44856	3480.475
1821.6242	3471.675
1824.79776	3471.275
1827.96924	3474.075
1831.13864	3445.875
1834.30597	3435.875
1837.47122	3441.075
1840.6344	3421.675
1843.7955	3430.675
1846.95454	3424.575
1850.11151	3432.375
1853.26642	3423.975
1856.41926	3399.275
1859.57004	3415.075
1862.71876	3408.075
1865.86542	3393.175
1869.01003	3387.975
1872.15258	3385.275
1875.29308	3380.075
1878.43152	3371.175
1881.56792	3362.975
1884.70227	3349.075
1887.83457	3342.075
1890.96482	3337.375
1894.09304	3335.775
1897.21921	3324.275
1900.34335	3320.375
1903.46544	3319.475
1906.58551	3306.875
1909.70353	3296.375
1912.81953	3300.875
1915.93349	3296.675
1919.04543	3291.375
1922.15534	3272.775
1925.26322	3269.775
1928.36908	3256.575
1931.47292	3239.975
1934.57473	3233.975
1937.67453	3223.875
1940.77232	3237.175
1943.86808	3217.975
1946.96184	3191.775
1950.05358	3180.175
1953.14331	3179.175
1956.23103	3183.175
1959.31675	3157.075
1962.40046	3150.775
1965.48217	3143.775
1968.56188	3134.375
1971.63959	3132.175
1974.7153	3109.875
1977.78901	3094.775
1980.86073	3099.275
1983.93046	3079.675
1986.99819	3075.475
1990.06394	3064.875
1993.1277	3058.475
1996.18947	3040.475
1999.24925	3032.675
2002.30706	3011.175
2005.36288	3008.975
2008.41672	3000.275
2011.46859	2985.375
2014.51848	2978.875
2017.56639	2975.075
2020.61233	2970.575
2023.6563	2950.575
2026.6983	2937.375
2029.73833	2941.475
2032.7764	2924.475
2035.8125	2928.875
2038.84664	2914.175
2041.87881	2912.375
2044.90903	2908.375
2047.93729	2902.875
2050.96359	2886.875
2053.98794	2890.475
2057.01034	2891.175
2060.03078	2877.975
2063.04927	2873.375
2066.06582	2868.975
2069.08042	2879.575
2072.09307	2870.975
2075.10378	2864.975
2078.11255	2855.575
2081.11938	2869.975
2084.12426	2860.775
2087.12722	2845.975
2090.12824	2860.375
2093.12732	2857.775
2096.12447	2861.075
2099.11969	2858.075
2102.11299	2841.775
2105.10435	2854.475
2108.09379	2854.175
2111.08131	2851.175
2114.0669	2845.475
2117.05057	2872.075
2120.03233	2863.275
2123.01216	2842.375
2125.99008	2851.375
2128.96609	2846.275
2131.94018	2858.975
2134.91236	2853.375
2137.88263	2851.875
2140.851	2860.175
2143.81746	2862.775
2146.78201	2851.775
2149.74466	2844.775
2152.7054	2845.975
2155.66425	2849.675
2158.6212	2839.375
2161.57625	2838.375
2164.52941	2843.375
2167.48067	2828.875
2170.43004	2825.175
2173.37752	2821.775
2176.32311	2824.575
2179.26681	2824.975
2182.20863	2823.375
2185.14856	2810.475
2188.08661	2807.575
2191.02278	2809.875
2193.95707	2800.775
2196.88948	2803.575
2199.82001	2799.575
2202.74867	2784.075
2205.67545	2785.775
2208.60037	2780.075
2211.52341	2766.075
2214.44458	2770.975
2217.36388	2763.575
2220.28132	2758.275
2223.1969	2745.375
2226.11061	2743.775
2229.02246	2733.375
2231.93245	2739.475
2234.84058	2713.175
2237.74686	2710.275
2240.65128	2713.075
2243.55385	2693.275
2246.45456	2696.875
2249.35343	2697.075
2252.25044	2698.775
2255.14561	2687.775
2258.03893	2697.075
2260.93041	2684.975
2263.82004	2660.175
2266.70783	2669.775
2269.59378	2664.075
2272.4779	2642.575
2275.36017	2639.275
2278.24061	2636.575
2281.11922	2625.975
2283.996	2623.675
2286.87094	2622.575
2289.74405	2609.575
2292.61534	2611.075
2295.4848	2588.575
2298.35243	2593.475
2301.21824	2591.875
2304.08223	2584.475
2306.94439	2586.275
2309.80474	2582.575
2312.66327	2577.475
2315.51999	2571.975
2318.37489	2571.975
2321.22797	2560.075
2324.07925	2559.175
2326.92871	2568.275
2329.77637	2554.275
2332.62222	2539.875
2335.46626	2542.375
2338.3085	2537.575
2341.14893	2537.675
2343.98756	2528.975
2346.8244	2524.875
2349.65943	2513.775
2352.49267	2526.675
2355.32411	2515.675
2358.15376	2522.875
2360.98161	2509.475
2363.80768	2510.075
2366.63195	2509.075
2369.45444	2506.475
2372.27514	2507.975
2375.09405	2500.175
2377.91118	2490.475
2380.72652	2479.575
2383.54009	2468.575
2386.35187	2486.075
2389.16188	2463.475
2391.97011	2466.575
2394.77657	2454.775
2397.58125	2434.475
2400.38416	2434.675
2403.18529	2439.575
2405.98466	2444.675
2408.78226	2439.375
2411.57809	2432.075
2414.37216	2402.275
2417.16446	2405.175
2419.955	2414.275
2422.74378	2409.475
2425.5308	2391.675
2428.31606	2410.075
2431.09956	2396.775
2433.88131	2397.875
2436.6613	2383.975
2439.43954	2390.375
2442.21603	2397.075
2444.99077	2385.475
2447.76377	2369.475
2450.53501	2381.675
2453.30451	2384.475
2456.07226	2370.275
2458.83827	2369.675
2461.60254	2348.375
2464.36507	2363.675
2467.12586	2350.775
2469.88492	2343.575
2472.64224	2337.075
2475.39782	2355.975
2478.15167	2336.975
2480.90379	2338.375
2483.65417	2347.075
2486.40283	2332.075
2489.14976	2332.075
2491.89497	2343.175
2494.63845	2324.675
2497.3802	2326.375
2500.12024	2322.575
2502.85855	2328.575
2505.59514	2317.275
2508.33002	2313.975
2511.06318	2308.575
2513.79462	2318.075
2516.52435	2304.975
2519.25237	2292.075
2521.97867	2303.675
2524.70327	2301.375
2527.42616	2286.775
2530.14734	2280.375
2532.86681	2276.375
2535.58458	2273.975
2538.30065	2271.575
2541.01501	2268.375
2543.72768	2252.675
2546.43864	2252.575
2549.14791	2249.975
2551.85548	2244.375
2554.56136	2242.875
2557.26554	2236.575
2559.96803	2232.475
2562.66883	2244.175
2565.36794	2225.175
2568.06536	2226.775
2570.7611	2227.175
2573.45514	2224.275
2576.14751	2214.275
2578.83819	2210.575
2581.52719	2204.675
2584.21451	2204.375
2586.90015	2196.875
2589.58411	2188.875
2592.2664	2190.175
2594.94701	2187.275
2597.62594	2176.375
2600.30321	2170.675
2602.9788	2168.875
2605.65273	2165.675
2608.32498	2153.475
2610.99557	2151.175
2613.66449	2148.975
2616.33175	2156.375
2618.99734	2146.275
2621.66128	2151.475
2624.32355	2137.175
2626.98416	2145.075
2629.64311	2143.375
2632.30041	2131.675
2634.95605	2129.075
2637.61004	2133.075
2640.26238	2127.175
2642.91306	2118.375
2645.56209	2117.775
2648.20948	2116.975
2650.85521	2107.175
2653.4993	2110.575
2656.14175	2109.375
2658.78255	2110.975
2661.42171	2104.775
2664.05923	2110.775
2666.6951	2103.875
2669.32934	2093.575
2671.96194	2101.675
2674.59291	2100.775
2677.22224	2099.675
2679.84993	2104.475
2682.476	2105.075
2685.10043	2110.275
2687.72324	2092.375
2690.34441	2092.175
2692.96396	2106.775
2695.58188	2105.075
2698.19818	2102.375
2700.81285	2111.175
2703.4259	2108.975
2706.03733	2121.575
2708.64714	2118.975
2711.25533	2102.775
2713.86191	2102.875
2716.46687	2096.575
2719.07021	2115.175
2721.67194	2099.475
2724.27206	2089.075
2726.87057	2103.575
2729.46747	2088.675
2732.06276	2100.575
2734.65644	2092.075
2737.24852	2088.775
2739.83899	2098.675
2742.42786	2088.875
2745.01513	2094.675
2747.60079	2083.575
2750.18486	2084.275
2752.76733	2076.575
2755.3482	2069.975
2757.92747	2061.175
2760.50515	2066.375
2763.08123	2062.975
2765.65573	2049.075
2768.22863	2072.275
2770.79994	2049.975
2773.36967	2051.775
2775.9378	2049.275
2778.50435	2039.375
2781.06932	2044.075
2783.6327	2029.175
2786.1945	2043.775
2788.75471	2032.875
2791.31335	2032.575
2793.87041	2026.875
2796.42589	2012.675
2798.97979	2003.675
2801.53212	2010.775
2804.08288	2007.275
2806.63206	1991.475
2809.17967	2001.275
2811.72571	1988.375
2814.27018	1997.975
2816.81308	1991.175
2819.35442	1983.575
2821.89419	1975.775
2824.43239	1972.675
2826.96904	1981.175
2829.50412	1969.575
2832.03763	1967.375
2834.56959	1980.275
2837.1	1968.675
2839.62884	1974.075
2842.15613	1967.875
2844.68186	1980.575
2847.20604	1977.075
2849.72867	1985.275
2852.24974	1966.175
2854.76927	1980.475
2857.28724	1972.975
2859.80367	1963.875
2862.31855	1965.975
2864.83189	1969.275
2867.34368	1964.875
2869.85393	1975.375
2872.36264	1960.075
2874.8698	1980.275
2877.37543	1974.975
2879.87952	1976.275
2882.38207	1985.975
2884.88308	1983.875
2887.38256	1982.575
2889.88051	1982.775
2892.37692	1982.975
2894.8718	1979.875
2897.36515	1981.075
2899.85698	1991.075
2902.34727	1985.175
2904.83604	1984.875
2907.32328	1986.975
2909.809	1983.075
2912.29319	1986.975
2914.77587	1982.575
2917.25702	1977.175
2919.73665	1975.275
2922.21476	1974.475
2924.69136	1983.275
2927.16644	1987.975
2929.64	1968.675
2932.11205	1986.575
2934.58258	1980.375
2937.05161	1975.475
2939.51912	1973.875
2941.98513	1975.375
2944.44962	1975.775
2946.91261	1965.775
2949.37409	1963.875
2951.83407	1967.375
2954.29254	1965.675
2956.74951	1949.375
2959.20498	1955.175
2961.65895	1941.875
2964.11142	1950.275
2966.56239	1936.575
2969.01186	1951.575
2971.45984	1938.075
2973.90632	1931.375
2976.35131	1924.875
2978.7948	1936.975
2981.23681	1918.075
2983.67732	1922.575
2986.11635	1922.875
2988.55388	1906.275
2990.98993	1909.675
2993.4245	1900.275
2995.85758	1903.575
2998.28917	1899.375
3000.71928	1896.575
3003.14791	1907.975
3005.57506	1902.175
3008.00073	1896.775
3010.42493	1894.475
3012.84764	1899.175
3015.26888	1897.575
3017.68865	1894.475
3020.10694	1892.675
3022.52376	1890.375
3024.9391	1885.175
3027.35298	1878.175
3029.76539	1881.375
3032.17632	1885.775
3034.5858	1890.875
3036.9938	1877.975
3039.40034	1890.175
3041.80542	1891.675
3044.20903	1887.275
3046.61118	1892.975
3049.01187	1877.575
3051.4111	1881.575
3053.80888	1887.575
3056.20519	1884.675
3058.60005	1877.975
3060.99345	1887.275
3063.3854	1885.175
3065.7759	1872.875
3068.16494	1876.075
3070.55254	1887.575
3072.93868	1879.875
3075.32338	1878.275
3077.70662	1885.875
3080.08842	1885.775
3082.46878	1892.575
3084.84769	1882.875
3087.22515	1889.275
3089.60118	1899.075
3091.97576	1898.775
3094.3489	1897.075
3096.72061	1914.375
3099.09087	1919.675
3101.4597	1913.975
3103.82709	1918.975
3106.19305	1912.675
3108.55757	1931.775
3110.92066	1922.975
3113.28232	1930.275
3115.64255	1917.975
3118.00134	1923.275
3120.35871	1925.875
3122.71466	1936.875
3125.06917	1925.875
3127.42226	1934.875
3129.77393	1944.175
3132.12417	1957.275
3134.47299	1951.475
3136.82039	1947.975
3139.16636	1955.675
3141.51092	1964.375
3143.85406	1970.975
3146.19579	1988.775
3148.53609	1979.475
3150.87499	1980.975
3153.21246	1997.275
3155.54853	2001.375
3157.88318	2008.675
3160.21642	2005.375
3162.54826	2025.775
3164.87868	2027.775
3167.2077	2029.775
3169.5353	2050.175
3171.86151	2042.575
3174.18631	2039.875
3176.5097	2038.675
3178.83169	2042.275
3181.15228	2049.375
3183.47147	2055.475
3185.78926	2062.375
3188.10565	2052.475
3190.42065	2062.175
3192.73424	2069.175
3195.04645	2068.175
3197.35725	2072.275
3199.66667	2069.475
3201.97469	2097.875
3204.28132	2094.975
3206.58656	2097.875
3208.8904	2099.875
3211.19287	2106.975
3213.49394	2107.875
3215.79363	2119.775
3218.09193	2118.275
3220.38884	2124.275
3222.68438	2121.175
3224.97853	2114.175
3227.2713	2108.675
3229.56269	2111.375
3231.8527	2110.675
3234.14133	2102.275
3236.42858	2115.575
