Data from AgNPs_FTO_APTES_UA_0.1mM_CRN_500uM_NaF_0.1M_Addition_RamanShift__29__15-08-17-792.txt Node

Date: Mon Dec 20 15:08:17 GMT 2021
User: TCL
Spectrometer: QEP01345
Trigger mode: 4
Integration Time (sec): 7.000000E0
Scans to average: 10
Electric dark correction enabled: true
Nonlinearity correction enabled: false
Boxcar width: 0
XAxis mode: Raman Shifts
Number of Pixels in Spectrum: 1044
>>>>>Begin Spectral Data<<<<<
46.04893	0.675
50.45542	1.075
54.85868	-1.425
59.25871	0.975
63.6555	20.675
68.04907	25.375
72.43941	28.075
76.82654	29.675
81.21044	27.975
85.59113	34.075
89.96862	30.675
94.34289	33.375
98.71396	34.075
103.08183	32.975
107.4465	33.675
111.80798	41.075
116.16626	36.675
120.52136	40.175
124.87327	38.375
129.222	40.275
133.56755	38.475
137.90993	39.675
142.24913	41.675
146.58517	44.775
150.91804	50.375
155.24774	56.175
159.57429	61.175
163.89768	76.375
168.21792	97.675
172.53501	114.975
176.84895	157.175
181.15975	213.475
185.46741	286.275
189.77193	390.975
194.07331	517.775
198.37157	666.675
202.6667	821.775
206.9587	976.475
211.24758	1117.075
215.53334	1263.475
219.81599	1412.775
224.09553	1549.375
228.37195	1715.375
232.64527	1905.675
236.91549	2083.575
241.18261	2260.075
245.44663	2418.475
249.70755	2525.175
253.96539	2635.275
258.22014	2710.175
262.4718	2724.175
266.72039	2752.975
270.96589	2724.675
275.20832	2694.975
279.44768	2651.475
283.68397	2607.475
287.91719	2568.875
292.14735	2559.775
296.37445	2563.175
300.59849	2605.075
304.81948	2663.475
309.03742	2683.675
313.25231	2669.075
317.46415	2562.875
321.67296	2404.075
325.87872	2281.275
330.08145	2206.075
334.28114	2193.475
338.47781	2189.375
342.67145	2219.975
346.86207	2279.075
351.04966	2360.775
355.23424	2479.075
359.4158	2586.375
363.59435	2655.575
367.76989	2699.975
371.94243	2749.875
376.11196	2781.675
380.27849	2819.775
384.44203	2831.975
388.60257	2826.575
392.76012	2837.375
396.91468	2867.475
401.06626	2896.575
405.21485	2932.175
409.36047	2861.575
413.50311	2758.075
417.64277	2610.075
421.77947	2542.075
425.9132	2483.875
430.04396	2473.875
434.17176	2482.075
438.2966	2498.675
442.41849	2530.075
446.53742	2591.275
450.6534	2614.675
454.76644	2649.775
458.87653	2650.075
462.98368	2654.775
467.08789	2649.275
471.18916	2624.775
475.2875	2628.575
479.38291	2648.775
483.4754	2735.175
487.56496	2870.275
491.6516	3005.175
495.73531	3042.075
499.81612	2977.475
503.89401	2868.875
507.96899	2797.475
512.04106	2799.975
516.11023	2866.375
520.1765	2959.675
524.23987	3052.875
528.30034	3085.175
532.35792	3040.275
536.41261	2928.375
540.46441	2764.775
544.51333	2635.775
548.55936	2553.675
552.60252	2528.075
556.64279	2540.975
560.6802	2543.075
564.71473	2574.475
568.7464	2639.775
572.7752	2704.575
576.80114	2698.975
580.82422	2683.975
584.84444	2742.575
588.86181	2811.575
592.87633	2869.475
596.888	2858.475
600.89682	2881.875
604.9028	3071.475
608.90594	3600.775
612.90624	4396.375
616.90371	4578.875
620.89834	4108.975
624.89015	4166.175
628.87913	4582.775
632.86528	5023.775
636.84862	5197.975
640.82913	4961.975
644.80683	4441.475
648.78172	3895.475
652.75379	3502.875
656.72306	3260.975
660.68952	3180.575
664.65319	3064.875
668.61405	2915.675
672.57211	2866.175
676.52738	2863.675
680.47986	2875.475
684.42955	2871.075
688.37646	2838.375
692.32058	2821.575
696.26192	2784.675
700.20048	2766.075
704.13626	2735.275
708.06928	2677.275
711.99952	2649.875
715.927	2649.375
719.85171	2707.575
723.77365	2763.575
727.69284	2750.675
731.60928	2696.575
735.52295	2600.875
739.43388	2560.575
743.34206	2563.875
747.24749	2584.975
751.15017	2615.475
755.05012	2638.875
758.94733	2704.175
762.8418	2878.675
766.73354	3141.275
770.62254	3442.175
774.50882	3605.175
778.39237	3528.475
782.27321	3206.375
786.15132	2896.575
790.02671	2754.575
793.89938	2746.575
797.76935	2816.375
801.6366	2989.375
805.50115	3333.375
809.36299	3685.775
813.22213	3791.975
817.07857	3597.175
820.93231	3246.475
824.78336	2892.775
828.63172	2655.575
832.47738	2526.275
836.32036	2479.475
840.16066	2445.675
843.99827	2427.875
847.8332	2424.875
851.66546	2394.275
855.49504	2392.075
859.32195	2414.875
863.1462	2441.775
866.96777	2527.775
870.78668	2654.675
874.60293	2847.375
878.41652	3084.575
882.22745	3319.875
886.03573	3447.875
889.84136	3408.575
893.64433	3217.475
897.44466	2934.575
901.24235	2673.475
905.0374	2481.075
908.8298	2368.075
912.61957	2297.075
916.40671	2265.075
920.19121	2236.575
923.97308	2231.975
927.75233	2232.675
931.52895	2233.875
935.30295	2210.775
939.07433	2184.075
942.84309	2150.975
946.60924	2127.775
950.37278	2125.875
954.13371	2118.275
957.89203	2126.575
961.64774	2102.675
965.40086	2090.975
969.15137	2086.175
972.89929	2064.675
976.64461	2080.775
980.38733	2066.675
984.12747	2078.575
987.86502	2106.675
991.59999	2147.175
995.33237	2197.575
999.06217	2303.975
1002.78939	2425.175
1006.51404	2576.875
1010.23611	2705.075
1013.95561	2804.475
1017.67255	2828.075
1021.38692	2756.575
1025.09872	2636.175
1028.80796	2487.375
1032.51465	2362.575
1036.21877	2284.975
1039.92035	2229.175
1043.61937	2216.775
1047.31584	2229.275
1051.00976	2250.675
1054.70114	2283.475
1058.38998	2332.075
1062.07627	2411.575
1065.76003	2471.775
1069.44126	2512.475
1073.11995	2515.975
1076.79611	2481.175
1080.46974	2441.175
1084.14085	2409.675
1087.80943	2374.575
1091.47549	2338.475
1095.13903	2282.775
1098.80005	2231.675
1102.45857	2182.475
1106.11456	2205.275
1109.76805	2255.875
1113.41903	2361.275
1117.06751	2521.075
1120.71348	2778.275
1124.35696	3148.475
1127.99793	3596.675
1131.63641	4008.075
1135.2724	4234.675
1138.90589	4230.575
1142.5369	4021.375
1146.16542	3654.875
1149.79145	3239.175
1153.415	2876.275
1157.03607	2611.275
1160.65467	2471.875
1164.27079	2409.075
1167.88443	2422.075
1171.49561	2523.875
1175.10432	2715.175
1178.71056	2995.275
1182.31434	3306.375
1185.91565	3482.975
1189.51451	3608.875
1193.11091	3787.075
1196.70485	3987.075
1200.29634	4195.675
1203.88538	4246.675
1207.47197	4094.075
1211.05612	3783.875
1214.63782	3419.475
1218.21708	3094.775
1221.79391	2832.075
1225.36829	2640.575
1228.94024	2502.275
1232.50976	2430.675
1236.07685	2391.575
1239.6415	2400.975
1243.20374	2401.075
1246.76355	2414.975
1250.32093	2442.375
1253.8759	2452.875
1257.42845	2491.675
1260.97859	2506.775
1264.52631	2535.375
1268.07163	2563.675
1271.61453	2568.675
1275.15503	2546.375
1278.69312	2535.675
1282.22882	2518.675
1285.76211	2552.475
1289.29301	2601.375
1292.82151	2676.175
1296.34761	2772.575
1299.87133	2915.075
1303.39266	3144.775
1306.9116	3480.475
1310.42815	3773.675
1313.94233	3956.075
1317.45412	3914.175
1320.96354	3760.875
1324.47058	3627.575
1327.97525	3502.375
1331.47754	3473.775
1334.97747	3496.275
1338.47502	3582.675
1341.97022	3726.675
1345.46305	3897.975
1348.95352	4131.575
1352.44163	4429.475
1355.92738	4767.575
1359.41078	5234.575
1362.89183	5535.875
1366.37053	5356.375
1369.84688	4821.675
1373.32088	4281.275
1376.79254	3883.075
1380.26186	3631.775
1383.72883	3453.775
1387.19347	3336.875
1390.65578	3239.575
1394.11575	3147.875
1397.57339	3078.275
1401.0287	3031.975
1404.48168	2974.775
1407.93234	2889.575
1411.38068	2779.275
1414.82669	2681.375
1418.27039	2569.075
1421.71177	2489.675
1425.15083	2382.875
1428.58758	2315.075
1432.02203	2278.575
1435.45416	2261.875
1438.88399	2236.375
1442.31151	2230.675
1445.73673	2231.375
1449.15965	2232.675
1452.58027	2221.775
1455.9986	2206.175
1459.41463	2223.775
1462.82837	2225.175
1466.23982	2255.275
1469.64898	2286.475
1473.05586	2335.175
1476.46045	2350.175
1479.86276	2377.975
1483.26279	2439.675
1486.66054	2528.275
1490.05602	2635.175
1493.44922	2787.075
1496.84016	2973.075
1500.22882	3221.575
1503.61521	3567.875
1506.99934	3924.075
1510.38121	4171.275
1513.76081	4177.175
1517.13816	3905.375
1520.51324	3482.075
1523.88607	3136.275
1527.25665	2911.975
1530.62498	2834.275
1533.99105	2830.175
1537.35488	2866.275
1540.71647	2913.075
1544.07581	2969.975
1547.4329	3035.475
1550.78776	3082.675
1554.14038	3098.975
1557.49077	3110.075
1560.83892	3109.475
1564.18484	3152.175
1567.52853	3189.275
1570.86999	3260.575
1574.20922	3310.375
1577.54624	3317.175
1580.88103	3246.075
1584.2136	3109.475
1587.54395	3032.175
1590.87208	3029.275
1594.19801	3106.075
1597.52172	3213.475
1600.84321	3267.175
1604.16251	3268.375
1607.47959	3212.975
1610.79447	3140.575
1614.10715	3057.775
1617.41763	3017.175
1620.7259	2959.175
1624.03199	2960.275
1627.33587	2969.975
1630.63757	3004.975
1633.93707	3085.975
1637.23439	3225.075
1640.52951	3462.675
1643.82246	3762.875
1647.11321	4117.975
1650.40179	4384.175
1653.68819	4416.975
1656.97241	4153.475
1660.25446	3785.175
1663.53433	3453.075
1666.81203	3183.775
1670.08756	2965.675
1673.36092	2812.675
1676.63211	2662.875
1679.90115	2563.175
1683.16801	2484.375
1686.43272	2396.775
1689.69527	2316.175
1692.95567	2259.975
1696.2139	2212.075
1699.46999	2147.675
1702.72392	2075.075
1705.97571	1996.375
1709.22535	1940.975
1712.47284	1880.375
1715.71819	1853.775
1718.96139	1822.075
1722.20246	1787.175
1725.44139	1757.475
1728.67818	1726.275
1731.91284	1693.475
1735.14537	1669.975
1738.37576	1651.075
1741.60403	1631.075
1744.83017	1625.975
1748.05418	1605.375
1751.27607	1600.275
1754.49584	1578.275
1757.71349	1587.475
1760.92903	1558.375
1764.14244	1554.775
1767.35375	1519.175
1770.56294	1502.075
1773.77002	1491.675
1776.97499	1461.275
1780.17785	1442.275
1783.37861	1416.975
1786.57727	1413.175
1789.77382	1397.775
1792.96828	1396.675
1796.16064	1381.975
1799.3509	1377.575
1802.53907	1364.775
1805.72514	1348.075
1808.90913	1345.475
1812.09102	1340.675
1815.27083	1330.075
1818.44856	1339.375
1821.6242	1325.375
1824.79776	1321.575
1827.96924	1313.175
1831.13864	1310.875
1834.30597	1303.775
1837.47122	1312.775
1840.6344	1301.375
1843.7955	1300.975
1846.95454	1308.375
1850.11151	1294.675
1853.26642	1286.175
1856.41926	1296.475
1859.57004	1283.675
1862.71876	1285.075
1865.86542	1278.575
1869.01003	1275.475
1872.15258	1276.675
1875.29308	1270.475
1878.43152	1264.575
1881.56792	1262.375
1884.70227	1257.975
1887.83457	1254.275
1890.96482	1242.075
1894.09304	1248.675
1897.21921	1246.575
1900.34335	1243.875
1903.46544	1237.575
1906.58551	1233.675
1909.70353	1232.675
1912.81953	1225.775
1915.93349	1229.475
1919.04543	1227.375
1922.15534	1222.275
1925.26322	1207.375
1928.36908	1211.175
1931.47292	1212.675
1934.57473	1207.975
1937.67453	1195.875
1940.77232	1190.275
1943.86808	1193.075
1946.96184	1189.375
1950.05358	1181.175
1953.14331	1181.675
1956.23103	1168.875
1959.31675	1167.675
1962.40046	1170.175
1965.48217	1168.275
1968.56188	1158.875
1971.63959	1153.175
1974.7153	1146.275
1977.78901	1142.175
1980.86073	1133.875
1983.93046	1127.575
1986.99819	1129.875
1990.06394	1116.175
1993.1277	1125.475
1996.18947	1121.975
1999.24925	1114.575
2002.30706	1117.375
2005.36288	1108.875
2008.41672	1107.475
2011.46859	1103.275
2014.51848	1094.775
2017.56639	1095.875
2020.61233	1093.375
2023.6563	1091.475
2026.6983	1080.775
2029.73833	1078.875
2032.7764	1085.975
2035.8125	1075.275
2038.84664	1071.975
2041.87881	1081.675
2044.90903	1069.275
2047.93729	1067.575
2050.96359	1065.275
2053.98794	1066.075
2057.01034	1063.675
2060.03078	1062.675
2063.04927	1061.975
2066.06582	1052.575
2069.08042	1056.375
2072.09307	1051.175
2075.10378	1053.675
2078.11255	1056.175
2081.11938	1047.975
2084.12426	1043.575
2087.12722	1051.275
2090.12824	1054.375
2093.12732	1039.275
2096.12447	1044.275
2099.11969	1037.175
2102.11299	1037.275
2105.10435	1034.575
2108.09379	1043.475
2111.08131	1038.275
2114.0669	1039.175
2117.05057	1046.375
2120.03233	1034.375
2123.01216	1041.075
2125.99008	1040.075
2128.96609	1043.775
2131.94018	1043.675
2134.91236	1053.175
2137.88263	1037.675
2140.851	1042.475
2143.81746	1050.375
2146.78201	1045.875
2149.74466	1039.775
2152.7054	1041.175
2155.66425	1035.875
2158.6212	1038.375
2161.57625	1031.575
2164.52941	1039.175
2167.48067	1026.775
2170.43004	1032.475
2173.37752	1028.875
2176.32311	1029.675
2179.26681	1026.475
2182.20863	1030.775
2185.14856	1022.975
2188.08661	1020.475
2191.02278	1016.575
2193.95707	1022.975
2196.88948	1016.375
2199.82001	1015.575
2202.74867	1017.075
2205.67545	1009.675
2208.60037	1007.475
2211.52341	1002.975
2214.44458	1004.375
2217.36388	995.975
2220.28132	992.175
2223.1969	988.075
2226.11061	985.675
2229.02246	991.775
2231.93245	985.475
2234.84058	983.275
2237.74686	978.975
2240.65128	981.575
2243.55385	976.975
2246.45456	973.175
2249.35343	979.475
2252.25044	971.775
2255.14561	970.275
2258.03893	978.375
2260.93041	983.175
2263.82004	967.875
2266.70783	963.175
2269.59378	963.275
2272.4779	964.075
2275.36017	952.975
2278.24061	952.975
2281.11922	950.775
2283.996	958.475
2286.87094	957.375
2289.74405	951.875
2292.61534	935.175
2295.4848	938.575
2298.35243	940.575
2301.21824	935.675
2304.08223	929.275
2306.94439	927.975
2309.80474	928.675
2312.66327	924.175
2315.51999	932.675
2318.37489	927.575
2321.22797	918.275
2324.07925	920.475
2326.92871	917.775
2329.77637	921.575
2332.62222	907.375
2335.46626	911.375
2338.3085	910.975
2341.14893	911.275
2343.98756	913.375
2346.8244	906.775
2349.65943	907.575
2352.49267	908.675
2355.32411	908.675
2358.15376	912.075
2360.98161	904.375
2363.80768	905.375
2366.63195	914.975
2369.45444	908.075
2372.27514	905.075
2375.09405	922.075
2377.91118	915.375
2380.72652	901.875
2383.54009	904.575
2386.35187	903.875
2389.16188	903.275
2391.97011	892.775
2394.77657	895.075
2397.58125	894.875
2400.38416	900.375
2403.18529	891.775
2405.98466	893.175
2408.78226	882.075
2411.57809	881.275
2414.37216	872.775
2417.16446	881.975
2419.955	869.475
2422.74378	870.775
2425.5308	870.875
2428.31606	863.575
2431.09956	857.275
2433.88131	856.975
2436.6613	860.475
2439.43954	851.375
2442.21603	853.475
2444.99077	854.175
2447.76377	852.675
2450.53501	849.375
2453.30451	853.975
2456.07226	851.475
2458.83827	851.175
2461.60254	847.275
2464.36507	840.575
2467.12586	847.275
2469.88492	848.875
2472.64224	837.875
2475.39782	846.375
2478.15167	849.675
2480.90379	848.775
2483.65417	848.175
2486.40283	836.275
2489.14976	847.975
2491.89497	845.275
2494.63845	853.975
2497.3802	847.075
2500.12024	841.675
2502.85855	835.175
2505.59514	833.775
2508.33002	832.875
2511.06318	830.575
2513.79462	825.175
2516.52435	825.075
2519.25237	823.575
2521.97867	819.375
2524.70327	820.375
2527.42616	813.975
2530.14734	816.575
2532.86681	809.075
2535.58458	809.675
2538.30065	806.075
2541.01501	810.775
2543.72768	806.775
2546.43864	799.075
2549.14791	802.875
2551.85548	796.475
2554.56136	790.575
2557.26554	786.075
2559.96803	787.575
2562.66883	798.775
2565.36794	786.175
2568.06536	792.075
2570.7611	784.775
2573.45514	785.175
2576.14751	788.375
2578.83819	778.675
2581.52719	783.875
2584.21451	774.475
2586.90015	777.975
2589.58411	771.675
2592.2664	769.475
2594.94701	768.075
2597.62594	773.375
2600.30321	761.075
2602.9788	763.975
2605.65273	763.375
2608.32498	763.575
2610.99557	758.575
2613.66449	763.775
2616.33175	761.775
2618.99734	758.275
2621.66128	759.475
2624.32355	753.975
2626.98416	756.975
2629.64311	757.475
2632.30041	754.275
2634.95605	752.475
2637.61004	751.275
2640.26238	746.875
2642.91306	745.675
2645.56209	744.975
2648.20948	746.475
2650.85521	743.975
2653.4993	754.075
2656.14175	754.575
2658.78255	750.175
2661.42171	745.575
2664.05923	746.375
2666.6951	746.975
2669.32934	745.575
2671.96194	743.275
2674.59291	746.975
2677.22224	751.875
2679.84993	748.375
2682.476	749.575
2685.10043	745.275
2687.72324	748.875
2690.34441	751.275
2692.96396	744.675
2695.58188	750.875
2698.19818	745.475
2700.81285	753.175
2703.4259	776.075
2706.03733	794.375
2708.64714	775.775
2711.25533	772.375
2713.86191	765.575
2716.46687	767.175
2719.07021	768.375
2721.67194	760.375
2724.27206	757.875
2726.87057	761.275
2729.46747	758.875
2732.06276	759.475
2734.65644	761.375
2737.24852	754.575
2739.83899	755.275
2742.42786	757.475
2745.01513	750.675
2747.60079	751.575
2750.18486	745.375
2752.76733	746.675
2755.3482	748.375
2757.92747	746.675
2760.50515	745.675
2763.08123	743.575
2765.65573	746.075
2768.22863	742.875
2770.79994	740.675
2773.36967	744.375
2775.9378	743.475
2778.50435	735.775
2781.06932	740.575
2783.6327	739.575
2786.1945	742.175
2788.75471	741.675
2791.31335	740.975
2793.87041	742.075
2796.42589	738.175
2798.97979	743.575
2801.53212	738.275
2804.08288	743.675
2806.63206	741.075
2809.17967	739.375
2811.72571	741.875
2814.27018	738.775
2816.81308	734.675
2819.35442	739.375
2821.89419	741.975
2824.43239	738.575
2826.96904	746.075
2829.50412	741.975
2832.03763	746.575
2834.56959	747.675
2837.1	750.675
2839.62884	745.475
2842.15613	749.575
2844.68186	759.375
2847.20604	760.475
2849.72867	765.675
2852.24974	764.775
2854.76927	771.175
2857.28724	780.175
2859.80367	775.975
2862.31855	765.975
2864.83189	773.975
2867.34368	760.975
2869.85393	765.075
2872.36264	765.775
2874.8698	784.775
2877.37543	775.575
2879.87952	778.475
2882.38207	778.275
2884.88308	778.475
2887.38256	779.775
2889.88051	781.775
2892.37692	785.275
2894.8718	786.075
2897.36515	791.975
2899.85698	800.175
2902.34727	795.475
2904.83604	798.175
2907.32328	805.475
2909.809	805.175
2912.29319	805.375
2914.77587	807.575
2917.25702	805.375
2919.73665	814.375
2922.21476	815.975
2924.69136	805.375
2927.16644	808.675
2929.64	811.075
2932.11205	813.175
2934.58258	808.775
2937.05161	804.875
2939.51912	815.675
2941.98513	807.975
2944.44962	808.975
2946.91261	800.975
2949.37409	800.575
2951.83407	803.375
2954.29254	801.875
2956.74951	793.875
2959.20498	791.975
2961.65895	779.475
2964.11142	779.575
2966.56239	779.575
2969.01186	779.675
2971.45984	775.075
2973.90632	762.275
2976.35131	766.375
2978.7948	772.175
2981.23681	765.275
2983.67732	763.475
2986.11635	756.675
2988.55388	763.075
2990.98993	769.175
2993.4245	762.875
2995.85758	767.375
2998.28917	768.775
3000.71928	763.475
3003.14791	765.275
3005.57506	769.275
3008.00073	772.075
3010.42493	772.175
3012.84764	773.875
3015.26888	772.675
3017.68865	779.975
3020.10694	780.275
3022.52376	784.575
3024.9391	782.775
3027.35298	786.675
3029.76539	775.875
3032.17632	781.375
3034.5858	785.875
3036.9938	792.275
3039.40034	792.175
3041.80542	796.475
3044.20903	789.575
3046.61118	797.875
3049.01187	803.375
3051.4111	804.775
3053.80888	804.775
3056.20519	807.075
3058.60005	805.375
3060.99345	821.875
3063.3854	810.675
3065.7759	818.375
3068.16494	819.175
3070.55254	823.075
3072.93868	824.675
3075.32338	824.875
3077.70662	835.375
3080.08842	836.275
3082.46878	838.275
3084.84769	852.775
3087.22515	852.775
3089.60118	853.475
3091.97576	869.875
3094.3489	864.175
3096.72061	867.075
3099.09087	883.075
3101.4597	880.575
3103.82709	891.575
3106.19305	891.775
3108.55757	911.375
3110.92066	902.775
3113.28232	898.175
3115.64255	920.375
3118.00134	915.475
3120.35871	926.775
3122.71466	935.375
3125.06917	939.575
3127.42226	940.675
3129.77393	954.475
3132.12417	959.275
3134.47299	968.875
3136.82039	977.975
3139.16636	985.375
3141.51092	987.775
3143.85406	996.475
3146.19579	1011.375
3148.53609	1016.475
3150.87499	1019.575
3153.21246	1033.675
3155.54853	1043.575
3157.88318	1054.375
3160.21642	1054.075
3162.54826	1063.475
3164.87868	1073.475
3167.2077	1078.675
3169.5353	1090.675
3171.86151	1091.375
3174.18631	1105.975
3176.5097	1112.475
3178.83169	1112.175
3181.15228	1126.475
3183.47147	1128.775
3185.78926	1140.875
3188.10565	1136.475
3190.42065	1151.775
3192.73424	1159.075
3195.04645	1163.575
3197.35725	1173.875
3199.66667	1173.975
3201.97469	1182.475
3204.28132	1191.375
3206.58656	1198.175
3208.8904	1206.375
3211.19287	1210.175
3213.49394	1220.575
3215.79363	1223.475
3218.09193	1223.675
3220.38884	1240.875
3222.68438	1245.875
3224.97853	1242.575
3227.2713	1246.175
3229.56269	1239.275
3231.8527	1245.275
3234.14133	1243.775
3236.42858	1242.775
3238.71446	1241.975
3240.99896	1249.075
3243.28209	1250.975
3245.56384	1250.075
3247.84423	1251.275
3250.12324	1252.275
3252.40088	1265.775
3254.67715	1256.975
3256.95205	1252.475
3259.22558	1259.975
3261.49775	1257.675
3263.76855	1265.175
3266.03799	1261.975
3268.30606	1264.275
3270.57277	1263.275
3272.83812	1263.675
3275.10211	1260.275
3277.36474	1264.475
