Data from AgNPs_FTO_APTES_UA_0.1mM_CRN_0uM_NaF_0.1M_Addition_RamanShift__12__10-16-37-462.txt Node

Date: Mon Dec 20 10:16:37 GMT 2021
User: TCL
Spectrometer: QEP01345
Trigger mode: 4
Integration Time (sec): 7.000000E0
Scans to average: 10
Electric dark correction enabled: true
Nonlinearity correction enabled: false
Boxcar width: 0
XAxis mode: Raman Shifts
Number of Pixels in Spectrum: 1044
>>>>>Begin Spectral Data<<<<<
46.04893	0.2125
50.45542	-0.9875
54.85868	-0.0875
59.25871	1.0125
63.6555	21.9125
68.04907	23.9125
72.43941	28.9125
76.82654	29.0125
81.21044	28.0125
85.59113	34.8125
89.96862	31.7125
94.34289	31.2125
98.71396	35.4125
103.08183	31.3125
107.4465	31.7125
111.80798	35.9125
116.16626	33.7125
120.52136	38.7125
124.87327	37.4125
129.222	37.9125
133.56755	36.4125
137.90993	39.5125
142.24913	42.9125
146.58517	43.2125
150.91804	48.3125
155.24774	52.5125
159.57429	57.6125
163.89768	71.9125
168.21792	94.3125
172.53501	115.8125
176.84895	151.2125
181.15975	205.6125
185.46741	280.5125
189.77193	394.6125
194.07331	522.0125
198.37157	688.2125
202.6667	865.9125
206.9587	1038.8125
211.24758	1220.6125
215.53334	1411.0125
219.81599	1612.0125
224.09553	1819.5125
228.37195	2052.6125
232.64527	2325.8125
236.91549	2593.6125
241.18261	2844.6125
245.44663	3074.1125
249.70755	3285.4125
253.96539	3434.0125
258.22014	3521.0125
262.4718	3555.4125
266.72039	3532.0125
270.96589	3469.8125
275.20832	3356.6125
279.44768	3239.8125
283.68397	3085.7125
287.91719	2938.6125
292.14735	2817.8125
296.37445	2702.5125
300.59849	2626.1125
304.81948	2551.4125
309.03742	2501.1125
313.25231	2442.2125
317.46415	2385.8125
321.67296	2325.7125
325.87872	2283.9125
330.08145	2268.4125
334.28114	2235.3125
338.47781	2234.0125
342.67145	2236.2125
346.86207	2246.0125
351.04966	2261.4125
355.23424	2281.2125
359.4158	2306.5125
363.59435	2315.6125
367.76989	2329.7125
371.94243	2337.5125
376.11196	2353.2125
380.27849	2360.5125
384.44203	2358.0125
388.60257	2366.3125
392.76012	2387.3125
396.91468	2413.4125
401.06626	2427.6125
405.21485	2452.1125
409.36047	2444.7125
413.50311	2442.3125
417.64277	2398.2125
421.77947	2391.7125
425.9132	2393.1125
430.04396	2400.0125
434.17176	2410.3125
438.2966	2422.3125
442.41849	2438.7125
446.53742	2453.2125
450.6534	2485.9125
454.76644	2493.6125
458.87653	2510.4125
462.98368	2513.1125
467.08789	2501.1125
471.18916	2517.3125
475.2875	2515.6125
479.38291	2530.4125
483.4754	2540.9125
487.56496	2560.9125
491.6516	2577.1125
495.73531	2617.6125
499.81612	2619.6125
503.89401	2620.9125
507.96899	2614.7125
512.04106	2609.6125
516.11023	2608.6125
520.1765	2581.0125
524.23987	2575.0125
528.30034	2547.9125
532.35792	2539.1125
536.41261	2520.6125
540.46441	2503.7125
544.51333	2494.2125
548.55936	2485.8125
552.60252	2503.6125
556.64279	2514.1125
560.6802	2528.2125
564.71473	2513.3125
568.7464	2523.0125
572.7752	2538.9125
576.80114	2517.7125
580.82422	2500.1125
584.84444	2522.5125
588.86181	2532.2125
592.87633	2545.0125
596.888	2548.1125
600.89682	2562.8125
604.9028	2619.2125
608.90594	2754.3125
612.90624	2973.3125
616.90371	2998.9125
620.89834	2804.0125
624.89015	2718.2125
628.87913	2728.5125
632.86528	2797.3125
636.84862	2859.4125
640.82913	2863.7125
644.80683	2824.4125
648.78172	2782.0125
652.75379	2745.5125
656.72306	2758.3125
660.68952	2787.3125
664.65319	2811.8125
668.61405	2860.0125
672.57211	2912.4125
676.52738	2961.2125
680.47986	2998.6125
684.42955	3042.1125
688.37646	3088.6125
692.32058	3098.4125
696.26192	3029.6125
700.20048	2972.9125
704.13626	2940.0125
708.06928	2894.0125
711.99952	2845.9125
715.927	2777.8125
719.85171	2720.7125
723.77365	2678.6125
727.69284	2652.1125
731.60928	2640.3125
735.52295	2613.0125
739.43388	2613.8125
743.34206	2602.2125
747.24749	2617.4125
751.15017	2601.9125
755.05012	2636.3125
758.94733	2645.2125
762.8418	2697.1125
766.73354	2756.4125
770.62254	2849.3125
774.50882	2912.3125
778.39237	2887.0125
782.27321	2799.6125
786.15132	2711.7125
790.02671	2676.4125
793.89938	2665.4125
797.76935	2691.7125
801.6366	2704.0125
805.50115	2732.2125
809.36299	2768.2125
813.22213	2782.4125
817.07857	2740.5125
820.93231	2696.4125
824.78336	2635.8125
828.63172	2596.8125
832.47738	2562.9125
836.32036	2556.7125
840.16066	2538.3125
843.99827	2548.6125
847.8332	2534.0125
851.66546	2520.1125
855.49504	2509.4125
859.32195	2500.5125
863.1462	2495.7125
866.96777	2498.4125
870.78668	2500.2125
874.60293	2511.8125
878.41652	2525.8125
882.22745	2536.6125
886.03573	2567.8125
889.84136	2591.6125
893.64433	2607.5125
897.44466	2630.8125
901.24235	2628.9125
905.0374	2647.2125
908.8298	2662.7125
912.61957	2714.5125
916.40671	2764.4125
920.19121	2823.2125
923.97308	2892.2125
927.75233	2915.4125
931.52895	2921.2125
935.30295	2908.5125
939.07433	2854.2125
942.84309	2793.2125
946.60924	2774.2125
950.37278	2750.0125
954.13371	2733.0125
957.89203	2693.4125
961.64774	2643.0125
965.40086	2613.9125
969.15137	2600.1125
972.89929	2574.2125
976.64461	2555.3125
980.38733	2539.1125
984.12747	2522.3125
987.86502	2514.6125
991.59999	2525.3125
995.33237	2517.3125
999.06217	2531.1125
1002.78939	2554.9125
1006.51404	2548.3125
1010.23611	2584.1125
1013.95561	2604.0125
1017.67255	2624.1125
1021.38692	2627.3125
1025.09872	2625.0125
1028.80796	2615.9125
1032.51465	2597.2125
1036.21877	2586.0125
1039.92035	2574.5125
1043.61937	2566.1125
1047.31584	2555.1125
1051.00976	2551.1125
1054.70114	2539.5125
1058.38998	2523.3125
1062.07627	2516.5125
1065.76003	2495.5125
1069.44126	2488.9125
1073.11995	2470.5125
1076.79611	2463.8125
1080.46974	2452.4125
1084.14085	2453.8125
1087.80943	2430.0125
1091.47549	2431.8125
1095.13903	2413.2125
1098.80005	2402.3125
1102.45857	2385.4125
1106.11456	2378.2125
1109.76805	2375.7125
1113.41903	2413.1125
1117.06751	2459.1125
1120.71348	2512.7125
1124.35696	2593.3125
1127.99793	2684.7125
1131.63641	2762.7125
1135.2724	2794.9125
1138.90589	2783.5125
1142.5369	2727.0125
1146.16542	2684.6125
1149.79145	2601.8125
1153.415	2546.7125
1157.03607	2507.3125
1160.65467	2473.4125
1164.27079	2457.5125
1167.88443	2438.7125
1171.49561	2468.0125
1175.10432	2516.0125
1178.71056	2580.2125
1182.31434	2650.4125
1185.91565	2659.3125
1189.51451	2651.4125
1193.11091	2625.4125
1196.70485	2585.8125
1200.29634	2582.9125
1203.88538	2587.1125
1207.47197	2566.3125
1211.05612	2546.2125
1214.63782	2528.0125
1218.21708	2521.5125
1221.79391	2515.2125
1225.36829	2511.7125
1228.94024	2515.4125
1232.50976	2519.1125
1236.07685	2515.3125
1239.6415	2523.3125
1243.20374	2549.4125
1246.76355	2541.1125
1250.32093	2558.9125
1253.8759	2582.1125
1257.42845	2606.4125
1260.97859	2621.1125
1264.52631	2641.4125
1268.07163	2664.7125
1271.61453	2675.9125
1275.15503	2694.8125
1278.69312	2698.9125
1282.22882	2700.0125
1285.76211	2730.5125
1289.29301	2768.6125
1292.82151	2807.1125
1296.34761	2881.4125
1299.87133	2931.3125
1303.39266	3009.0125
1306.9116	3115.5125
1310.42815	3198.6125
1313.94233	3262.8125
1317.45412	3246.2125
1320.96354	3199.1125
1324.47058	3156.4125
1327.97525	3109.0125
1331.47754	3095.6125
1334.97747	3113.5125
1338.47502	3141.5125
1341.97022	3202.9125
1345.46305	3276.1125
1348.95352	3403.3125
1352.44163	3552.8125
1355.92738	3723.6125
1359.41078	3925.6125
1362.89183	4139.5125
1366.37053	4173.0125
1369.84688	3981.1125
1373.32088	3779.9125
1376.79254	3619.7125
1380.26186	3518.2125
1383.72883	3458.9125
1387.19347	3422.7125
1390.65578	3365.2125
1394.11575	3342.0125
1397.57339	3282.8125
1401.0287	3238.3125
1404.48168	3209.8125
1407.93234	3158.1125
1411.38068	3104.0125
1414.82669	3060.3125
1418.27039	3037.8125
1421.71177	3001.6125
1425.15083	2934.9125
1428.58758	2889.1125
1432.02203	2824.8125
1435.45416	2787.9125
1438.88399	2751.0125
1442.31151	2730.4125
1445.73673	2699.9125
1449.15965	2682.6125
1452.58027	2660.0125
1455.9986	2645.1125
1459.41463	2634.5125
1462.82837	2644.7125
1466.23982	2653.5125
1469.64898	2681.0125
1473.05586	2705.3125
1476.46045	2717.9125
1479.86276	2732.8125
1483.26279	2747.9125
1486.66054	2769.3125
1490.05602	2780.9125
1493.44922	2815.2125
1496.84016	2831.0125
1500.22882	2911.1125
1503.61521	3015.4125
1506.99934	3138.0125
1510.38121	3246.5125
1513.76081	3266.1125
1517.13816	3188.3125
1520.51324	3057.4125
1523.88607	2919.1125
1527.25665	2855.6125
1530.62498	2804.4125
1533.99105	2792.4125
1537.35488	2780.7125
1540.71647	2778.3125
1544.07581	2805.6125
1547.4329	2814.3125
1550.78776	2834.0125
1554.14038	2852.5125
1557.49077	2873.3125
1560.83892	2874.6125
1564.18484	2879.4125
1567.52853	2874.6125
1570.86999	2896.9125
1574.20922	2877.2125
1577.54624	2883.3125
1580.88103	2821.8125
1584.2136	2765.2125
1587.54395	2713.4125
1590.87208	2692.6125
1594.19801	2686.9125
1597.52172	2692.4125
1600.84321	2686.9125
1604.16251	2676.7125
1607.47959	2661.0125
1610.79447	2653.7125
1614.10715	2632.4125
1617.41763	2613.8125
1620.7259	2599.8125
1624.03199	2583.2125
1627.33587	2588.5125
1630.63757	2583.7125
1633.93707	2587.4125
1637.23439	2594.8125
1640.52951	2618.8125
1643.82246	2644.6125
1647.11321	2702.4125
1650.40179	2758.1125
1653.68819	2759.9125
1656.97241	2684.6125
1660.25446	2590.7125
1663.53433	2507.6125
1666.81203	2460.2125
1670.08756	2422.2125
1673.36092	2402.8125
1676.63211	2377.3125
1679.90115	2362.1125
1683.16801	2331.0125
1686.43272	2285.0125
1689.69527	2251.8125
1692.95567	2200.2125
1696.2139	2160.7125
1699.46999	2130.2125
1702.72392	2087.9125
1705.97571	2064.3125
1709.22535	2041.0125
1712.47284	2031.0125
1715.71819	1993.1125
1718.96139	1968.9125
1722.20246	1953.9125
1725.44139	1915.5125
1728.67818	1891.7125
1731.91284	1855.8125
1735.14537	1820.4125
1738.37576	1801.9125
1741.60403	1768.5125
1744.83017	1738.1125
1748.05418	1721.6125
1751.27607	1704.1125
1754.49584	1688.5125
1757.71349	1675.6125
1760.92903	1667.1125
1764.14244	1654.0125
1767.35375	1645.8125
1770.56294	1644.3125
1773.77002	1639.8125
1776.97499	1638.3125
1780.17785	1633.9125
1783.37861	1618.3125
1786.57727	1614.6125
1789.77382	1587.6125
1792.96828	1595.9125
1796.16064	1581.4125
1799.3509	1576.3125
1802.53907	1574.8125
1805.72514	1559.0125
1808.90913	1552.8125
1812.09102	1552.7125
1815.27083	1541.5125
1818.44856	1531.4125
1821.6242	1518.9125
1824.79776	1523.7125
1827.96924	1525.8125
1831.13864	1508.3125
1834.30597	1514.3125
1837.47122	1508.1125
1840.6344	1506.3125
1843.7955	1510.6125
1846.95454	1498.3125
1850.11151	1503.2125
1853.26642	1494.9125
1856.41926	1489.9125
1859.57004	1491.8125
1862.71876	1481.0125
1865.86542	1485.5125
1869.01003	1476.7125
1872.15258	1481.2125
1875.29308	1474.6125
1878.43152	1475.7125
1881.56792	1471.7125
1884.70227	1467.4125
1887.83457	1460.3125
1890.96482	1466.1125
1894.09304	1463.5125
1897.21921	1454.9125
1900.34335	1457.7125
1903.46544	1452.0125
1906.58551	1453.3125
1909.70353	1457.0125
1912.81953	1441.4125
1915.93349	1444.5125
1919.04543	1433.6125
1922.15534	1426.3125
1925.26322	1436.4125
1928.36908	1428.8125
1931.47292	1428.8125
1934.57473	1417.1125
1937.67453	1409.7125
1940.77232	1404.8125
1943.86808	1406.9125
1946.96184	1399.7125
1950.05358	1397.4125
1953.14331	1393.9125
1956.23103	1399.8125
1959.31675	1383.0125
1962.40046	1387.4125
1965.48217	1371.1125
1968.56188	1369.3125
1971.63959	1364.2125
1974.7153	1364.3125
1977.78901	1354.0125
1980.86073	1351.2125
1983.93046	1356.1125
1986.99819	1352.4125
1990.06394	1335.8125
1993.1277	1337.8125
1996.18947	1338.8125
1999.24925	1332.7125
2002.30706	1321.7125
2005.36288	1316.3125
2008.41672	1313.5125
2011.46859	1308.8125
2014.51848	1301.9125
2017.56639	1296.1125
2020.61233	1292.3125
2023.6563	1292.4125
2026.6983	1287.8125
2029.73833	1285.4125
2032.7764	1280.9125
2035.8125	1273.9125
2038.84664	1279.2125
2041.87881	1279.1125
2044.90903	1274.7125
2047.93729	1273.3125
2050.96359	1264.1125
2053.98794	1271.2125
2057.01034	1265.8125
2060.03078	1277.1125
2063.04927	1268.0125
2066.06582	1275.4125
2069.08042	1275.6125
2072.09307	1277.8125
2075.10378	1287.5125
2078.11255	1282.7125
2081.11938	1289.7125
2084.12426	1281.8125
2087.12722	1289.3125
2090.12824	1284.9125
2093.12732	1288.8125
2096.12447	1288.6125
2099.11969	1294.0125
2102.11299	1290.3125
2105.10435	1290.0125
2108.09379	1283.3125
2111.08131	1285.4125
2114.0669	1296.0125
2117.05057	1293.0125
2120.03233	1287.3125
2123.01216	1292.5125
2125.99008	1286.9125
2128.96609	1289.6125
2131.94018	1289.3125
2134.91236	1287.5125
2137.88263	1280.7125
2140.851	1284.3125
2143.81746	1281.9125
2146.78201	1282.3125
2149.74466	1268.4125
2152.7054	1272.8125
2155.66425	1270.7125
2158.6212	1259.4125
2161.57625	1259.1125
2164.52941	1254.3125
2167.48067	1251.5125
2170.43004	1248.8125
2173.37752	1237.0125
2176.32311	1241.0125
2179.26681	1239.7125
2182.20863	1238.9125
2185.14856	1237.7125
2188.08661	1240.6125
2191.02278	1232.6125
2193.95707	1228.5125
2196.88948	1229.9125
2199.82001	1229.8125
2202.74867	1230.1125
2205.67545	1221.9125
2208.60037	1222.7125
2211.52341	1227.0125
2214.44458	1208.5125
2217.36388	1220.0125
2220.28132	1208.0125
2223.1969	1200.0125
2226.11061	1201.1125
2229.02246	1195.0125
2231.93245	1194.6125
2234.84058	1196.6125
2237.74686	1181.5125
2240.65128	1186.2125
2243.55385	1183.4125
2246.45456	1179.6125
2249.35343	1176.1125
2252.25044	1176.3125
2255.14561	1162.5125
2258.03893	1171.1125
2260.93041	1163.2125
2263.82004	1161.9125
2266.70783	1163.8125
2269.59378	1163.6125
2272.4779	1153.4125
2275.36017	1149.4125
2278.24061	1150.8125
2281.11922	1143.5125
2283.996	1138.7125
2286.87094	1145.8125
2289.74405	1132.8125
2292.61534	1129.8125
2295.4848	1133.0125
2298.35243	1138.9125
2301.21824	1132.4125
2304.08223	1128.5125
2306.94439	1127.6125
2309.80474	1127.7125
2312.66327	1123.5125
2315.51999	1120.9125
2318.37489	1122.9125
2321.22797	1114.6125
2324.07925	1110.4125
2326.92871	1120.0125
2329.77637	1117.4125
2332.62222	1113.3125
2335.46626	1101.5125
2338.3085	1101.1125
2341.14893	1101.0125
2343.98756	1098.0125
2346.8244	1091.3125
2349.65943	1092.4125
2352.49267	1093.4125
2355.32411	1093.4125
2358.15376	1083.2125
2360.98161	1083.1125
2363.80768	1087.0125
2366.63195	1084.8125
2369.45444	1082.2125
2372.27514	1083.1125
2375.09405	1082.2125
2377.91118	1072.9125
2380.72652	1081.5125
2383.54009	1077.1125
2386.35187	1085.3125
2389.16188	1068.3125
2391.97011	1070.3125
2394.77657	1063.8125
2397.58125	1059.5125
2400.38416	1064.7125
2403.18529	1056.1125
2405.98466	1057.9125
2408.78226	1055.0125
2411.57809	1050.2125
2414.37216	1046.9125
2417.16446	1048.8125
2419.955	1051.1125
2422.74378	1045.3125
2425.5308	1047.4125
2428.31606	1042.9125
2431.09956	1037.2125
2433.88131	1044.3125
2436.6613	1036.2125
2439.43954	1032.6125
2442.21603	1027.6125
2444.99077	1028.4125
2447.76377	1026.8125
2450.53501	1025.8125
2453.30451	1033.9125
2456.07226	1032.2125
2458.83827	1022.4125
2461.60254	1023.3125
2464.36507	1012.1125
2467.12586	1015.9125
2469.88492	1018.0125
2472.64224	1013.1125
2475.39782	1018.5125
2478.15167	1007.0125
2480.90379	1013.0125
2483.65417	1009.4125
2486.40283	1008.8125
2489.14976	1007.4125
2491.89497	1006.3125
2494.63845	1006.3125
2497.3802	1009.5125
2500.12024	1008.6125
2502.85855	1000.9125
2505.59514	1003.2125
2508.33002	1000.9125
2511.06318	998.7125
2513.79462	994.1125
2516.52435	988.8125
2519.25237	993.1125
2521.97867	983.1125
2524.70327	982.9125
2527.42616	980.3125
2530.14734	979.8125
2532.86681	968.5125
2535.58458	971.2125
2538.30065	985.0125
2541.01501	976.0125
2543.72768	973.6125
2546.43864	967.5125
2549.14791	970.4125
2551.85548	968.5125
2554.56136	963.3125
2557.26554	968.9125
2559.96803	958.1125
2562.66883	965.5125
2565.36794	955.2125
2568.06536	961.5125
2570.7611	953.0125
2573.45514	955.5125
2576.14751	950.2125
2578.83819	949.0125
2581.52719	948.1125
2584.21451	941.9125
2586.90015	950.2125
2589.58411	945.9125
2592.2664	949.3125
2594.94701	937.8125
2597.62594	938.0125
2600.30321	925.8125
2602.9788	937.3125
2605.65273	926.4125
2608.32498	925.1125
2610.99557	919.2125
2613.66449	923.6125
2616.33175	926.8125
2618.99734	922.8125
2621.66128	927.0125
2624.32355	915.5125
2626.98416	916.7125
2629.64311	920.1125
2632.30041	920.8125
2634.95605	918.2125
2637.61004	919.4125
2640.26238	916.0125
2642.91306	914.7125
2645.56209	915.4125
2648.20948	906.9125
2650.85521	905.3125
2653.4993	912.4125
2656.14175	912.9125
2658.78255	908.4125
2661.42171	908.3125
2664.05923	910.6125
2666.6951	908.4125
2669.32934	910.8125
2671.96194	905.1125
2674.59291	912.3125
2677.22224	911.0125
2679.84993	910.3125
2682.476	910.7125
2685.10043	911.5125
2687.72324	910.9125
2690.34441	912.3125
2692.96396	909.8125
2695.58188	909.2125
2698.19818	912.0125
2700.81285	913.7125
2703.4259	912.7125
2706.03733	901.7125
2708.64714	913.9125
2711.25533	909.5125
2713.86191	912.3125
2716.46687	916.8125
2719.07021	916.6125
2721.67194	912.5125
2724.27206	906.0125
2726.87057	918.5125
2729.46747	909.8125
2732.06276	914.9125
2734.65644	909.2125
2737.24852	905.2125
2739.83899	911.7125
2742.42786	903.3125
2745.01513	900.7125
2747.60079	910.6125
2750.18486	907.0125
2752.76733	899.1125
2755.3482	900.2125
2757.92747	898.7125
2760.50515	901.3125
2763.08123	891.8125
2765.65573	888.0125
2768.22863	884.7125
2770.79994	885.8125
2773.36967	886.4125
2775.9378	886.3125
2778.50435	871.3125
2781.06932	879.3125
2783.6327	882.4125
2786.1945	874.9125
2788.75471	874.4125
2791.31335	879.9125
2793.87041	870.7125
2796.42589	870.5125
2798.97979	871.8125
2801.53212	864.6125
2804.08288	860.5125
2806.63206	856.7125
2809.17967	855.4125
2811.72571	858.6125
2814.27018	856.3125
2816.81308	861.8125
2819.35442	853.0125
2821.89419	850.4125
2824.43239	850.9125
2826.96904	845.8125
2829.50412	851.5125
2832.03763	851.8125
2834.56959	846.9125
2837.1	849.0125
2839.62884	852.9125
2842.15613	844.1125
2844.68186	852.8125
2847.20604	843.4125
2849.72867	850.0125
2852.24974	849.0125
2854.76927	845.8125
2857.28724	847.5125
2859.80367	842.4125
2862.31855	846.4125
2864.83189	846.2125
2867.34368	841.0125
2869.85393	842.0125
2872.36264	846.1125
2874.8698	855.2125
2877.37543	860.8125
2879.87952	861.2125
2882.38207	867.8125
2884.88308	870.7125
2887.38256	865.3125
2889.88051	868.5125
2892.37692	870.9125
2894.8718	879.8125
2897.36515	884.3125
2899.85698	889.7125
2902.34727	894.9125
2904.83604	900.0125
2907.32328	914.9125
2909.809	909.9125
2912.29319	919.6125
2914.77587	919.9125
2917.25702	927.8125
2919.73665	933.5125
2922.21476	936.2125
2924.69136	942.4125
2927.16644	936.8125
2929.64	946.7125
2932.11205	950.7125
2934.58258	952.1125
2937.05161	950.3125
2939.51912	939.6125
2941.98513	948.8125
2944.44962	940.8125
2946.91261	934.1125
2949.37409	924.3125
2951.83407	910.7125
2954.29254	917.3125
2956.74951	902.4125
2959.20498	907.4125
2961.65895	888.4125
2964.11142	891.3125
2966.56239	877.4125
2969.01186	880.2125
2971.45984	875.1125
2973.90632	866.1125
2976.35131	866.4125
2978.7948	868.8125
2981.23681	859.1125
2983.67732	855.7125
2986.11635	856.4125
2988.55388	854.3125
2990.98993	849.6125
2993.4245	894.2125
2995.85758	863.1125
2998.28917	851.2125
3000.71928	848.6125
3003.14791	847.1125
3005.57506	848.9125
3008.00073	849.5125
3010.42493	841.6125
3012.84764	846.2125
3015.26888	842.1125
3017.68865	843.4125
3020.10694	842.4125
3022.52376	846.0125
3024.9391	856.8125
3027.35298	840.7125
3029.76539	840.9125
3032.17632	844.7125
3034.5858	854.1125
3036.9938	850.9125
3039.40034	850.8125
3041.80542	848.3125
3044.20903	851.6125
3046.61118	853.1125
3049.01187	852.5125
3051.4111	851.1125
3053.80888	848.5125
3056.20519	855.4125
3058.60005	850.6125
3060.99345	859.9125
3063.3854	858.3125
3065.7759	861.2125
3068.16494	858.2125
3070.55254	858.5125
3072.93868	862.0125
3075.32338	864.5125
3077.70662	866.5125
3080.08842	872.3125
3082.46878	871.9125
3084.84769	866.6125
3087.22515	877.6125
3089.60118	875.7125
3091.97576	884.8125
3094.3489	894.2125
3096.72061	894.0125
3099.09087	893.8125
3101.4597	890.9125
3103.82709	891.9125
3106.19305	901.7125
3108.55757	911.7125
3110.92066	910.5125
3113.28232	912.7125
3115.64255	916.0125
3118.00134	919.2125
3120.35871	917.5125
3122.71466	928.4125
3125.06917	931.3125
3127.42226	926.5125
3129.77393	940.4125
3132.12417	941.9125
3134.47299	947.0125
3136.82039	940.8125
3139.16636	952.5125
3141.51092	964.5125
3143.85406	976.5125
3146.19579	970.2125
3148.53609	988.7125
3150.87499	982.6125
3153.21246	1000.3125
3155.54853	991.9125
