Data from AgNPs_FTO_APTES_UA_0.1mM_CRN_0uM_NaF_0.1M_Addition_RamanShift__36__10-44-37-494.txt Node

Date: Mon Dec 20 10:44:37 GMT 2021
User: TCL
Spectrometer: QEP01345
Trigger mode: 4
Integration Time (sec): 7.000000E0
Scans to average: 10
Electric dark correction enabled: true
Nonlinearity correction enabled: false
Boxcar width: 0
XAxis mode: Raman Shifts
Number of Pixels in Spectrum: 1044
>>>>>Begin Spectral Data<<<<<
46.04893	1.075
50.45542	0.375
54.85868	-1.025
59.25871	0.175
63.6555	27.175
68.04907	28.675
72.43941	29.575
76.82654	28.875
81.21044	32.275
85.59113	37.775
89.96862	33.075
94.34289	38.975
98.71396	38.775
103.08183	37.275
107.4465	37.375
111.80798	43.075
116.16626	42.575
120.52136	43.675
124.87327	43.375
129.222	42.375
133.56755	43.375
137.90993	47.675
142.24913	50.775
146.58517	48.575
150.91804	59.075
155.24774	69.575
159.57429	79.175
163.89768	99.875
168.21792	128.575
172.53501	163.675
176.84895	221.975
181.15975	303.175
185.46741	416.475
189.77193	566.675
194.07331	747.275
198.37157	966.575
202.6667	1191.575
206.9587	1416.875
211.24758	1635.975
215.53334	1864.475
219.81599	2101.675
224.09553	2371.175
228.37195	2675.875
232.64527	3010.075
236.91549	3330.675
241.18261	3677.775
245.44663	3989.075
249.70755	4214.475
253.96539	4409.975
258.22014	4534.475
262.4718	4630.775
266.72039	4663.175
270.96589	4672.475
275.20832	4611.275
279.44768	4528.975
283.68397	4454.875
287.91719	4367.375
292.14735	4309.275
296.37445	4271.575
300.59849	4280.275
304.81948	4266.775
309.03742	4267.475
313.25231	4247.275
317.46415	4212.375
321.67296	4151.775
325.87872	4090.075
330.08145	4045.175
334.28114	4032.575
338.47781	4026.475
342.67145	4032.275
346.86207	4052.775
351.04966	4074.075
355.23424	4128.875
359.4158	4171.175
363.59435	4212.775
367.76989	4239.475
371.94243	4275.075
376.11196	4304.775
380.27849	4349.075
384.44203	4383.375
388.60257	4447.675
392.76012	4483.675
396.91468	4517.075
401.06626	4563.175
405.21485	4618.175
409.36047	4623.575
413.50311	4629.375
417.64277	4668.775
421.77947	4715.375
425.9132	4676.375
430.04396	4675.375
434.17176	4690.375
438.2966	4724.375
442.41849	4775.375
446.53742	4863.375
450.6534	4965.475
454.76644	5052.175
458.87653	5057.875
462.98368	5013.575
467.08789	4958.475
471.18916	4915.575
475.2875	4892.575
479.38291	4889.575
483.4754	4945.375
487.56496	5011.975
491.6516	5127.375
495.73531	5229.975
499.81612	5261.075
503.89401	5268.575
507.96899	5223.375
512.04106	5138.275
516.11023	5041.675
520.1765	4992.175
524.23987	4942.575
528.30034	4940.475
532.35792	4936.575
536.41261	4895.875
540.46441	4816.975
544.51333	4746.475
548.55936	4714.475
552.60252	4729.875
556.64279	4805.375
560.6802	4860.475
564.71473	4868.175
568.7464	4889.575
572.7752	4962.475
576.80114	5054.175
580.82422	5206.375
584.84444	5461.675
588.86181	5818.775
592.87633	6128.375
596.888	6156.975
600.89682	5835.775
604.9028	5564.875
608.90594	5642.275
612.90624	5847.475
616.90371	5727.075
620.89834	5357.475
624.89015	5334.575
628.87913	5644.975
632.86528	6034.375
636.84862	6314.775
640.82913	6353.375
644.80683	6163.475
648.78172	5902.175
652.75379	5628.175
656.72306	5413.475
660.68952	5239.575
664.65319	5073.975
668.61405	4922.275
672.57211	4871.175
676.52738	4866.575
680.47986	4889.675
684.42955	4866.175
688.37646	4833.075
692.32058	4790.375
696.26192	4766.975
700.20048	4751.375
704.13626	4731.475
708.06928	4724.975
711.99952	4726.175
715.927	4732.575
719.85171	4807.475
723.77365	4838.175
727.69284	4820.875
731.60928	4803.875
735.52295	4729.975
739.43388	4701.675
743.34206	4717.275
747.24749	4748.675
751.15017	4773.975
755.05012	4813.275
758.94733	4884.975
762.8418	5026.675
766.73354	5240.575
770.62254	5390.475
774.50882	5436.075
778.39237	5251.975
782.27321	5001.575
786.15132	4794.875
790.02671	4691.875
793.89938	4655.675
797.76935	4684.275
801.6366	4737.575
805.50115	4855.075
809.36299	5018.275
813.22213	5104.475
817.07857	5051.875
820.93231	4896.575
824.78336	4721.475
828.63172	4597.975
832.47738	4492.875
836.32036	4477.875
840.16066	4461.275
843.99827	4423.575
847.8332	4437.175
851.66546	4426.975
855.49504	4446.175
859.32195	4432.875
863.1462	4448.675
866.96777	4471.975
870.78668	4517.675
874.60293	4606.175
878.41652	4702.475
882.22745	4814.275
886.03573	4888.875
889.84136	4939.275
893.64433	4904.175
897.44466	4779.875
901.24235	4658.875
905.0374	4539.875
908.8298	4455.375
912.61957	4414.775
916.40671	4407.475
920.19121	4400.975
923.97308	4430.175
927.75233	4417.375
931.52895	4391.175
935.30295	4328.875
939.07433	4273.375
942.84309	4232.775
946.60924	4208.775
950.37278	4185.375
954.13371	4192.575
957.89203	4177.475
961.64774	4188.975
965.40086	4172.875
969.15137	4168.275
972.89929	4140.075
976.64461	4145.975
980.38733	4123.575
984.12747	4119.475
987.86502	4158.075
991.59999	4183.475
995.33237	4188.475
999.06217	4284.375
1002.78939	4359.475
1006.51404	4454.675
1010.23611	4524.575
1013.95561	4592.375
1017.67255	4631.275
1021.38692	4611.175
1025.09872	4538.575
1028.80796	4470.675
1032.51465	4403.675
1036.21877	4364.875
1039.92035	4335.975
1043.61937	4328.575
1047.31584	4326.975
1051.00976	4318.675
1054.70114	4332.575
1058.38998	4334.075
1062.07627	4365.975
1065.76003	4436.475
1069.44126	4501.975
1073.11995	4593.275
1076.79611	4656.175
1080.46974	4691.075
1084.14085	4665.275
1087.80943	4670.875
1091.47549	4667.675
1095.13903	4652.775
1098.80005	4592.775
1102.45857	4512.775
1106.11456	4459.375
1109.76805	4484.175
1113.41903	4598.775
1117.06751	4766.575
1120.71348	5046.275
1124.35696	5388.975
1127.99793	5752.175
1131.63641	6087.075
1135.2724	6272.475
1138.90589	6246.175
1142.5369	6123.875
1146.16542	5871.775
1149.79145	5620.575
1153.415	5305.075
1157.03607	5108.975
1160.65467	5009.275
1164.27079	5029.875
1167.88443	5126.675
1171.49561	5251.875
1175.10432	5483.675
1178.71056	5786.575
1182.31434	6090.075
1185.91565	6190.675
1189.51451	6111.275
1193.11091	6016.275
1196.70485	6017.675
1200.29634	6043.275
1203.88538	6077.975
1207.47197	6088.975
1211.05612	6028.575
1214.63782	5919.875
1218.21708	5751.075
1221.79391	5591.775
1225.36829	5485.775
1228.94024	5385.875
1232.50976	5274.275
1236.07685	5148.675
1239.6415	5072.175
1243.20374	5090.575
1246.76355	5092.275
1250.32093	5163.375
1253.8759	5239.875
1257.42845	5347.775
1260.97859	5456.575
1264.52631	5539.475
1268.07163	5616.175
1271.61453	5661.575
1275.15503	5735.375
1278.69312	5826.975
1282.22882	5984.475
1285.76211	6180.275
1289.29301	6426.875
1292.82151	6720.675
1296.34761	7011.375
1299.87133	7388.175
1303.39266	7758.975
1306.9116	8053.875
1310.42815	8312.775
1313.94233	8433.175
1317.45412	8364.175
1320.96354	8177.875
1324.47058	7940.075
1327.97525	7740.375
1331.47754	7594.975
1334.97747	7488.975
1338.47502	7382.275
1341.97022	7262.175
1345.46305	7220.875
1348.95352	7299.275
1352.44163	7529.375
1355.92738	7945.375
1359.41078	8458.575
1362.89183	8872.675
1366.37053	8929.275
1369.84688	8462.375
1373.32088	7652.875
1376.79254	7085.175
1380.26186	6910.775
1383.72883	6861.475
1387.19347	6776.575
1390.65578	6635.575
1394.11575	6548.975
1397.57339	6547.475
1401.0287	6592.675
1404.48168	6591.775
1407.93234	6491.075
1411.38068	6290.275
1414.82669	6042.775
1418.27039	5799.075
1421.71177	5594.175
1425.15083	5385.575
1428.58758	5298.575
1432.02203	5338.375
1435.45416	5428.075
1438.88399	5527.475
1442.31151	5608.675
1445.73673	5650.775
1449.15965	5667.575
1452.58027	5670.675
1455.9986	5645.075
1459.41463	5609.975
1462.82837	5666.275
1466.23982	5747.475
1469.64898	5857.175
1473.05586	5951.175
1476.46045	5971.975
1479.86276	5992.075
1483.26279	5956.875
1486.66054	5973.475
1490.05602	5983.275
1493.44922	6047.975
1496.84016	6101.975
1500.22882	6183.775
1503.61521	6293.275
1506.99934	6427.075
1510.38121	6536.575
1513.76081	6581.375
1517.13816	6489.475
1520.51324	6368.875
1523.88607	6293.575
1527.25665	6296.175
1530.62498	6340.375
1533.99105	6378.175
1537.35488	6350.475
1540.71647	6284.775
1544.07581	6175.075
1547.4329	6081.575
1550.78776	6020.275
1554.14038	5916.275
1557.49077	5869.275
1560.83892	5839.075
1564.18484	5857.575
1567.52853	5871.675
1570.86999	5917.275
1574.20922	5977.075
1577.54624	6040.575
1580.88103	6040.175
1584.2136	6060.475
1587.54395	6171.575
1590.87208	6391.075
1594.19801	6697.875
1597.52172	6994.875
1600.84321	7104.675
1604.16251	6902.775
1607.47959	6475.875
1610.79447	6045.775
1614.10715	5660.075
1617.41763	5434.675
1620.7259	5299.975
1624.03199	5267.475
1627.33587	5322.675
1630.63757	5436.875
1633.93707	5680.175
1637.23439	6058.175
1640.52951	6662.575
1643.82246	7426.275
1647.11321	8040.075
1650.40179	8141.975
1653.68819	7635.075
1656.97241	6853.175
1660.25446	6149.175
1663.53433	5661.675
1666.81203	5360.675
1670.08756	5175.275
1673.36092	5066.875
1676.63211	4993.475
1679.90115	4931.575
1683.16801	4872.375
1686.43272	4809.775
1689.69527	4730.075
1692.95567	4632.475
1696.2139	4539.975
1699.46999	4469.775
1702.72392	4360.375
1705.97571	4266.875
1709.22535	4146.275
1712.47284	4033.275
1715.71819	3935.475
1718.96139	3852.575
1722.20246	3779.375
1725.44139	3702.175
1728.67818	3651.475
1731.91284	3598.775
1735.14537	3549.775
1738.37576	3522.575
1741.60403	3507.975
1744.83017	3477.575
1748.05418	3472.675
1751.27607	3436.375
1754.49584	3431.175
1757.71349	3425.275
1760.92903	3410.975
1764.14244	3406.175
1767.35375	3393.775
1770.56294	3387.575
1773.77002	3368.775
1776.97499	3373.775
1780.17785	3361.475
1783.37861	3367.875
1786.57727	3334.075
1789.77382	3330.675
1792.96828	3333.475
1796.16064	3317.775
1799.3509	3307.775
1802.53907	3294.875
1805.72514	3281.475
1808.90913	3279.875
1812.09102	3264.975
1815.27083	3281.775
1818.44856	3252.875
1821.6242	3236.275
1824.79776	3240.175
1827.96924	3235.475
1831.13864	3234.975
1834.30597	3231.775
1837.47122	3237.275
1840.6344	3220.375
1843.7955	3221.375
1846.95454	3214.875
1850.11151	3214.075
1853.26642	3199.375
1856.41926	3190.075
1859.57004	3197.875
1862.71876	3190.075
1865.86542	3192.375
1869.01003	3177.275
1872.15258	3176.575
1875.29308	3174.375
1878.43152	3176.175
1881.56792	3161.675
1884.70227	3164.875
1887.83457	3159.075
1890.96482	3158.975
1894.09304	3159.575
1897.21921	3148.175
1900.34335	3139.075
1903.46544	3148.175
1906.58551	3131.475
1909.70353	3133.675
1912.81953	3121.575
1915.93349	3116.675
1919.04543	3121.275
1922.15534	3108.975
1925.26322	3094.375
1928.36908	3086.275
1931.47292	3089.275
1934.57473	3072.475
1937.67453	3059.075
1940.77232	3061.275
1943.86808	3049.075
1946.96184	3033.375
1950.05358	3033.375
1953.14331	3041.375
1956.23103	3023.975
1959.31675	3023.675
1962.40046	2997.175
1965.48217	2983.975
1968.56188	2979.775
1971.63959	2980.075
1974.7153	2966.575
1977.78901	2952.675
1980.86073	2949.975
1983.93046	2950.875
1986.99819	2930.475
1990.06394	2924.075
1993.1277	2916.675
1996.18947	2910.675
1999.24925	2905.375
2002.30706	2896.675
2005.36288	2885.575
2008.41672	2868.075
2011.46859	2861.875
2014.51848	2857.075
2017.56639	2858.975
2020.61233	2845.675
2023.6563	2839.275
2026.6983	2821.375
2029.73833	2827.475
2032.7764	2815.975
2035.8125	2798.975
2038.84664	2797.475
2041.87881	2802.475
2044.90903	2780.375
2047.93729	2782.875
2050.96359	2777.675
2053.98794	2770.475
2057.01034	2778.275
2060.03078	2772.275
2063.04927	2766.575
2066.06582	2763.675
2069.08042	2775.075
2072.09307	2765.175
2075.10378	2764.875
2078.11255	2758.675
2081.11938	2766.975
2084.12426	2763.275
2087.12722	2753.975
2090.12824	2757.175
2093.12732	2763.375
2096.12447	2756.275
2099.11969	2756.875
2102.11299	2749.275
2105.10435	2758.675
2108.09379	2770.175
2111.08131	2772.975
2114.0669	2760.875
2117.05057	2782.175
2120.03233	2782.375
2123.01216	2762.175
2125.99008	2774.175
2128.96609	2763.975
2131.94018	2763.475
2134.91236	2777.075
2137.88263	2782.575
2140.851	2759.075
2143.81746	2763.675
2146.78201	2755.975
2149.74466	2761.675
2152.7054	2766.075
2155.66425	2766.475
2158.6212	2769.475
2161.57625	2742.675
2164.52941	2758.775
2167.48067	2765.075
2170.43004	2751.975
2173.37752	2753.375
2176.32311	2748.875
2179.26681	2741.375
2182.20863	2756.275
2185.14856	2745.875
2188.08661	2749.875
2191.02278	2748.675
2193.95707	2743.475
2196.88948	2730.475
2199.82001	2739.975
2202.74867	2734.675
2205.67545	2711.775
2208.60037	2717.075
2211.52341	2716.175
2214.44458	2704.775
2217.36388	2715.975
2220.28132	2698.975
2223.1969	2691.175
2226.11061	2685.375
2229.02246	2688.975
2231.93245	2676.675
2234.84058	2676.775
2237.74686	2670.075
2240.65128	2664.375
2243.55385	2663.275
2246.45456	2660.775
2249.35343	2655.875
2252.25044	2653.975
2255.14561	2631.075
2258.03893	2644.175
2260.93041	2628.875
2263.82004	2633.875
2266.70783	2627.275
2269.59378	2615.575
2272.4779	2610.275
2275.36017	2599.875
2278.24061	2592.575
2281.11922	2585.475
2283.996	2596.375
2286.87094	2598.575
2289.74405	2580.875
2292.61534	2575.075
2295.4848	2567.575
2298.35243	2560.975
2301.21824	2559.275
2304.08223	2559.775
2306.94439	2570.975
2309.80474	2548.075
2312.66327	2556.875
2315.51999	2551.275
2318.37489	2541.475
2321.22797	2545.075
2324.07925	2533.075
2326.92871	2527.875
2329.77637	2525.975
2332.62222	2520.075
2335.46626	2529.875
2338.3085	2510.475
2341.14893	2515.675
2343.98756	2512.475
2346.8244	2500.775
2349.65943	2502.775
2352.49267	2503.275
2355.32411	2511.375
2358.15376	2500.375
2360.98161	2492.875
2363.80768	2486.075
2366.63195	2499.375
2369.45444	2486.275
2372.27514	2482.175
2375.09405	2489.675
2377.91118	2477.675
2380.72652	2479.875
2383.54009	2471.575
2386.35187	2472.775
2389.16188	2465.975
2391.97011	2456.675
2394.77657	2455.175
2397.58125	2452.875
2400.38416	2445.675
2403.18529	2441.075
2405.98466	2435.575
2408.78226	2438.775
2411.57809	2423.275
2414.37216	2416.975
2417.16446	2419.975
2419.955	2405.275
2422.74378	2408.975
2425.5308	2419.775
2428.31606	2400.575
2431.09956	2414.275
2433.88131	2400.775
2436.6613	2403.475
2439.43954	2393.575
2442.21603	2390.375
2444.99077	2396.175
2447.76377	2390.075
2450.53501	2384.475
2453.30451	2393.575
2456.07226	2388.675
2458.83827	2384.775
2461.60254	2375.275
2464.36507	2365.975
2467.12586	2372.975
2469.88492	2375.975
2472.64224	2369.175
2475.39782	2359.275
2478.15167	2368.575
2480.90379	2363.175
2483.65417	2364.975
2486.40283	2366.575
2489.14976	2363.675
2491.89497	2371.475
2494.63845	2358.775
2497.3802	2351.475
2500.12024	2352.075
2502.85855	2355.775
2505.59514	2352.575
2508.33002	2343.475
2511.06318	2357.575
2513.79462	2336.775
2516.52435	2339.375
2519.25237	2333.075
2521.97867	2343.975
2524.70327	2335.075
2527.42616	2318.075
2530.14734	2328.675
2532.86681	2313.375
2535.58458	2310.975
2538.30065	2310.075
2541.01501	2317.075
2543.72768	2302.575
2546.43864	2291.075
2549.14791	2292.375
2551.85548	2295.775
2554.56136	2277.875
2557.26554	2288.675
2559.96803	2285.575
2562.66883	2286.075
2565.36794	2269.075
2568.06536	2278.975
2570.7611	2271.275
2573.45514	2263.675
2576.14751	2271.375
2578.83819	2260.975
2581.52719	2264.175
2584.21451	2250.175
2586.90015	2266.875
2589.58411	2249.875
2592.2664	2244.475
2594.94701	2240.775
2597.62594	2226.275
2600.30321	2227.475
2602.9788	2230.275
2605.65273	2228.475
2608.32498	2222.375
2610.99557	2231.775
2613.66449	2217.875
2616.33175	2233.975
2618.99734	2216.175
2621.66128	2214.675
2624.32355	2208.875
2626.98416	2212.875
2629.64311	2207.175
2632.30041	2210.275
2634.95605	2201.375
2637.61004	2204.975
2640.26238	2193.875
2642.91306	2198.475
2645.56209	2196.075
2648.20948	2194.575
2650.85521	2187.775
2653.4993	2180.275
2656.14175	2184.775
2658.78255	2186.275
2661.42171	2186.175
2664.05923	2181.575
2666.6951	2182.675
2669.32934	2188.475
2671.96194	2193.075
2674.59291	2197.975
2677.22224	2187.875
2679.84993	2190.375
2682.476	2188.175
2685.10043	2193.675
2687.72324	2178.775
2690.34441	2177.975
2692.96396	2188.775
2695.58188	2183.175
2698.19818	2191.075
2700.81285	2189.975
2703.4259	2202.475
2706.03733	2208.775
2708.64714	2212.575
2711.25533	2200.875
2713.86191	2200.575
2716.46687	2204.475
2719.07021	2199.075
2721.67194	2199.475
2724.27206	2191.175
2726.87057	2198.275
2729.46747	2199.475
2732.06276	2195.075
2734.65644	2205.075
2737.24852	2193.975
2739.83899	2200.275
2742.42786	2203.375
2745.01513	2183.775
2747.60079	2177.575
2750.18486	2179.575
2752.76733	2180.775
2755.3482	2176.275
2757.92747	2182.875
2760.50515	2168.275
2763.08123	2171.475
2765.65573	2170.175
2768.22863	2179.075
2770.79994	2157.175
2773.36967	2173.275
2775.9378	2168.075
2778.50435	2157.175
2781.06932	2161.275
2783.6327	2147.375
2786.1945	2158.075
2788.75471	2140.875
2791.31335	2146.075
2793.87041	2143.075
2796.42589	2130.675
2798.97979	2131.375
2801.53212	2125.675
2804.08288	2119.575
2806.63206	2126.075
2809.17967	2119.475
2811.72571	2105.375
2814.27018	2102.575
2816.81308	2108.475
2819.35442	2104.075
2821.89419	2099.475
2824.43239	2109.975
2826.96904	2097.675
2829.50412	2107.275
2832.03763	2094.675
2834.56959	2115.475
2837.1	2094.075
2839.62884	2106.275
2842.15613	2093.275
2844.68186	2096.975
2847.20604	2101.375
2849.72867	2117.675
2852.24974	2113.175
2854.76927	2116.175
2857.28724	2122.875
2859.80367	2106.675
2862.31855	2104.875
2864.83189	2110.775
2867.34368	2098.875
2869.85393	2108.375
2872.36264	2112.575
2874.8698	2115.675
2877.37543	2125.975
2879.87952	2111.675
2882.38207	2125.175
2884.88308	2118.875
2887.38256	2108.175
2889.88051	2128.575
2892.37692	2125.175
2894.8718	2124.375
2897.36515	2133.775
2899.85698	2131.175
2902.34727	2136.375
2904.83604	2132.575
2907.32328	2147.675
2909.809	2131.175
2912.29319	2135.275
2914.77587	2132.575
2917.25702	2131.275
2919.73665	2126.275
2922.21476	2128.775
2924.69136	2129.675
2927.16644	2128.675
2929.64	2133.175
2932.11205	2132.475
2934.58258	2135.275
2937.05161	2125.075
2939.51912	2121.775
2941.98513	2124.375
2944.44962	2111.875
2946.91261	2111.875
2949.37409	2112.775
2951.83407	2096.075
2954.29254	2100.675
2956.74951	2100.075
2959.20498	2096.575
2961.65895	2084.675
2964.11142	2083.075
2966.56239	2086.075
2969.01186	2086.975
2971.45984	2063.275
2973.90632	2065.875
2976.35131	2067.575
2978.7948	2056.975
2981.23681	2051.675
2983.67732	2057.875
2986.11635	2046.175
2988.55388	2030.075
2990.98993	2027.175
2993.4245	2023.775
2995.85758	2025.675
2998.28917	2030.575
3000.71928	2022.875
3003.14791	2028.175
3005.57506	2019.475
3008.00073	2016.275
3010.42493	2023.775
3012.84764	2023.575
3015.26888	2017.975
3017.68865	2020.375
3020.10694	2010.675
3022.52376	2004.075
3024.9391	2017.575
3027.35298	2008.075
3029.76539	2024.975
3032.17632	2009.875
3034.5858	2020.275
3036.9938	2023.375
3039.40034	2025.975
3041.80542	2016.975
3044.20903	2011.875
3046.61118	2022.875
3049.01187	2008.375
3051.4111	2016.875
3053.80888	2014.975
3056.20519	2019.275
3058.60005	2018.175
3060.99345	2014.575
3063.3854	2014.775
3065.7759	2012.775
3068.16494	2009.875
3070.55254	2000.075
3072.93868	2001.475
3075.32338	2014.775
3077.70662	2003.075
3080.08842	1998.975
3082.46878	2006.175
3084.84769	2013.975
3087.22515	2007.375
3089.60118	2009.975
3091.97576	2021.475
3094.3489	2016.375
3096.72061	2031.775
3099.09087	2024.075
3101.4597	2031.175
3103.82709	2033.875
3106.19305	2030.975
3108.55757	2033.575
3110.92066	2032.875
3113.28232	2036.775
3115.64255	2035.975
3118.00134	2036.675
3120.35871	2035.675
3122.71466	2030.975
3125.06917	2041.675
3127.42226	2043.675
3129.77393	2039.475
3132.12417	2049.075
3134.47299	2066.775
3136.82039	2057.075
3139.16636	2071.075
3141.51092	2084.375
3143.85406	2079.575
3146.19579	2089.275
3148.53609	2085.375
3150.87499	2106.175
3153.21246	2103.575
3155.54853	2106.975
3157.88318	2115.075
3160.21642	2124.175
3162.54826	2124.875
3164.87868	2115.975
3167.2077	2127.075
3169.5353	2132.575
3171.86151	2146.175
3174.18631	2153.075
3176.5097	2151.875
3178.83169	2153.775
3181.15228	2146.475
3183.47147	2149.675
3185.78926	2153.775
3188.10565	2147.275
3190.42065	2162.575
3192.73424	2161.775
3195.04645	2176.675
3197.35725	2171.275
3199.66667	2173.975
3201.97469	2176.275
3204.28132	2177.975
3206.58656	2191.275
3208.8904	2184.675
3211.19287	2194.175
3213.49394	2194.775
3215.79363	2194.775
3218.09193	2197.575
3220.38884	2210.575
3222.68438	2202.575
3224.97853	2208.375
3227.2713	2220.175
3229.56269	2208.075
3231.8527	2204.475
3234.14133	2206.175
3236.42858	2207.375
3238.71446	2203.875
