Data from AgNPs_FTO_APTES_UA_0.1mM_CRN_0uM_NaF_0.1M_Addition_RamanShift__1__10-03-47-447.txt Node

Date: Mon Dec 20 10:03:47 GMT 2021
User: TCL
Spectrometer: QEP01345
Trigger mode: 4
Integration Time (sec): 7.000000E0
Scans to average: 10
Electric dark correction enabled: true
Nonlinearity correction enabled: false
Boxcar width: 0
XAxis mode: Raman Shifts
Number of Pixels in Spectrum: 1044
>>>>>Begin Spectral Data<<<<<
46.04893	-0.075
50.45542	0.325
54.85868	0.125
59.25871	1.225
63.6555	19.725
68.04907	21.025
72.43941	23.925
76.82654	26.025
81.21044	24.725
85.59113	31.125
89.96862	26.325
94.34289	30.525
98.71396	31.825
103.08183	29.625
107.4465	33.725
111.80798	36.225
116.16626	34.025
120.52136	37.325
124.87327	35.625
129.222	34.125
133.56755	33.625
137.90993	36.825
142.24913	36.225
146.58517	33.725
150.91804	41.225
155.24774	46.125
159.57429	51.225
163.89768	60.225
168.21792	77.325
172.53501	91.925
176.84895	118.125
181.15975	160.025
185.46741	216.525
189.77193	297.725
194.07331	390.125
198.37157	507.425
202.6667	631.125
206.9587	756.425
211.24758	878.125
215.53334	1012.525
219.81599	1145.225
224.09553	1287.625
228.37195	1435.525
232.64527	1597.725
236.91549	1765.425
241.18261	1904.825
245.44663	2057.425
249.70755	2178.925
253.96539	2277.125
258.22014	2344.825
262.4718	2397.125
266.72039	2423.425
270.96589	2409.025
275.20832	2376.525
279.44768	2333.625
283.68397	2259.925
287.91719	2191.725
292.14735	2126.125
296.37445	2072.725
300.59849	2039.725
304.81948	1998.525
309.03742	1968.425
313.25231	1933.925
317.46415	1899.525
321.67296	1849.825
325.87872	1817.925
330.08145	1806.225
334.28114	1803.925
338.47781	1793.925
342.67145	1803.425
346.86207	1803.325
351.04966	1806.225
355.23424	1823.025
359.4158	1846.325
363.59435	1845.525
367.76989	1838.525
371.94243	1838.225
376.11196	1845.825
380.27849	1840.025
384.44203	1846.625
388.60257	1845.225
392.76012	1847.425
396.91468	1856.925
401.06626	1875.125
405.21485	1870.025
409.36047	1875.825
413.50311	1874.325
417.64277	1886.925
421.77947	1906.025
425.9132	1852.025
430.04396	1823.925
434.17176	1845.125
438.2966	1846.525
442.41849	1856.025
446.53742	1874.125
450.6534	1882.325
454.76644	1896.525
458.87653	1907.625
462.98368	1917.125
467.08789	1915.925
471.18916	1910.925
475.2875	1910.325
479.38291	1920.125
483.4754	1938.225
487.56496	1956.425
491.6516	1986.725
495.73531	2018.625
499.81612	2018.225
503.89401	2008.825
507.96899	2007.025
512.04106	1982.625
516.11023	1972.525
520.1765	1968.725
524.23987	1968.525
528.30034	1963.625
532.35792	1958.425
536.41261	1951.225
540.46441	1934.525
544.51333	1910.425
548.55936	1894.025
552.60252	1899.925
556.64279	1902.525
560.6802	1905.425
564.71473	1901.925
568.7464	1915.425
572.7752	1918.725
576.80114	1904.025
580.82422	1893.725
584.84444	1921.025
588.86181	1933.425
592.87633	1945.925
596.888	1956.025
600.89682	1950.225
604.9028	1992.025
608.90594	2096.025
612.90624	2277.025
616.90371	2321.325
620.89834	2193.125
624.89015	2153.725
628.87913	2228.025
632.86528	2343.425
636.84862	2439.325
640.82913	2441.225
644.80683	2372.825
648.78172	2260.425
652.75379	2179.225
656.72306	2123.425
660.68952	2118.625
664.65319	2096.525
668.61405	2070.725
672.57211	2074.125
676.52738	2093.325
680.47986	2138.225
684.42955	2168.625
688.37646	2207.425
692.32058	2207.525
696.26192	2160.325
700.20048	2112.825
704.13626	2114.625
708.06928	2105.925
711.99952	2090.225
715.927	2088.125
719.85171	2086.425
723.77365	2099.725
727.69284	2102.425
731.60928	2104.525
735.52295	2078.925
739.43388	2061.825
743.34206	2040.125
747.24749	2017.825
751.15017	2004.825
755.05012	2015.525
758.94733	2027.525
762.8418	2064.525
766.73354	2130.925
770.62254	2204.825
774.50882	2255.525
778.39237	2252.325
782.27321	2182.225
786.15132	2133.125
790.02671	2112.725
793.89938	2129.625
797.76935	2180.325
801.6366	2246.825
805.50115	2283.025
809.36299	2328.725
813.22213	2317.225
817.07857	2274.225
820.93231	2213.225
824.78336	2134.025
828.63172	2081.025
832.47738	2039.325
836.32036	2032.825
840.16066	2025.725
843.99827	2014.225
847.8332	2000.025
851.66546	1977.225
855.49504	1954.625
859.32195	1948.025
863.1462	1935.125
866.96777	1956.225
870.78668	1960.525
874.60293	1985.425
878.41652	2017.525
882.22745	2081.525
886.03573	2124.425
889.84136	2181.525
893.64433	2189.625
897.44466	2187.725
901.24235	2160.125
905.0374	2136.125
908.8298	2131.625
912.61957	2166.025
916.40671	2233.725
920.19121	2323.625
923.97308	2388.025
927.75233	2441.325
931.52895	2449.425
935.30295	2421.325
939.07433	2382.025
942.84309	2341.625
946.60924	2302.125
950.37278	2301.025
954.13371	2276.525
957.89203	2231.125
961.64774	2172.425
965.40086	2115.825
969.15137	2083.225
972.89929	2043.625
976.64461	2008.425
980.38733	1988.125
984.12747	1977.725
987.86502	1975.025
991.59999	1982.125
995.33237	1996.125
999.06217	2020.925
1002.78939	2061.325
1006.51404	2106.925
1010.23611	2161.325
1013.95561	2250.625
1017.67255	2288.725
1021.38692	2319.425
1025.09872	2312.825
1028.80796	2306.725
1032.51465	2266.125
1036.21877	2213.425
1039.92035	2158.025
1043.61937	2098.225
1047.31584	2053.025
1051.00976	2000.725
1054.70114	1990.225
1058.38998	1970.225
1062.07627	1977.925
1065.76003	1972.725
1069.44126	1970.825
1073.11995	1991.525
1076.79611	2002.425
1080.46974	1994.825
1084.14085	1986.125
1087.80943	1960.825
1091.47549	1933.225
1095.13903	1913.525
1098.80005	1892.325
1102.45857	1881.125
1106.11456	1873.025
1109.76805	1885.825
1113.41903	1911.825
1117.06751	1971.425
1120.71348	2068.225
1124.35696	2175.425
1127.99793	2325.325
1131.63641	2436.125
1135.2724	2484.425
1138.90589	2466.325
1142.5369	2392.325
1146.16542	2287.725
1149.79145	2175.625
1153.415	2073.325
1157.03607	2005.625
1160.65467	1962.025
1164.27079	1945.225
1167.88443	1936.525
1171.49561	1962.725
1175.10432	1989.225
1178.71056	2071.225
1182.31434	2138.325
1185.91565	2176.325
1189.51451	2177.325
1193.11091	2170.325
1196.70485	2163.625
1200.29634	2170.925
1203.88538	2170.025
1207.47197	2150.025
1211.05612	2103.125
1214.63782	2066.125
1218.21708	2032.325
1221.79391	2008.825
1225.36829	1977.425
1228.94024	1971.525
1232.50976	1989.425
1236.07685	1988.825
1239.6415	1998.025
1243.20374	2009.525
1246.76355	2038.925
1250.32093	2058.125
1253.8759	2089.125
1257.42845	2117.325
1260.97859	2147.425
1264.52631	2197.125
1268.07163	2220.025
1271.61453	2244.425
1275.15503	2269.525
1278.69312	2292.525
1282.22882	2322.525
1285.76211	2366.625
1289.29301	2432.025
1292.82151	2504.525
1296.34761	2561.925
1299.87133	2634.525
1303.39266	2686.925
1306.9116	2759.725
1310.42815	2821.325
1313.94233	2861.925
1317.45412	2821.425
1320.96354	2767.625
1324.47058	2699.125
1327.97525	2650.925
1331.47754	2631.625
1334.97747	2653.025
1338.47502	2705.525
1341.97022	2784.525
1345.46305	2895.325
1348.95352	3032.325
1352.44163	3186.525
1355.92738	3348.125
1359.41078	3556.625
1362.89183	3738.825
1366.37053	3822.325
1369.84688	3685.225
1373.32088	3523.725
1376.79254	3401.925
1380.26186	3331.525
1383.72883	3288.825
1387.19347	3267.225
1390.65578	3260.725
1394.11575	3258.525
1397.57339	3235.925
1401.0287	3194.425
1404.48168	3158.325
1407.93234	3102.425
1411.38068	3070.125
1414.82669	3045.625
1418.27039	3011.325
1421.71177	2936.825
1425.15083	2873.425
1428.58758	2802.925
1432.02203	2735.225
1435.45416	2660.425
1438.88399	2614.725
1442.31151	2569.625
1445.73673	2529.725
1449.15965	2501.025
1452.58027	2479.025
1455.9986	2463.725
1459.41463	2457.225
1462.82837	2464.025
1466.23982	2481.525
1469.64898	2504.325
1473.05586	2518.525
1476.46045	2540.925
1479.86276	2563.225
1483.26279	2579.425
1486.66054	2590.625
1490.05602	2613.625
1493.44922	2628.425
1496.84016	2636.325
1500.22882	2674.725
1503.61521	2763.225
1506.99934	2854.025
1510.38121	2932.225
1513.76081	2956.225
1517.13816	2884.125
1520.51324	2750.125
1523.88607	2618.925
1527.25665	2517.925
1530.62498	2470.525
1533.99105	2447.725
1537.35488	2428.925
1540.71647	2413.225
1544.07581	2426.725
1547.4329	2437.125
1550.78776	2447.925
1554.14038	2424.125
1557.49077	2433.925
1560.83892	2431.925
1564.18484	2415.225
1567.52853	2414.125
1570.86999	2395.825
1574.20922	2368.925
1577.54624	2337.025
1580.88103	2287.925
1584.2136	2217.125
1587.54395	2154.025
1590.87208	2123.025
1594.19801	2103.425
1597.52172	2104.725
1600.84321	2103.225
1604.16251	2090.425
1607.47959	2078.125
1610.79447	2058.425
1614.10715	2049.025
1617.41763	2031.525
1620.7259	2022.425
1624.03199	2017.425
1627.33587	2005.725
1630.63757	1993.625
1633.93707	1995.125
1637.23439	1990.525
1640.52951	2008.725
1643.82246	2033.425
1647.11321	2075.725
1650.40179	2143.725
1653.68819	2138.425
1656.97241	2080.425
1660.25446	1981.925
1663.53433	1920.525
1666.81203	1874.925
1670.08756	1847.325
1673.36092	1818.525
1676.63211	1820.525
1679.90115	1806.825
1683.16801	1791.925
1686.43272	1770.625
1689.69527	1755.925
1692.95567	1724.325
1696.2139	1714.625
1699.46999	1676.925
1702.72392	1643.225
1705.97571	1585.225
1709.22535	1544.025
1712.47284	1495.925
1715.71819	1443.825
1718.96139	1414.025
1722.20246	1379.025
1725.44139	1349.525
1728.67818	1318.525
1731.91284	1288.525
1735.14537	1283.525
1738.37576	1258.325
1741.60403	1253.925
1744.83017	1228.425
1748.05418	1220.425
1751.27607	1209.725
1754.49584	1201.525
1757.71349	1202.325
1760.92903	1181.925
1764.14244	1184.125
1767.35375	1168.425
1770.56294	1174.625
1773.77002	1177.425
1776.97499	1172.625
1780.17785	1164.625
1783.37861	1159.825
1786.57727	1158.225
1789.77382	1149.425
1792.96828	1158.425
1796.16064	1149.425
1799.3509	1134.525
1802.53907	1127.925
1805.72514	1130.925
1808.90913	1118.525
1812.09102	1121.825
1815.27083	1120.525
1818.44856	1110.525
1821.6242	1112.125
1824.79776	1115.025
1827.96924	1106.025
1831.13864	1096.425
1834.30597	1099.025
1837.47122	1110.025
1840.6344	1096.525
1843.7955	1092.225
1846.95454	1088.525
1850.11151	1096.625
1853.26642	1087.925
1856.41926	1092.325
1859.57004	1080.425
1862.71876	1086.525
1865.86542	1084.825
1869.01003	1076.125
1872.15258	1079.325
1875.29308	1078.425
1878.43152	1071.525
1881.56792	1073.125
1884.70227	1069.025
1887.83457	1059.725
1890.96482	1067.325
1894.09304	1062.325
1897.21921	1061.325
1900.34335	1060.825
1903.46544	1060.325
1906.58551	1060.525
1909.70353	1049.025
1912.81953	1046.125
1915.93349	1050.625
1919.04543	1044.025
1922.15534	1039.525
1925.26322	1045.425
1928.36908	1039.525
1931.47292	1035.425
1934.57473	1034.325
1937.67453	1030.125
1940.77232	1021.725
1943.86808	1026.025
1946.96184	1018.625
1950.05358	1016.925
1953.14331	1018.325
1956.23103	1013.225
1959.31675	1008.225
1962.40046	1001.325
1965.48217	998.725
1968.56188	996.825
1971.63959	997.325
1974.7153	989.225
1977.78901	982.825
1980.86073	984.025
1983.93046	983.525
1986.99819	986.825
1990.06394	977.625
1993.1277	981.425
1996.18947	972.925
1999.24925	969.925
2002.30706	966.525
2005.36288	971.825
2008.41672	964.925
2011.46859	959.225
2014.51848	956.825
2017.56639	942.825
2020.61233	950.325
2023.6563	947.025
2026.6983	943.325
2029.73833	946.925
2032.7764	948.025
2035.8125	935.025
2038.84664	932.925
2041.87881	941.625
2044.90903	932.625
2047.93729	940.225
2050.96359	940.025
2053.98794	941.525
2057.01034	936.125
2060.03078	946.425
2063.04927	944.125
2066.06582	946.725
2069.08042	953.625
2072.09307	955.725
2075.10378	970.225
2078.11255	970.025
2081.11938	979.525
2084.12426	984.625
2087.12722	995.625
2090.12824	1000.225
2093.12732	1014.825
2096.12447	1027.525
2099.11969	1024.725
2102.11299	1034.425
2105.10435	1041.325
2108.09379	1038.625
2111.08131	1031.025
2114.0669	1047.325
2117.05057	1036.125
2120.03233	1036.725
2123.01216	1034.325
2125.99008	1022.525
2128.96609	1021.625
2131.94018	1022.525
2134.91236	1012.525
2137.88263	1009.825
2140.851	994.525
2143.81746	995.425
2146.78201	987.125
2149.74466	980.425
2152.7054	974.925
2155.66425	967.025
2158.6212	952.925
2161.57625	950.825
2164.52941	941.325
2167.48067	930.725
2170.43004	921.725
2173.37752	918.025
2176.32311	913.225
2179.26681	916.225
2182.20863	908.725
2185.14856	909.225
2188.08661	907.925
2191.02278	903.325
2193.95707	902.325
2196.88948	898.925
2199.82001	898.425
2202.74867	890.225
2205.67545	888.925
2208.60037	895.325
2211.52341	882.025
2214.44458	883.525
2217.36388	886.625
2220.28132	887.425
2223.1969	878.425
2226.11061	879.925
2229.02246	874.625
2231.93245	874.125
2234.84058	872.925
2237.74686	860.825
2240.65128	870.325
2243.55385	860.425
2246.45456	855.925
2249.35343	854.725
2252.25044	856.925
2255.14561	850.825
2258.03893	858.025
2260.93041	856.625
2263.82004	851.125
2266.70783	851.125
2269.59378	851.225
2272.4779	848.725
2275.36017	845.125
2278.24061	845.525
2281.11922	841.325
2283.996	839.625
2286.87094	838.625
2289.74405	837.625
2292.61534	833.425
2295.4848	835.325
2298.35243	827.025
2301.21824	831.025
2304.08223	833.825
2306.94439	822.325
2309.80474	823.225
2312.66327	820.825
2315.51999	825.025
2318.37489	823.925
2321.22797	817.225
2324.07925	817.525
2326.92871	824.925
2329.77637	816.225
2332.62222	821.325
2335.46626	813.625
2338.3085	813.725
2341.14893	805.925
2343.98756	799.325
2346.8244	803.625
2349.65943	802.025
2352.49267	801.425
2355.32411	804.825
2358.15376	797.825
2360.98161	798.725
2363.80768	798.725
2366.63195	793.925
2369.45444	797.525
2372.27514	800.225
2375.09405	802.025
2377.91118	795.425
2380.72652	793.225
2383.54009	790.225
2386.35187	794.525
2389.16188	783.425
2391.97011	785.825
2394.77657	778.225
2397.58125	775.725
2400.38416	773.525
2403.18529	775.025
2405.98466	780.225
2408.78226	777.525
2411.57809	770.425
2414.37216	767.325
2417.16446	764.625
2419.955	771.125
2422.74378	768.225
2425.5308	762.325
2428.31606	763.325
2431.09956	758.825
2433.88131	762.525
2436.6613	762.525
2439.43954	764.925
2442.21603	760.325
2444.99077	758.725
2447.76377	761.925
2450.53501	758.725
2453.30451	758.625
2456.07226	750.625
2458.83827	754.025
2461.60254	756.725
2464.36507	747.725
2467.12586	744.625
2469.88492	744.325
2472.64224	744.425
2475.39782	744.525
2478.15167	742.725
2480.90379	743.225
2483.65417	748.525
2486.40283	743.625
2489.14976	746.525
2491.89497	740.725
2494.63845	741.025
2497.3802	738.025
2500.12024	733.925
2502.85855	739.325
2505.59514	737.225
2508.33002	731.825
2511.06318	735.825
2513.79462	730.825
2516.52435	727.025
2519.25237	731.325
2521.97867	726.825
2524.70327	724.325
2527.42616	719.425
2530.14734	722.025
2532.86681	724.525
2535.58458	714.825
2538.30065	714.125
2541.01501	722.025
2543.72768	717.925
2546.43864	714.925
2549.14791	711.525
2551.85548	713.525
2554.56136	711.025
2557.26554	710.425
2559.96803	707.225
2562.66883	704.725
2565.36794	705.325
2568.06536	704.525
2570.7611	708.725
2573.45514	706.625
2576.14751	699.425
2578.83819	699.125
2581.52719	699.325
2584.21451	698.825
2586.90015	699.625
2589.58411	689.625
2592.2664	698.825
2594.94701	692.425
2597.62594	696.225
2600.30321	688.625
2602.9788	685.525
2605.65273	685.325
2608.32498	685.825
2610.99557	683.425
2613.66449	684.625
2616.33175	680.825
2618.99734	682.725
2621.66128	679.325
2624.32355	682.725
2626.98416	685.825
2629.64311	679.925
2632.30041	680.825
2634.95605	679.425
2637.61004	676.925
2640.26238	679.625
2642.91306	675.025
2645.56209	678.325
2648.20948	681.725
2650.85521	671.125
2653.4993	674.725
2656.14175	672.225
2658.78255	675.025
2661.42171	677.725
2664.05923	672.025
2666.6951	674.025
2669.32934	681.825
2671.96194	674.825
2674.59291	681.525
2677.22224	675.425
2679.84993	680.525
2682.476	676.725
2685.10043	676.325
2687.72324	682.325
2690.34441	682.625
2692.96396	684.425
2695.58188	683.525
2698.19818	689.325
2700.81285	694.325
2703.4259	690.125
2706.03733	685.625
2708.64714	691.925
2711.25533	689.425
2713.86191	689.925
2716.46687	685.525
2719.07021	699.525
2721.67194	694.825
2724.27206	692.025
2726.87057	700.925
2729.46747	692.225
2732.06276	690.525
2734.65644	697.525
2737.24852	692.525
2739.83899	696.325
2742.42786	687.225
2745.01513	685.325
2747.60079	689.425
2750.18486	685.725
2752.76733	687.825
2755.3482	691.025
2757.92747	691.125
2760.50515	680.025
2763.08123	688.425
2765.65573	679.425
2768.22863	682.425
2770.79994	673.425
2773.36967	685.825
2775.9378	679.825
2778.50435	671.725
2781.06932	676.525
2783.6327	674.625
2786.1945	672.725
2788.75471	676.425
2791.31335	672.925
2793.87041	668.625
2796.42589	667.025
2798.97979	663.425
2801.53212	660.625
2804.08288	665.625
2806.63206	669.625
2809.17967	664.025
2811.72571	664.825
2814.27018	662.025
2816.81308	664.425
2819.35442	661.225
2821.89419	659.725
2824.43239	655.625
2826.96904	656.125
2829.50412	654.525
2832.03763	652.225
2834.56959	660.525
2837.1	654.325
2839.62884	652.425
2842.15613	652.525
2844.68186	657.425
2847.20604	656.225
2849.72867	655.825
2852.24974	655.225
2854.76927	653.225
2857.28724	655.025
2859.80367	657.825
2862.31855	656.025
2864.83189	670.225
2867.34368	661.025
2869.85393	660.525
2872.36264	661.225
2874.8698	667.725
2877.37543	667.425
2879.87952	674.825
2882.38207	675.525
2884.88308	675.025
2887.38256	678.325
2889.88051	680.725
2892.37692	682.725
2894.8718	690.325
2897.36515	703.325
2899.85698	699.425
2902.34727	715.025
2904.83604	720.925
2907.32328	728.725
2909.809	739.225
2912.29319	740.625
2914.77587	757.325
2917.25702	758.625
2919.73665	766.725
2922.21476	774.025
2924.69136	777.425
2927.16644	790.125
2929.64	790.225
2932.11205	798.725
2934.58258	797.625
2937.05161	799.725
2939.51912	796.425
2941.98513	797.325
2944.44962	792.825
2946.91261	780.525
2949.37409	779.225
2951.83407	765.825
2954.29254	758.425
2956.74951	753.725
2959.20498	744.025
2961.65895	722.425
2964.11142	720.625
2966.56239	711.125
2969.01186	709.725
2971.45984	694.325
2973.90632	694.825
2976.35131	689.725
2978.7948	683.525
2981.23681	679.025
2983.67732	677.025
2986.11635	674.925
2988.55388	671.425
2990.98993	673.825
2993.4245	672.125
2995.85758	668.225
2998.28917	666.725
3000.71928	670.725
3003.14791	669.425
3005.57506	667.625
3008.00073	667.525
3010.42493	660.425
3012.84764	670.525
3015.26888	666.725
3017.68865	665.925
3020.10694	662.225
3022.52376	671.725
3024.9391	674.025
3027.35298	670.825
3029.76539	666.825
3032.17632	669.725
3034.5858	669.225
3036.9938	663.125
3039.40034	674.325
3041.80542	666.725
3044.20903	670.925
3046.61118	671.225
3049.01187	674.625
3051.4111	673.925
3053.80888	678.825
3056.20519	680.625
3058.60005	682.425
3060.99345	681.925
3063.3854	684.025
3065.7759	681.825
3068.16494	689.725
3070.55254	686.025
3072.93868	689.325
3075.32338	689.425
3077.70662	694.425
3080.08842	698.125
3082.46878	705.425
3084.84769	707.125
3087.22515	714.625
3089.60118	709.925
3091.97576	712.125
3094.3489	715.925
3096.72061	724.925
3099.09087	720.125
3101.4597	731.725
3103.82709	728.125
3106.19305	733.125
3108.55757	740.125
3110.92066	738.525
3113.28232	737.225
3115.64255	748.725
3118.00134	754.525
3120.35871	749.425
3122.71466	759.125
3125.06917	767.325
3127.42226	759.625
3129.77393	771.825
3132.12417	777.225
3134.47299	779.225
3136.82039	782.925
3139.16636	790.125
3141.51092	800.425
3143.85406	809.425
3146.19579	809.325
3148.53609	810.825
3150.87499	818.825
3153.21246	828.725
3155.54853	840.025
3157.88318	832.825
3160.21642	840.725
3162.54826	851.725
3164.87868	856.025
3167.2077	859.925
3169.5353	865.125
3171.86151	867.225
3174.18631	872.525
3176.5097	874.825
3178.83169	883.425
3181.15228	880.625
3183.47147	892.425
3185.78926	893.425
3188.10565	902.425
3190.42065	909.625
3192.73424	906.425
3195.04645	912.025
3197.35725	915.325
3199.66667	919.525
3201.97469	924.325
3204.28132	933.825
3206.58656	933.125
3208.8904	935.725
3211.19287	946.225
3213.49394	941.025
3215.79363	950.225
3218.09193	955.325
3220.38884	946.325
3222.68438	947.025
3224.97853	954.725
3227.2713	958.425
3229.56269	955.625
3231.8527	966.125
3234.14133	958.725
3236.42858	962.125
3238.71446	955.525
3240.99896	958.125
3243.28209	968.525
3245.56384	963.325
3247.84423	970.225
3250.12324	971.925
3252.40088	968.325
3254.67715	968.525
3256.95205	975.425
3259.22558	972.725
3261.49775	966.225
3263.76855	973.525
3266.03799	969.125
3268.30606	966.925
3270.57277	972.025
3272.83812	965.425
3275.10211	967.725
3277.36474	972.925
3279.62601	970.025
3281.88593	965.925
3284.14448	967.725
3286.40168	969.125
3288.65753	966.525
3290.91202	962.725
3293.16516	963.425
