Data from AgNPs_FTO_APTES_UA_0.1mM_CRN_1000uM_NaF_0.1M_Addition_RamanShift__32__15-51-27-840.txt Node

Date: Mon Dec 20 15:51:27 GMT 2021
User: TCL
Spectrometer: QEP01345
Trigger mode: 4
Integration Time (sec): 7.000000E0
Scans to average: 10
Electric dark correction enabled: true
Nonlinearity correction enabled: false
Boxcar width: 0
XAxis mode: Raman Shifts
Number of Pixels in Spectrum: 1044
>>>>>Begin Spectral Data<<<<<
46.04893	0.275
50.45542	-0.225
54.85868	-1.425
59.25871	1.275
63.6555	27.175
68.04907	24.975
72.43941	27.575
76.82654	27.075
81.21044	26.675
85.59113	32.775
89.96862	28.575
94.34289	32.875
98.71396	35.175
103.08183	31.575
107.4465	34.275
111.80798	39.875
116.16626	37.475
120.52136	35.075
124.87327	37.775
129.222	40.175
133.56755	37.375
137.90993	41.775
142.24913	47.275
146.58517	46.575
150.91804	56.875
155.24774	64.275
159.57429	76.875
163.89768	94.475
168.21792	121.175
172.53501	149.175
176.84895	199.575
181.15975	272.875
185.46741	373.975
189.77193	510.475
194.07331	678.075
198.37157	888.175
202.6667	1095.075
206.9587	1308.275
211.24758	1512.075
215.53334	1732.575
219.81599	1958.075
224.09553	2205.275
228.37195	2500.875
232.64527	2801.775
236.91549	3104.575
241.18261	3400.475
245.44663	3622.275
249.70755	3822.875
253.96539	3947.575
258.22014	4025.575
262.4718	4050.575
266.72039	4069.875
270.96589	4028.275
275.20832	3975.975
279.44768	3863.475
283.68397	3726.875
287.91719	3655.675
292.14735	3669.975
296.37445	3779.675
300.59849	3994.175
304.81948	4234.675
309.03742	4398.175
313.25231	4385.775
317.46415	4120.075
321.67296	3715.075
325.87872	3349.775
330.08145	3165.675
334.28114	3135.675
338.47781	3178.575
342.67145	3284.075
346.86207	3435.975
351.04966	3727.775
355.23424	4029.575
359.4158	4304.475
363.59435	4458.975
367.76989	4518.875
371.94243	4555.875
376.11196	4552.975
380.27849	4545.475
384.44203	4509.075
388.60257	4414.775
392.76012	4338.575
396.91468	4311.175
401.06626	4409.175
405.21485	4432.075
409.36047	4285.075
413.50311	3970.875
417.64277	3617.375
421.77947	3389.175
425.9132	3272.975
430.04396	3203.575
434.17176	3211.675
438.2966	3254.275
442.41849	3309.375
446.53742	3398.675
450.6534	3477.375
454.76644	3510.175
458.87653	3519.475
462.98368	3485.375
467.08789	3420.175
471.18916	3360.375
475.2875	3307.875
479.38291	3272.675
483.4754	3305.875
487.56496	3402.875
491.6516	3497.575
495.73531	3555.875
499.81612	3525.875
503.89401	3468.375
507.96899	3468.575
512.04106	3550.675
516.11023	3703.375
520.1765	3866.875
524.23987	3970.375
528.30034	3916.475
532.35792	3822.875
536.41261	3648.475
540.46441	3443.275
544.51333	3261.575
548.55936	3185.575
552.60252	3178.575
556.64279	3246.575
560.6802	3282.775
564.71473	3347.475
568.7464	3550.375
572.7752	3650.775
576.80114	3491.875
580.82422	3297.975
584.84444	3250.775
588.86181	3277.375
592.87633	3314.275
596.888	3344.275
600.89682	3484.575
604.9028	4046.475
608.90594	5569.875
612.90624	7798.075
616.90371	7933.975
620.89834	5748.175
624.89015	4847.275
628.87913	5051.375
632.86528	5507.975
636.84862	5761.075
640.82913	5584.975
644.80683	4983.175
648.78172	4351.875
652.75379	3955.675
656.72306	3843.775
660.68952	3868.075
664.65319	3710.275
668.61405	3391.175
672.57211	3235.675
676.52738	3234.875
680.47986	3240.175
684.42955	3228.275
688.37646	3182.975
692.32058	3164.075
696.26192	3150.875
700.20048	3151.875
704.13626	3158.375
708.06928	3122.175
711.99952	3068.575
715.927	3094.875
719.85171	3166.375
723.77365	3228.675
727.69284	3240.675
731.60928	3160.775
735.52295	3079.175
739.43388	3018.875
743.34206	3014.375
747.24749	3056.375
751.15017	3049.775
755.05012	3093.875
758.94733	3268.575
762.8418	3711.575
766.73354	4517.075
770.62254	5387.875
774.50882	5925.575
778.39237	5779.475
782.27321	4919.175
786.15132	3960.175
790.02671	3412.675
793.89938	3219.475
797.76935	3196.675
801.6366	3334.175
805.50115	3598.475
809.36299	3942.475
813.22213	4071.475
817.07857	3935.575
820.93231	3641.175
824.78336	3319.375
828.63172	3088.975
832.47738	2963.775
836.32036	2889.575
840.16066	2840.875
843.99827	2809.875
847.8332	2799.875
851.66546	2782.875
855.49504	2799.775
859.32195	2807.775
863.1462	2841.675
866.96777	2902.075
870.78668	3021.175
874.60293	3198.475
878.41652	3422.175
882.22745	3665.575
886.03573	3817.675
889.84136	3829.975
893.64433	3655.675
897.44466	3397.875
901.24235	3132.575
905.0374	2939.775
908.8298	2791.375
912.61957	2708.475
916.40671	2664.975
920.19121	2634.875
923.97308	2623.175
927.75233	2664.375
931.52895	2706.375
935.30295	2690.775
939.07433	2597.075
942.84309	2509.975
946.60924	2443.775
950.37278	2425.975
954.13371	2412.675
957.89203	2399.475
961.64774	2388.775
965.40086	2386.875
969.15137	2372.275
972.89929	2358.575
976.64461	2366.875
980.38733	2362.075
984.12747	2368.875
987.86502	2402.975
991.59999	2420.275
995.33237	2478.075
999.06217	2565.575
1002.78939	2706.675
1006.51404	2855.875
1010.23611	3017.875
1013.95561	3132.775
1017.67255	3149.675
1021.38692	3108.675
1025.09872	2985.175
1028.80796	2824.575
1032.51465	2693.875
1036.21877	2621.475
1039.92035	2580.675
1043.61937	2590.275
1047.31584	2605.775
1051.00976	2620.675
1054.70114	2648.675
1058.38998	2673.675
1062.07627	2736.875
1065.76003	2785.675
1069.44126	2818.475
1073.11995	2835.075
1076.79611	2864.075
1080.46974	2881.075
1084.14085	2941.275
1087.80943	2963.175
1091.47549	2964.775
1095.13903	2871.675
1098.80005	2733.875
1102.45857	2653.975
1106.11456	2650.075
1109.76805	2739.075
1113.41903	2912.275
1117.06751	3187.675
1120.71348	3565.275
1124.35696	4055.175
1127.99793	4577.675
1131.63641	4886.675
1135.2724	4892.075
1138.90589	4747.275
1142.5369	4466.175
1146.16542	4063.775
1149.79145	3647.275
1153.415	3291.775
1157.03607	3026.975
1160.65467	2928.375
1164.27079	2928.075
1167.88443	3040.575
1171.49561	3266.275
1175.10432	3736.275
1178.71056	4438.475
1182.31434	5113.375
1185.91565	5378.875
1189.51451	5257.075
1193.11091	5042.175
1196.70485	4894.275
1200.29634	4918.975
1203.88538	4893.875
1207.47197	4640.975
1211.05612	4222.675
1214.63782	3824.075
1218.21708	3455.175
1221.79391	3162.475
1225.36829	2960.375
1228.94024	2831.275
1232.50976	2754.075
1236.07685	2724.475
1239.6415	2728.275
1243.20374	2746.175
1246.76355	2803.175
1250.32093	2838.575
1253.8759	2866.975
1257.42845	2935.675
1260.97859	3008.175
1264.52631	3121.475
1268.07163	3211.375
1271.61453	3265.275
1275.15503	3301.975
1278.69312	3257.575
1282.22882	3223.275
1285.76211	3286.075
1289.29301	3416.675
1292.82151	3578.675
1296.34761	3775.475
1299.87133	4098.175
1303.39266	4644.975
1306.9116	5479.875
1310.42815	6312.175
1313.94233	6554.175
1317.45412	6078.175
1320.96354	5359.175
1324.47058	4705.775
1327.97525	4244.175
1331.47754	3997.775
1334.97747	3923.975
1338.47502	4039.275
1341.97022	4300.575
1345.46305	4754.175
1348.95352	5362.775
1352.44163	6153.475
1355.92738	7144.775
1359.41078	8520.175
1362.89183	9627.575
1366.37053	9152.675
1369.84688	7582.975
1373.32088	6138.875
1376.79254	5138.175
1380.26186	4525.975
1383.72883	4174.975
1387.19347	3889.475
1390.65578	3660.075
1394.11575	3462.875
1397.57339	3339.375
1401.0287	3250.475
1404.48168	3175.575
1407.93234	3096.575
1411.38068	3025.975
1414.82669	2955.975
1418.27039	2914.075
1421.71177	2865.775
1425.15083	2796.175
1428.58758	2737.575
1432.02203	2714.575
1435.45416	2706.075
1438.88399	2668.375
1442.31151	2639.175
1445.73673	2647.175
1449.15965	2658.575
1452.58027	2634.775
1455.9986	2610.575
1459.41463	2589.775
1462.82837	2628.975
1466.23982	2684.975
1469.64898	2762.875
1473.05586	2802.875
1476.46045	2822.875
1479.86276	2889.475
1483.26279	2994.175
1486.66054	3161.675
1490.05602	3377.875
1493.44922	3720.275
1496.84016	4256.475
1500.22882	5098.675
1503.61521	6299.675
1506.99934	7633.975
1510.38121	8548.175
1513.76081	8536.675
1517.13816	7526.875
1520.51324	6073.175
1523.88607	4849.275
1527.25665	4152.175
1530.62498	3799.775
1533.99105	3608.675
1537.35488	3532.775
1540.71647	3523.175
1544.07581	3604.375
1547.4329	3696.275
1550.78776	3803.175
1554.14038	3851.075
1557.49077	3894.375
1560.83892	3936.375
1564.18484	4080.475
1567.52853	4304.975
1570.86999	4529.275
1574.20922	4651.875
1577.54624	4651.975
1580.88103	4315.575
1584.2136	3866.975
1587.54395	3562.775
1590.87208	3487.375
1594.19801	3603.875
1597.52172	3803.275
1600.84321	3891.075
1604.16251	3780.675
1607.47959	3651.475
1610.79447	3521.275
1614.10715	3378.675
1617.41763	3282.875
1620.7259	3210.475
1624.03199	3177.775
1627.33587	3183.675
1630.63757	3230.175
1633.93707	3361.175
1637.23439	3548.075
1640.52951	3902.075
1643.82246	4511.575
1647.11321	5288.175
1650.40179	5967.575
1653.68819	5974.375
1656.97241	5257.275
1660.25446	4423.075
1663.53433	3826.775
1666.81203	3452.475
1670.08756	3186.275
1673.36092	2981.575
1676.63211	2849.175
1679.90115	2719.975
1683.16801	2638.375
1686.43272	2547.775
1689.69527	2482.075
1692.95567	2422.475
1696.2139	2382.275
1699.46999	2328.175
1702.72392	2269.575
1705.97571	2194.275
1709.22535	2134.475
1712.47284	2082.575
1715.71819	2068.175
1718.96139	2014.975
1722.20246	1981.075
1725.44139	1956.175
1728.67818	1923.075
1731.91284	1886.975
1735.14537	1864.375
1738.37576	1850.475
1741.60403	1825.475
1744.83017	1801.875
1748.05418	1804.475
1751.27607	1782.375
1754.49584	1780.275
1757.71349	1775.275
1760.92903	1760.775
1764.14244	1747.175
1767.35375	1721.375
1770.56294	1713.275
1773.77002	1689.575
1776.97499	1659.275
1780.17785	1637.675
1783.37861	1608.975
1786.57727	1610.375
1789.77382	1591.175
1792.96828	1583.575
1796.16064	1578.975
1799.3509	1560.075
1802.53907	1560.075
1805.72514	1543.875
1808.90913	1536.275
1812.09102	1532.875
1815.27083	1513.275
1818.44856	1516.375
1821.6242	1511.975
1824.79776	1499.275
1827.96924	1496.275
1831.13864	1492.875
1834.30597	1487.975
1837.47122	1482.475
1840.6344	1474.075
1843.7955	1479.975
1846.95454	1466.775
1850.11151	1465.475
1853.26642	1466.475
1856.41926	1458.575
1859.57004	1460.275
1862.71876	1452.375
1865.86542	1455.375
1869.01003	1439.975
1872.15258	1435.075
1875.29308	1436.975
1878.43152	1426.575
1881.56792	1428.375
1884.70227	1427.075
1887.83457	1419.475
1890.96482	1422.875
1894.09304	1420.675
1897.21921	1408.375
1900.34335	1413.675
1903.46544	1413.775
1906.58551	1414.975
1909.70353	1399.075
1912.81953	1407.675
1915.93349	1397.675
1919.04543	1394.375
1922.15534	1394.075
1925.26322	1385.075
1928.36908	1377.375
1931.47292	1375.075
1934.57473	1373.175
1937.67453	1356.375
1940.77232	1360.075
1943.86808	1352.275
1946.96184	1352.575
1950.05358	1332.775
1953.14331	1339.675
1956.23103	1329.675
1959.31675	1327.775
1962.40046	1323.175
1965.48217	1319.175
1968.56188	1326.275
1971.63959	1313.775
1974.7153	1312.275
1977.78901	1313.775
1980.86073	1304.175
1983.93046	1291.475
1986.99819	1291.675
1990.06394	1277.975
1993.1277	1276.275
1996.18947	1265.775
1999.24925	1256.575
2002.30706	1256.275
2005.36288	1255.475
2008.41672	1252.375
2011.46859	1244.575
2014.51848	1237.475
2017.56639	1232.475
2020.61233	1241.475
2023.6563	1222.775
2026.6983	1216.375
2029.73833	1215.475
2032.7764	1223.175
2035.8125	1211.075
2038.84664	1213.175
2041.87881	1206.475
2044.90903	1196.475
2047.93729	1207.375
2050.96359	1196.675
2053.98794	1192.775
2057.01034	1195.475
2060.03078	1187.375
2063.04927	1181.975
2066.06582	1185.675
2069.08042	1181.275
2072.09307	1182.475
2075.10378	1185.775
2078.11255	1183.675
2081.11938	1181.175
2084.12426	1174.675
2087.12722	1178.975
2090.12824	1175.475
2093.12732	1178.175
2096.12447	1169.575
2099.11969	1170.775
2102.11299	1174.075
2105.10435	1174.375
2108.09379	1170.775
2111.08131	1168.475
2114.0669	1174.075
2117.05057	1169.675
2120.03233	1173.575
2123.01216	1169.875
2125.99008	1178.875
2128.96609	1171.075
2131.94018	1178.675
2134.91236	1184.975
2137.88263	1177.075
2140.851	1175.275
2143.81746	1166.975
2146.78201	1177.275
2149.74466	1171.775
2152.7054	1166.275
2155.66425	1163.175
2158.6212	1158.575
2161.57625	1161.875
2164.52941	1169.075
2167.48067	1157.775
2170.43004	1159.275
2173.37752	1151.775
2176.32311	1137.475
2179.26681	1151.575
2182.20863	1164.175
2185.14856	1148.375
2188.08661	1146.475
2191.02278	1145.375
2193.95707	1140.675
2196.88948	1130.875
2199.82001	1134.475
2202.74867	1136.575
2205.67545	1125.175
2208.60037	1128.275
2211.52341	1125.475
2214.44458	1121.975
2217.36388	1117.775
2220.28132	1119.975
2223.1969	1109.875
2226.11061	1111.475
2229.02246	1101.275
2231.93245	1107.775
2234.84058	1097.575
2237.74686	1096.575
2240.65128	1092.975
2243.55385	1095.675
2246.45456	1097.575
2249.35343	1103.275
2252.25044	1090.375
2255.14561	1094.975
2258.03893	1098.975
2260.93041	1108.075
2263.82004	1097.075
2266.70783	1098.075
2269.59378	1090.175
2272.4779	1083.575
2275.36017	1078.875
2278.24061	1079.575
2281.11922	1070.375
2283.996	1076.675
2286.87094	1075.275
2289.74405	1064.475
2292.61534	1057.275
2295.4848	1053.275
2298.35243	1054.375
2301.21824	1053.375
2304.08223	1053.575
2306.94439	1045.775
2309.80474	1047.775
2312.66327	1048.475
2315.51999	1040.775
2318.37489	1045.775
2321.22797	1042.575
2324.07925	1033.475
2326.92871	1034.775
2329.77637	1034.975
2332.62222	1037.775
2335.46626	1019.075
2338.3085	1028.475
2341.14893	1023.875
2343.98756	1027.675
2346.8244	1017.575
2349.65943	1021.675
2352.49267	1028.075
2355.32411	1021.675
2358.15376	1032.375
2360.98161	1031.875
2363.80768	1036.875
2366.63195	1046.075
2369.45444	1045.875
2372.27514	1045.175
2375.09405	1049.875
2377.91118	1041.075
2380.72652	1040.775
2383.54009	1031.675
2386.35187	1037.875
2389.16188	1017.775
2391.97011	1020.175
2394.77657	1012.175
2397.58125	1003.375
2400.38416	996.275
2403.18529	998.175
2405.98466	995.875
2408.78226	1002.175
2411.57809	989.175
2414.37216	984.875
2417.16446	983.075
2419.955	980.975
2422.74378	980.375
2425.5308	975.375
2428.31606	977.775
2431.09956	975.675
2433.88131	979.375
2436.6613	976.175
2439.43954	977.275
2442.21603	971.975
2444.99077	968.075
2447.76377	972.975
2450.53501	972.475
2453.30451	975.775
2456.07226	970.575
2458.83827	970.175
2461.60254	973.375
2464.36507	968.975
2467.12586	966.275
2469.88492	963.075
2472.64224	969.275
2475.39782	979.875
2478.15167	970.175
2480.90379	970.575
2483.65417	977.775
2486.40283	981.175
2489.14976	978.275
2491.89497	985.775
2494.63845	999.275
2497.3802	988.375
2500.12024	980.475
2502.85855	973.175
2505.59514	966.375
2508.33002	960.075
2511.06318	953.975
2513.79462	943.475
2516.52435	936.675
2519.25237	929.675
2521.97867	920.575
2524.70327	919.575
2527.42616	919.475
2530.14734	915.475
2532.86681	915.175
2535.58458	917.775
2538.30065	915.475
2541.01501	912.975
2543.72768	914.575
2546.43864	903.675
2549.14791	914.375
2551.85548	914.675
2554.56136	907.675
2557.26554	914.675
2559.96803	903.275
2562.66883	907.275
2565.36794	902.575
2568.06536	893.075
2570.7611	897.275
2573.45514	889.775
2576.14751	891.975
2578.83819	879.475
2581.52719	881.375
2584.21451	879.075
2586.90015	880.275
2589.58411	879.475
2592.2664	874.875
2594.94701	880.275
2597.62594	878.575
2600.30321	870.275
2602.9788	867.475
2605.65273	873.775
2608.32498	868.175
2610.99557	871.775
2613.66449	863.075
2616.33175	865.675
2618.99734	863.875
2621.66128	861.275
2624.32355	865.775
2626.98416	858.075
2629.64311	851.375
2632.30041	851.675
2634.95605	849.375
2637.61004	838.875
2640.26238	851.175
2642.91306	840.975
2645.56209	846.475
2648.20948	848.475
2650.85521	839.175
2653.4993	836.275
2656.14175	837.575
2658.78255	845.875
2661.42171	841.075
2664.05923	837.075
2666.6951	836.875
2669.32934	847.975
2671.96194	847.175
2674.59291	844.775
2677.22224	847.675
2679.84993	844.775
2682.476	846.175
2685.10043	849.475
2687.72324	843.375
2690.34441	844.575
2692.96396	844.675
2695.58188	846.875
2698.19818	849.075
2700.81285	851.175
2703.4259	868.675
2706.03733	905.575
2708.64714	878.975
2711.25533	869.475
2713.86191	866.275
2716.46687	863.075
2719.07021	858.875
2721.67194	858.075
2724.27206	858.175
2726.87057	859.975
2729.46747	859.075
2732.06276	855.975
2734.65644	853.375
2737.24852	845.775
2739.83899	853.375
2742.42786	839.575
2745.01513	836.275
2747.60079	842.375
2750.18486	831.175
2752.76733	838.475
2755.3482	830.475
2757.92747	830.975
2760.50515	828.875
2763.08123	828.075
2765.65573	826.475
2768.22863	826.175
2770.79994	819.475
2773.36967	825.875
2775.9378	829.375
2778.50435	818.175
2781.06932	824.675
2783.6327	829.375
2786.1945	825.875
2788.75471	825.675
2791.31335	833.075
2793.87041	823.275
2796.42589	828.675
2798.97979	824.175
2801.53212	824.375
2804.08288	825.475
2806.63206	832.575
2809.17967	827.175
2811.72571	822.575
2814.27018	830.375
2816.81308	825.475
2819.35442	840.675
2821.89419	836.075
2824.43239	843.475
2826.96904	844.775
2829.50412	838.175
2832.03763	837.775
2834.56959	846.675
2837.1	841.075
2839.62884	841.975
2842.15613	837.075
2844.68186	839.075
2847.20604	847.475
2849.72867	848.775
2852.24974	857.975
2854.76927	865.575
2857.28724	880.175
2859.80367	867.575
2862.31855	865.875
2864.83189	869.575
2867.34368	868.175
2869.85393	863.375
2872.36264	870.575
2874.8698	874.875
2877.37543	868.575
2879.87952	873.275
2882.38207	871.775
2884.88308	878.875
2887.38256	880.775
2889.88051	874.375
2892.37692	878.375
2894.8718	878.575
2897.36515	884.175
2899.85698	882.975
2902.34727	890.975
2904.83604	890.675
2907.32328	895.975
2909.809	899.675
2912.29319	897.475
2914.77587	899.275
2917.25702	897.375
2919.73665	908.075
2922.21476	902.275
2924.69136	900.475
2927.16644	899.075
2929.64	903.975
2932.11205	908.275
2934.58258	910.475
2937.05161	896.975
2939.51912	902.175
2941.98513	894.475
2944.44962	899.675
2946.91261	891.775
2949.37409	893.075
2951.83407	885.675
2954.29254	893.675
2956.74951	884.075
2959.20498	877.475
2961.65895	868.575
2964.11142	871.075
2966.56239	863.375
2969.01186	870.475
2971.45984	854.675
2973.90632	851.675
2976.35131	852.275
2978.7948	857.875
2981.23681	847.775
2983.67732	844.775
2986.11635	846.675
2988.55388	849.975
2990.98993	840.475
2993.4245	843.575
2995.85758	842.375
2998.28917	843.975
3000.71928	841.975
3003.14791	850.475
3005.57506	849.575
3008.00073	847.675
3010.42493	851.675
3012.84764	854.175
3015.26888	854.675
3017.68865	851.575
3020.10694	859.075
3022.52376	859.575
3024.9391	862.975
3027.35298	861.175
3029.76539	852.775
3032.17632	861.075
3034.5858	854.275
3036.9938	857.875
3039.40034	865.075
3041.80542	861.375
3044.20903	857.875
3046.61118	862.675
3049.01187	859.775
3051.4111	864.175
3053.80888	875.475
3056.20519	869.975
3058.60005	863.575
3060.99345	871.775
3063.3854	871.575
3065.7759	879.675
3068.16494	877.875
3070.55254	879.675
3072.93868	882.775
3075.32338	883.675
3077.70662	892.575
3080.08842	885.975
3082.46878	890.975
3084.84769	898.075
3087.22515	901.275
3089.60118	903.175
3091.97576	908.975
3094.3489	911.275
3096.72061	922.075
3099.09087	922.475
3101.4597	924.275
3103.82709	931.175
3106.19305	932.375
3108.55757	943.275
3110.92066	938.775
3113.28232	944.775
3115.64255	953.375
3118.00134	944.875
3120.35871	960.675
3122.71466	961.875
3125.06917	961.275
3127.42226	974.075
3129.77393	981.275
3132.12417	982.975
3134.47299	993.475
3136.82039	998.875
3139.16636	1000.775
3141.51092	1015.475
3143.85406	1022.675
3146.19579	1028.475
3148.53609	1032.275
3150.87499	1039.675
3153.21246	1053.475
3155.54853	1056.475
3157.88318	1072.175
3160.21642	1079.275
3162.54826	1086.275
3164.87868	1086.175
3167.2077	1094.375
3169.5353	1103.275
3171.86151	1103.675
3174.18631	1112.575
3176.5097	1120.275
3178.83169	1118.775
3181.15228	1131.575
3183.47147	1135.175
3185.78926	1144.375
3188.10565	1138.975
3190.42065	1148.975
3192.73424	1161.475
3195.04645	1167.675
3197.35725	1175.775
3199.66667	1176.775
3201.97469	1179.575
3204.28132	1187.775
3206.58656	1202.075
3208.8904	1192.775
3211.19287	1214.675
3213.49394	1206.775
3215.79363	1213.875
3218.09193	1218.975
3220.38884	1243.175
3222.68438	1242.775
3224.97853	1244.575
3227.2713	1239.475
3229.56269	1232.175
3231.8527	1232.675
3234.14133	1238.275
3236.42858	1235.675
3238.71446	1242.175
3240.99896	1242.875
3243.28209	1239.275
3245.56384	1234.375
3247.84423	1241.775
3250.12324	1233.075
3252.40088	1239.875
3254.67715	1253.675
3256.95205	1242.275
3259.22558	1256.175
3261.49775	1243.775
3263.76855	1251.075
3266.03799	1240.775
3268.30606	1251.075
3270.57277	1245.575
