Data from AgNPs_FTO_APTES_UA_0.1mM_CRN_10uM_NaF_0.1M_Addition_RamanShift__25__11-47-37-565.txt Node

Date: Mon Dec 20 11:47:37 GMT 2021
User: TCL
Spectrometer: QEP01345
Trigger mode: 4
Integration Time (sec): 7.000000E0
Scans to average: 10
Electric dark correction enabled: true
Nonlinearity correction enabled: false
Boxcar width: 0
XAxis mode: Raman Shifts
Number of Pixels in Spectrum: 1044
>>>>>Begin Spectral Data<<<<<
46.04893	0.725
50.45542	-0.775
54.85868	-1.075
59.25871	0.125
63.6555	36.025
68.04907	38.325
72.43941	38.625
76.82654	41.125
81.21044	42.725
85.59113	46.325
89.96862	44.125
94.34289	49.825
98.71396	50.025
103.08183	49.725
107.4465	51.125
111.80798	53.125
116.16626	54.125
120.52136	57.425
124.87327	59.225
129.222	59.325
133.56755	64.225
137.90993	66.625
142.24913	71.625
146.58517	72.625
150.91804	89.325
155.24774	102.925
159.57429	124.825
163.89768	157.025
168.21792	205.825
172.53501	268.825
176.84895	369.425
181.15975	513.725
185.46741	716.525
189.77193	984.725
194.07331	1319.125
198.37157	1700.825
202.6667	2102.925
206.9587	2528.525
211.24758	2917.325
215.53334	3316.825
219.81599	3718.825
224.09553	4146.825
228.37195	4621.425
232.64527	5125.325
236.91549	5664.525
241.18261	6186.125
245.44663	6684.525
249.70755	7117.525
253.96539	7511.425
258.22014	7810.525
262.4718	8084.025
266.72039	8211.225
270.96589	8284.725
275.20832	8274.725
279.44768	8210.325
283.68397	8104.325
287.91719	8013.025
292.14735	7935.325
296.37445	7897.225
300.59849	7913.125
304.81948	7967.625
309.03742	7952.725
313.25231	7902.025
317.46415	7735.025
321.67296	7512.725
325.87872	7336.425
330.08145	7245.925
334.28114	7253.825
338.47781	7295.525
342.67145	7361.925
346.86207	7499.725
351.04966	7667.925
355.23424	7841.225
359.4158	8015.625
363.59435	8138.825
367.76989	8240.025
371.94243	8305.025
376.11196	8365.125
380.27849	8436.525
384.44203	8498.525
388.60257	8541.125
392.76012	8579.025
396.91468	8667.125
401.06626	8777.025
405.21485	8866.125
409.36047	8839.925
413.50311	8713.625
417.64277	8599.425
421.77947	8533.825
425.9132	8539.525
430.04396	8529.025
434.17176	8581.925
438.2966	8660.325
442.41849	8762.625
446.53742	8892.725
450.6534	9047.825
454.76644	9173.425
458.87653	9207.025
462.98368	9189.125
467.08789	9131.825
471.18916	9081.725
475.2875	9084.925
479.38291	9127.525
483.4754	9177.725
487.56496	9290.525
491.6516	9366.825
495.73531	9415.125
499.81612	9375.125
503.89401	9263.425
507.96899	9159.825
512.04106	9094.725
516.11023	9106.325
520.1765	9129.625
524.23987	9196.725
528.30034	9211.625
532.35792	9202.725
536.41261	9084.625
540.46441	8958.325
544.51333	8851.225
548.55936	8793.925
552.60252	8811.425
556.64279	8863.525
560.6802	8947.025
564.71473	8991.325
568.7464	9117.925
572.7752	9239.125
576.80114	9252.025
580.82422	9264.925
584.84444	9309.025
588.86181	9465.425
592.87633	9645.325
596.888	9774.525
600.89682	9626.125
604.9028	9820.125
608.90594	10582.025
612.90624	11663.125
616.90371	11650.325
620.89834	10555.625
624.89015	10295.725
628.87913	10713.525
632.86528	11219.225
636.84862	11484.725
640.82913	11295.125
644.80683	10731.525
648.78172	10183.525
652.75379	9731.825
656.72306	9503.625
660.68952	9444.925
664.65319	9359.425
668.61405	9230.025
672.57211	9166.025
676.52738	9178.025
680.47986	9178.825
684.42955	9158.525
688.37646	9143.825
692.32058	9136.025
696.26192	9102.825
700.20048	9069.025
704.13626	9047.425
708.06928	8964.025
711.99952	8878.025
715.927	8824.225
719.85171	8875.825
723.77365	8905.625
727.69284	8884.825
731.60928	8814.625
735.52295	8728.525
739.43388	8689.525
743.34206	8666.025
747.24749	8710.725
751.15017	8727.125
755.05012	8797.625
758.94733	8907.225
762.8418	9161.325
766.73354	9650.425
770.62254	10167.725
774.50882	10393.325
778.39237	10185.725
782.27321	9605.625
786.15132	9117.025
790.02671	8864.825
793.89938	8763.825
797.76935	8798.025
801.6366	8933.825
805.50115	9171.725
809.36299	9457.725
813.22213	9573.325
817.07857	9430.525
820.93231	9139.625
824.78336	8812.025
828.63172	8602.125
832.47738	8467.925
836.32036	8417.625
840.16066	8385.525
843.99827	8357.825
847.8332	8323.825
851.66546	8289.325
855.49504	8272.625
859.32195	8282.225
863.1462	8297.825
866.96777	8390.825
870.78668	8475.125
874.60293	8668.225
878.41652	8860.625
882.22745	9041.725
886.03573	9156.725
889.84136	9142.025
893.64433	8920.825
897.44466	8677.825
901.24235	8408.225
905.0374	8212.925
908.8298	8074.525
912.61957	7995.925
916.40671	7972.425
920.19121	7971.325
923.97308	7990.425
927.75233	7977.625
931.52895	7940.125
935.30295	7925.025
939.07433	7832.225
942.84309	7808.425
946.60924	7760.825
950.37278	7746.525
954.13371	7731.425
957.89203	7708.525
961.64774	7670.425
965.40086	7632.025
969.15137	7624.725
972.89929	7587.125
976.64461	7533.325
980.38733	7523.525
984.12747	7512.025
987.86502	7548.025
991.59999	7581.725
995.33237	7657.725
999.06217	7787.225
1002.78939	7963.525
1006.51404	8130.725
1010.23611	8273.425
1013.95561	8362.825
1017.67255	8373.425
1021.38692	8305.325
1025.09872	8166.625
1028.80796	8039.025
1032.51465	7965.225
1036.21877	7911.925
1039.92035	7852.125
1043.61937	7808.325
1047.31584	7777.525
1051.00976	7718.225
1054.70114	7737.425
1058.38998	7754.025
1062.07627	7817.925
1065.76003	7920.325
1069.44126	7990.225
1073.11995	8020.425
1076.79611	8039.825
1080.46974	7991.625
1084.14085	7978.925
1087.80943	7951.525
1091.47549	7951.725
1095.13903	7860.025
1098.80005	7774.525
1102.45857	7686.825
1106.11456	7630.825
1109.76805	7698.425
1113.41903	7804.325
1117.06751	8017.025
1120.71348	8326.425
1124.35696	8739.125
1127.99793	9264.425
1131.63641	9751.125
1135.2724	10002.725
1138.90589	9954.225
1142.5369	9726.525
1146.16542	9296.625
1149.79145	8848.225
1153.415	8468.825
1157.03607	8162.825
1160.65467	8066.725
1164.27079	8072.625
1167.88443	8217.425
1171.49561	8475.025
1175.10432	8870.825
1178.71056	9403.025
1182.31434	9936.625
1185.91565	10240.525
1189.51451	10290.325
1193.11091	10267.425
1196.70485	10259.325
1200.29634	10254.125
1203.88538	10220.225
1207.47197	9990.725
1211.05612	9662.125
1214.63782	9325.725
1218.21708	8973.725
1221.79391	8715.025
1225.36829	8517.425
1228.94024	8351.925
1232.50976	8227.425
1236.07685	8110.825
1239.6415	8080.525
1243.20374	8106.725
1246.76355	8135.425
1250.32093	8200.925
1253.8759	8292.425
1257.42845	8396.725
1260.97859	8518.625
1264.52631	8617.125
1268.07163	8728.025
1271.61453	8812.825
1275.15503	8890.225
1278.69312	8933.025
1282.22882	9001.425
1285.76211	9114.125
1289.29301	9286.125
1292.82151	9538.925
1296.34761	9837.725
1299.87133	10248.625
1303.39266	10736.325
1306.9116	11392.325
1310.42815	12035.825
1313.94233	12474.525
1317.45412	12524.925
1320.96354	12276.225
1324.47058	11947.825
1327.97525	11670.225
1331.47754	11469.025
1334.97747	11445.825
1338.47502	11492.625
1341.97022	11617.925
1345.46305	11699.425
1348.95352	11846.025
1352.44163	12096.125
1355.92738	12511.825
1359.41078	13193.225
1362.89183	13900.325
1366.37053	13774.325
1369.84688	12687.425
1373.32088	11486.425
1376.79254	10667.625
1380.26186	10232.725
1383.72883	10066.325
1387.19347	9964.825
1390.65578	9848.525
1394.11575	9774.025
1397.57339	9743.825
1401.0287	9809.425
1404.48168	9843.125
1407.93234	9810.225
1411.38068	9697.125
1414.82669	9447.925
1418.27039	9121.025
1421.71177	8774.225
1425.15083	8470.325
1428.58758	8265.625
1432.02203	8198.525
1435.45416	8241.425
1438.88399	8311.525
1442.31151	8388.725
1445.73673	8430.725
1449.15965	8507.325
1452.58027	8588.425
1455.9986	8580.525
1459.41463	8614.225
1462.82837	8641.925
1466.23982	8754.225
1469.64898	8886.225
1473.05586	8930.325
1476.46045	8947.325
1479.86276	8977.025
1483.26279	8987.725
1486.66054	9020.025
1490.05602	9089.025
1493.44922	9200.425
1496.84016	9355.325
1500.22882	9589.325
1503.61521	10020.925
1506.99934	10538.125
1510.38121	11019.325
1513.76081	11225.125
1517.13816	10947.025
1520.51324	10319.225
1523.88607	9696.925
1527.25665	9313.925
1530.62498	9113.625
1533.99105	9092.325
1537.35488	9089.925
1540.71647	9125.125
1544.07581	9144.525
1547.4329	9105.525
1550.78776	9100.425
1554.14038	9081.725
1557.49077	9107.225
1560.83892	9130.625
1564.18484	9197.025
1567.52853	9218.725
1570.86999	9328.625
1574.20922	9382.025
1577.54624	9433.925
1580.88103	9386.825
1584.2136	9283.825
1587.54395	9271.525
1590.87208	9461.325
1594.19801	9791.025
1597.52172	10186.225
1600.84321	10425.625
1604.16251	10278.625
1607.47959	9916.825
1610.79447	9444.825
1614.10715	9014.825
1617.41763	8650.325
1620.7259	8438.825
1624.03199	8326.325
1627.33587	8342.825
1630.63757	8419.225
1633.93707	8689.525
1637.23439	9081.225
1640.52951	9664.725
1643.82246	10387.425
1647.11321	11126.025
1650.40179	11533.125
1653.68819	11313.125
1656.97241	10464.725
1660.25446	9486.425
1663.53433	8717.325
1666.81203	8178.425
1670.08756	7834.925
1673.36092	7578.625
1676.63211	7385.125
1679.90115	7297.325
1683.16801	7154.625
1686.43272	7044.425
1689.69527	6933.825
1692.95567	6843.525
1696.2139	6747.725
1699.46999	6637.025
1702.72392	6541.525
1705.97571	6415.525
1709.22535	6315.125
1712.47284	6233.825
1715.71819	6168.725
1718.96139	6098.425
1722.20246	6062.725
1725.44139	5985.125
1728.67818	5941.225
1731.91284	5864.325
1735.14537	5799.125
1738.37576	5764.325
1741.60403	5714.525
1744.83017	5703.325
1748.05418	5692.425
1751.27607	5673.525
1754.49584	5675.125
1757.71349	5652.525
1760.92903	5625.225
1764.14244	5611.525
1767.35375	5599.325
1770.56294	5571.625
1773.77002	5555.125
1776.97499	5513.525
1780.17785	5489.625
1783.37861	5468.125
1786.57727	5435.625
1789.77382	5404.625
1792.96828	5386.925
1796.16064	5366.525
1799.3509	5355.625
1802.53907	5335.225
1805.72514	5313.525
1808.90913	5278.825
1812.09102	5285.725
1815.27083	5264.625
1818.44856	5249.225
1821.6242	5229.225
1824.79776	5232.225
1827.96924	5229.025
1831.13864	5199.225
1834.30597	5208.925
1837.47122	5191.725
1840.6344	5181.725
1843.7955	5187.825
1846.95454	5176.725
1850.11151	5182.025
1853.26642	5156.425
1856.41926	5150.925
1859.57004	5158.725
1862.71876	5128.225
1865.86542	5128.525
1869.01003	5112.725
1872.15258	5128.125
1875.29308	5119.625
1878.43152	5101.725
1881.56792	5087.825
1884.70227	5100.725
1887.83457	5084.325
1890.96482	5091.825
1894.09304	5068.025
1897.21921	5064.125
1900.34335	5057.525
1903.46544	5044.925
1906.58551	5034.025
1909.70353	5026.925
1912.81953	5022.225
1915.93349	5002.025
1919.04543	4991.825
1922.15534	4980.325
1925.26322	4972.525
1928.36908	4967.725
1931.47292	4942.525
1934.57473	4942.225
1937.67453	4921.925
1940.77232	4916.025
1943.86808	4917.725
1946.96184	4890.425
1950.05358	4861.025
1953.14331	4852.425
1956.23103	4834.925
1959.31675	4828.325
1962.40046	4820.525
1965.48217	4799.025
1968.56188	4783.225
1971.63959	4771.325
1974.7153	4749.425
1977.78901	4739.925
1980.86073	4735.025
1983.93046	4712.825
1986.99819	4675.625
1990.06394	4674.125
1993.1277	4661.225
1996.18947	4637.425
1999.24925	4621.925
2002.30706	4610.025
2005.36288	4597.325
2008.41672	4581.325
2011.46859	4562.425
2014.51848	4540.325
2017.56639	4548.125
2020.61233	4540.825
2023.6563	4509.625
2026.6983	4513.425
2029.73833	4492.425
2032.7764	4474.025
2035.8125	4479.325
2038.84664	4474.325
2041.87881	4472.725
2044.90903	4441.525
2047.93729	4454.225
2050.96359	4434.725
2053.98794	4427.325
2057.01034	4417.025
2060.03078	4431.625
2063.04927	4416.425
2066.06582	4401.525
2069.08042	4391.725
2072.09307	4396.125
2075.10378	4385.025
2078.11255	4386.025
2081.11938	4386.925
2084.12426	4372.125
2087.12722	4375.725
2090.12824	4375.125
2093.12732	4377.325
2096.12447	4365.125
2099.11969	4367.625
2102.11299	4370.125
2105.10435	4367.325
2108.09379	4381.525
2111.08131	4380.425
2114.0669	4372.625
2117.05057	4373.725
2120.03233	4376.425
2123.01216	4374.725
2125.99008	4379.225
2128.96609	4381.725
2131.94018	4387.625
2134.91236	4379.825
2137.88263	4374.025
2140.851	4371.825
2143.81746	4398.925
2146.78201	4376.725
2149.74466	4371.925
2152.7054	4380.925
2155.66425	4369.025
2158.6212	4369.425
2161.57625	4370.825
2164.52941	4369.725
2167.48067	4347.125
2170.43004	4365.025
2173.37752	4363.925
2176.32311	4351.225
2179.26681	4346.125
2182.20863	4344.725
2185.14856	4355.225
2188.08661	4338.125
2191.02278	4355.425
2193.95707	4329.525
2196.88948	4321.125
2199.82001	4319.825
2202.74867	4317.525
2205.67545	4316.725
2208.60037	4303.725
2211.52341	4297.225
2214.44458	4280.425
2217.36388	4284.425
2220.28132	4276.725
2223.1969	4251.725
2226.11061	4262.425
2229.02246	4244.325
2231.93245	4248.525
2234.84058	4222.225
2237.74686	4212.125
2240.65128	4205.525
2243.55385	4208.925
2246.45456	4198.925
2249.35343	4191.725
2252.25044	4177.125
2255.14561	4175.525
2258.03893	4182.325
2260.93041	4177.425
2263.82004	4159.125
2266.70783	4150.225
2269.59378	4138.125
2272.4779	4123.325
2275.36017	4115.825
2278.24061	4100.925
2281.11922	4084.425
2283.996	4084.325
2286.87094	4096.625
2289.74405	4072.125
2292.61534	4058.425
2295.4848	4056.625
2298.35243	4046.425
2301.21824	4045.225
2304.08223	4030.125
2306.94439	4032.625
2309.80474	4030.525
2312.66327	4048.925
2315.51999	4029.825
2318.37489	4038.725
2321.22797	4001.125
2324.07925	4015.225
2326.92871	4004.325
2329.77637	4014.625
2332.62222	3998.325
2335.46626	3988.325
2338.3085	3977.525
2341.14893	3978.325
2343.98756	3970.225
2346.8244	3977.225
2349.65943	3963.325
2352.49267	3969.625
2355.32411	3946.725
2358.15376	3958.425
2360.98161	3941.525
2363.80768	3960.225
2366.63195	3957.125
2369.45444	3942.525
2372.27514	3935.525
2375.09405	3935.225
2377.91118	3929.625
2380.72652	3933.125
2383.54009	3910.925
2386.35187	3910.325
2389.16188	3889.225
2391.97011	3884.725
2394.77657	3885.525
2397.58125	3877.925
2400.38416	3855.225
2403.18529	3850.325
2405.98466	3855.325
2408.78226	3838.225
2411.57809	3829.325
2414.37216	3825.725
2417.16446	3822.325
2419.955	3811.825
2422.74378	3793.925
2425.5308	3787.625
2428.31606	3773.125
2431.09956	3783.725
2433.88131	3789.925
2436.6613	3781.025
2439.43954	3778.325
2442.21603	3767.125
2444.99077	3770.725
2447.76377	3757.825
2450.53501	3776.925
2453.30451	3762.925
2456.07226	3741.925
2458.83827	3741.925
2461.60254	3724.425
2464.36507	3743.425
2467.12586	3725.425
2469.88492	3736.025
2472.64224	3728.625
2475.39782	3725.325
2478.15167	3716.425
2480.90379	3719.325
2483.65417	3710.325
2486.40283	3708.625
2489.14976	3727.125
2491.89497	3717.025
2494.63845	3718.125
2497.3802	3705.225
2500.12024	3717.525
2502.85855	3706.325
2505.59514	3700.125
2508.33002	3684.925
2511.06318	3689.025
2513.79462	3677.125
2516.52435	3671.425
2519.25237	3667.025
2521.97867	3655.125
2524.70327	3658.825
2527.42616	3642.225
2530.14734	3643.025
2532.86681	3644.225
2535.58458	3623.125
2538.30065	3614.625
2541.01501	3614.725
2543.72768	3607.825
2546.43864	3600.825
2549.14791	3595.225
2551.85548	3591.525
2554.56136	3589.925
2557.26554	3574.025
2559.96803	3575.725
2562.66883	3568.425
2565.36794	3559.225
2568.06536	3552.625
2570.7611	3550.225
2573.45514	3527.125
2576.14751	3523.525
2578.83819	3528.925
2581.52719	3527.825
2584.21451	3520.925
2586.90015	3521.925
2589.58411	3519.625
2592.2664	3509.925
2594.94701	3503.025
2597.62594	3501.925
2600.30321	3470.025
2602.9788	3481.525
2605.65273	3488.225
2608.32498	3469.225
2610.99557	3466.725
2613.66449	3454.425
2616.33175	3477.125
2618.99734	3470.725
2621.66128	3450.225
2624.32355	3463.225
2626.98416	3450.825
2629.64311	3442.325
2632.30041	3456.725
2634.95605	3432.525
2637.61004	3427.825
2640.26238	3437.625
2642.91306	3423.125
2645.56209	3417.925
2648.20948	3424.725
2650.85521	3410.225
2653.4993	3409.225
2656.14175	3413.125
2658.78255	3404.425
2661.42171	3409.525
2664.05923	3404.425
2666.6951	3396.525
2669.32934	3413.725
2671.96194	3403.325
2674.59291	3391.525
2677.22224	3410.725
2679.84993	3413.225
2682.476	3421.325
2685.10043	3416.225
2687.72324	3407.225
2690.34441	3399.425
2692.96396	3401.525
2695.58188	3421.725
2698.19818	3398.625
2700.81285	3409.825
2703.4259	3421.525
2706.03733	3440.825
2708.64714	3427.725
2711.25533	3409.825
2713.86191	3404.625
2716.46687	3428.625
2719.07021	3414.825
2721.67194	3420.525
2724.27206	3402.825
2726.87057	3406.025
2729.46747	3416.725
2732.06276	3402.825
2734.65644	3421.625
2737.24852	3413.525
2739.83899	3399.125
2742.42786	3394.325
2745.01513	3388.125
2747.60079	3391.025
2750.18486	3381.825
2752.76733	3380.025
2755.3482	3371.425
2757.92747	3376.125
2760.50515	3376.525
2763.08123	3366.725
2765.65573	3362.825
2768.22863	3360.625
2770.79994	3347.125
2773.36967	3360.125
2775.9378	3357.625
2778.50435	3349.525
2781.06932	3352.325
2783.6327	3337.625
2786.1945	3347.225
2788.75471	3330.525
2791.31335	3334.325
2793.87041	3312.625
2796.42589	3314.725
2798.97979	3295.625
2801.53212	3304.725
2804.08288	3306.125
2806.63206	3287.825
2809.17967	3287.425
2811.72571	3272.725
2814.27018	3275.025
2816.81308	3265.425
2819.35442	3254.725
2821.89419	3258.825
2824.43239	3256.025
2826.96904	3256.125
2829.50412	3248.525
2832.03763	3250.625
2834.56959	3252.325
2837.1	3240.225
2839.62884	3248.525
2842.15613	3239.225
2844.68186	3245.225
2847.20604	3248.425
2849.72867	3240.725
2852.24974	3234.425
2854.76927	3255.425
2857.28724	3245.325
2859.80367	3240.625
2862.31855	3236.125
2864.83189	3231.625
2867.34368	3237.225
2869.85393	3227.925
2872.36264	3208.725
2874.8698	3239.125
2877.37543	3238.925
2879.87952	3242.725
2882.38207	3240.325
2884.88308	3246.225
2887.38256	3244.625
2889.88051	3239.725
2892.37692	3247.925
2894.8718	3245.825
2897.36515	3254.525
2899.85698	3244.825
2902.34727	3258.525
2904.83604	3246.625
2907.32328	3267.325
2909.809	3265.825
2912.29319	3255.925
2914.77587	3257.425
2917.25702	3254.325
2919.73665	3259.325
2922.21476	3255.725
2924.69136	3255.625
2927.16644	3259.425
2929.64	3256.325
2932.11205	3244.625
2934.58258	3249.225
2937.05161	3256.125
2939.51912	3249.425
2941.98513	3248.025
2944.44962	3233.725
2946.91261	3232.125
2949.37409	3234.225
2951.83407	3238.225
2954.29254	3230.225
2956.74951	3222.025
2959.20498	3221.025
2961.65895	3208.725
2964.11142	3195.825
2966.56239	3195.925
2969.01186	3193.525
2971.45984	3179.325
2973.90632	3180.825
2976.35131	3175.025
2978.7948	3174.225
2981.23681	3151.325
2983.67732	3154.825
2986.11635	3141.225
2988.55388	3146.225
2990.98993	3135.225
2993.4245	3129.625
2995.85758	3120.425
2998.28917	3117.325
3000.71928	3113.725
3003.14791	3112.425
3005.57506	3122.925
3008.00073	3106.725
3010.42493	3116.025
3012.84764	3109.725
3015.26888	3120.925
3017.68865	3109.425
3020.10694	3108.825
3022.52376	3094.425
3024.9391	3099.725
3027.35298	3085.425
3029.76539	3088.225
3032.17632	3090.625
3034.5858	3092.225
3036.9938	3077.125
3039.40034	3086.025
3041.80542	3086.325
3044.20903	3075.025
3046.61118	3073.825
3049.01187	3083.925
3051.4111	3076.025
3053.80888	3073.025
3056.20519	3081.225
3058.60005	3061.125
3060.99345	3062.725
3063.3854	3058.625
3065.7759	3061.925
3068.16494	3049.425
3070.55254	3049.325
3072.93868	3042.025
3075.32338	3051.025
3077.70662	3055.225
3080.08842	3043.425
3082.46878	3055.325
3084.84769	3041.025
3087.22515	3054.525
3089.60118	3051.325
3091.97576	3056.125
3094.3489	3074.825
3096.72061	3073.025
3099.09087	3073.025
3101.4597	3069.325
3103.82709	3079.625
3106.19305	3076.225
3108.55757	3087.425
3110.92066	3059.525
3113.28232	3066.025
3115.64255	3076.325
3118.00134	3075.225
3120.35871	3065.125
3122.71466	3070.225
3125.06917	3067.425
3127.42226	3063.925
3129.77393	3089.325
3132.12417	3098.825
3134.47299	3085.825
3136.82039	3092.425
3139.16636	3093.625
3141.51092	3104.425
3143.85406	3102.825
3146.19579	3118.725
3148.53609	3126.125
3150.87499	3125.025
3153.21246	3141.125
3155.54853	3144.425
3157.88318	3134.625
3160.21642	3150.725
3162.54826	3155.325
3164.87868	3165.125
3167.2077	3162.825
3169.5353	3173.025
3171.86151	3177.625
3174.18631	3179.725
3176.5097	3180.025
3178.83169	3182.125
3181.15228	3182.525
3183.47147	3191.325
3185.78926	3193.525
3188.10565	3193.925
3190.42065	3195.925
3192.73424	3208.725
3195.04645	3211.825
3197.35725	3212.125
3199.66667	3230.125
3201.97469	3237.325
3204.28132	3233.525
3206.58656	3245.925
3208.8904	3239.525
3211.19287	3259.425
3213.49394	3255.325
3215.79363	3262.925
3218.09193	3264.325
3220.38884	3274.025
3222.68438	3280.325
3224.97853	3258.325
3227.2713	3261.225
3229.56269	3253.225
