Data from AgNPs_FTO_APTES_UA_0.1mM_CRN_100uM_NaF_0.1M_Addition_RamanShift__5__13-22-07-672.txt Node

Date: Mon Dec 20 13:22:07 GMT 2021
User: TCL
Spectrometer: QEP01345
Trigger mode: 4
Integration Time (sec): 7.000000E0
Scans to average: 10
Electric dark correction enabled: true
Nonlinearity correction enabled: false
Boxcar width: 0
XAxis mode: Raman Shifts
Number of Pixels in Spectrum: 1044
>>>>>Begin Spectral Data<<<<<
46.04893	0.575
50.45542	0.075
54.85868	-1.425
59.25871	0.175
63.6555	27.975
68.04907	29.175
72.43941	31.475
76.82654	35.775
81.21044	37.275
85.59113	38.075
89.96862	36.075
94.34289	38.475
98.71396	39.475
103.08183	40.075
107.4465	39.975
111.80798	45.875
116.16626	43.475
120.52136	47.575
124.87327	48.075
129.222	49.575
133.56755	50.275
137.90993	53.975
142.24913	59.275
146.58517	63.575
150.91804	74.775
155.24774	83.075
159.57429	99.475
163.89768	128.775
168.21792	164.475
172.53501	211.875
176.84895	289.175
181.15975	404.575
185.46741	560.075
189.77193	767.575
194.07331	1026.375
198.37157	1336.975
202.6667	1649.975
206.9587	1991.475
211.24758	2312.475
215.53334	2643.375
219.81599	2989.175
224.09553	3367.375
228.37195	3807.275
232.64527	4292.575
236.91549	4779.175
241.18261	5280.675
245.44663	5718.775
249.70755	6073.575
253.96539	6350.375
258.22014	6559.275
262.4718	6691.875
266.72039	6735.375
270.96589	6746.575
275.20832	6680.875
279.44768	6587.775
283.68397	6478.175
287.91719	6400.575
292.14735	6283.775
296.37445	6207.475
300.59849	6195.475
304.81948	6154.875
309.03742	6130.875
313.25231	6063.775
317.46415	5991.175
321.67296	5906.475
325.87872	5837.075
330.08145	5792.975
334.28114	5784.175
338.47781	5784.375
342.67145	5825.475
346.86207	5848.275
351.04966	5928.975
355.23424	6007.075
359.4158	6064.075
363.59435	6137.075
367.76989	6205.475
371.94243	6282.975
376.11196	6295.475
380.27849	6409.375
384.44203	6447.375
388.60257	6515.075
392.76012	6577.675
396.91468	6633.975
401.06626	6681.875
405.21485	6730.475
409.36047	6754.375
413.50311	6711.675
417.64277	6696.375
421.77947	6678.075
425.9132	6680.875
430.04396	6700.575
434.17176	6729.575
438.2966	6791.975
442.41849	6785.775
446.53742	6863.375
450.6534	6937.575
454.76644	7006.075
458.87653	7030.275
462.98368	7080.775
467.08789	7072.275
471.18916	7091.075
475.2875	7118.975
479.38291	7157.475
483.4754	7237.275
487.56496	7328.975
491.6516	7447.575
495.73531	7555.175
499.81612	7606.475
503.89401	7552.775
507.96899	7485.675
512.04106	7376.775
516.11023	7342.475
520.1765	7343.475
524.23987	7342.775
528.30034	7381.275
532.35792	7394.575
536.41261	7368.875
540.46441	7323.875
544.51333	7233.675
548.55936	7178.975
552.60252	7131.375
556.64279	7165.775
560.6802	7149.675
564.71473	7161.275
568.7464	7190.775
572.7752	7251.975
576.80114	7297.675
580.82422	7373.775
584.84444	7531.975
588.86181	7673.875
592.87633	7756.275
596.888	7747.175
600.89682	7657.075
604.9028	7674.975
608.90594	7908.475
612.90624	8262.275
616.90371	8288.475
620.89834	8009.475
624.89015	8106.175
628.87913	8591.875
632.86528	9143.275
636.84862	9565.775
640.82913	9619.975
644.80683	9301.375
648.78172	8806.775
652.75379	8343.075
656.72306	8016.375
660.68952	7827.375
664.65319	7661.575
668.61405	7529.275
672.57211	7489.875
676.52738	7486.975
680.47986	7536.475
684.42955	7557.375
688.37646	7507.075
692.32058	7428.675
696.26192	7356.575
700.20048	7323.775
704.13626	7304.175
708.06928	7279.375
711.99952	7266.175
715.927	7270.375
719.85171	7330.275
723.77365	7414.075
727.69284	7478.575
731.60928	7447.575
735.52295	7346.475
739.43388	7255.775
743.34206	7224.775
747.24749	7242.175
751.15017	7225.375
755.05012	7247.475
758.94733	7317.275
762.8418	7420.775
766.73354	7596.375
770.62254	7765.575
774.50882	7823.275
778.39237	7701.075
782.27321	7446.875
786.15132	7263.175
790.02671	7144.675
793.89938	7116.975
797.76935	7123.975
801.6366	7224.575
805.50115	7362.575
809.36299	7620.075
813.22213	7796.075
817.07857	7812.775
820.93231	7641.375
824.78336	7386.175
828.63172	7168.275
832.47738	7021.475
836.32036	6940.975
840.16066	6913.675
843.99827	6909.875
847.8332	6914.975
851.66546	6901.675
855.49504	6897.975
859.32195	6906.975
863.1462	6948.875
866.96777	6998.875
870.78668	7073.375
874.60293	7201.175
878.41652	7371.075
882.22745	7525.775
886.03573	7649.375
889.84136	7750.375
893.64433	7706.375
897.44466	7502.075
901.24235	7273.875
905.0374	7069.175
908.8298	6942.975
912.61957	6846.575
916.40671	6790.275
920.19121	6788.875
923.97308	6775.175
927.75233	6769.975
931.52895	6743.775
935.30295	6718.375
939.07433	6681.975
942.84309	6616.075
946.60924	6601.775
950.37278	6592.775
954.13371	6565.775
957.89203	6579.375
961.64774	6548.575
965.40086	6545.475
969.15137	6520.575
972.89929	6508.875
976.64461	6491.575
980.38733	6483.275
984.12747	6486.675
987.86502	6506.175
991.59999	6526.775
995.33237	6570.575
999.06217	6642.175
1002.78939	6714.675
1006.51404	6829.475
1010.23611	6904.575
1013.95561	6975.275
1017.67255	7016.275
1021.38692	7018.275
1025.09872	6983.975
1028.80796	6923.475
1032.51465	6851.875
1036.21877	6778.575
1039.92035	6719.475
1043.61937	6675.775
1047.31584	6668.275
1051.00976	6655.875
1054.70114	6670.375
1058.38998	6688.275
1062.07627	6772.175
1065.76003	6831.575
1069.44126	6935.175
1073.11995	6985.375
1076.79611	7061.675
1080.46974	7041.375
1084.14085	7009.075
1087.80943	6939.675
1091.47549	6906.275
1095.13903	6845.175
1098.80005	6833.775
1102.45857	6790.375
1106.11456	6755.775
1109.76805	6801.675
1113.41903	6933.575
1117.06751	7157.975
1120.71348	7546.875
1124.35696	8061.475
1127.99793	8607.775
1131.63641	9109.575
1135.2724	9330.375
1138.90589	9278.975
1142.5369	8965.975
1146.16542	8548.575
1149.79145	8080.675
1153.415	7647.975
1157.03607	7297.375
1160.65467	7096.475
1164.27079	7026.775
1167.88443	7034.175
1171.49561	7100.175
1175.10432	7236.475
1178.71056	7467.075
1182.31434	7678.475
1185.91565	7829.675
1189.51451	7883.975
1193.11091	7932.875
1196.70485	7986.275
1200.29634	8063.975
1203.88538	8109.075
1207.47197	8120.975
1211.05612	8036.675
1214.63782	7894.375
1218.21708	7711.875
1221.79391	7486.775
1225.36829	7321.375
1228.94024	7190.975
1232.50976	7095.975
1236.07685	7043.475
1239.6415	7029.175
1243.20374	7058.575
1246.76355	7106.875
1250.32093	7179.175
1253.8759	7232.675
1257.42845	7309.575
1260.97859	7412.575
1264.52631	7471.375
1268.07163	7512.275
1271.61453	7550.775
1275.15503	7583.875
1278.69312	7576.475
1282.22882	7583.275
1285.76211	7637.075
1289.29301	7674.275
1292.82151	7774.375
1296.34761	7903.275
1299.87133	8038.875
1303.39266	8221.475
1306.9116	8417.975
1310.42815	8627.875
1313.94233	8749.375
1317.45412	8788.975
1320.96354	8775.975
1324.47058	8710.175
1327.97525	8659.975
1331.47754	8614.475
1334.97747	8623.975
1338.47502	8654.175
1341.97022	8739.775
1345.46305	8819.975
1348.95352	8954.975
1352.44163	9111.975
1355.92738	9315.275
1359.41078	9577.075
1362.89183	9804.075
1366.37053	9834.275
1369.84688	9460.775
1373.32088	9004.875
1376.79254	8661.775
1380.26186	8464.275
1383.72883	8301.475
1387.19347	8182.975
1390.65578	8028.875
1394.11575	7925.375
1397.57339	7807.475
1401.0287	7707.075
1404.48168	7674.275
1407.93234	7526.875
1411.38068	7373.975
1414.82669	7233.275
1418.27039	7083.475
1421.71177	6920.575
1425.15083	6770.775
1428.58758	6699.575
1432.02203	6661.475
1435.45416	6680.375
1438.88399	6699.375
1442.31151	6710.975
1445.73673	6736.975
1449.15965	6764.975
1452.58027	6776.375
1455.9986	6764.575
1459.41463	6775.775
1462.82837	6829.275
1466.23982	6861.575
1469.64898	6915.475
1473.05586	6977.875
1476.46045	6995.075
1479.86276	6998.575
1483.26279	7009.375
1486.66054	7029.075
1490.05602	7062.475
1493.44922	7170.075
1496.84016	7289.875
1500.22882	7478.975
1503.61521	7701.775
1506.99934	7938.175
1510.38121	8123.975
1513.76081	8189.775
1517.13816	8054.075
1520.51324	7850.875
1523.88607	7656.775
1527.25665	7565.975
1530.62498	7537.875
1533.99105	7564.575
1537.35488	7563.575
1540.71647	7577.375
1544.07581	7591.775
1547.4329	7587.475
1550.78776	7582.175
1554.14038	7567.675
1557.49077	7546.075
1560.83892	7560.875
1564.18484	7582.975
1567.52853	7582.975
1570.86999	7627.975
1574.20922	7645.275
1577.54624	7697.275
1580.88103	7658.975
1584.2136	7598.775
1587.54395	7571.475
1590.87208	7552.175
1594.19801	7617.475
1597.52172	7700.275
1600.84321	7765.975
1604.16251	7688.875
1607.47959	7548.675
1610.79447	7400.875
1614.10715	7266.175
1617.41763	7133.375
1620.7259	7045.675
1624.03199	7014.175
1627.33587	7035.275
1630.63757	7094.375
1633.93707	7255.975
1637.23439	7484.275
1640.52951	7777.675
1643.82246	8152.575
1647.11321	8489.075
1650.40179	8669.375
1653.68819	8563.275
1656.97241	8249.875
1660.25446	7887.275
1663.53433	7585.875
1666.81203	7431.975
1670.08756	7325.875
1673.36092	7273.275
1676.63211	7258.275
1679.90115	7258.475
1683.16801	7234.175
1686.43272	7184.775
1689.69527	7114.375
1692.95567	7011.275
1696.2139	6912.675
1699.46999	6807.475
1702.72392	6704.875
1705.97571	6559.975
1709.22535	6380.075
1712.47284	6200.375
1715.71819	6028.575
1718.96139	5884.675
1722.20246	5775.875
1725.44139	5672.375
1728.67818	5594.975
1731.91284	5525.975
1735.14537	5454.375
1738.37576	5401.875
1741.60403	5382.675
1744.83017	5355.875
1748.05418	5331.275
1751.27607	5309.575
1754.49584	5289.475
1757.71349	5287.275
1760.92903	5271.175
1764.14244	5264.675
1767.35375	5235.175
1770.56294	5234.575
1773.77002	5215.375
1776.97499	5192.575
1780.17785	5187.775
1783.37861	5162.875
1786.57727	5145.375
1789.77382	5124.975
1792.96828	5124.775
1796.16064	5087.675
1799.3509	5072.575
1802.53907	5080.275
1805.72514	5056.075
1808.90913	5047.975
1812.09102	5036.475
1815.27083	5022.675
1818.44856	5012.375
1821.6242	5005.475
1824.79776	4979.975
1827.96924	4963.775
1831.13864	4966.275
1834.30597	4949.775
1837.47122	4961.975
1840.6344	4949.675
1843.7955	4953.675
1846.95454	4951.575
1850.11151	4936.675
1853.26642	4915.375
1856.41926	4921.275
1859.57004	4916.675
1862.71876	4911.975
1865.86542	4897.475
1869.01003	4890.275
1872.15258	4875.175
1875.29308	4891.075
1878.43152	4876.475
1881.56792	4867.275
1884.70227	4867.675
1887.83457	4845.975
1890.96482	4836.675
1894.09304	4825.475
1897.21921	4812.975
1900.34335	4823.275
1903.46544	4817.975
1906.58551	4807.175
1909.70353	4790.175
1912.81953	4796.375
1915.93349	4787.775
1919.04543	4775.275
1922.15534	4764.975
1925.26322	4739.675
1928.36908	4732.275
1931.47292	4723.975
1934.57473	4729.175
1937.67453	4709.975
1940.77232	4692.875
1943.86808	4686.675
1946.96184	4669.675
1950.05358	4648.375
1953.14331	4635.175
1956.23103	4630.875
1959.31675	4627.575
1962.40046	4604.975
1965.48217	4597.375
1968.56188	4572.475
1971.63959	4567.975
1974.7153	4527.875
1977.78901	4532.575
1980.86073	4511.175
1983.93046	4487.475
1986.99819	4493.175
1990.06394	4467.875
1993.1277	4456.575
1996.18947	4442.275
1999.24925	4429.675
2002.30706	4427.375
2005.36288	4405.075
2008.41672	4395.875
2011.46859	4388.875
2014.51848	4358.175
2017.56639	4347.175
2020.61233	4338.975
2023.6563	4318.375
2026.6983	4325.975
2029.73833	4306.275
2032.7764	4299.575
2035.8125	4284.175
2038.84664	4274.575
2041.87881	4272.975
2044.90903	4261.575
2047.93729	4262.075
2050.96359	4245.675
2053.98794	4233.475
2057.01034	4234.775
2060.03078	4227.075
2063.04927	4218.775
2066.06582	4223.775
2069.08042	4218.975
2072.09307	4217.475
2075.10378	4216.175
2078.11255	4216.775
2081.11938	4207.575
2084.12426	4196.275
2087.12722	4209.975
2090.12824	4224.975
2093.12732	4202.875
2096.12447	4207.975
2099.11969	4200.875
2102.11299	4204.975
2105.10435	4217.175
2108.09379	4196.175
2111.08131	4202.475
2114.0669	4205.875
2117.05057	4219.075
2120.03233	4196.575
2123.01216	4219.475
2125.99008	4215.075
2128.96609	4212.275
2131.94018	4215.475
2134.91236	4218.375
2137.88263	4229.275
2140.851	4210.675
2143.81746	4237.375
2146.78201	4218.375
2149.74466	4221.975
2152.7054	4213.775
2155.66425	4230.775
2158.6212	4222.475
2161.57625	4208.475
2164.52941	4221.175
2167.48067	4205.575
2170.43004	4203.975
2173.37752	4213.475
2176.32311	4211.275
2179.26681	4196.775
2182.20863	4207.975
2185.14856	4178.375
2188.08661	4189.775
2191.02278	4187.075
2193.95707	4183.075
2196.88948	4184.375
2199.82001	4181.575
2202.74867	4154.875
2205.67545	4172.375
2208.60037	4171.775
2211.52341	4136.975
2214.44458	4149.475
2217.36388	4138.775
2220.28132	4122.275
2223.1969	4104.375
2226.11061	4100.775
2229.02246	4085.675
2231.93245	4075.175
2234.84058	4074.475
2237.74686	4069.975
2240.65128	4062.575
2243.55385	4054.175
2246.45456	4052.775
2249.35343	4049.075
2252.25044	4040.175
2255.14561	4033.875
2258.03893	4034.375
2260.93041	4034.775
2263.82004	4001.875
2266.70783	4002.675
2269.59378	3980.575
2272.4779	3983.275
2275.36017	3967.975
2278.24061	3959.775
2281.11922	3951.575
2283.996	3940.575
2286.87094	3937.775
2289.74405	3918.375
2292.61534	3920.675
2295.4848	3920.175
2298.35243	3922.875
2301.21824	3913.975
2304.08223	3913.775
2306.94439	3908.475
2309.80474	3891.975
2312.66327	3905.875
2315.51999	3893.275
2318.37489	3877.275
2321.22797	3884.575
2324.07925	3875.075
2326.92871	3872.675
2329.77637	3850.975
2332.62222	3859.875
2335.46626	3836.575
2338.3085	3836.975
2341.14893	3830.475
2343.98756	3824.375
2346.8244	3826.475
2349.65943	3814.175
2352.49267	3804.675
2355.32411	3805.175
2358.15376	3813.775
2360.98161	3795.275
2363.80768	3797.475
2366.63195	3800.875
2369.45444	3804.775
2372.27514	3787.475
2375.09405	3774.975
2377.91118	3767.575
2380.72652	3770.675
2383.54009	3754.475
2386.35187	3765.775
2389.16188	3744.675
2391.97011	3737.975
2394.77657	3727.275
2397.58125	3703.175
2400.38416	3702.375
2403.18529	3707.675
2405.98466	3710.275
2408.78226	3700.075
2411.57809	3692.575
2414.37216	3687.075
2417.16446	3679.175
2419.955	3682.775
2422.74378	3674.975
2425.5308	3656.075
2428.31606	3645.875
2431.09956	3646.975
2433.88131	3637.875
2436.6613	3652.475
2439.43954	3634.175
2442.21603	3634.475
2444.99077	3624.575
2447.76377	3618.475
2450.53501	3617.175
2453.30451	3618.075
2456.07226	3604.275
2458.83827	3595.575
2461.60254	3597.775
2464.36507	3597.775
2467.12586	3592.875
2469.88492	3590.975
2472.64224	3585.675
2475.39782	3576.775
2478.15167	3589.475
2480.90379	3580.475
2483.65417	3577.275
2486.40283	3566.775
2489.14976	3555.175
2491.89497	3555.575
2494.63845	3555.075
2497.3802	3555.075
2500.12024	3558.475
2502.85855	3538.075
2505.59514	3541.075
2508.33002	3539.775
2511.06318	3527.875
2513.79462	3525.175
2516.52435	3525.075
2519.25237	3520.975
2521.97867	3508.075
2524.70327	3513.675
2527.42616	3494.375
2530.14734	3507.775
2532.86681	3499.175
2535.58458	3483.675
2538.30065	3484.875
2541.01501	3476.175
2543.72768	3471.975
2546.43864	3466.675
2549.14791	3450.975
2551.85548	3450.975
2554.56136	3444.075
2557.26554	3424.475
2559.96803	3429.175
2562.66883	3414.475
2565.36794	3411.375
2568.06536	3416.375
2570.7611	3417.175
2573.45514	3395.575
2576.14751	3389.675
2578.83819	3397.175
2581.52719	3389.575
2584.21451	3376.075
2586.90015	3376.075
2589.58411	3353.275
2592.2664	3361.075
2594.94701	3347.275
2597.62594	3338.475
2600.30321	3330.875
2602.9788	3331.375
2605.65273	3329.975
2608.32498	3306.975
2610.99557	3301.675
2613.66449	3310.175
2616.33175	3299.175
2618.99734	3302.475
2621.66128	3288.175
2624.32355	3272.675
2626.98416	3270.775
2629.64311	3272.475
2632.30041	3285.775
2634.95605	3271.275
2637.61004	3262.675
2640.26238	3249.075
2642.91306	3267.375
2645.56209	3248.575
2648.20948	3241.475
2650.85521	3241.475
2653.4993	3253.075
2656.14175	3245.875
2658.78255	3238.875
2661.42171	3226.975
2664.05923	3239.775
2666.6951	3233.275
2669.32934	3238.775
2671.96194	3237.475
2674.59291	3242.975
2677.22224	3241.575
2679.84993	3238.675
2682.476	3234.475
2685.10043	3230.075
2687.72324	3220.875
2690.34441	3238.375
2692.96396	3226.375
2695.58188	3233.475
2698.19818	3232.775
2700.81285	3243.875
2703.4259	3246.675
2706.03733	3257.475
2708.64714	3254.575
2711.25533	3232.675
2713.86191	3246.375
2716.46687	3247.875
2719.07021	3240.575
2721.67194	3228.975
2724.27206	3234.075
2726.87057	3234.275
2729.46747	3236.275
2732.06276	3232.375
2734.65644	3234.175
2737.24852	3233.275
2739.83899	3220.375
2742.42786	3216.175
2745.01513	3211.075
2747.60079	3217.475
2750.18486	3198.175
2752.76733	3199.275
2755.3482	3199.575
2757.92747	3201.175
2760.50515	3194.075
2763.08123	3177.475
2765.65573	3174.375
2768.22863	3172.675
2770.79994	3166.275
2773.36967	3173.075
2775.9378	3167.775
2778.50435	3157.275
2781.06932	3147.975
2783.6327	3142.175
2786.1945	3131.675
2788.75471	3132.775
2791.31335	3123.775
2793.87041	3116.475
2796.42589	3113.575
2798.97979	3112.875
2801.53212	3097.475
2804.08288	3095.775
2806.63206	3087.475
2809.17967	3072.375
2811.72571	3074.675
2814.27018	3062.875
2816.81308	3062.575
2819.35442	3056.375
2821.89419	3049.075
2824.43239	3061.775
2826.96904	3039.975
2829.50412	3052.675
2832.03763	3043.375
2834.56959	3038.075
2837.1	3045.275
2839.62884	3036.275
2842.15613	3036.375
2844.68186	3053.475
2847.20604	3044.475
2849.72867	3031.475
2852.24974	3033.675
2854.76927	3041.475
2857.28724	3045.375
2859.80367	3014.975
2862.31855	3017.175
2864.83189	3026.275
2867.34368	3018.675
2869.85393	3013.675
2872.36264	3005.375
2874.8698	3022.875
2877.37543	3007.275
2879.87952	3012.875
2882.38207	3007.975
2884.88308	3005.675
2887.38256	3016.475
2889.88051	3014.475
2892.37692	3017.475
2894.8718	3020.475
2897.36515	3014.075
2899.85698	3019.475
2902.34727	3024.675
2904.83604	3027.075
2907.32328	3027.275
2909.809	3022.075
2912.29319	3028.175
2914.77587	3027.275
2917.25702	3011.075
2919.73665	3018.275
2922.21476	3034.175
2924.69136	3018.775
2927.16644	3025.375
2929.64	3024.175
2932.11205	3023.175
2934.58258	3020.675
2937.05161	3029.675
2939.51912	3031.575
2941.98513	3018.775
2944.44962	3017.975
2946.91261	3010.175
2949.37409	3009.975
2951.83407	3004.875
2954.29254	3013.275
2956.74951	3013.475
2959.20498	3004.575
2961.65895	3004.975
2964.11142	3010.875
2966.56239	2994.775
2969.01186	2988.775
2971.45984	2980.975
2973.90632	2974.775
2976.35131	2977.575
2978.7948	2975.575
2981.23681	2957.875
2983.67732	2951.075
2986.11635	2955.975
2988.55388	2954.875
2990.98993	2935.675
2993.4245	2939.775
2995.85758	2927.275
2998.28917	2937.475
3000.71928	2916.375
3003.14791	2922.975
3005.57506	2931.875
3008.00073	2935.275
3010.42493	2930.975
3012.84764	2919.575
3015.26888	2928.075
3017.68865	2919.775
3020.10694	2912.575
3022.52376	2912.675
3024.9391	2920.275
3027.35298	2922.275
3029.76539	2916.675
3032.17632	2919.175
3034.5858	2901.175
3036.9938	2905.275
3039.40034	2914.575
3041.80542	2906.775
3044.20903	2903.675
3046.61118	2907.175
3049.01187	2881.675
3051.4111	2900.275
3053.80888	2901.775
3056.20519	2904.775
3058.60005	2896.275
3060.99345	2896.175
3063.3854	2890.475
3065.7759	2880.075
3068.16494	2899.975
3070.55254	2889.875
3072.93868	2885.775
3075.32338	2875.775
3077.70662	2890.375
3080.08842	2876.175
3082.46878	2883.375
3084.84769	2890.575
3087.22515	2899.875
3089.60118	2894.675
3091.97576	2892.775
3094.3489	2902.775
3096.72061	2907.175
3099.09087	2915.375
3101.4597	2911.575
3103.82709	2923.875
3106.19305	2921.875
3108.55757	2928.375
3110.92066	2917.175
3113.28232	2913.475
3115.64255	2917.775
3118.00134	2925.675
3120.35871	2927.975
3122.71466	2916.075
3125.06917	2917.375
3127.42226	2923.075
3129.77393	2938.775
3132.12417	2933.975
3134.47299	2946.075
3136.82039	2944.375
3139.16636	2946.575
3141.51092	2957.975
3143.85406	2960.375
3146.19579	2964.575
3148.53609	2973.575
3150.87499	2994.275
3153.21246	3002.175
3155.54853	3009.975
3157.88318	3014.775
3160.21642	3028.175
3162.54826	3025.375
3164.87868	3019.975
3167.2077	3048.575
3169.5353	3043.175
3171.86151	3022.775
3174.18631	3045.275
3176.5097	3040.975
3178.83169	3043.575
3181.15228	3047.375
3183.47147	3042.475
3185.78926	3064.375
3188.10565	3046.075
3190.42065	3051.275
3192.73424	3067.375
3195.04645	3058.675
3197.35725	3071.775
3199.66667	3066.275
3201.97469	3080.375
3204.28132	3087.875
3206.58656	3082.675
3208.8904	3080.275
3211.19287	3108.775
3213.49394	3093.175
3215.79363	3101.975
3218.09193	3103.775
3220.38884	3105.475
3222.68438	3116.575
3224.97853	3105.075
3227.2713	3105.475
3229.56269	3101.475
3231.8527	3100.175
3234.14133	3093.475
3236.42858	3099.975
