Data from AgNPs_FTO_APTES_UA_0.1mM_CRN_50uM_NaF_0.1M_Addition_RamanShift__24__13-04-37-653.txt Node

Date: Mon Dec 20 13:04:37 GMT 2021
User: TCL
Spectrometer: QEP01345
Trigger mode: 4
Integration Time (sec): 7.000000E0
Scans to average: 10
Electric dark correction enabled: true
Nonlinearity correction enabled: false
Boxcar width: 0
XAxis mode: Raman Shifts
Number of Pixels in Spectrum: 1044
>>>>>Begin Spectral Data<<<<<
46.04893	0.475
50.45542	-0.725
54.85868	-1.325
59.25871	0.575
63.6555	32.175
68.04907	33.175
72.43941	33.375
76.82654	37.375
81.21044	39.775
85.59113	41.875
89.96862	39.875
94.34289	42.275
98.71396	42.375
103.08183	45.075
107.4465	45.675
111.80798	46.975
116.16626	49.375
120.52136	49.375
124.87327	54.875
129.222	56.575
133.56755	57.275
137.90993	59.675
142.24913	61.675
146.58517	69.975
150.91804	86.075
155.24774	98.075
159.57429	119.375
163.89768	147.375
168.21792	194.975
172.53501	257.275
176.84895	355.975
181.15975	499.675
185.46741	686.675
189.77193	949.375
194.07331	1279.175
198.37157	1652.975
202.6667	2067.875
206.9587	2466.575
211.24758	2868.075
215.53334	3264.475
219.81599	3666.075
224.09553	4097.475
228.37195	4557.975
232.64527	5065.875
236.91549	5583.475
241.18261	6102.575
245.44663	6565.975
249.70755	6995.675
253.96539	7381.275
258.22014	7683.575
262.4718	7933.975
266.72039	8082.575
270.96589	8123.975
275.20832	8082.875
279.44768	8006.975
283.68397	7870.275
287.91719	7761.975
292.14735	7704.075
296.37445	7658.275
300.59849	7678.275
304.81948	7715.875
309.03742	7734.175
313.25231	7658.875
317.46415	7530.175
321.67296	7348.875
325.87872	7192.975
330.08145	7088.275
334.28114	7086.975
338.47781	7143.175
342.67145	7208.475
346.86207	7324.475
351.04966	7483.275
355.23424	7650.275
359.4158	7803.375
363.59435	7926.175
367.76989	7996.275
371.94243	8069.875
376.11196	8137.475
380.27849	8188.775
384.44203	8260.175
388.60257	8309.575
392.76012	8332.175
396.91468	8417.275
401.06626	8503.075
405.21485	8566.275
409.36047	8557.975
413.50311	8456.675
417.64277	8319.975
421.77947	8267.275
425.9132	8238.975
430.04396	8279.175
434.17176	8274.475
438.2966	8313.275
442.41849	8428.675
446.53742	8543.375
450.6534	8628.375
454.76644	8703.475
458.87653	8776.775
462.98368	8762.975
467.08789	8715.675
471.18916	8733.775
475.2875	8732.075
479.38291	8773.275
483.4754	8828.775
487.56496	8920.975
491.6516	9042.075
495.73531	9105.775
499.81612	9042.375
503.89401	8956.375
507.96899	8875.275
512.04106	8838.275
516.11023	8877.375
520.1765	8915.275
524.23987	8986.675
528.30034	8994.975
532.35792	8998.475
536.41261	8909.775
540.46441	8787.675
544.51333	8672.375
548.55936	8613.275
552.60252	8583.375
556.64279	8648.875
560.6802	8687.075
564.71473	8728.575
568.7464	8835.975
572.7752	8898.175
576.80114	8886.175
580.82422	8856.575
584.84444	8910.175
588.86181	9009.475
592.87633	9097.575
596.888	9131.375
600.89682	9114.675
604.9028	9336.375
608.90594	10080.475
612.90624	11092.475
616.90371	11148.675
620.89834	10187.775
624.89015	9971.275
628.87913	10373.175
632.86528	10894.675
636.84862	11182.575
640.82913	11038.475
644.80683	10554.775
648.78172	9955.175
652.75379	9545.675
656.72306	9315.775
660.68952	9286.775
664.65319	9212.175
668.61405	9099.075
672.57211	9043.975
676.52738	9073.075
680.47986	9094.875
684.42955	9074.275
688.37646	9028.875
692.32058	9010.675
696.26192	8936.875
700.20048	8900.075
704.13626	8857.275
708.06928	8786.075
711.99952	8695.575
715.927	8681.075
719.85171	8691.975
723.77365	8725.275
727.69284	8746.975
731.60928	8690.875
735.52295	8580.175
739.43388	8505.675
743.34206	8510.275
747.24749	8544.075
751.15017	8527.175
755.05012	8588.575
758.94733	8675.075
762.8418	8929.575
766.73354	9339.075
770.62254	9772.575
774.50882	9985.975
778.39237	9784.275
782.27321	9315.775
786.15132	8891.675
790.02671	8636.875
793.89938	8562.675
797.76935	8576.375
801.6366	8683.875
805.50115	8904.475
809.36299	9177.475
813.22213	9283.775
817.07857	9180.075
820.93231	8893.175
824.78336	8578.275
828.63172	8363.175
832.47738	8252.875
836.32036	8187.575
840.16066	8157.275
843.99827	8124.475
847.8332	8111.275
851.66546	8089.375
855.49504	8074.475
859.32195	8098.675
863.1462	8125.275
866.96777	8183.975
870.78668	8280.275
874.60293	8446.675
878.41652	8614.775
882.22745	8790.975
886.03573	8880.175
889.84136	8892.075
893.64433	8719.975
897.44466	8453.875
901.24235	8224.175
905.0374	8031.775
908.8298	7916.975
912.61957	7823.775
916.40671	7795.275
920.19121	7778.175
923.97308	7765.975
927.75233	7765.175
931.52895	7773.375
935.30295	7743.475
939.07433	7689.775
942.84309	7616.475
946.60924	7603.075
950.37278	7590.175
954.13371	7558.775
957.89203	7536.375
961.64774	7490.475
965.40086	7449.475
969.15137	7431.475
972.89929	7403.275
976.64461	7372.975
980.38733	7364.975
984.12747	7378.375
987.86502	7392.775
991.59999	7439.175
995.33237	7470.875
999.06217	7568.575
1002.78939	7680.875
1006.51404	7788.575
1010.23611	7928.375
1013.95561	8005.375
1017.67255	8043.475
1021.38692	7980.275
1025.09872	7865.075
1028.80796	7745.975
1032.51465	7661.075
1036.21877	7592.075
1039.92035	7545.975
1043.61937	7506.575
1047.31584	7488.775
1051.00976	7468.875
1054.70114	7526.975
1058.38998	7522.375
1062.07627	7585.475
1065.76003	7683.775
1069.44126	7731.575
1073.11995	7787.975
1076.79611	7773.875
1080.46974	7750.575
1084.14085	7734.375
1087.80943	7680.975
1091.47549	7654.375
1095.13903	7595.475
1098.80005	7517.775
1102.45857	7427.775
1106.11456	7417.275
1109.76805	7465.375
1113.41903	7569.075
1117.06751	7760.375
1120.71348	8053.475
1124.35696	8459.875
1127.99793	8967.975
1131.63641	9396.975
1135.2724	9667.675
1138.90589	9632.775
1142.5369	9372.875
1146.16542	8968.275
1149.79145	8537.975
1153.415	8151.475
1157.03607	7857.175
1160.65467	7703.575
1164.27079	7683.875
1167.88443	7754.475
1171.49561	7946.475
1175.10432	8260.275
1178.71056	8710.475
1182.31434	9124.275
1185.91565	9323.775
1189.51451	9349.875
1193.11091	9310.075
1196.70485	9317.875
1200.29634	9357.775
1203.88538	9348.775
1207.47197	9181.875
1211.05612	8897.075
1214.63782	8577.575
1218.21708	8301.775
1221.79391	8066.575
1225.36829	7910.375
1228.94024	7761.475
1232.50976	7696.775
1236.07685	7643.375
1239.6415	7618.875
1243.20374	7645.875
1246.76355	7683.775
1250.32093	7739.475
1253.8759	7782.975
1257.42845	7860.675
1260.97859	7925.975
1264.52631	8018.775
1268.07163	8079.175
1271.61453	8120.375
1275.15503	8164.175
1278.69312	8197.175
1282.22882	8202.575
1285.76211	8259.675
1289.29301	8367.975
1292.82151	8550.975
1296.34761	8743.975
1299.87133	9006.775
1303.39266	9361.575
1306.9116	9868.875
1310.42815	10405.875
1313.94233	10727.575
1317.45412	10669.875
1320.96354	10421.275
1324.47058	10142.275
1327.97525	9921.875
1331.47754	9787.975
1334.97747	9782.275
1338.47502	9840.075
1341.97022	9988.475
1345.46305	10162.075
1348.95352	10371.075
1352.44163	10685.175
1355.92738	11088.975
1359.41078	11718.275
1362.89183	12352.275
1366.37053	12242.375
1369.84688	11294.075
1373.32088	10267.375
1376.79254	9598.175
1380.26186	9239.675
1383.72883	9053.575
1387.19347	8895.675
1390.65578	8742.875
1394.11575	8641.475
1397.57339	8585.075
1401.0287	8545.375
1404.48168	8510.175
1407.93234	8435.175
1411.38068	8327.975
1414.82669	8160.075
1418.27039	7958.575
1421.71177	7761.575
1425.15083	7533.575
1428.58758	7420.975
1432.02203	7364.775
1435.45416	7346.275
1438.88399	7375.075
1442.31151	7374.975
1445.73673	7379.075
1449.15965	7437.275
1452.58027	7458.175
1455.9986	7447.175
1459.41463	7480.275
1462.82837	7522.975
1466.23982	7621.875
1469.64898	7690.675
1473.05586	7747.075
1476.46045	7768.675
1479.86276	7791.675
1483.26279	7795.175
1486.66054	7833.375
1490.05602	7935.575
1493.44922	8066.375
1496.84016	8271.975
1500.22882	8592.075
1503.61521	9047.875
1506.99934	9614.775
1510.38121	10074.075
1513.76081	10203.775
1517.13816	9892.975
1520.51324	9257.175
1523.88607	8681.375
1527.25665	8297.775
1530.62498	8108.775
1533.99105	8062.175
1537.35488	8044.275
1540.71647	8056.275
1544.07581	8092.175
1547.4329	8122.575
1550.78776	8152.575
1554.14038	8157.375
1557.49077	8197.175
1560.83892	8256.275
1564.18484	8311.875
1567.52853	8401.575
1570.86999	8474.875
1574.20922	8545.075
1577.54624	8569.275
1580.88103	8468.975
1584.2136	8331.475
1587.54395	8248.975
1590.87208	8295.075
1594.19801	8452.275
1597.52172	8689.475
1600.84321	8817.775
1604.16251	8759.575
1607.47959	8559.075
1610.79447	8322.275
1614.10715	8098.975
1617.41763	7892.275
1620.7259	7737.175
1624.03199	7689.075
1627.33587	7672.675
1630.63757	7766.875
1633.93707	7910.875
1637.23439	8148.875
1640.52951	8538.175
1643.82246	9010.175
1647.11321	9606.575
1650.40179	9967.575
1653.68819	9822.175
1656.97241	9239.775
1660.25446	8528.375
1663.53433	7992.375
1666.81203	7644.175
1670.08756	7400.875
1673.36092	7221.875
1676.63211	7098.875
1679.90115	7014.175
1683.16801	6906.275
1686.43272	6813.575
1689.69527	6729.675
1692.95567	6594.875
1696.2139	6499.275
1699.46999	6380.275
1702.72392	6258.175
1705.97571	6160.775
1709.22535	6036.375
1712.47284	5972.175
1715.71819	5906.575
1718.96139	5857.275
1722.20246	5803.875
1725.44139	5731.375
1728.67818	5682.175
1731.91284	5638.375
1735.14537	5564.975
1738.37576	5526.075
1741.60403	5514.375
1744.83017	5481.975
1748.05418	5470.875
1751.27607	5457.175
1754.49584	5447.875
1757.71349	5447.875
1760.92903	5422.375
1764.14244	5412.275
1767.35375	5394.775
1770.56294	5370.075
1773.77002	5332.175
1776.97499	5303.975
1780.17785	5263.075
1783.37861	5234.175
1786.57727	5208.475
1789.77382	5180.675
1792.96828	5162.475
1796.16064	5143.775
1799.3509	5116.775
1802.53907	5086.975
1805.72514	5065.975
1808.90913	5059.375
1812.09102	5036.075
1815.27083	5045.475
1818.44856	5026.475
1821.6242	4999.475
1824.79776	4990.975
1827.96924	4998.175
1831.13864	4974.075
1834.30597	4982.975
1837.47122	4964.175
1840.6344	4945.875
1843.7955	4949.975
1846.95454	4943.175
1850.11151	4951.875
1853.26642	4924.475
1856.41926	4925.375
1859.57004	4924.175
1862.71876	4906.975
1865.86542	4898.075
1869.01003	4883.975
1872.15258	4888.175
1875.29308	4870.775
1878.43152	4857.375
1881.56792	4858.675
1884.70227	4850.275
1887.83457	4831.875
1890.96482	4822.375
1894.09304	4805.575
1897.21921	4794.575
1900.34335	4784.275
1903.46544	4803.375
1906.58551	4799.775
1909.70353	4776.275
1912.81953	4781.375
1915.93349	4770.075
1919.04543	4750.075
1922.15534	4746.775
1925.26322	4740.375
1928.36908	4725.675
1931.47292	4702.675
1934.57473	4696.975
1937.67453	4677.675
1940.77232	4677.175
1943.86808	4651.475
1946.96184	4642.275
1950.05358	4625.775
1953.14331	4611.775
1956.23103	4583.975
1959.31675	4589.475
1962.40046	4565.975
1965.48217	4554.475
1968.56188	4555.575
1971.63959	4517.475
1974.7153	4509.375
1977.78901	4491.375
1980.86073	4482.075
1983.93046	4453.275
1986.99819	4447.875
1990.06394	4416.375
1993.1277	4425.775
1996.18947	4419.175
1999.24925	4390.675
2002.30706	4385.675
2005.36288	4357.475
2008.41672	4354.375
2011.46859	4337.875
2014.51848	4334.575
2017.56639	4302.275
2020.61233	4303.475
2023.6563	4291.075
2026.6983	4268.875
2029.73833	4259.875
2032.7764	4240.875
2035.8125	4235.475
2038.84664	4229.075
2041.87881	4240.675
2044.90903	4198.175
2047.93729	4213.675
2050.96359	4191.875
2053.98794	4192.475
2057.01034	4179.875
2060.03078	4165.275
2063.04927	4171.975
2066.06582	4172.275
2069.08042	4150.475
2072.09307	4147.975
2075.10378	4162.575
2078.11255	4151.575
2081.11938	4146.975
2084.12426	4142.375
2087.12722	4141.575
2090.12824	4149.875
2093.12732	4147.175
2096.12447	4140.975
2099.11969	4130.375
2102.11299	4146.075
2105.10435	4129.875
2108.09379	4134.975
2111.08131	4139.575
2114.0669	4131.475
2117.05057	4135.175
2120.03233	4159.375
2123.01216	4147.275
2125.99008	4153.875
2128.96609	4141.975
2131.94018	4145.575
2134.91236	4145.575
2137.88263	4157.175
2140.851	4151.875
2143.81746	4160.775
2146.78201	4147.375
2149.74466	4142.775
2152.7054	4138.075
2155.66425	4151.275
2158.6212	4146.475
2161.57625	4142.975
2164.52941	4126.575
2167.48067	4134.375
2170.43004	4137.875
2173.37752	4132.275
2176.32311	4129.275
2179.26681	4121.875
2182.20863	4121.075
2185.14856	4109.075
2188.08661	4104.375
2191.02278	4103.975
2193.95707	4110.875
2196.88948	4092.175
2199.82001	4095.275
2202.74867	4083.075
2205.67545	4078.975
2208.60037	4068.375
2211.52341	4059.075
2214.44458	4069.075
2217.36388	4045.575
2220.28132	4050.175
2223.1969	4018.975
2226.11061	4024.375
2229.02246	3999.275
2231.93245	4002.875
2234.84058	4000.575
2237.74686	3989.475
2240.65128	3986.275
2243.55385	3974.675
2246.45456	3972.775
2249.35343	3956.275
2252.25044	3964.875
2255.14561	3940.575
2258.03893	3952.875
2260.93041	3945.175
2263.82004	3931.075
2266.70783	3915.675
2269.59378	3906.975
2272.4779	3907.275
2275.36017	3897.275
2278.24061	3879.375
2281.11922	3863.675
2283.996	3858.875
2286.87094	3850.975
2289.74405	3856.375
2292.61534	3832.375
2295.4848	3816.375
2298.35243	3827.275
2301.21824	3816.575
2304.08223	3820.075
2306.94439	3817.875
2309.80474	3793.375
2312.66327	3800.775
2315.51999	3806.075
2318.37489	3803.475
2321.22797	3789.275
2324.07925	3775.275
2326.92871	3786.875
2329.77637	3768.775
2332.62222	3764.375
2335.46626	3754.075
2338.3085	3741.475
2341.14893	3752.475
2343.98756	3731.575
2346.8244	3725.375
2349.65943	3725.775
2352.49267	3738.975
2355.32411	3731.875
2358.15376	3733.175
2360.98161	3716.775
2363.80768	3720.575
2366.63195	3717.875
2369.45444	3717.075
2372.27514	3713.375
2375.09405	3705.675
2377.91118	3693.675
2380.72652	3689.175
2383.54009	3674.375
2386.35187	3691.175
2389.16188	3658.575
2391.97011	3656.075
2394.77657	3649.475
2397.58125	3639.775
2400.38416	3639.575
2403.18529	3628.275
2405.98466	3625.075
2408.78226	3620.675
2411.57809	3610.075
2414.37216	3599.575
2417.16446	3602.975
2419.955	3589.675
2422.74378	3575.175
2425.5308	3572.075
2428.31606	3577.675
2431.09956	3557.175
2433.88131	3548.075
2436.6613	3563.175
2439.43954	3533.675
2442.21603	3549.175
2444.99077	3530.875
2447.76377	3539.675
2450.53501	3537.875
2453.30451	3539.575
2456.07226	3532.875
2458.83827	3525.575
2461.60254	3513.775
2464.36507	3519.075
2467.12586	3500.875
2469.88492	3502.275
2472.64224	3506.775
2475.39782	3503.775
2478.15167	3505.075
2480.90379	3485.675
2483.65417	3499.475
2486.40283	3489.975
2489.14976	3493.275
2491.89497	3476.775
2494.63845	3491.075
2497.3802	3475.175
2500.12024	3469.775
2502.85855	3467.775
2505.59514	3460.075
2508.33002	3458.775
2511.06318	3455.275
2513.79462	3456.975
2516.52435	3424.875
2519.25237	3433.275
2521.97867	3433.075
2524.70327	3429.175
2527.42616	3427.275
2530.14734	3418.775
2532.86681	3402.375
2535.58458	3391.275
2538.30065	3388.775
2541.01501	3380.675
2543.72768	3393.875
2546.43864	3381.575
2549.14791	3368.575
2551.85548	3364.575
2554.56136	3352.775
2557.26554	3354.375
2559.96803	3335.975
2562.66883	3338.475
2565.36794	3321.375
2568.06536	3331.675
2570.7611	3317.175
2573.45514	3309.475
2576.14751	3304.875
2578.83819	3294.175
2581.52719	3289.675
2584.21451	3285.675
2586.90015	3289.075
2589.58411	3300.275
2592.2664	3282.075
2594.94701	3258.975
2597.62594	3261.975
2600.30321	3257.475
2602.9788	3250.375
2605.65273	3260.175
2608.32498	3236.375
2610.99557	3231.475
2613.66449	3229.975
2616.33175	3223.975
2618.99734	3218.275
2621.66128	3219.875
2624.32355	3216.075
2626.98416	3210.775
2629.64311	3214.775
2632.30041	3206.175
2634.95605	3198.775
2637.61004	3187.375
2640.26238	3193.175
2642.91306	3179.575
2645.56209	3179.575
2648.20948	3173.375
2650.85521	3167.075
2653.4993	3166.075
2656.14175	3165.475
2658.78255	3176.275
2661.42171	3165.575
2664.05923	3157.175
2666.6951	3159.875
2669.32934	3158.675
2671.96194	3170.975
2674.59291	3161.075
2677.22224	3164.675
2679.84993	3164.375
2682.476	3161.475
2685.10043	3164.575
2687.72324	3148.275
2690.34441	3163.275
2692.96396	3152.875
2695.58188	3158.975
2698.19818	3164.175
2700.81285	3155.475
2703.4259	3169.075
2706.03733	3196.275
2708.64714	3187.675
2711.25533	3174.075
2713.86191	3164.875
2716.46687	3159.675
2719.07021	3159.875
2721.67194	3167.275
2724.27206	3161.275
2726.87057	3166.975
2729.46747	3163.375
2732.06276	3157.375
2734.65644	3140.775
2737.24852	3154.275
2739.83899	3145.775
2742.42786	3146.775
2745.01513	3117.575
2747.60079	3126.675
2750.18486	3125.275
2752.76733	3132.875
2755.3482	3125.675
2757.92747	3118.075
2760.50515	3127.775
2763.08123	3108.475
2765.65573	3094.275
2768.22863	3110.375
2770.79994	3103.975
2773.36967	3102.675
2775.9378	3082.375
2778.50435	3083.775
2781.06932	3074.175
2783.6327	3079.675
2786.1945	3091.475
2788.75471	3077.875
2791.31335	3063.975
2793.87041	3056.875
2796.42589	3039.075
2798.97979	3040.875
2801.53212	3032.475
2804.08288	3037.875
2806.63206	3035.775
2809.17967	3026.775
2811.72571	3021.475
2814.27018	3019.675
2816.81308	3011.575
2819.35442	3007.575
2821.89419	2996.975
2824.43239	2995.175
2826.96904	2998.175
2829.50412	2994.075
2832.03763	2991.175
2834.56959	2986.875
2837.1	2983.175
2839.62884	2979.775
2842.15613	2976.975
2844.68186	2995.375
2847.20604	3000.275
2849.72867	2997.775
2852.24974	2991.875
2854.76927	2990.775
2857.28724	2989.075
2859.80367	2981.775
2862.31855	2979.275
2864.83189	2973.975
2867.34368	2976.675
2869.85393	2965.775
2872.36264	2978.575
2874.8698	2975.675
2877.37543	2986.875
2879.87952	2974.175
2882.38207	2973.075
2884.88308	2986.375
2887.38256	2981.175
2889.88051	2987.675
2892.37692	2984.275
2894.8718	2972.075
2897.36515	2980.975
2899.85698	2981.775
2902.34727	3005.575
2904.83604	2974.275
2907.32328	3001.175
2909.809	2991.975
2912.29319	3001.175
2914.77587	2991.975
2917.25702	3015.775
2919.73665	2989.675
2922.21476	2995.075
2924.69136	2981.975
2927.16644	3006.475
2929.64	2996.475
2932.11205	2994.275
2934.58258	2997.575
2937.05161	3000.475
2939.51912	2991.675
2941.98513	2981.575
2944.44962	2987.475
2946.91261	2969.775
2949.37409	2986.075
2951.83407	2972.975
2954.29254	2974.175
2956.74951	2975.575
2959.20498	2962.275
2961.65895	2964.175
2964.11142	2958.875
2966.56239	2943.175
2969.01186	2953.275
2971.45984	2936.775
2973.90632	2934.175
2976.35131	2906.675
2978.7948	2932.675
2981.23681	2906.975
2983.67732	2908.775
2986.11635	2917.375
2988.55388	2891.275
2990.98993	2896.775
2993.4245	2890.675
2995.85758	2894.475
2998.28917	2884.075
3000.71928	2879.575
3003.14791	2892.675
3005.57506	2878.575
3008.00073	2876.375
3010.42493	2886.675
3012.84764	2871.275
3015.26888	2870.575
3017.68865	2869.775
3020.10694	2848.675
3022.52376	2857.975
3024.9391	2860.375
3027.35298	2867.775
3029.76539	2859.075
3032.17632	2862.475
3034.5858	2856.975
3036.9938	2856.675
3039.40034	2848.175
3041.80542	2842.075
3044.20903	2847.875
3046.61118	2844.975
3049.01187	2844.975
3051.4111	2837.575
3053.80888	2857.575
3056.20519	2836.675
3058.60005	2832.675
3060.99345	2830.775
3063.3854	2827.275
3065.7759	2829.375
3068.16494	2835.175
3070.55254	2825.075
3072.93868	2828.175
3075.32338	2811.875
3077.70662	2834.275
3080.08842	2825.975
3082.46878	2824.675
3084.84769	2823.975
3087.22515	2839.475
3089.60118	2833.775
3091.97576	2833.175
3094.3489	2838.975
3096.72061	2843.175
3099.09087	2852.775
3101.4597	2865.975
3103.82709	2860.875
3106.19305	2853.575
3108.55757	2858.875
3110.92066	2855.275
3113.28232	2863.675
3115.64255	2856.075
3118.00134	2851.575
3120.35871	2842.375
3122.71466	2864.475
3125.06917	2848.875
3127.42226	2845.275
3129.77393	2864.175
3132.12417	2860.475
3134.47299	2882.975
3136.82039	2879.775
3139.16636	2880.775
3141.51092	2901.575
3143.85406	2901.875
3146.19579	2911.875
3148.53609	2910.475
3150.87499	2929.275
3153.21246	2941.375
3155.54853	2954.375
3157.88318	2946.775
3160.21642	2961.175
3162.54826	2952.775
3164.87868	2960.575
3167.2077	2971.775
3169.5353	2970.575
3171.86151	2981.475
3174.18631	2970.975
3176.5097	2985.375
3178.83169	2979.175
3181.15228	2985.275
3183.47147	2986.975
3185.78926	3007.975
3188.10565	2995.875
3190.42065	3003.275
3192.73424	3004.775
3195.04645	3015.275
3197.35725	3014.675
3199.66667	3014.575
3201.97469	3040.475
3204.28132	3037.275
3206.58656	3040.375
3208.8904	3050.475
3211.19287	3063.375
3213.49394	3070.575
3215.79363	3062.975
3218.09193	3073.575
3220.38884	3070.575
3222.68438	3082.075
3224.97853	3062.375
3227.2713	3070.475
3229.56269	3060.775
3231.8527	3063.075
3234.14133	3072.375
