Data from AgNPs_FTO_APTES_UA_0.1mM_CRN_50uM_NaF_0.1M_Addition_RamanShift__8__12-45-57-632.txt Node

Date: Mon Dec 20 12:45:57 GMT 2021
User: TCL
Spectrometer: QEP01345
Trigger mode: 4
Integration Time (sec): 7.000000E0
Scans to average: 10
Electric dark correction enabled: true
Nonlinearity correction enabled: false
Boxcar width: 0
XAxis mode: Raman Shifts
Number of Pixels in Spectrum: 1044
>>>>>Begin Spectral Data<<<<<
46.04893	-0.1
50.45542	1.9
54.85868	-1.7
59.25871	0.4
63.6555	27.7
68.04907	27.7
72.43941	33
76.82654	33.9
81.21044	32.4
85.59113	42.1
89.96862	34.4
94.34289	38.7
98.71396	39.5
103.08183	36.3
107.4465	40.9
111.80798	41
116.16626	41.1
120.52136	45.8
124.87327	45.2
129.222	45.6
133.56755	48.1
137.90993	52.6
142.24913	57.1
146.58517	53.4
150.91804	67.5
155.24774	76.6
159.57429	93.8
163.89768	119.2
168.21792	153.6
172.53501	194.7
176.84895	268.2
181.15975	375.9
185.46741	523.4
189.77193	716
194.07331	956.9
198.37157	1240.3
202.6667	1543.7
206.9587	1830.8
211.24758	2148.8
215.53334	2452.4
219.81599	2772.8
224.09553	3128
228.37195	3532.5
232.64527	3962
236.91549	4427.5
241.18261	4905
245.44663	5304.1
249.70755	5652.9
253.96539	5937.1
258.22014	6103.4
262.4718	6235.8
266.72039	6281.6
270.96589	6279.5
275.20832	6221
279.44768	6106.5
283.68397	6006.7
287.91719	5910.3
292.14735	5835.5
296.37445	5781
300.59849	5728.7
304.81948	5718.4
309.03742	5669.1
313.25231	5611.1
317.46415	5559.9
321.67296	5461.3
325.87872	5379.7
330.08145	5318.7
334.28114	5328.2
338.47781	5343.6
342.67145	5372.4
346.86207	5411.6
351.04966	5464.6
355.23424	5536.1
359.4158	5582.3
363.59435	5640.3
367.76989	5713.7
371.94243	5758.6
376.11196	5824.2
380.27849	5873.2
384.44203	5924
388.60257	5976.7
392.76012	6033.2
396.91468	6085.6
401.06626	6144.4
405.21485	6187.5
409.36047	6191.7
413.50311	6159.8
417.64277	6127.9
421.77947	6127.9
425.9132	6122.4
430.04396	6145.4
434.17176	6166.1
438.2966	6176.1
442.41849	6217.3
446.53742	6277.5
450.6534	6326.8
454.76644	6377.5
458.87653	6400.6
462.98368	6417.7
467.08789	6427.7
471.18916	6460.5
475.2875	6487.8
479.38291	6519.7
483.4754	6576
487.56496	6655.3
491.6516	6760.3
495.73531	6875.1
499.81612	6908.9
503.89401	6890.2
507.96899	6814.4
512.04106	6747.4
516.11023	6691.8
520.1765	6675.4
524.23987	6671
528.30034	6687
532.35792	6690.1
536.41261	6653.8
540.46441	6610.2
544.51333	6556.2
548.55936	6523.8
552.60252	6500
556.64279	6508.6
560.6802	6514.7
564.71473	6504.6
568.7464	6511.1
572.7752	6589.5
576.80114	6623.3
580.82422	6683.9
584.84444	6787.1
588.86181	6907.8
592.87633	6956.2
596.888	6943.9
600.89682	6881.7
604.9028	6899.1
608.90594	7151.2
612.90624	7515.3
616.90371	7530.2
620.89834	7180.8
624.89015	7228.7
628.87913	7608.7
632.86528	8089.1
636.84862	8458.2
640.82913	8506.4
644.80683	8265.2
648.78172	7859.3
652.75379	7503
656.72306	7227.2
660.68952	7039.8
664.65319	6902.8
668.61405	6762.8
672.57211	6714.8
676.52738	6752.9
680.47986	6774
684.42955	6746.4
688.37646	6723.7
692.32058	6678.2
696.26192	6585.8
700.20048	6549.5
704.13626	6505
708.06928	6501
711.99952	6486.9
715.927	6481.4
719.85171	6531.7
723.77365	6585.6
727.69284	6600.9
731.60928	6592.3
735.52295	6513.4
739.43388	6448.3
743.34206	6434.9
747.24749	6434.4
751.15017	6432.6
755.05012	6452.9
758.94733	6519.3
762.8418	6624.4
766.73354	6818.9
770.62254	6990.6
774.50882	7042
778.39237	6896.5
782.27321	6657.6
786.15132	6471.9
790.02671	6347.9
793.89938	6295.6
797.76935	6316.1
801.6366	6379
805.50115	6523.3
809.36299	6730.5
813.22213	6872.4
817.07857	6849.6
820.93231	6694.1
824.78336	6498.8
828.63172	6308.8
832.47738	6196.7
836.32036	6122.3
840.16066	6095
843.99827	6062.3
847.8332	6072.3
851.66546	6078.5
855.49504	6094.2
859.32195	6086.9
863.1462	6116.7
866.96777	6154.3
870.78668	6224.1
874.60293	6307.1
878.41652	6423.2
882.22745	6562.1
886.03573	6653.7
889.84136	6717.2
893.64433	6677.1
897.44466	6518.2
901.24235	6347.3
905.0374	6171.6
908.8298	6056.7
912.61957	6014.6
916.40671	5972.9
920.19121	5955.3
923.97308	5933.5
927.75233	5927.7
931.52895	5877.9
935.30295	5846.1
939.07433	5834.7
942.84309	5773.7
946.60924	5763.7
950.37278	5735.5
954.13371	5737.3
957.89203	5713.3
961.64774	5689.9
965.40086	5680.1
969.15137	5655.1
972.89929	5630.3
976.64461	5621.4
980.38733	5625.2
984.12747	5618.4
987.86502	5623.8
991.59999	5653
995.33237	5663.7
999.06217	5724.6
1002.78939	5787.2
1006.51404	5849.8
1010.23611	5942.5
1013.95561	5991.7
1017.67255	6002.3
1021.38692	6022
1025.09872	5980.7
1028.80796	5917.7
1032.51465	5856
1036.21877	5823
1039.92035	5765.1
1043.61937	5731.5
1047.31584	5716.8
1051.00976	5723.2
1054.70114	5748.5
1058.38998	5759.2
1062.07627	5826.5
1065.76003	5870.5
1069.44126	5934.4
1073.11995	5991.8
1076.79611	6049.2
1080.46974	6022.1
1084.14085	6006.4
1087.80943	5938.4
1091.47549	5937.6
1095.13903	5877.7
1098.80005	5849.5
1102.45857	5805.8
1106.11456	5779.3
1109.76805	5832.8
1113.41903	5932.3
1117.06751	6130.4
1120.71348	6473
1124.35696	6885.2
1127.99793	7361.6
1131.63641	7786.5
1135.2724	7928.5
1138.90589	7879.9
1142.5369	7633.7
1146.16542	7292.9
1149.79145	6888.2
1153.415	6540.1
1157.03607	6260
1160.65467	6064.9
1164.27079	5985.5
1167.88443	6007.1
1171.49561	6069.5
1175.10432	6224.5
1178.71056	6421.6
1182.31434	6610.5
1185.91565	6742
1189.51451	6805.6
1193.11091	6842.8
1196.70485	6876
1200.29634	6923
1203.88538	6941.9
1207.47197	6896.5
1211.05612	6813.6
1214.63782	6668.1
1218.21708	6522.5
1221.79391	6331.1
1225.36829	6178.8
1228.94024	6093.1
1232.50976	6029.9
1236.07685	5981.7
1239.6415	5982.5
1243.20374	5972.4
1246.76355	6013.3
1250.32093	6077.6
1253.8759	6120.6
1257.42845	6195.2
1260.97859	6270.4
1264.52631	6344.3
1268.07163	6376.7
1271.61453	6413.2
1275.15503	6419.1
1278.69312	6429.2
1282.22882	6441.5
1285.76211	6468.1
1289.29301	6485.8
1292.82151	6565.6
1296.34761	6673.1
1299.87133	6809.5
1303.39266	6969
1306.9116	7155.5
1310.42815	7345.8
1313.94233	7491.3
1317.45412	7500
1320.96354	7468.3
1324.47058	7407.1
1327.97525	7382.9
1331.47754	7330.9
1334.97747	7354.8
1338.47502	7404.9
1341.97022	7479.3
1345.46305	7567.7
1348.95352	7682.7
1352.44163	7829.2
1355.92738	7978.5
1359.41078	8224.8
1362.89183	8476
1366.37053	8484.3
1369.84688	8141.4
1373.32088	7692.5
1376.79254	7400.7
1380.26186	7161.4
1383.72883	7045.6
1387.19347	6936.9
1390.65578	6817.3
1394.11575	6709.7
1397.57339	6590.6
1401.0287	6481.4
1404.48168	6416.7
1407.93234	6288.1
1411.38068	6156.1
1414.82669	6026
1418.27039	5872
1421.71177	5747.8
1425.15083	5635.9
1428.58758	5563.1
1432.02203	5525.8
1435.45416	5529
1438.88399	5541.7
1442.31151	5561.4
1445.73673	5577.7
1449.15965	5609.5
1452.58027	5611.4
1455.9986	5632.1
1459.41463	5677.7
1462.82837	5702.1
1466.23982	5729.5
1469.64898	5794.7
1473.05586	5820.4
1476.46045	5839.1
1479.86276	5834.5
1483.26279	5851.4
1486.66054	5909
1490.05602	5957.3
1493.44922	6058.5
1496.84016	6186.4
1500.22882	6396.9
1503.61521	6643.1
1506.99934	6916.3
1510.38121	7116.5
1513.76081	7183.3
1517.13816	7028.7
1520.51324	6782
1523.88607	6557.1
1527.25665	6427.3
1530.62498	6388.7
1533.99105	6388.5
1537.35488	6389.8
1540.71647	6408.8
1544.07581	6378.7
1547.4329	6396.1
1550.78776	6399.7
1554.14038	6387.5
1557.49077	6385.4
1560.83892	6385.5
1564.18484	6427.7
1567.52853	6461.9
1570.86999	6472
1574.20922	6511.9
1577.54624	6519.4
1580.88103	6455.8
1584.2136	6367.3
1587.54395	6290.6
1590.87208	6273.6
1594.19801	6307.7
1597.52172	6412.6
1600.84321	6440.4
1604.16251	6374.9
1607.47959	6264.5
1610.79447	6143
1614.10715	6027.7
1617.41763	5925.8
1620.7259	5842.3
1624.03199	5833.9
1627.33587	5870.6
1630.63757	5922.1
1633.93707	6056
1637.23439	6257.1
1640.52951	6518.6
1643.82246	6841.2
1647.11321	7152.9
1650.40179	7342.6
1653.68819	7289.3
1656.97241	7014.7
1660.25446	6689.6
1663.53433	6400.7
1666.81203	6219.5
1670.08756	6095.9
1673.36092	6030.5
1676.63211	6006
1679.90115	5963.9
1683.16801	5924.2
1686.43272	5850.5
1689.69527	5773.5
1692.95567	5695.1
1696.2139	5595.8
1699.46999	5493.4
1702.72392	5415.2
1705.97571	5296.1
1709.22535	5160.8
1712.47284	5033
1715.71819	4914.2
1718.96139	4776.9
1722.20246	4666.1
1725.44139	4587.6
1728.67818	4502.1
1731.91284	4443.2
1735.14537	4376.5
1738.37576	4344.5
1741.60403	4298.7
1744.83017	4284.4
1748.05418	4254.8
1751.27607	4223.7
1754.49584	4222.6
1757.71349	4217.1
1760.92903	4185.5
1764.14244	4179.4
1767.35375	4173.4
1770.56294	4162.7
1773.77002	4147.2
1776.97499	4129.2
1780.17785	4120.4
1783.37861	4101.6
1786.57727	4085.4
1789.77382	4081.3
1792.96828	4048.9
1796.16064	4054.8
1799.3509	4016.1
1802.53907	4011
1805.72514	3989.6
1808.90913	3991.2
1812.09102	3975.9
1815.27083	3964.1
1818.44856	3935
1821.6242	3948.9
1824.79776	3939.5
1827.96924	3923
1831.13864	3921
1834.30597	3918.1
1837.47122	3892.5
1840.6344	3895.8
1843.7955	3880.6
1846.95454	3871.9
1850.11151	3887.5
1853.26642	3872.8
1856.41926	3888.2
1859.57004	3868.1
1862.71876	3856.5
1865.86542	3847.4
1869.01003	3836.6
1872.15258	3826.1
1875.29308	3824.4
1878.43152	3816.6
1881.56792	3808.5
1884.70227	3804.7
1887.83457	3787.4
1890.96482	3789.9
1894.09304	3779.1
1897.21921	3778.6
1900.34335	3762.4
1903.46544	3747.7
1906.58551	3769.2
1909.70353	3746.3
1912.81953	3751.8
1915.93349	3729.3
1919.04543	3709.8
1922.15534	3712.1
1925.26322	3697.7
1928.36908	3696.7
1931.47292	3680.6
1934.57473	3683.3
1937.67453	3649.4
1940.77232	3661.6
1943.86808	3637.9
1946.96184	3636.4
1950.05358	3619.9
1953.14331	3611.9
1956.23103	3599.7
1959.31675	3591.1
1962.40046	3577.3
1965.48217	3566.5
1968.56188	3553.6
1971.63959	3533.3
1974.7153	3510.3
1977.78901	3516.7
1980.86073	3501.4
1983.93046	3485.2
1986.99819	3471.6
1990.06394	3454.6
1993.1277	3460.9
1996.18947	3437
1999.24925	3418.1
2002.30706	3412.4
2005.36288	3400.2
2008.41672	3393.8
2011.46859	3384.3
2014.51848	3376.1
2017.56639	3357.8
2020.61233	3344.9
2023.6563	3318.6
2026.6983	3315.9
2029.73833	3314.9
2032.7764	3303.3
2035.8125	3299.5
2038.84664	3284.2
2041.87881	3272.5
2044.90903	3267.2
2047.93729	3259.6
2050.96359	3264.7
2053.98794	3256.9
2057.01034	3251.8
2060.03078	3247.7
2063.04927	3230
2066.06582	3232.4
2069.08042	3243
2072.09307	3221.6
2075.10378	3225.2
2078.11255	3222.3
2081.11938	3214.9
2084.12426	3213.5
2087.12722	3207.9
2090.12824	3211.6
2093.12732	3215
2096.12447	3218.5
2099.11969	3215.3
2102.11299	3206
2105.10435	3199.6
2108.09379	3198.7
2111.08131	3203.6
2114.0669	3202
2117.05057	3201.1
2120.03233	3210.4
2123.01216	3204
2125.99008	3199.8
2128.96609	3210.6
2131.94018	3191.5
2134.91236	3206.5
2137.88263	3188.7
2140.851	3196.5
2143.81746	3202.7
2146.78201	3196.1
2149.74466	3190.7
2152.7054	3201.4
2155.66425	3194.6
2158.6212	3213.1
2161.57625	3189.3
2164.52941	3182.1
2167.48067	3166
2170.43004	3193.8
2173.37752	3179
2176.32311	3173.1
2179.26681	3174.7
2182.20863	3164.3
2185.14856	3161
2188.08661	3165.9
2191.02278	3160.8
2193.95707	3147.4
2196.88948	3145.1
2199.82001	3140.6
2202.74867	3123.9
2205.67545	3120.2
2208.60037	3110.7
2211.52341	3117.2
2214.44458	3106.9
2217.36388	3102.5
2220.28132	3099.8
2223.1969	3078.6
2226.11061	3078.2
2229.02246	3063.7
2231.93245	3064.4
2234.84058	3054.4
2237.74686	3051
2240.65128	3042.9
2243.55385	3037.2
2246.45456	3039
2249.35343	3012.2
2252.25044	3022.5
2255.14561	3004.3
2258.03893	3013
2260.93041	3010.7
2263.82004	2980.9
2266.70783	2973.6
2269.59378	2973.2
2272.4779	2971.1
2275.36017	2957.1
2278.24061	2954.5
2281.11922	2939.4
2283.996	2929.7
2286.87094	2927.8
2289.74405	2929.8
2292.61534	2920.4
2295.4848	2904.7
2298.35243	2909.2
2301.21824	2891.5
2304.08223	2901.9
2306.94439	2890.9
2309.80474	2883.9
2312.66327	2886.8
2315.51999	2890.5
2318.37489	2886.6
2321.22797	2874.9
2324.07925	2866.7
2326.92871	2872.4
2329.77637	2857.1
2332.62222	2845.3
2335.46626	2825.1
2338.3085	2822.1
2341.14893	2839
2343.98756	2827.6
2346.8244	2817.9
2349.65943	2813.1
2352.49267	2820
2355.32411	2814
2358.15376	2813.4
2360.98161	2792.3
2363.80768	2794.2
2366.63195	2810.4
2369.45444	2796.5
2372.27514	2774
2375.09405	2783.2
2377.91118	2781.9
2380.72652	2770.4
2383.54009	2770.9
2386.35187	2764.1
2389.16188	2743.5
2391.97011	2739.8
2394.77657	2743.5
2397.58125	2736.6
2400.38416	2717.7
2403.18529	2729.8
2405.98466	2705.1
2408.78226	2705.1
2411.57809	2709
2414.37216	2692.3
2417.16446	2703.8
2419.955	2696.2
2422.74378	2684.9
2425.5308	2684.4
2428.31606	2674.7
2431.09956	2663.7
2433.88131	2657.2
2436.6613	2655
2439.43954	2660.8
2442.21603	2644.8
2444.99077	2639.9
2447.76377	2659.2
2450.53501	2641.3
2453.30451	2648.5
2456.07226	2627.6
2458.83827	2630.6
2461.60254	2630
2464.36507	2630.8
2467.12586	2610.9
2469.88492	2610.7
2472.64224	2610.9
2475.39782	2617.2
2478.15167	2613
2480.90379	2607.3
2483.65417	2597
2486.40283	2593.8
2489.14976	2593.1
2491.89497	2584.1
2494.63845	2587.7
2497.3802	2585.1
2500.12024	2580.6
2502.85855	2580
2505.59514	2570.1
2508.33002	2566.4
2511.06318	2566.3
2513.79462	2561.6
2516.52435	2542.6
2519.25237	2547.6
2521.97867	2543
2524.70327	2530
2527.42616	2539.2
2530.14734	2531.5
2532.86681	2517
2535.58458	2518.1
2538.30065	2514.6
2541.01501	2506.1
2543.72768	2506.8
2546.43864	2492.5
2549.14791	2496.8
2551.85548	2501
2554.56136	2471.3
2557.26554	2472.2
2559.96803	2470.1
2562.66883	2470
2565.36794	2454.1
2568.06536	2455.2
2570.7611	2443.9
2573.45514	2443.1
2576.14751	2449.3
2578.83819	2426.4
2581.52719	2431.7
2584.21451	2414
2586.90015	2411.7
2589.58411	2417.4
2592.2664	2403.7
2594.94701	2398.2
2597.62594	2398.1
2600.30321	2387.5
2602.9788	2379.2
2605.65273	2379.2
2608.32498	2380.3
2610.99557	2362.7
2613.66449	2355.3
2616.33175	2361.3
2618.99734	2365
2621.66128	2366.5
2624.32355	2351.2
2626.98416	2353.5
2629.64311	2345.1
2632.30041	2344.2
2634.95605	2337.9
2637.61004	2346
2640.26238	2341.3
2642.91306	2327.3
2645.56209	2322.1
2648.20948	2325.4
2650.85521	2314.7
2653.4993	2321.3
2656.14175	2315.6
2658.78255	2313.8
2661.42171	2310.4
2664.05923	2311.4
2666.6951	2321.5
2669.32934	2307
2671.96194	2299.7
2674.59291	2306.3
2677.22224	2308.8
2679.84993	2299
2682.476	2308.9
2685.10043	2307.5
2687.72324	2296.1
2690.34441	2294.5
2692.96396	2295.7
2695.58188	2308.9
2698.19818	2294.3
2700.81285	2306.9
2703.4259	2311.3
2706.03733	2328.4
2708.64714	2315.8
2711.25533	2309.6
2713.86191	2292.4
2716.46687	2300.1
2719.07021	2300.9
2721.67194	2294
2724.27206	2293
2726.87057	2294.1
2729.46747	2300.4
2732.06276	2284.3
2734.65644	2289.1
2737.24852	2294.8
2739.83899	2275.5
2742.42786	2281.1
2745.01513	2279.5
2747.60079	2280.3
2750.18486	2268
2752.76733	2265.4
2755.3482	2270.2
2757.92747	2269.3
2760.50515	2264.2
2763.08123	2261.3
2765.65573	2257.6
2768.22863	2248.2
2770.79994	2242.6
2773.36967	2239.3
2775.9378	2232.6
2778.50435	2226.5
2781.06932	2221.5
2783.6327	2218.4
2786.1945	2209.8
2788.75471	2216.1
2791.31335	2208.1
2793.87041	2197.5
2796.42589	2188.9
2798.97979	2191.5
2801.53212	2190.9
2804.08288	2185
2806.63206	2173.8
2809.17967	2173.8
2811.72571	2168.4
2814.27018	2162.1
2816.81308	2161.2
2819.35442	2157.9
2821.89419	2161.2
2824.43239	2157.5
2826.96904	2148.1
2829.50412	2142.2
2832.03763	2145.6
2834.56959	2147
2837.1	2138.4
2839.62884	2135.3
2842.15613	2138.8
2844.68186	2144.6
2847.20604	2137.2
2849.72867	2134.4
2852.24974	2144
2854.76927	2142.6
2857.28724	2148.2
2859.80367	2135.1
2862.31855	2138.2
2864.83189	2126.7
2867.34368	2126
2869.85393	2127.6
2872.36264	2115.3
2874.8698	2138.1
2877.37543	2122.6
2879.87952	2124.7
2882.38207	2125.2
2884.88308	2119.2
2887.38256	2123.2
2889.88051	2116.9
2892.37692	2122.9
2894.8718	2120.2
2897.36515	2126.7
2899.85698	2115.8
2902.34727	2127.2
2904.83604	2115.1
2907.32328	2125.5
2909.809	2127.8
2912.29319	2118.1
2914.77587	2132.1
2917.25702	2127.1
2919.73665	2125.1
2922.21476	2126.8
2924.69136	2120.2
2927.16644	2132
2929.64	2127
2932.11205	2125.8
2934.58258	2121.1
2937.05161	2124.5
2939.51912	2116
2941.98513	2125.3
2944.44962	2105.6
2946.91261	2111.1
2949.37409	2112
2951.83407	2109.2
2954.29254	2111.8
2956.74951	2106.3
2959.20498	2108.2
2961.65895	2106.6
2964.11142	2100.2
2966.56239	2089.6
2969.01186	2095.9
2971.45984	2082.6
2973.90632	2090.1
2976.35131	2071.9
2978.7948	2073.5
2981.23681	2070.5
2983.67732	2071.2
2986.11635	2073
2988.55388	2060.1
2990.98993	2060.7
2993.4245	2057.7
2995.85758	2058.1
2998.28917	2069.4
3000.71928	2053
3003.14791	2042.5
3005.57506	2059.9
3008.00073	2039.2
3010.42493	2046.7
3012.84764	2039.7
3015.26888	2049.6
3017.68865	2050.1
3020.10694	2046
3022.52376	2035.2
3024.9391	2041.9
3027.35298	2034.5
3029.76539	2039.2
3032.17632	2049.6
3034.5858	2033.8
3036.9938	2041.5
3039.40034	2049.3
3041.80542	2040.1
3044.20903	2037
3046.61118	2042.2
3049.01187	2040.1
3051.4111	2033.4
3053.80888	2040.9
3056.20519	2037.9
3058.60005	2036.1
3060.99345	2045.5
3063.3854	2041.5
3065.7759	2038.7
3068.16494	2034.2
3070.55254	2026.6
3072.93868	2045.5
3075.32338	2038.9
3077.70662	2031.6
3080.08842	2047.3
3082.46878	2034.2
3084.84769	2036.9
3087.22515	2056.3
3089.60118	2053.1
3091.97576	2054.1
3094.3489	2054
3096.72061	2059.4
3099.09087	2060
3101.4597	2078.2
3103.82709	2067.6
3106.19305	2074.6
3108.55757	2076.6
3110.92066	2064.1
3113.28232	2071.1
3115.64255	2079.9
3118.00134	2081.6
3120.35871	2081.6
3122.71466	2081.9
3125.06917	2083.4
3127.42226	2084.2
3129.77393	2097.4
3132.12417	2091.9
3134.47299	2101.4
3136.82039	2106.8
3139.16636	2111.4
3141.51092	2117.3
3143.85406	2120.7
3146.19579	2140.1
3148.53609	2146.6
3150.87499	2133.3
3153.21246	2154.6
3155.54853	2167.8
3157.88318	2164.1
3160.21642	2169
3162.54826	2181
3164.87868	2168.5
3167.2077	2181.8
3169.5353	2198.3
3171.86151	2189.1
3174.18631	2198.8
3176.5097	2205.7
3178.83169	2206.7
3181.15228	2202
3183.47147	2200.1
3185.78926	2213.8
3188.10565	2200.6
3190.42065	2221.5
3192.73424	2223.5
3195.04645	2222.4
3197.35725	2216.8
3199.66667	2235.5
3201.97469	2241.9
3204.28132	2242.5
3206.58656	2253.2
3208.8904	2245.8
3211.19287	2249
3213.49394	2271.3
3215.79363	2255.3
3218.09193	2264.4
3220.38884	2262
3222.68438	2282.2
3224.97853	2260.9
3227.2713	2279.8
3229.56269	2265.1
3231.8527	2279.2
3234.14133	2264
3236.42858	2269.5
3238.71446	2264.9
3240.99896	2259.7
3243.28209	2259.7
3245.56384	2255.1
3247.84423	2251.1
3250.12324	2250.8
3252.40088	2268.7
3254.67715	2249.3
3256.95205	2242.2
3259.22558	2253.8
3261.49775	2237.1
3263.76855	2246.5
3266.03799	2233.8
3268.30606	2241.6
3270.57277	2242.7
3272.83812	2232.8
3275.10211	2222
3277.36474	2223.9
3279.62601	2234
3281.88593	2223.4
3284.14448	2220.5
3286.40168	2231
3288.65753	2224.3
3290.91202	2207.5
3293.16516	2200.2
3295.41695	2206
3297.66738	2188.8
3299.91647	2175.9
3302.16421	2165.3
3304.4106	2161.2
3306.65564	2145.8
3308.89933	2144.3
3311.14169	2139.7
3313.38269	2121.9
3315.62236	2102.8
3317.86068	2086.8
3320.09766	2065.6
3322.3333	2054.2
3324.5676	2050.7
3326.80056	2025.8
3329.03219	2009
3331.26248	-0.4
3333.49143	0.6
3335.71905	-0.5
