Data from AgNPs_FTO_APTES_UA_0.1mM_CRN_50uM_NaF_0.1M_Addition_RamanShift__3__12-40-07-625.txt Node

Date: Mon Dec 20 12:40:07 GMT 2021
User: TCL
Spectrometer: QEP01345
Trigger mode: 4
Integration Time (sec): 7.000000E0
Scans to average: 10
Electric dark correction enabled: true
Nonlinearity correction enabled: false
Boxcar width: 0
XAxis mode: Raman Shifts
Number of Pixels in Spectrum: 1044
>>>>>Begin Spectral Data<<<<<
46.04893	0.5
50.45542	-0.6
54.85868	-0.8
59.25871	0.2
63.6555	29.3
68.04907	31.1
72.43941	33.1
76.82654	36.9
81.21044	35
85.59113	40.7
89.96862	38.2
94.34289	42.2
98.71396	42.1
103.08183	38.7
107.4465	44.8
111.80798	49.3
116.16626	44.8
120.52136	49.4
124.87327	48.5
129.222	52.2
133.56755	54.6
137.90993	56.5
142.24913	58.5
146.58517	63.2
150.91804	74
155.24774	85.7
159.57429	99.9
163.89768	129.6
168.21792	168.2
172.53501	214.7
176.84895	298.1
181.15975	410.9
185.46741	563.8
189.77193	786.4
194.07331	1033.9
198.37157	1339.7
202.6667	1667.2
206.9587	1998.8
211.24758	2311.7
215.53334	2623.8
219.81599	2973.3
224.09553	3347.2
228.37195	3752.6
232.64527	4218.7
236.91549	4693.7
241.18261	5148.6
245.44663	5553
249.70755	5917.9
253.96539	6236.9
258.22014	6455.8
262.4718	6622.3
266.72039	6729.8
270.96589	6745.6
275.20832	6719.1
279.44768	6655.9
283.68397	6548.6
287.91719	6469.5
292.14735	6399.3
296.37445	6341
300.59849	6338
304.81948	6323.8
309.03742	6312.7
313.25231	6255.2
317.46415	6192.7
321.67296	6091
325.87872	5979.2
330.08145	5943.5
334.28114	5913.9
338.47781	5921
342.67145	5979.1
346.86207	6013.3
351.04966	6107
355.23424	6183.3
359.4158	6285.5
363.59435	6356.6
367.76989	6430.5
371.94243	6498.2
376.11196	6548.3
380.27849	6602.5
384.44203	6687.1
388.60257	6750.1
392.76012	6798.8
396.91468	6871.1
401.06626	6936.2
405.21485	6973.4
409.36047	6959.2
413.50311	6904.4
417.64277	6873.7
421.77947	6847.7
425.9132	6855.7
430.04396	6862.1
434.17176	6894.8
438.2966	6924.6
442.41849	6969.8
446.53742	7064.3
450.6534	7131.9
454.76644	7204.8
458.87653	7241.7
462.98368	7254.4
467.08789	7251.2
471.18916	7249.9
475.2875	7273.7
479.38291	7299.1
483.4754	7378.9
487.56496	7497.4
491.6516	7631.6
495.73531	7759.1
499.81612	7761
503.89401	7722.1
507.96899	7609.9
512.04106	7537.7
516.11023	7506.8
520.1765	7495.2
524.23987	7518.2
528.30034	7556.6
532.35792	7581.1
536.41261	7547.1
540.46441	7457.2
544.51333	7371.5
548.55936	7336.5
552.60252	7307.4
556.64279	7305.9
560.6802	7339.5
564.71473	7336.8
568.7464	7375.7
572.7752	7429.9
576.80114	7472.6
580.82422	7521.6
584.84444	7684.3
588.86181	7813.3
592.87633	7896.9
596.888	7882.8
600.89682	7808.7
604.9028	7877
608.90594	8236
612.90624	8755.1
616.90371	8752.9
620.89834	8317.7
624.89015	8330
628.87913	8798
632.86528	9369.7
636.84862	9784.7
640.82913	9764.2
644.80683	9380.2
648.78172	8866
652.75379	8406.4
656.72306	8089.2
660.68952	7909.3
664.65319	7750.1
668.61405	7593.5
672.57211	7533.7
676.52738	7568.9
680.47986	7585.4
684.42955	7558.1
688.37646	7531.4
692.32058	7456.7
696.26192	7419.9
700.20048	7386.3
704.13626	7365.5
708.06928	7352.3
711.99952	7339.1
715.927	7345.3
719.85171	7404.8
723.77365	7473.2
727.69284	7521.4
731.60928	7473.9
735.52295	7382.2
739.43388	7294.8
743.34206	7282.9
747.24749	7291.8
751.15017	7287.8
755.05012	7311.7
758.94733	7378.3
762.8418	7549.6
766.73354	7815.8
770.62254	8028.2
774.50882	8136.3
778.39237	7962.1
782.27321	7668.2
786.15132	7411.3
790.02671	7281.6
793.89938	7201.1
797.76935	7200.1
801.6366	7281.3
805.50115	7455.5
809.36299	7677.5
813.22213	7833.7
817.07857	7816.3
820.93231	7624
824.78336	7375.1
828.63172	7180.1
832.47738	7063.4
836.32036	7006.4
840.16066	6995.1
843.99827	6988.5
847.8332	6967.6
851.66546	6957
855.49504	6961.9
859.32195	6977.8
863.1462	6994.2
866.96777	7039.9
870.78668	7146.6
874.60293	7259
878.41652	7421.3
882.22745	7580.1
886.03573	7716.1
889.84136	7756.7
893.64433	7687.1
897.44466	7502
901.24235	7264.5
905.0374	7051
908.8298	6931.6
912.61957	6849.8
916.40671	6816.7
920.19121	6801.2
923.97308	6798.1
927.75233	6781
931.52895	6780.9
935.30295	6723.4
939.07433	6687.6
942.84309	6631.4
946.60924	6621
950.37278	6584.9
954.13371	6582.5
957.89203	6563.7
961.64774	6538.8
965.40086	6521.4
969.15137	6519.8
972.89929	6484.6
976.64461	6458.1
980.38733	6468.9
984.12747	6486.1
987.86502	6496.6
991.59999	6530
995.33237	6540.7
999.06217	6617
1002.78939	6721.4
1006.51404	6806.9
1010.23611	6884.3
1013.95561	6968.5
1017.67255	7005.3
1021.38692	6976.1
1025.09872	6939.4
1028.80796	6875.3
1032.51465	6812.9
1036.21877	6727.8
1039.92035	6693.7
1043.61937	6652.4
1047.31584	6644.5
1051.00976	6624.2
1054.70114	6645.3
1058.38998	6669.4
1062.07627	6729.3
1065.76003	6816.2
1069.44126	6872.3
1073.11995	6965.2
1076.79611	7005.2
1080.46974	6997.7
1084.14085	6953.3
1087.80943	6911.6
1091.47549	6870.9
1095.13903	6829.9
1098.80005	6766.2
1102.45857	6693.6
1106.11456	6691.5
1109.76805	6733.2
1113.41903	6843.2
1117.06751	7061.4
1120.71348	7425
1124.35696	7878.6
1127.99793	8418.4
1131.63641	8896.7
1135.2724	9104.2
1138.90589	9049.8
1142.5369	8751.6
1146.16542	8310.8
1149.79145	7904.2
1153.415	7487.3
1157.03607	7166.9
1160.65467	7003.4
1164.27079	6929.1
1167.88443	6968.6
1171.49561	7067.6
1175.10432	7278
1178.71056	7538.6
1182.31434	7839.5
1185.91565	7988.1
1189.51451	8044
1193.11091	8043.9
1196.70485	8074.9
1200.29634	8132.1
1203.88538	8142.4
1207.47197	8081.2
1211.05612	7927.2
1214.63782	7752.1
1218.21708	7560.9
1221.79391	7351.8
1225.36829	7213.3
1228.94024	7096.3
1232.50976	7026.6
1236.07685	6966.8
1239.6415	6953.5
1243.20374	6969
1246.76355	7016.8
1250.32093	7098.2
1253.8759	7137.7
1257.42845	7231.8
1260.97859	7326.6
1264.52631	7404
1268.07163	7467.2
1271.61453	7503
1275.15503	7535.4
1278.69312	7542.7
1282.22882	7543
1285.76211	7581.7
1289.29301	7642.2
1292.82151	7745.1
1296.34761	7896.4
1299.87133	8063.8
1303.39266	8282.5
1306.9116	8540.4
1310.42815	8817.7
1313.94233	8995.4
1317.45412	9001.6
1320.96354	8938
1324.47058	8829.3
1327.97525	8704.9
1331.47754	8633.3
1334.97747	8607.7
1338.47502	8629.5
1341.97022	8716.2
1345.46305	8818.3
1348.95352	8970.1
1352.44163	9154.3
1355.92738	9412.6
1359.41078	9764.9
1362.89183	10140
1366.37053	10152.6
1369.84688	9637.2
1373.32088	9052.6
1376.79254	8596.7
1380.26186	8346.6
1383.72883	8174.2
1387.19347	8039.4
1390.65578	7900.4
1394.11575	7760.6
1397.57339	7662.9
1401.0287	7568.7
1404.48168	7479.3
1407.93234	7381.5
1411.38068	7249.4
1414.82669	7112.9
1418.27039	6962.4
1421.71177	6805.4
1425.15083	6688.8
1428.58758	6618.5
1432.02203	6574.3
1435.45416	6598.5
1438.88399	6611.7
1442.31151	6611.8
1445.73673	6649.6
1449.15965	6671.4
1452.58027	6669.1
1455.9986	6682.3
1459.41463	6708
1462.82837	6740.9
1466.23982	6770.9
1469.64898	6834.2
1473.05586	6886.4
1476.46045	6916.8
1479.86276	6943.2
1483.26279	6972.3
1486.66054	7013.8
1490.05602	7110.7
1493.44922	7238.2
1496.84016	7412
1500.22882	7670
1503.61521	7993.6
1506.99934	8315.7
1510.38121	8595.5
1513.76081	8672.9
1517.13816	8454.2
1520.51324	8114.3
1523.88607	7814.3
1527.25665	7625.8
1530.62498	7565.8
1533.99105	7561.8
1537.35488	7574.6
1540.71647	7571.3
1544.07581	7550.7
1547.4329	7534.5
1550.78776	7546.7
1554.14038	7539.7
1557.49077	7544.2
1560.83892	7564.7
1564.18484	7611.6
1567.52853	7651.3
1570.86999	7701.2
1574.20922	7766.2
1577.54624	7768.5
1580.88103	7688.9
1584.2136	7576.2
1587.54395	7508.2
1590.87208	7503.4
1594.19801	7591.6
1597.52172	7724.4
1600.84321	7785.4
1604.16251	7724.7
1607.47959	7574.4
1610.79447	7405.6
1614.10715	7267
1617.41763	7130.1
1620.7259	7064
1624.03199	7017.7
1627.33587	7081.5
1630.63757	7161.5
1633.93707	7355.8
1637.23439	7616.4
1640.52951	7964
1643.82246	8370.9
1647.11321	8807.5
1650.40179	9045.3
1653.68819	8912.8
1656.97241	8497.8
1660.25446	8013.5
1663.53433	7589.8
1666.81203	7344
1670.08756	7184
1673.36092	7067.2
1676.63211	6994.6
1679.90115	6942.6
1683.16801	6895.8
1686.43272	6796.4
1689.69527	6682.7
1692.95567	6577.5
1696.2139	6482.5
1699.46999	6382.9
1702.72392	6291.5
1705.97571	6160.9
1709.22535	6009.8
1712.47284	5859.3
1715.71819	5733.3
1718.96139	5649
1722.20246	5554.6
1725.44139	5489.7
1728.67818	5423.2
1731.91284	5359.1
1735.14537	5301.3
1738.37576	5285.9
1741.60403	5225.3
1744.83017	5213.7
1748.05418	5202.1
1751.27607	5182.1
1754.49584	5168.9
1757.71349	5164.7
1760.92903	5149.7
1764.14244	5140.8
1767.35375	5122.5
1770.56294	5120.9
1773.77002	5104.6
1776.97499	5090.9
1780.17785	5060.3
1783.37861	5054.4
1786.57727	5055.7
1789.77382	5033.4
1792.96828	5028.3
1796.16064	4998
1799.3509	4974.5
1802.53907	4967.3
1805.72514	4963.6
1808.90913	4926.7
1812.09102	4926.5
1815.27083	4912.1
1818.44856	4902
1821.6242	4881.7
1824.79776	4887
1827.96924	4874.8
1831.13864	4862.3
1834.30597	4866.8
1837.47122	4853.1
1840.6344	4828.5
1843.7955	4833.6
1846.95454	4840.7
1850.11151	4836.5
1853.26642	4812.7
1856.41926	4827.8
1859.57004	4818.2
1862.71876	4804.8
1865.86542	4796.2
1869.01003	4797
1872.15258	4796.8
1875.29308	4778.9
1878.43152	4764.7
1881.56792	4766
1884.70227	4753
1887.83457	4753.4
1890.96482	4753.4
1894.09304	4729.6
1897.21921	4722.4
1900.34335	4707.1
1903.46544	4709.4
1906.58551	4723.2
1909.70353	4683
1912.81953	4687.4
1915.93349	4700
1919.04543	4670.8
1922.15534	4667.4
1925.26322	4665.2
1928.36908	4651.2
1931.47292	4638.9
1934.57473	4621.4
1937.67453	4615.2
1940.77232	4593
1943.86808	4589.3
1946.96184	4570.6
1950.05358	4557.6
1953.14331	4557.3
1956.23103	4532.1
1959.31675	4544
1962.40046	4514.7
1965.48217	4513.8
1968.56188	4488.5
1971.63959	4467
1974.7153	4435.6
1977.78901	4442.5
1980.86073	4435.2
1983.93046	4414.5
1986.99819	4385.3
1990.06394	4385.4
1993.1277	4371.7
1996.18947	4376.7
1999.24925	4362.3
2002.30706	4329
2005.36288	4324.3
2008.41672	4308.6
2011.46859	4298.6
2014.51848	4284.4
2017.56639	4273.7
2020.61233	4255.5
2023.6563	4242.2
2026.6983	4222.4
2029.73833	4229.1
2032.7764	4218.7
2035.8125	4208.5
2038.84664	4185.1
2041.87881	4195.5
2044.90903	4181.7
2047.93729	4184.6
2050.96359	4166.9
2053.98794	4160.1
2057.01034	4159.6
2060.03078	4159.3
2063.04927	4132.4
2066.06582	4146.3
2069.08042	4120.7
2072.09307	4125.7
2075.10378	4133.8
2078.11255	4140.7
2081.11938	4138.1
2084.12426	4129.6
2087.12722	4140.6
2090.12824	4118
2093.12732	4124.4
2096.12447	4113.9
2099.11969	4120.4
2102.11299	4118.9
2105.10435	4122.8
2108.09379	4110.6
2111.08131	4117.7
2114.0669	4126.1
2117.05057	4146.8
2120.03233	4139.2
2123.01216	4125.7
2125.99008	4134.5
2128.96609	4144.7
2131.94018	4132.3
2134.91236	4138.1
2137.88263	4142
2140.851	4143.5
2143.81746	4129
2146.78201	4137.5
2149.74466	4146.5
2152.7054	4140.8
2155.66425	4141.8
2158.6212	4139.3
2161.57625	4138.9
2164.52941	4129.7
2167.48067	4125.6
2170.43004	4122.9
2173.37752	4114.7
2176.32311	4135.6
2179.26681	4126.6
2182.20863	4121.9
2185.14856	4127.9
2188.08661	4108
2191.02278	4115.5
2193.95707	4108.3
2196.88948	4102.4
2199.82001	4102.2
2202.74867	4094.7
2205.67545	4071
2208.60037	4073.5
2211.52341	4072.6
2214.44458	4084.6
2217.36388	4056.2
2220.28132	4052.8
2223.1969	4045.5
2226.11061	4024.9
2229.02246	4016.3
2231.93245	4017.8
2234.84058	3991.2
2237.74686	3987.8
2240.65128	4007
2243.55385	3983.5
2246.45456	3986.9
2249.35343	3979.3
2252.25044	3966.9
2255.14561	3955.5
2258.03893	3966.3
2260.93041	3957.7
2263.82004	3931.9
2266.70783	3940.3
2269.59378	3917.9
2272.4779	3912.1
2275.36017	3900.4
2278.24061	3889.6
2281.11922	3888.4
2283.996	3871.8
2286.87094	3866.6
2289.74405	3858.4
2292.61534	3857.2
2295.4848	3855.3
2298.35243	3856.7
2301.21824	3833.8
2304.08223	3857.2
2306.94439	3836.8
2309.80474	3830.6
2312.66327	3820.4
2315.51999	3828.5
2318.37489	3826.5
2321.22797	3809.1
2324.07925	3798
2326.92871	3797.3
2329.77637	3781.9
2332.62222	3773.6
2335.46626	3767
2338.3085	3763.9
2341.14893	3764.5
2343.98756	3767.2
2346.8244	3752.4
2349.65943	3749.8
2352.49267	3756.5
2355.32411	3752.6
2358.15376	3742.1
2360.98161	3749.6
2363.80768	3732.6
2366.63195	3745.8
2369.45444	3721.8
2372.27514	3716.5
2375.09405	3707.8
2377.91118	3714.2
2380.72652	3692.1
2383.54009	3694.2
2386.35187	3701.4
2389.16188	3693.8
2391.97011	3685.7
2394.77657	3664.6
2397.58125	3660.5
2400.38416	3664.2
2403.18529	3653
2405.98466	3656.7
2408.78226	3639.1
2411.57809	3642.6
2414.37216	3622.3
2417.16446	3628.3
2419.955	3623.5
2422.74378	3610.7
2425.5308	3613.2
2428.31606	3601.4
2431.09956	3577.7
2433.88131	3594.5
2436.6613	3593.9
2439.43954	3588.7
2442.21603	3590.9
2444.99077	3570.3
2447.76377	3586.7
2450.53501	3568.7
2453.30451	3579.4
2456.07226	3549.5
2458.83827	3556.4
2461.60254	3562.4
2464.36507	3547.3
2467.12586	3540
2469.88492	3550.2
2472.64224	3546.5
2475.39782	3539.2
2478.15167	3550.3
2480.90379	3542.2
2483.65417	3545
2486.40283	3530.2
2489.14976	3528.5
2491.89497	3515.8
2494.63845	3522.3
2497.3802	3506.9
2500.12024	3507.7
2502.85855	3510.9
2505.59514	3495.6
2508.33002	3508.8
2511.06318	3487.7
2513.79462	3492.9
2516.52435	3482.3
2519.25237	3483
2521.97867	3475.2
2524.70327	3476.6
2527.42616	3461
2530.14734	3462.7
2532.86681	3453.4
2535.58458	3446.5
2538.30065	3441.6
2541.01501	3447.9
2543.72768	3427.4
2546.43864	3421
2549.14791	3419.7
2551.85548	3402.3
2554.56136	3407.2
2557.26554	3401.4
2559.96803	3399.8
2562.66883	3401.3
2565.36794	3379.3
2568.06536	3384.3
2570.7611	3375.9
2573.45514	3360.1
2576.14751	3353.6
2578.83819	3354.2
2581.52719	3354.5
2584.21451	3339.4
2586.90015	3333.2
2589.58411	3327.1
2592.2664	3326.2
2594.94701	3309.6
2597.62594	3300.2
2600.30321	3301.1
2602.9788	3299.1
2605.65273	3289.9
2608.32498	3283.6
2610.99557	3279
2613.66449	3283.5
2616.33175	3266.5
2618.99734	3267.6
2621.66128	3264.4
2624.32355	3262.6
2626.98416	3257.7
2629.64311	3256.2
2632.30041	3250
2634.95605	3235.5
2637.61004	3244.7
2640.26238	3233.5
2642.91306	3225.6
2645.56209	3229.9
2648.20948	3233.3
2650.85521	3214.1
2653.4993	3210.6
2656.14175	3219.2
2658.78255	3220.8
2661.42171	3221.6
2664.05923	3226.9
2666.6951	3219.6
2669.32934	3210.6
2671.96194	3213.4
2674.59291	3208.9
2677.22224	3212.9
2679.84993	3210.7
2682.476	3203.1
2685.10043	3220.2
2687.72324	3221.3
2690.34441	3205.6
2692.96396	3207.5
2695.58188	3212.5
2698.19818	3220.6
2700.81285	3228.1
2703.4259	3221
2706.03733	3251.9
2708.64714	3233.5
2711.25533	3227.5
2713.86191	3226.2
2716.46687	3230.5
2719.07021	3211.3
2721.67194	3208.5
2724.27206	3216.9
2726.87057	3228.5
2729.46747	3209.3
2732.06276	3215.4
2734.65644	3205.8
2737.24852	3207
2739.83899	3199.5
2742.42786	3188.7
2745.01513	3178.2
2747.60079	3197.2
2750.18486	3186.4
2752.76733	3187.5
2755.3482	3193.6
2757.92747	3173.2
2760.50515	3190.9
2763.08123	3179.4
2765.65573	3158.3
2768.22863	3164.4
2770.79994	3166
2773.36967	3163.2
2775.9378	3169.3
2778.50435	3129.5
2781.06932	3136.6
2783.6327	3143.8
2786.1945	3134.4
2788.75471	3135.3
2791.31335	3107
2793.87041	3109.9
2796.42589	3110
2798.97979	3106.4
2801.53212	3089.8
2804.08288	3087.8
2806.63206	3077.6
2809.17967	3082.8
2811.72571	3073.5
2814.27018	3073.5
2816.81308	3072.2
2819.35442	3069.9
2821.89419	3057.8
2824.43239	3055.9
2826.96904	3052.3
2829.50412	3050
2832.03763	3038.6
2834.56959	3044.5
2837.1	3038.7
2839.62884	3036.9
2842.15613	3031
2844.68186	3045.8
2847.20604	3051.9
2849.72867	3048.2
2852.24974	3035.9
2854.76927	3048
2857.28724	3048.8
2859.80367	3040.7
2862.31855	3023
2864.83189	3029.9
2867.34368	3030.8
2869.85393	3030.9
2872.36264	3034.3
2874.8698	3031.4
2877.37543	3030
2879.87952	3028.6
2882.38207	3019.9
2884.88308	3019.3
2887.38256	3020.6
2889.88051	3031.1
2892.37692	3029.6
2894.8718	3020
2897.36515	3027.3
2899.85698	3020.8
2902.34727	3035.6
2904.83604	3029.4
2907.32328	3027.3
2909.809	3029.2
2912.29319	3034.7
2914.77587	3031
2917.25702	3032
2919.73665	3040.6
2922.21476	3034.5
2924.69136	3037.5
2927.16644	3031.9
2929.64	3040.2
2932.11205	3033.4
2934.58258	3023
2937.05161	3023
2939.51912	3022.2
2941.98513	3037.2
2944.44962	3019.5
2946.91261	3022.2
2949.37409	3028.7
2951.83407	3015.9
2954.29254	3019.5
2956.74951	3020.4
2959.20498	3007.6
2961.65895	3004.2
2964.11142	2997.4
2966.56239	2994.3
2969.01186	3001.3
2971.45984	2985.2
2973.90632	2986.9
2976.35131	2991.2
2978.7948	2986
2981.23681	2966.4
2983.67732	2982
2986.11635	2970.5
2988.55388	2946.5
2990.98993	2964.5
2993.4245	2959.4
2995.85758	2948.5
2998.28917	2958.2
3000.71928	2941.4
3003.14791	2937.4
3005.57506	2936.1
3008.00073	2937.7
3010.42493	2941.5
3012.84764	2945.7
3015.26888	2930.7
3017.68865	2931.2
3020.10694	2923.2
3022.52376	2926.3
3024.9391	2931.8
3027.35298	2926.9
3029.76539	2938.3
3032.17632	2936.4
3034.5858	2932.7
3036.9938	2926.2
3039.40034	2930.1
3041.80542	2919.5
3044.20903	2932
3046.61118	2920.7
3049.01187	2925.8
3051.4111	2915.9
3053.80888	2936.5
3056.20519	2919.4
3058.60005	2920.5
3060.99345	2922.3
3063.3854	2902.6
3065.7759	2899.8
3068.16494	2907.1
3070.55254	2904.2
3072.93868	2906.7
3075.32338	2915.3
3077.70662	2899.6
3080.08842	2906.8
3082.46878	2907.9
3084.84769	2916.2
3087.22515	2905.1
3089.60118	2932.7
3091.97576	2918
3094.3489	2929.1
3096.72061	2917.2
3099.09087	2932.8
3101.4597	2943.6
3103.82709	2943
3106.19305	2938
3108.55757	2955.2
3110.92066	2940.6
3113.28232	2945.3
3115.64255	2933.6
3118.00134	2924.5
3120.35871	2926.5
3122.71466	2933.8
3125.06917	2951.6
3127.42226	2936.2
3129.77393	2961.9
3132.12417	2962.7
3134.47299	2957.7
3136.82039	2962.6
3139.16636	2968.8
3141.51092	2976.7
3143.85406	2985.8
3146.19579	2996.3
3148.53609	3000.6
3150.87499	3010.9
3153.21246	3002.8
3155.54853	3036.5
3157.88318	3035.7
3160.21642	3047
3162.54826	3039.9
3164.87868	3048.6
3167.2077	3050.4
3169.5353	3052
3171.86151	3047.9
3174.18631	3068.4
3176.5097	3064.4
3178.83169	3062.7
3181.15228	3067.4
3183.47147	3071
3185.78926	3064.8
3188.10565	3064.1
3190.42065	3067.1
3192.73424	3076.1
3195.04645	3081.1
3197.35725	3079.4
3199.66667	3096.6
3201.97469	3094.1
3204.28132	3100.6
3206.58656	3106.5
3208.8904	3118.1
3211.19287	3122.9
3213.49394	3119.9
3215.79363	3114.2
3218.09193	3120
3220.38884	3131.4
3222.68438	3142
3224.97853	3122.4
3227.2713	3126.8
3229.56269	3116.9
3231.8527	3122.1
3234.14133	3127.7
3236.42858	3109.5
3238.71446	3104.8
3240.99896	3111.9
3243.28209	3108.9
3245.56384	3097.6
3247.84423	3107.9
3250.12324	3100.6
3252.40088	3113.1
3254.67715	3107
3256.95205	3104.9
3259.22558	3101.9
3261.49775	3098.3
3263.76855	3101.3
3266.03799	3088.4
3268.30606	3089.5
3270.57277	3082.8
3272.83812	3065.8
3275.10211	3066.6
3277.36474	3065.2
3279.62601	3075.9
3281.88593	3083.4
3284.14448	3070.6
3286.40168	3078.8
3288.65753	3056.7
3290.91202	3052.5
3293.16516	3032.2
3295.41695	3031.6
3297.66738	3016.2
3299.91647	3007.6
3302.16421	2990.2
3304.4106	2986.4
3306.65564	2985.4
3308.89933	2958.5
3311.14169	2951.1
3313.38269	2930.8
3315.62236	2901.3
3317.86068	2875.8
3320.09766	2846.9
3322.3333	2834.6
3324.5676	2831.9
3326.80056	2807.2
3329.03219	2773.9
3331.26248	0.3
3333.49143	1.3
3335.71905	0
