Data from AgNPs_FTO_APTES_UA_0.1mM_CRN_0uM_NaF_0.1M_Addition_RamanShift__46__10-56-17-509.txt Node

Date: Mon Dec 20 10:56:17 GMT 2021
User: TCL
Spectrometer: QEP01345
Trigger mode: 4
Integration Time (sec): 7.000000E0
Scans to average: 10
Electric dark correction enabled: true
Nonlinearity correction enabled: false
Boxcar width: 0
XAxis mode: Raman Shifts
Number of Pixels in Spectrum: 1044
>>>>>Begin Spectral Data<<<<<
46.04893	0.7375
50.45542	0.0375
54.85868	-3.3625
59.25871	1.2375
63.6555	32.4375
68.04907	32.4375
72.43941	35.9375
76.82654	33.6375
81.21044	37.0375
85.59113	44.1375
89.96862	40.2375
94.34289	41.8375
98.71396	45.2375
103.08183	42.3375
107.4465	46.4375
111.80798	51.1375
116.16626	47.0375
120.52136	49.2375
124.87327	53.1375
129.222	52.0375
133.56755	54.5375
137.90993	60.3375
142.24913	63.1375
146.58517	67.0375
150.91804	77.1375
155.24774	88.8375
159.57429	107.3375
163.89768	134.3375
168.21792	178.6375
172.53501	230.9375
176.84895	317.7375
181.15975	443.5375
185.46741	606.0375
189.77193	839.4375
194.07331	1119.9375
198.37157	1450.1375
202.6667	1790.5375
206.9587	2140.5375
211.24758	2479.0375
215.53334	2836.2375
219.81599	3186.9375
224.09553	3581.0375
228.37195	3996.5375
232.64527	4465.2375
236.91549	4930.3375
241.18261	5422.3375
245.44663	5873.0375
249.70755	6274.0375
253.96539	6589.2375
258.22014	6834.3375
262.4718	6984.8375
266.72039	7063.7375
270.96589	7073.5375
275.20832	7019.0375
279.44768	6910.2375
283.68397	6771.2375
287.91719	6627.2375
292.14735	6537.2375
296.37445	6469.4375
300.59849	6453.5375
304.81948	6436.0375
309.03742	6422.5375
313.25231	6381.0375
317.46415	6272.9375
321.67296	6134.4375
325.87872	6032.8375
330.08145	5949.1375
334.28114	5956.2375
338.47781	5977.3375
342.67145	6026.3375
346.86207	6109.9375
351.04966	6196.2375
355.23424	6279.7375
359.4158	6377.1375
363.59435	6442.4375
367.76989	6530.8375
371.94243	6602.5375
376.11196	6636.3375
380.27849	6701.6375
384.44203	6776.5375
388.60257	6848.9375
392.76012	6886.5375
396.91468	6984.0375
401.06626	7061.2375
405.21485	7111.0375
409.36047	7110.0375
413.50311	7057.5375
417.64277	6996.5375
421.77947	6951.8375
425.9132	6945.3375
430.04396	6949.7375
434.17176	6988.8375
438.2966	7016.8375
442.41849	7073.2375
446.53742	7161.7375
450.6534	7247.4375
454.76644	7355.3375
458.87653	7403.5375
462.98368	7409.8375
467.08789	7402.4375
471.18916	7407.0375
475.2875	7414.2375
479.38291	7443.9375
483.4754	7478.8375
487.56496	7569.1375
491.6516	7686.1375
495.73531	7754.2375
499.81612	7823.3375
503.89401	7852.0375
507.96899	7786.6375
512.04106	7737.4375
516.11023	7684.6375
520.1765	7640.5375
524.23987	7615.7375
528.30034	7611.3375
532.35792	7640.5375
536.41261	7592.4375
540.46441	7588.8375
544.51333	7460.8375
548.55936	7407.8375
552.60252	7395.9375
556.64279	7440.3375
560.6802	7462.7375
564.71473	7432.2375
568.7464	7448.3375
572.7752	7519.3375
576.80114	7569.5375
580.82422	7638.6375
584.84444	7736.1375
588.86181	7846.5375
592.87633	7932.9375
596.888	7947.0375
600.89682	7914.5375
604.9028	8057.6375
608.90594	8566.6375
612.90624	9280.8375
616.90371	9147.2375
620.89834	8321.2375
624.89015	8050.2375
628.87913	8279.2375
632.86528	8685.5375
636.84862	9000.5375
640.82913	9056.9375
644.80683	8825.3375
648.78172	8541.5375
652.75379	8290.8375
656.72306	8119.2375
660.68952	8067.6375
664.65319	8014.8375
668.61405	7937.9375
672.57211	7956.3375
676.52738	8022.8375
680.47986	8028.3375
684.42955	8011.7375
688.37646	7943.3375
692.32058	7868.2375
696.26192	7782.1375
700.20048	7705.7375
704.13626	7662.2375
708.06928	7605.2375
711.99952	7537.7375
715.927	7458.5375
719.85171	7448.4375
723.77365	7452.4375
727.69284	7447.5375
731.60928	7414.7375
735.52295	7382.7375
739.43388	7382.7375
743.34206	7413.6375
747.24749	7428.0375
751.15017	7420.4375
755.05012	7434.8375
758.94733	7498.9375
762.8418	7687.0375
766.73354	8057.4375
770.62254	8465.3375
774.50882	8699.6375
778.39237	8565.8375
782.27321	8136.0375
786.15132	7730.9375
790.02671	7488.5375
793.89938	7360.7375
797.76935	7342.8375
801.6366	7383.0375
805.50115	7473.4375
809.36299	7601.9375
813.22213	7603.0375
817.07857	7506.2375
820.93231	7364.6375
824.78336	7202.7375
828.63172	7109.1375
832.47738	7016.0375
836.32036	6980.6375
840.16066	6955.0375
843.99827	6937.7375
847.8332	6931.0375
851.66546	6928.6375
855.49504	6938.9375
859.32195	6958.7375
863.1462	6973.4375
866.96777	7013.5375
870.78668	7076.3375
874.60293	7167.6375
878.41652	7230.3375
882.22745	7306.2375
886.03573	7379.7375
889.84136	7397.2375
893.64433	7325.7375
897.44466	7217.1375
901.24235	7071.9375
905.0374	6968.3375
908.8298	6891.5375
912.61957	6841.9375
916.40671	6820.1375
920.19121	6849.8375
923.97308	6851.0375
927.75233	6850.3375
931.52895	6818.4375
935.30295	6784.8375
939.07433	6730.0375
942.84309	6667.1375
946.60924	6690.0375
950.37278	6654.1375
954.13371	6651.9375
957.89203	6622.9375
961.64774	6597.1375
965.40086	6598.2375
969.15137	6554.3375
972.89929	6521.7375
976.64461	6487.6375
980.38733	6494.0375
984.12747	6489.3375
987.86502	6496.2375
991.59999	6545.2375
995.33237	6598.4375
999.06217	6670.5375
1002.78939	6784.6375
1006.51404	6853.2375
1010.23611	6954.0375
1013.95561	7025.7375
1017.67255	7062.2375
1021.38692	7030.4375
1025.09872	6939.4375
1028.80796	6880.3375
1032.51465	6819.3375
1036.21877	6828.1375
1039.92035	6822.2375
1043.61937	6800.3375
1047.31584	6808.9375
1051.00976	6765.5375
1054.70114	6807.1375
1058.38998	6804.9375
1062.07627	6841.4375
1065.76003	6913.6375
1069.44126	6941.5375
1073.11995	7023.2375
1076.79611	7079.5375
1080.46974	7121.5375
1084.14085	7087.8375
1087.80943	7078.9375
1091.47549	7084.9375
1095.13903	7046.6375
1098.80005	7008.0375
1102.45857	6926.3375
1106.11456	6880.6375
1109.76805	6898.9375
1113.41903	6982.1375
1117.06751	7108.6375
1120.71348	7363.2375
1124.35696	7684.8375
1127.99793	8077.3375
1131.63641	8442.3375
1135.2724	8651.2375
1138.90589	8641.5375
1142.5369	8483.0375
1146.16542	8231.1375
1149.79145	7883.5375
1153.415	7597.8375
1157.03607	7361.7375
1160.65467	7248.6375
1164.27079	7237.8375
1167.88443	7335.1375
1171.49561	7525.1375
1175.10432	7773.0375
1178.71056	8144.7375
1182.31434	8472.8375
1185.91565	8676.9375
1189.51451	8757.4375
1193.11091	8745.3375
1196.70485	8645.8375
1200.29634	8555.2375
1203.88538	8472.7375
1207.47197	8320.2375
1211.05612	8161.1375
1214.63782	8006.0375
1218.21708	7849.3375
1221.79391	7704.0375
1225.36829	7601.5375
1228.94024	7515.0375
1232.50976	7440.3375
1236.07685	7350.3375
1239.6415	7346.5375
1243.20374	7342.3375
1246.76355	7382.8375
1250.32093	7438.7375
1253.8759	7532.2375
1257.42845	7635.7375
1260.97859	7749.2375
1264.52631	7879.9375
1268.07163	7976.2375
1271.61453	8114.1375
1275.15503	8189.1375
1278.69312	8303.1375
1282.22882	8391.7375
1285.76211	8485.0375
1289.29301	8617.0375
1292.82151	8775.6375
1296.34761	9004.1375
1299.87133	9277.6375
1303.39266	9580.8375
1306.9116	9936.4375
1310.42815	10287.1375
1313.94233	10543.7375
1317.45412	10564.1375
1320.96354	10438.2375
1324.47058	10261.1375
1327.97525	10064.5375
1331.47754	9903.7375
1334.97747	9808.1375
1338.47502	9823.5375
1341.97022	9915.3375
1345.46305	10039.0375
1348.95352	10242.5375
1352.44163	10550.2375
1355.92738	10951.3375
1359.41078	11367.9375
1362.89183	11719.5375
1366.37053	11581.3375
1369.84688	10832.1375
1373.32088	9984.8375
1376.79254	9363.4375
1380.26186	9053.9375
1383.72883	8923.1375
1387.19347	8801.9375
1390.65578	8626.0375
1394.11575	8497.8375
1397.57339	8429.2375
1401.0287	8354.3375
1404.48168	8334.0375
1407.93234	8236.3375
1411.38068	8075.3375
1414.82669	7917.3375
1418.27039	7741.8375
1421.71177	7560.3375
1425.15083	7418.2375
1428.58758	7310.3375
1432.02203	7279.3375
1435.45416	7319.3375
1438.88399	7376.4375
1442.31151	7445.0375
1445.73673	7537.9375
1449.15965	7603.5375
1452.58027	7661.4375
1455.9986	7721.8375
1459.41463	7774.9375
1462.82837	7891.5375
1466.23982	8032.4375
1469.64898	8141.0375
1473.05586	8195.7375
1476.46045	8228.3375
1479.86276	8219.0375
1483.26279	8262.9375
1486.66054	8184.4375
1490.05602	8202.6375
1493.44922	8280.3375
1496.84016	8419.6375
1500.22882	8618.4375
1503.61521	8968.1375
1506.99934	9337.4375
1510.38121	9624.8375
1513.76081	9707.6375
1517.13816	9474.3375
1520.51324	9063.6375
1523.88607	8674.3375
1527.25665	8442.3375
1530.62498	8321.7375
1533.99105	8290.5375
1537.35488	8255.6375
1540.71647	8242.3375
1544.07581	8252.3375
1547.4329	8238.0375
1550.78776	8222.3375
1554.14038	8264.3375
1557.49077	8291.2375
1560.83892	8330.7375
1564.18484	8417.9375
1567.52853	8456.6375
1570.86999	8497.0375
1574.20922	8536.9375
1577.54624	8535.3375
1580.88103	8426.2375
1584.2136	8309.4375
1587.54395	8269.2375
1590.87208	8335.5375
1594.19801	8557.8375
1597.52172	8820.3375
1600.84321	8984.2375
1604.16251	8886.1375
1607.47959	8627.6375
1610.79447	8356.7375
1614.10715	8080.2375
1617.41763	7841.1375
1620.7259	7667.9375
1624.03199	7602.2375
1627.33587	7593.3375
1630.63757	7666.4375
1633.93707	7874.7375
1637.23439	8141.6375
1640.52951	8590.4375
1643.82246	9115.3375
1647.11321	9634.8375
1650.40179	9880.2375
1653.68819	9687.5375
1656.97241	9123.4375
1660.25446	8446.3375
1663.53433	7941.3375
1666.81203	7599.1375
1670.08756	7366.8375
1673.36092	7204.5375
1676.63211	7070.5375
1679.90115	6954.5375
1683.16801	6853.7375
1686.43272	6721.9375
1689.69527	6565.0375
1692.95567	6407.1375
1696.2139	6288.2375
1699.46999	6183.6375
1702.72392	6096.3375
1705.97571	6014.5375
1709.22535	5923.3375
1712.47284	5891.3375
1715.71819	5812.4375
1718.96139	5772.3375
1722.20246	5719.3375
1725.44139	5665.1375
1728.67818	5599.4375
1731.91284	5553.9375
1735.14537	5482.5375
1738.37576	5418.8375
1741.60403	5408.1375
1744.83017	5358.1375
1748.05418	5313.0375
1751.27607	5299.4375
1754.49584	5276.9375
1757.71349	5252.0375
1760.92903	5232.5375
1764.14244	5244.3375
1767.35375	5216.2375
1770.56294	5215.5375
1773.77002	5183.9375
1776.97499	5174.2375
1780.17785	5158.4375
1783.37861	5129.1375
1786.57727	5127.0375
1789.77382	5094.3375
1792.96828	5101.2375
1796.16064	5061.3375
1799.3509	5069.5375
1802.53907	5034.5375
1805.72514	5008.1375
1808.90913	4986.4375
1812.09102	4992.5375
1815.27083	4987.0375
1818.44856	4967.3375
1821.6242	4948.9375
1824.79776	4945.6375
1827.96924	4945.9375
1831.13864	4937.5375
1834.30597	4926.3375
1837.47122	4922.8375
1840.6344	4912.5375
1843.7955	4911.2375
1846.95454	4910.4375
1850.11151	4896.7375
1853.26642	4887.1375
1856.41926	4887.7375
1859.57004	4876.8375
1862.71876	4872.3375
1865.86542	4864.7375
1869.01003	4861.0375
1872.15258	4862.9375
1875.29308	4852.7375
1878.43152	4849.7375
1881.56792	4840.5375
1884.70227	4834.9375
1887.83457	4828.3375
1890.96482	4833.8375
1894.09304	4817.1375
1897.21921	4792.7375
1900.34335	4799.8375
1903.46544	4811.3375
1906.58551	4783.6375
1909.70353	4788.2375
1912.81953	4766.3375
1915.93349	4785.5375
1919.04543	4759.5375
1922.15534	4757.9375
1925.26322	4740.7375
1928.36908	4725.9375
1931.47292	4722.4375
1934.57473	4695.0375
1937.67453	4690.8375
1940.77232	4675.3375
1943.86808	4652.6375
1946.96184	4653.5375
1950.05358	4626.4375
1953.14331	4629.9375
1956.23103	4608.9375
1959.31675	4595.5375
1962.40046	4602.9375
1965.48217	4585.1375
1968.56188	4570.4375
1971.63959	4563.4375
1974.7153	4547.3375
1977.78901	4517.1375
1980.86073	4503.4375
1983.93046	4508.5375
1986.99819	4490.0375
1990.06394	4459.4375
1993.1277	4462.0375
1996.18947	4436.5375
1999.24925	4420.3375
2002.30706	4425.2375
2005.36288	4409.1375
2008.41672	4408.7375
2011.46859	4385.5375
2014.51848	4360.3375
2017.56639	4354.5375
2020.61233	4339.2375
2023.6563	4345.8375
2026.6983	4312.9375
2029.73833	4307.9375
2032.7764	4286.2375
2035.8125	4290.9375
2038.84664	4286.2375
2041.87881	4288.6375
2044.90903	4270.7375
2047.93729	4256.0375
2050.96359	4246.5375
2053.98794	4248.5375
2057.01034	4234.6375
2060.03078	4254.5375
2063.04927	4243.7375
2066.06582	4232.6375
2069.08042	4228.3375
2072.09307	4223.8375
2075.10378	4226.4375
2078.11255	4194.8375
2081.11938	4213.7375
2084.12426	4221.3375
2087.12722	4207.7375
2090.12824	4209.9375
2093.12732	4232.0375
2096.12447	4216.1375
2099.11969	4205.7375
2102.11299	4214.8375
2105.10435	4215.8375
2108.09379	4210.8375
2111.08131	4217.1375
2114.0669	4215.7375
2117.05057	4230.3375
2120.03233	4229.3375
2123.01216	4230.4375
2125.99008	4232.3375
2128.96609	4235.0375
2131.94018	4252.9375
2134.91236	4239.8375
2137.88263	4233.5375
2140.851	4243.5375
2143.81746	4237.2375
2146.78201	4251.1375
2149.74466	4257.0375
2152.7054	4252.7375
2155.66425	4253.2375
2158.6212	4251.1375
2161.57625	4236.6375
2164.52941	4239.8375
2167.48067	4229.0375
2170.43004	4246.5375
2173.37752	4211.6375
2176.32311	4219.9375
2179.26681	4222.1375
2182.20863	4227.6375
2185.14856	4227.7375
2188.08661	4233.2375
2191.02278	4220.6375
2193.95707	4222.8375
2196.88948	4209.2375
2199.82001	4212.7375
2202.74867	4205.7375
2205.67545	4197.1375
2208.60037	4192.6375
2211.52341	4189.7375
2214.44458	4170.8375
2217.36388	4169.8375
2220.28132	4175.1375
2223.1969	4136.8375
2226.11061	4156.4375
2229.02246	4133.3375
2231.93245	4117.0375
2234.84058	4126.9375
2237.74686	4119.3375
2240.65128	4117.8375
2243.55385	4110.9375
2246.45456	4085.4375
2249.35343	4089.7375
2252.25044	4067.5375
2255.14561	4070.2375
2258.03893	4074.5375
2260.93041	4064.0375
2263.82004	4057.3375
2266.70783	4040.7375
2269.59378	4030.8375
2272.4779	4015.0375
2275.36017	4011.2375
2278.24061	4013.9375
2281.11922	4007.5375
2283.996	3987.6375
2286.87094	3990.2375
2289.74405	3974.7375
2292.61534	3980.3375
2295.4848	3961.1375
2298.35243	3966.7375
2301.21824	3953.8375
2304.08223	3947.4375
2306.94439	3957.0375
2309.80474	3947.5375
2312.66327	3947.7375
2315.51999	3937.7375
2318.37489	3933.0375
2321.22797	3935.5375
2324.07925	3912.2375
2326.92871	3922.5375
2329.77637	3920.1375
2332.62222	3921.8375
2335.46626	3902.1375
2338.3085	3893.7375
2341.14893	3903.3375
2343.98756	3896.0375
2346.8244	3886.2375
2349.65943	3883.9375
2352.49267	3881.0375
2355.32411	3872.6375
2358.15376	3877.7375
2360.98161	3874.4375
2363.80768	3875.6375
2366.63195	3862.4375
2369.45444	3862.6375
2372.27514	3844.2375
2375.09405	3856.4375
2377.91118	3850.7375
2380.72652	3850.0375
2383.54009	3822.4375
2386.35187	3835.1375
2389.16188	3825.6375
2391.97011	3806.5375
2394.77657	3820.7375
2397.58125	3802.0375
2400.38416	3793.3375
2403.18529	3786.4375
2405.98466	3788.4375
2408.78226	3775.7375
2411.57809	3750.8375
2414.37216	3752.0375
2417.16446	3760.8375
2419.955	3740.3375
2422.74378	3746.4375
2425.5308	3746.0375
2428.31606	3743.5375
2431.09956	3727.0375
2433.88131	3736.8375
2436.6613	3712.2375
2439.43954	3720.9375
2442.21603	3715.9375
2444.99077	3713.7375
2447.76377	3725.8375
2450.53501	3711.0375
2453.30451	3705.3375
2456.07226	3700.1375
2458.83827	3692.3375
2461.60254	3701.9375
2464.36507	3689.7375
2467.12586	3692.9375
2469.88492	3682.1375
2472.64224	3674.0375
2475.39782	3678.7375
2478.15167	3681.3375
2480.90379	3660.7375
2483.65417	3678.0375
2486.40283	3675.0375
2489.14976	3686.4375
2491.89497	3671.2375
2494.63845	3681.1375
2497.3802	3668.5375
2500.12024	3653.2375
2502.85855	3668.7375
2505.59514	3658.6375
2508.33002	3661.2375
2511.06318	3647.2375
2513.79462	3651.8375
2516.52435	3640.7375
2519.25237	3625.0375
2521.97867	3621.1375
2524.70327	3618.8375
2527.42616	3623.6375
2530.14734	3608.0375
2532.86681	3589.6375
2535.58458	3603.6375
2538.30065	3589.3375
2541.01501	3594.1375
2543.72768	3593.7375
2546.43864	3577.6375
2549.14791	3567.2375
2551.85548	3569.8375
2554.56136	3566.0375
2557.26554	3565.6375
2559.96803	3559.7375
2562.66883	3555.0375
2565.36794	3535.1375
2568.06536	3549.0375
2570.7611	3528.0375
2573.45514	3528.6375
2576.14751	3538.4375
2578.83819	3524.3375
2581.52719	3520.2375
2584.21451	3498.9375
2586.90015	3507.8375
2589.58411	3504.0375
2592.2664	3507.1375
2594.94701	3490.5375
2597.62594	3491.6375
2600.30321	3473.8375
2602.9788	3471.9375
2605.65273	3477.5375
2608.32498	3463.0375
2610.99557	3467.1375
2613.66449	3445.1375
2616.33175	3452.0375
2618.99734	3453.6375
2621.66128	3460.3375
2624.32355	3445.8375
2626.98416	3428.6375
2629.64311	3425.4375
2632.30041	3437.9375
2634.95605	3439.1375
2637.61004	3440.0375
2640.26238	3422.9375
2642.91306	3420.1375
2645.56209	3422.4375
2648.20948	3409.8375
2650.85521	3410.3375
2653.4993	3407.0375
2656.14175	3404.9375
2658.78255	3400.7375
2661.42171	3393.9375
2664.05923	3417.0375
2666.6951	3405.8375
2669.32934	3412.9375
2671.96194	3413.9375
2674.59291	3424.1375
2677.22224	3416.9375
2679.84993	3412.2375
2682.476	3401.4375
2685.10043	3422.2375
2687.72324	3395.2375
2690.34441	3416.3375
2692.96396	3405.6375
2695.58188	3413.4375
2698.19818	3401.9375
2700.81285	3408.6375
2703.4259	3420.4375
2706.03733	3430.6375
2708.64714	3424.0375
2711.25533	3415.0375
2713.86191	3414.6375
2716.46687	3425.5375
2719.07021	3414.1375
2721.67194	3423.4375
2724.27206	3405.8375
2726.87057	3424.7375
2729.46747	3422.9375
2732.06276	3407.8375
2734.65644	3405.8375
2737.24852	3403.0375
2739.83899	3409.1375
2742.42786	3406.6375
2745.01513	3402.6375
2747.60079	3404.9375
2750.18486	3392.8375
2752.76733	3393.8375
2755.3482	3390.4375
2757.92747	3393.4375
2760.50515	3386.1375
2763.08123	3394.1375
2765.65573	3380.3375
2768.22863	3366.9375
2770.79994	3366.8375
2773.36967	3369.2375
2775.9378	3369.3375
2778.50435	3366.0375
2781.06932	3355.8375
2783.6327	3361.7375
2786.1945	3346.3375
2788.75471	3341.8375
2791.31335	3350.6375
2793.87041	3322.8375
2796.42589	3315.2375
2798.97979	3317.1375
2801.53212	3313.4375
2804.08288	3299.8375
2806.63206	3294.9375
2809.17967	3293.3375
2811.72571	3287.8375
2814.27018	3284.4375
2816.81308	3285.0375
2819.35442	3284.7375
2821.89419	3278.9375
2824.43239	3264.5375
2826.96904	3268.5375
2829.50412	3277.2375
2832.03763	3258.2375
2834.56959	3259.7375
2837.1	3257.9375
2839.62884	3252.4375
2842.15613	3263.6375
2844.68186	3253.4375
2847.20604	3265.4375
2849.72867	3259.3375
2852.24974	3255.7375
2854.76927	3270.3375
2857.28724	3262.0375
2859.80367	3231.5375
2862.31855	3267.1375
2864.83189	3234.0375
2867.34368	3244.7375
2869.85393	3244.3375
2872.36264	3252.6375
2874.8698	3258.3375
2877.37543	3249.2375
2879.87952	3259.1375
2882.38207	3268.1375
2884.88308	3255.7375
2887.38256	3260.7375
2889.88051	3275.2375
2892.37692	3265.7375
2894.8718	3264.0375
2897.36515	3270.1375
2899.85698	3264.4375
2902.34727	3272.0375
2904.83604	3278.4375
2907.32328	3281.8375
2909.809	3280.9375
2912.29319	3266.4375
2914.77587	3282.5375
2917.25702	3283.8375
2919.73665	3287.1375
2922.21476	3282.7375
2924.69136	3261.8375
2927.16644	3274.8375
2929.64	3261.6375
2932.11205	3274.0375
2934.58258	3260.1375
2937.05161	3269.0375
2939.51912	3257.9375
2941.98513	3270.7375
2944.44962	3262.2375
2946.91261	3252.1375
2949.37409	3261.4375
2951.83407	3258.5375
2954.29254	3246.3375
2956.74951	3242.9375
2959.20498	3243.4375
2961.65895	3236.2375
2964.11142	3239.5375
2966.56239	3242.1375
2969.01186	3235.2375
2971.45984	3229.3375
2973.90632	3221.3375
2976.35131	3216.3375
2978.7948	3218.6375
2981.23681	3208.9375
2983.67732	3203.8375
2986.11635	3198.8375
2988.55388	3200.9375
2990.98993	3191.8375
2993.4245	3181.5375
2995.85758	3177.5375
2998.28917	3167.8375
3000.71928	3166.5375
3003.14791	3175.3375
3005.57506	3170.8375
3008.00073	3176.4375
3010.42493	3161.2375
3012.84764	3170.1375
3015.26888	3178.9375
3017.68865	3169.2375
3020.10694	3162.6375
3022.52376	3161.7375
3024.9391	3147.3375
3027.35298	3142.5375
3029.76539	3154.8375
3032.17632	3155.5375
3034.5858	3141.5375
3036.9938	3154.5375
3039.40034	3151.9375
3041.80542	3142.2375
3044.20903	3130.1375
3046.61118	3148.2375
3049.01187	3144.7375
3051.4111	3140.1375
3053.80888	3128.8375
3056.20519	3144.8375
3058.60005	3136.1375
3060.99345	3130.8375
3063.3854	3126.5375
3065.7759	3121.4375
3068.16494	3124.2375
3070.55254	3121.5375
3072.93868	3107.7375
3075.32338	3120.6375
3077.70662	3117.0375
3080.08842	3121.0375
3082.46878	3121.9375
3084.84769	3126.6375
3087.22515	3129.5375
3089.60118	3124.5375
3091.97576	3130.0375
3094.3489	3134.3375
3096.72061	3137.6375
3099.09087	3149.1375
3101.4597	3147.8375
3103.82709	3159.1375
3106.19305	3141.0375
3108.55757	3160.1375
3110.92066	3157.0375
3113.28232	3145.2375
3115.64255	3148.8375
3118.00134	3148.5375
3120.35871	3144.9375
3122.71466	3139.0375
3125.06917	3150.9375
