Data from AgNPs_FTO_APTES_UA_0.1mM_CRN_20uM_NaF_0.1M_Addition_RamanShift__2__11-59-17-579.txt Node

Date: Mon Dec 20 11:59:17 GMT 2021
User: TCL
Spectrometer: QEP01345
Trigger mode: 4
Integration Time (sec): 7.000000E0
Scans to average: 10
Electric dark correction enabled: true
Nonlinearity correction enabled: false
Boxcar width: 0
XAxis mode: Raman Shifts
Number of Pixels in Spectrum: 1044
>>>>>Begin Spectral Data<<<<<
46.04893	-0.0625
50.45542	-0.0625
54.85868	-1.1625
59.25871	2.2375
63.6555	32.1375
68.04907	29.6375
72.43941	36.0375
76.82654	38.0375
81.21044	40.9375
85.59113	39.6375
89.96862	39.0375
94.34289	44.9375
98.71396	44.9375
103.08183	41.9375
107.4465	45.8375
111.80798	49.0375
116.16626	48.0375
120.52136	48.6375
124.87327	52.2375
129.222	50.7375
133.56755	54.7375
137.90993	59.1375
142.24913	62.2375
146.58517	65.9375
150.91804	74.5375
155.24774	89.3375
159.57429	103.3375
163.89768	130.0375
168.21792	172.4375
172.53501	223.9375
176.84895	302.9375
181.15975	423.8375
185.46741	585.4375
189.77193	810.4375
194.07331	1076.1375
198.37157	1393.3375
202.6667	1723.5375
206.9587	2058.8375
211.24758	2383.1375
215.53334	2702.1375
219.81599	3053.7375
224.09553	3437.3375
228.37195	3870.6375
232.64527	4336.6375
236.91549	4825.9375
241.18261	5308.1375
245.44663	5732.9375
249.70755	6104.6375
253.96539	6413.6375
258.22014	6673.5375
262.4718	6841.8375
266.72039	6946.4375
270.96589	6974.5375
275.20832	6968.0375
279.44768	6871.7375
283.68397	6783.0375
287.91719	6674.7375
292.14735	6598.5375
296.37445	6562.5375
300.59849	6545.2375
304.81948	6537.8375
309.03742	6539.0375
313.25231	6491.1375
317.46415	6398.9375
321.67296	6301.8375
325.87872	6186.5375
330.08145	6125.4375
334.28114	6128.3375
338.47781	6124.4375
342.67145	6185.0375
346.86207	6242.1375
351.04966	6327.3375
355.23424	6427.5375
359.4158	6533.8375
363.59435	6611.1375
367.76989	6678.4375
371.94243	6736.6375
376.11196	6785.3375
380.27849	6850.0375
384.44203	6921.4375
388.60257	6986.6375
392.76012	7053.6375
396.91468	7113.9375
401.06626	7206.4375
405.21485	7241.6375
409.36047	7211.2375
413.50311	7166.0375
417.64277	7126.9375
421.77947	7104.7375
425.9132	7113.1375
430.04396	7126.7375
434.17176	7167.8375
438.2966	7215.9375
442.41849	7269.5375
446.53742	7356.3375
450.6534	7451.3375
454.76644	7531.7375
458.87653	7559.6375
462.98368	7588.6375
467.08789	7554.7375
471.18916	7551.0375
475.2875	7564.7375
479.38291	7586.7375
483.4754	7667.0375
487.56496	7776.6375
491.6516	7913.1375
495.73531	8000.8375
499.81612	8015.5375
503.89401	7999.0375
507.96899	7892.1375
512.04106	7811.3375
516.11023	7769.4375
520.1765	7742.9375
524.23987	7760.2375
528.30034	7797.6375
532.35792	7808.5375
536.41261	7767.9375
540.46441	7669.9375
544.51333	7596.7375
548.55936	7553.7375
552.60252	7547.9375
556.64279	7597.6375
560.6802	7596.2375
564.71473	7618.5375
568.7464	7663.6375
572.7752	7731.3375
576.80114	7789.0375
580.82422	7831.7375
584.84444	7974.7375
588.86181	8165.5375
592.87633	8299.1375
596.888	8285.8375
600.89682	8220.5375
604.9028	8273.2375
608.90594	8645.7375
612.90624	9232.9375
616.90371	9199.5375
620.89834	8594.2375
624.89015	8563.8375
628.87913	8953.9375
632.86528	9501.1375
636.84862	9832.4375
640.82913	9832.7375
644.80683	9478.6375
648.78172	9004.6375
652.75379	8599.1375
656.72306	8329.2375
660.68952	8181.8375
664.65319	8023.6375
668.61405	7863.1375
672.57211	7800.0375
676.52738	7788.2375
680.47986	7803.3375
684.42955	7802.0375
688.37646	7772.4375
692.32058	7727.3375
696.26192	7689.4375
700.20048	7670.2375
704.13626	7670.2375
708.06928	7633.6375
711.99952	7610.2375
715.927	7625.3375
719.85171	7677.7375
723.77365	7756.8375
727.69284	7771.7375
731.60928	7738.2375
735.52295	7631.1375
739.43388	7570.7375
743.34206	7559.7375
747.24749	7574.2375
751.15017	7568.6375
755.05012	7616.1375
758.94733	7703.6375
762.8418	7870.4375
766.73354	8140.3375
770.62254	8434.9375
774.50882	8551.3375
778.39237	8377.4375
782.27321	8032.0375
786.15132	7761.2375
790.02671	7570.2375
793.89938	7503.9375
797.76935	7504.8375
801.6366	7567.0375
805.50115	7715.8375
809.36299	7958.4375
813.22213	8086.5375
817.07857	8036.2375
820.93231	7855.2375
824.78336	7642.1375
828.63172	7444.8375
832.47738	7353.4375
836.32036	7300.3375
840.16066	7290.0375
843.99827	7283.0375
847.8332	7269.9375
851.66546	7246.7375
855.49504	7250.8375
859.32195	7270.0375
863.1462	7292.2375
866.96777	7360.3375
870.78668	7423.4375
874.60293	7556.9375
878.41652	7698.1375
882.22745	7832.8375
886.03573	7938.6375
889.84136	8005.7375
893.64433	7915.3375
897.44466	7728.7375
901.24235	7533.5375
905.0374	7324.6375
908.8298	7250.8375
912.61957	7162.3375
916.40671	7136.8375
920.19121	7134.0375
923.97308	7131.0375
927.75233	7132.5375
931.52895	7114.7375
935.30295	7068.4375
939.07433	6997.3375
942.84309	6954.3375
946.60924	6920.7375
950.37278	6904.7375
954.13371	6890.1375
957.89203	6878.6375
961.64774	6852.6375
965.40086	6856.5375
969.15137	6833.4375
972.89929	6810.9375
976.64461	6775.4375
980.38733	6804.7375
984.12747	6776.3375
987.86502	6810.5375
991.59999	6859.4375
995.33237	6894.2375
999.06217	6986.0375
1002.78939	7080.6375
1006.51404	7187.8375
1010.23611	7252.0375
1013.95561	7323.1375
1017.67255	7343.7375
1021.38692	7355.6375
1025.09872	7292.8375
1028.80796	7212.9375
1032.51465	7171.4375
1036.21877	7127.0375
1039.92035	7070.6375
1043.61937	7065.6375
1047.31584	7027.5375
1051.00976	7016.3375
1054.70114	7011.9375
1058.38998	7041.6375
1062.07627	7094.7375
1065.76003	7171.7375
1069.44126	7234.9375
1073.11995	7321.0375
1076.79611	7373.0375
1080.46974	7385.2375
1084.14085	7342.4375
1087.80943	7325.9375
1091.47549	7283.9375
1095.13903	7262.5375
1098.80005	7197.8375
1102.45857	7139.0375
1106.11456	7110.7375
1109.76805	7137.9375
1113.41903	7233.2375
1117.06751	7444.3375
1120.71348	7793.7375
1124.35696	8240.8375
1127.99793	8749.0375
1131.63641	9197.6375
1135.2724	9367.0375
1138.90589	9333.2375
1142.5369	9063.0375
1146.16542	8670.4375
1149.79145	8269.1375
1153.415	7881.6375
1157.03607	7610.6375
1160.65467	7464.4375
1164.27079	7426.9375
1167.88443	7485.3375
1171.49561	7636.0375
1175.10432	7887.9375
1178.71056	8217.9375
1182.31434	8518.6375
1185.91565	8711.3375
1189.51451	8750.4375
1193.11091	8722.3375
1196.70485	8715.5375
1200.29634	8732.8375
1203.88538	8703.8375
1207.47197	8626.6375
1211.05612	8485.2375
1214.63782	8325.0375
1218.21708	8115.0375
1221.79391	7930.6375
1225.36829	7755.8375
1228.94024	7673.3375
1232.50976	7569.6375
1236.07685	7509.1375
1239.6415	7495.5375
1243.20374	7500.2375
1246.76355	7546.7375
1250.32093	7595.7375
1253.8759	7690.7375
1257.42845	7799.8375
1260.97859	7900.7375
1264.52631	7991.6375
1268.07163	8077.9375
1271.61453	8113.7375
1275.15503	8188.8375
1278.69312	8235.4375
1282.22882	8248.8375
1285.76211	8322.5375
1289.29301	8440.2375
1292.82151	8608.3375
1296.34761	8800.0375
1299.87133	9043.8375
1303.39266	9310.1375
1306.9116	9608.0375
1310.42815	9939.9375
1313.94233	10130.8375
1317.45412	10131.2375
1320.96354	10038.4375
1324.47058	9842.8375
1327.97525	9698.5375
1331.47754	9584.7375
1334.97747	9513.5375
1338.47502	9511.0375
1341.97022	9562.6375
1345.46305	9668.6375
1348.95352	9818.9375
1352.44163	10013.5375
1355.92738	10333.3375
1359.41078	10794.8375
1362.89183	11246.1375
1366.37053	11221.9375
1369.84688	10615.6375
1373.32088	9878.4375
1376.79254	9342.8375
1380.26186	9069.0375
1383.72883	8888.2375
1387.19347	8760.0375
1390.65578	8595.7375
1394.11575	8483.3375
1397.57339	8395.3375
1401.0287	8336.2375
1404.48168	8279.5375
1407.93234	8125.2375
1411.38068	8020.2375
1414.82669	7853.2375
1418.27039	7651.8375
1421.71177	7488.1375
1425.15083	7356.3375
1428.58758	7265.6375
1432.02203	7242.9375
1435.45416	7277.6375
1438.88399	7295.3375
1442.31151	7337.8375
1445.73673	7352.7375
1449.15965	7373.5375
1452.58027	7393.2375
1455.9986	7407.6375
1459.41463	7405.7375
1462.82837	7470.8375
1466.23982	7522.1375
1469.64898	7592.2375
1473.05586	7644.3375
1476.46045	7661.7375
1479.86276	7705.0375
1483.26279	7722.1375
1486.66054	7806.3375
1490.05602	7886.3375
1493.44922	8010.3375
1496.84016	8185.1375
1500.22882	8462.5375
1503.61521	8806.0375
1506.99934	9158.7375
1510.38121	9479.4375
1513.76081	9554.9375
1517.13816	9342.0375
1520.51324	8961.9375
1523.88607	8607.5375
1527.25665	8398.9375
1530.62498	8314.9375
1533.99105	8319.6375
1537.35488	8310.4375
1540.71647	8290.4375
1544.07581	8269.2375
1547.4329	8228.8375
1550.78776	8220.7375
1554.14038	8191.9375
1557.49077	8206.0375
1560.83892	8217.1375
1564.18484	8260.5375
1567.52853	8326.0375
1570.86999	8388.6375
1574.20922	8452.0375
1577.54624	8440.0375
1580.88103	8396.5375
1584.2136	8282.3375
1587.54395	8250.8375
1590.87208	8281.0375
1594.19801	8437.7375
1597.52172	8609.2375
1600.84321	8668.8375
1604.16251	8601.7375
1607.47959	8378.0375
1610.79447	8144.7375
1614.10715	7922.7375
1617.41763	7764.1375
1620.7259	7644.7375
1624.03199	7629.9375
1627.33587	7669.2375
1630.63757	7779.9375
1633.93707	7978.3375
1637.23439	8300.5375
1640.52951	8721.1375
1643.82246	9273.0375
1647.11321	9782.3375
1650.40179	10024.8375
1653.68819	9801.9375
1656.97241	9273.9375
1660.25446	8674.4375
1663.53433	8213.4375
1666.81203	7880.5375
1670.08756	7666.2375
1673.36092	7553.3375
1676.63211	7457.1375
1679.90115	7410.0375
1683.16801	7313.3375
1686.43272	7233.9375
1689.69527	7107.7375
1692.95567	6992.2375
1696.2139	6875.5375
1699.46999	6802.4375
1702.72392	6699.1375
1705.97571	6583.1375
1709.22535	6440.4375
1712.47284	6317.6375
1715.71819	6211.7375
1718.96139	6104.3375
1722.20246	6012.7375
1725.44139	5954.1375
1728.67818	5887.0375
1731.91284	5840.4375
1735.14537	5779.1375
1738.37576	5733.0375
1741.60403	5686.3375
1744.83017	5674.6375
1748.05418	5665.1375
1751.27607	5646.8375
1754.49584	5634.2375
1757.71349	5624.7375
1760.92903	5626.3375
1764.14244	5615.2375
1767.35375	5594.1375
1770.56294	5595.7375
1773.77002	5582.7375
1776.97499	5559.2375
1780.17785	5539.6375
1783.37861	5537.3375
1786.57727	5512.8375
1789.77382	5488.0375
1792.96828	5490.5375
1796.16064	5471.7375
1799.3509	5450.9375
1802.53907	5440.1375
1805.72514	5421.0375
1808.90913	5421.9375
1812.09102	5399.4375
1815.27083	5385.6375
1818.44856	5376.3375
1821.6242	5359.5375
1824.79776	5351.4375
1827.96924	5359.3375
1831.13864	5346.6375
1834.30597	5352.0375
1837.47122	5328.0375
1840.6344	5326.4375
1843.7955	5319.1375
1846.95454	5311.6375
1850.11151	5320.4375
1853.26642	5304.9375
1856.41926	5308.8375
1859.57004	5304.8375
1862.71876	5292.3375
1865.86542	5288.0375
1869.01003	5293.2375
1872.15258	5274.1375
1875.29308	5268.5375
1878.43152	5255.0375
1881.56792	5255.2375
1884.70227	5248.7375
1887.83457	5247.1375
1890.96482	5230.8375
1894.09304	5216.9375
1897.21921	5221.1375
1900.34335	5207.6375
1903.46544	5208.8375
1906.58551	5211.6375
1909.70353	5190.4375
1912.81953	5182.2375
1915.93349	5180.8375
1919.04543	5170.3375
1922.15534	5139.3375
1925.26322	5155.2375
1928.36908	5120.4375
1931.47292	5116.8375
1934.57473	5111.7375
1937.67453	5109.6375
1940.77232	5080.6375
1943.86808	5073.3375
1946.96184	5066.2375
1950.05358	5057.8375
1953.14331	5039.8375
1956.23103	5021.6375
1959.31675	5009.6375
1962.40046	4989.7375
1965.48217	4972.7375
1968.56188	4964.5375
1971.63959	4960.9375
1974.7153	4929.9375
1977.78901	4923.0375
1980.86073	4901.3375
1983.93046	4888.8375
1986.99819	4862.0375
1990.06394	4856.3375
1993.1277	4857.3375
1996.18947	4828.2375
1999.24925	4836.0375
2002.30706	4786.8375
2005.36288	4795.2375
2008.41672	4793.1375
2011.46859	4773.4375
2014.51848	4752.1375
2017.56639	4752.2375
2020.61233	4733.5375
2023.6563	4714.0375
2026.6983	4697.8375
2029.73833	4706.4375
2032.7764	4683.8375
2035.8125	4686.8375
2038.84664	4677.9375
2041.87881	4645.1375
2044.90903	4651.3375
2047.93729	4629.7375
2050.96359	4634.8375
2053.98794	4627.2375
2057.01034	4622.9375
2060.03078	4611.7375
2063.04927	4595.7375
2066.06582	4609.3375
2069.08042	4620.5375
2072.09307	4600.1375
2075.10378	4596.6375
2078.11255	4609.1375
2081.11938	4603.5375
2084.12426	4599.7375
2087.12722	4582.4375
2090.12824	4589.2375
2093.12732	4584.1375
2096.12447	4594.6375
2099.11969	4606.3375
2102.11299	4589.8375
2105.10435	4589.0375
2108.09379	4600.7375
2111.08131	4582.2375
2114.0669	4608.3375
2117.05057	4595.7375
2120.03233	4604.4375
2123.01216	4611.8375
2125.99008	4615.1375
2128.96609	4613.3375
2131.94018	4608.0375
2134.91236	4619.5375
2137.88263	4620.8375
2140.851	4616.0375
2143.81746	4623.1375
2146.78201	4618.9375
2149.74466	4623.7375
2152.7054	4626.6375
2155.66425	4624.8375
2158.6212	4622.1375
2161.57625	4622.1375
2164.52941	4610.0375
2167.48067	4623.3375
2170.43004	4625.1375
2173.37752	4622.9375
2176.32311	4601.4375
2179.26681	4609.2375
2182.20863	4596.3375
2185.14856	4608.7375
2188.08661	4603.2375
2191.02278	4611.8375
2193.95707	4590.9375
2196.88948	4575.3375
2199.82001	4588.2375
2202.74867	4588.2375
2205.67545	4573.7375
2208.60037	4569.4375
2211.52341	4553.3375
2214.44458	4566.0375
2217.36388	4534.7375
2220.28132	4536.8375
2223.1969	4521.2375
2226.11061	4518.8375
2229.02246	4505.9375
2231.93245	4508.9375
2234.84058	4489.8375
2237.74686	4487.1375
2240.65128	4458.8375
2243.55385	4477.1375
2246.45456	4446.4375
2249.35343	4473.7375
2252.25044	4456.8375
2255.14561	4453.7375
2258.03893	4465.1375
2260.93041	4432.4375
2263.82004	4431.7375
2266.70783	4424.0375
2269.59378	4414.1375
2272.4779	4399.7375
2275.36017	4389.9375
2278.24061	4396.4375
2281.11922	4376.6375
2283.996	4361.0375
2286.87094	4358.9375
2289.74405	4356.4375
2292.61534	4343.7375
2295.4848	4329.1375
2298.35243	4338.0375
2301.21824	4333.2375
2304.08223	4324.3375
2306.94439	4330.0375
2309.80474	4326.1375
2312.66327	4313.6375
2315.51999	4306.1375
2318.37489	4309.1375
2321.22797	4295.5375
2324.07925	4312.2375
2326.92871	4287.9375
2329.77637	4287.5375
2332.62222	4272.1375
2335.46626	4257.9375
2338.3085	4251.6375
2341.14893	4258.1375
2343.98756	4261.9375
2346.8244	4244.4375
2349.65943	4250.9375
2352.49267	4235.3375
2355.32411	4232.9375
2358.15376	4239.8375
2360.98161	4233.5375
2363.80768	4232.7375
2366.63195	4228.4375
2369.45444	4233.8375
2372.27514	4215.2375
2375.09405	4222.5375
2377.91118	4201.3375
2380.72652	4201.4375
2383.54009	4181.7375
2386.35187	4202.5375
2389.16188	4164.6375
2391.97011	4171.7375
2394.77657	4161.8375
2397.58125	4126.9375
2400.38416	4127.9375
2403.18529	4141.4375
2405.98466	4136.0375
2408.78226	4123.7375
2411.57809	4115.0375
2414.37216	4106.8375
2417.16446	4108.1375
2419.955	4096.0375
2422.74378	4092.2375
2425.5308	4078.7375
2428.31606	4089.8375
2431.09956	4079.4375
2433.88131	4076.2375
2436.6613	4078.2375
2439.43954	4056.0375
2442.21603	4060.4375
2444.99077	4050.2375
2447.76377	4053.4375
2450.53501	4043.1375
2453.30451	4052.8375
2456.07226	4050.4375
2458.83827	4037.5375
2461.60254	4038.2375
2464.36507	4032.9375
2467.12586	4024.3375
2469.88492	4022.9375
2472.64224	4020.5375
2475.39782	4012.4375
2478.15167	4029.8375
2480.90379	4012.6375
2483.65417	4006.9375
2486.40283	4006.8375
2489.14976	4017.8375
2491.89497	3995.4375
2494.63845	4011.3375
2497.3802	3995.6375
2500.12024	3980.8375
2502.85855	3986.5375
2505.59514	3997.0375
2508.33002	3991.1375
2511.06318	3977.9375
2513.79462	3956.7375
2516.52435	3949.9375
2519.25237	3957.2375
2521.97867	3937.7375
2524.70327	3929.7375
2527.42616	3934.4375
2530.14734	3920.2375
2532.86681	3919.9375
2535.58458	3917.4375
2538.30065	3915.1375
2541.01501	3901.3375
2543.72768	3909.3375
2546.43864	3898.4375
2549.14791	3898.9375
2551.85548	3894.3375
2554.56136	3887.1375
2557.26554	3867.2375
2559.96803	3866.6375
2562.66883	3864.8375
2565.36794	3855.1375
2568.06536	3862.7375
2570.7611	3869.3375
2573.45514	3830.7375
2576.14751	3834.2375
2578.83819	3820.6375
2581.52719	3820.9375
2584.21451	3815.2375
2586.90015	3808.6375
2589.58411	3788.1375
2592.2664	3790.4375
2594.94701	3783.5375
2597.62594	3793.1375
2600.30321	3765.5375
2602.9788	3769.7375
2605.65273	3758.1375
2608.32498	3767.1375
2610.99557	3758.5375
2613.66449	3747.5375
2616.33175	3739.1375
2618.99734	3737.4375
2621.66128	3742.4375
2624.32355	3725.5375
2626.98416	3727.9375
2629.64311	3725.1375
2632.30041	3709.5375
2634.95605	3707.2375
2637.61004	3719.0375
2640.26238	3706.7375
2642.91306	3701.5375
2645.56209	3705.2375
2648.20948	3700.0375
2650.85521	3693.9375
2653.4993	3691.8375
2656.14175	3683.6375
2658.78255	3695.9375
2661.42171	3689.7375
2664.05923	3677.7375
2666.6951	3685.9375
2669.32934	3668.7375
2671.96194	3670.4375
2674.59291	3686.7375
2677.22224	3688.1375
2679.84993	3678.3375
2682.476	3688.9375
2685.10043	3700.3375
2687.72324	3687.4375
2690.34441	3694.6375
2692.96396	3699.3375
2695.58188	3686.4375
2698.19818	3693.9375
2700.81285	3703.8375
2703.4259	3707.2375
2706.03733	3723.1375
2708.64714	3726.8375
2711.25533	3703.7375
2713.86191	3703.2375
2716.46687	3697.3375
2719.07021	3696.2375
2721.67194	3706.8375
2724.27206	3696.0375
2726.87057	3707.6375
2729.46747	3681.3375
2732.06276	3698.3375
2734.65644	3690.7375
2737.24852	3689.8375
2739.83899	3667.5375
2742.42786	3682.3375
2745.01513	3660.3375
2747.60079	3658.7375
2750.18486	3683.3375
2752.76733	3648.3375
2755.3482	3654.7375
2757.92747	3641.0375
2760.50515	3646.5375
2763.08123	3644.2375
2765.65573	3639.0375
2768.22863	3658.0375
2770.79994	3642.7375
2773.36967	3630.9375
2775.9378	3617.5375
2778.50435	3615.6375
2781.06932	3608.1375
2783.6327	3617.5375
2786.1945	3613.1375
2788.75471	3596.2375
2791.31335	3587.5375
2793.87041	3574.9375
2796.42589	3569.4375
2798.97979	3579.7375
2801.53212	3565.0375
2804.08288	3563.0375
2806.63206	3544.5375
2809.17967	3535.1375
2811.72571	3529.2375
2814.27018	3531.8375
2816.81308	3529.6375
2819.35442	3510.1375
2821.89419	3514.4375
2824.43239	3513.1375
2826.96904	3504.0375
2829.50412	3504.2375
2832.03763	3504.5375
2834.56959	3499.8375
2837.1	3500.3375
2839.62884	3509.7375
2842.15613	3503.5375
2844.68186	3489.7375
2847.20604	3506.4375
2849.72867	3492.3375
2852.24974	3497.7375
2854.76927	3498.5375
2857.28724	3502.8375
2859.80367	3491.1375
2862.31855	3493.0375
2864.83189	3496.0375
2867.34368	3479.9375
2869.85393	3491.9375
2872.36264	3477.1375
2874.8698	3498.3375
2877.37543	3472.2375
2879.87952	3486.0375
2882.38207	3482.8375
2884.88308	3482.3375
2887.38256	3496.1375
2889.88051	3483.8375
2892.37692	3489.0375
2894.8718	3493.5375
2897.36515	3479.7375
2899.85698	3490.1375
2902.34727	3500.7375
2904.83604	3481.5375
2907.32328	3508.0375
2909.809	3499.4375
2912.29319	3490.9375
2914.77587	3494.6375
2917.25702	3515.2375
2919.73665	3502.3375
2922.21476	3488.0375
2924.69136	3485.2375
2927.16644	3491.4375
2929.64	3495.2375
2932.11205	3501.1375
2934.58258	3479.6375
2937.05161	3485.1375
2939.51912	3487.7375
2941.98513	3490.1375
2944.44962	3475.4375
2946.91261	3470.8375
2949.37409	3483.7375
2951.83407	3483.6375
2954.29254	3461.4375
2956.74951	3470.4375
2959.20498	3459.7375
2961.65895	3449.4375
2964.11142	3454.0375
2966.56239	3456.4375
2969.01186	3452.3375
2971.45984	3442.7375
2973.90632	3437.6375
2976.35131	3424.3375
2978.7948	3436.9375
2981.23681	3424.4375
2983.67732	3415.0375
2986.11635	3425.4375
2988.55388	3417.0375
2990.98993	3410.2375
2993.4245	3399.3375
2995.85758	3401.0375
2998.28917	3402.6375
3000.71928	3391.1375
3003.14791	3384.5375
3005.57506	3387.9375
3008.00073	3391.3375
3010.42493	3380.6375
3012.84764	3378.2375
3015.26888	3375.5375
3017.68865	3365.6375
3020.10694	3370.3375
3022.52376	3375.2375
3024.9391	3388.6375
3027.35298	3368.6375
3029.76539	3360.9375
3032.17632	3365.5375
3034.5858	3360.2375
3036.9938	3350.2375
3039.40034	3343.1375
3041.80542	3360.1375
3044.20903	3356.0375
3046.61118	3352.4375
3049.01187	3356.3375
3051.4111	3372.2375
3053.80888	3349.1375
3056.20519	3358.7375
3058.60005	3343.2375
3060.99345	3341.6375
3063.3854	3337.1375
3065.7759	3339.2375
3068.16494	3352.8375
3070.55254	3337.2375
3072.93868	3321.5375
3075.32338	3320.2375
3077.70662	3330.8375
3080.08842	3323.5375
3082.46878	3331.4375
3084.84769	3334.8375
3087.22515	3339.5375
3089.60118	3342.8375
3091.97576	3346.6375
3094.3489	3350.2375
3096.72061	3352.4375
3099.09087	3352.1375
3101.4597	3349.7375
3103.82709	3355.4375
3106.19305	3351.3375
3108.55757	3355.8375
3110.92066	3356.3375
3113.28232	3360.1375
3115.64255	3350.0375
3118.00134	3349.2375
3120.35871	3357.4375
3122.71466	3353.6375
3125.06917	3352.8375
