Data from AgNPs_FTO_APTES_UA_0.1mM_CRN_20uM_NaF_0.1M_Addition_RamanShift__13__12-12-07-593.txt Node

Date: Mon Dec 20 12:12:07 GMT 2021
User: TCL
Spectrometer: QEP01345
Trigger mode: 4
Integration Time (sec): 7.000000E0
Scans to average: 10
Electric dark correction enabled: true
Nonlinearity correction enabled: false
Boxcar width: 0
XAxis mode: Raman Shifts
Number of Pixels in Spectrum: 1044
>>>>>Begin Spectral Data<<<<<
46.04893	1.025
50.45542	-0.475
54.85868	-1.375
59.25871	-0.175
63.6555	32.125
68.04907	33.025
72.43941	37.225
76.82654	38.425
81.21044	36.525
85.59113	43.125
89.96862	40.125
94.34289	44.125
98.71396	45.325
103.08183	43.525
107.4465	49.625
111.80798	51.325
116.16626	50.325
120.52136	52.025
124.87327	52.525
129.222	55.025
133.56755	56.725
137.90993	63.525
142.24913	64.625
146.58517	71.425
150.91804	84.825
155.24774	99.125
159.57429	122.125
163.89768	151.925
168.21792	207.325
172.53501	272.125
176.84895	378.825
181.15975	522.425
185.46741	731.425
189.77193	1023.925
194.07331	1372.725
198.37157	1787.625
202.6667	2210.425
206.9587	2644.425
211.24758	3082.825
215.53334	3506.925
219.81599	3952.725
224.09553	4442.125
228.37195	4981.725
232.64527	5575.625
236.91549	6238.725
241.18261	6926.825
245.44663	7589.725
249.70755	8174.225
253.96539	8657.225
258.22014	8984.125
262.4718	9171.125
266.72039	9214.525
270.96589	9116.325
275.20832	8918.425
279.44768	8704.325
283.68397	8419.425
287.91719	8172.325
292.14735	7935.125
296.37445	7767.325
300.59849	7649.525
304.81948	7558.725
309.03742	7479.325
313.25231	7399.125
317.46415	7358.125
321.67296	7277.725
325.87872	7205.825
330.08145	7167.825
334.28114	7168.225
338.47781	7193.525
342.67145	7234.525
346.86207	7261.225
351.04966	7358.125
355.23424	7443.025
359.4158	7521.025
363.59435	7606.725
367.76989	7667.525
371.94243	7734.425
376.11196	7768.025
380.27849	7833.425
384.44203	7896.625
388.60257	7989.625
392.76012	8063.825
396.91468	8191.225
401.06626	8362.425
405.21485	8461.825
409.36047	8533.525
413.50311	8527.125
417.64277	8459.425
421.77947	8437.125
425.9132	8403.425
430.04396	8424.325
434.17176	8430.125
438.2966	8453.325
442.41849	8456.825
446.53742	8517.725
450.6534	8566.425
454.76644	8650.625
458.87653	8674.125
462.98368	8697.425
467.08789	8688.525
471.18916	8716.925
475.2875	8750.425
479.38291	8795.025
483.4754	8841.525
487.56496	8926.525
491.6516	8983.225
495.73531	9030.325
499.81612	9078.125
503.89401	9179.125
507.96899	9220.325
512.04106	9179.125
516.11023	9155.125
520.1765	9066.925
524.23987	8993.325
528.30034	8905.125
532.35792	8837.225
536.41261	8792.425
540.46441	8776.725
544.51333	8735.125
548.55936	8743.025
552.60252	8794.325
556.64279	8836.925
560.6802	8911.825
564.71473	8937.425
568.7464	8944.125
572.7752	9006.225
576.80114	9000.225
580.82422	9017.425
584.84444	9086.925
588.86181	9113.325
592.87633	9141.725
596.888	9188.125
600.89682	9275.125
604.9028	9424.525
608.90594	9810.025
612.90624	10260.825
616.90371	10180.625
620.89834	9631.825
624.89015	9369.825
628.87913	9366.325
632.86528	9464.725
636.84862	9587.525
640.82913	9641.025
644.80683	9632.725
648.78172	9559.225
652.75379	9541.425
656.72306	9517.025
660.68952	9564.425
664.65319	9609.525
668.61405	9644.125
672.57211	9681.325
676.52738	9760.125
680.47986	9744.225
684.42955	9697.525
688.37646	9664.325
692.32058	9690.325
696.26192	9704.825
700.20048	9682.725
704.13626	9654.925
708.06928	9571.425
711.99952	9410.025
715.927	9300.525
719.85171	9225.325
723.77365	9188.525
727.69284	9142.225
731.60928	9102.425
735.52295	9099.125
739.43388	9134.725
743.34206	9166.725
747.24749	9226.725
751.15017	9282.925
755.05012	9365.425
758.94733	9436.425
762.8418	9548.425
766.73354	9739.325
770.62254	9900.125
774.50882	10005.325
778.39237	9892.125
782.27321	9673.925
786.15132	9434.525
790.02671	9267.225
793.89938	9182.425
797.76935	9187.425
801.6366	9227.225
805.50115	9268.925
809.36299	9344.225
813.22213	9381.625
817.07857	9300.125
820.93231	9237.425
824.78336	9107.725
828.63172	9002.725
832.47738	8966.425
836.32036	8919.325
840.16066	8915.625
843.99827	8902.625
847.8332	8924.325
851.66546	8917.525
855.49504	8933.925
859.32195	8924.225
863.1462	8925.325
866.96777	8939.125
870.78668	8954.825
874.60293	8995.725
878.41652	9019.825
882.22745	9064.025
886.03573	9090.025
889.84136	9104.825
893.64433	9106.525
897.44466	9082.625
901.24235	9094.925
905.0374	9058.825
908.8298	9005.325
912.61957	9001.325
916.40671	8981.225
920.19121	9009.725
923.97308	8986.525
927.75233	8950.325
931.52895	8900.625
935.30295	8883.225
939.07433	8832.225
942.84309	8782.525
946.60924	8738.325
950.37278	8742.225
954.13371	8728.625
957.89203	8743.925
961.64774	8721.125
965.40086	8725.525
969.15137	8710.925
972.89929	8698.825
976.64461	8675.825
980.38733	8664.625
984.12747	8666.925
987.86502	8671.125
991.59999	8681.425
995.33237	8705.425
999.06217	8731.925
1002.78939	8766.625
1006.51404	8797.225
1010.23611	8848.725
1013.95561	8872.425
1017.67255	8880.125
1021.38692	8893.725
1025.09872	8881.325
1028.80796	8873.025
1032.51465	8835.125
1036.21877	8844.225
1039.92035	8841.125
1043.61937	8871.925
1047.31584	8883.625
1051.00976	8876.225
1054.70114	8906.825
1058.38998	8919.225
1062.07627	8936.225
1065.76003	8957.025
1069.44126	8991.825
1073.11995	8997.025
1076.79611	9045.525
1080.46974	9055.625
1084.14085	9045.625
1087.80943	9048.225
1091.47549	9014.825
1095.13903	9027.625
1098.80005	9016.825
1102.45857	8990.125
1106.11456	8961.125
1109.76805	8951.325
1113.41903	8978.225
1117.06751	9057.325
1120.71348	9124.225
1124.35696	9299.325
1127.99793	9431.725
1131.63641	9582.625
1135.2724	9657.925
1138.90589	9634.425
1142.5369	9618.125
1146.16542	9573.225
1149.79145	9454.625
1153.415	9310.625
1157.03607	9203.325
1160.65467	9117.825
1164.27079	9106.025
1167.88443	9126.425
1171.49561	9207.525
1175.10432	9335.925
1178.71056	9545.625
1182.31434	9721.525
1185.91565	9844.625
1189.51451	9887.525
1193.11091	9892.325
1196.70485	9845.025
1200.29634	9787.225
1203.88538	9752.225
1207.47197	9708.125
1211.05612	9693.925
1214.63782	9673.025
1218.21708	9648.725
1221.79391	9617.425
1225.36829	9548.325
1228.94024	9502.225
1232.50976	9471.525
1236.07685	9410.025
1239.6415	9368.525
1243.20374	9351.125
1246.76355	9375.425
1250.32093	9393.925
1253.8759	9421.025
1257.42845	9506.225
1260.97859	9574.425
1264.52631	9621.925
1268.07163	9646.225
1271.61453	9689.725
1275.15503	9682.825
1278.69312	9689.725
1282.22882	9679.925
1285.76211	9700.925
1289.29301	9750.625
1292.82151	9833.325
1296.34761	9943.925
1299.87133	10125.825
1303.39266	10265.925
1306.9116	10467.325
1310.42815	10664.025
1313.94233	10809.825
1317.45412	10836.725
1320.96354	10813.425
1324.47058	10757.525
1327.97525	10725.125
1331.47754	10638.425
1334.97747	10629.125
1338.47502	10690.725
1341.97022	10771.825
1345.46305	10909.625
1348.95352	11075.425
1352.44163	11208.725
1355.92738	11281.325
1359.41078	11445.425
1362.89183	11623.225
1366.37053	11548.625
1369.84688	11150.725
1373.32088	10680.925
1376.79254	10363.025
1380.26186	10184.225
1383.72883	10030.325
1387.19347	9980.225
1390.65578	9862.525
1394.11575	9795.025
1397.57339	9711.525
1401.0287	9641.625
1404.48168	9543.925
1407.93234	9484.325
1411.38068	9424.425
1414.82669	9334.025
1418.27039	9202.125
1421.71177	9098.425
1425.15083	9002.525
1428.58758	8928.425
1432.02203	8851.325
1435.45416	8811.625
1438.88399	8806.225
1442.31151	8782.725
1445.73673	8791.225
1449.15965	8804.225
1452.58027	8804.625
1455.9986	8814.625
1459.41463	8852.725
1462.82837	8895.525
1466.23982	8949.625
1469.64898	9047.625
1473.05586	9111.625
1476.46045	9143.525
1479.86276	9187.925
1483.26279	9197.425
1486.66054	9244.825
1490.05602	9250.225
1493.44922	9377.425
1496.84016	9493.225
1500.22882	9682.625
1503.61521	9957.425
1506.99934	10204.825
1510.38121	10385.825
1513.76081	10403.225
1517.13816	10279.125
1520.51324	10057.225
1523.88607	9856.525
1527.25665	9748.025
1530.62498	9703.725
1533.99105	9671.125
1537.35488	9688.925
1540.71647	9704.025
1544.07581	9754.825
1547.4329	9784.425
1550.78776	9808.125
1554.14038	9858.625
1557.49077	9904.125
1560.83892	9982.625
1564.18484	10005.925
1567.52853	10067.925
1570.86999	10129.325
1574.20922	10192.425
1577.54624	10221.325
1580.88103	10158.825
1584.2136	10081.725
1587.54395	10031.425
1590.87208	10031.925
1594.19801	10046.025
1597.52172	10108.525
1600.84321	10146.425
1604.16251	10050.025
1607.47959	9940.425
1610.79447	9776.325
1614.10715	9602.125
1617.41763	9441.925
1620.7259	9314.725
1624.03199	9204.225
1627.33587	9142.425
1630.63757	9155.525
1633.93707	9212.025
1637.23439	9310.625
1640.52951	9495.625
1643.82246	9705.725
1647.11321	9972.525
1650.40179	10124.025
1653.68819	10059.625
1656.97241	9788.425
1660.25446	9436.725
1663.53433	9152.925
1666.81203	8928.525
1670.08756	8755.025
1673.36092	8652.725
1676.63211	8539.825
1679.90115	8454.625
1683.16801	8340.525
1686.43272	8218.325
1689.69527	8136.425
1692.95567	8046.625
1696.2139	7972.425
1699.46999	7929.625
1702.72392	7866.025
1705.97571	7821.825
1709.22535	7793.425
1712.47284	7766.925
1715.71819	7729.225
1718.96139	7685.225
1722.20246	7646.925
1725.44139	7591.925
1728.67818	7537.925
1731.91284	7473.725
1735.14537	7394.325
1738.37576	7356.225
1741.60403	7316.725
1744.83017	7270.225
1748.05418	7218.625
1751.27607	7199.125
1754.49584	7165.825
1757.71349	7173.725
1760.92903	7166.125
1764.14244	7137.725
1767.35375	7097.025
1770.56294	7102.625
1773.77002	7055.525
1776.97499	7037.625
1780.17785	7012.125
1783.37861	6996.825
1786.57727	6992.325
1789.77382	6943.225
1792.96828	6931.725
1796.16064	6914.725
1799.3509	6878.825
1802.53907	6861.625
1805.72514	6819.325
1808.90913	6815.625
1812.09102	6813.325
1815.27083	6789.025
1818.44856	6773.225
1821.6242	6753.825
1824.79776	6722.225
1827.96924	6746.625
1831.13864	6699.025
1834.30597	6703.425
1837.47122	6706.125
1840.6344	6674.025
1843.7955	6677.225
1846.95454	6659.725
1850.11151	6660.225
1853.26642	6652.325
1856.41926	6624.925
1859.57004	6626.625
1862.71876	6626.925
1865.86542	6615.025
1869.01003	6612.525
1872.15258	6587.125
1875.29308	6580.225
1878.43152	6554.425
1881.56792	6547.625
1884.70227	6535.725
1887.83457	6516.625
1890.96482	6517.525
1894.09304	6518.425
1897.21921	6513.225
1900.34335	6487.725
1903.46544	6458.925
1906.58551	6466.725
1909.70353	6454.825
1912.81953	6434.825
1915.93349	6430.225
1919.04543	6414.425
1922.15534	6389.325
1925.26322	6387.625
1928.36908	6378.525
1931.47292	6353.125
1934.57473	6334.225
1937.67453	6301.425
1940.77232	6303.625
1943.86808	6290.525
1946.96184	6255.625
1950.05358	6248.225
1953.14331	6219.225
1956.23103	6201.925
1959.31675	6191.525
1962.40046	6166.725
1965.48217	6144.525
1968.56188	6125.925
1971.63959	6097.825
1974.7153	6094.825
1977.78901	6076.625
1980.86073	6055.725
1983.93046	6025.425
1986.99819	5998.325
1990.06394	5982.125
1993.1277	5969.225
1996.18947	5951.925
1999.24925	5928.425
2002.30706	5914.325
2005.36288	5892.925
2008.41672	5878.825
2011.46859	5862.125
2014.51848	5831.325
2017.56639	5814.125
2020.61233	5782.525
2023.6563	5790.025
2026.6983	5758.225
2029.73833	5748.025
2032.7764	5732.725
2035.8125	5721.025
2038.84664	5694.625
2041.87881	5700.725
2044.90903	5662.325
2047.93729	5669.025
2050.96359	5663.225
2053.98794	5640.625
2057.01034	5640.425
2060.03078	5620.325
2063.04927	5621.025
2066.06582	5620.425
2069.08042	5618.725
2072.09307	5597.225
2075.10378	5607.025
2078.11255	5610.525
2081.11938	5586.325
2084.12426	5575.625
2087.12722	5572.825
2090.12824	5590.725
2093.12732	5576.725
2096.12447	5584.725
2099.11969	5576.525
2102.11299	5580.625
2105.10435	5586.425
2108.09379	5559.225
2111.08131	5575.425
2114.0669	5567.225
2117.05057	5570.125
2120.03233	5580.925
2123.01216	5583.625
2125.99008	5578.425
2128.96609	5572.325
2131.94018	5584.425
2134.91236	5568.025
2137.88263	5586.925
2140.851	5575.325
2143.81746	5570.025
2146.78201	5585.725
2149.74466	5582.325
2152.7054	5585.225
2155.66425	5567.525
2158.6212	5580.025
2161.57625	5568.925
2164.52941	5563.425
2167.48067	5565.625
2170.43004	5534.525
2173.37752	5550.425
2176.32311	5543.825
2179.26681	5554.425
2182.20863	5538.925
2185.14856	5535.625
2188.08661	5523.125
2191.02278	5538.425
2193.95707	5510.125
2196.88948	5515.425
2199.82001	5499.125
2202.74867	5488.825
2205.67545	5480.325
2208.60037	5492.025
2211.52341	5462.625
2214.44458	5462.825
2217.36388	5439.125
2220.28132	5440.725
2223.1969	5407.725
2226.11061	5388.525
2229.02246	5382.725
2231.93245	5370.925
2234.84058	5365.425
2237.74686	5341.425
2240.65128	5341.025
2243.55385	5341.725
2246.45456	5316.025
2249.35343	5304.225
2252.25044	5285.025
2255.14561	5289.025
2258.03893	5287.025
2260.93041	5272.425
2263.82004	5269.325
2266.70783	5251.625
2269.59378	5228.725
2272.4779	5222.825
2275.36017	5209.625
2278.24061	5192.525
2281.11922	5176.925
2283.996	5173.225
2286.87094	5173.025
2289.74405	5145.525
2292.61534	5128.025
2295.4848	5138.025
2298.35243	5121.725
2301.21824	5098.925
2304.08223	5107.325
2306.94439	5087.825
2309.80474	5093.925
2312.66327	5084.925
2315.51999	5067.325
2318.37489	5057.125
2321.22797	5062.325
2324.07925	5041.725
2326.92871	5040.225
2329.77637	5023.525
2332.62222	5022.125
2335.46626	4997.125
2338.3085	5009.825
2341.14893	4988.025
2343.98756	4977.725
2346.8244	4972.125
2349.65943	4965.825
2352.49267	4954.425
2355.32411	4977.025
2358.15376	4954.225
2360.98161	4935.825
2363.80768	4906.725
2366.63195	4922.325
2369.45444	4923.025
2372.27514	4912.825
2375.09405	4908.825
2377.91118	4895.625
2380.72652	4874.525
2383.54009	4872.025
2386.35187	4857.625
2389.16188	4854.025
2391.97011	4840.225
2394.77657	4830.225
2397.58125	4800.525
2400.38416	4812.425
2403.18529	4791.425
2405.98466	4805.025
2408.78226	4769.925
2411.57809	4764.825
2414.37216	4742.325
2417.16446	4733.925
2419.955	4739.125
2422.74378	4737.025
2425.5308	4716.325
2428.31606	4723.225
2431.09956	4716.425
2433.88131	4693.425
2436.6613	4688.825
2439.43954	4695.425
2442.21603	4685.225
2444.99077	4685.325
2447.76377	4679.225
2450.53501	4681.825
2453.30451	4672.125
2456.07226	4678.125
2458.83827	4660.725
2461.60254	4650.225
2464.36507	4641.525
2467.12586	4619.925
2469.88492	4607.225
2472.64224	4609.625
2475.39782	4607.625
2478.15167	4608.125
2480.90379	4586.625
2483.65417	4601.525
2486.40283	4590.725
2489.14976	4579.125
2491.89497	4575.925
2494.63845	4563.325
2497.3802	4565.525
2500.12024	4553.625
2502.85855	4551.725
2505.59514	4537.625
2508.33002	4513.825
2511.06318	4534.125
2513.79462	4521.825
2516.52435	4515.125
2519.25237	4501.425
2521.97867	4492.025
2524.70327	4488.225
2527.42616	4485.125
2530.14734	4476.225
2532.86681	4442.825
2535.58458	4442.825
2538.30065	4449.225
2541.01501	4429.225
2543.72768	4436.425
2546.43864	4405.725
2549.14791	4410.125
2551.85548	4401.925
2554.56136	4387.625
2557.26554	4384.525
2559.96803	4365.825
2562.66883	4365.525
2565.36794	4348.625
2568.06536	4327.825
2570.7611	4345.025
2573.45514	4318.225
2576.14751	4311.225
2578.83819	4304.025
2581.52719	4303.825
2584.21451	4285.825
2586.90015	4284.825
2589.58411	4269.425
2592.2664	4258.025
2594.94701	4257.425
2597.62594	4239.625
2600.30321	4226.125
2602.9788	4216.525
2605.65273	4217.825
2608.32498	4202.725
2610.99557	4195.725
2613.66449	4185.625
2616.33175	4180.425
2618.99734	4175.925
2621.66128	4171.825
2624.32355	4156.125
2626.98416	4149.625
2629.64311	4143.925
2632.30041	4136.225
2634.95605	4126.225
2637.61004	4119.425
2640.26238	4128.425
2642.91306	4110.325
2645.56209	4115.125
2648.20948	4098.425
2650.85521	4090.925
2653.4993	4077.325
2656.14175	4089.225
2658.78255	4085.025
2661.42171	4071.725
2664.05923	4075.125
2666.6951	4053.425
2669.32934	4049.825
2671.96194	4050.325
2674.59291	4060.125
2677.22224	4056.925
2679.84993	4070.425
2682.476	4049.925
2685.10043	4052.425
2687.72324	4051.125
2690.34441	4062.325
2692.96396	4047.225
2695.58188	4057.825
2698.19818	4049.325
2700.81285	4062.025
2703.4259	4045.125
2706.03733	4079.325
2708.64714	4061.725
2711.25533	4046.125
2713.86191	4040.225
2716.46687	4051.925
2719.07021	4040.125
2721.67194	4026.025
2724.27206	4032.625
2726.87057	4034.725
2729.46747	4016.725
2732.06276	4015.625
2734.65644	4016.725
2737.24852	4005.125
2739.83899	3983.725
2742.42786	3999.025
2745.01513	3988.325
2747.60079	3978.825
2750.18486	3984.625
2752.76733	3959.625
2755.3482	3965.825
2757.92747	3955.125
2760.50515	3945.325
2763.08123	3957.225
2765.65573	3932.825
2768.22863	3924.625
2770.79994	3895.025
2773.36967	3908.325
2775.9378	3903.025
2778.50435	3883.725
2781.06932	3889.325
2783.6327	3877.625
2786.1945	3869.625
2788.75471	3879.725
2791.31335	3847.525
2793.87041	3838.925
2796.42589	3837.625
2798.97979	3821.825
2801.53212	3813.625
2804.08288	3817.825
2806.63206	3806.525
2809.17967	3784.225
2811.72571	3781.125
2814.27018	3774.925
2816.81308	3762.225
2819.35442	3749.325
2821.89419	3736.725
2824.43239	3734.725
2826.96904	3742.625
2829.50412	3724.325
2832.03763	3730.525
2834.56959	3729.325
2837.1	3720.825
2839.62884	3704.625
2842.15613	3705.325
2844.68186	3702.625
2847.20604	3702.825
2849.72867	3707.925
2852.24974	3712.825
2854.76927	3694.625
2857.28724	3692.925
2859.80367	3687.125
2862.31855	3671.425
2864.83189	3668.525
2867.34368	3668.925
2869.85393	3656.125
2872.36264	3642.825
2874.8698	3665.725
2877.37543	3653.825
2879.87952	3651.325
2882.38207	3654.725
2884.88308	3653.325
2887.38256	3639.525
2889.88051	3644.825
2892.37692	3646.625
2894.8718	3634.025
2897.36515	3633.025
2899.85698	3627.525
2902.34727	3640.425
2904.83604	3631.425
2907.32328	3645.725
2909.809	3638.725
2912.29319	3630.625
2914.77587	3625.325
2917.25702	3630.625
2919.73665	3612.525
2922.21476	3625.325
2924.69136	3620.225
2927.16644	3621.525
2929.64	3609.625
2932.11205	3610.525
2934.58258	3612.725
2937.05161	3616.825
2939.51912	3606.725
2941.98513	3601.425
2944.44962	3586.725
2946.91261	3578.925
2949.37409	3588.225
2951.83407	3584.725
2954.29254	3579.525
2956.74951	3571.325
2959.20498	3581.225
2961.65895	3568.925
2964.11142	3569.225
2966.56239	3563.825
2969.01186	3566.325
2971.45984	3550.025
2973.90632	3535.325
2976.35131	3542.425
2978.7948	3546.925
2981.23681	3540.525
2983.67732	3523.125
2986.11635	3511.825
2988.55388	3514.125
2990.98993	3500.925
2993.4245	3483.225
2995.85758	3488.425
2998.28917	3486.325
3000.71928	3480.625
3003.14791	3472.425
3005.57506	3463.725
3008.00073	3455.325
3010.42493	3453.325
3012.84764	3469.925
3015.26888	3446.925
3017.68865	3439.225
3020.10694	3443.225
3022.52376	3439.625
3024.9391	3438.525
3027.35298	3415.325
3029.76539	3433.425
3032.17632	3423.725
3034.5858	3397.525
3036.9938	3404.825
3039.40034	3407.025
3041.80542	3402.925
3044.20903	3401.125
3046.61118	3398.225
3049.01187	3399.225
3051.4111	3386.825
3053.80888	3382.325
3056.20519	3384.625
3058.60005	3370.125
3060.99345	3365.925
3063.3854	3363.425
3065.7759	3360.825
3068.16494	3361.225
3070.55254	3348.225
3072.93868	3357.425
3075.32338	3336.925
3077.70662	3347.125
3080.08842	3344.825
3082.46878	3340.725
3084.84769	3328.525
3087.22515	3339.825
3089.60118	3339.925
3091.97576	3335.925
3094.3489	3350.125
3096.72061	3348.725
3099.09087	3352.625
3101.4597	3349.025
3103.82709	3345.525
3106.19305	3347.225
3108.55757	3338.825
3110.92066	3334.525
3113.28232	3326.625
3115.64255	3316.425
3118.00134	3317.025
3120.35871	3330.525
3122.71466	3326.025
3125.06917	3320.725
3127.42226	3314.125
3129.77393	3310.225
3132.12417	3325.425
3134.47299	3316.825
3136.82039	3333.025
3139.16636	3347.425
3141.51092	3340.225
3143.85406	3344.225
3146.19579	3354.225
3148.53609	3360.525
3150.87499	3357.625
3153.21246	3360.925
3155.54853	3375.825
3157.88318	3371.225
3160.21642	3375.425
3162.54826	3384.025
3164.87868	3383.025
3167.2077	3375.025
3169.5353	3375.625
3171.86151	3388.125
3174.18631	3379.125
3176.5097	3377.425
3178.83169	3386.125
3181.15228	3388.525
3183.47147	3370.725
3185.78926	3377.125
3188.10565	3379.625
3190.42065	3387.125
3192.73424	3384.225
3195.04645	3383.425
3197.35725	3374.125
3199.66667	3374.225
3201.97469	3397.125
3204.28132	3408.125
3206.58656	3406.425
3208.8904	3395.725
3211.19287	3404.225
3213.49394	3415.625
3215.79363	3402.825
3218.09193	3407.225
3220.38884	3422.625
3222.68438	3419.325
3224.97853	3409.425
3227.2713	3421.725
3229.56269	3403.225
3231.8527	3403.525
