Data from AgNPs_FTO_APTES_UA_0.1mM_CRN_50uM_NaF_0.1M_Addition_RamanShift__30__13-11-37-661.txt Node

Date: Mon Dec 20 13:11:37 GMT 2021
User: TCL
Spectrometer: QEP01345
Trigger mode: 4
Integration Time (sec): 7.000000E0
Scans to average: 10
Electric dark correction enabled: true
Nonlinearity correction enabled: false
Boxcar width: 0
XAxis mode: Raman Shifts
Number of Pixels in Spectrum: 1044
>>>>>Begin Spectral Data<<<<<
46.04893	0.375
50.45542	-0.225
54.85868	-0.725
59.25871	0.775
63.6555	26.475
68.04907	30.075
72.43941	30.975
76.82654	30.975
81.21044	33.375
85.59113	37.975
89.96862	36.875
94.34289	38.875
98.71396	40.975
103.08183	35.175
107.4465	41.775
111.80798	45.075
116.16626	43.375
120.52136	45.875
124.87327	47.075
129.222	47.675
133.56755	47.675
137.90993	53.075
142.24913	54.075
146.58517	59.475
150.91804	69.675
155.24774	81.275
159.57429	91.675
163.89768	125.875
168.21792	157.875
172.53501	204.175
176.84895	280.475
181.15975	390.875
185.46741	539.075
189.77193	740.975
194.07331	985.275
198.37157	1270.075
202.6667	1581.275
206.9587	1893.475
211.24758	2195.375
215.53334	2495.475
219.81599	2829.075
224.09553	3184.775
228.37195	3574.475
232.64527	3994.875
236.91549	4427.075
241.18261	4788.075
245.44663	5106.375
249.70755	5363.875
253.96539	5572.775
258.22014	5714.775
262.4718	5826.775
266.72039	5868.175
270.96589	5847.175
275.20832	5764.875
279.44768	5653.975
283.68397	5512.875
287.91719	5447.775
292.14735	5449.275
296.37445	5563.975
300.59849	5805.875
304.81948	6094.075
309.03742	6290.275
313.25231	6318.875
317.46415	6002.375
321.67296	5495.775
325.87872	5054.675
330.08145	4820.075
334.28114	4763.275
338.47781	4826.775
342.67145	4970.275
346.86207	5172.575
351.04966	5518.075
355.23424	5923.575
359.4158	6249.975
363.59435	6399.275
367.76989	6460.275
371.94243	6474.575
376.11196	6469.075
380.27849	6457.075
384.44203	6392.575
388.60257	6305.075
392.76012	6255.175
396.91468	6274.975
401.06626	6414.775
405.21485	6490.775
409.36047	6324.975
413.50311	5926.175
417.64277	5500.375
421.77947	5272.875
425.9132	5143.775
430.04396	5088.575
434.17176	5085.875
438.2966	5159.275
442.41849	5258.275
446.53742	5409.375
450.6534	5529.775
454.76644	5600.775
458.87653	5596.575
462.98368	5529.075
467.08789	5458.275
471.18916	5396.175
475.2875	5320.875
479.38291	5288.575
483.4754	5312.575
487.56496	5432.875
491.6516	5565.775
495.73531	5638.175
499.81612	5574.675
503.89401	5491.475
507.96899	5479.975
512.04106	5579.375
516.11023	5744.575
520.1765	5934.275
524.23987	6068.575
528.30034	6058.675
532.35792	5952.975
536.41261	5730.675
540.46441	5453.475
544.51333	5265.875
548.55936	5161.175
552.60252	5166.575
556.64279	5232.275
560.6802	5298.575
564.71473	5377.875
568.7464	5635.275
572.7752	5778.175
576.80114	5569.675
580.82422	5350.175
584.84444	5302.175
588.86181	5386.575
592.87633	5451.375
596.888	5489.675
600.89682	5638.275
604.9028	6291.275
608.90594	8129.075
612.90624	10870.275
616.90371	11075.375
620.89834	8421.675
624.89015	7384.075
628.87913	7725.475
632.86528	8318.075
636.84862	8654.875
640.82913	8311.475
644.80683	7511.475
648.78172	6682.575
652.75379	6154.675
656.72306	5976.975
660.68952	6016.075
664.65319	5838.475
668.61405	5443.075
672.57211	5230.575
676.52738	5212.775
680.47986	5212.975
684.42955	5165.675
688.37646	5142.675
692.32058	5133.575
696.26192	5147.475
700.20048	5159.675
704.13626	5156.775
708.06928	5102.475
711.99952	5070.275
715.927	5065.475
719.85171	5163.275
723.77365	5259.375
727.69284	5249.075
731.60928	5134.275
735.52295	5041.275
739.43388	4982.275
743.34206	4999.175
747.24749	5024.475
751.15017	5047.075
755.05012	5111.175
758.94733	5354.775
762.8418	5932.575
766.73354	6930.075
770.62254	7960.675
774.50882	8568.975
778.39237	8333.775
782.27321	7278.975
786.15132	6150.275
790.02671	5503.575
793.89938	5268.475
797.76935	5249.175
801.6366	5438.475
805.50115	5858.175
809.36299	6314.675
813.22213	6476.875
817.07857	6276.475
820.93231	5859.675
824.78336	5429.975
828.63172	5128.575
832.47738	4978.775
836.32036	4874.475
840.16066	4802.575
843.99827	4751.675
847.8332	4739.175
851.66546	4720.375
855.49504	4734.075
859.32195	4759.375
863.1462	4802.275
866.96777	4909.775
870.78668	5078.275
874.60293	5350.575
878.41652	5680.375
882.22745	6003.875
886.03573	6187.975
889.84136	6149.075
893.64433	5869.675
897.44466	5515.275
901.24235	5174.375
905.0374	4914.375
908.8298	4718.575
912.61957	4600.275
916.40671	4535.875
920.19121	4532.775
923.97308	4535.975
927.75233	4562.375
931.52895	4633.175
935.30295	4610.675
939.07433	4486.275
942.84309	4358.175
946.60924	4285.975
950.37278	4254.275
954.13371	4252.875
957.89203	4232.675
961.64774	4219.075
965.40086	4212.375
969.15137	4187.475
972.89929	4169.675
976.64461	4170.475
980.38733	4184.075
984.12747	4195.875
987.86502	4225.575
991.59999	4286.975
995.33237	4365.675
999.06217	4519.275
1002.78939	4707.075
1006.51404	4933.575
1010.23611	5144.175
1013.95561	5314.275
1017.67255	5320.675
1021.38692	5233.475
1025.09872	5057.675
1028.80796	4825.775
1032.51465	4674.575
1036.21877	4563.575
1039.92035	4516.575
1043.61937	4512.075
1047.31584	4511.675
1051.00976	4521.975
1054.70114	4550.975
1058.38998	4586.675
1062.07627	4708.675
1065.76003	4798.275
1069.44126	4844.375
1073.11995	4900.775
1076.79611	4909.675
1080.46974	4930.975
1084.14085	4997.775
1087.80943	5028.375
1091.47549	5021.275
1095.13903	4892.075
1098.80005	4714.275
1102.45857	4607.675
1106.11456	4594.475
1109.76805	4697.775
1113.41903	4923.975
1117.06751	5271.375
1120.71348	5769.675
1124.35696	6435.175
1127.99793	7164.875
1131.63641	7615.075
1135.2724	7690.475
1138.90589	7512.275
1142.5369	7139.375
1146.16542	6591.375
1149.79145	6018.075
1153.415	5539.775
1157.03607	5172.675
1160.65467	5026.075
1164.27079	5013.075
1167.88443	5164.275
1171.49561	5511.275
1175.10432	6121.275
1178.71056	7024.675
1182.31434	7824.375
1185.91565	8151.975
1189.51451	8095.975
1193.11091	7950.375
1196.70485	7870.575
1200.29634	7924.075
1203.88538	7879.875
1207.47197	7482.575
1211.05612	6919.375
1214.63782	6358.175
1218.21708	5882.575
1221.79391	5530.475
1225.36829	5259.175
1228.94024	5091.975
1232.50976	4998.175
1236.07685	4951.175
1239.6415	4954.875
1243.20374	5007.975
1246.76355	5046.975
1250.32093	5091.275
1253.8759	5168.475
1257.42845	5241.875
1260.97859	5404.375
1264.52631	5529.575
1268.07163	5625.275
1271.61453	5732.675
1275.15503	5754.475
1278.69312	5714.575
1282.22882	5666.375
1285.76211	5758.975
1289.29301	5985.775
1292.82151	6180.775
1296.34761	6439.675
1299.87133	6844.475
1303.39266	7535.575
1306.9116	8574.975
1310.42815	9665.475
1313.94233	10095.875
1317.45412	9635.275
1320.96354	8835.075
1324.47058	8048.975
1327.97525	7463.375
1331.47754	7159.175
1334.97747	7108.175
1338.47502	7254.075
1341.97022	7600.375
1345.46305	8140.075
1348.95352	8862.575
1352.44163	9720.275
1355.92738	10899.675
1359.41078	12586.375
1362.89183	13916.075
1366.37053	13263.675
1369.84688	11190.375
1373.32088	9319.175
1376.79254	8122.075
1380.26186	7429.775
1383.72883	7011.175
1387.19347	6696.575
1390.65578	6385.175
1394.11575	6144.075
1397.57339	6005.475
1401.0287	5902.075
1404.48168	5837.175
1407.93234	5744.975
1411.38068	5649.275
1414.82669	5524.475
1418.27039	5391.675
1421.71177	5255.175
1425.15083	5109.175
1428.58758	5044.175
1432.02203	5035.875
1435.45416	5053.375
1438.88399	5031.175
1442.31151	5011.275
1445.73673	5031.675
1449.15965	5070.775
1452.58027	5045.375
1455.9986	5002.775
1459.41463	4992.975
1462.82837	5037.675
1466.23982	5110.875
1469.64898	5230.575
1473.05586	5287.375
1476.46045	5343.075
1479.86276	5424.375
1483.26279	5586.075
1486.66054	5800.175
1490.05602	6085.675
1493.44922	6494.075
1496.84016	7124.275
1500.22882	8054.975
1503.61521	9350.875
1506.99934	10773.275
1510.38121	11855.375
1513.76081	11960.175
1517.13816	10915.875
1520.51324	9255.275
1523.88607	7804.075
1527.25665	6914.975
1530.62498	6481.975
1533.99105	6303.375
1537.35488	6212.775
1540.71647	6229.675
1544.07581	6330.475
1547.4329	6436.575
1550.78776	6483.275
1554.14038	6547.075
1557.49077	6588.575
1560.83892	6652.675
1564.18484	6801.075
1567.52853	7000.575
1570.86999	7249.475
1574.20922	7385.975
1577.54624	7338.375
1580.88103	6970.675
1584.2136	6449.175
1587.54395	6160.375
1590.87208	6155.675
1594.19801	6371.075
1597.52172	6703.375
1600.84321	6923.375
1604.16251	6819.275
1607.47959	6604.975
1610.79447	6327.175
1614.10715	6047.275
1617.41763	5823.175
1620.7259	5683.275
1624.03199	5630.775
1627.33587	5646.075
1630.63757	5722.275
1633.93707	5911.575
1637.23439	6236.475
1640.52951	6801.375
1643.82246	7615.475
1647.11321	8637.575
1650.40179	9408.175
1653.68819	9282.875
1656.97241	8266.475
1660.25446	7128.975
1663.53433	6283.575
1666.81203	5702.175
1670.08756	5319.975
1673.36092	5073.475
1676.63211	4882.875
1679.90115	4736.975
1683.16801	4609.875
1686.43272	4486.975
1689.69527	4409.575
1692.95567	4305.275
1696.2139	4217.375
1699.46999	4164.675
1702.72392	4074.175
1705.97571	3983.975
1709.22535	3904.275
1712.47284	3845.775
1715.71819	3806.775
1718.96139	3760.375
1722.20246	3732.475
1725.44139	3672.575
1728.67818	3626.175
1731.91284	3574.575
1735.14537	3539.875
1738.37576	3519.475
1741.60403	3488.075
1744.83017	3461.275
1748.05418	3438.575
1751.27607	3436.175
1754.49584	3405.975
1757.71349	3412.475
1760.92903	3381.175
1764.14244	3351.175
1767.35375	3346.575
1770.56294	3320.275
1773.77002	3304.275
1776.97499	3283.975
1780.17785	3252.875
1783.37861	3243.975
1786.57727	3225.575
1789.77382	3206.375
1792.96828	3194.875
1796.16064	3199.775
1799.3509	3170.575
1802.53907	3176.975
1805.72514	3155.275
1808.90913	3132.875
1812.09102	3138.775
1815.27083	3123.275
1818.44856	3096.875
1821.6242	3090.675
1824.79776	3085.275
1827.96924	3086.875
1831.13864	3073.075
1834.30597	3073.775
1837.47122	3050.875
1840.6344	3049.175
1843.7955	3042.375
1846.95454	3052.775
1850.11151	3047.275
1853.26642	3040.875
1856.41926	3052.875
1859.57004	3041.475
1862.71876	3032.675
1865.86542	3022.575
1869.01003	3031.675
1872.15258	3009.975
1875.29308	3006.575
1878.43152	3000.775
1881.56792	2996.075
1884.70227	2994.875
1887.83457	2993.775
1890.96482	2976.975
1894.09304	2969.675
1897.21921	2962.575
1900.34335	2980.175
1903.46544	2970.275
1906.58551	2982.575
1909.70353	2964.775
1912.81953	2961.775
1915.93349	2949.775
1919.04543	2941.875
1922.15534	2942.575
1925.26322	2937.575
1928.36908	2905.975
1931.47292	2918.575
1934.57473	2903.375
1937.67453	2882.875
1940.77232	2886.175
1943.86808	2872.875
1946.96184	2877.975
1950.05358	2850.175
1953.14331	2845.175
1956.23103	2832.675
1959.31675	2828.375
1962.40046	2827.575
1965.48217	2825.675
1968.56188	2829.775
1971.63959	2809.775
1974.7153	2794.475
1977.78901	2776.575
1980.86073	2779.975
1983.93046	2767.975
1986.99819	2757.575
1990.06394	2726.775
1993.1277	2734.775
1996.18947	2717.775
1999.24925	2713.075
2002.30706	2704.575
2005.36288	2685.275
2008.41672	2690.775
2011.46859	2670.875
2014.51848	2670.175
2017.56639	2663.975
2020.61233	2650.375
2023.6563	2646.075
2026.6983	2636.775
2029.73833	2645.075
2032.7764	2620.975
2035.8125	2618.175
2038.84664	2616.575
2041.87881	2619.875
2044.90903	2604.875
2047.93729	2601.775
2050.96359	2598.975
2053.98794	2599.675
2057.01034	2584.575
2060.03078	2587.675
2063.04927	2573.175
2066.06582	2586.175
2069.08042	2572.075
2072.09307	2583.275
2075.10378	2574.875
2078.11255	2564.975
2081.11938	2564.475
2084.12426	2566.875
2087.12722	2578.975
2090.12824	2559.575
2093.12732	2556.175
2096.12447	2563.875
2099.11969	2565.975
2102.11299	2560.775
2105.10435	2567.475
2108.09379	2542.275
2111.08131	2560.975
2114.0669	2560.975
2117.05057	2566.575
2120.03233	2567.075
2123.01216	2572.775
2125.99008	2580.375
2128.96609	2581.275
2131.94018	2567.175
2134.91236	2581.575
2137.88263	2572.475
2140.851	2570.475
2143.81746	2572.575
2146.78201	2571.275
2149.74466	2559.875
2152.7054	2561.675
2155.66425	2561.775
2158.6212	2560.275
2161.57625	2548.975
2164.52941	2553.875
2167.48067	2549.375
2170.43004	2563.375
2173.37752	2536.975
2176.32311	2545.975
2179.26681	2534.375
2182.20863	2543.875
2185.14856	2532.475
2188.08661	2542.875
2191.02278	2536.975
2193.95707	2527.175
2196.88948	2524.375
2199.82001	2518.775
2202.74867	2511.975
2205.67545	2511.775
2208.60037	2514.875
2211.52341	2498.775
2214.44458	2504.775
2217.36388	2499.675
2220.28132	2490.275
2223.1969	2483.675
2226.11061	2473.975
2229.02246	2464.075
2231.93245	2464.975
2234.84058	2457.175
2237.74686	2445.175
2240.65128	2448.675
2243.55385	2445.475
2246.45456	2434.275
2249.35343	2433.975
2252.25044	2444.475
2255.14561	2426.075
2258.03893	2443.575
2260.93041	2447.175
2263.82004	2426.675
2266.70783	2423.275
2269.59378	2427.275
2272.4779	2415.475
2275.36017	2402.075
2278.24061	2406.075
2281.11922	2393.775
2283.996	2385.675
2286.87094	2389.175
2289.74405	2380.175
2292.61534	2364.975
2295.4848	2358.575
2298.35243	2357.575
2301.21824	2354.375
2304.08223	2359.775
2306.94439	2350.275
2309.80474	2337.775
2312.66327	2347.675
2315.51999	2343.875
2318.37489	2335.575
2321.22797	2340.575
2324.07925	2319.275
2326.92871	2321.075
2329.77637	2330.275
2332.62222	2320.875
2335.46626	2315.275
2338.3085	2310.275
2341.14893	2304.675
2343.98756	2304.375
2346.8244	2314.575
2349.65943	2286.675
2352.49267	2301.775
2355.32411	2312.575
2358.15376	2311.575
2360.98161	2311.075
2363.80768	2305.375
2366.63195	2318.275
2369.45444	2314.475
2372.27514	2310.175
2375.09405	2310.975
2377.91118	2301.375
2380.72652	2318.275
2383.54009	2297.675
2386.35187	2298.975
2389.16188	2279.075
2391.97011	2287.775
2394.77657	2264.575
2397.58125	2263.175
2400.38416	2249.475
2403.18529	2251.675
2405.98466	2245.175
2408.78226	2249.175
2411.57809	2227.475
2414.37216	2212.575
2417.16446	2217.975
2419.955	2214.275
2422.74378	2222.575
2425.5308	2206.275
2428.31606	2205.875
2431.09956	2192.475
2433.88131	2192.575
2436.6613	2196.775
2439.43954	2188.375
2442.21603	2191.475
2444.99077	2184.375
2447.76377	2193.475
2450.53501	2193.875
2453.30451	2206.975
2456.07226	2197.375
2458.83827	2187.275
2461.60254	2183.975
2464.36507	2180.075
2467.12586	2178.875
2469.88492	2176.575
2472.64224	2179.275
2475.39782	2178.875
2478.15167	2173.175
2480.90379	2177.875
2483.65417	2190.475
2486.40283	2167.875
2489.14976	2189.275
2491.89497	2182.175
2494.63845	2193.475
2497.3802	2184.275
2500.12024	2177.475
2502.85855	2176.775
2505.59514	2165.675
2508.33002	2157.375
2511.06318	2154.075
2513.79462	2143.475
2516.52435	2128.275
2519.25237	2125.475
2521.97867	2113.675
2524.70327	2112.875
2527.42616	2104.975
2530.14734	2109.575
2532.86681	2097.775
2535.58458	2101.375
2538.30065	2091.475
2541.01501	2097.375
2543.72768	2093.175
2546.43864	2081.675
2549.14791	2082.375
2551.85548	2077.675
2554.56136	2085.575
2557.26554	2071.575
2559.96803	2071.575
2562.66883	2061.275
2565.36794	2056.875
2568.06536	2058.175
2570.7611	2052.275
2573.45514	2049.075
2576.14751	2050.875
2578.83819	2031.675
2581.52719	2032.975
2584.21451	2023.175
2586.90015	2020.775
2589.58411	2019.375
2592.2664	2006.775
2594.94701	2007.375
2597.62594	2001.575
2600.30321	1999.175
2602.9788	2006.075
2605.65273	2002.675
2608.32498	2001.375
2610.99557	1998.275
2613.66449	1994.575
2616.33175	1988.475
2618.99734	1985.775
2621.66128	1989.575
2624.32355	1978.975
2626.98416	1984.175
2629.64311	1979.875
2632.30041	1980.875
2634.95605	1975.375
2637.61004	1949.475
2640.26238	1960.375
2642.91306	1951.475
2645.56209	1954.575
2648.20948	1954.275
2650.85521	1945.175
2653.4993	1947.175
2656.14175	1948.975
2658.78255	1955.075
2661.42171	1952.375
2664.05923	1952.575
2666.6951	1944.975
2669.32934	1957.175
2671.96194	1948.875
2674.59291	1953.475
2677.22224	1947.275
2679.84993	1954.475
2682.476	1950.475
2685.10043	1956.775
2687.72324	1961.875
2690.34441	1956.575
2692.96396	1951.975
2695.58188	1964.175
2698.19818	1956.975
2700.81285	1965.875
2703.4259	1963.775
2706.03733	1995.375
2708.64714	1980.475
2711.25533	1970.275
2713.86191	1966.475
2716.46687	1968.475
2719.07021	1975.975
2721.67194	1987.175
2724.27206	1972.575
2726.87057	1974.875
2729.46747	1973.075
2732.06276	1963.175
2734.65644	1959.175
2737.24852	1957.075
2739.83899	1955.175
2742.42786	1954.275
2745.01513	1952.575
2747.60079	1946.475
2750.18486	1941.075
2752.76733	1933.175
2755.3482	1932.775
2757.92747	1938.775
2760.50515	1925.575
2763.08123	1925.875
2765.65573	1914.375
2768.22863	1917.875
2770.79994	1911.175
2773.36967	1916.975
2775.9378	1911.475
2778.50435	1903.075
2781.06932	1905.875
2783.6327	1920.075
2786.1945	1904.075
2788.75471	1903.875
2791.31335	1910.475
2793.87041	1909.075
2796.42589	1892.775
2798.97979	1896.075
2801.53212	1899.575
2804.08288	1901.375
2806.63206	1889.275
2809.17967	1890.475
2811.72571	1890.675
2814.27018	1890.975
2816.81308	1893.775
2819.35442	1887.075
2821.89419	1893.375
2824.43239	1899.975
2826.96904	1900.875
2829.50412	1890.475
2832.03763	1895.575
2834.56959	1890.275
2837.1	1896.075
2839.62884	1901.875
2842.15613	1901.575
2844.68186	1919.775
2847.20604	1928.875
2849.72867	1940.675
2852.24974	1945.975
2854.76927	1945.075
2857.28724	1949.975
2859.80367	1933.675
2862.31855	1941.575
2864.83189	1946.875
2867.34368	1940.875
2869.85393	1945.775
2872.36264	1938.875
2874.8698	1944.075
2877.37543	1935.875
2879.87952	1931.375
2882.38207	1938.475
2884.88308	1930.975
2887.38256	1934.675
2889.88051	1941.175
2892.37692	1941.975
2894.8718	1944.775
2897.36515	1939.975
2899.85698	1941.175
2902.34727	1950.475
2904.83604	1944.475
2907.32328	1947.575
2909.809	1955.375
2912.29319	1947.075
2914.77587	1951.175
2917.25702	1943.575
2919.73665	1940.075
2922.21476	1930.675
2924.69136	1946.875
2927.16644	1943.675
2929.64	1943.575
2932.11205	1927.675
2934.58258	1922.275
2937.05161	1928.875
2939.51912	1914.375
2941.98513	1922.675
2944.44962	1913.675
2946.91261	1898.175
2949.37409	1907.775
2951.83407	1899.075
2954.29254	1896.575
2956.74951	1884.275
2959.20498	1880.675
2961.65895	1887.075
2964.11142	1868.375
2966.56239	1866.575
2969.01186	1866.475
2971.45984	1860.775
2973.90632	1858.775
2976.35131	1847.475
2978.7948	1847.375
2981.23681	1852.875
2983.67732	1847.975
2986.11635	1842.975
2988.55388	1838.775
2990.98993	1833.075
2993.4245	1832.475
2995.85758	1827.675
2998.28917	1837.275
3000.71928	1830.475
3003.14791	1833.575
3005.57506	1834.375
3008.00073	1833.075
3010.42493	1833.575
3012.84764	1845.975
3015.26888	1840.475
3017.68865	1836.675
3020.10694	1833.775
3022.52376	1833.375
3024.9391	1840.475
3027.35298	1837.675
3029.76539	1832.675
3032.17632	1847.875
3034.5858	1834.275
3036.9938	1831.075
3039.40034	1838.775
3041.80542	1835.675
3044.20903	1831.075
3046.61118	1832.875
3049.01187	1829.075
3051.4111	1832.675
3053.80888	1845.275
3056.20519	1845.975
3058.60005	1830.475
3060.99345	1834.175
3063.3854	1842.975
3065.7759	1839.575
3068.16494	1835.275
3070.55254	1839.675
3072.93868	1846.975
3075.32338	1847.075
3077.70662	1852.575
3080.08842	1851.575
3082.46878	1863.275
3084.84769	1850.075
3087.22515	1872.175
3089.60118	1867.675
3091.97576	1862.875
3094.3489	1863.075
3096.72061	1870.475
3099.09087	1880.775
3101.4597	1880.775
3103.82709	1883.675
3106.19305	1894.275
3108.55757	1886.775
3110.92066	1893.075
3113.28232	1898.475
3115.64255	1896.175
3118.00134	1904.175
3120.35871	1896.975
3122.71466	1909.575
3125.06917	1920.975
3127.42226	1914.575
3129.77393	1933.775
3132.12417	1928.875
3134.47299	1948.475
3136.82039	1938.975
3139.16636	1955.275
3141.51092	1964.675
3143.85406	1975.475
3146.19579	1979.475
3148.53609	1994.675
3150.87499	2003.975
3153.21246	2010.275
3155.54853	2017.175
3157.88318	2026.775
3160.21642	2031.375
3162.54826	2039.675
3164.87868	2046.775
3167.2077	2062.975
3169.5353	2055.075
3171.86151	2065.675
3174.18631	2071.175
3176.5097	2073.375
3178.83169	2076.875
3181.15228	2090.375
3183.47147	2090.975
3185.78926	2093.875
3188.10565	2102.075
3190.42065	2111.075
3192.73424	2124.175
3195.04645	2133.475
3197.35725	2130.975
3199.66667	2133.275
3201.97469	2151.875
3204.28132	2158.475
3206.58656	2169.075
3208.8904	2170.475
3211.19287	2179.275
3213.49394	2183.775
3215.79363	2181.775
3218.09193	2200.375
3220.38884	2199.675
3222.68438	2202.175
3224.97853	2201.875
3227.2713	2205.575
3229.56269	2203.875
3231.8527	2208.875
3234.14133	2205.875
3236.42858	2201.675
