Data from AgNPs_FTO_APTES_UA_0.1mM_CRN_50uM_NaF_0.1M_Addition_RamanShift__26__13-06-57-655.txt Node

Date: Mon Dec 20 13:06:57 GMT 2021
User: TCL
Spectrometer: QEP01345
Trigger mode: 4
Integration Time (sec): 7.000000E0
Scans to average: 10
Electric dark correction enabled: true
Nonlinearity correction enabled: false
Boxcar width: 0
XAxis mode: Raman Shifts
Number of Pixels in Spectrum: 1044
>>>>>Begin Spectral Data<<<<<
46.04893	0.3125
50.45542	-0.9875
54.85868	-1.7875
59.25871	1.9125
63.6555	34.1125
68.04907	31.3125
72.43941	35.0125
76.82654	41.5125
81.21044	35.8125
85.59113	44.6125
89.96862	38.9125
94.34289	43.3125
98.71396	44.6125
103.08183	43.7125
107.4465	49.4125
111.80798	48.0125
116.16626	49.5125
120.52136	53.9125
124.87327	54.1125
129.222	54.4125
133.56755	57.4125
137.90993	62.7125
142.24913	63.8125
146.58517	68.8125
150.91804	85.5125
155.24774	95.2125
159.57429	117.5125
163.89768	148.8125
168.21792	196.3125
172.53501	252.8125
176.84895	352.3125
181.15975	487.3125
185.46741	673.3125
189.77193	927.9125
194.07331	1244.5125
198.37157	1615.6125
202.6667	2008.5125
206.9587	2411.1125
211.24758	2784.1125
215.53334	3168.7125
219.81599	3586.7125
224.09553	3998.7125
228.37195	4453.4125
232.64527	4952.3125
236.91549	5452.8125
241.18261	5927.2125
245.44663	6385.9125
249.70755	6771.9125
253.96539	7157.1125
258.22014	7433.5125
262.4718	7661.4125
266.72039	7781.9125
270.96589	7811.8125
275.20832	7783.9125
279.44768	7697.5125
283.68397	7601.6125
287.91719	7499.6125
292.14735	7433.9125
296.37445	7402.1125
300.59849	7425.0125
304.81948	7526.8125
309.03742	7543.2125
313.25231	7502.3125
317.46415	7340.0125
321.67296	7106.8125
325.87872	6894.3125
330.08145	6803.4125
334.28114	6786.0125
338.47781	6853.6125
342.67145	6917.9125
346.86207	7032.3125
351.04966	7211.3125
355.23424	7422.9125
359.4158	7600.3125
363.59435	7712.2125
367.76989	7788.5125
371.94243	7840.9125
376.11196	7917.7125
380.27849	7957.2125
384.44203	7999.1125
388.60257	8025.0125
392.76012	8047.0125
396.91468	8134.5125
401.06626	8236.8125
405.21485	8295.1125
409.36047	8272.8125
413.50311	8110.2125
417.64277	7948.1125
421.77947	7875.1125
425.9132	7847.5125
430.04396	7851.3125
434.17176	7875.5125
438.2966	7926.3125
442.41849	7998.9125
446.53742	8137.7125
450.6534	8240.5125
454.76644	8346.0125
458.87653	8357.4125
462.98368	8375.7125
467.08789	8319.1125
471.18916	8309.8125
475.2875	8291.5125
479.38291	8330.3125
483.4754	8381.0125
487.56496	8519.9125
491.6516	8652.5125
495.73531	8713.3125
499.81612	8638.8125
503.89401	8576.3125
507.96899	8460.8125
512.04106	8400.9125
516.11023	8442.0125
520.1765	8518.4125
524.23987	8608.6125
528.30034	8652.7125
532.35792	8634.9125
536.41261	8524.9125
540.46441	8372.0125
544.51333	8235.1125
548.55936	8155.0125
552.60252	8157.0125
556.64279	8199.7125
560.6802	8252.4125
564.71473	8303.2125
568.7464	8425.7125
572.7752	8511.8125
576.80114	8474.9125
580.82422	8419.4125
584.84444	8461.4125
588.86181	8578.9125
592.87633	8686.3125
596.888	8728.3125
600.89682	8748.6125
604.9028	8986.4125
608.90594	9837.9125
612.90624	11059.9125
616.90371	11185.4125
620.89834	10063.4125
624.89015	9785.5125
628.87913	10231.8125
632.86528	10844.6125
636.84862	11142.8125
640.82913	10948.2125
644.80683	10341.5125
648.78172	9661.7125
652.75379	9179.3125
656.72306	8916.7125
660.68952	8864.6125
664.65319	8753.0125
668.61405	8585.3125
672.57211	8545.0125
676.52738	8554.4125
680.47986	8563.2125
684.42955	8517.4125
688.37646	8497.1125
692.32058	8466.0125
696.26192	8444.5125
700.20048	8422.9125
704.13626	8359.5125
708.06928	8286.4125
711.99952	8240.1125
715.927	8195.7125
719.85171	8208.1125
723.77365	8297.2125
727.69284	8293.1125
731.60928	8225.2125
735.52295	8115.9125
739.43388	8051.5125
743.34206	8051.9125
747.24749	8078.3125
751.15017	8084.9125
755.05012	8118.3125
758.94733	8243.9125
762.8418	8567.6125
766.73354	9020.6125
770.62254	9533.4125
774.50882	9754.7125
778.39237	9564.9125
782.27321	8993.6125
786.15132	8496.9125
790.02671	8232.7125
793.89938	8151.3125
797.76935	8176.3125
801.6366	8321.4125
805.50115	8574.8125
809.36299	8963.2125
813.22213	9099.9125
817.07857	8956.1125
820.93231	8636.1125
824.78336	8261.2125
828.63172	8009.0125
832.47738	7851.8125
836.32036	7780.1125
840.16066	7716.5125
843.99827	7696.5125
847.8332	7669.2125
851.66546	7659.6125
855.49504	7663.0125
859.32195	7666.5125
863.1462	7697.7125
866.96777	7764.4125
870.78668	7901.8125
874.60293	8077.5125
878.41652	8299.9125
882.22745	8507.0125
886.03573	8657.5125
889.84136	8642.4125
893.64433	8417.7125
897.44466	8163.4125
901.24235	7856.2125
905.0374	7618.4125
908.8298	7471.7125
912.61957	7411.5125
916.40671	7331.4125
920.19121	7339.8125
923.97308	7315.7125
927.75233	7309.1125
931.52895	7348.4125
935.30295	7295.2125
939.07433	7244.3125
942.84309	7181.8125
946.60924	7138.7125
950.37278	7138.1125
954.13371	7106.3125
957.89203	7081.8125
961.64774	7071.2125
965.40086	7033.5125
969.15137	6973.5125
972.89929	6964.7125
976.64461	6930.8125
980.38733	6921.5125
984.12747	6921.8125
987.86502	6954.6125
991.59999	6992.6125
995.33237	7046.7125
999.06217	7170.4125
1002.78939	7301.2125
1006.51404	7457.0125
1010.23611	7638.0125
1013.95561	7733.0125
1017.67255	7767.7125
1021.38692	7684.8125
1025.09872	7564.4125
1028.80796	7400.8125
1032.51465	7289.8125
1036.21877	7210.0125
1039.92035	7151.0125
1043.61937	7111.0125
1047.31584	7081.7125
1051.00976	7070.4125
1054.70114	7093.1125
1058.38998	7131.5125
1062.07627	7226.1125
1065.76003	7292.5125
1069.44126	7339.8125
1073.11995	7396.1125
1076.79611	7384.7125
1080.46974	7377.0125
1084.14085	7347.5125
1087.80943	7315.9125
1091.47549	7273.6125
1095.13903	7207.0125
1098.80005	7099.6125
1102.45857	7036.3125
1106.11456	7007.9125
1109.76805	7074.4125
1113.41903	7197.5125
1117.06751	7422.3125
1120.71348	7768.9125
1124.35696	8233.1125
1127.99793	8818.6125
1131.63641	9328.7125
1135.2724	9580.4125
1138.90589	9536.9125
1142.5369	9267.9125
1146.16542	8825.3125
1149.79145	8306.1125
1153.415	7864.2125
1157.03607	7527.5125
1160.65467	7383.3125
1164.27079	7331.6125
1167.88443	7409.0125
1171.49561	7619.3125
1175.10432	7972.5125
1178.71056	8484.6125
1182.31434	8929.9125
1185.91565	9189.8125
1189.51451	9199.8125
1193.11091	9192.0125
1196.70485	9234.9125
1200.29634	9324.0125
1203.88538	9347.4125
1207.47197	9162.7125
1211.05612	8807.1125
1214.63782	8431.0125
1218.21708	8078.6125
1221.79391	7819.0125
1225.36829	7615.3125
1228.94024	7435.8125
1232.50976	7350.0125
1236.07685	7239.7125
1239.6415	7270.3125
1243.20374	7279.9125
1246.76355	7321.5125
1250.32093	7377.4125
1253.8759	7453.9125
1257.42845	7537.2125
1260.97859	7615.5125
1264.52631	7702.6125
1268.07163	7778.7125
1271.61453	7802.9125
1275.15503	7856.8125
1278.69312	7863.0125
1282.22882	7855.1125
1285.76211	7950.3125
1289.29301	8087.3125
1292.82151	8250.9125
1296.34761	8486.8125
1299.87133	8778.0125
1303.39266	9206.6125
1306.9116	9791.5125
1310.42815	10435.5125
1313.94233	10803.7125
1317.45412	10709.9125
1320.96354	10404.6125
1324.47058	10073.3125
1327.97525	9809.0125
1331.47754	9626.9125
1334.97747	9646.8125
1338.47502	9750.8125
1341.97022	9878.2125
1345.46305	10089.0125
1348.95352	10371.2125
1352.44163	10693.5125
1355.92738	11208.4125
1359.41078	11996.6125
1362.89183	12742.4125
1366.37053	12569.0125
1369.84688	11431.6125
1373.32088	10290.0125
1376.79254	9533.5125
1380.26186	9150.3125
1383.72883	8919.1125
1387.19347	8765.9125
1390.65578	8575.3125
1394.11575	8478.1125
1397.57339	8402.8125
1401.0287	8379.7125
1404.48168	8377.5125
1407.93234	8308.6125
1411.38068	8199.0125
1414.82669	7991.5125
1418.27039	7768.8125
1421.71177	7524.8125
1425.15083	7298.9125
1428.58758	7137.7125
1432.02203	7099.3125
1435.45416	7104.3125
1438.88399	7119.6125
1442.31151	7125.3125
1445.73673	7151.6125
1449.15965	7189.5125
1452.58027	7206.1125
1455.9986	7217.2125
1459.41463	7213.8125
1462.82837	7249.6125
1466.23982	7337.1125
1469.64898	7411.3125
1473.05586	7468.3125
1476.46045	7501.1125
1479.86276	7514.9125
1483.26279	7548.0125
1486.66054	7631.0125
1490.05602	7730.5125
1493.44922	7893.0125
1496.84016	8127.5125
1500.22882	8470.4125
1503.61521	9033.6125
1506.99934	9719.9125
1510.38121	10280.5125
1513.76081	10443.2125
1517.13816	9986.6125
1520.51324	9233.1125
1523.88607	8537.5125
1527.25665	8102.8125
1530.62498	7918.3125
1533.99105	7853.0125
1537.35488	7849.2125
1540.71647	7863.8125
1544.07581	7921.5125
1547.4329	7936.1125
1550.78776	7967.8125
1554.14038	7974.1125
1557.49077	8012.6125
1560.83892	8051.3125
1564.18484	8127.5125
1567.52853	8226.0125
1570.86999	8310.3125
1574.20922	8386.2125
1577.54624	8423.0125
1580.88103	8303.7125
1584.2136	8156.3125
1587.54395	8040.6125
1590.87208	8099.3125
1594.19801	8303.7125
1597.52172	8597.6125
1600.84321	8768.8125
1604.16251	8693.3125
1607.47959	8466.0125
1610.79447	8169.7125
1614.10715	7926.4125
1617.41763	7701.9125
1620.7259	7549.6125
1624.03199	7492.9125
1627.33587	7480.8125
1630.63757	7578.0125
1633.93707	7726.2125
1637.23439	8042.3125
1640.52951	8449.1125
1643.82246	9040.1125
1647.11321	9684.7125
1650.40179	10112.9125
1653.68819	9960.9125
1656.97241	9271.0125
1660.25446	8474.9125
1663.53433	7825.9125
1666.81203	7426.0125
1670.08756	7170.9125
1673.36092	6969.4125
1676.63211	6817.5125
1679.90115	6716.1125
1683.16801	6622.1125
1686.43272	6526.0125
1689.69527	6434.3125
1692.95567	6329.4125
1696.2139	6239.1125
1699.46999	6123.9125
1702.72392	6014.8125
1705.97571	5887.1125
1709.22535	5762.8125
1712.47284	5686.4125
1715.71819	5599.7125
1718.96139	5549.5125
1722.20246	5492.0125
1725.44139	5426.1125
1728.67818	5360.0125
1731.91284	5319.1125
1735.14537	5284.5125
1738.37576	5222.3125
1741.60403	5182.5125
1744.83017	5166.9125
1748.05418	5162.2125
1751.27607	5152.0125
1754.49584	5134.8125
1757.71349	5121.8125
1760.92903	5104.2125
1764.14244	5091.2125
1767.35375	5056.8125
1770.56294	5044.8125
1773.77002	4994.8125
1776.97499	4974.1125
1780.17785	4939.7125
1783.37861	4905.8125
1786.57727	4886.5125
1789.77382	4857.0125
1792.96828	4838.1125
1796.16064	4814.6125
1799.3509	4799.2125
1802.53907	4792.8125
1805.72514	4758.7125
1808.90913	4746.6125
1812.09102	4741.8125
1815.27083	4724.3125
1818.44856	4715.3125
1821.6242	4696.1125
1824.79776	4685.6125
1827.96924	4665.7125
1831.13864	4647.8125
1834.30597	4677.6125
1837.47122	4647.3125
1840.6344	4633.6125
1843.7955	4631.4125
1846.95454	4608.9125
1850.11151	4621.9125
1853.26642	4604.9125
1856.41926	4619.3125
1859.57004	4604.3125
1862.71876	4601.2125
1865.86542	4594.6125
1869.01003	4588.4125
1872.15258	4578.7125
1875.29308	4572.7125
1878.43152	4550.4125
1881.56792	4547.6125
1884.70227	4540.2125
1887.83457	4517.0125
1890.96482	4524.6125
1894.09304	4499.5125
1897.21921	4490.1125
1900.34335	4496.3125
1903.46544	4501.8125
1906.58551	4488.5125
1909.70353	4471.4125
1912.81953	4461.9125
1915.93349	4456.5125
1919.04543	4461.0125
1922.15534	4435.7125
1925.26322	4444.4125
1928.36908	4426.8125
1931.47292	4420.1125
1934.57473	4399.2125
1937.67453	4387.1125
1940.77232	4370.7125
1943.86808	4365.3125
1946.96184	4340.7125
1950.05358	4323.5125
1953.14331	4317.6125
1956.23103	4307.8125
1959.31675	4267.2125
1962.40046	4261.0125
1965.48217	4248.1125
1968.56188	4260.5125
1971.63959	4226.0125
1974.7153	4220.1125
1977.78901	4207.6125
1980.86073	4193.3125
1983.93046	4164.1125
1986.99819	4158.4125
1990.06394	4135.1125
1993.1277	4128.2125
1996.18947	4127.0125
1999.24925	4105.0125
2002.30706	4101.0125
2005.36288	4082.3125
2008.41672	4066.6125
2011.46859	4051.8125
2014.51848	4032.4125
2017.56639	4022.2125
2020.61233	4019.8125
2023.6563	4010.0125
2026.6983	3980.2125
2029.73833	3977.1125
2032.7764	3973.5125
2035.8125	3960.2125
2038.84664	3948.4125
2041.87881	3948.2125
2044.90903	3934.5125
2047.93729	3932.1125
2050.96359	3919.5125
2053.98794	3922.2125
2057.01034	3909.0125
2060.03078	3914.2125
2063.04927	3897.6125
2066.06582	3891.4125
2069.08042	3885.6125
2072.09307	3889.2125
2075.10378	3873.1125
2078.11255	3877.7125
2081.11938	3869.6125
2084.12426	3874.9125
2087.12722	3878.7125
2090.12824	3873.7125
2093.12732	3867.2125
2096.12447	3864.9125
2099.11969	3868.3125
2102.11299	3881.2125
2105.10435	3854.2125
2108.09379	3853.1125
2111.08131	3870.3125
2114.0669	3850.8125
2117.05057	3862.5125
2120.03233	3859.8125
2123.01216	3856.7125
2125.99008	3885.1125
2128.96609	3861.8125
2131.94018	3865.6125
2134.91236	3875.2125
2137.88263	3877.2125
2140.851	3853.0125
2143.81746	3864.2125
2146.78201	3861.3125
2149.74466	3874.4125
2152.7054	3864.7125
2155.66425	3853.4125
2158.6212	3865.3125
2161.57625	3855.7125
2164.52941	3840.1125
2167.48067	3849.1125
2170.43004	3845.0125
2173.37752	3836.2125
2176.32311	3837.9125
2179.26681	3864.0125
2182.20863	3832.8125
2185.14856	3836.2125
2188.08661	3824.5125
2191.02278	3822.6125
2193.95707	3815.7125
2196.88948	3809.0125
2199.82001	3805.3125
2202.74867	3802.4125
2205.67545	3801.5125
2208.60037	3795.9125
2211.52341	3783.9125
2214.44458	3776.9125
2217.36388	3767.2125
2220.28132	3767.0125
2223.1969	3747.6125
2226.11061	3742.8125
2229.02246	3728.6125
2231.93245	3736.7125
2234.84058	3713.4125
2237.74686	3707.5125
2240.65128	3692.2125
2243.55385	3715.7125
2246.45456	3685.7125
2249.35343	3688.0125
2252.25044	3674.0125
2255.14561	3657.9125
2258.03893	3671.1125
2260.93041	3669.3125
2263.82004	3652.1125
2266.70783	3637.5125
2269.59378	3643.0125
2272.4779	3632.9125
2275.36017	3609.8125
2278.24061	3611.4125
2281.11922	3599.9125
2283.996	3600.7125
2286.87094	3584.3125
2289.74405	3576.3125
2292.61534	3565.0125
2295.4848	3559.1125
2298.35243	3545.6125
2301.21824	3547.9125
2304.08223	3548.9125
2306.94439	3540.6125
2309.80474	3537.4125
2312.66327	3528.5125
2315.51999	3529.6125
2318.37489	3532.6125
2321.22797	3527.8125
2324.07925	3508.4125
2326.92871	3516.6125
2329.77637	3504.0125
2332.62222	3504.4125
2335.46626	3480.4125
2338.3085	3488.6125
2341.14893	3471.5125
2343.98756	3472.6125
2346.8244	3465.2125
2349.65943	3460.2125
2352.49267	3470.1125
2355.32411	3475.9125
2358.15376	3456.0125
2360.98161	3449.6125
2363.80768	3462.2125
2366.63195	3453.5125
2369.45444	3456.1125
2372.27514	3445.6125
2375.09405	3441.9125
2377.91118	3429.3125
2380.72652	3412.0125
2383.54009	3405.2125
2386.35187	3411.8125
2389.16188	3398.3125
2391.97011	3387.3125
2394.77657	3385.1125
2397.58125	3372.9125
2400.38416	3363.3125
2403.18529	3362.2125
2405.98466	3365.5125
2408.78226	3353.9125
2411.57809	3348.5125
2414.37216	3324.7125
2417.16446	3341.8125
2419.955	3329.8125
2422.74378	3330.7125
2425.5308	3312.4125
2428.31606	3309.6125
2431.09956	3300.8125
2433.88131	3301.5125
2436.6613	3303.3125
2439.43954	3286.7125
2442.21603	3280.7125
2444.99077	3281.2125
2447.76377	3270.1125
2450.53501	3276.8125
2453.30451	3279.7125
2456.07226	3264.4125
2458.83827	3262.5125
2461.60254	3252.4125
2464.36507	3261.5125
2467.12586	3237.5125
2469.88492	3244.7125
2472.64224	3242.9125
2475.39782	3240.0125
2478.15167	3247.8125
2480.90379	3239.6125
2483.65417	3239.5125
2486.40283	3219.6125
2489.14976	3239.0125
2491.89497	3219.3125
2494.63845	3239.9125
2497.3802	3229.9125
2500.12024	3222.3125
2502.85855	3226.4125
2505.59514	3205.7125
2508.33002	3196.2125
2511.06318	3185.1125
2513.79462	3198.8125
2516.52435	3184.5125
2519.25237	3184.1125
2521.97867	3168.0125
2524.70327	3159.5125
2527.42616	3169.5125
2530.14734	3151.6125
2532.86681	3158.5125
2535.58458	3136.2125
2538.30065	3125.2125
2541.01501	3133.0125
2543.72768	3129.1125
2546.43864	3121.6125
2549.14791	3110.8125
2551.85548	3113.9125
2554.56136	3096.8125
2557.26554	3102.6125
2559.96803	3096.7125
2562.66883	3085.7125
2565.36794	3078.7125
2568.06536	3083.0125
2570.7611	3066.1125
2573.45514	3061.8125
2576.14751	3060.4125
2578.83819	3042.7125
2581.52719	3050.2125
2584.21451	3047.3125
2586.90015	3043.3125
2589.58411	3034.7125
2592.2664	3013.4125
2594.94701	3010.2125
2597.62594	3006.5125
2600.30321	3000.8125
2602.9788	3002.3125
2605.65273	2984.6125
2608.32498	2995.9125
2610.99557	2978.0125
2613.66449	2988.2125
2616.33175	2979.1125
2618.99734	2978.2125
2621.66128	2969.9125
2624.32355	2974.8125
2626.98416	2961.1125
2629.64311	2964.4125
2632.30041	2971.0125
2634.95605	2957.5125
2637.61004	2960.7125
2640.26238	2939.0125
2642.91306	2931.5125
2645.56209	2942.7125
2648.20948	2934.4125
2650.85521	2931.6125
2653.4993	2933.6125
2656.14175	2912.5125
2658.78255	2932.5125
2661.42171	2913.4125
2664.05923	2922.3125
2666.6951	2930.5125
2669.32934	2912.9125
2671.96194	2919.6125
2674.59291	2913.9125
2677.22224	2918.4125
2679.84993	2932.5125
2682.476	2922.4125
2685.10043	2918.7125
2687.72324	2912.0125
2690.34441	2918.1125
2692.96396	2921.4125
2695.58188	2909.2125
2698.19818	2912.6125
2700.81285	2921.5125
2703.4259	2929.6125
2706.03733	2948.9125
2708.64714	2946.2125
2711.25533	2921.8125
2713.86191	2927.7125
2716.46687	2918.2125
2719.07021	2920.7125
2721.67194	2924.2125
2724.27206	2915.9125
2726.87057	2924.9125
2729.46747	2926.9125
2732.06276	2917.3125
2734.65644	2914.5125
2737.24852	2908.2125
2739.83899	2901.0125
2742.42786	2910.2125
2745.01513	2904.9125
2747.60079	2901.4125
2750.18486	2883.4125
2752.76733	2881.3125
2755.3482	2886.4125
2757.92747	2876.4125
2760.50515	2868.2125
2763.08123	2866.1125
2765.65573	2864.2125
2768.22863	2868.3125
2770.79994	2865.4125
2773.36967	2864.8125
2775.9378	2856.7125
2778.50435	2836.5125
2781.06932	2836.2125
2783.6327	2841.8125
2786.1945	2842.5125
2788.75471	2837.3125
2791.31335	2841.9125
2793.87041	2809.0125
2796.42589	2811.0125
2798.97979	2809.8125
2801.53212	2809.5125
2804.08288	2806.2125
2806.63206	2803.5125
2809.17967	2781.2125
2811.72571	2799.3125
2814.27018	2790.1125
2816.81308	2782.1125
2819.35442	2774.8125
2821.89419	2775.3125
2824.43239	2786.5125
2826.96904	2776.6125
2829.50412	2763.4125
2832.03763	2753.0125
2834.56959	2764.7125
2837.1	2754.2125
2839.62884	2745.7125
2842.15613	2751.6125
2844.68186	2766.9125
2847.20604	2756.0125
2849.72867	2772.6125
2852.24974	2770.8125
2854.76927	2770.9125
2857.28724	2756.3125
2859.80367	2754.8125
2862.31855	2754.4125
2864.83189	2747.3125
2867.34368	2752.3125
2869.85393	2757.0125
2872.36264	2748.1125
2874.8698	2764.6125
2877.37543	2753.0125
2879.87952	2761.0125
2882.38207	2746.6125
2884.88308	2750.6125
2887.38256	2754.1125
2889.88051	2758.9125
2892.37692	2754.0125
2894.8718	2751.4125
2897.36515	2744.6125
2899.85698	2748.2125
2902.34727	2756.6125
2904.83604	2756.6125
2907.32328	2775.9125
2909.809	2772.8125
2912.29319	2781.8125
2914.77587	2775.1125
2917.25702	2760.0125
2919.73665	2771.0125
2922.21476	2764.9125
2924.69136	2766.0125
2927.16644	2763.5125
2929.64	2766.5125
2932.11205	2771.7125
2934.58258	2761.2125
2937.05161	2759.6125
2939.51912	2769.7125
2941.98513	2751.9125
2944.44962	2748.8125
2946.91261	2747.0125
2949.37409	2747.8125
2951.83407	2739.8125
2954.29254	2747.3125
2956.74951	2733.2125
2959.20498	2732.5125
2961.65895	2722.5125
2964.11142	2739.2125
2966.56239	2719.8125
2969.01186	2713.5125
2971.45984	2711.5125
2973.90632	2692.4125
2976.35131	2696.1125
2978.7948	2702.0125
2981.23681	2677.6125
2983.67732	2684.6125
2986.11635	2677.4125
2988.55388	2660.9125
2990.98993	2669.8125
2993.4245	2668.3125
2995.85758	2663.0125
2998.28917	2658.5125
3000.71928	2673.6125
3003.14791	2666.8125
3005.57506	2659.0125
3008.00073	2658.5125
3010.42493	2658.7125
3012.84764	2661.3125
3015.26888	2660.6125
3017.68865	2656.2125
3020.10694	2643.7125
3022.52376	2648.8125
3024.9391	2647.1125
3027.35298	2645.2125
3029.76539	2637.8125
3032.17632	2643.9125
3034.5858	2635.5125
3036.9938	2641.3125
3039.40034	2642.0125
3041.80542	2652.4125
3044.20903	2635.7125
3046.61118	2643.2125
3049.01187	2630.1125
3051.4111	2635.9125
3053.80888	2630.5125
3056.20519	2637.7125
3058.60005	2625.3125
3060.99345	2633.1125
3063.3854	2628.1125
3065.7759	2620.8125
3068.16494	2620.8125
3070.55254	2618.7125
3072.93868	2613.6125
3075.32338	2622.4125
3077.70662	2622.0125
3080.08842	2611.9125
3082.46878	2624.3125
3084.84769	2620.4125
3087.22515	2621.0125
3089.60118	2639.9125
3091.97576	2642.2125
3094.3489	2639.7125
3096.72061	2646.6125
3099.09087	2657.2125
3101.4597	2654.4125
3103.82709	2663.0125
3106.19305	2658.0125
3108.55757	2656.6125
3110.92066	2660.2125
3113.28232	2652.4125
3115.64255	2653.4125
3118.00134	2661.0125
3120.35871	2668.9125
3122.71466	2673.6125
