Data from AgNPs_FTO_APTES_UA_0.1mM_CRN_200uM_NaF_0.1M_Addition_RamanShift__23__14-21-37-739.txt Node

Date: Mon Dec 20 14:21:37 GMT 2021
User: TCL
Spectrometer: QEP01345
Trigger mode: 4
Integration Time (sec): 7.000000E0
Scans to average: 10
Electric dark correction enabled: true
Nonlinearity correction enabled: false
Boxcar width: 0
XAxis mode: Raman Shifts
Number of Pixels in Spectrum: 1044
>>>>>Begin Spectral Data<<<<<
46.04893	0.5125
50.45542	0.2125
54.85868	-1.7875
59.25871	1.2125
63.6555	26.2125
68.04907	30.0125
72.43941	30.3125
76.82654	32.6125
81.21044	31.5125
85.59113	36.8125
89.96862	37.1125
94.34289	37.0125
98.71396	37.0125
103.08183	36.8125
107.4465	41.3125
111.80798	43.2125
116.16626	42.2125
120.52136	42.6125
124.87327	42.6125
129.222	44.1125
133.56755	45.5125
137.90993	49.8125
142.24913	52.3125
146.58517	53.9125
150.91804	66.1125
155.24774	76.3125
159.57429	88.5125
163.89768	113.1125
168.21792	142.4125
172.53501	185.0125
176.84895	249.3125
181.15975	347.6125
185.46741	480.0125
189.77193	660.2125
194.07331	885.8125
198.37157	1147.5125
202.6667	1431.0125
206.9587	1731.9125
211.24758	2014.6125
215.53334	2287.3125
219.81599	2589.4125
224.09553	2894.5125
228.37195	3210.1125
232.64527	3560.0125
236.91549	3891.0125
241.18261	4213.6125
245.44663	4532.4125
249.70755	4794.5125
253.96539	5030.3125
258.22014	5196.4125
262.4718	5320.8125
266.72039	5406.2125
270.96589	5396.8125
275.20832	5354.8125
279.44768	5283.2125
283.68397	5181.9125
287.91719	5114.5125
292.14735	5044.2125
296.37445	4995.2125
300.59849	4955.8125
304.81948	4951.6125
309.03742	4938.7125
313.25231	4877.2125
317.46415	4797.2125
321.67296	4731.6125
325.87872	4660.1125
330.08145	4608.1125
334.28114	4618.8125
338.47781	4631.8125
342.67145	4653.1125
346.86207	4706.0125
351.04966	4769.1125
355.23424	4844.7125
359.4158	4928.3125
363.59435	4986.6125
367.76989	5031.3125
371.94243	5070.7125
376.11196	5142.5125
380.27849	5187.1125
384.44203	5229.3125
388.60257	5270.4125
392.76012	5329.0125
396.91468	5359.2125
401.06626	5437.4125
405.21485	5475.7125
409.36047	5473.3125
413.50311	5436.0125
417.64277	5388.5125
421.77947	5377.4125
425.9132	5389.5125
430.04396	5392.4125
434.17176	5411.3125
438.2966	5443.6125
442.41849	5491.5125
446.53742	5550.8125
450.6534	5634.3125
454.76644	5667.2125
458.87653	5712.3125
462.98368	5714.9125
467.08789	5705.1125
471.18916	5708.3125
475.2875	5739.2125
479.38291	5770.3125
483.4754	5839.7125
487.56496	5937.8125
491.6516	6026.9125
495.73531	6086.8125
499.81612	6073.7125
503.89401	5972.4125
507.96899	5908.3125
512.04106	5858.6125
516.11023	5823.1125
520.1765	5835.0125
524.23987	5880.9125
528.30034	5895.4125
532.35792	5919.0125
536.41261	5894.9125
540.46441	5825.5125
544.51333	5722.8125
548.55936	5681.7125
552.60252	5647.6125
556.64279	5667.9125
560.6802	5688.1125
564.71473	5705.3125
568.7464	5781.7125
572.7752	5819.6125
576.80114	5851.4125
580.82422	5853.0125
584.84444	5921.3125
588.86181	6006.0125
592.87633	6079.6125
596.888	6058.0125
600.89682	6045.9125
604.9028	6132.4125
608.90594	6375.7125
612.90624	6797.3125
616.90371	6843.5125
620.89834	6578.9125
624.89015	6660.9125
628.87913	7061.5125
632.86528	7497.1125
636.84862	7736.7125
640.82913	7678.2125
644.80683	7345.0125
648.78172	6889.6125
652.75379	6554.6125
656.72306	6357.0125
660.68952	6291.0125
664.65319	6245.9125
668.61405	6244.9125
672.57211	6307.4125
676.52738	6369.1125
680.47986	6419.7125
684.42955	6397.7125
688.37646	6357.1125
692.32058	6286.6125
696.26192	6207.7125
700.20048	6150.4125
704.13626	6073.9125
708.06928	5997.6125
711.99952	5920.2125
715.927	5857.1125
719.85171	5830.9125
723.77365	5866.1125
727.69284	5870.4125
731.60928	5820.2125
735.52295	5739.2125
739.43388	5682.5125
743.34206	5668.3125
747.24749	5678.0125
751.15017	5693.4125
755.05012	5699.6125
758.94733	5734.2125
762.8418	5854.6125
766.73354	6034.3125
770.62254	6183.1125
774.50882	6276.9125
778.39237	6169.6125
782.27321	5938.9125
786.15132	5781.1125
790.02671	5708.6125
793.89938	5692.0125
797.76935	5723.0125
801.6366	5787.3125
805.50115	5935.8125
809.36299	6129.1125
813.22213	6217.6125
817.07857	6147.2125
820.93231	5945.4125
824.78336	5722.6125
828.63172	5536.0125
832.47738	5430.9125
836.32036	5381.7125
840.16066	5357.0125
843.99827	5320.5125
847.8332	5320.5125
851.66546	5298.6125
855.49504	5287.1125
859.32195	5303.8125
863.1462	5348.4125
866.96777	5407.7125
870.78668	5468.8125
874.60293	5577.8125
878.41652	5691.8125
882.22745	5804.7125
886.03573	5916.0125
889.84136	5935.4125
893.64433	5810.2125
897.44466	5655.0125
901.24235	5462.2125
905.0374	5302.5125
908.8298	5204.4125
912.61957	5151.1125
916.40671	5087.4125
920.19121	5113.8125
923.97308	5103.4125
927.75233	5061.5125
931.52895	5099.2125
935.30295	5077.5125
939.07433	5059.2125
942.84309	5049.1125
946.60924	5016.2125
950.37278	5005.0125
954.13371	4966.7125
957.89203	4959.3125
961.64774	4940.1125
965.40086	4923.7125
969.15137	4898.0125
972.89929	4870.0125
976.64461	4837.4125
980.38733	4833.5125
984.12747	4820.2125
987.86502	4838.5125
991.59999	4874.4125
995.33237	4897.6125
999.06217	4952.7125
1002.78939	5018.4125
1006.51404	5095.5125
1010.23611	5161.8125
1013.95561	5251.8125
1017.67255	5252.0125
1021.38692	5223.8125
1025.09872	5166.7125
1028.80796	5082.2125
1032.51465	5030.8125
1036.21877	4950.7125
1039.92035	4907.3125
1043.61937	4911.2125
1047.31584	4903.4125
1051.00976	4894.1125
1054.70114	4932.5125
1058.38998	4958.1125
1062.07627	5013.0125
1065.76003	5056.3125
1069.44126	5117.5125
1073.11995	5165.9125
1076.79611	5165.9125
1080.46974	5125.7125
1084.14085	5077.0125
1087.80943	4996.9125
1091.47549	4973.8125
1095.13903	4909.8125
1098.80005	4875.3125
1102.45857	4843.5125
1106.11456	4840.1125
1109.76805	4867.6125
1113.41903	4941.7125
1117.06751	5070.4125
1120.71348	5278.9125
1124.35696	5594.5125
1127.99793	5968.6125
1131.63641	6375.8125
1135.2724	6587.1125
1138.90589	6606.8125
1142.5369	6446.5125
1146.16542	6132.6125
1149.79145	5791.8125
1153.415	5470.4125
1157.03607	5241.2125
1160.65467	5139.2125
1164.27079	5097.1125
1167.88443	5099.8125
1171.49561	5166.8125
1175.10432	5349.9125
1178.71056	5543.0125
1182.31434	5749.4125
1185.91565	5845.8125
1189.51451	5880.3125
1193.11091	5916.6125
1196.70485	5967.0125
1200.29634	6028.8125
1203.88538	6050.2125
1207.47197	6013.3125
1211.05612	5888.6125
1214.63782	5683.9125
1218.21708	5485.5125
1221.79391	5331.0125
1225.36829	5195.8125
1228.94024	5108.6125
1232.50976	5037.5125
1236.07685	5017.0125
1239.6415	5015.0125
1243.20374	5029.5125
1246.76355	5045.6125
1250.32093	5083.5125
1253.8759	5104.4125
1257.42845	5140.9125
1260.97859	5198.2125
1264.52631	5200.3125
1268.07163	5250.0125
1271.61453	5251.3125
1275.15503	5275.0125
1278.69312	5273.1125
1282.22882	5284.3125
1285.76211	5311.8125
1289.29301	5371.4125
1292.82151	5469.3125
1296.34761	5611.9125
1299.87133	5759.8125
1303.39266	5950.7125
1306.9116	6157.9125
1310.42815	6404.8125
1313.94233	6565.2125
1317.45412	6597.6125
1320.96354	6561.8125
1324.47058	6507.5125
1327.97525	6445.4125
1331.47754	6429.1125
1334.97747	6465.4125
1338.47502	6510.6125
1341.97022	6576.6125
1345.46305	6663.9125
1348.95352	6763.9125
1352.44163	6895.5125
1355.92738	7043.7125
1359.41078	7290.1125
1362.89183	7544.2125
1366.37053	7501.3125
1369.84688	7148.7125
1373.32088	6707.8125
1376.79254	6366.8125
1380.26186	6182.1125
1383.72883	6079.5125
1387.19347	5973.2125
1390.65578	5881.4125
1394.11575	5815.9125
1397.57339	5778.0125
1401.0287	5756.1125
1404.48168	5731.6125
1407.93234	5658.4125
1411.38068	5575.5125
1414.82669	5437.8125
1418.27039	5292.2125
1421.71177	5126.9125
1425.15083	4994.6125
1428.58758	4885.0125
1432.02203	4823.1125
1435.45416	4797.4125
1438.88399	4778.0125
1442.31151	4760.0125
1445.73673	4760.4125
1449.15965	4773.1125
1452.58027	4788.5125
1455.9986	4785.2125
1459.41463	4818.5125
1462.82837	4854.5125
1466.23982	4889.9125
1469.64898	4923.7125
1473.05586	4964.1125
1476.46045	4972.2125
1479.86276	4970.0125
1483.26279	4957.9125
1486.66054	4963.5125
1490.05602	4983.1125
1493.44922	5039.0125
1496.84016	5117.7125
1500.22882	5241.5125
1503.61521	5414.0125
1506.99934	5635.0125
1510.38121	5823.4125
1513.76081	5889.4125
1517.13816	5773.7125
1520.51324	5539.8125
1523.88607	5331.7125
1527.25665	5209.0125
1530.62498	5162.0125
1533.99105	5168.0125
1537.35488	5196.1125
1540.71647	5218.8125
1544.07581	5225.5125
1547.4329	5241.7125
1550.78776	5260.8125
1554.14038	5278.3125
1557.49077	5291.3125
1560.83892	5298.3125
1564.18484	5346.7125
1567.52853	5367.6125
1570.86999	5409.7125
1574.20922	5460.6125
1577.54624	5505.9125
1580.88103	5503.8125
1584.2136	5477.2125
1587.54395	5426.9125
1590.87208	5444.1125
1594.19801	5517.1125
1597.52172	5611.1125
1600.84321	5662.0125
1604.16251	5630.7125
1607.47959	5527.1125
1610.79447	5403.9125
1614.10715	5276.9125
1617.41763	5188.6125
1620.7259	5105.5125
1624.03199	5062.8125
1627.33587	5044.0125
1630.63757	5088.1125
1633.93707	5163.9125
1637.23439	5306.9125
1640.52951	5507.2125
1643.82246	5769.0125
1647.11321	6035.1125
1650.40179	6213.0125
1653.68819	6177.1125
1656.97241	5914.0125
1660.25446	5594.6125
1663.53433	5361.6125
1666.81203	5195.1125
1670.08756	5082.2125
1673.36092	5019.2125
1676.63211	4954.1125
1679.90115	4930.4125
1683.16801	4866.0125
1686.43272	4793.9125
1689.69527	4715.5125
1692.95567	4619.5125
1696.2139	4527.2125
1699.46999	4404.8125
1702.72392	4281.3125
1705.97571	4171.3125
1709.22535	4046.6125
1712.47284	3973.9125
1715.71819	3917.2125
1718.96139	3847.3125
1722.20246	3803.2125
1725.44139	3762.0125
1728.67818	3717.9125
1731.91284	3676.7125
1735.14537	3647.8125
1738.37576	3600.4125
1741.60403	3588.4125
1744.83017	3573.8125
1748.05418	3554.3125
1751.27607	3578.8125
1754.49584	3565.5125
1757.71349	3566.5125
1760.92903	3549.6125
1764.14244	3521.1125
1767.35375	3503.1125
1770.56294	3456.4125
1773.77002	3442.1125
1776.97499	3385.4125
1780.17785	3379.7125
1783.37861	3328.3125
1786.57727	3297.5125
1789.77382	3264.2125
1792.96828	3228.5125
1796.16064	3202.1125
1799.3509	3190.8125
1802.53907	3174.4125
1805.72514	3165.4125
1808.90913	3146.7125
1812.09102	3130.1125
1815.27083	3106.5125
1818.44856	3112.1125
1821.6242	3098.8125
1824.79776	3092.8125
1827.96924	3073.7125
1831.13864	3071.9125
1834.30597	3085.0125
1837.47122	3075.0125
1840.6344	3065.4125
1843.7955	3053.8125
1846.95454	3033.9125
1850.11151	3050.8125
1853.26642	3026.6125
1856.41926	3028.0125
1859.57004	3027.4125
1862.71876	3016.9125
1865.86542	3006.6125
1869.01003	3004.3125
1872.15258	3003.0125
1875.29308	2994.9125
1878.43152	2979.9125
1881.56792	2975.8125
1884.70227	2977.1125
1887.83457	2962.5125
1890.96482	2966.1125
1894.09304	2950.5125
1897.21921	2940.8125
1900.34335	2931.9125
1903.46544	2936.4125
1906.58551	2935.7125
1909.70353	2931.1125
1912.81953	2912.0125
1915.93349	2907.5125
1919.04543	2909.0125
1922.15534	2891.6125
1925.26322	2874.3125
1928.36908	2882.8125
1931.47292	2875.5125
1934.57473	2862.6125
1937.67453	2852.3125
1940.77232	2845.0125
1943.86808	2850.6125
1946.96184	2831.9125
1950.05358	2819.9125
1953.14331	2804.7125
1956.23103	2793.3125
1959.31675	2789.1125
1962.40046	2778.3125
1965.48217	2766.9125
1968.56188	2750.3125
1971.63959	2741.3125
1974.7153	2742.8125
1977.78901	2730.2125
1980.86073	2724.8125
1983.93046	2710.8125
1986.99819	2716.2125
1990.06394	2693.5125
1993.1277	2689.4125
1996.18947	2677.2125
1999.24925	2679.1125
2002.30706	2663.1125
2005.36288	2648.6125
2008.41672	2636.2125
2011.46859	2621.7125
2014.51848	2612.9125
2017.56639	2605.7125
2020.61233	2600.8125
2023.6563	2596.6125
2026.6983	2591.7125
2029.73833	2577.2125
2032.7764	2564.5125
2035.8125	2562.7125
2038.84664	2548.8125
2041.87881	2568.5125
2044.90903	2537.9125
2047.93729	2542.2125
2050.96359	2530.7125
2053.98794	2525.5125
2057.01034	2520.9125
2060.03078	2522.9125
2063.04927	2510.8125
2066.06582	2521.7125
2069.08042	2508.5125
2072.09307	2510.3125
2075.10378	2509.2125
2078.11255	2509.6125
2081.11938	2495.0125
2084.12426	2501.9125
2087.12722	2497.1125
2090.12824	2504.5125
2093.12732	2493.2125
2096.12447	2483.9125
2099.11969	2496.2125
2102.11299	2488.5125
2105.10435	2487.6125
2108.09379	2481.4125
2111.08131	2487.2125
2114.0669	2483.6125
2117.05057	2482.7125
2120.03233	2495.8125
2123.01216	2490.2125
2125.99008	2500.9125
2128.96609	2494.5125
2131.94018	2501.0125
2134.91236	2497.6125
2137.88263	2484.5125
2140.851	2493.1125
2143.81746	2496.9125
2146.78201	2491.3125
2149.74466	2492.1125
2152.7054	2488.1125
2155.66425	2479.6125
2158.6212	2491.0125
2161.57625	2487.4125
2164.52941	2474.5125
2167.48067	2479.8125
2170.43004	2470.8125
2173.37752	2475.1125
2176.32311	2469.7125
2179.26681	2463.0125
2182.20863	2465.9125
2185.14856	2457.2125
2188.08661	2458.3125
2191.02278	2452.4125
2193.95707	2448.1125
2196.88948	2446.8125
2199.82001	2439.5125
2202.74867	2433.8125
2205.67545	2429.0125
2208.60037	2430.5125
2211.52341	2411.4125
2214.44458	2410.8125
2217.36388	2411.0125
2220.28132	2402.4125
2223.1969	2394.0125
2226.11061	2389.8125
2229.02246	2381.0125
2231.93245	2381.1125
2234.84058	2366.9125
2237.74686	2351.5125
2240.65128	2356.4125
2243.55385	2350.4125
2246.45456	2354.8125
2249.35343	2349.1125
2252.25044	2344.4125
2255.14561	2336.8125
2258.03893	2335.7125
2260.93041	2332.4125
2263.82004	2322.5125
2266.70783	2315.9125
2269.59378	2295.5125
2272.4779	2307.2125
2275.36017	2286.6125
2278.24061	2287.1125
2281.11922	2278.4125
2283.996	2276.3125
2286.87094	2271.6125
2289.74405	2266.9125
2292.61534	2254.2125
2295.4848	2254.6125
2298.35243	2247.7125
2301.21824	2238.6125
2304.08223	2254.0125
2306.94439	2241.8125
2309.80474	2229.2125
2312.66327	2240.4125
2315.51999	2239.6125
2318.37489	2228.2125
2321.22797	2224.5125
2324.07925	2217.6125
2326.92871	2220.6125
2329.77637	2215.4125
2332.62222	2213.2125
2335.46626	2204.8125
2338.3085	2191.1125
2341.14893	2193.6125
2343.98756	2191.4125
2346.8244	2174.6125
2349.65943	2178.4125
2352.49267	2190.7125
2355.32411	2190.6125
2358.15376	2173.2125
2360.98161	2174.2125
2363.80768	2166.3125
2366.63195	2173.2125
2369.45444	2158.4125
2372.27514	2150.5125
2375.09405	2162.4125
2377.91118	2155.7125
2380.72652	2149.6125
2383.54009	2138.7125
2386.35187	2144.2125
2389.16188	2124.7125
2391.97011	2138.4125
2394.77657	2125.8125
2397.58125	2110.1125
2400.38416	2111.9125
2403.18529	2111.5125
2405.98466	2119.9125
2408.78226	2105.7125
2411.57809	2093.1125
2414.37216	2090.1125
2417.16446	2084.9125
2419.955	2083.3125
2422.74378	2075.1125
2425.5308	2072.2125
2428.31606	2079.5125
2431.09956	2051.1125
2433.88131	2060.1125
2436.6613	2053.8125
2439.43954	2050.8125
2442.21603	2051.9125
2444.99077	2045.3125
2447.76377	2040.3125
2450.53501	2036.4125
2453.30451	2043.9125
2456.07226	2039.7125
2458.83827	2025.7125
2461.60254	2030.8125
2464.36507	2022.2125
2467.12586	2025.1125
2469.88492	2020.4125
2472.64224	2012.2125
2475.39782	2022.7125
2478.15167	2019.8125
2480.90379	2015.4125
2483.65417	2018.1125
2486.40283	2006.6125
2489.14976	2011.8125
2491.89497	2003.9125
2494.63845	2007.2125
2497.3802	2005.4125
2500.12024	2001.0125
2502.85855	2005.2125
2505.59514	1990.4125
2508.33002	1999.8125
2511.06318	1994.0125
2513.79462	1993.4125
2516.52435	1982.7125
2519.25237	1978.3125
2521.97867	1967.2125
2524.70327	1972.3125
2527.42616	1965.1125
2530.14734	1965.6125
2532.86681	1954.2125
2535.58458	1952.6125
2538.30065	1949.6125
2541.01501	1938.6125
2543.72768	1939.6125
2546.43864	1934.7125
2549.14791	1930.1125
2551.85548	1927.0125
2554.56136	1918.8125
2557.26554	1919.9125
2559.96803	1904.7125
2562.66883	1911.0125
2565.36794	1894.4125
2568.06536	1900.7125
2570.7611	1897.8125
2573.45514	1898.0125
2576.14751	1881.8125
2578.83819	1878.0125
2581.52719	1884.0125
2584.21451	1870.0125
2586.90015	1867.4125
2589.58411	1872.3125
2592.2664	1867.3125
2594.94701	1852.8125
2597.62594	1862.3125
2600.30321	1844.8125
2602.9788	1850.5125
2605.65273	1843.1125
2608.32498	1842.6125
2610.99557	1835.9125
2613.66449	1838.1125
2616.33175	1826.9125
2618.99734	1835.2125
2621.66128	1832.9125
2624.32355	1823.7125
2626.98416	1817.2125
2629.64311	1814.4125
2632.30041	1824.7125
2634.95605	1810.7125
2637.61004	1804.7125
2640.26238	1806.8125
2642.91306	1804.5125
2645.56209	1798.3125
2648.20948	1803.0125
2650.85521	1800.0125
2653.4993	1796.5125
2656.14175	1793.4125
2658.78255	1798.2125
2661.42171	1795.0125
2664.05923	1786.2125
2666.6951	1791.4125
2669.32934	1779.0125
2671.96194	1781.8125
2674.59291	1787.6125
2677.22224	1786.8125
2679.84993	1796.6125
2682.476	1784.2125
2685.10043	1791.2125
2687.72324	1786.9125
2690.34441	1785.3125
2692.96396	1789.4125
2695.58188	1794.4125
2698.19818	1791.7125
2700.81285	1781.9125
2703.4259	1796.8125
2706.03733	1810.7125
2708.64714	1805.0125
2711.25533	1790.0125
2713.86191	1799.6125
2716.46687	1791.4125
2719.07021	1781.5125
2721.67194	1786.3125
2724.27206	1781.2125
2726.87057	1790.1125
2729.46747	1790.9125
2732.06276	1784.5125
2734.65644	1774.4125
2737.24852	1773.5125
2739.83899	1778.1125
2742.42786	1771.8125
2745.01513	1770.3125
2747.60079	1771.6125
2750.18486	1766.8125
2752.76733	1762.6125
2755.3482	1756.5125
2757.92747	1758.7125
2760.50515	1754.2125
2763.08123	1741.8125
2765.65573	1749.3125
2768.22863	1753.7125
2770.79994	1747.5125
2773.36967	1745.3125
2775.9378	1738.2125
2778.50435	1732.6125
2781.06932	1741.8125
2783.6327	1734.4125
2786.1945	1734.1125
2788.75471	1724.3125
2791.31335	1721.6125
2793.87041	1719.8125
2796.42589	1717.2125
2798.97979	1710.8125
2801.53212	1718.0125
2804.08288	1712.3125
2806.63206	1709.4125
2809.17967	1700.5125
2811.72571	1691.6125
2814.27018	1694.4125
2816.81308	1687.0125
2819.35442	1686.3125
2821.89419	1693.3125
2824.43239	1694.8125
2826.96904	1685.5125
2829.50412	1688.6125
2832.03763	1680.1125
2834.56959	1694.8125
2837.1	1677.5125
2839.62884	1680.0125
2842.15613	1680.5125
2844.68186	1685.3125
2847.20604	1673.7125
2849.72867	1682.4125
2852.24974	1693.2125
2854.76927	1677.2125
2857.28724	1687.7125
2859.80367	1672.9125
2862.31855	1679.7125
2864.83189	1679.0125
2867.34368	1668.7125
2869.85393	1677.9125
2872.36264	1674.3125
2874.8698	1678.4125
2877.37543	1671.8125
2879.87952	1685.7125
2882.38207	1682.0125
2884.88308	1683.0125
2887.38256	1692.8125
2889.88051	1691.8125
2892.37692	1692.7125
2894.8718	1689.6125
2897.36515	1703.5125
2899.85698	1698.9125
2902.34727	1712.3125
2904.83604	1715.0125
2907.32328	1723.2125
2909.809	1714.3125
2912.29319	1728.4125
2914.77587	1733.1125
2917.25702	1729.6125
2919.73665	1737.9125
2922.21476	1731.6125
2924.69136	1736.8125
2927.16644	1742.0125
2929.64	1740.0125
2932.11205	1752.6125
2934.58258	1745.9125
2937.05161	1756.3125
2939.51912	1753.2125
2941.98513	1749.2125
2944.44962	1745.0125
2946.91261	1741.9125
2949.37409	1734.7125
2951.83407	1742.2125
2954.29254	1740.2125
2956.74951	1727.0125
2959.20498	1736.1125
2961.65895	1721.6125
2964.11142	1723.1125
2966.56239	1705.3125
2969.01186	1706.5125
2971.45984	1694.4125
2973.90632	1674.1125
2976.35131	1679.7125
2978.7948	1681.5125
2981.23681	1668.3125
2983.67732	1664.9125
2986.11635	1664.8125
2988.55388	1657.8125
2990.98993	1661.1125
2993.4245	1663.5125
2995.85758	1654.8125
2998.28917	1648.3125
3000.71928	1652.3125
3003.14791	1644.2125
3005.57506	1652.7125
3008.00073	1647.6125
3010.42493	1653.2125
3012.84764	1653.0125
3015.26888	1650.1125
3017.68865	1651.6125
3020.10694	1645.8125
3022.52376	1642.5125
3024.9391	1651.7125
3027.35298	1654.1125
3029.76539	1650.8125
3032.17632	1645.6125
3034.5858	1647.2125
3036.9938	1650.8125
3039.40034	1645.6125
3041.80542	1643.8125
3044.20903	1635.6125
3046.61118	1652.4125
3049.01187	1637.5125
3051.4111	1642.2125
3053.80888	1641.2125
3056.20519	1646.6125
3058.60005	1644.4125
3060.99345	1635.1125
3063.3854	1635.3125
3065.7759	1637.3125
3068.16494	1643.1125
3070.55254	1636.2125
3072.93868	1641.6125
3075.32338	1647.3125
3077.70662	1645.7125
3080.08842	1657.4125
3082.46878	1646.1125
3084.84769	1648.8125
3087.22515	1649.1125
3089.60118	1667.1125
3091.97576	1666.4125
3094.3489	1660.8125
3096.72061	1671.1125
3099.09087	1677.6125
3101.4597	1692.2125
3103.82709	1685.9125
3106.19305	1687.1125
3108.55757	1706.0125
3110.92066	1687.5125
3113.28232	1691.8125
3115.64255	1696.5125
3118.00134	1708.0125
3120.35871	1702.5125
3122.71466	1717.1125
3125.06917	1713.0125
