Data from AgNPs_FTO_APTES_UA_0.1mM_CRN_20uM_NaF_0.1M_Addition_RamanShift__30__12-31-57-616.txt Node

Date: Mon Dec 20 12:31:57 GMT 2021
User: TCL
Spectrometer: QEP01345
Trigger mode: 4
Integration Time (sec): 7.000000E0
Scans to average: 10
Electric dark correction enabled: true
Nonlinearity correction enabled: false
Boxcar width: 0
XAxis mode: Raman Shifts
Number of Pixels in Spectrum: 1044
>>>>>Begin Spectral Data<<<<<
46.04893	0.75
50.45542	-0.35
54.85868	-0.95
59.25871	1.05
63.6555	28.95
68.04907	28.85
72.43941	31.55
76.82654	33.05
81.21044	33.15
85.59113	39.25
89.96862	38.55
94.34289	40.15
98.71396	40.75
103.08183	40.05
107.4465	43.45
111.80798	43.65
116.16626	43.45
120.52136	48.65
124.87327	48.65
129.222	49.95
133.56755	49.15
137.90993	53.25
142.24913	59.25
146.58517	60.25
150.91804	73.15
155.24774	83.65
159.57429	95.55
163.89768	122.25
168.21792	153.05
172.53501	203.25
176.84895	278.05
181.15975	382.45
185.46741	526.15
189.77193	725.15
194.07331	963.25
198.37157	1251.15
202.6667	1549.95
206.9587	1843.75
211.24758	2149.55
215.53334	2431.85
219.81599	2742.35
224.09553	3075.75
228.37195	3458.55
232.64527	3839.55
236.91549	4240.95
241.18261	4595.45
245.44663	4918.15
249.70755	5201.55
253.96539	5397.95
258.22014	5559.45
262.4718	5690.15
266.72039	5745.25
270.96589	5760.25
275.20832	5712.45
279.44768	5614.65
283.68397	5530.75
287.91719	5465.25
292.14735	5442.45
296.37445	5517.75
300.59849	5689.75
304.81948	5896.95
309.03742	6045.95
313.25231	6042.15
317.46415	5777.85
321.67296	5388.45
325.87872	5019.35
330.08145	4851.45
334.28114	4799.85
338.47781	4842.85
342.67145	4950.95
346.86207	5123.95
351.04966	5391.95
355.23424	5738.35
359.4158	5985.75
363.59435	6148.55
367.76989	6212.85
371.94243	6255.65
376.11196	6229.95
380.27849	6257.35
384.44203	6244.75
388.60257	6183.35
392.76012	6168.25
396.91468	6196.45
401.06626	6312.15
405.21485	6416.15
409.36047	6243.65
413.50311	5964.25
417.64277	5635.05
421.77947	5448.45
425.9132	5350.95
430.04396	5326.25
434.17176	5360.45
438.2966	5407.25
442.41849	5517.85
446.53742	5638.75
450.6534	5762.65
454.76644	5840.25
458.87653	5830.25
462.98368	5800.25
467.08789	5741.15
471.18916	5675.25
475.2875	5616.95
479.38291	5585.25
483.4754	5615.25
487.56496	5725.05
491.6516	5853.55
495.73531	5896.05
499.81612	5840.45
503.89401	5779.55
507.96899	5737.45
512.04106	5787.75
516.11023	5917.95
520.1765	6092.05
524.23987	6203.75
528.30034	6190.65
532.35792	6077.95
536.41261	5900.05
540.46441	5679.75
544.51333	5512.35
548.55936	5420.65
552.60252	5430.45
556.64279	5503.55
560.6802	5544.95
564.71473	5609.15
568.7464	5834.45
572.7752	5951.85
576.80114	5810.35
580.82422	5648.55
584.84444	5658.45
588.86181	5735.35
592.87633	5826.05
596.888	5846.95
600.89682	5965.15
604.9028	6468.35
608.90594	8001.55
612.90624	10192.75
616.90371	10368.15
620.89834	8248.45
624.89015	7496.55
628.87913	7857.45
632.86528	8387.15
636.84862	8624.55
640.82913	8358.55
644.80683	7614.55
648.78172	6880.55
652.75379	6390.45
656.72306	6224.25
660.68952	6226.05
664.65319	6051.95
668.61405	5734.95
672.57211	5582.65
676.52738	5552.95
680.47986	5538.05
684.42955	5509.35
688.37646	5491.65
692.32058	5513.15
696.26192	5521.85
700.20048	5540.35
704.13626	5532.95
708.06928	5463.15
711.99952	5440.25
715.927	5432.45
719.85171	5508.15
723.77365	5582.55
727.69284	5563.75
731.60928	5461.45
735.52295	5360.65
739.43388	5329.75
743.34206	5335.85
747.24749	5383.05
751.15017	5382.85
755.05012	5474.65
758.94733	5660.65
762.8418	6134.35
766.73354	6947.05
770.62254	7833.75
774.50882	8327.15
778.39237	8079.75
782.27321	7190.55
786.15132	6267.85
790.02671	5762.05
793.89938	5593.25
797.76935	5587.35
801.6366	5783.35
805.50115	6171.55
809.36299	6613.15
813.22213	6752.05
817.07857	6520.25
820.93231	6122.65
824.78336	5735.45
828.63172	5447.75
832.47738	5327.55
836.32036	5241.65
840.16066	5159.65
843.99827	5138.15
847.8332	5127.05
851.66546	5103.25
855.49504	5111.85
859.32195	5131.15
863.1462	5166.45
866.96777	5259.65
870.78668	5456.65
874.60293	5691.95
878.41652	5991.75
882.22745	6292.15
886.03573	6454.15
889.84136	6394.85
893.64433	6138.55
897.44466	5795.75
901.24235	5479.85
905.0374	5229.05
908.8298	5063.75
912.61957	4974.75
916.40671	4931.15
920.19121	4922.65
923.97308	4915.85
927.75233	4944.15
931.52895	4992.55
935.30295	4940.35
939.07433	4838.75
942.84309	4738.05
946.60924	4706.25
950.37278	4676.45
954.13371	4648.25
957.89203	4636.45
961.64774	4616.95
965.40086	4606.55
969.15137	4615.85
972.89929	4571.75
976.64461	4571.35
980.38733	4585.15
984.12747	4586.05
987.86502	4615.25
991.59999	4671.25
995.33237	4762.55
999.06217	4908.05
1002.78939	5119.95
1006.51404	5323.05
1010.23611	5545.45
1013.95561	5670.75
1017.67255	5664.05
1021.38692	5559.15
1025.09872	5399.05
1028.80796	5203.85
1032.51465	5066.75
1036.21877	4969.45
1039.92035	4917.15
1043.61937	4902.35
1047.31584	4902.35
1051.00976	4927.35
1054.70114	4941.15
1058.38998	4990.15
1062.07627	5081.65
1065.76003	5171.95
1069.44126	5237.15
1073.11995	5263.85
1076.79611	5280.65
1080.46974	5293.05
1084.14085	5330.65
1087.80943	5340.95
1091.47549	5320.35
1095.13903	5211.95
1098.80005	5063.55
1102.45857	4980.45
1106.11456	4958.25
1109.76805	5048.85
1113.41903	5217.85
1117.06751	5523.65
1120.71348	5955.45
1124.35696	6531.65
1127.99793	7178.85
1131.63641	7653.85
1135.2724	7772.55
1138.90589	7647.95
1142.5369	7328.25
1146.16542	6814.15
1149.79145	6272.95
1153.415	5835.25
1157.03607	5535.35
1160.65467	5363.55
1164.27079	5369.55
1167.88443	5509.25
1171.49561	5807.25
1175.10432	6368.05
1178.71056	7150.45
1182.31434	7869.15
1185.91565	8119.15
1189.51451	8191.85
1193.11091	8134.35
1196.70485	8112.05
1200.29634	8138.65
1203.88538	8060.25
1207.47197	7719.35
1211.05612	7180.05
1214.63782	6705.95
1218.21708	6289.75
1221.79391	5950.15
1225.36829	5700.25
1228.94024	5544.05
1232.50976	5447.75
1236.07685	5387.05
1239.6415	5407.65
1243.20374	5433.55
1246.76355	5471.45
1250.32093	5536.35
1253.8759	5582.75
1257.42845	5696.25
1260.97859	5787.15
1264.52631	5911.55
1268.07163	5992.05
1271.61453	6071.45
1275.15503	6124.75
1278.69312	6087.65
1282.22882	6099.65
1285.76211	6187.25
1289.29301	6346.65
1292.82151	6543.55
1296.34761	6797.85
1299.87133	7149.95
1303.39266	7732.75
1306.9116	8600.05
1310.42815	9516.95
1313.94233	9951.75
1317.45412	9749.25
1320.96354	9164.95
1324.47058	8553.15
1327.97525	8046.45
1331.47754	7768.65
1334.97747	7714.45
1338.47502	7858.15
1341.97022	8130.85
1345.46305	8540.35
1348.95352	9083.75
1352.44163	9758.45
1355.92738	10714.95
1359.41078	12044.85
1362.89183	13188.95
1366.37053	12677.55
1369.84688	10997.35
1373.32088	9388.35
1376.79254	8315.85
1380.26186	7721.35
1383.72883	7385.05
1387.19347	7144.95
1390.65578	6890.45
1394.11575	6665.55
1397.57339	6568.45
1401.0287	6475.25
1404.48168	6429.65
1407.93234	6374.65
1411.38068	6268.25
1414.82669	6136.65
1418.27039	5955.85
1421.71177	5796.15
1425.15083	5613.35
1428.58758	5529.15
1432.02203	5512.15
1435.45416	5548.15
1438.88399	5548.95
1442.31151	5540.75
1445.73673	5551.75
1449.15965	5593.45
1452.58027	5575.45
1455.9986	5523.55
1459.41463	5525.35
1462.82837	5582.35
1466.23982	5653.85
1469.64898	5760.35
1473.05586	5840.35
1476.46045	5882.45
1479.86276	5968.85
1483.26279	6101.45
1486.66054	6292.85
1490.05602	6526.55
1493.44922	6858.55
1496.84016	7316.85
1500.22882	8034.55
1503.61521	8999.75
1506.99934	10057.95
1510.38121	10889.45
1513.76081	11121.15
1517.13816	10406.25
1520.51324	9152.85
1523.88607	7988.95
1527.25665	7256.75
1530.62498	6879.25
1533.99105	6712.75
1537.35488	6683.75
1540.71647	6695.35
1544.07581	6757.45
1547.4329	6833.85
1550.78776	6874.35
1554.14038	6896.15
1557.49077	6916.35
1560.83892	6976.55
1564.18484	7078.15
1567.52853	7250.95
1570.86999	7395.75
1574.20922	7502.25
1577.54624	7496.65
1580.88103	7231.35
1584.2136	6825.35
1587.54395	6605.65
1590.87208	6659.85
1594.19801	6879.35
1597.52172	7244.15
1600.84321	7473.15
1604.16251	7384.95
1607.47959	7136.75
1610.79447	6807.35
1614.10715	6485.75
1617.41763	6241.85
1620.7259	6102.75
1624.03199	6027.15
1627.33587	6036.95
1630.63757	6116.35
1633.93707	6323.55
1637.23439	6640.35
1640.52951	7170.65
1643.82246	7883.65
1647.11321	8786.95
1650.40179	9430.45
1653.68819	9330.15
1656.97241	8453.45
1660.25446	7415.75
1663.53433	6604.25
1666.81203	6068.65
1670.08756	5693.25
1673.36092	5423.45
1676.63211	5226.75
1679.90115	5100.85
1683.16801	4978.65
1686.43272	4880.75
1689.69527	4770.75
1692.95567	4676.05
1696.2139	4612.75
1699.46999	4546.95
1702.72392	4458.25
1705.97571	4380.95
1709.22535	4289.45
1712.47284	4248.75
1715.71819	4200.95
1718.96139	4154.35
1722.20246	4128.85
1725.44139	4058.25
1728.67818	4020.95
1731.91284	3960.05
1735.14537	3939.85
1738.37576	3907.25
1741.60403	3891.55
1744.83017	3860.95
1748.05418	3831.55
1751.27607	3837.15
1754.49584	3821.95
1757.71349	3815.45
1760.92903	3774.75
1764.14244	3765.85
1767.35375	3737.95
1770.56294	3731.45
1773.77002	3711.05
1776.97499	3676.45
1780.17785	3665.15
1783.37861	3644.85
1786.57727	3625.25
1789.77382	3632.15
1792.96828	3615.65
1796.16064	3594.25
1799.3509	3581.75
1802.53907	3572.15
1805.72514	3563.65
1808.90913	3548.75
1812.09102	3535.45
1815.27083	3530.05
1818.44856	3524.05
1821.6242	3515.35
1824.79776	3497.15
1827.96924	3502.45
1831.13864	3484.75
1834.30597	3489.75
1837.47122	3475.45
1840.6344	3467.65
1843.7955	3465.35
1846.95454	3465.45
1850.11151	3467.55
1853.26642	3450.15
1856.41926	3442.75
1859.57004	3457.05
1862.71876	3449.25
1865.86542	3459.95
1869.01003	3433.85
1872.15258	3418.45
1875.29308	3417.55
1878.43152	3414.35
1881.56792	3418.25
1884.70227	3400.25
1887.83457	3412.95
1890.96482	3391.75
1894.09304	3399.15
1897.21921	3389.15
1900.34335	3404.05
1903.46544	3373.25
1906.58551	3385.35
1909.70353	3375.15
1912.81953	3361.55
1915.93349	3361.25
1919.04543	3357.85
1922.15534	3331.85
1925.26322	3338.15
1928.36908	3326.95
1931.47292	3338.35
1934.57473	3306.95
1937.67453	3312.95
1940.77232	3291.85
1943.86808	3282.15
1946.96184	3273.65
1950.05358	3248.45
1953.14331	3256.15
1956.23103	3234.25
1959.31675	3238.25
1962.40046	3223.25
1965.48217	3231.35
1968.56188	3213.95
1971.63959	3197.15
1974.7153	3199.35
1977.78901	3182.95
1980.86073	3166.35
1983.93046	3154.95
1986.99819	3143.45
1990.06394	3122.85
1993.1277	3116.15
1996.18947	3106.95
1999.24925	3111.85
2002.30706	3093.05
2005.36288	3068.75
2008.41672	3067.45
2011.46859	3071.45
2014.51848	3058.85
2017.56639	3041.15
2020.61233	3048.05
2023.6563	3025.75
2026.6983	3015.85
2029.73833	3028.45
2032.7764	3013.55
2035.8125	3005.35
2038.84664	2994.65
2041.87881	2981.55
2044.90903	2990.15
2047.93729	2972.65
2050.96359	2974.05
2053.98794	2974.75
2057.01034	2984.15
2060.03078	2954.95
2063.04927	2951.35
2066.06582	2963.75
2069.08042	2958.85
2072.09307	2948.05
2075.10378	2956.85
2078.11255	2958.95
2081.11938	2942.95
2084.12426	2946.75
2087.12722	2938.05
2090.12824	2934.35
2093.12732	2945.45
2096.12447	2937.25
2099.11969	2939.15
2102.11299	2945.35
2105.10435	2931.55
2108.09379	2930.95
2111.08131	2926.35
2114.0669	2932.25
2117.05057	2926.85
2120.03233	2936.75
2123.01216	2941.25
2125.99008	2945.25
2128.96609	2944.05
2131.94018	2937.15
2134.91236	2959.15
2137.88263	2949.75
2140.851	2943.55
2143.81746	2945.45
2146.78201	2945.75
2149.74466	2946.65
2152.7054	2934.85
2155.66425	2944.75
2158.6212	2950.05
2161.57625	2928.85
2164.52941	2932.15
2167.48067	2934.75
2170.43004	2932.95
2173.37752	2941.95
2176.32311	2913.35
2179.26681	2921.45
2182.20863	2921.85
2185.14856	2920.25
2188.08661	2915.55
2191.02278	2910.25
2193.95707	2914.65
2196.88948	2891.55
2199.82001	2908.45
2202.74867	2901.75
2205.67545	2891.15
2208.60037	2895.45
2211.52341	2876.25
2214.44458	2880.15
2217.36388	2880.45
2220.28132	2871.25
2223.1969	2857.35
2226.11061	2853.35
2229.02246	2850.25
2231.93245	2832.65
2234.84058	2823.15
2237.74686	2837.55
2240.65128	2832.15
2243.55385	2827.65
2246.45456	2819.95
2249.35343	2800.25
2252.25044	2812.95
2255.14561	2802.85
2258.03893	2814.45
2260.93041	2809.55
2263.82004	2799.45
2266.70783	2793.85
2269.59378	2791.65
2272.4779	2783.65
2275.36017	2776.85
2278.24061	2763.35
2281.11922	2759.85
2283.996	2772.95
2286.87094	2746.25
2289.74405	2741.95
2292.61534	2733.05
2295.4848	2721.65
2298.35243	2724.65
2301.21824	2713.35
2304.08223	2726.85
2306.94439	2712.75
2309.80474	2707.45
2312.66327	2700.05
2315.51999	2709.65
2318.37489	2706.05
2321.22797	2702.15
2324.07925	2697.75
2326.92871	2689.15
2329.77637	2679.45
2332.62222	2686.35
2335.46626	2672.95
2338.3085	2670.25
2341.14893	2668.85
2343.98756	2675.25
2346.8244	2669.65
2349.65943	2662.45
2352.49267	2657.05
2355.32411	2664.35
2358.15376	2671.45
2360.98161	2666.85
2363.80768	2649.05
2366.63195	2666.35
2369.45444	2670.95
2372.27514	2659.55
2375.09405	2679.25
2377.91118	2676.85
2380.72652	2650.15
2383.54009	2634.35
2386.35187	2646.25
2389.16188	2628.15
2391.97011	2635.35
2394.77657	2609.05
2397.58125	2606.25
2400.38416	2598.65
2403.18529	2595.45
2405.98466	2596.55
2408.78226	2592.95
2411.57809	2583.65
2414.37216	2570.15
2417.16446	2572.45
2419.955	2550.15
2422.74378	2561.65
2425.5308	2550.75
2428.31606	2557.85
2431.09956	2537.95
2433.88131	2531.35
2436.6613	2557.35
2439.43954	2539.55
2442.21603	2534.85
2444.99077	2528.55
2447.76377	2542.95
2450.53501	2535.75
2453.30451	2527.05
2456.07226	2522.85
2458.83827	2533.45
2461.60254	2515.45
2464.36507	2516.35
2467.12586	2512.65
2469.88492	2515.85
2472.64224	2500.15
2475.39782	2517.15
2478.15167	2517.75
2480.90379	2512.05
2483.65417	2506.85
2486.40283	2521.35
2489.14976	2518.75
2491.89497	2516.95
2494.63845	2520.15
2497.3802	2524.05
2500.12024	2513.65
2502.85855	2505.65
2505.59514	2481.95
2508.33002	2473.45
2511.06318	2471.75
2513.79462	2475.45
2516.52435	2458.35
2519.25237	2458.75
2521.97867	2450.75
2524.70327	2452.25
2527.42616	2437.85
2530.14734	2429.25
2532.86681	2430.85
2535.58458	2439.45
2538.30065	2430.45
2541.01501	2424.05
2543.72768	2418.45
2546.43864	2415.45
2549.14791	2410.05
2551.85548	2409.75
2554.56136	2415.95
2557.26554	2399.15
2559.96803	2396.05
2562.66883	2393.15
2565.36794	2388.65
2568.06536	2383.95
2570.7611	2383.95
2573.45514	2384.35
2576.14751	2369.95
2578.83819	2365.65
2581.52719	2352.15
2584.21451	2359.95
2586.90015	2352.95
2589.58411	2343.05
2592.2664	2345.25
2594.94701	2342.35
2597.62594	2337.05
2600.30321	2322.25
2602.9788	2316.85
2605.65273	2316.15
2608.32498	2316.75
2610.99557	2329.55
2613.66449	2308.65
2616.33175	2314.55
2618.99734	2317.65
2621.66128	2310.15
2624.32355	2314.95
2626.98416	2308.15
2629.64311	2297.35
2632.30041	2297.85
2634.95605	2298.95
2637.61004	2285.15
2640.26238	2291.65
2642.91306	2278.65
2645.56209	2281.85
2648.20948	2275.55
2650.85521	2275.55
2653.4993	2265.75
2656.14175	2265.45
2658.78255	2272.95
2661.42171	2267.25
2664.05923	2273.85
2666.6951	2264.95
2669.32934	2266.05
2671.96194	2270.95
2674.59291	2274.25
2677.22224	2281.65
2679.84993	2275.25
2682.476	2275.15
2685.10043	2272.55
2687.72324	2282.25
2690.34441	2276.25
2692.96396	2272.65
2695.58188	2286.85
2698.19818	2272.95
2700.81285	2279.35
2703.4259	2291.45
2706.03733	2317.95
2708.64714	2298.35
2711.25533	2294.75
2713.86191	2285.35
2716.46687	2307.25
2719.07021	2295.45
2721.67194	2293.45
2724.27206	2295.15
2726.87057	2293.95
2729.46747	2294.85
2732.06276	2285.35
2734.65644	2285.15
2737.24852	2278.75
2739.83899	2271.05
2742.42786	2272.85
2745.01513	2253.25
2747.60079	2252.05
2750.18486	2264.65
2752.76733	2252.65
2755.3482	2250.45
2757.92747	2252.35
2760.50515	2254.55
2763.08123	2248.75
2765.65573	2241.25
2768.22863	2245.25
2770.79994	2229.55
2773.36967	2240.55
2775.9378	2228.35
2778.50435	2230.35
2781.06932	2218.85
2783.6327	2226.65
2786.1945	2223.55
2788.75471	2218.05
2791.31335	2224.75
2793.87041	2218.95
2796.42589	2214.95
2798.97979	2208.95
2801.53212	2208.75
2804.08288	2210.75
2806.63206	2197.95
2809.17967	2200.55
2811.72571	2200.55
2814.27018	2192.25
2816.81308	2198.05
2819.35442	2189.25
2821.89419	2186.05
2824.43239	2197.35
2826.96904	2198.45
2829.50412	2196.15
2832.03763	2196.55
2834.56959	2196.55
2837.1	2194.25
2839.62884	2202.65
2842.15613	2204.55
2844.68186	2221.95
2847.20604	2214.75
2849.72867	2234.55
2852.24974	2244.35
2854.76927	2245.85
2857.28724	2249.05
2859.80367	2235.45
2862.31855	2233.45
2864.83189	2232.75
2867.34368	2227.75
2869.85393	2220.45
2872.36264	2220.75
2874.8698	2236.85
2877.37543	2227.15
2879.87952	2222.85
2882.38207	2229.65
2884.88308	2231.85
2887.38256	2232.15
2889.88051	2233.15
2892.37692	2239.65
2894.8718	2235.05
2897.36515	2228.25
2899.85698	2231.15
2902.34727	2234.25
2904.83604	2244.15
2907.32328	2240.65
2909.809	2242.15
2912.29319	2243.45
2914.77587	2240.15
2917.25702	2243.55
2919.73665	2239.95
2922.21476	2234.65
2924.69136	2235.45
2927.16644	2230.25
2929.64	2225.45
2932.11205	2228.35
2934.58258	2217.15
2937.05161	2218.75
2939.51912	2224.85
2941.98513	2203.55
2944.44962	2197.65
2946.91261	2189.15
2949.37409	2183.05
2951.83407	2190.95
2954.29254	2177.45
2956.74951	2172.85
2959.20498	2180.85
2961.65895	2165.65
2964.11142	2162.95
2966.56239	2146.75
2969.01186	2163.35
2971.45984	2152.45
2973.90632	2136.55
2976.35131	2135.45
2978.7948	2139.25
2981.23681	2147.05
2983.67732	2121.45
2986.11635	2134.85
2988.55388	2120.25
2990.98993	2122.65
2993.4245	2121.85
2995.85758	2113.05
2998.28917	2104.55
3000.71928	2105.85
3003.14791	2110.75
3005.57506	2126.95
3008.00073	2105.05
3010.42493	2118.25
3012.84764	2113.85
3015.26888	2110.55
3017.68865	2111.35
3020.10694	2116.85
3022.52376	2118.95
3024.9391	2111.75
3027.35298	2099.55
3029.76539	2110.05
3032.17632	2102.85
3034.5858	2103.95
3036.9938	2106.65
3039.40034	2099.95
3041.80542	2101.85
3044.20903	2102.45
3046.61118	2112.85
3049.01187	2099.95
3051.4111	2111.65
3053.80888	2104.05
3056.20519	2108.55
3058.60005	2106.35
3060.99345	2119.95
3063.3854	2112.45
3065.7759	2094.55
3068.16494	2109.75
3070.55254	2100.65
3072.93868	2098.25
3075.32338	2107.95
3077.70662	2103.75
3080.08842	2101.25
3082.46878	2098.55
3084.84769	2116.95
3087.22515	2108.35
3089.60118	2129.35
3091.97576	2131.15
3094.3489	2127.55
3096.72061	2128.45
3099.09087	2137.55
3101.4597	2139.35
3103.82709	2146.55
3106.19305	2139.45
3108.55757	2147.25
3110.92066	2156.05
3113.28232	2159.35
3115.64255	2144.05
3118.00134	2147.55
3120.35871	2150.75
3122.71466	2160.15
3125.06917	2163.65
3127.42226	2160.75
3129.77393	2169.55
3132.12417	2179.65
3134.47299	2198.35
3136.82039	2188.65
3139.16636	2201.65
3141.51092	2211.55
3143.85406	2205.55
3146.19579	2240.55
3148.53609	2226.85
3150.87499	2242.45
3153.21246	2244.45
3155.54853	2254.85
3157.88318	2272.75
3160.21642	2271.75
3162.54826	2278.05
3164.87868	2276.85
3167.2077	2280.55
3169.5353	2294.35
3171.86151	2307.75
3174.18631	2308.45
3176.5097	2303.55
3178.83169	2315.05
3181.15228	2314.35
3183.47147	2325.75
3185.78926	2331.55
3188.10565	2329.65
3190.42065	2340.95
3192.73424	2345.05
3195.04645	2338.75
3197.35725	2357.55
3199.66667	2356.55
3201.97469	2372.35
3204.28132	2375.35
3206.58656	2380.65
3208.8904	2393.65
3211.19287	2403.35
3213.49394	2408.05
3215.79363	2408.95
3218.09193	2407.65
3220.38884	2420.15
3222.68438	2433.25
3224.97853	2429.85
3227.2713	2415.95
3229.56269	2427.55
3231.8527	2414.25
3234.14133	2416.45
3236.42858	2419.45
3238.71446	2426.55
3240.99896	2421.25
3243.28209	2422.05
3245.56384	2414.35
3247.84423	2421.05
3250.12324	2414.95
3252.40088	2417.95
3254.67715	2417.55
3256.95205	2410.65
3259.22558	2425.65
3261.49775	2415.75
3263.76855	2408.25
3266.03799	2409.75
3268.30606	2420.65
3270.57277	2397.35
3272.83812	2399.15
3275.10211	2394.05
3277.36474	2406.65
3279.62601	2413.25
3281.88593	2408.95
3284.14448	2395.35
3286.40168	2408.95
3288.65753	2389.35
3290.91202	2383.45
3293.16516	2387.75
3295.41695	2370.65
3297.66738	2366.75
3299.91647	2360.15
3302.16421	2346.85
3304.4106	2343.35
3306.65564	2336.55
3308.89933	2323.35
3311.14169	2304.65
3313.38269	2291.85
3315.62236	2275.25
3317.86068	2256.35
3320.09766	2242.05
3322.3333	2220.15
3324.5676	2224.65
3326.80056	2192.05
3329.03219	2170.75
3331.26248	-0.15
3333.49143	1.15
3335.71905	-0.25
