Data from AgNPs_FTO_APTES_UA_0.1mM_CRN_500uM_NaF_0.1M_Addition_RamanShift__17__14-54-17-776.txt Node

Date: Mon Dec 20 14:54:17 GMT 2021
User: TCL
Spectrometer: QEP01345
Trigger mode: 4
Integration Time (sec): 7.000000E0
Scans to average: 10
Electric dark correction enabled: true
Nonlinearity correction enabled: false
Boxcar width: 0
XAxis mode: Raman Shifts
Number of Pixels in Spectrum: 1044
>>>>>Begin Spectral Data<<<<<
46.04893	0.75
50.45542	0.35
54.85868	-1.25
59.25871	0.55
63.6555	23.75
68.04907	26.55
72.43941	29.15
76.82654	28.15
81.21044	29.25
85.59113	36.25
89.96862	34.15
94.34289	34.25
98.71396	34.95
103.08183	35.25
107.4465	36.85
111.80798	38.25
116.16626	40.75
120.52136	38.95
124.87327	39.35
129.222	39.35
133.56755	41.55
137.90993	42.85
142.24913	43.45
146.58517	44.05
150.91804	57.15
155.24774	60.35
159.57429	69.55
163.89768	82.45
168.21792	108.05
172.53501	132.45
176.84895	176.75
181.15975	246.85
185.46741	333.35
189.77193	463.85
194.07331	617.35
198.37157	805.85
202.6667	1011.95
206.9587	1220.95
211.24758	1428.65
215.53334	1649.25
219.81599	1873.85
224.09553	2105.05
228.37195	2348.45
232.64527	2605.75
236.91549	2838.95
241.18261	3049.95
245.44663	3247.95
249.70755	3424.45
253.96539	3556.25
258.22014	3631.45
262.4718	3673.55
266.72039	3675.35
270.96589	3632.35
275.20832	3580.95
279.44768	3487.35
283.68397	3394.85
287.91719	3325.75
292.14735	3247.45
296.37445	3202.25
300.59849	3149.15
304.81948	3127.35
309.03742	3103.45
313.25231	3065.25
317.46415	3032.05
321.67296	2985.15
325.87872	2954.45
330.08145	2934.65
334.28114	2940.25
338.47781	2943.55
342.67145	2954.15
346.86207	2974.55
351.04966	3005.25
355.23424	3053.55
359.4158	3084.75
363.59435	3125.95
367.76989	3168.55
371.94243	3185.05
376.11196	3222.45
380.27849	3264.55
384.44203	3280.45
388.60257	3319.95
392.76012	3346.75
396.91468	3384.05
401.06626	3413.45
405.21485	3436.95
409.36047	3433.15
413.50311	3429.75
417.64277	3419.85
421.77947	3418.25
425.9132	3417.05
430.04396	3426.85
434.17176	3445.45
438.2966	3465.25
442.41849	3479.65
446.53742	3495.55
450.6534	3519.95
454.76644	3562.35
458.87653	3586.45
462.98368	3583.35
467.08789	3586.55
471.18916	3618.75
475.2875	3620.45
479.38291	3649.35
483.4754	3701.35
487.56496	3773.15
491.6516	3834.55
495.73531	3874.05
499.81612	3870.05
503.89401	3856.85
507.96899	3807.65
512.04106	3761.05
516.11023	3736.45
520.1765	3731.25
524.23987	3741.65
528.30034	3735.25
532.35792	3747.45
536.41261	3726.25
540.46441	3685.75
544.51333	3631.95
548.55936	3597.65
552.60252	3592.45
556.64279	3593.05
560.6802	3587.95
564.71473	3600.05
568.7464	3622.75
572.7752	3652.55
576.80114	3684.25
580.82422	3703.45
584.84444	3748.65
588.86181	3834.85
592.87633	3872.55
596.888	3867.55
600.89682	3835.35
604.9028	3841.95
608.90594	3972.35
612.90624	4162.25
616.90371	4225.05
620.89834	4125.75
624.89015	4203.95
628.87913	4431.35
632.86528	4711.05
636.84862	4884.45
640.82913	4869.45
644.80683	4738.85
648.78172	4498.55
652.75379	4309.85
656.72306	4192.55
660.68952	4126.05
664.65319	4145.75
668.61405	4160.25
672.57211	4221.65
676.52738	4329.35
680.47986	4371.85
684.42955	4387.35
688.37646	4332.75
692.32058	4252.45
696.26192	4164.35
700.20048	4078.85
704.13626	3996.95
708.06928	3936.15
711.99952	3851.05
715.927	3800.75
719.85171	3790.55
723.77365	3787.85
727.69284	3780.85
731.60928	3768.85
735.52295	3704.15
739.43388	3685.15
743.34206	3657.85
747.24749	3676.15
751.15017	3673.05
755.05012	3693.35
758.94733	3724.95
762.8418	3772.85
766.73354	3855.35
770.62254	3907.25
774.50882	3930.85
778.39237	3879.05
782.27321	3779.25
786.15132	3686.55
790.02671	3657.15
793.89938	3658.55
797.76935	3670.65
801.6366	3708.45
805.50115	3779.55
809.36299	3890.65
813.22213	3935.65
817.07857	3879.15
820.93231	3754.35
824.78336	3624.25
828.63172	3497.25
832.47738	3448.65
836.32036	3409.45
840.16066	3386.15
843.99827	3375.65
847.8332	3373.05
851.66546	3360.85
855.49504	3353.65
859.32195	3374.45
863.1462	3408.55
866.96777	3442.85
870.78668	3480.15
874.60293	3519.55
878.41652	3592.05
882.22745	3652.25
886.03573	3709.25
889.84136	3712.15
893.64433	3651.05
897.44466	3559.45
901.24235	3472.95
905.0374	3385.55
908.8298	3324.25
912.61957	3292.05
916.40671	3263.75
920.19121	3253.95
923.97308	3251.75
927.75233	3246.75
931.52895	3251.75
935.30295	3246.05
939.07433	3227.85
942.84309	3205.55
946.60924	3189.85
950.37278	3171.75
954.13371	3170.15
957.89203	3149.05
961.64774	3153.65
965.40086	3140.45
969.15137	3121.35
972.89929	3106.55
976.64461	3097.55
980.38733	3097.05
984.12747	3075.35
987.86502	3085.45
991.59999	3112.45
995.33237	3103.05
999.06217	3145.15
1002.78939	3173.75
1006.51404	3219.25
1010.23611	3253.55
1013.95561	3276.25
1017.67255	3280.75
1021.38692	3264.75
1025.09872	3234.65
1028.80796	3190.05
1032.51465	3153.75
1036.21877	3131.95
1039.92035	3115.15
1043.61937	3099.25
1047.31584	3098.85
1051.00976	3113.75
1054.70114	3133.35
1058.38998	3139.05
1062.07627	3169.35
1065.76003	3186.35
1069.44126	3218.95
1073.11995	3230.85
1076.79611	3245.75
1080.46974	3211.45
1084.14085	3207.65
1087.80943	3164.85
1091.47549	3131.35
1095.13903	3097.15
1098.80005	3095.75
1102.45857	3073.35
1106.11456	3075.55
1109.76805	3092.05
1113.41903	3141.05
1117.06751	3246.45
1120.71348	3387.85
1124.35696	3584.65
1127.99793	3846.25
1131.63641	4072.85
1135.2724	4221.45
1138.90589	4217.85
1142.5369	4100.95
1146.16542	3920.15
1149.79145	3702.45
1153.415	3499.55
1157.03607	3360.75
1160.65467	3263.45
1164.27079	3211.45
1167.88443	3195.25
1171.49561	3216.35
1175.10432	3286.15
1178.71056	3388.35
1182.31434	3466.95
1185.91565	3510.35
1189.51451	3539.95
1193.11091	3547.25
1196.70485	3575.05
1200.29634	3600.15
1203.88538	3641.75
1207.47197	3603.25
1211.05612	3537.65
1214.63782	3454.05
1218.21708	3352.65
1221.79391	3274.75
1225.36829	3220.45
1228.94024	3171.45
1232.50976	3156.65
1236.07685	3141.35
1239.6415	3131.15
1243.20374	3145.25
1246.76355	3161.15
1250.32093	3173.55
1253.8759	3186.95
1257.42845	3212.55
1260.97859	3250.15
1264.52631	3250.25
1268.07163	3262.35
1271.61453	3261.45
1275.15503	3266.95
1278.69312	3253.45
1282.22882	3253.75
1285.76211	3271.75
1289.29301	3296.35
1292.82151	3353.95
1296.34761	3394.35
1299.87133	3475.55
1303.39266	3576.75
1306.9116	3682.75
1310.42815	3785.65
1313.94233	3868.75
1317.45412	3919.65
1320.96354	3896.95
1324.47058	3864.85
1327.97525	3848.95
1331.47754	3838.05
1334.97747	3845.85
1338.47502	3868.95
1341.97022	3921.85
1345.46305	3966.65
1348.95352	4053.65
1352.44163	4150.15
1355.92738	4257.05
1359.41078	4405.65
1362.89183	4544.85
1366.37053	4528.25
1369.84688	4366.85
1373.32088	4153.75
1376.79254	3960.85
1380.26186	3842.75
1383.72883	3769.45
1387.19347	3707.45
1390.65578	3637.15
1394.11575	3590.95
1397.57339	3539.95
1401.0287	3500.35
1404.48168	3475.75
1407.93234	3440.55
1411.38068	3380.35
1414.82669	3325.55
1418.27039	3242.75
1421.71177	3180.35
1425.15083	3104.45
1428.58758	3038.15
1432.02203	2986.25
1435.45416	2956.65
1438.88399	2931.55
1442.31151	2923.75
1445.73673	2906.05
1449.15965	2898.35
1452.58027	2893.45
1455.9986	2902.45
1459.41463	2914.95
1462.82837	2903.85
1466.23982	2952.35
1469.64898	2968.05
1473.05586	2962.55
1476.46045	2981.05
1479.86276	2978.95
1483.26279	2971.65
1486.66054	2996.05
1490.05602	3017.85
1493.44922	3032.35
1496.84016	3096.85
1500.22882	3151.15
1503.61521	3239.35
1506.99934	3349.15
1510.38121	3443.95
1513.76081	3479.35
1517.13816	3418.85
1520.51324	3304.65
1523.88607	3210.55
1527.25665	3142.95
1530.62498	3115.25
1533.99105	3132.35
1537.35488	3123.35
1540.71647	3137.35
1544.07581	3151.75
1547.4329	3160.25
1550.78776	3186.75
1554.14038	3201.25
1557.49077	3215.65
1560.83892	3226.25
1564.18484	3236.35
1567.52853	3246.05
1570.86999	3271.15
1574.20922	3298.25
1577.54624	3303.15
1580.88103	3304.45
1584.2136	3271.75
1587.54395	3234.65
1590.87208	3234.35
1594.19801	3243.75
1597.52172	3295.55
1600.84321	3318.55
1604.16251	3292.45
1607.47959	3262.25
1610.79447	3226.45
1614.10715	3174.25
1617.41763	3150.35
1620.7259	3113.45
1624.03199	3107.75
1627.33587	3110.55
1630.63757	3120.65
1633.93707	3165.65
1637.23439	3243.45
1640.52951	3345.45
1643.82246	3469.25
1647.11321	3597.35
1650.40179	3701.45
1653.68819	3697.75
1656.97241	3612.75
1660.25446	3478.65
1663.53433	3390.75
1666.81203	3344.05
1670.08756	3308.25
1673.36092	3296.55
1676.63211	3302.95
1679.90115	3272.75
1683.16801	3241.55
1686.43272	3191.95
1689.69527	3126.85
1692.95567	3060.95
1696.2139	2954.25
1699.46999	2885.65
1702.72392	2793.45
1705.97571	2704.45
1709.22535	2625.75
1712.47284	2574.95
1715.71819	2520.55
1718.96139	2485.75
1722.20246	2457.65
1725.44139	2409.95
1728.67818	2376.75
1731.91284	2347.25
1735.14537	2324.35
1738.37576	2287.45
1741.60403	2288.35
1744.83017	2258.15
1748.05418	2261.95
1751.27607	2264.75
1754.49584	2275.25
1757.71349	2289.75
1760.92903	2270.35
1764.14244	2261.85
1767.35375	2219.05
1770.56294	2193.25
1773.77002	2159.25
1776.97499	2122.45
1780.17785	2084.15
1783.37861	2053.05
1786.57727	2033.05
1789.77382	1990.05
1792.96828	1973.05
1796.16064	1942.75
1799.3509	1929.95
1802.53907	1910.65
1805.72514	1901.85
1808.90913	1890.15
1812.09102	1879.55
1815.27083	1857.95
1818.44856	1851.75
1821.6242	1852.55
1824.79776	1848.95
1827.96924	1840.85
1831.13864	1834.15
1834.30597	1821.85
1837.47122	1823.95
1840.6344	1816.45
1843.7955	1817.55
1846.95454	1808.85
1850.11151	1802.05
1853.26642	1799.95
1856.41926	1797.95
1859.57004	1786.35
1862.71876	1791.95
1865.86542	1785.95
1869.01003	1778.25
1872.15258	1775.85
1875.29308	1768.85
1878.43152	1760.35
1881.56792	1752.85
1884.70227	1759.75
1887.83457	1755.05
1890.96482	1744.85
1894.09304	1746.65
1897.21921	1734.05
1900.34335	1734.85
1903.46544	1723.75
1906.58551	1731.05
1909.70353	1721.05
1912.81953	1717.85
1915.93349	1710.25
1919.04543	1712.65
1922.15534	1701.55
1925.26322	1696.15
1928.36908	1695.65
1931.47292	1682.85
1934.57473	1680.95
1937.67453	1673.75
1940.77232	1670.35
1943.86808	1671.75
1946.96184	1654.25
1950.05358	1640.65
1953.14331	1649.55
1956.23103	1635.55
1959.31675	1633.25
1962.40046	1625.15
1965.48217	1625.05
1968.56188	1617.25
1971.63959	1610.95
1974.7153	1598.35
1977.78901	1592.85
1980.86073	1588.05
1983.93046	1580.15
1986.99819	1567.75
1990.06394	1568.05
1993.1277	1562.55
1996.18947	1559.15
1999.24925	1558.65
2002.30706	1556.55
2005.36288	1540.45
2008.41672	1529.45
2011.46859	1532.05
2014.51848	1525.15
2017.56639	1512.95
2020.61233	1516.35
2023.6563	1502.65
2026.6983	1504.05
2029.73833	1494.25
2032.7764	1491.25
2035.8125	1486.35
2038.84664	1481.85
2041.87881	1476.65
2044.90903	1467.95
2047.93729	1474.65
2050.96359	1462.75
2053.98794	1460.15
2057.01034	1465.45
2060.03078	1459.95
2063.04927	1460.85
2066.06582	1455.15
2069.08042	1449.65
2072.09307	1448.25
2075.10378	1453.95
2078.11255	1442.55
2081.11938	1445.75
2084.12426	1438.65
2087.12722	1442.65
2090.12824	1441.85
2093.12732	1436.25
2096.12447	1436.65
2099.11969	1441.85
2102.11299	1433.95
2105.10435	1430.15
2108.09379	1438.15
2111.08131	1427.95
2114.0669	1431.65
2117.05057	1428.35
2120.03233	1435.55
2123.01216	1428.75
2125.99008	1435.25
2128.96609	1428.75
2131.94018	1432.15
2134.91236	1430.45
2137.88263	1428.45
2140.851	1427.05
2143.81746	1426.85
2146.78201	1431.85
2149.74466	1426.75
2152.7054	1422.25
2155.66425	1426.95
2158.6212	1413.75
2161.57625	1426.35
2164.52941	1418.75
2167.48067	1409.95
2170.43004	1408.55
2173.37752	1409.75
2176.32311	1408.45
2179.26681	1409.95
2182.20863	1402.15
2185.14856	1414.55
2188.08661	1397.85
2191.02278	1400.05
2193.95707	1398.05
2196.88948	1395.35
2199.82001	1398.85
2202.74867	1385.95
2205.67545	1377.65
2208.60037	1381.75
2211.52341	1375.05
2214.44458	1364.85
2217.36388	1368.05
2220.28132	1366.05
2223.1969	1360.35
2226.11061	1347.55
2229.02246	1345.35
2231.93245	1339.35
2234.84058	1335.85
2237.74686	1336.65
2240.65128	1334.15
2243.55385	1334.15
2246.45456	1335.35
2249.35343	1331.85
2252.25044	1322.15
2255.14561	1314.85
2258.03893	1328.05
2260.93041	1325.65
2263.82004	1317.75
2266.70783	1303.35
2269.59378	1297.85
2272.4779	1286.35
2275.36017	1293.85
2278.24061	1281.55
2281.11922	1277.15
2283.996	1284.65
2286.87094	1274.95
2289.74405	1269.75
2292.61534	1271.45
2295.4848	1261.15
2298.35243	1270.55
2301.21824	1260.25
2304.08223	1255.65
2306.94439	1251.45
2309.80474	1249.05
2312.66327	1250.55
2315.51999	1249.45
2318.37489	1252.55
2321.22797	1243.15
2324.07925	1245.35
2326.92871	1246.35
2329.77637	1242.95
2332.62222	1235.05
2335.46626	1222.45
2338.3085	1227.95
2341.14893	1223.75
2343.98756	1218.15
2346.8244	1220.35
2349.65943	1207.05
2352.49267	1214.65
2355.32411	1216.65
2358.15376	1210.05
2360.98161	1210.05
2363.80768	1197.55
2366.63195	1200.35
2369.45444	1199.45
2372.27514	1198.05
2375.09405	1199.55
2377.91118	1197.65
2380.72652	1188.25
2383.54009	1186.05
2386.35187	1187.95
2389.16188	1180.55
2391.97011	1175.45
2394.77657	1173.35
2397.58125	1173.65
2400.38416	1167.75
2403.18529	1167.65
2405.98466	1157.45
2408.78226	1169.35
2411.57809	1150.95
2414.37216	1143.45
2417.16446	1168.75
2419.955	1143.65
2422.74378	1148.65
2425.5308	1141.25
2428.31606	1149.85
2431.09956	1131.55
2433.88131	1135.15
2436.6613	1134.95
2439.43954	1131.25
2442.21603	1130.65
2444.99077	1125.55
2447.76377	1119.55
2450.53501	1124.05
2453.30451	1122.85
2456.07226	1119.25
2458.83827	1117.45
2461.60254	1106.95
2464.36507	1110.25
2467.12586	1102.25
2469.88492	1108.45
2472.64224	1105.75
2475.39782	1101.05
2478.15167	1111.25
2480.90379	1111.55
2483.65417	1099.05
2486.40283	1106.75
2489.14976	1092.25
2491.89497	1094.25
2494.63845	1100.15
2497.3802	1095.45
2500.12024	1087.15
2502.85855	1090.95
2505.59514	1082.85
2508.33002	1085.95
2511.06318	1085.45
2513.79462	1072.35
2516.52435	1076.05
2519.25237	1069.15
2521.97867	1066.05
2524.70327	1066.15
2527.42616	1060.85
2530.14734	1064.65
2532.86681	1053.35
2535.58458	1057.65
2538.30065	1074.45
2541.01501	1067.55
2543.72768	1045.75
2546.43864	1052.35
2549.14791	1039.75
2551.85548	1039.35
2554.56136	1031.55
2557.26554	1032.25
2559.96803	1027.85
2562.66883	1024.55
2565.36794	1029.75
2568.06536	1023.05
2570.7611	1028.05
2573.45514	1015.45
2576.14751	1026.15
2578.83819	1012.65
2581.52719	1021.55
2584.21451	1014.85
2586.90015	1007.15
2589.58411	1004.25
2592.2664	1007.35
2594.94701	992.25
2597.62594	999.35
2600.30321	992.75
2602.9788	995.85
2605.65273	991.25
2608.32498	985.65
2610.99557	988.95
2613.66449	983.25
2616.33175	980.35
2618.99734	976.65
2621.66128	982.25
2624.32355	973.85
2626.98416	975.05
2629.64311	974.45
2632.30041	974.45
2634.95605	967.05
2637.61004	973.35
2640.26238	975.45
2642.91306	959.15
2645.56209	965.65
2648.20948	966.75
2650.85521	960.95
2653.4993	960.25
2656.14175	970.15
2658.78255	960.75
2661.42171	963.05
2664.05923	952.55
2666.6951	953.25
2669.32934	952.05
2671.96194	955.85
2674.59291	952.55
2677.22224	955.95
2679.84993	954.55
2682.476	957.05
2685.10043	952.25
2687.72324	953.25
2690.34441	949.25
2692.96396	950.95
2695.58188	954.15
2698.19818	947.65
2700.81285	948.35
2703.4259	962.15
2706.03733	982.95
2708.64714	967.25
2711.25533	961.85
2713.86191	960.95
2716.46687	961.25
2719.07021	957.25
2721.67194	946.25
2724.27206	950.95
2726.87057	955.15
2729.46747	949.55
2732.06276	941.15
2734.65644	940.95
2737.24852	938.85
2739.83899	944.65
2742.42786	939.15
2745.01513	940.15
2747.60079	949.35
2750.18486	936.75
2752.76733	936.05
2755.3482	940.15
2757.92747	930.45
2760.50515	924.55
2763.08123	925.85
2765.65573	920.35
2768.22863	924.15
2770.79994	911.05
2773.36967	923.45
2775.9378	921.65
2778.50435	908.05
2781.06932	914.65
2783.6327	916.25
2786.1945	919.45
2788.75471	919.05
2791.31335	908.25
2793.87041	906.45
2796.42589	906.65
2798.97979	907.15
2801.53212	900.75
2804.08288	899.75
2806.63206	892.55
2809.17967	902.55
2811.72571	893.35
2814.27018	898.35
2816.81308	895.65
2819.35442	894.35
2821.89419	897.55
2824.43239	894.45
2826.96904	898.65
2829.50412	892.25
2832.03763	889.15
2834.56959	888.45
2837.1	885.95
2839.62884	890.85
2842.15613	895.65
2844.68186	894.65
2847.20604	891.15
2849.72867	891.65
2852.24974	893.05
2854.76927	899.95
2857.28724	894.75
2859.80367	891.75
2862.31855	889.45
2864.83189	884.75
2867.34368	889.45
2869.85393	887.65
2872.36264	895.45
2874.8698	897.65
2877.37543	896.65
2879.87952	896.55
2882.38207	897.85
2884.88308	903.95
2887.38256	902.15
2889.88051	906.45
2892.37692	914.35
2894.8718	906.75
2897.36515	909.65
2899.85698	919.35
2902.34727	925.15
2904.83604	923.05
2907.32328	925.55
2909.809	933.45
2912.29319	930.45
2914.77587	934.95
2917.25702	946.05
2919.73665	948.05
2922.21476	949.65
2924.69136	953.85
2927.16644	951.05
2929.64	961.65
2932.11205	959.65
2934.58258	957.35
2937.05161	960.85
2939.51912	963.85
2941.98513	968.45
2944.44962	964.35
2946.91261	969.35
2949.37409	969.95
2951.83407	968.05
2954.29254	967.95
2956.74951	957.95
2959.20498	958.05
2961.65895	950.35
2964.11142	951.65
2966.56239	941.05
2969.01186	937.15
2971.45984	933.25
2973.90632	923.35
2976.35131	914.15
2978.7948	919.15
2981.23681	909.85
2983.67732	911.85
2986.11635	908.85
2988.55388	908.75
2990.98993	903.15
2993.4245	896.15
2995.85758	901.35
2998.28917	902.95
3000.71928	900.05
3003.14791	901.55
3005.57506	907.85
3008.00073	900.45
3010.42493	897.45
3012.84764	902.15
3015.26888	905.55
3017.68865	906.45
3020.10694	904.45
3022.52376	912.65
3024.9391	906.45
3027.35298	898.35
3029.76539	909.95
3032.17632	905.45
3034.5858	898.15
3036.9938	913.75
3039.40034	903.95
3041.80542	905.55
3044.20903	901.25
3046.61118	900.25
3049.01187	899.95
3051.4111	902.55
3053.80888	904.05
3056.20519	911.15
3058.60005	905.15
3060.99345	909.05
3063.3854	910.65
3065.7759	909.25
3068.16494	910.15
3070.55254	915.05
3072.93868	918.55
3075.32338	919.75
3077.70662	916.45
3080.08842	924.05
3082.46878	935.05
3084.84769	929.15
3087.22515	930.15
3089.60118	947.15
3091.97576	939.25
3094.3489	945.75
3096.72061	951.15
3099.09087	955.35
3101.4597	959.65
3103.82709	963.25
3106.19305	965.95
3108.55757	979.25
3110.92066	975.85
3113.28232	978.55
3115.64255	987.25
3118.00134	990.65
3120.35871	993.65
3122.71466	994.85
3125.06917	1001.65
3127.42226	1001.05
3129.77393	1016.85
3132.12417	1015.85
3134.47299	1018.35
3136.82039	1016.45
3139.16636	1031.05
3141.51092	1039.75
3143.85406	1043.45
3146.19579	1053.65
3148.53609	1066.05
3150.87499	1070.05
3153.21246	1075.15
3155.54853	1092.55
3157.88318	1093.85
3160.21642	1098.45
3162.54826	1105.65
3164.87868	1114.95
3167.2077	1116.65
3169.5353	1124.45
3171.86151	1126.15
3174.18631	1135.75
3176.5097	1146.65
3178.83169	1140.45
3181.15228	1153.05
3183.47147	1156.15
3185.78926	1157.75
3188.10565	1158.25
3190.42065	1171.65
3192.73424	1166.45
3195.04645	1175.55
3197.35725	1182.25
3199.66667	1189.35
3201.97469	1191.95
3204.28132	1202.15
3206.58656	1207.95
3208.8904	1205.05
3211.19287	1211.85
3213.49394	1215.35
3215.79363	1229.75
3218.09193	1227.25
3220.38884	1242.15
3222.68438	1242.45
3224.97853	1237.45
3227.2713	1233.95
3229.56269	1230.75
3231.8527	1244.15
3234.14133	1238.75
3236.42858	1243.35
3238.71446	1228.75
3240.99896	1238.65
3243.28209	1240.55
3245.56384	1240.85
3247.84423	1245.45
3250.12324	1244.25
3252.40088	1245.55
3254.67715	1243.25
3256.95205	1242.05
3259.22558	1253.75
3261.49775	1246.05
3263.76855	1248.75
3266.03799	1236.15
3268.30606	1240.45
3270.57277	1240.05
3272.83812	1239.05
3275.10211	1233.55
3277.36474	1248.75
3279.62601	1239.75
3281.88593	1244.05
3284.14448	1241.75
3286.40168	1235.25
3288.65753	1235.35
3290.91202	1238.05
3293.16516	1239.85
3295.41695	1228.95
3297.66738	1221.85
3299.91647	1225.35
3302.16421	1216.15
3304.4106	1214.95
3306.65564	1209.95
3308.89933	1208.15
3311.14169	1204.05
3313.38269	1201.25
3315.62236	1186.85
3317.86068	1181.25
3320.09766	1168.55
3322.3333	1163.05
3324.5676	1168.15
3326.80056	1158.95
3329.03219	1142.35
3331.26248	-0.05
3333.49143	0.45
3335.71905	0.25
