Data from AgNPs_FTO_APTES_UA_0.1mM_CRN_1000uM_NaF_0.1M_Addition_RamanShift__31__15-50-17-839.txt Node

Date: Mon Dec 20 15:50:17 GMT 2021
User: TCL
Spectrometer: QEP01345
Trigger mode: 4
Integration Time (sec): 7.000000E0
Scans to average: 10
Electric dark correction enabled: true
Nonlinearity correction enabled: false
Boxcar width: 0
XAxis mode: Raman Shifts
Number of Pixels in Spectrum: 1044
>>>>>Begin Spectral Data<<<<<
46.04893	0.425
50.45542	0.125
54.85868	-1.575
59.25871	1.825
63.6555	23.925
68.04907	23.325
72.43941	25.225
76.82654	26.625
81.21044	25.725
85.59113	31.025
89.96862	28.925
94.34289	34.025
98.71396	32.925
103.08183	32.725
107.4465	35.325
111.80798	39.125
116.16626	34.025
120.52136	42.125
124.87327	40.925
129.222	37.825
133.56755	38.525
137.90993	43.825
142.24913	41.725
146.58517	45.225
150.91804	53.025
155.24774	60.525
159.57429	66.125
163.89768	88.025
168.21792	107.725
172.53501	139.125
176.84895	192.025
181.15975	257.225
185.46741	356.225
189.77193	487.425
194.07331	644.125
198.37157	835.725
202.6667	1038.925
206.9587	1238.425
211.24758	1435.525
215.53334	1642.025
219.81599	1850.925
224.09553	2074.525
228.37195	2329.125
232.64527	2622.825
236.91549	2916.725
241.18261	3169.525
245.44663	3385.525
249.70755	3553.325
253.96539	3692.525
258.22014	3773.925
262.4718	3795.825
266.72039	3797.325
270.96589	3765.925
275.20832	3699.725
279.44768	3605.925
283.68397	3506.225
287.91719	3441.425
292.14735	3442.225
296.37445	3534.525
300.59849	3715.225
304.81948	3915.225
309.03742	4048.225
313.25231	4042.625
317.46415	3810.725
321.67296	3443.325
325.87872	3139.825
330.08145	2974.925
334.28114	2946.925
338.47781	2991.125
342.67145	3068.325
346.86207	3219.525
351.04966	3454.925
355.23424	3733.325
359.4158	3964.925
363.59435	4102.525
367.76989	4156.625
371.94243	4195.825
376.11196	4185.125
380.27849	4192.525
384.44203	4146.725
388.60257	4092.225
392.76012	4028.725
396.91468	4033.525
401.06626	4098.725
405.21485	4143.725
409.36047	3998.525
413.50311	3717.325
417.64277	3407.325
421.77947	3236.825
425.9132	3127.525
430.04396	3082.025
434.17176	3061.525
438.2966	3100.725
442.41849	3161.325
446.53742	3249.525
450.6534	3308.325
454.76644	3339.125
458.87653	3345.825
462.98368	3314.825
467.08789	3267.725
471.18916	3226.825
475.2875	3193.125
479.38291	3156.525
483.4754	3203.625
487.56496	3283.925
491.6516	3394.125
495.73531	3446.825
499.81612	3406.325
503.89401	3343.825
507.96899	3350.525
512.04106	3415.825
516.11023	3542.325
520.1765	3694.425
524.23987	3783.125
528.30034	3778.725
532.35792	3700.325
536.41261	3521.725
540.46441	3320.325
544.51333	3154.825
548.55936	3074.325
552.60252	3085.425
556.64279	3107.925
560.6802	3147.725
564.71473	3208.925
568.7464	3391.925
572.7752	3480.725
576.80114	3358.825
580.82422	3188.525
584.84444	3166.925
588.86181	3200.825
592.87633	3225.725
596.888	3242.425
600.89682	3370.125
604.9028	3849.225
608.90594	5196.425
612.90624	7071.525
616.90371	7219.125
620.89834	5407.525
624.89015	4710.625
628.87913	4949.425
632.86528	5407.125
636.84862	5666.325
640.82913	5489.425
644.80683	4891.325
648.78172	4249.225
652.75379	3866.725
656.72306	3749.425
660.68952	3732.725
664.65319	3587.225
668.61405	3317.725
672.57211	3178.925
676.52738	3187.425
680.47986	3190.125
684.42955	3179.925
688.37646	3120.025
692.32058	3106.325
696.26192	3084.325
700.20048	3095.225
704.13626	3086.125
708.06928	3059.425
711.99952	3017.125
715.927	3020.425
719.85171	3095.625
723.77365	3159.625
727.69284	3157.525
731.60928	3086.225
735.52295	3003.725
739.43388	2938.425
743.34206	2949.225
747.24749	2969.925
751.15017	2994.025
755.05012	3013.525
758.94733	3169.625
762.8418	3548.925
766.73354	4249.525
770.62254	4982.325
774.50882	5438.225
778.39237	5323.625
782.27321	4558.625
786.15132	3747.025
790.02671	3298.225
793.89938	3154.725
797.76935	3136.025
801.6366	3268.825
805.50115	3569.825
809.36299	3909.925
813.22213	4041.025
817.07857	3901.925
820.93231	3584.525
824.78336	3259.525
828.63172	3026.725
832.47738	2893.725
836.32036	2838.325
840.16066	2786.025
843.99827	2751.325
847.8332	2736.925
851.66546	2728.925
855.49504	2741.725
859.32195	2751.625
863.1462	2772.325
866.96777	2845.025
870.78668	2964.825
874.60293	3147.525
878.41652	3380.725
882.22745	3630.925
886.03573	3769.425
889.84136	3781.925
893.64433	3605.225
897.44466	3335.225
901.24235	3069.125
905.0374	2875.125
908.8298	2731.825
912.61957	2653.425
916.40671	2618.525
920.19121	2591.425
923.97308	2578.725
927.75233	2592.825
931.52895	2645.225
935.30295	2622.725
939.07433	2537.225
942.84309	2447.225
946.60924	2412.225
950.37278	2401.525
954.13371	2385.325
957.89203	2371.425
961.64774	2366.525
965.40086	2371.025
969.15137	2343.425
972.89929	2329.225
976.64461	2338.625
980.38733	2347.725
984.12747	2346.025
987.86502	2364.225
991.59999	2401.425
995.33237	2448.725
999.06217	2540.225
1002.78939	2667.725
1006.51404	2805.725
1010.23611	2981.225
1013.95561	3095.625
1017.67255	3135.125
1021.38692	3077.025
1025.09872	2953.525
1028.80796	2797.525
1032.51465	2668.725
1036.21877	2578.425
1039.92035	2535.025
1043.61937	2542.625
1047.31584	2557.625
1051.00976	2581.225
1054.70114	2603.725
1058.38998	2628.725
1062.07627	2700.825
1065.76003	2749.825
1069.44126	2790.525
1073.11995	2793.525
1076.79611	2810.725
1080.46974	2821.925
1084.14085	2836.625
1087.80943	2881.225
1091.47549	2865.925
1095.13903	2779.425
1098.80005	2665.125
1102.45857	2573.325
1106.11456	2592.325
1109.76805	2664.025
1113.41903	2828.825
1117.06751	3080.525
1120.71348	3430.625
1124.35696	3882.725
1127.99793	4382.025
1131.63641	4712.025
1135.2724	4762.725
1138.90589	4640.025
1142.5369	4388.625
1146.16542	4018.125
1149.79145	3590.125
1153.415	3240.025
1157.03607	2983.425
1160.65467	2867.125
1164.27079	2868.225
1167.88443	2932.625
1171.49561	3141.125
1175.10432	3537.125
1178.71056	4150.025
1182.31434	4721.325
1185.91565	4962.325
1189.51451	4896.725
1193.11091	4742.925
1196.70485	4674.325
1200.29634	4744.925
1203.88538	4766.625
1207.47197	4525.625
1211.05612	4138.125
1214.63782	3748.525
1218.21708	3386.525
1221.79391	3107.225
1225.36829	2910.125
1228.94024	2788.125
1232.50976	2704.225
1236.07685	2672.225
1239.6415	2671.225
1243.20374	2703.925
1246.76355	2746.925
1250.32093	2769.025
1253.8759	2812.525
1257.42845	2849.825
1260.97859	2933.925
1264.52631	3004.925
1268.07163	3085.125
1271.61453	3141.525
1275.15503	3169.525
1278.69312	3124.625
1282.22882	3094.725
1285.76211	3145.625
1289.29301	3259.925
1292.82151	3387.225
1296.34761	3571.725
1299.87133	3844.725
1303.39266	4329.425
1306.9116	5048.525
1310.42815	5773.925
1313.94233	5991.725
1317.45412	5596.425
1320.96354	4956.825
1324.47058	4425.025
1327.97525	4072.825
1331.47754	3854.525
1334.97747	3817.125
1338.47502	3919.925
1341.97022	4174.025
1345.46305	4555.525
1348.95352	5113.725
1352.44163	5769.525
1355.92738	6635.925
1359.41078	7818.125
1362.89183	8774.825
1366.37053	8323.325
1369.84688	6950.825
1373.32088	5733.325
1376.79254	4861.725
1380.26186	4335.825
1383.72883	4006.625
1387.19347	3765.225
1390.65578	3543.925
1394.11575	3398.625
1397.57339	3285.125
1401.0287	3197.025
1404.48168	3135.625
1407.93234	3058.025
1411.38068	2978.125
1414.82669	2912.625
1418.27039	2864.425
1421.71177	2806.025
1425.15083	2731.925
1428.58758	2671.725
1432.02203	2629.225
1435.45416	2617.025
1438.88399	2602.025
1442.31151	2554.225
1445.73673	2575.125
1449.15965	2578.025
1452.58027	2561.525
1455.9986	2530.025
1459.41463	2521.825
1462.82837	2545.825
1466.23982	2609.425
1469.64898	2666.925
1473.05586	2697.225
1476.46045	2724.125
1479.86276	2787.925
1483.26279	2879.625
1486.66054	3014.925
1490.05602	3210.225
1493.44922	3518.325
1496.84016	3984.225
1500.22882	4710.925
1503.61521	5726.925
1506.99934	6852.125
1510.38121	7642.325
1513.76081	7615.525
1517.13816	6754.425
1520.51324	5504.825
1523.88607	4485.525
1527.25665	3868.425
1530.62498	3568.625
1533.99105	3443.025
1537.35488	3379.325
1540.71647	3393.525
1544.07581	3456.425
1547.4329	3540.625
1550.78776	3622.925
1554.14038	3682.025
1557.49077	3708.225
1560.83892	3762.825
1564.18484	3865.825
1567.52853	4073.725
1570.86999	4250.925
1574.20922	4371.625
1577.54624	4344.325
1580.88103	4065.325
1584.2136	3696.025
1587.54395	3427.725
1590.87208	3382.625
1594.19801	3466.525
1597.52172	3664.225
1600.84321	3744.425
1604.16251	3660.725
1607.47959	3553.825
1610.79447	3444.025
1614.10715	3317.725
1617.41763	3219.725
1620.7259	3156.725
1624.03199	3132.625
1627.33587	3139.625
1630.63757	3178.125
1633.93707	3274.825
1637.23439	3445.225
1640.52951	3757.125
1643.82246	4284.025
1647.11321	4973.525
1650.40179	5549.625
1653.68819	5568.125
1656.97241	4936.025
1660.25446	4240.025
1663.53433	3711.425
1666.81203	3368.825
1670.08756	3118.425
1673.36092	2943.525
1676.63211	2821.325
1679.90115	2711.225
1683.16801	2617.025
1686.43272	2537.525
1689.69527	2470.725
1692.95567	2402.625
1696.2139	2366.925
1699.46999	2319.625
1702.72392	2258.525
1705.97571	2180.125
1709.22535	2129.625
1712.47284	2071.025
1715.71819	2033.925
1718.96139	1995.525
1722.20246	1965.925
1725.44139	1952.425
1728.67818	1914.025
1731.91284	1883.425
1735.14537	1853.825
1738.37576	1832.025
1741.60403	1816.225
1744.83017	1803.625
1748.05418	1793.125
1751.27607	1787.325
1754.49584	1778.325
1757.71349	1770.725
1760.92903	1749.425
1764.14244	1739.625
1767.35375	1718.725
1770.56294	1699.725
1773.77002	1683.125
1776.97499	1654.925
1780.17785	1640.625
1783.37861	1608.325
1786.57727	1601.225
1789.77382	1581.325
1792.96828	1578.925
1796.16064	1562.225
1799.3509	1559.925
1802.53907	1542.925
1805.72514	1528.125
1808.90913	1530.525
1812.09102	1530.025
1815.27083	1521.725
1818.44856	1508.925
1821.6242	1513.025
1824.79776	1494.925
1827.96924	1493.225
1831.13864	1478.225
1834.30597	1481.125
1837.47122	1482.625
1840.6344	1466.125
1843.7955	1476.125
1846.95454	1464.825
1850.11151	1460.325
1853.26642	1462.125
1856.41926	1455.625
1859.57004	1460.925
1862.71876	1459.125
1865.86542	1449.625
1869.01003	1442.325
1872.15258	1443.325
1875.29308	1434.825
1878.43152	1433.725
1881.56792	1431.125
1884.70227	1423.225
1887.83457	1413.625
1890.96482	1417.725
1894.09304	1414.025
1897.21921	1409.025
1900.34335	1403.825
1903.46544	1409.625
1906.58551	1403.825
1909.70353	1395.425
1912.81953	1398.625
1915.93349	1391.725
1919.04543	1391.925
1922.15534	1382.325
1925.26322	1385.525
1928.36908	1367.425
1931.47292	1369.225
1934.57473	1365.625
1937.67453	1360.125
1940.77232	1351.325
1943.86808	1357.325
1946.96184	1347.225
1950.05358	1335.525
1953.14331	1335.125
1956.23103	1324.825
1959.31675	1329.225
1962.40046	1320.925
1965.48217	1315.125
1968.56188	1311.225
1971.63959	1318.625
1974.7153	1312.025
1977.78901	1305.525
1980.86073	1296.625
1983.93046	1289.525
1986.99819	1282.625
1990.06394	1281.125
1993.1277	1270.925
1996.18947	1262.925
1999.24925	1262.825
2002.30706	1256.725
2005.36288	1247.625
2008.41672	1241.425
2011.46859	1242.525
2014.51848	1242.025
2017.56639	1235.125
2020.61233	1236.025
2023.6563	1219.425
2026.6983	1220.925
2029.73833	1222.725
2032.7764	1214.225
2035.8125	1214.125
2038.84664	1198.525
2041.87881	1207.125
2044.90903	1201.425
2047.93729	1199.225
2050.96359	1196.325
2053.98794	1204.325
2057.01034	1196.325
2060.03078	1190.925
2063.04927	1190.125
2066.06582	1198.525
2069.08042	1193.325
2072.09307	1180.425
2075.10378	1180.025
2078.11255	1179.525
2081.11938	1181.425
2084.12426	1180.025
2087.12722	1164.825
2090.12824	1177.825
2093.12732	1180.725
2096.12447	1181.625
2099.11969	1169.425
2102.11299	1172.425
2105.10435	1167.125
2108.09379	1175.825
2111.08131	1171.625
2114.0669	1175.425
2117.05057	1173.325
2120.03233	1177.125
2123.01216	1167.525
2125.99008	1174.525
2128.96609	1178.625
2131.94018	1183.825
2134.91236	1183.325
2137.88263	1169.025
2140.851	1179.525
2143.81746	1185.925
2146.78201	1168.525
2149.74466	1169.625
2152.7054	1170.425
2155.66425	1170.825
2158.6212	1170.625
2161.57625	1165.225
2164.52941	1160.125
2167.48067	1160.725
2170.43004	1160.825
2173.37752	1157.425
2176.32311	1147.725
2179.26681	1157.825
2182.20863	1157.625
2185.14856	1154.025
2188.08661	1152.325
2191.02278	1150.425
2193.95707	1140.525
2196.88948	1139.225
2199.82001	1135.325
2202.74867	1136.725
2205.67545	1138.825
2208.60037	1130.925
2211.52341	1132.325
2214.44458	1121.725
2217.36388	1128.625
2220.28132	1123.325
2223.1969	1116.225
2226.11061	1116.225
2229.02246	1103.425
2231.93245	1102.925
2234.84058	1102.525
2237.74686	1106.225
2240.65128	1109.025
2243.55385	1098.325
2246.45456	1094.625
2249.35343	1092.125
2252.25044	1100.225
2255.14561	1095.425
2258.03893	1106.325
2260.93041	1119.325
2263.82004	1097.325
2266.70783	1101.625
2269.59378	1093.625
2272.4779	1087.725
2275.36017	1080.725
2278.24061	1077.925
2281.11922	1075.425
2283.996	1077.225
2286.87094	1072.225
2289.74405	1062.925
2292.61534	1062.825
2295.4848	1061.425
2298.35243	1057.625
2301.21824	1063.925
2304.08223	1057.625
2306.94439	1046.925
2309.80474	1054.025
2312.66327	1051.725
2315.51999	1047.825
2318.37489	1050.925
2321.22797	1047.325
2324.07925	1040.525
2326.92871	1047.625
2329.77637	1036.625
2332.62222	1044.625
2335.46626	1034.025
2338.3085	1028.025
2341.14893	1029.125
2343.98756	1030.525
2346.8244	1024.825
2349.65943	1017.525
2352.49267	1031.525
2355.32411	1030.225
2358.15376	1027.125
2360.98161	1030.625
2363.80768	1028.425
2366.63195	1039.125
2369.45444	1044.625
2372.27514	1040.825
2375.09405	1045.125
2377.91118	1037.725
2380.72652	1028.825
2383.54009	1033.625
2386.35187	1030.225
2389.16188	1025.925
2391.97011	1024.725
2394.77657	1012.025
2397.58125	1008.825
2400.38416	1003.825
2403.18529	995.825
2405.98466	1002.525
2408.78226	996.825
2411.57809	994.225
2414.37216	988.025
2417.16446	987.925
2419.955	993.525
2422.74378	981.225
2425.5308	980.425
2428.31606	981.925
2431.09956	972.425
2433.88131	978.925
2436.6613	982.025
2439.43954	978.225
2442.21603	972.025
2444.99077	969.225
2447.76377	976.625
2450.53501	969.525
2453.30451	981.825
2456.07226	966.825
2458.83827	969.625
2461.60254	977.225
2464.36507	970.925
2467.12586	963.725
2469.88492	967.925
2472.64224	967.125
2475.39782	976.325
2478.15167	972.525
2480.90379	968.625
2483.65417	970.825
2486.40283	979.825
2489.14976	979.425
2491.89497	986.325
2494.63845	988.925
2497.3802	985.325
2500.12024	975.025
2502.85855	972.725
2505.59514	963.725
2508.33002	961.925
2511.06318	954.125
2513.79462	943.925
2516.52435	931.725
2519.25237	926.125
2521.97867	929.225
2524.70327	921.025
2527.42616	924.325
2530.14734	925.225
2532.86681	922.225
2535.58458	909.625
2538.30065	919.925
2541.01501	909.825
2543.72768	914.525
2546.43864	913.125
2549.14791	915.325
2551.85548	909.425
2554.56136	913.325
2557.26554	910.325
2559.96803	907.325
2562.66883	909.025
2565.36794	899.825
2568.06536	893.025
2570.7611	903.325
2573.45514	899.025
2576.14751	890.525
2578.83819	887.625
2581.52719	886.925
2584.21451	885.625
2586.90015	882.125
2589.58411	876.125
2592.2664	878.025
2594.94701	866.825
2597.62594	881.925
2600.30321	874.025
2602.9788	875.325
2605.65273	870.525
2608.32498	868.325
2610.99557	864.925
2613.66449	868.425
2616.33175	871.025
2618.99734	866.425
2621.66128	869.425
2624.32355	865.925
2626.98416	867.425
2629.64311	855.525
2632.30041	852.025
2634.95605	855.725
2637.61004	849.425
2640.26238	848.825
2642.91306	847.425
2645.56209	846.725
2648.20948	844.525
2650.85521	847.725
2653.4993	845.625
2656.14175	840.925
2658.78255	848.325
2661.42171	844.225
2664.05923	845.425
2666.6951	842.025
2669.32934	843.125
2671.96194	848.225
2674.59291	849.625
2677.22224	852.425
2679.84993	849.225
2682.476	850.325
2685.10043	852.625
2687.72324	848.925
2690.34441	850.425
2692.96396	845.825
2695.58188	850.325
2698.19818	851.525
2700.81285	857.225
2703.4259	868.625
2706.03733	903.025
2708.64714	885.725
2711.25533	876.425
2713.86191	868.925
2716.46687	861.125
2719.07021	862.425
2721.67194	855.425
2724.27206	855.825
2726.87057	861.625
2729.46747	854.325
2732.06276	856.025
2734.65644	852.425
2737.24852	849.025
2739.83899	844.325
2742.42786	846.825
2745.01513	840.025
2747.60079	844.125
2750.18486	839.525
2752.76733	835.925
2755.3482	839.125
2757.92747	836.025
2760.50515	833.425
2763.08123	835.125
2765.65573	832.725
2768.22863	825.525
2770.79994	829.425
2773.36967	829.325
2775.9378	826.025
2778.50435	815.425
2781.06932	830.225
2783.6327	831.625
2786.1945	828.025
2788.75471	837.225
2791.31335	829.625
2793.87041	830.725
2796.42589	821.625
2798.97979	823.125
2801.53212	825.225
2804.08288	826.625
2806.63206	824.025
2809.17967	823.525
2811.72571	826.825
2814.27018	829.725
2816.81308	828.325
2819.35442	833.425
2821.89419	828.825
2824.43239	836.425
2826.96904	837.825
2829.50412	847.025
2832.03763	842.725
2834.56959	848.625
2837.1	840.225
2839.62884	839.825
2842.15613	840.725
2844.68186	845.525
2847.20604	846.925
2849.72867	849.725
2852.24974	854.625
2854.76927	865.225
2857.28724	868.725
2859.80367	865.325
2862.31855	858.625
2864.83189	862.525
2867.34368	864.925
2869.85393	870.425
2872.36264	859.725
2874.8698	868.325
2877.37543	870.525
2879.87952	875.625
2882.38207	869.825
2884.88308	872.225
2887.38256	872.125
2889.88051	870.225
2892.37692	868.525
2894.8718	877.525
2897.36515	881.925
2899.85698	882.825
2902.34727	886.925
2904.83604	890.125
2907.32328	897.825
2909.809	894.725
2912.29319	897.725
2914.77587	900.625
2917.25702	899.725
2919.73665	905.825
2922.21476	900.725
2924.69136	899.425
2927.16644	901.425
2929.64	900.425
2932.11205	896.425
2934.58258	907.225
2937.05161	895.625
2939.51912	903.625
2941.98513	896.725
2944.44962	897.125
2946.91261	886.825
2949.37409	896.525
2951.83407	890.325
2954.29254	883.325
2956.74951	886.825
2959.20498	883.025
2961.65895	873.925
2964.11142	872.325
2966.56239	873.225
2969.01186	870.625
2971.45984	855.825
2973.90632	853.625
2976.35131	847.925
2978.7948	859.325
2981.23681	852.325
2983.67732	846.825
2986.11635	851.325
2988.55388	842.225
2990.98993	839.925
2993.4245	845.525
2995.85758	844.525
2998.28917	846.325
3000.71928	842.825
3003.14791	845.925
3005.57506	848.825
3008.00073	845.925
3010.42493	856.525
3012.84764	854.125
3015.26888	850.725
3017.68865	857.825
3020.10694	859.425
3022.52376	852.925
3024.9391	865.825
3027.35298	860.625
3029.76539	858.825
3032.17632	857.325
3034.5858	853.625
3036.9938	866.325
3039.40034	868.825
3041.80542	861.825
3044.20903	861.025
3046.61118	865.625
3049.01187	857.925
3051.4111	863.025
3053.80888	871.025
3056.20519	876.725
3058.60005	872.325
3060.99345	878.425
3063.3854	874.225
3065.7759	879.825
3068.16494	876.025
3070.55254	887.225
3072.93868	883.225
3075.32338	896.125
3077.70662	893.025
3080.08842	894.625
3082.46878	898.425
3084.84769	889.825
3087.22515	906.025
3089.60118	913.825
3091.97576	908.125
3094.3489	913.625
3096.72061	923.625
3099.09087	921.725
3101.4597	931.825
3103.82709	938.125
3106.19305	941.625
3108.55757	944.325
3110.92066	952.125
3113.28232	950.625
3115.64255	955.425
3118.00134	961.225
3120.35871	954.425
3122.71466	962.125
3125.06917	981.525
3127.42226	979.825
3129.77393	988.325
3132.12417	994.925
3134.47299	1008.225
3136.82039	1004.625
3139.16636	1018.625
3141.51092	1026.725
3143.85406	1027.325
3146.19579	1039.925
3148.53609	1048.225
3150.87499	1052.725
3153.21246	1069.025
3155.54853	1078.725
3157.88318	1073.325
3160.21642	1081.025
3162.54826	1089.025
3164.87868	1089.825
3167.2077	1107.725
3169.5353	1100.925
3171.86151	1120.025
3174.18631	1122.025
3176.5097	1116.625
3178.83169	1133.725
3181.15228	1137.125
3183.47147	1149.325
3185.78926	1151.725
3188.10565	1151.325
3190.42065	1161.025
3192.73424	1167.725
3195.04645	1174.825
3197.35725	1176.325
3199.66667	1185.725
3201.97469	1198.725
3204.28132	1195.125
3206.58656	1196.725
3208.8904	1211.325
3211.19287	1218.825
3213.49394	1220.925
3215.79363	1229.025
3218.09193	1236.025
3220.38884	1247.425
3222.68438	1254.925
3224.97853	1244.025
3227.2713	1247.025
3229.56269	1250.425
3231.8527	1250.225
3234.14133	1245.325
3236.42858	1241.825
3238.71446	1244.825
3240.99896	1247.025
3243.28209	1252.625
3245.56384	1244.625
3247.84423	1250.825
3250.12324	1253.225
3252.40088	1259.925
3254.67715	1256.825
3256.95205	1253.325
3259.22558	1258.925
3261.49775	1248.125
3263.76855	1260.225
3266.03799	1255.025
3268.30606	1256.325
3270.57277	1256.725
