Data from AgNPs_FTO_APTES_UA_0.1mM_CRN_1000uM_NaF_0.1M_Addition_RamanShift__8__15-23-27-808.txt Node

Date: Mon Dec 20 15:23:27 GMT 2021
User: TCL
Spectrometer: QEP01345
Trigger mode: 4
Integration Time (sec): 7.000000E0
Scans to average: 10
Electric dark correction enabled: true
Nonlinearity correction enabled: false
Boxcar width: 0
XAxis mode: Raman Shifts
Number of Pixels in Spectrum: 1044
>>>>>Begin Spectral Data<<<<<
46.04893	-0.075
50.45542	-0.975
54.85868	-1.475
59.25871	1.125
63.6555	23.625
68.04907	24.825
72.43941	27.625
76.82654	28.325
81.21044	28.025
85.59113	33.625
89.96862	33.425
94.34289	33.125
98.71396	30.525
103.08183	34.225
107.4465	35.225
111.80798	36.725
116.16626	37.125
120.52136	40.125
124.87327	41.325
129.222	38.325
133.56755	40.225
137.90993	43.025
142.24913	44.725
146.58517	45.325
150.91804	52.025
155.24774	60.925
159.57429	67.625
163.89768	84.325
168.21792	106.525
172.53501	133.825
176.84895	179.025
181.15975	240.825
185.46741	332.425
189.77193	459.625
194.07331	614.925
198.37157	793.025
202.6667	983.325
206.9587	1188.825
211.24758	1387.125
215.53334	1593.625
219.81599	1830.225
224.09553	2069.025
228.37195	2346.025
232.64527	2662.625
236.91549	2973.925
241.18261	3273.025
245.44663	3524.425
249.70755	3710.125
253.96539	3821.725
258.22014	3902.625
262.4718	3922.925
266.72039	3909.525
270.96589	3859.625
275.20832	3777.825
279.44768	3704.225
283.68397	3610.625
287.91719	3561.825
292.14735	3471.925
296.37445	3413.925
300.59849	3377.825
304.81948	3331.025
309.03742	3297.525
313.25231	3260.125
317.46415	3215.425
321.67296	3169.225
325.87872	3150.225
330.08145	3114.225
334.28114	3108.125
338.47781	3111.825
342.67145	3122.525
346.86207	3135.825
351.04966	3155.825
355.23424	3191.925
359.4158	3230.925
363.59435	3249.425
367.76989	3288.225
371.94243	3327.725
376.11196	3372.525
380.27849	3406.025
384.44203	3451.725
388.60257	3482.125
392.76012	3514.925
396.91468	3549.425
401.06626	3576.825
405.21485	3601.525
409.36047	3584.125
413.50311	3589.425
417.64277	3577.125
421.77947	3570.525
425.9132	3594.025
430.04396	3591.725
434.17176	3614.525
438.2966	3611.625
442.41849	3632.725
446.53742	3633.825
450.6534	3652.725
454.76644	3677.625
458.87653	3711.325
462.98368	3722.325
467.08789	3725.125
471.18916	3745.325
475.2875	3763.525
479.38291	3802.325
483.4754	3869.025
487.56496	3967.025
491.6516	4060.225
495.73531	4145.525
499.81612	4193.525
503.89401	4163.025
507.96899	4108.225
512.04106	4032.725
516.11023	3988.125
520.1765	3980.225
524.23987	4015.425
528.30034	4025.025
532.35792	4050.125
536.41261	4057.625
540.46441	4011.525
544.51333	3951.025
548.55936	3869.025
552.60252	3828.925
556.64279	3806.325
560.6802	3791.425
564.71473	3795.525
568.7464	3803.325
572.7752	3828.025
576.80114	3852.725
580.82422	3892.025
584.84444	3977.525
588.86181	4068.425
592.87633	4113.625
596.888	4104.425
600.89682	4048.225
604.9028	4049.325
608.90594	4108.825
612.90624	4252.725
616.90371	4319.425
620.89834	4354.225
624.89015	4543.525
628.87913	4889.925
632.86528	5317.025
636.84862	5628.325
640.82913	5698.425
644.80683	5481.125
648.78172	5138.725
652.75379	4806.725
656.72306	4548.725
660.68952	4394.225
664.65319	4277.225
668.61405	4228.025
672.57211	4213.525
676.52738	4255.125
680.47986	4302.425
684.42955	4307.325
688.37646	4279.125
692.32058	4197.725
696.26192	4081.725
700.20048	4040.725
704.13626	3991.325
708.06928	3967.225
711.99952	3944.025
715.927	3957.625
719.85171	3991.525
723.77365	4044.625
727.69284	4086.325
731.60928	4087.925
735.52295	3993.025
739.43388	3932.025
743.34206	3890.725
747.24749	3886.725
751.15017	3892.225
755.05012	3905.725
758.94733	3920.625
762.8418	3961.825
766.73354	3994.025
770.62254	4024.925
774.50882	4020.725
778.39237	3968.725
782.27321	3884.725
786.15132	3836.025
790.02671	3811.025
793.89938	3803.425
797.76935	3834.225
801.6366	3879.825
805.50115	4011.025
809.36299	4192.425
813.22213	4331.125
817.07857	4330.225
820.93231	4212.425
824.78336	4029.525
828.63172	3840.025
832.47738	3739.325
836.32036	3676.925
840.16066	3658.825
843.99827	3640.625
847.8332	3643.825
851.66546	3641.425
855.49504	3634.425
859.32195	3648.525
863.1462	3661.925
866.96777	3702.125
870.78668	3753.125
874.60293	3842.425
878.41652	3952.925
882.22745	4056.125
886.03573	4156.225
889.84136	4211.125
893.64433	4192.525
897.44466	4055.825
901.24235	3904.825
905.0374	3752.625
908.8298	3647.825
912.61957	3603.125
916.40671	3551.125
920.19121	3539.825
923.97308	3510.725
927.75233	3509.425
931.52895	3491.525
935.30295	3482.725
939.07433	3455.225
942.84309	3443.125
946.60924	3447.125
950.37278	3426.025
954.13371	3420.525
957.89203	3419.625
961.64774	3401.525
965.40086	3418.025
969.15137	3391.725
972.89929	3373.525
976.64461	3370.425
980.38733	3365.825
984.12747	3342.925
987.86502	3354.325
991.59999	3368.925
995.33237	3392.525
999.06217	3427.825
1002.78939	3473.225
1006.51404	3529.025
1010.23611	3593.125
1013.95561	3628.025
1017.67255	3639.625
1021.38692	3641.725
1025.09872	3631.225
1028.80796	3613.325
1032.51465	3552.425
1036.21877	3502.725
1039.92035	3468.325
1043.61937	3432.825
1047.31584	3416.525
1051.00976	3420.025
1054.70114	3431.425
1058.38998	3467.525
1062.07627	3495.225
1065.76003	3545.425
1069.44126	3597.825
1073.11995	3648.625
1076.79611	3670.825
1080.46974	3636.725
1084.14085	3590.125
1087.80943	3525.425
1091.47549	3469.825
1095.13903	3434.325
1098.80005	3422.025
1102.45857	3410.125
1106.11456	3413.225
1109.76805	3455.325
1113.41903	3564.725
1117.06751	3745.325
1120.71348	3999.925
1124.35696	4378.925
1127.99793	4795.825
1131.63641	5131.725
1135.2724	5305.825
1138.90589	5259.125
1142.5369	5043.725
1146.16542	4709.125
1149.79145	4389.025
1153.415	4059.425
1157.03607	3783.125
1160.65467	3615.325
1164.27079	3525.725
1167.88443	3463.725
1171.49561	3465.225
1175.10432	3496.725
1178.71056	3552.525
1182.31434	3620.225
1185.91565	3652.525
1189.51451	3728.425
1193.11091	3779.125
1196.70485	3878.125
1200.29634	3962.925
1203.88538	4035.325
1207.47197	4058.625
1211.05612	4033.925
1214.63782	3936.325
1218.21708	3820.225
1221.79391	3699.625
1225.36829	3589.625
1228.94024	3528.825
1232.50976	3468.325
1236.07685	3460.225
1239.6415	3471.625
1243.20374	3469.925
1246.76355	3508.525
1250.32093	3532.425
1253.8759	3561.925
1257.42845	3590.225
1260.97859	3603.125
1264.52631	3634.925
1268.07163	3634.525
1271.61453	3639.525
1275.15503	3628.825
1278.69312	3589.825
1282.22882	3558.025
1285.76211	3529.925
1289.29301	3522.025
1292.82151	3522.625
1296.34761	3545.725
1299.87133	3580.625
1303.39266	3629.725
1306.9116	3690.325
1310.42815	3766.325
1313.94233	3822.725
1317.45412	3867.925
1320.96354	3871.825
1324.47058	3891.425
1327.97525	3909.625
1331.47754	3928.825
1334.97747	3969.825
1338.47502	4006.625
1341.97022	4067.525
1345.46305	4144.625
1348.95352	4237.025
1352.44163	4336.225
1355.92738	4412.725
1359.41078	4515.025
1362.89183	4621.925
1366.37053	4630.025
1369.84688	4540.025
1373.32088	4432.625
1376.79254	4314.325
1380.26186	4196.325
1383.72883	4118.925
1387.19347	4035.825
1390.65578	3949.625
1394.11575	3843.125
1397.57339	3769.225
1401.0287	3699.925
1404.48168	3630.225
1407.93234	3567.325
1411.38068	3494.825
1414.82669	3429.725
1418.27039	3347.425
1421.71177	3272.425
1425.15083	3211.425
1428.58758	3148.425
1432.02203	3121.325
1435.45416	3089.725
1438.88399	3073.325
1442.31151	3051.725
1445.73673	3058.325
1449.15965	3059.725
1452.58027	3054.225
1455.9986	3056.825
1459.41463	3059.225
1462.82837	3065.825
1466.23982	3077.725
1469.64898	3101.725
1473.05586	3115.725
1476.46045	3119.325
1479.86276	3134.025
1483.26279	3141.925
1486.66054	3157.925
1490.05602	3175.625
1493.44922	3218.925
1496.84016	3272.125
1500.22882	3328.625
1503.61521	3411.025
1506.99934	3506.625
1510.38121	3576.225
1513.76081	3592.225
1517.13816	3543.225
1520.51324	3490.825
1523.88607	3426.725
1527.25665	3397.925
1530.62498	3393.725
1533.99105	3411.725
1537.35488	3466.425
1540.71647	3476.425
1544.07581	3521.125
1547.4329	3540.025
1550.78776	3570.725
1554.14038	3597.525
1557.49077	3598.925
1560.83892	3618.725
1564.18484	3615.525
1567.52853	3627.125
1570.86999	3622.725
1574.20922	3644.625
1577.54624	3646.425
1580.88103	3645.925
1584.2136	3597.525
1587.54395	3538.725
1590.87208	3497.725
1594.19801	3466.725
1597.52172	3451.825
1600.84321	3492.225
1604.16251	3462.025
1607.47959	3443.525
1610.79447	3436.325
1614.10715	3425.925
1617.41763	3421.125
1620.7259	3413.925
1624.03199	3416.425
1627.33587	3447.825
1630.63757	3482.125
1633.93707	3535.725
1637.23439	3583.925
1640.52951	3674.425
1643.82246	3796.225
1647.11321	3917.125
1650.40179	4013.925
1653.68819	4057.425
1656.97241	4030.925
1660.25446	3968.125
1663.53433	3937.625
1666.81203	3903.625
1670.08756	3906.225
1673.36092	3911.125
1676.63211	3937.125
1679.90115	3931.725
1683.16801	3934.325
1686.43272	3901.625
1689.69527	3875.025
1692.95567	3797.925
1696.2139	3716.925
1699.46999	3661.825
1702.72392	3562.325
1705.97571	3428.425
1709.22535	3284.625
1712.47284	3154.225
1715.71819	3025.125
1718.96139	2912.025
1722.20246	2820.525
1725.44139	2745.825
1728.67818	2687.525
1731.91284	2639.325
1735.14537	2585.725
1738.37576	2550.125
1741.60403	2520.925
1744.83017	2501.025
1748.05418	2481.425
1751.27607	2478.025
1754.49584	2491.325
1757.71349	2496.225
1760.92903	2492.725
1764.14244	2477.125
1767.35375	2466.525
1770.56294	2441.225
1773.77002	2420.525
1776.97499	2399.525
1780.17785	2381.325
1783.37861	2342.225
1786.57727	2327.425
1789.77382	2313.125
1792.96828	2301.825
1796.16064	2288.325
1799.3509	2279.825
1802.53907	2263.125
1805.72514	2256.925
1808.90913	2247.925
1812.09102	2238.525
1815.27083	2230.825
1818.44856	2215.125
1821.6242	2216.225
1824.79776	2203.425
1827.96924	2203.425
1831.13864	2188.025
1834.30597	2186.125
1837.47122	2193.525
1840.6344	2179.225
1843.7955	2173.925
1846.95454	2174.925
1850.11151	2187.225
1853.26642	2163.525
1856.41926	2152.825
1859.57004	2148.425
1862.71876	2145.825
1865.86542	2152.025
1869.01003	2148.925
1872.15258	2135.725
1875.29308	2134.725
1878.43152	2119.925
1881.56792	2126.825
1884.70227	2106.225
1887.83457	2107.625
1890.96482	2104.625
1894.09304	2107.325
1897.21921	2095.025
1900.34335	2088.925
1903.46544	2089.125
1906.58551	2083.025
1909.70353	2080.625
1912.81953	2082.625
1915.93349	2068.025
1919.04543	2062.925
1922.15534	2061.225
1925.26322	2056.525
1928.36908	2054.425
1931.47292	2045.425
1934.57473	2042.625
1937.67453	2025.925
1940.77232	2018.925
1943.86808	2018.325
1946.96184	2018.725
1950.05358	2000.425
1953.14331	1989.925
1956.23103	1987.025
1959.31675	1982.825
1962.40046	1971.625
1965.48217	1960.925
1968.56188	1964.625
1971.63959	1953.025
1974.7153	1942.325
1977.78901	1943.625
1980.86073	1934.125
1983.93046	1916.225
1986.99819	1913.425
1990.06394	1910.825
1993.1277	1908.425
1996.18947	1899.425
1999.24925	1891.425
2002.30706	1880.825
2005.36288	1871.525
2008.41672	1857.525
2011.46859	1859.025
2014.51848	1854.725
2017.56639	1837.425
2020.61233	1851.625
2023.6563	1838.625
2026.6983	1834.225
2029.73833	1823.825
2032.7764	1820.825
2035.8125	1809.425
2038.84664	1801.425
2041.87881	1807.725
2044.90903	1795.325
2047.93729	1793.725
2050.96359	1794.725
2053.98794	1784.825
2057.01034	1787.125
2060.03078	1779.025
2063.04927	1777.625
2066.06582	1780.525
2069.08042	1777.725
2072.09307	1772.425
2075.10378	1768.125
2078.11255	1772.225
2081.11938	1773.525
2084.12426	1761.725
2087.12722	1773.525
2090.12824	1765.825
2093.12732	1763.725
2096.12447	1769.625
2099.11969	1757.125
2102.11299	1758.525
2105.10435	1764.425
2108.09379	1754.625
2111.08131	1755.225
2114.0669	1752.825
2117.05057	1753.525
2120.03233	1762.825
2123.01216	1746.225
2125.99008	1753.225
2128.96609	1752.425
2131.94018	1754.725
2134.91236	1757.425
2137.88263	1759.525
2140.851	1749.725
2143.81746	1757.125
2146.78201	1741.925
2149.74466	1750.425
2152.7054	1760.425
2155.66425	1747.625
2158.6212	1742.825
2161.57625	1741.525
2164.52941	1749.825
2167.48067	1736.825
2170.43004	1745.525
2173.37752	1729.425
2176.32311	1732.625
2179.26681	1731.525
2182.20863	1724.025
2185.14856	1724.725
2188.08661	1731.925
2191.02278	1711.225
2193.95707	1726.925
2196.88948	1707.525
2199.82001	1710.725
2202.74867	1711.325
2205.67545	1701.025
2208.60037	1714.325
2211.52341	1691.125
2214.44458	1691.625
2217.36388	1688.025
2220.28132	1681.825
2223.1969	1672.725
2226.11061	1678.525
2229.02246	1669.225
2231.93245	1673.025
2234.84058	1663.225
2237.74686	1655.625
2240.65128	1660.125
2243.55385	1644.925
2246.45456	1646.725
2249.35343	1637.325
2252.25044	1640.425
2255.14561	1636.825
2258.03893	1635.525
2260.93041	1635.025
2263.82004	1618.125
2266.70783	1613.125
2269.59378	1619.825
2272.4779	1594.625
2275.36017	1597.125
2278.24061	1595.225
2281.11922	1605.925
2283.996	1584.825
2286.87094	1585.325
2289.74405	1591.125
2292.61534	1587.225
2295.4848	1576.225
2298.35243	1580.625
2301.21824	1567.625
2304.08223	1571.825
2306.94439	1565.625
2309.80474	1560.425
2312.66327	1559.125
2315.51999	1556.725
2318.37489	1554.625
2321.22797	1544.525
2324.07925	1541.725
2326.92871	1544.325
2329.77637	1541.225
2332.62222	1537.125
2335.46626	1531.125
2338.3085	1534.525
2341.14893	1528.625
2343.98756	1521.625
2346.8244	1520.325
2349.65943	1512.225
2352.49267	1509.825
2355.32411	1501.725
2358.15376	1505.725
2360.98161	1501.125
2363.80768	1492.525
2366.63195	1492.025
2369.45444	1492.725
2372.27514	1487.225
2375.09405	1498.725
2377.91118	1492.925
2380.72652	1482.625
2383.54009	1478.025
2386.35187	1484.125
2389.16188	1478.625
2391.97011	1478.325
2394.77657	1479.225
2397.58125	1463.725
2400.38416	1470.525
2403.18529	1457.625
2405.98466	1453.925
2408.78226	1458.625
2411.57809	1444.225
2414.37216	1443.725
2417.16446	1444.325
2419.955	1442.825
2422.74378	1444.225
2425.5308	1439.225
2428.31606	1429.025
2431.09956	1418.825
2433.88131	1427.425
2436.6613	1423.025
2439.43954	1417.525
2442.21603	1416.225
2444.99077	1412.425
2447.76377	1415.725
2450.53501	1405.325
2453.30451	1411.825
2456.07226	1402.725
2458.83827	1405.025
2461.60254	1408.025
2464.36507	1397.125
2467.12586	1396.625
2469.88492	1390.325
2472.64224	1387.025
2475.39782	1395.925
2478.15167	1391.525
2480.90379	1382.425
2483.65417	1375.325
2486.40283	1379.325
2489.14976	1377.725
2491.89497	1367.625
2494.63845	1388.725
2497.3802	1365.325
2500.12024	1367.425
2502.85855	1366.125
2505.59514	1363.525
2508.33002	1355.325
2511.06318	1363.125
2513.79462	1354.425
2516.52435	1346.725
2519.25237	1355.025
2521.97867	1347.825
2524.70327	1343.325
2527.42616	1337.825
2530.14734	1336.825
2532.86681	1335.725
2535.58458	1340.825
2538.30065	1322.425
2541.01501	1331.825
2543.72768	1328.625
2546.43864	1314.525
2549.14791	1318.925
2551.85548	1317.525
2554.56136	1305.425
2557.26554	1306.925
2559.96803	1309.125
2562.66883	1301.725
2565.36794	1296.625
2568.06536	1292.425
2570.7611	1295.125
2573.45514	1296.225
2576.14751	1289.825
2578.83819	1277.725
2581.52719	1278.225
2584.21451	1272.425
2586.90015	1279.525
2589.58411	1263.825
2592.2664	1267.025
2594.94701	1269.825
2597.62594	1262.425
2600.30321	1258.825
2602.9788	1252.025
2605.65273	1251.125
2608.32498	1251.925
2610.99557	1248.725
2613.66449	1253.425
2616.33175	1243.825
2618.99734	1231.225
2621.66128	1243.425
2624.32355	1234.725
2626.98416	1241.425
2629.64311	1237.825
2632.30041	1230.625
2634.95605	1233.225
2637.61004	1225.825
2640.26238	1228.025
2642.91306	1222.025
2645.56209	1219.525
2648.20948	1223.925
2650.85521	1216.825
2653.4993	1217.025
2656.14175	1216.825
2658.78255	1218.525
2661.42171	1219.025
2664.05923	1210.225
2666.6951	1214.125
2669.32934	1209.725
2671.96194	1207.725
2674.59291	1209.225
2677.22224	1212.825
2679.84993	1204.625
2682.476	1203.625
2685.10043	1209.925
2687.72324	1209.925
2690.34441	1206.325
2692.96396	1204.725
2695.58188	1203.425
2698.19818	1201.225
2700.81285	1214.725
2703.4259	1216.625
2706.03733	1243.625
2708.64714	1230.125
2711.25533	1212.625
2713.86191	1209.425
2716.46687	1213.125
2719.07021	1213.625
2721.67194	1208.825
2724.27206	1198.125
2726.87057	1204.925
2729.46747	1204.025
2732.06276	1204.225
2734.65644	1211.125
2737.24852	1195.125
2739.83899	1197.225
2742.42786	1196.825
2745.01513	1189.125
2747.60079	1195.525
2750.18486	1190.225
2752.76733	1192.325
2755.3482	1191.825
2757.92747	1189.325
2760.50515	1181.825
2763.08123	1173.325
2765.65573	1165.325
2768.22863	1168.725
2770.79994	1169.925
2773.36967	1166.125
2775.9378	1169.825
2778.50435	1165.025
2781.06932	1171.525
2783.6327	1156.425
2786.1945	1161.325
2788.75471	1160.725
2791.31335	1156.425
2793.87041	1149.125
2796.42589	1145.625
2798.97979	1136.425
2801.53212	1133.025
2804.08288	1138.325
2806.63206	1133.425
2809.17967	1136.625
2811.72571	1124.425
2814.27018	1130.625
2816.81308	1123.625
2819.35442	1121.825
2821.89419	1122.825
2824.43239	1122.025
2826.96904	1121.225
2829.50412	1118.325
2832.03763	1116.825
2834.56959	1110.525
2837.1	1117.425
2839.62884	1120.325
2842.15613	1111.925
2844.68186	1116.725
2847.20604	1115.825
2849.72867	1117.125
2852.24974	1116.225
2854.76927	1116.425
2857.28724	1127.225
2859.80367	1118.425
2862.31855	1114.825
2864.83189	1113.325
2867.34368	1111.525
2869.85393	1110.025
2872.36264	1113.025
2874.8698	1122.625
2877.37543	1112.125
2879.87952	1112.925
2882.38207	1115.225
2884.88308	1112.625
2887.38256	1122.125
2889.88051	1122.125
2892.37692	1121.125
2894.8718	1118.725
2897.36515	1119.125
2899.85698	1119.525
2902.34727	1131.525
2904.83604	1128.925
2907.32328	1129.325
2909.809	1131.925
2912.29319	1130.025
2914.77587	1128.325
2917.25702	1134.825
2919.73665	1133.425
2922.21476	1140.425
2924.69136	1145.525
2927.16644	1142.725
2929.64	1146.925
2932.11205	1149.025
2934.58258	1146.425
2937.05161	1145.825
2939.51912	1150.225
2941.98513	1150.925
2944.44962	1153.025
2946.91261	1150.225
2949.37409	1148.625
2951.83407	1159.625
2954.29254	1151.225
2956.74951	1148.025
2959.20498	1143.925
2961.65895	1141.525
2964.11142	1137.725
2966.56239	1130.925
2969.01186	1135.725
2971.45984	1123.325
2973.90632	1127.425
2976.35131	1121.525
2978.7948	1120.425
2981.23681	1110.625
2983.67732	1113.225
2986.11635	1115.225
2988.55388	1112.625
2990.98993	1108.825
2993.4245	1099.025
2995.85758	1109.825
2998.28917	1101.325
3000.71928	1099.925
3003.14791	1108.125
3005.57506	1104.225
3008.00073	1105.125
3010.42493	1103.025
3012.84764	1109.925
3015.26888	1097.325
3017.68865	1108.825
3020.10694	1108.925
3022.52376	1111.525
3024.9391	1115.225
3027.35298	1109.525
3029.76539	1113.325
3032.17632	1120.925
3034.5858	1111.525
3036.9938	1118.625
3039.40034	1113.925
3041.80542	1108.725
3044.20903	1113.625
3046.61118	1111.125
3049.01187	1113.725
3051.4111	1113.325
3053.80888	1114.025
3056.20519	1121.125
3058.60005	1119.325
3060.99345	1126.125
3063.3854	1119.025
3065.7759	1122.525
3068.16494	1116.325
3070.55254	1125.625
3072.93868	1128.925
3075.32338	1134.625
3077.70662	1124.625
3080.08842	1135.325
3082.46878	1146.525
3084.84769	1148.225
3087.22515	1150.825
3089.60118	1148.225
3091.97576	1159.925
3094.3489	1160.225
3096.72061	1166.125
3099.09087	1161.625
3101.4597	1167.425
3103.82709	1173.225
3106.19305	1175.325
3108.55757	1183.625
3110.92066	1174.325
3113.28232	1184.525
3115.64255	1189.225
3118.00134	1188.625
3120.35871	1200.725
3122.71466	1193.125
3125.06917	1207.425
3127.42226	1200.925
3129.77393	1219.525
3132.12417	1217.625
3134.47299	1222.725
3136.82039	1225.525
3139.16636	1229.725
3141.51092	1243.225
3143.85406	1252.625
3146.19579	1254.525
3148.53609	1260.025
3150.87499	1262.525
3153.21246	1280.625
3155.54853	1277.825
3157.88318	1295.525
3160.21642	1290.425
3162.54826	1302.625
3164.87868	1309.325
3167.2077	1307.825
3169.5353	1302.925
3171.86151	1316.225
3174.18631	1319.725
3176.5097	1329.125
3178.83169	1322.325
3181.15228	1327.825
3183.47147	1330.525
3185.78926	1339.625
3188.10565	1336.125
3190.42065	1350.925
3192.73424	1350.825
3195.04645	1356.125
3197.35725	1357.525
3199.66667	1366.625
3201.97469	1371.025
3204.28132	1370.925
3206.58656	1374.825
3208.8904	1376.825
3211.19287	1391.625
3213.49394	1384.725
3215.79363	1389.725
3218.09193	1394.125
3220.38884	1402.525
3222.68438	1405.625
3224.97853	1394.325
3227.2713	1398.225
3229.56269	1412.925
3231.8527	1395.125
3234.14133	1401.825
3236.42858	1390.725
