Data from AgNPs_FTO_APTES_UA_0.1mM_CRN_0uM_NaF_0.1M_Addition_RamanShift__43__10-52-47-503.txt Node

Date: Mon Dec 20 10:52:47 GMT 2021
User: TCL
Spectrometer: QEP01345
Trigger mode: 4
Integration Time (sec): 7.000000E0
Scans to average: 10
Electric dark correction enabled: true
Nonlinearity correction enabled: false
Boxcar width: 0
XAxis mode: Raman Shifts
Number of Pixels in Spectrum: 1044
>>>>>Begin Spectral Data<<<<<
46.04893	0.175
50.45542	0.675
54.85868	-1.125
59.25871	0.775
63.6555	31.675
68.04907	28.175
72.43941	33.175
76.82654	35.075
81.21044	34.775
85.59113	41.275
89.96862	40.375
94.34289	41.275
98.71396	40.075
103.08183	40.375
107.4465	45.575
111.80798	48.075
116.16626	45.975
120.52136	47.475
124.87327	48.675
129.222	47.775
133.56755	49.175
137.90993	57.375
142.24913	56.575
146.58517	59.175
150.91804	74.075
155.24774	82.975
159.57429	98.875
163.89768	124.675
168.21792	163.675
172.53501	216.175
176.84895	297.875
181.15975	411.575
185.46741	570.475
189.77193	793.775
194.07331	1059.075
198.37157	1370.075
202.6667	1702.975
206.9587	2028.075
211.24758	2342.975
215.53334	2680.975
219.81599	3012.775
224.09553	3390.375
228.37195	3816.875
232.64527	4289.475
236.91549	4824.775
241.18261	5321.475
245.44663	5829.075
249.70755	6265.975
253.96539	6612.975
258.22014	6858.075
262.4718	6981.275
266.72039	6981.275
270.96589	6903.675
275.20832	6743.175
279.44768	6535.075
283.68397	6305.575
287.91719	6117.575
292.14735	5957.075
296.37445	5810.575
300.59849	5734.875
304.81948	5663.675
309.03742	5619.375
313.25231	5598.975
317.46415	5546.475
321.67296	5459.475
325.87872	5394.175
330.08145	5369.675
334.28114	5354.575
338.47781	5375.075
342.67145	5409.575
346.86207	5443.075
351.04966	5473.375
355.23424	5542.875
359.4158	5586.375
363.59435	5641.375
367.76989	5687.675
371.94243	5722.175
376.11196	5749.475
380.27849	5806.575
384.44203	5853.475
388.60257	5913.675
392.76012	5966.675
396.91468	6050.575
401.06626	6173.275
405.21485	6272.875
409.36047	6347.375
413.50311	6331.575
417.64277	6291.375
421.77947	6293.275
425.9132	6261.375
430.04396	6241.275
434.17176	6259.375
438.2966	6282.675
442.41849	6294.875
446.53742	6321.975
450.6534	6353.575
454.76644	6390.175
458.87653	6428.575
462.98368	6438.375
467.08789	6444.975
471.18916	6448.275
475.2875	6461.175
479.38291	6467.175
483.4754	6546.475
487.56496	6614.175
491.6516	6670.175
495.73531	6768.975
499.81612	6829.975
503.89401	6895.275
507.96899	6932.675
512.04106	6937.175
516.11023	6882.775
520.1765	6774.975
524.23987	6677.875
528.30034	6598.175
532.35792	6534.075
536.41261	6475.675
540.46441	6435.975
544.51333	6419.575
548.55936	6416.675
552.60252	6459.375
556.64279	6492.675
560.6802	6555.075
564.71473	6547.875
568.7464	6576.575
572.7752	6637.775
576.80114	6667.475
580.82422	6721.075
584.84444	6796.775
588.86181	6912.575
592.87633	6993.075
596.888	7035.875
600.89682	7017.375
604.9028	7117.975
608.90594	7355.675
612.90624	7720.175
616.90371	7624.175
620.89834	7157.975
624.89015	6930.375
628.87913	6951.475
632.86528	7042.875
636.84862	7164.075
640.82913	7213.975
644.80683	7203.675
648.78172	7168.575
652.75379	7147.575
656.72306	7130.275
660.68952	7156.675
664.65319	7147.475
668.61405	7138.575
672.57211	7189.775
676.52738	7204.975
680.47986	7212.175
684.42955	7169.275
688.37646	7150.175
692.32058	7128.575
696.26192	7108.875
700.20048	7113.475
704.13626	7070.475
708.06928	7014.375
711.99952	6932.875
715.927	6828.475
719.85171	6782.175
723.77365	6751.475
727.69284	6712.475
731.60928	6661.875
735.52295	6658.775
739.43388	6672.975
743.34206	6732.875
747.24749	6782.675
751.15017	6836.475
755.05012	6922.175
758.94733	6990.575
762.8418	7095.375
766.73354	7264.075
770.62254	7444.675
774.50882	7486.175
778.39237	7415.775
782.27321	7182.275
786.15132	6973.875
790.02671	6813.675
793.89938	6760.175
797.76935	6783.075
801.6366	6815.475
805.50115	6885.375
809.36299	6971.875
813.22213	6956.475
817.07857	6888.575
820.93231	6782.775
824.78336	6694.075
828.63172	6614.575
832.47738	6579.775
836.32036	6543.275
840.16066	6523.975
843.99827	6517.675
847.8332	6544.275
851.66546	6537.875
855.49504	6523.775
859.32195	6532.375
863.1462	6515.975
866.96777	6532.775
870.78668	6542.275
874.60293	6552.675
878.41652	6584.075
882.22745	6626.675
886.03573	6651.475
889.84136	6693.175
893.64433	6694.475
897.44466	6674.275
901.24235	6661.475
905.0374	6643.075
908.8298	6619.575
912.61957	6608.075
916.40671	6572.575
920.19121	6586.275
923.97308	6579.675
927.75233	6571.675
931.52895	6545.275
935.30295	6507.975
939.07433	6440.675
942.84309	6449.475
946.60924	6416.675
950.37278	6395.675
954.13371	6406.275
957.89203	6389.575
961.64774	6408.075
965.40086	6383.775
969.15137	6372.275
972.89929	6366.575
976.64461	6364.375
980.38733	6362.975
984.12747	6346.375
987.86502	6371.775
991.59999	6375.975
995.33237	6377.675
999.06217	6398.875
1002.78939	6438.775
1006.51404	6468.375
1010.23611	6516.375
1013.95561	6563.375
1017.67255	6574.675
1021.38692	6587.775
1025.09872	6569.775
1028.80796	6568.475
1032.51465	6537.975
1036.21877	6524.075
1039.92035	6531.675
1043.61937	6554.775
1047.31584	6540.375
1051.00976	6560.075
1054.70114	6581.275
1058.38998	6590.775
1062.07627	6601.775
1065.76003	6629.175
1069.44126	6628.575
1073.11995	6672.575
1076.79611	6730.075
1080.46974	6738.975
1084.14085	6744.975
1087.80943	6744.775
1091.47549	6753.375
1095.13903	6727.775
1098.80005	6740.175
1102.45857	6697.775
1106.11456	6647.375
1109.76805	6643.675
1113.41903	6696.975
1117.06751	6755.675
1120.71348	6846.775
1124.35696	6968.275
1127.99793	7107.975
1131.63641	7246.975
1135.2724	7312.475
1138.90589	7370.375
1142.5369	7343.175
1146.16542	7288.875
1149.79145	7185.975
1153.415	7072.375
1157.03607	6944.975
1160.65467	6887.275
1164.27079	6857.975
1167.88443	6917.975
1171.49561	6950.175
1175.10432	7091.175
1178.71056	7273.375
1182.31434	7457.175
1185.91565	7533.675
1189.51451	7570.375
1193.11091	7540.975
1196.70485	7522.375
1200.29634	7490.775
1203.88538	7462.975
1207.47197	7444.575
1211.05612	7448.475
1214.63782	7436.575
1218.21708	7375.175
1221.79391	7360.575
1225.36829	7285.275
1228.94024	7257.475
1232.50976	7196.375
1236.07685	7153.175
1239.6415	7106.075
1243.20374	7102.475
1246.76355	7116.175
1250.32093	7118.275
1253.8759	7173.175
1257.42845	7252.775
1260.97859	7283.575
1264.52631	7340.375
1268.07163	7390.275
1271.61453	7412.475
1275.15503	7435.175
1278.69312	7420.475
1282.22882	7478.575
1285.76211	7532.475
1289.29301	7588.175
1292.82151	7680.375
1296.34761	7825.775
1299.87133	7982.375
1303.39266	8170.075
1306.9116	8378.175
1310.42815	8538.775
1313.94233	8675.675
1317.45412	8667.775
1320.96354	8647.275
1324.47058	8595.175
1327.97525	8545.675
1331.47754	8495.375
1334.97747	8471.775
1338.47502	8495.375
1341.97022	8518.175
1345.46305	8590.475
1348.95352	8716.375
1352.44163	8828.075
1355.92738	8985.775
1359.41078	9190.775
1362.89183	9387.375
1366.37053	9372.275
1369.84688	9000.375
1373.32088	8558.475
1376.79254	8189.475
1380.26186	8009.475
1383.72883	7899.175
1387.19347	7839.875
1390.65578	7771.075
1394.11575	7691.675
1397.57339	7620.875
1401.0287	7586.875
1404.48168	7557.775
1407.93234	7484.775
1411.38068	7429.775
1414.82669	7306.875
1418.27039	7199.775
1421.71177	7092.875
1425.15083	6989.075
1428.58758	6908.475
1432.02203	6867.375
1435.45416	6863.075
1438.88399	6869.375
1442.31151	6853.575
1445.73673	6884.275
1449.15965	6898.975
1452.58027	6907.175
1455.9986	6900.875
1459.41463	6921.875
1462.82837	6956.975
1466.23982	7039.475
1469.64898	7149.875
1473.05586	7206.675
1476.46045	7227.675
1479.86276	7278.075
1483.26279	7293.975
1486.66054	7319.275
1490.05602	7368.675
1493.44922	7440.475
1496.84016	7578.775
1500.22882	7735.875
1503.61521	7942.875
1506.99934	8143.175
1510.38121	8280.575
1513.76081	8300.075
1517.13816	8153.375
1520.51324	7975.475
1523.88607	7825.875
1527.25665	7743.475
1530.62498	7707.775
1533.99105	7701.975
1537.35488	7691.975
1540.71647	7700.475
1544.07581	7746.475
1547.4329	7742.775
1550.78776	7783.575
1554.14038	7794.675
1557.49077	7837.975
1560.83892	7869.075
1564.18484	7940.975
1567.52853	7976.375
1570.86999	8036.475
1574.20922	8087.475
1577.54624	8090.875
1580.88103	8039.275
1584.2136	7964.575
1587.54395	7942.775
1590.87208	7988.775
1594.19801	8042.875
1597.52172	8134.675
1600.84321	8171.775
1604.16251	8079.375
1607.47959	7931.675
1610.79447	7758.975
1614.10715	7556.875
1617.41763	7407.975
1620.7259	7259.675
1624.03199	7188.375
1627.33587	7169.375
1630.63757	7164.975
1633.93707	7216.675
1637.23439	7349.575
1640.52951	7553.475
1643.82246	7860.075
1647.11321	8136.875
1650.40179	8301.975
1653.68819	8222.175
1656.97241	7893.775
1660.25446	7523.175
1663.53433	7214.775
1666.81203	6986.775
1670.08756	6811.475
1673.36092	6698.475
1676.63211	6590.675
1679.90115	6497.275
1683.16801	6384.975
1686.43272	6309.175
1689.69527	6205.175
1692.95567	6110.075
1696.2139	6047.475
1699.46999	5979.775
1702.72392	5924.175
1705.97571	5904.675
1709.22535	5853.475
1712.47284	5832.075
1715.71819	5806.675
1718.96139	5770.875
1722.20246	5732.175
1725.44139	5681.575
1728.67818	5648.575
1731.91284	5595.375
1735.14537	5539.875
1738.37576	5506.075
1741.60403	5442.175
1744.83017	5424.575
1748.05418	5370.075
1751.27607	5349.875
1754.49584	5338.375
1757.71349	5303.975
1760.92903	5304.375
1764.14244	5281.875
1767.35375	5265.175
1770.56294	5255.675
1773.77002	5252.775
1776.97499	5240.975
1780.17785	5218.375
1783.37861	5216.875
1786.57727	5200.575
1789.77382	5187.275
1792.96828	5173.975
1796.16064	5158.775
1799.3509	5133.075
1802.53907	5102.375
1805.72514	5095.575
1808.90913	5080.775
1812.09102	5073.175
1815.27083	5044.775
1818.44856	5052.875
1821.6242	5013.375
1824.79776	5018.475
1827.96924	5017.575
1831.13864	5006.675
1834.30597	5012.475
1837.47122	4989.775
1840.6344	4971.875
1843.7955	4973.575
1846.95454	4970.275
1850.11151	4963.175
1853.26642	4948.675
1856.41926	4941.875
1859.57004	4946.575
1862.71876	4937.075
1865.86542	4912.775
1869.01003	4910.375
1872.15258	4917.975
1875.29308	4910.875
1878.43152	4886.875
1881.56792	4885.775
1884.70227	4878.675
1887.83457	4879.975
1890.96482	4854.175
1894.09304	4850.075
1897.21921	4839.075
1900.34335	4840.775
1903.46544	4840.375
1906.58551	4827.275
1909.70353	4820.775
1912.81953	4830.775
1915.93349	4902.775
1919.04543	4820.275
1922.15534	4762.575
1925.26322	4783.975
1928.36908	4755.175
1931.47292	4749.775
1934.57473	4721.875
1937.67453	4714.375
1940.77232	4702.575
1943.86808	4685.875
1946.96184	4687.575
1950.05358	4664.375
1953.14331	4658.675
1956.23103	4630.275
1959.31675	4634.675
1962.40046	4600.375
1965.48217	4591.775
1968.56188	4581.575
1971.63959	4568.575
1974.7153	4547.175
1977.78901	4535.675
1980.86073	4523.075
1983.93046	4503.375
1986.99819	4498.675
1990.06394	4475.875
1993.1277	4461.275
1996.18947	4454.875
1999.24925	4437.875
2002.30706	4426.975
2005.36288	4405.775
2008.41672	4399.675
2011.46859	4386.575
2014.51848	4371.775
2017.56639	4350.275
2020.61233	4359.975
2023.6563	4331.875
2026.6983	4308.475
2029.73833	4303.775
2032.7764	4279.375
2035.8125	4268.575
2038.84664	4263.975
2041.87881	4253.975
2044.90903	4245.475
2047.93729	4240.175
2050.96359	4236.375
2053.98794	4231.275
2057.01034	4220.075
2060.03078	4230.475
2063.04927	4207.675
2066.06582	4209.975
2069.08042	4199.075
2072.09307	4191.875
2075.10378	4205.275
2078.11255	4189.875
2081.11938	4192.675
2084.12426	4203.775
2087.12722	4183.975
2090.12824	4176.975
2093.12732	4189.575
2096.12447	4197.475
2099.11969	4179.075
2102.11299	4179.575
2105.10435	4170.275
2108.09379	4191.375
2111.08131	4186.575
2114.0669	4179.875
2117.05057	4174.675
2120.03233	4179.475
2123.01216	4183.675
2125.99008	4176.875
2128.96609	4197.975
2131.94018	4185.475
2134.91236	4192.275
2137.88263	4191.675
2140.851	4209.275
2143.81746	4193.975
2146.78201	4195.975
2149.74466	4191.375
2152.7054	4204.975
2155.66425	4192.475
2158.6212	4206.075
2161.57625	4185.875
2164.52941	4187.675
2167.48067	4191.775
2170.43004	4185.475
2173.37752	4161.875
2176.32311	4164.375
2179.26681	4162.975
2182.20863	4173.575
2185.14856	4165.375
2188.08661	4166.875
2191.02278	4174.175
2193.95707	4159.875
2196.88948	4148.175
2199.82001	4156.175
2202.74867	4125.575
2205.67545	4128.075
2208.60037	4131.575
2211.52341	4107.375
2214.44458	4112.875
2217.36388	4096.975
2220.28132	4084.075
2223.1969	4059.575
2226.11061	4055.475
2229.02246	4048.175
2231.93245	4062.575
2234.84058	4047.675
2237.74686	4028.275
2240.65128	4026.975
2243.55385	4031.475
2246.45456	4013.175
2249.35343	4001.275
2252.25044	3989.775
2255.14561	3988.175
2258.03893	3990.675
2260.93041	3968.975
2263.82004	3967.775
2266.70783	3947.375
2269.59378	3945.675
2272.4779	3935.075
2275.36017	3928.775
2278.24061	3901.175
2281.11922	3894.975
2283.996	3905.675
2286.87094	3894.375
2289.74405	3886.875
2292.61534	3890.175
2295.4848	3856.675
2298.35243	3852.775
2301.21824	3843.175
2304.08223	3854.575
2306.94439	3843.575
2309.80474	3838.675
2312.66327	3831.475
2315.51999	3826.775
2318.37489	3828.375
2321.22797	3818.275
2324.07925	3797.575
2326.92871	3799.075
2329.77637	3794.475
2332.62222	3773.375
2335.46626	3780.575
2338.3085	3763.275
2341.14893	3777.175
2343.98756	3762.275
2346.8244	3744.275
2349.65943	3744.475
2352.49267	3753.875
2355.32411	3749.975
2358.15376	3747.075
2360.98161	3740.675
2363.80768	3716.775
2366.63195	3738.475
2369.45444	3718.275
2372.27514	3701.975
2375.09405	3706.975
2377.91118	3708.775
2380.72652	3688.375
2383.54009	3675.575
2386.35187	3679.175
2389.16188	3677.775
2391.97011	3665.075
2394.77657	3651.575
2397.58125	3640.175
2400.38416	3628.575
2403.18529	3625.875
2405.98466	3631.275
2408.78226	3630.475
2411.57809	3596.975
2414.37216	3594.275
2417.16446	3598.375
2419.955	3591.175
2422.74378	3589.575
2425.5308	3574.875
2428.31606	3558.575
2431.09956	3554.075
2433.88131	3563.175
2436.6613	3561.575
2439.43954	3555.175
2442.21603	3559.975
2444.99077	3555.875
2447.76377	3545.275
2450.53501	3546.775
2453.30451	3524.075
2456.07226	3523.175
2458.83827	3525.775
2461.60254	3515.375
2464.36507	3511.675
2467.12586	3519.175
2469.88492	3510.475
2472.64224	3507.575
2475.39782	3490.675
2478.15167	3494.975
2480.90379	3485.475
2483.65417	3487.675
2486.40283	3475.175
2489.14976	3471.075
2491.89497	3469.975
2494.63845	3463.575
2497.3802	3450.675
2500.12024	3454.175
2502.85855	3448.375
2505.59514	3445.175
2508.33002	3431.175
2511.06318	3440.475
2513.79462	3427.475
2516.52435	3428.575
2519.25237	3423.475
2521.97867	3408.975
2524.70327	3417.375
2527.42616	3406.975
2530.14734	3410.775
2532.86681	3382.075
2535.58458	3384.675
2538.30065	3388.475
2541.01501	3370.375
2543.72768	3359.175
2546.43864	3347.375
2549.14791	3351.375
2551.85548	3346.475
2554.56136	3339.475
2557.26554	3336.875
2559.96803	3316.975
2562.66883	3315.875
2565.36794	3312.675
2568.06536	3305.275
2570.7611	3289.575
2573.45514	3299.775
2576.14751	3289.775
2578.83819	3270.275
2581.52719	3271.275
2584.21451	3258.075
2586.90015	3249.775
2589.58411	3250.175
2592.2664	3229.175
2594.94701	3236.875
2597.62594	3222.175
2600.30321	3206.375
2602.9788	3214.075
2605.65273	3201.375
2608.32498	3211.575
2610.99557	3193.675
2613.66449	3191.075
2616.33175	3192.275
2618.99734	3181.875
2621.66128	3183.375
2624.32355	3172.875
2626.98416	3160.875
2629.64311	3162.375
2632.30041	3168.075
2634.95605	3157.275
2637.61004	3144.475
2640.26238	3132.675
2642.91306	3148.875
2645.56209	3134.875
2648.20948	3132.675
2650.85521	3118.575
2653.4993	3110.775
2656.14175	3116.175
2658.78255	3110.575
2661.42171	3106.675
2664.05923	3120.275
2666.6951	3108.075
2669.32934	3111.475
2671.96194	3108.475
2674.59291	3104.775
2677.22224	3120.675
2679.84993	3101.375
2682.476	3094.775
2685.10043	3098.175
2687.72324	3099.875
2690.34441	3098.875
2692.96396	3103.575
2695.58188	3107.475
2698.19818	3084.375
2700.81285	3094.775
2703.4259	3098.975
2706.03733	3098.275
2708.64714	3114.075
2711.25533	3095.175
2713.86191	3095.875
2716.46687	3096.675
2719.07021	3099.375
2721.67194	3086.675
2724.27206	3072.275
2726.87057	3093.575
2729.46747	3071.475
2732.06276	3084.875
2734.65644	3085.175
2737.24852	3069.275
2739.83899	3062.875
2742.42786	3051.275
2745.01513	3054.175
2747.60079	3055.575
2750.18486	3050.275
2752.76733	3038.375
2755.3482	3033.475
2757.92747	3048.275
2760.50515	3035.775
2763.08123	3030.575
2765.65573	3023.575
2768.22863	3011.675
2770.79994	3021.075
2773.36967	3006.675
2775.9378	3012.475
2778.50435	2984.775
2781.06932	2977.975
2783.6327	2974.875
2786.1945	2988.575
2788.75471	2981.275
2791.31335	2973.375
2793.87041	2958.275
2796.42589	2953.475
2798.97979	2930.675
2801.53212	2932.475
2804.08288	2930.275
2806.63206	2919.675
2809.17967	2901.975
2811.72571	2900.475
2814.27018	2893.175
2816.81308	2897.075
2819.35442	2893.775
2821.89419	2882.275
2824.43239	2881.975
2826.96904	2878.375
2829.50412	2869.975
2832.03763	2870.875
2834.56959	2871.775
2837.1	2866.875
2839.62884	2872.275
2842.15613	2849.375
2844.68186	2859.175
2847.20604	2850.175
2849.72867	2859.675
2852.24974	2833.375
2854.76927	2842.875
2857.28724	2834.375
2859.80367	2836.075
2862.31855	2836.375
2864.83189	2834.575
2867.34368	2825.375
2869.85393	2833.275
2872.36264	2819.275
2874.8698	2831.175
2877.37543	2810.375
2879.87952	2821.375
2882.38207	2819.075
2884.88308	2810.875
2887.38256	2821.475
2889.88051	2826.075
2892.37692	2815.975
2894.8718	2820.475
2897.36515	2815.275
2899.85698	2816.575
2902.34727	2821.375
2904.83604	2822.975
2907.32328	2814.275
2909.809	2830.375
2912.29319	2817.475
2914.77587	2809.775
2917.25702	2811.575
2919.73665	2816.675
2922.21476	2809.575
2924.69136	2794.675
2927.16644	2806.775
2929.64	2790.275
2932.11205	2784.175
2934.58258	2793.875
2937.05161	2789.675
2939.51912	2787.575
2941.98513	2793.575
2944.44962	2786.275
2946.91261	2783.875
2949.37409	2786.775
2951.83407	2778.575
2954.29254	2770.275
2956.74951	2768.175
2959.20498	2772.075
2961.65895	2757.175
2964.11142	2765.675
2966.56239	2748.575
2969.01186	2763.975
2971.45984	2749.475
2973.90632	2745.975
2976.35131	2740.875
2978.7948	2745.475
2981.23681	2726.175
2983.67732	2729.775
2986.11635	2713.975
2988.55388	2712.875
2990.98993	2716.975
2993.4245	2702.175
2995.85758	2708.275
2998.28917	2708.075
3000.71928	2693.575
3003.14791	2706.275
3005.57506	2690.275
3008.00073	2676.175
3010.42493	2680.375
3012.84764	2683.575
3015.26888	2688.475
3017.68865	2670.575
3020.10694	2676.275
3022.52376	2668.975
3024.9391	2672.475
3027.35298	2665.675
3029.76539	2665.375
3032.17632	2668.775
3034.5858	2662.375
3036.9938	2654.675
3039.40034	2657.275
3041.80542	2656.375
3044.20903	2635.675
3046.61118	2642.575
3049.01187	2635.375
3051.4111	2640.875
3053.80888	2641.375
3056.20519	2644.075
3058.60005	2632.475
3060.99345	2636.575
3063.3854	2635.075
3065.7759	2629.675
3068.16494	2621.275
3070.55254	2626.475
3072.93868	2616.675
3075.32338	2610.675
3077.70662	2616.975
3080.08842	2606.075
3082.46878	2613.375
3084.84769	2606.275
3087.22515	2614.075
3089.60118	2613.775
3091.97576	2612.175
3094.3489	2611.775
3096.72061	2618.375
3099.09087	2623.175
3101.4597	2628.675
3103.82709	2629.375
3106.19305	2621.575
3108.55757	2624.775
3110.92066	2614.975
3113.28232	2618.875
3115.64255	2624.475
3118.00134	2614.575
3120.35871	2615.875
3122.71466	2598.175
3125.06917	2607.275
3127.42226	2598.575
3129.77393	2616.075
3132.12417	2623.775
3134.47299	2634.375
3136.82039	2628.975
3139.16636	2626.575
3141.51092	2631.475
3143.85406	2631.775
3146.19579	2646.575
3148.53609	2652.675
3150.87499	2652.975
3153.21246	2652.375
3155.54853	2656.875
3157.88318	2666.575
3160.21642	2676.375
3162.54826	2678.475
3164.87868	2674.375
3167.2077	2684.775
3169.5353	2694.175
3171.86151	2692.075
3174.18631	2672.575
3176.5097	2690.975
3178.83169	2691.675
3181.15228	2681.675
3183.47147	2685.275
3185.78926	2686.875
3188.10565	2680.575
3190.42065	2687.575
3192.73424	2698.575
3195.04645	2697.175
3197.35725	2694.775
3199.66667	2697.775
3201.97469	2719.475
3204.28132	2706.275
3206.58656	2710.975
3208.8904	2720.175
3211.19287	2719.775
3213.49394	2725.875
3215.79363	2715.275
3218.09193	2722.075
3220.38884	2733.575
3222.68438	2727.575
3224.97853	2720.875
3227.2713	2721.975
3229.56269	2710.175
3231.8527	2717.275
3234.14133	2711.275
3236.42858	2708.575
