Data from AgNPs_FTO_APTES_UA_0.1mM_CRN_10uM_NaF_0.1M_Addition_RamanShift__15__11-35-57-552.txt Node

Date: Mon Dec 20 11:35:57 GMT 2021
User: TCL
Spectrometer: QEP01345
Trigger mode: 4
Integration Time (sec): 7.000000E0
Scans to average: 10
Electric dark correction enabled: true
Nonlinearity correction enabled: false
Boxcar width: 0
XAxis mode: Raman Shifts
Number of Pixels in Spectrum: 1044
>>>>>Begin Spectral Data<<<<<
46.04893	0.5
50.45542	-0.2
54.85868	-1.5
59.25871	1.9
63.6555	32.6
68.04907	37.3
72.43941	40.6
76.82654	37.8
81.21044	39
85.59113	49.1
89.96862	43.6
94.34289	47.7
98.71396	47.3
103.08183	48
107.4465	51.5
111.80798	52.9
116.16626	55.7
120.52136	56.1
124.87327	55.5
129.222	59.3
133.56755	61.1
137.90993	67.1
142.24913	70.6
146.58517	75.7
150.91804	92
155.24774	102.7
159.57429	124.4
163.89768	161.2
168.21792	208.6
172.53501	272
176.84895	375
181.15975	522.5
185.46741	730
189.77193	1007.2
194.07331	1345.5
198.37157	1749.3
202.6667	2184.3
206.9587	2599.9
211.24758	3039.6
215.53334	3470.7
219.81599	3911.8
224.09553	4385.1
228.37195	4920.3
232.64527	5481
236.91549	6078
241.18261	6675
245.44663	7240.9
249.70755	7717.2
253.96539	8117.2
258.22014	8439.9
262.4718	8636.3
266.72039	8756.2
270.96589	8756.1
275.20832	8689.3
279.44768	8556.6
283.68397	8403.8
287.91719	8217.4
292.14735	8108.5
296.37445	8000
300.59849	7971.3
304.81948	7931.5
309.03742	7913.5
313.25231	7827.5
317.46415	7707.1
321.67296	7564.5
325.87872	7432.4
330.08145	7373.2
334.28114	7384.3
338.47781	7422.1
342.67145	7486.7
346.86207	7554.2
351.04966	7691.2
355.23424	7815
359.4158	7942.1
363.59435	8032
367.76989	8122.9
371.94243	8225.4
376.11196	8271.2
380.27849	8347.9
384.44203	8441.1
388.60257	8476.5
392.76012	8544.2
396.91468	8645.5
401.06626	8771.5
405.21485	8805.6
409.36047	8813.3
413.50311	8726.2
417.64277	8639.2
421.77947	8606.1
425.9132	8593.2
430.04396	8609.6
434.17176	8631.1
438.2966	8689.8
442.41849	8740.5
446.53742	8830.4
450.6534	8944
454.76644	9038.2
458.87653	9077.8
462.98368	9116.2
467.08789	9128.8
471.18916	9124.4
475.2875	9120.8
479.38291	9142.4
483.4754	9204.2
487.56496	9249.7
491.6516	9324.3
495.73531	9409.9
499.81612	9429.5
503.89401	9445.1
507.96899	9438.9
512.04106	9386.4
516.11023	9336.9
520.1765	9313.5
524.23987	9315.9
528.30034	9266.9
532.35792	9243.7
536.41261	9213.2
540.46441	9148.7
544.51333	9082.4
548.55936	9066
552.60252	9095.8
556.64279	9143.2
560.6802	9177.1
564.71473	9201.3
568.7464	9261
572.7752	9315
576.80114	9328.6
580.82422	9365.5
584.84444	9439
588.86181	9520.7
592.87633	9539.6
596.888	9557.7
600.89682	9588.8
604.9028	9790.7
608.90594	10378.7
612.90624	11167.9
616.90371	11082.5
620.89834	10110.6
624.89015	9802.6
628.87913	9953.3
632.86528	10294
636.84862	10583.3
640.82913	10615.1
644.80683	10407.7
648.78172	10132
652.75379	9953.1
656.72306	9842.2
660.68952	9838.2
664.65319	9801.3
668.61405	9697.1
672.57211	9730.7
676.52738	9764.4
680.47986	9807
684.42955	9816.4
688.37646	9789.3
692.32058	9760.1
696.26192	9669.5
700.20048	9609.7
704.13626	9563.1
708.06928	9463.5
711.99952	9377.9
715.927	9299.9
719.85171	9251.8
723.77365	9256.7
727.69284	9223.3
731.60928	9190
735.52295	9134.3
739.43388	9129.7
743.34206	9141.9
747.24749	9167.4
751.15017	9181.1
755.05012	9199.3
758.94733	9312
762.8418	9525.5
766.73354	9888.3
770.62254	10299.2
774.50882	10526
778.39237	10341.9
782.27321	9891.1
786.15132	9493.3
790.02671	9260
793.89938	9150.9
797.76935	9119.6
801.6366	9169.6
805.50115	9228.8
809.36299	9311.1
813.22213	9372.4
817.07857	9278
820.93231	9151.6
824.78336	8995.3
828.63172	8903.7
832.47738	8831.4
836.32036	8803.9
840.16066	8763.3
843.99827	8750.9
847.8332	8741.5
851.66546	8734.3
855.49504	8742.3
859.32195	8746.9
863.1462	8739.3
866.96777	8800.4
870.78668	8840
874.60293	8900.9
878.41652	8958.3
882.22745	9047.2
886.03573	9133.5
889.84136	9124.3
893.64433	9042.2
897.44466	8957.8
901.24235	8843.5
905.0374	8744.1
908.8298	8670.6
912.61957	8641.4
916.40671	8658.3
920.19121	8630.6
923.97308	8652
927.75233	8638.4
931.52895	8605.6
935.30295	8560.8
939.07433	8493
942.84309	8435.4
946.60924	8393.2
950.37278	8382.3
954.13371	8380.3
957.89203	8352
961.64774	8336
965.40086	8312.9
969.15137	8305.6
972.89929	8278.9
976.64461	8232.1
980.38733	8222.2
984.12747	8231.6
987.86502	8236.1
991.59999	8243.7
995.33237	8301.7
999.06217	8366.9
1002.78939	8432
1006.51404	8549.1
1010.23611	8611.9
1013.95561	8708.2
1017.67255	8670.3
1021.38692	8656.8
1025.09872	8605.9
1028.80796	8500.1
1032.51465	8468.2
1036.21877	8491.8
1039.92035	8457.5
1043.61937	8481
1047.31584	8439.8
1051.00976	8450
1054.70114	8474.3
1058.38998	8483.8
1062.07627	8535.2
1065.76003	8612.4
1069.44126	8650.4
1073.11995	8715.6
1076.79611	8765.8
1080.46974	8802.6
1084.14085	8791.1
1087.80943	8747.5
1091.47549	8768.1
1095.13903	8746.9
1098.80005	8698.7
1102.45857	8610.5
1106.11456	8568
1109.76805	8585
1113.41903	8649.3
1117.06751	8802.4
1120.71348	9023.5
1124.35696	9313.7
1127.99793	9663.8
1131.63641	9996.4
1135.2724	10130.5
1138.90589	10083.4
1142.5369	9946.7
1146.16542	9672.9
1149.79145	9399.2
1153.415	9181.2
1157.03607	8949.8
1160.65467	8854.6
1164.27079	8861
1167.88443	8934.5
1171.49561	9118.4
1175.10432	9389.9
1178.71056	9779
1182.31434	10133.4
1185.91565	10360.7
1189.51451	10351.5
1193.11091	10301
1196.70485	10171.9
1200.29634	10065.7
1203.88538	9986.2
1207.47197	9842.2
1211.05612	9670.6
1214.63782	9510.1
1218.21708	9365.7
1221.79391	9237.3
1225.36829	9145.1
1228.94024	9045.5
1232.50976	8988.3
1236.07685	8933.9
1239.6415	8918.6
1243.20374	8922.3
1246.76355	8950.2
1250.32093	9021.5
1253.8759	9090.8
1257.42845	9179.3
1260.97859	9295.7
1264.52631	9389.1
1268.07163	9484.9
1271.61453	9581.8
1275.15503	9655.8
1278.69312	9698.7
1282.22882	9752.5
1285.76211	9825.5
1289.29301	9917.9
1292.82151	10083.3
1296.34761	10299.2
1299.87133	10569.8
1303.39266	10875.6
1306.9116	11248
1310.42815	11610.2
1313.94233	11917.3
1317.45412	11939.2
1320.96354	11778
1324.47058	11587
1327.97525	11381.1
1331.47754	11226.8
1334.97747	11178
1338.47502	11200.7
1341.97022	11292.6
1345.46305	11452
1348.95352	11663
1352.44163	11929.1
1355.92738	12253.1
1359.41078	12697.2
1362.89183	13203.5
1366.37053	13114.8
1369.84688	12342.4
1373.32088	11445.5
1376.79254	10827.8
1380.26186	10494.4
1383.72883	10328.9
1387.19347	10206.3
1390.65578	10096.8
1394.11575	9933.3
1397.57339	9789.2
1401.0287	9729.5
1404.48168	9641.6
1407.93234	9545.2
1411.38068	9412.3
1414.82669	9274.8
1418.27039	9106.6
1421.71177	8968.2
1425.15083	8785.3
1428.58758	8680.7
1432.02203	8651.8
1435.45416	8664.4
1438.88399	8710.5
1442.31151	8760.5
1445.73673	8786.4
1449.15965	8849.5
1452.58027	8877.9
1455.9986	8924.4
1459.41463	8970.8
1462.82837	9036.1
1466.23982	9145.3
1469.64898	9275.9
1473.05586	9326.9
1476.46045	9356.9
1479.86276	9356.8
1483.26279	9356.7
1486.66054	9374.3
1490.05602	9428.3
1493.44922	9521
1496.84016	9722.1
1500.22882	10038.2
1503.61521	10467.9
1506.99934	10923.2
1510.38121	11324.8
1513.76081	11444.4
1517.13816	11189.3
1520.51324	10680
1523.88607	10195.1
1527.25665	9920.2
1530.62498	9758.9
1533.99105	9669.7
1537.35488	9647.5
1540.71647	9615.8
1544.07581	9590.1
1547.4329	9579
1550.78776	9598
1554.14038	9603.4
1557.49077	9639.2
1560.83892	9691.6
1564.18484	9762.6
1567.52853	9822.1
1570.86999	9917.7
1574.20922	9959.7
1577.54624	9967.8
1580.88103	9892.7
1584.2136	9729.4
1587.54395	9629.1
1590.87208	9652.6
1594.19801	9781.1
1597.52172	10018.4
1600.84321	10161.2
1604.16251	10049.1
1607.47959	9871.7
1610.79447	9619.2
1614.10715	9371.5
1617.41763	9143.8
1620.7259	8979.1
1624.03199	8867.5
1627.33587	8863.3
1630.63757	8932.3
1633.93707	9093.3
1637.23439	9352.5
1640.52951	9756.4
1643.82246	10251.2
1647.11321	10733.6
1650.40179	11051.8
1653.68819	10945.8
1656.97241	10379.6
1660.25446	9744.7
1663.53433	9246.6
1666.81203	8942.7
1670.08756	8718
1673.36092	8568.1
1676.63211	8469.1
1679.90115	8338.8
1683.16801	8267.8
1686.43272	8110
1689.69527	7994.5
1692.95567	7850.6
1696.2139	7742.1
1699.46999	7631.9
1702.72392	7509.3
1705.97571	7445.3
1709.22535	7380.3
1712.47284	7330.4
1715.71819	7284.8
1718.96139	7241.5
1722.20246	7169.1
1725.44139	7107.4
1728.67818	7060.8
1731.91284	6979.4
1735.14537	6922.5
1738.37576	6878.8
1741.60403	6818.9
1744.83017	6778
1748.05418	6744.1
1751.27607	6717.5
1754.49584	6707.3
1757.71349	6694.9
1760.92903	6689.7
1764.14244	6652.8
1767.35375	6656.2
1770.56294	6649.4
1773.77002	6626.4
1776.97499	6589.5
1780.17785	6545.9
1783.37861	6518.3
1786.57727	6504.1
1789.77382	6478.8
1792.96828	6468.4
1796.16064	6464.9
1799.3509	6424.5
1802.53907	6414
1805.72514	6366.6
1808.90913	6365
1812.09102	6346.3
1815.27083	6333.2
1818.44856	6323.2
1821.6242	6297.5
1824.79776	6291.7
1827.96924	6277.9
1831.13864	6267.2
1834.30597	6256.4
1837.47122	6253.5
1840.6344	6221.6
1843.7955	6241.1
1846.95454	6223.5
1850.11151	6242
1853.26642	6230.5
1856.41926	6213.7
1859.57004	6203.5
1862.71876	6204.8
1865.86542	6190.1
1869.01003	6198.1
1872.15258	6184.7
1875.29308	6169.2
1878.43152	6155.2
1881.56792	6138
1884.70227	6138.8
1887.83457	6141.9
1890.96482	6105.8
1894.09304	6109.2
1897.21921	6091
1900.34335	6088.5
1903.46544	6073.6
1906.58551	6076.6
1909.70353	6062.4
1912.81953	6074.2
1915.93349	6055.9
1919.04543	6028.2
1922.15534	6025.3
1925.26322	6004.2
1928.36908	6010.9
1931.47292	5987.8
1934.57473	5965.7
1937.67453	5946
1940.77232	5933.9
1943.86808	5920.6
1946.96184	5906.7
1950.05358	5880.9
1953.14331	5881.2
1956.23103	5862
1959.31675	5844.3
1962.40046	5819.1
1965.48217	5804
1968.56188	5799.1
1971.63959	5784.4
1974.7153	5766.7
1977.78901	5751.5
1980.86073	5723.5
1983.93046	5721.8
1986.99819	5678.4
1990.06394	5681.3
1993.1277	5654.1
1996.18947	5641.5
1999.24925	5626.9
2002.30706	5605.8
2005.36288	5596.4
2008.41672	5577.1
2011.46859	5569
2014.51848	5535.6
2017.56639	5528
2020.61233	5507.7
2023.6563	5495.2
2026.6983	5473.7
2029.73833	5460.4
2032.7764	5459.1
2035.8125	5449.5
2038.84664	5429.3
2041.87881	5414.5
2044.90903	5396.9
2047.93729	5394.3
2050.96359	5401.6
2053.98794	5381.9
2057.01034	5387.6
2060.03078	5379.9
2063.04927	5364.6
2066.06582	5357.9
2069.08042	5347.9
2072.09307	5337.9
2075.10378	5345.5
2078.11255	5346.1
2081.11938	5341
2084.12426	5325.4
2087.12722	5334
2090.12824	5330.9
2093.12732	5344.1
2096.12447	5344.2
2099.11969	5327.5
2102.11299	5358.8
2105.10435	5344.9
2108.09379	5336
2111.08131	5348.9
2114.0669	5352.5
2117.05057	5349.8
2120.03233	5344.5
2123.01216	5351.3
2125.99008	5344
2128.96609	5354.5
2131.94018	5360.7
2134.91236	5367.7
2137.88263	5364.4
2140.851	5354.8
2143.81746	5385.4
2146.78201	5373
2149.74466	5368.7
2152.7054	5370.4
2155.66425	5382.4
2158.6212	5371
2161.57625	5356.2
2164.52941	5362.1
2167.48067	5363.3
2170.43004	5345.8
2173.37752	5346.6
2176.32311	5349.9
2179.26681	5355.5
2182.20863	5345.5
2185.14856	5345.2
2188.08661	5346.5
2191.02278	5353.5
2193.95707	5330.5
2196.88948	5346.4
2199.82001	5316.8
2202.74867	5302.9
2205.67545	5314
2208.60037	5288.2
2211.52341	5298.3
2214.44458	5267
2217.36388	5252.6
2220.28132	5257.7
2223.1969	5240.2
2226.11061	5240.9
2229.02246	5237.7
2231.93245	5221.4
2234.84058	5204.6
2237.74686	5189.4
2240.65128	5188
2243.55385	5173.8
2246.45456	5179.6
2249.35343	5166.5
2252.25044	5166.6
2255.14561	5143.1
2258.03893	5135.2
2260.93041	5142.3
2263.82004	5139.8
2266.70783	5111.3
2269.59378	5118.8
2272.4779	5099.6
2275.36017	5087.1
2278.24061	5062.4
2281.11922	5058.5
2283.996	5047
2286.87094	5041.1
2289.74405	5038.9
2292.61534	5013.6
2295.4848	5002.4
2298.35243	4992.4
2301.21824	4997.2
2304.08223	5010
2306.94439	4995.7
2309.80474	5002.2
2312.66327	4975.1
2315.51999	4980.3
2318.37489	4980.7
2321.22797	4970
2324.07925	4976.6
2326.92871	4965.7
2329.77637	4945.1
2332.62222	4963
2335.46626	4921.9
2338.3085	4924.5
2341.14893	4927.7
2343.98756	4899.4
2346.8244	4909.2
2349.65943	4893.9
2352.49267	4903.7
2355.32411	4902
2358.15376	4892.2
2360.98161	4873.2
2363.80768	4892.6
2366.63195	4871.4
2369.45444	4865
2372.27514	4862.5
2375.09405	4870.1
2377.91118	4853.7
2380.72652	4837.9
2383.54009	4824.8
2386.35187	4824.9
2389.16188	4802.8
2391.97011	4804.2
2394.77657	4787.8
2397.58125	4773.5
2400.38416	4773.7
2403.18529	4761.4
2405.98466	4749.6
2408.78226	4736.3
2411.57809	4734.3
2414.37216	4722.5
2417.16446	4727.5
2419.955	4718.7
2422.74378	4717.3
2425.5308	4717.1
2428.31606	4716.3
2431.09956	4695.7
2433.88131	4703.4
2436.6613	4685.8
2439.43954	4689.5
2442.21603	4678.1
2444.99077	4673.4
2447.76377	4677.8
2450.53501	4672.5
2453.30451	4681
2456.07226	4663.4
2458.83827	4657.4
2461.60254	4641.2
2464.36507	4659.4
2467.12586	4648.1
2469.88492	4641.2
2472.64224	4641.8
2475.39782	4622.2
2478.15167	4631.1
2480.90379	4625.3
2483.65417	4616.3
2486.40283	4620
2489.14976	4630.2
2491.89497	4610.3
2494.63845	4617.9
2497.3802	4598.7
2500.12024	4602.7
2502.85855	4599.8
2505.59514	4592.3
2508.33002	4581.4
2511.06318	4579.7
2513.79462	4575.9
2516.52435	4570.7
2519.25237	4558
2521.97867	4547.2
2524.70327	4553.9
2527.42616	4533.5
2530.14734	4541.3
2532.86681	4529.1
2535.58458	4497.7
2538.30065	4518.5
2541.01501	4501.7
2543.72768	4491.6
2546.43864	4474.8
2549.14791	4482.8
2551.85548	4471.3
2554.56136	4472
2557.26554	4469.5
2559.96803	4457.3
2562.66883	4455.1
2565.36794	4425.8
2568.06536	4433.1
2570.7611	4422.8
2573.45514	4428.2
2576.14751	4414.7
2578.83819	4401.1
2581.52719	4406.2
2584.21451	4396.3
2586.90015	4379.4
2589.58411	4371.8
2592.2664	4379.5
2594.94701	4347.8
2597.62594	4341.6
2600.30321	4330.4
2602.9788	4341
2605.65273	4338.1
2608.32498	4323.7
2610.99557	4312.1
2613.66449	4319.2
2616.33175	4312.7
2618.99734	4314.1
2621.66128	4307.4
2624.32355	4284
2626.98416	4298.6
2629.64311	4293.2
2632.30041	4278.4
2634.95605	4289.1
2637.61004	4265.5
2640.26238	4256.3
2642.91306	4264
2645.56209	4271.4
2648.20948	4252
2650.85521	4243.9
2653.4993	4254.5
2656.14175	4246.8
2658.78255	4243
2661.42171	4244.4
2664.05923	4240.4
2666.6951	4252.4
2669.32934	4226.2
2671.96194	4245.1
2674.59291	4250.5
2677.22224	4236.5
2679.84993	4234.7
2682.476	4256.5
2685.10043	4230.9
2687.72324	4235.2
2690.34441	4231.9
2692.96396	4237.9
2695.58188	4257.7
2698.19818	4232.2
2700.81285	4240.4
2703.4259	4246.3
2706.03733	4269
2708.64714	4266.9
2711.25533	4243.4
2713.86191	4233.5
2716.46687	4243.1
2719.07021	4243.8
2721.67194	4243.9
2724.27206	4246.9
2726.87057	4241.4
2729.46747	4240.4
2732.06276	4233.1
2734.65644	4248.5
2737.24852	4244.8
2739.83899	4227.9
2742.42786	4225
2745.01513	4194.8
2747.60079	4225.7
2750.18486	4206.8
2752.76733	4216.3
2755.3482	4219.3
2757.92747	4188.8
2760.50515	4196
2763.08123	4195.8
2765.65573	4184.1
2768.22863	4186.3
2770.79994	4178.3
2773.36967	4160.2
2775.9378	4164.7
2778.50435	4163.7
2781.06932	4153.6
2783.6327	4157.4
2786.1945	4148.4
2788.75471	4153.6
2791.31335	4137
2793.87041	4123
2796.42589	4107.6
2798.97979	4108.1
2801.53212	4090.7
2804.08288	4090.8
2806.63206	4096.4
2809.17967	4064.3
2811.72571	4068.7
2814.27018	4062.8
2816.81308	4057
2819.35442	4034.2
2821.89419	4038.9
2824.43239	4036
2826.96904	4034.9
2829.50412	4038.2
2832.03763	4017.1
2834.56959	4027.3
2837.1	4027.7
2839.62884	4020.3
2842.15613	4002.6
2844.68186	4026.5
2847.20604	4022.4
2849.72867	3999.7
2852.24974	4017.6
2854.76927	4012.4
2857.28724	4003.7
2859.80367	4011.2
2862.31855	3987.6
2864.83189	3998.3
2867.34368	3975.2
2869.85393	3989.2
2872.36264	3984.5
2874.8698	3992.7
2877.37543	3994.6
2879.87952	3998.4
2882.38207	4001.6
2884.88308	4003.9
2887.38256	4001.3
2889.88051	3994.9
2892.37692	3997.8
2894.8718	3997.6
2897.36515	4011.7
2899.85698	3991.7
2902.34727	4003
2904.83604	4012.6
2907.32328	4030.8
2909.809	4011.2
2912.29319	3994
2914.77587	4026.1
2917.25702	4009.8
2919.73665	4003.2
2922.21476	4020.8
2924.69136	4000.3
2927.16644	4019.9
2929.64	4015.7
2932.11205	4022.7
2934.58258	3991.1
2937.05161	4020.2
2939.51912	4012.5
2941.98513	4009.5
2944.44962	4008.2
2946.91261	4000.8
2949.37409	4009.2
2951.83407	3999.8
2954.29254	4000.5
2956.74951	3988.6
2959.20498	3997.8
2961.65895	3980.7
2964.11142	3986.7
2966.56239	3981.1
2969.01186	3980.9
2971.45984	3971.2
2973.90632	3969.9
2976.35131	3946.3
2978.7948	3949.1
2981.23681	3935.2
2983.67732	3946.6
2986.11635	3931.5
2988.55388	3916.2
2990.98993	3908.2
2993.4245	3905.1
2995.85758	3907.5
2998.28917	3902
3000.71928	3894.1
3003.14791	3894.5
3005.57506	3890.1
3008.00073	3884.6
3010.42493	3890.8
3012.84764	3886
3015.26888	3887
3017.68865	3869.9
3020.10694	3873.7
3022.52376	3872.5
3024.9391	3857.3
3027.35298	3845.7
3029.76539	3858
3032.17632	3853.3
3034.5858	3844.2
3036.9938	3839.7
3039.40034	3842.6
3041.80542	3840.6
3044.20903	3845.6
3046.61118	3840.8
3049.01187	3827.4
3051.4111	3831.4
3053.80888	3833.1
3056.20519	3831.2
3058.60005	3831.3
3060.99345	3814.8
3063.3854	3818
3065.7759	3807.6
3068.16494	3790.9
3070.55254	3793.7
3072.93868	3799.4
3075.32338	3796.9
3077.70662	3800.6
3080.08842	3788.7
3082.46878	3807.5
3084.84769	3781
3087.22515	3803.5
3089.60118	3805.8
3091.97576	3806.9
3094.3489	3804.3
3096.72061	3812
3099.09087	3831
3101.4597	3831.7
3103.82709	3824.9
3106.19305	3827.9
3108.55757	3824.4
3110.92066	3824
3113.28232	3811.9
3115.64255	3803.8
3118.00134	3817.2
3120.35871	3807.8
3122.71466	3821.8
3125.06917	3805.3
3127.42226	3802.9
3129.77393	3824.4
3132.12417	3828.5
3134.47299	3828.3
3136.82039	3846.5
3139.16636	3826.7
3141.51092	3843.1
3143.85406	3860.2
3146.19579	3855.2
3148.53609	3849.4
3150.87499	3867
3153.21246	3872.7
3155.54853	3870.1
3157.88318	3879.9
3160.21642	3889.6
3162.54826	3884.6
3164.87868	3903.5
3167.2077	3886.3
3169.5353	3911.6
3171.86151	3906
3174.18631	3912.6
3176.5097	3912.1
3178.83169	3900.7
3181.15228	3903.8
3183.47147	3904.1
3185.78926	3918.3
3188.10565	3916.2
3190.42065	3919.3
3192.73424	3916.9
3195.04645	3928.7
3197.35725	3932.4
3199.66667	3946.7
3201.97469	3943
3204.28132	3956.9
3206.58656	3968.6
3208.8904	3955
3211.19287	3973.7
3213.49394	3977.7
3215.79363	3977.5
3218.09193	3991.6
3220.38884	3990.7
3222.68438	3995
3224.97853	3997.7
3227.2713	3972.4
3229.56269	3970.2
3231.8527	3974.3
3234.14133	3970.5
3236.42858	3964.9
3238.71446	3961.2
3240.99896	3955.9
3243.28209	3952.5
3245.56384	3954.2
3247.84423	3959.1
3250.12324	3962.5
3252.40088	3959.1
3254.67715	3966.6
3256.95205	3956.8
3259.22558	3959.2
3261.49775	3949.4
3263.76855	3938.6
3266.03799	3938.4
3268.30606	3915.2
3270.57277	3926.6
3272.83812	3921.2
3275.10211	3924.1
3277.36474	3917.1
3279.62601	3907.9
3281.88593	3911.5
3284.14448	3908.5
3286.40168	3921
3288.65753	3902.5
3290.91202	3898
3293.16516	3877.8
3295.41695	3893.8
3297.66738	3862.3
3299.91647	3839.5
3302.16421	3812.6
3304.4106	3833.2
3306.65564	3801.2
3308.89933	3767.6
3311.14169	3750.5
3313.38269	3729.4
3315.62236	3708.3
3317.86068	3684.9
3320.09766	3648.1
3322.3333	3624.5
3324.5676	3630.6
3326.80056	3579.9
3329.03219	3555.8
3331.26248	0.2
3333.49143	0.6
3335.71905	-0.2
