Data from AgNPs_FTO_APTES_UA_0.1mM_CRN_0uM_NaF_0.1M_Addition_RamanShift__2__10-04-57-448.txt Node

Date: Mon Dec 20 10:04:57 GMT 2021
User: TCL
Spectrometer: QEP01345
Trigger mode: 4
Integration Time (sec): 7.000000E0
Scans to average: 10
Electric dark correction enabled: true
Nonlinearity correction enabled: false
Boxcar width: 0
XAxis mode: Raman Shifts
Number of Pixels in Spectrum: 1044
>>>>>Begin Spectral Data<<<<<
46.04893	0.475
50.45542	0.575
54.85868	-1.725
59.25871	1.075
63.6555	20.775
68.04907	21.875
72.43941	24.975
76.82654	27.175
81.21044	26.475
85.59113	32.575
89.96862	27.975
94.34289	29.475
98.71396	31.875
103.08183	30.775
107.4465	31.275
111.80798	33.775
116.16626	30.975
120.52136	35.175
124.87327	39.175
129.222	33.775
133.56755	34.775
137.90993	38.575
142.24913	40.175
146.58517	32.675
150.91804	40.875
155.24774	46.475
159.57429	50.875
163.89768	64.575
168.21792	78.075
172.53501	89.875
176.84895	121.275
181.15975	160.675
185.46741	218.475
189.77193	300.575
194.07331	395.775
198.37157	511.275
202.6667	640.675
206.9587	765.775
211.24758	892.675
215.53334	1025.575
219.81599	1156.675
224.09553	1286.775
228.37195	1451.475
232.64527	1613.475
236.91549	1773.475
241.18261	1936.475
245.44663	2080.675
249.70755	2199.275
253.96539	2303.175
258.22014	2377.775
262.4718	2428.775
266.72039	2445.275
270.96589	2443.675
275.20832	2409.775
279.44768	2361.175
283.68397	2298.775
287.91719	2224.475
292.14735	2168.875
296.37445	2114.275
300.59849	2075.475
304.81948	2041.675
309.03742	2016.275
313.25231	1966.575
317.46415	1935.775
321.67296	1896.275
325.87872	1874.875
330.08145	1848.375
334.28114	1825.075
338.47781	1836.075
342.67145	1825.475
346.86207	1844.575
351.04966	1857.375
355.23424	1868.175
359.4158	1869.475
363.59435	1883.175
367.76989	1886.875
371.94243	1890.375
376.11196	1894.375
380.27849	1891.975
384.44203	1889.175
388.60257	1904.175
392.76012	1899.875
396.91468	1911.475
401.06626	1920.175
405.21485	1934.475
409.36047	1929.575
413.50311	1900.375
417.64277	1880.375
421.77947	1878.375
425.9132	1869.075
430.04396	1883.375
434.17176	1899.975
438.2966	1909.675
442.41849	1927.275
446.53742	1932.075
450.6534	1952.075
454.76644	1957.575
458.87653	1969.175
462.98368	1976.275
467.08789	1985.375
471.18916	1976.575
475.2875	1984.275
479.38291	1994.875
483.4754	1998.775
487.56496	2039.375
491.6516	2063.675
495.73531	2086.675
499.81612	2091.375
503.89401	2088.175
507.96899	2072.475
512.04106	2053.275
516.11023	2047.975
520.1765	2033.675
524.23987	2051.175
528.30034	2042.675
532.35792	2041.575
536.41261	2018.675
540.46441	1992.075
544.51333	1974.575
548.55936	1970.675
552.60252	1952.775
556.64279	1975.975
560.6802	1977.675
564.71473	1975.075
568.7464	1973.375
572.7752	1982.075
576.80114	1973.375
580.82422	1965.175
584.84444	1982.875
588.86181	2004.275
592.87633	2022.975
596.888	2016.575
600.89682	2017.375
604.9028	2069.775
608.90594	2163.375
612.90624	2352.975
616.90371	2399.975
620.89834	2255.975
624.89015	2220.275
628.87913	2334.275
632.86528	2450.775
636.84862	2533.875
640.82913	2546.775
644.80683	2486.975
648.78172	2351.775
652.75379	2264.875
656.72306	2198.775
660.68952	2176.175
664.65319	2168.375
668.61405	2135.875
672.57211	2146.975
676.52738	2160.575
680.47986	2205.475
684.42955	2245.275
688.37646	2272.475
692.32058	2273.375
696.26192	2225.175
700.20048	2176.875
704.13626	2169.975
708.06928	2167.075
711.99952	2163.075
715.927	2151.475
719.85171	2157.075
723.77365	2169.775
727.69284	2164.475
731.60928	2174.875
735.52295	2153.575
739.43388	2126.175
743.34206	2099.775
747.24749	2087.175
751.15017	2081.075
755.05012	2083.075
758.94733	2094.675
762.8418	2128.875
766.73354	2192.175
770.62254	2272.875
774.50882	2318.175
778.39237	2312.475
782.27321	2252.875
786.15132	2184.175
790.02671	2171.075
793.89938	2181.675
797.76935	2221.975
801.6366	2280.675
805.50115	2352.975
809.36299	2383.175
813.22213	2393.575
817.07857	2356.475
820.93231	2270.375
824.78336	2194.275
828.63172	2149.075
832.47738	2101.875
836.32036	2080.075
840.16066	2083.875
843.99827	2077.375
847.8332	2058.275
851.66546	2029.475
855.49504	2017.375
859.32195	2012.875
863.1462	2008.375
866.96777	2002.375
870.78668	2022.275
874.60293	2045.175
878.41652	2098.075
882.22745	2144.475
886.03573	2197.175
889.84136	2252.075
893.64433	2263.375
897.44466	2252.675
901.24235	2210.275
905.0374	2197.975
908.8298	2190.575
912.61957	2227.275
916.40671	2280.275
920.19121	2387.375
923.97308	2454.575
927.75233	2519.075
931.52895	2517.575
935.30295	2497.975
939.07433	2446.075
942.84309	2406.975
946.60924	2362.275
950.37278	2341.175
954.13371	2326.175
957.89203	2273.675
961.64774	2211.275
965.40086	2179.375
969.15137	2127.975
972.89929	2086.775
976.64461	2065.675
980.38733	2051.175
984.12747	2026.275
987.86502	2040.875
991.59999	2025.375
995.33237	2055.275
999.06217	2075.675
1002.78939	2116.075
1006.51404	2156.075
1010.23611	2213.575
1013.95561	2279.575
1017.67255	2326.775
1021.38692	2360.975
1025.09872	2359.775
1028.80796	2323.175
1032.51465	2287.275
1036.21877	2242.075
1039.92035	2180.275
1043.61937	2124.975
1047.31584	2080.375
1051.00976	2056.675
1054.70114	2041.075
1058.38998	2017.175
1062.07627	2029.675
1065.76003	2022.775
1069.44126	2031.475
1073.11995	2027.875
1076.79611	2048.875
1080.46974	2040.875
1084.14085	2030.975
1087.80943	2007.975
1091.47549	1983.775
1095.13903	1965.575
1098.80005	1939.975
1102.45857	1925.375
1106.11456	1931.675
1109.76805	1938.875
1113.41903	1973.675
1117.06751	2035.375
1120.71348	2130.675
1124.35696	2247.975
1127.99793	2406.175
1131.63641	2534.975
1135.2724	2574.875
1138.90589	2553.675
1142.5369	2470.175
1146.16542	2367.975
1149.79145	2243.775
1153.415	2131.275
1157.03607	2050.675
1160.65467	2013.475
1164.27079	1983.875
1167.88443	1980.275
1171.49561	1997.375
1175.10432	2062.875
1178.71056	2113.375
1182.31434	2182.075
1185.91565	2223.275
1189.51451	2231.775
1193.11091	2226.675
1196.70485	2216.475
1200.29634	2225.475
1203.88538	2247.775
1207.47197	2212.675
1211.05612	2180.575
1214.63782	2123.975
1218.21708	2084.375
1221.79391	2062.775
1225.36829	2034.475
1228.94024	2031.975
1232.50976	2035.275
1236.07685	2033.975
1239.6415	2065.375
1243.20374	2062.575
1246.76355	2075.675
1250.32093	2108.475
1253.8759	2137.175
1257.42845	2175.675
1260.97859	2200.875
1264.52631	2237.175
1268.07163	2261.475
1271.61453	2279.175
1275.15503	2323.975
1278.69312	2329.175
1282.22882	2357.175
1285.76211	2407.775
1289.29301	2462.375
1292.82151	2524.375
1296.34761	2588.175
1299.87133	2648.075
1303.39266	2720.675
1306.9116	2786.975
1310.42815	2857.375
1313.94233	2890.575
1317.45412	2852.975
1320.96354	2802.075
1324.47058	2739.775
1327.97525	2690.675
1331.47754	2674.075
1334.97747	2683.275
1338.47502	2734.475
1341.97022	2818.575
1345.46305	2919.475
1348.95352	3047.675
1352.44163	3195.875
1355.92738	3368.075
1359.41078	3578.675
1362.89183	3771.375
1366.37053	3837.575
1369.84688	3708.475
1373.32088	3537.875
1376.79254	3401.975
1380.26186	3329.075
1383.72883	3289.875
1387.19347	3265.175
1390.65578	3259.975
1394.11575	3230.175
1397.57339	3209.175
1401.0287	3165.975
1404.48168	3135.475
1407.93234	3085.575
1411.38068	3047.175
1414.82669	3011.875
1418.27039	2965.775
1421.71177	2922.675
1425.15083	2845.775
1428.58758	2790.075
1432.02203	2705.475
1435.45416	2654.175
1438.88399	2597.875
1442.31151	2552.775
1445.73673	2525.675
1449.15965	2487.275
1452.58027	2473.375
1455.9986	2442.775
1459.41463	2455.475
1462.82837	2464.175
1466.23982	2463.575
1469.64898	2488.775
1473.05586	2503.675
1476.46045	2532.775
1479.86276	2547.275
1483.26279	2577.175
1486.66054	2599.775
1490.05602	2597.675
1493.44922	2612.275
1496.84016	2641.175
1500.22882	2679.475
1503.61521	2767.375
1506.99934	2858.675
1510.38121	2936.875
1513.76081	2952.075
1517.13816	2885.775
1520.51324	2748.675
1523.88607	2632.675
1527.25665	2528.075
1530.62498	2478.775
1533.99105	2471.875
1537.35488	2452.875
1540.71647	2441.175
1544.07581	2446.575
1547.4329	2450.775
1550.78776	2460.575
1554.14038	2473.375
1557.49077	2462.675
1560.83892	2453.475
1564.18484	2457.675
1567.52853	2433.575
1570.86999	2434.275
1574.20922	2406.275
1577.54624	2383.175
1580.88103	2324.075
1584.2136	2249.975
1587.54395	2197.775
1590.87208	2158.675
1594.19801	2128.175
1597.52172	2127.675
1600.84321	2133.675
1604.16251	2127.875
1607.47959	2108.275
1610.79447	2107.875
1614.10715	2092.075
1617.41763	2066.075
1620.7259	2060.575
1624.03199	2051.175
1627.33587	2053.075
1630.63757	2042.675
1633.93707	2040.975
1637.23439	2041.975
1640.52951	2048.475
1643.82246	2071.175
1647.11321	2137.275
1650.40179	2180.775
1653.68819	2188.175
1656.97241	2129.575
1660.25446	2030.775
1663.53433	1951.075
1666.81203	1923.075
1670.08756	1893.475
1673.36092	1874.375
1676.63211	1865.775
1679.90115	1861.975
1683.16801	1850.275
1686.43272	1834.175
1689.69527	1818.475
1692.95567	1793.775
1696.2139	1765.475
1699.46999	1740.875
1702.72392	1695.475
1705.97571	1643.975
1709.22535	1590.075
1712.47284	1551.875
1715.71819	1497.075
1718.96139	1456.475
1722.20246	1415.975
1725.44139	1389.975
1728.67818	1357.575
1731.91284	1329.075
1735.14537	1310.475
1738.37576	1302.975
1741.60403	1282.975
1744.83017	1263.775
1748.05418	1258.575
1751.27607	1251.075
1754.49584	1233.975
1757.71349	1239.475
1760.92903	1222.875
1764.14244	1213.775
1767.35375	1211.575
1770.56294	1218.275
1773.77002	1212.575
1776.97499	1201.075
1780.17785	1192.075
1783.37861	1193.975
1786.57727	1192.575
1789.77382	1181.075
1792.96828	1178.775
1796.16064	1173.975
1799.3509	1167.375
1802.53907	1166.275
1805.72514	1158.375
1808.90913	1159.575
1812.09102	1147.275
1815.27083	1150.875
1818.44856	1150.675
1821.6242	1138.875
1824.79776	1138.575
1827.96924	1134.775
1831.13864	1132.375
1834.30597	1135.575
1837.47122	1130.975
1840.6344	1122.275
1843.7955	1119.775
1846.95454	1120.975
1850.11151	1117.775
1853.26642	1119.875
1856.41926	1120.775
1859.57004	1108.275
1862.71876	1117.375
1865.86542	1111.575
1869.01003	1109.475
1872.15258	1106.675
1875.29308	1110.075
1878.43152	1093.875
1881.56792	1096.475
1884.70227	1105.375
1887.83457	1096.075
1890.96482	1094.375
1894.09304	1105.175
1897.21921	1084.975
1900.34335	1089.675
1903.46544	1086.175
1906.58551	1093.775
1909.70353	1080.475
1912.81953	1078.875
1915.93349	1075.575
1919.04543	1071.575
1922.15534	1076.375
1925.26322	1068.775
1928.36908	1072.675
1931.47292	1058.675
1934.57473	1061.775
1937.67453	1056.675
1940.77232	1052.975
1943.86808	1056.375
1946.96184	1055.075
1950.05358	1044.675
1953.14331	1049.675
1956.23103	1051.375
1959.31675	1044.775
1962.40046	1036.475
1965.48217	1033.875
1968.56188	1022.875
1971.63959	1023.175
1974.7153	1019.275
1977.78901	1016.075
1980.86073	1016.175
1983.93046	1004.075
1986.99819	1005.975
1990.06394	998.475
1993.1277	999.475
1996.18947	998.775
1999.24925	996.975
2002.30706	992.575
2005.36288	985.875
2008.41672	988.275
2011.46859	984.575
2014.51848	981.275
2017.56639	977.675
2020.61233	973.875
2023.6563	978.775
2026.6983	966.075
2029.73833	965.275
2032.7764	966.875
2035.8125	965.375
2038.84664	952.375
2041.87881	961.675
2044.90903	958.175
2047.93729	963.275
2050.96359	961.175
2053.98794	963.475
2057.01034	967.475
2060.03078	967.175
2063.04927	965.075
2066.06582	971.675
2069.08042	975.075
2072.09307	968.075
2075.10378	987.075
2078.11255	992.675
2081.11938	1006.275
2084.12426	1001.275
2087.12722	1012.775
2090.12824	1028.475
2093.12732	1025.775
2096.12447	1039.775
2099.11969	1032.175
2102.11299	1040.575
2105.10435	1038.075
2108.09379	1051.375
2111.08131	1047.375
2114.0669	1050.775
2117.05057	1037.375
2120.03233	1041.775
2123.01216	1033.775
2125.99008	1036.175
2128.96609	1034.575
2131.94018	1033.075
2134.91236	1021.975
2137.88263	1021.375
2140.851	1012.975
2143.81746	1000.875
2146.78201	1000.675
2149.74466	997.275
2152.7054	985.975
2155.66425	977.375
2158.6212	968.675
2161.57625	965.775
2164.52941	956.375
2167.48067	946.575
2170.43004	939.175
2173.37752	935.675
2176.32311	934.875
2179.26681	936.775
2182.20863	936.275
2185.14856	930.875
2188.08661	928.575
2191.02278	924.975
2193.95707	921.475
2196.88948	918.075
2199.82001	922.575
2202.74867	917.775
2205.67545	915.075
2208.60037	913.675
2211.52341	910.275
2214.44458	908.375
2217.36388	903.575
2220.28132	909.075
2223.1969	897.975
2226.11061	893.975
2229.02246	902.775
2231.93245	892.275
2234.84058	887.975
2237.74686	885.975
2240.65128	884.275
2243.55385	885.875
2246.45456	881.275
2249.35343	878.475
2252.25044	877.775
2255.14561	872.575
2258.03893	879.575
2260.93041	879.575
2263.82004	873.875
2266.70783	868.675
2269.59378	870.575
2272.4779	869.075
2275.36017	861.775
2278.24061	859.175
2281.11922	862.175
2283.996	850.775
2286.87094	863.575
2289.74405	860.475
2292.61534	854.075
2295.4848	848.975
2298.35243	841.375
2301.21824	850.775
2304.08223	852.175
2306.94439	854.575
2309.80474	845.875
2312.66327	842.375
2315.51999	845.675
2318.37489	843.475
2321.22797	842.275
2324.07925	838.875
2326.92871	832.175
2329.77637	835.175
2332.62222	831.575
2335.46626	833.375
2338.3085	824.775
2341.14893	818.875
2343.98756	822.775
2346.8244	823.875
2349.65943	816.375
2352.49267	819.575
2355.32411	817.075
2358.15376	816.075
2360.98161	815.075
2363.80768	815.475
2366.63195	816.475
2369.45444	819.675
2372.27514	815.575
2375.09405	811.775
2377.91118	815.075
2380.72652	807.975
2383.54009	801.875
2386.35187	806.775
2389.16188	800.675
2391.97011	801.875
2394.77657	806.175
2397.58125	788.375
2400.38416	796.475
2403.18529	795.875
2405.98466	791.375
2408.78226	795.175
2411.57809	797.175
2414.37216	786.675
2417.16446	793.275
2419.955	783.575
2422.74378	791.175
2425.5308	787.375
2428.31606	788.775
2431.09956	776.075
2433.88131	781.675
2436.6613	777.375
2439.43954	777.275
2442.21603	776.975
2444.99077	773.075
2447.76377	772.975
2450.53501	771.275
2453.30451	775.575
2456.07226	769.875
2458.83827	772.575
2461.60254	771.675
2464.36507	766.375
2467.12586	760.475
2469.88492	760.175
2472.64224	765.075
2475.39782	753.075
2478.15167	763.975
2480.90379	758.175
2483.65417	765.375
2486.40283	761.875
2489.14976	764.475
2491.89497	755.075
2494.63845	754.875
2497.3802	757.775
2500.12024	748.775
2502.85855	748.675
2505.59514	747.375
2508.33002	749.575
2511.06318	751.975
2513.79462	751.575
2516.52435	740.175
2519.25237	736.175
2521.97867	735.575
2524.70327	736.575
2527.42616	737.575
2530.14734	739.075
2532.86681	726.275
2535.58458	731.075
2538.30065	734.775
2541.01501	732.375
2543.72768	726.675
2546.43864	730.175
2549.14791	723.375
2551.85548	724.975
2554.56136	732.075
2557.26554	723.675
2559.96803	716.575
2562.66883	723.175
2565.36794	718.775
2568.06536	710.675
2570.7611	713.675
2573.45514	712.375
2576.14751	715.775
2578.83819	718.675
2581.52719	712.275
2584.21451	706.275
2586.90015	712.075
2589.58411	709.675
2592.2664	709.775
2594.94701	703.375
2597.62594	703.475
2600.30321	698.275
2602.9788	698.975
2605.65273	701.475
2608.32498	694.075
2610.99557	699.075
2613.66449	692.375
2616.33175	693.075
2618.99734	695.675
2621.66128	692.875
2624.32355	692.475
2626.98416	702.075
2629.64311	690.975
2632.30041	694.575
2634.95605	693.375
2637.61004	691.975
2640.26238	685.475
2642.91306	693.375
2645.56209	688.775
2648.20948	693.775
2650.85521	684.975
2653.4993	689.175
2656.14175	681.875
2658.78255	683.075
2661.42171	686.975
2664.05923	690.975
2666.6951	685.575
2669.32934	693.175
2671.96194	690.475
2674.59291	692.575
2677.22224	693.175
2679.84993	690.675
2682.476	692.575
2685.10043	692.975
2687.72324	697.075
2690.34441	694.475
2692.96396	697.275
2695.58188	703.675
2698.19818	696.975
2700.81285	693.275
2703.4259	705.175
2706.03733	702.775
2708.64714	700.975
2711.25533	705.575
2713.86191	703.875
2716.46687	703.075
2719.07021	707.575
2721.67194	698.275
2724.27206	695.475
2726.87057	710.875
2729.46747	702.675
2732.06276	700.875
2734.65644	701.875
2737.24852	695.075
2739.83899	709.475
2742.42786	691.675
2745.01513	698.875
2747.60079	701.975
2750.18486	703.075
2752.76733	699.375
2755.3482	698.875
2757.92747	694.675
2760.50515	694.975
2763.08123	701.275
2765.65573	690.075
2768.22863	691.675
2770.79994	688.175
2773.36967	697.575
2775.9378	688.575
2778.50435	681.975
2781.06932	683.675
2783.6327	682.675
2786.1945	685.775
2788.75471	680.175
2791.31335	689.775
2793.87041	680.675
2796.42589	677.375
2798.97979	682.575
2801.53212	676.875
2804.08288	674.475
2806.63206	674.175
2809.17967	674.975
2811.72571	674.675
2814.27018	676.675
2816.81308	673.075
2819.35442	664.775
2821.89419	674.075
2824.43239	670.875
2826.96904	670.875
2829.50412	665.975
2832.03763	663.975
2834.56959	669.475
2837.1	662.775
2839.62884	670.575
2842.15613	670.675
2844.68186	666.575
2847.20604	663.975
2849.72867	664.175
2852.24974	668.375
2854.76927	668.575
2857.28724	671.775
2859.80367	671.775
2862.31855	671.575
2864.83189	669.775
2867.34368	669.175
2869.85393	675.875
2872.36264	668.575
2874.8698	681.975
2877.37543	682.775
2879.87952	692.575
2882.38207	688.275
2884.88308	687.775
2887.38256	687.775
2889.88051	693.275
2892.37692	697.475
2894.8718	702.575
2897.36515	708.975
2899.85698	717.175
2902.34727	721.275
2904.83604	729.775
2907.32328	740.675
2909.809	752.575
2912.29319	751.875
2914.77587	769.275
2917.25702	766.375
2919.73665	781.575
2922.21476	778.175
2924.69136	793.775
2927.16644	799.875
2929.64	797.275
2932.11205	806.675
2934.58258	817.475
2937.05161	807.675
2939.51912	803.375
2941.98513	807.775
2944.44962	805.575
2946.91261	797.575
2949.37409	793.475
2951.83407	780.275
2954.29254	768.575
2956.74951	760.875
2959.20498	743.275
2961.65895	737.775
2964.11142	729.475
2966.56239	723.375
2969.01186	714.775
2971.45984	709.875
2973.90632	703.775
2976.35131	697.875
2978.7948	700.975
2981.23681	694.575
2983.67732	689.975
2986.11635	688.475
2988.55388	686.175
2990.98993	684.275
2993.4245	681.475
2995.85758	678.575
2998.28917	683.875
3000.71928	676.175
3003.14791	677.175
3005.57506	669.875
3008.00073	681.275
3010.42493	678.575
3012.84764	674.575
3015.26888	676.075
3017.68865	678.075
3020.10694	679.375
3022.52376	676.575
3024.9391	679.075
3027.35298	679.575
3029.76539	679.075
3032.17632	683.375
3034.5858	679.075
3036.9938	686.475
3039.40034	686.575
3041.80542	688.575
3044.20903	686.575
3046.61118	683.475
3049.01187	686.375
3051.4111	681.775
3053.80888	695.675
3056.20519	692.875
3058.60005	685.175
3060.99345	696.575
3063.3854	695.375
3065.7759	694.975
3068.16494	699.475
3070.55254	694.875
3072.93868	700.975
3075.32338	708.575
3077.70662	707.675
3080.08842	714.175
3082.46878	718.175
3084.84769	715.675
3087.22515	719.275
3089.60118	723.375
3091.97576	732.375
3094.3489	728.275
3096.72061	734.375
3099.09087	741.275
3101.4597	746.175
3103.82709	746.975
3106.19305	750.075
3108.55757	754.075
3110.92066	757.675
3113.28232	761.275
3115.64255	765.575
3118.00134	772.975
3120.35871	770.775
3122.71466	776.975
3125.06917	778.875
3127.42226	781.475
3129.77393	790.175
3132.12417	803.375
3134.47299	808.075
3136.82039	810.375
3139.16636	810.975
3141.51092	818.575
3143.85406	821.275
3146.19579	827.975
3148.53609	839.175
3150.87499	840.775
3153.21246	854.075
3155.54853	853.975
3157.88318	862.275
3160.21642	865.575
3162.54826	877.575
3164.87868	869.875
3167.2077	881.075
3169.5353	885.875
3171.86151	899.775
3174.18631	898.575
3176.5097	907.775
3178.83169	905.875
3181.15228	911.375
3183.47147	915.675
3185.78926	926.975
3188.10565	930.475
3190.42065	928.375
3192.73424	930.975
3195.04645	938.875
3197.35725	942.175
3199.66667	939.175
3201.97469	958.275
3204.28132	954.975
3206.58656	960.275
3208.8904	964.675
3211.19287	966.375
3213.49394	974.675
3215.79363	971.075
3218.09193	982.475
3220.38884	980.375
3222.68438	988.075
3224.97853	987.575
3227.2713	982.575
3229.56269	992.175
3231.8527	990.475
3234.14133	984.875
3236.42858	983.175
3238.71446	985.875
3240.99896	987.375
3243.28209	996.175
3245.56384	995.575
3247.84423	997.475
3250.12324	990.575
3252.40088	998.375
3254.67715	1001.675
3256.95205	1002.575
3259.22558	1003.475
3261.49775	996.975
3263.76855	997.675
3266.03799	1000.575
3268.30606	993.875
3270.57277	990.475
3272.83812	991.875
3275.10211	996.075
3277.36474	998.875
3279.62601	992.575
3281.88593	994.275
3284.14448	988.775
3286.40168	988.275
3288.65753	998.675
3290.91202	991.075
