Data from AgNPs_FTO_APTES_UA_0.1mM_CRN_10uM_NaF_0.1M_Addition_RamanShift__30__11-53-27-572.txt Node

Date: Mon Dec 20 11:53:27 GMT 2021
User: TCL
Spectrometer: QEP01345
Trigger mode: 4
Integration Time (sec): 7.000000E0
Scans to average: 10
Electric dark correction enabled: true
Nonlinearity correction enabled: false
Boxcar width: 0
XAxis mode: Raman Shifts
Number of Pixels in Spectrum: 1044
>>>>>Begin Spectral Data<<<<<
46.04893	-0.1
50.45542	0.4
54.85868	-1.6
59.25871	1.1
63.6555	29.3
68.04907	29.7
72.43941	37.8
76.82654	37.8
81.21044	36.4
85.59113	43.2
89.96862	38.7
94.34289	42.2
98.71396	41.9
103.08183	41.7
107.4465	46.9
111.80798	48.3
116.16626	45.2
120.52136	48
124.87327	51
129.222	50.7
133.56755	52.3
137.90993	58.5
142.24913	58.1
146.58517	58.8
150.91804	71.4
155.24774	82.9
159.57429	100.2
163.89768	125.8
168.21792	163.1
172.53501	210
176.84895	283.1
181.15975	393.1
185.46741	534.1
189.77193	731.2
194.07331	970
198.37157	1250.6
202.6667	1549.2
206.9587	1842.2
211.24758	2132.3
215.53334	2413.3
219.81599	2724.7
224.09553	3065.5
228.37195	3432.8
232.64527	3826.2
236.91549	4224.7
241.18261	4606.4
245.44663	4907
249.70755	5165.7
253.96539	5345.3
258.22014	5510.6
262.4718	5641.5
266.72039	5710.2
270.96589	5743.7
275.20832	5695.8
279.44768	5611.8
283.68397	5526.9
287.91719	5441.4
292.14735	5448.2
296.37445	5533.4
300.59849	5711
304.81948	5920.2
309.03742	6076.3
313.25231	6061.1
317.46415	5809
321.67296	5405.4
325.87872	5026.5
330.08145	4818.7
334.28114	4772.5
338.47781	4846.1
342.67145	4946.1
346.86207	5139.3
351.04966	5415.4
355.23424	5763.9
359.4158	6032.8
363.59435	6180.1
367.76989	6254.6
371.94243	6283.5
376.11196	6291
380.27849	6279.9
384.44203	6282.4
388.60257	6223.3
392.76012	6183.4
396.91468	6234
401.06626	6367.2
405.21485	6456
409.36047	6328.8
413.50311	5999.9
417.64277	5661.5
421.77947	5466.3
425.9132	5362.4
430.04396	5328.4
434.17176	5342
438.2966	5424
442.41849	5523.1
446.53742	5693.6
450.6534	5813.8
454.76644	5912.3
458.87653	5910.2
462.98368	5870.2
467.08789	5799.9
471.18916	5700.6
475.2875	5624
479.38291	5583.7
483.4754	5604.7
487.56496	5705.4
491.6516	5826.8
495.73531	5877.2
499.81612	5819.7
503.89401	5741.6
507.96899	5716.8
512.04106	5774.1
516.11023	5900.1
520.1765	6061.6
524.23987	6177.3
528.30034	6150.3
532.35792	6038.9
536.41261	5834.8
540.46441	5625.4
544.51333	5453.4
548.55936	5352.6
552.60252	5364.5
556.64279	5456.3
560.6802	5505.8
564.71473	5581.1
568.7464	5790.8
572.7752	5951.9
576.80114	5824.8
580.82422	5658.1
584.84444	5678.5
588.86181	5756.6
592.87633	5833.6
596.888	5901.8
600.89682	5980.1
604.9028	6525.3
608.90594	8123.3
612.90624	10439.3
616.90371	10569.9
620.89834	8249
624.89015	7399.1
628.87913	7758.7
632.86528	8251.4
636.84862	8464
640.82913	8177.5
644.80683	7468.6
648.78172	6743.6
652.75379	6302.8
656.72306	6131.8
660.68952	6182.5
664.65319	6018.8
668.61405	5678
672.57211	5492.1
676.52738	5465.4
680.47986	5463.7
684.42955	5431.4
688.37646	5416
692.32058	5428.4
696.26192	5459.2
700.20048	5468.1
704.13626	5477.4
708.06928	5411.1
711.99952	5347.7
715.927	5342.9
719.85171	5420
723.77365	5502.4
727.69284	5464.8
731.60928	5374.5
735.52295	5282.8
739.43388	5243
743.34206	5252.4
747.24749	5286.3
751.15017	5330.7
755.05012	5378.3
758.94733	5596.3
762.8418	6080.7
766.73354	6976.3
770.62254	7926.5
774.50882	8448.1
778.39237	8214.7
782.27321	7243.9
786.15132	6261.2
790.02671	5728.7
793.89938	5508.9
797.76935	5517.8
801.6366	5681.5
805.50115	6071.1
809.36299	6473.1
813.22213	6601.9
817.07857	6378.8
820.93231	6002.4
824.78336	5614
828.63172	5371.4
832.47738	5220.4
836.32036	5143.1
840.16066	5093.1
843.99827	5043
847.8332	5029.9
851.66546	5006.8
855.49504	5035.7
859.32195	5029.9
863.1462	5079.5
866.96777	5172
870.78668	5347.4
874.60293	5595.9
878.41652	5879.8
882.22745	6162.7
886.03573	6298.2
889.84136	6258.4
893.64433	5984.6
897.44466	5670.6
901.24235	5371.1
905.0374	5127.8
908.8298	4969.3
912.61957	4875.2
916.40671	4844.4
920.19121	4832.6
923.97308	4840.1
927.75233	4860.4
931.52895	4901.5
935.30295	4880.1
939.07433	4763.6
942.84309	4641.1
946.60924	4586.8
950.37278	4564.1
954.13371	4547.2
957.89203	4526.6
961.64774	4510.5
965.40086	4503.5
969.15137	4492.1
972.89929	4471.3
976.64461	4475
980.38733	4475.9
984.12747	4468.1
987.86502	4513.7
991.59999	4565.9
995.33237	4653.9
999.06217	4812.4
1002.78939	5009.4
1006.51404	5232.6
1010.23611	5476.1
1013.95561	5581.3
1017.67255	5574.2
1021.38692	5476.9
1025.09872	5300.7
1028.80796	5103
1032.51465	4956.1
1036.21877	4890.6
1039.92035	4827.3
1043.61937	4828.2
1047.31584	4812.1
1051.00976	4814.5
1054.70114	4845.7
1058.38998	4894.7
1062.07627	4964.9
1065.76003	5061.5
1069.44126	5142.4
1073.11995	5178.6
1076.79611	5201.9
1080.46974	5202.1
1084.14085	5223.5
1087.80943	5268.6
1091.47549	5260.7
1095.13903	5137.2
1098.80005	4988.4
1102.45857	4869.6
1106.11456	4867.2
1109.76805	4944.2
1113.41903	5122.8
1117.06751	5419.6
1120.71348	5855.4
1124.35696	6404.9
1127.99793	7084.4
1131.63641	7546.8
1135.2724	7633.5
1138.90589	7491.1
1142.5369	7128.5
1146.16542	6645.5
1149.79145	6131.9
1153.415	5707.9
1157.03607	5406.7
1160.65467	5264.2
1164.27079	5291.3
1167.88443	5449.1
1171.49561	5797
1175.10432	6429.9
1178.71056	7296.5
1182.31434	8044.8
1185.91565	8370
1189.51451	8387.6
1193.11091	8290.6
1196.70485	8222
1200.29634	8198.6
1203.88538	8098.2
1207.47197	7669
1211.05612	7144.1
1214.63782	6619.1
1218.21708	6193.4
1221.79391	5892.2
1225.36829	5646.9
1228.94024	5506.6
1232.50976	5380.6
1236.07685	5319.3
1239.6415	5336.8
1243.20374	5347.5
1246.76355	5405.5
1250.32093	5452.9
1253.8759	5531.3
1257.42845	5635.8
1260.97859	5807.3
1264.52631	5926.3
1268.07163	6050.6
1271.61453	6148.8
1275.15503	6178.3
1278.69312	6151.4
1282.22882	6134.2
1285.76211	6238.2
1289.29301	6439.9
1292.82151	6681.5
1296.34761	6945.5
1299.87133	7330.4
1303.39266	7937.5
1306.9116	8843.5
1310.42815	9849.4
1313.94233	10413.4
1317.45412	10276.2
1320.96354	9669.3
1324.47058	8952.9
1327.97525	8340.6
1331.47754	8006.1
1334.97747	7943.7
1338.47502	8062.6
1341.97022	8331.9
1345.46305	8693.6
1348.95352	9262.6
1352.44163	9985.7
1355.92738	10964.7
1359.41078	12362.7
1362.89183	13618.5
1366.37053	13243.2
1369.84688	11500.4
1373.32088	9703.9
1376.79254	8482.7
1380.26186	7843.3
1383.72883	7494.2
1387.19347	7247
1390.65578	6990.2
1394.11575	6771.7
1397.57339	6653.2
1401.0287	6593.1
1404.48168	6542.6
1407.93234	6464.8
1411.38068	6369.8
1414.82669	6237
1418.27039	6046.3
1421.71177	5840.6
1425.15083	5680.2
1428.58758	5561.2
1432.02203	5592.9
1435.45416	5622.9
1438.88399	5641.2
1442.31151	5645.6
1445.73673	5670.9
1449.15965	5715.4
1452.58027	5712.8
1455.9986	5659.7
1459.41463	5637.3
1462.82837	5693.5
1466.23982	5770.4
1469.64898	5899.3
1473.05586	5978.4
1476.46045	6030
1479.86276	6136
1483.26279	6266.3
1486.66054	6463.6
1490.05602	6703.4
1493.44922	7026.9
1496.84016	7475.9
1500.22882	8195.4
1503.61521	9164.6
1506.99934	10259.5
1510.38121	11159.1
1513.76081	11499.2
1517.13816	10872.3
1520.51324	9555.4
1523.88607	8286.1
1527.25665	7477
1530.62498	7058.9
1533.99105	6861.7
1537.35488	6801.2
1540.71647	6794.3
1544.07581	6851.7
1547.4329	6902.3
1550.78776	6932.3
1554.14038	6928.7
1557.49077	6938.1
1560.83892	6995.1
1564.18484	7103.1
1567.52853	7286.3
1570.86999	7469.4
1574.20922	7604.7
1577.54624	7596.4
1580.88103	7312.2
1584.2136	6916.3
1587.54395	6702.4
1590.87208	6700.1
1594.19801	6980.9
1597.52172	7389.4
1600.84321	7679.6
1604.16251	7570.2
1607.47959	7273.6
1610.79447	6901.9
1614.10715	6489.5
1617.41763	6208.9
1620.7259	6007.7
1624.03199	5944.6
1627.33587	5945.4
1630.63757	6038.3
1633.93707	6270.1
1637.23439	6642.2
1640.52951	7230.5
1643.82246	7992.2
1647.11321	8974.2
1650.40179	9718.1
1653.68819	9649.6
1656.97241	8693.1
1660.25446	7530
1663.53433	6627.7
1666.81203	5996.9
1670.08756	5584
1673.36092	5286
1676.63211	5088.1
1679.90115	4939.8
1683.16801	4800.7
1686.43272	4703
1689.69527	4602.5
1692.95567	4523.2
1696.2139	4460.1
1699.46999	4390
1702.72392	4292.9
1705.97571	4226.2
1709.22535	4151.6
1712.47284	4123.1
1715.71819	4075.3
1718.96139	4028.2
1722.20246	3995.4
1725.44139	3943.3
1728.67818	3902.1
1731.91284	3859.6
1735.14537	3793.6
1738.37576	3769.6
1741.60403	3724.4
1744.83017	3715.9
1748.05418	3701.7
1751.27607	3693.4
1754.49584	3663.1
1757.71349	3673.4
1760.92903	3641.9
1764.14244	3629.4
1767.35375	3606.2
1770.56294	3611.8
1773.77002	3580.3
1776.97499	3561.3
1780.17785	3536.4
1783.37861	3499
1786.57727	3492.5
1789.77382	3488.8
1792.96828	3475.2
1796.16064	3464.3
1799.3509	3458.1
1802.53907	3446.3
1805.72514	3427.5
1808.90913	3409.9
1812.09102	3392.7
1815.27083	3379
1818.44856	3381.4
1821.6242	3372.9
1824.79776	3359.2
1827.96924	3363.9
1831.13864	3351.6
1834.30597	3351.9
1837.47122	3336.5
1840.6344	3327.2
1843.7955	3334
1846.95454	3335.5
1850.11151	3329.8
1853.26642	3328.3
1856.41926	3305.5
1859.57004	3320.5
1862.71876	3322.6
1865.86542	3306.2
1869.01003	3310.8
1872.15258	3300
1875.29308	3301.9
1878.43152	3291.7
1881.56792	3286.5
1884.70227	3275.8
1887.83457	3272.3
1890.96482	3267.6
1894.09304	3262.1
1897.21921	3256.9
1900.34335	3259.5
1903.46544	3252.5
1906.58551	3254.1
1909.70353	3235.9
1912.81953	3248.7
1915.93349	3241.2
1919.04543	3224.3
1922.15534	3207.9
1925.26322	3204.9
1928.36908	3200.6
1931.47292	3199.9
1934.57473	3177.7
1937.67453	3174.9
1940.77232	3169.8
1943.86808	3160.1
1946.96184	3147.2
1950.05358	3131.8
1953.14331	3129
1956.23103	3119.1
1959.31675	3103.4
1962.40046	3102.4
1965.48217	3092.6
1968.56188	3087.1
1971.63959	3077.2
1974.7153	3057.5
1977.78901	3059.3
1980.86073	3043.5
1983.93046	3038.8
1986.99819	3016.2
1990.06394	3014.2
1993.1277	2988.7
1996.18947	2990.7
1999.24925	2985.9
2002.30706	2961.3
2005.36288	2969.1
2008.41672	2950
2011.46859	2942.9
2014.51848	2938.1
2017.56639	2924
2020.61233	2907.4
2023.6563	2904.8
2026.6983	2906.9
2029.73833	2896.7
2032.7764	2890.8
2035.8125	2887.9
2038.84664	2878.1
2041.87881	2875.1
2044.90903	2865.2
2047.93729	2874.5
2050.96359	2869.7
2053.98794	2862.8
2057.01034	2855.4
2060.03078	2850.8
2063.04927	2847.9
2066.06582	2836.4
2069.08042	2834.9
2072.09307	2829.4
2075.10378	2832.6
2078.11255	2827.8
2081.11938	2822.2
2084.12426	2816.3
2087.12722	2812.1
2090.12824	2825.3
2093.12732	2817.3
2096.12447	2807.8
2099.11969	2814.6
2102.11299	2821
2105.10435	2809.1
2108.09379	2805
2111.08131	2808.4
2114.0669	2818.4
2117.05057	2830.4
2120.03233	2818.2
2123.01216	2832.2
2125.99008	2830.4
2128.96609	2818.1
2131.94018	2826.1
2134.91236	2830.8
2137.88263	2819.2
2140.851	2819.2
2143.81746	2827.7
2146.78201	2814.6
2149.74466	2816.3
2152.7054	2834.2
2155.66425	2824.2
2158.6212	2817.4
2161.57625	2798.7
2164.52941	2815.3
2167.48067	2811.5
2170.43004	2806.3
2173.37752	2805.8
2176.32311	2808.9
2179.26681	2796.2
2182.20863	2797.3
2185.14856	2804.2
2188.08661	2789.9
2191.02278	2785.1
2193.95707	2786.3
2196.88948	2784.8
2199.82001	2779.2
2202.74867	2770.9
2205.67545	2774.4
2208.60037	2763.9
2211.52341	2754.7
2214.44458	2751.9
2217.36388	2747
2220.28132	2747.2
2223.1969	2739.7
2226.11061	2730.2
2229.02246	2722.8
2231.93245	2720.1
2234.84058	2711.7
2237.74686	2700.4
2240.65128	2699.4
2243.55385	2701.6
2246.45456	2694.2
2249.35343	2690.7
2252.25044	2687.3
2255.14561	2692.9
2258.03893	2695.1
2260.93041	2703
2263.82004	2696.7
2266.70783	2674.7
2269.59378	2671.3
2272.4779	2662.2
2275.36017	2656
2278.24061	2652.3
2281.11922	2650
2283.996	2640
2286.87094	2642.7
2289.74405	2633.7
2292.61534	2616.1
2295.4848	2601.6
2298.35243	2599.6
2301.21824	2605.2
2304.08223	2608.7
2306.94439	2582.9
2309.80474	2588.6
2312.66327	2587.9
2315.51999	2590.8
2318.37489	2586.3
2321.22797	2588.5
2324.07925	2580.1
2326.92871	2572.8
2329.77637	2565.9
2332.62222	2571.8
2335.46626	2559.8
2338.3085	2553.3
2341.14893	2547.4
2343.98756	2545.5
2346.8244	2547.5
2349.65943	2543.5
2352.49267	2556.2
2355.32411	2556.4
2358.15376	2563.7
2360.98161	2549.1
2363.80768	2556.7
2366.63195	2565.3
2369.45444	2559.9
2372.27514	2566.1
2375.09405	2562.9
2377.91118	2552.3
2380.72652	2544.2
2383.54009	2540.6
2386.35187	2538.6
2389.16188	2517.1
2391.97011	2510.5
2394.77657	2520.8
2397.58125	2489.7
2400.38416	2493.4
2403.18529	2480.6
2405.98466	2485.9
2408.78226	2475.8
2411.57809	2464.1
2414.37216	2448.5
2417.16446	2450.3
2419.955	2448.7
2422.74378	2455.8
2425.5308	2433.9
2428.31606	2443.9
2431.09956	2428.6
2433.88131	2423.9
2436.6613	2435.4
2439.43954	2429.6
2442.21603	2428.6
2444.99077	2423.6
2447.76377	2438.7
2450.53501	2427.1
2453.30451	2431.9
2456.07226	2418.1
2458.83827	2414.1
2461.60254	2412.6
2464.36507	2411.8
2467.12586	2405.3
2469.88492	2415
2472.64224	2400.6
2475.39782	2417.1
2478.15167	2407.7
2480.90379	2400.4
2483.65417	2412.4
2486.40283	2424.6
2489.14976	2418.5
2491.89497	2414.9
2494.63845	2423.6
2497.3802	2417.3
2500.12024	2414.9
2502.85855	2403.6
2505.59514	2396.6
2508.33002	2394.7
2511.06318	2379
2513.79462	2372.7
2516.52435	2368.7
2519.25237	2357.4
2521.97867	2348
2524.70327	2350.1
2527.42616	2342.9
2530.14734	2329.3
2532.86681	2327.1
2535.58458	2322.4
2538.30065	2329.3
2541.01501	2322.7
2543.72768	2326.4
2546.43864	2309.9
2549.14791	2309
2551.85548	2295.4
2554.56136	2300
2557.26554	2287.6
2559.96803	2283.5
2562.66883	2292.7
2565.36794	2287.5
2568.06536	2294.1
2570.7611	2283.4
2573.45514	2280.2
2576.14751	2268.8
2578.83819	2275.5
2581.52719	2263.9
2584.21451	2270.8
2586.90015	2257.5
2589.58411	2249.8
2592.2664	2247
2594.94701	2246.4
2597.62594	2237.6
2600.30321	2223.1
2602.9788	2236.4
2605.65273	2222.3
2608.32498	2224.6
2610.99557	2220.7
2613.66449	2223.8
2616.33175	2222.9
2618.99734	2213.8
2621.66128	2213.6
2624.32355	2209
2626.98416	2212
2629.64311	2203.9
2632.30041	2216.2
2634.95605	2192.4
2637.61004	2185.6
2640.26238	2197.5
2642.91306	2189.2
2645.56209	2188.8
2648.20948	2189.6
2650.85521	2179.9
2653.4993	2190.8
2656.14175	2170.7
2658.78255	2181.1
2661.42171	2185.8
2664.05923	2180.6
2666.6951	2184.7
2669.32934	2191.5
2671.96194	2186.8
2674.59291	2184.8
2677.22224	2191.2
2679.84993	2192.1
2682.476	2185.5
2685.10043	2191.6
2687.72324	2190.3
2690.34441	2187.3
2692.96396	2190.3
2695.58188	2199.6
2698.19818	2186.1
2700.81285	2194
2703.4259	2205.5
2706.03733	2219.3
2708.64714	2223.5
2711.25533	2205.4
2713.86191	2203.1
2716.46687	2217
2719.07021	2204.8
2721.67194	2202.3
2724.27206	2206.7
2726.87057	2198.6
2729.46747	2201
2732.06276	2190.6
2734.65644	2198
2737.24852	2180.1
2739.83899	2195.3
2742.42786	2187.5
2745.01513	2175.3
2747.60079	2181.4
2750.18486	2181.9
2752.76733	2186
2755.3482	2172.4
2757.92747	2168.4
2760.50515	2172.6
2763.08123	2164.4
2765.65573	2159.1
2768.22863	2166.2
2770.79994	2159.8
2773.36967	2160.8
2775.9378	2156.8
2778.50435	2155.1
2781.06932	2148.6
2783.6327	2157
2786.1945	2161.4
2788.75471	2151.8
2791.31335	2149.6
2793.87041	2152.5
2796.42589	2121.7
2798.97979	2131.1
2801.53212	2148.1
2804.08288	2142.1
2806.63206	2136.6
2809.17967	2130.5
2811.72571	2136.2
2814.27018	2143.1
2816.81308	2128.3
2819.35442	2124.2
2821.89419	2120.9
2824.43239	2134
2826.96904	2126.4
2829.50412	2126.4
2832.03763	2123.5
2834.56959	2137.8
2837.1	2136.9
2839.62884	2137.3
2842.15613	2141.6
2844.68186	2162.6
2847.20604	2157.4
2849.72867	2177.4
2852.24974	2179.1
2854.76927	2191.8
2857.28724	2187.5
2859.80367	2168.4
2862.31855	2166.3
2864.83189	2170.9
2867.34368	2168.2
2869.85393	2172.3
2872.36264	2164.8
2874.8698	2174.3
2877.37543	2173.4
2879.87952	2169.5
2882.38207	2174.9
2884.88308	2171.1
2887.38256	2169.1
2889.88051	2177.5
2892.37692	2167
2894.8718	2175.3
2897.36515	2180.3
2899.85698	2176.9
2902.34727	2175.8
2904.83604	2185.1
2907.32328	2176.5
2909.809	2186
2912.29319	2179.4
2914.77587	2172.7
2917.25702	2174.6
2919.73665	2177.8
2922.21476	2174.8
2924.69136	2168.4
2927.16644	2170.2
2929.64	2160
2932.11205	2167.4
2934.58258	2159.5
2937.05161	2161.6
2939.51912	2150.1
2941.98513	2148.4
2944.44962	2134.1
2946.91261	2129.7
2949.37409	2137.8
2951.83407	2110.8
2954.29254	2107.4
2956.74951	2106.7
2959.20498	2100.1
2961.65895	2090.5
2964.11142	2095.9
2966.56239	2087.6
2969.01186	2086.5
2971.45984	2084.5
2973.90632	2069.2
2976.35131	2053.7
2978.7948	2071.4
2981.23681	2062.1
2983.67732	2062.9
2986.11635	2055
2988.55388	2052.2
2990.98993	2047.2
2993.4245	2045.6
2995.85758	2040.7
2998.28917	2037.2
3000.71928	2035.3
3003.14791	2040.2
3005.57506	2041.2
3008.00073	2039
3010.42493	2036.6
3012.84764	2041.6
3015.26888	2035.3
3017.68865	2041.5
3020.10694	2042
3022.52376	2034.4
3024.9391	2028
3027.35298	2017.2
3029.76539	2023.5
3032.17632	2031.2
3034.5858	2024.8
3036.9938	2022.9
3039.40034	2036.7
3041.80542	2029.6
3044.20903	2030.9
3046.61118	2025.6
3049.01187	2025.5
3051.4111	2020.6
3053.80888	2032.1
3056.20519	2026.7
3058.60005	2019.2
3060.99345	2029.7
3063.3854	2024
3065.7759	2028.9
3068.16494	2016.4
3070.55254	2028.4
3072.93868	2026.1
3075.32338	2032.6
3077.70662	2022.8
3080.08842	2037.8
3082.46878	2042.9
3084.84769	2020.7
3087.22515	2037.7
3089.60118	2040.6
3091.97576	2046.3
3094.3489	2052.8
3096.72061	2041.3
3099.09087	2061.3
3101.4597	2056.4
3103.82709	2057.1
3106.19305	2061.8
3108.55757	2071.8
3110.92066	2064.5
3113.28232	2067.2
3115.64255	2066.5
3118.00134	2069
3120.35871	2074.8
3122.71466	2082.9
3125.06917	2083.6
3127.42226	2094.7
3129.77393	2101.7
3132.12417	2099.5
3134.47299	2110.2
3136.82039	2115.7
3139.16636	2117.1
3141.51092	2127.6
3143.85406	2129.1
3146.19579	2138.1
3148.53609	2156.6
3150.87499	2161.9
3153.21246	2172.5
3155.54853	2174.7
3157.88318	2174.8
3160.21642	2185.1
3162.54826	2191.7
3164.87868	2201.4
3167.2077	2200.2
3169.5353	2204.4
3171.86151	2206.9
3174.18631	2221.7
3176.5097	2219.8
3178.83169	2232.2
3181.15228	2221.1
3183.47147	2239.6
3185.78926	2232
3188.10565	2240.4
3190.42065	2241.9
3192.73424	2259.9
3195.04645	2257.9
3197.35725	2268.6
3199.66667	2294.6
3201.97469	2292.4
3204.28132	2299.8
3206.58656	2290.8
3208.8904	2311.2
3211.19287	2319.9
3213.49394	2316.6
3215.79363	2321.9
3218.09193	2325.2
3220.38884	2352.4
3222.68438	2349.4
3224.97853	2330.9
3227.2713	2335.8
3229.56269	2336.9
3231.8527	2338.1
3234.14133	2324
3236.42858	2335.6
3238.71446	2335.9
3240.99896	2326.6
3243.28209	2330.5
3245.56384	2334.1
3247.84423	2333.4
3250.12324	2333.9
3252.40088	2330
3254.67715	2335.5
3256.95205	2328.6
3259.22558	2327
3261.49775	2330.7
3263.76855	2319.4
3266.03799	2319.8
3268.30606	2324.2
3270.57277	2317.1
3272.83812	2320.9
3275.10211	2312.3
3277.36474	2311.2
3279.62601	2316.5
3281.88593	2311.6
3284.14448	2311.8
3286.40168	2330.8
3288.65753	2315.8
3290.91202	2319.3
3293.16516	2304.6
3295.41695	2305.3
3297.66738	2289
3299.91647	2271.6
3302.16421	2259.8
3304.4106	2255.8
3306.65564	2238.2
3308.89933	2240.1
3311.14169	2222.6
3313.38269	2206
3315.62236	2193.9
3317.86068	2166.3
3320.09766	2156.6
3322.3333	2138.3
3324.5676	2138.7
3326.80056	2109.7
3329.03219	2101
3331.26248	-0.3
3333.49143	0.7
3335.71905	-0.6
