Data from AgNPs_FTO_APTES_UA_0.1mM_CRN_1000uM_NaF_0.1M_Addition_RamanShift__11__15-26-57-812.txt Node

Date: Mon Dec 20 15:26:57 GMT 2021
User: TCL
Spectrometer: QEP01345
Trigger mode: 4
Integration Time (sec): 7.000000E0
Scans to average: 10
Electric dark correction enabled: true
Nonlinearity correction enabled: false
Boxcar width: 0
XAxis mode: Raman Shifts
Number of Pixels in Spectrum: 1044
>>>>>Begin Spectral Data<<<<<
46.04893	1.975
50.45542	-0.625
54.85868	-1.125
59.25871	0.675
63.6555	21.275
68.04907	23.875
72.43941	28.375
76.82654	26.675
81.21044	26.075
85.59113	32.575
89.96862	31.075
94.34289	30.475
98.71396	29.775
103.08183	33.075
107.4465	36.075
111.80798	36.175
116.16626	34.875
120.52136	36.075
124.87327	36.175
129.222	35.375
133.56755	37.375
137.90993	42.075
142.24913	41.475
146.58517	40.475
150.91804	49.975
155.24774	56.775
159.57429	66.175
163.89768	82.475
168.21792	107.875
172.53501	137.875
176.84895	194.875
181.15975	273.275
185.46741	373.175
189.77193	524.675
194.07331	700.075
198.37157	905.475
202.6667	1125.175
206.9587	1340.375
211.24758	1552.975
215.53334	1763.275
219.81599	1985.875
224.09553	2240.075
228.37195	2514.475
232.64527	2826.875
236.91549	3156.275
241.18261	3482.275
245.44663	3791.975
249.70755	4043.175
253.96539	4231.675
258.22014	4311.175
262.4718	4307.875
266.72039	4225.575
270.96589	4093.475
275.20832	3914.475
279.44768	3741.975
283.68397	3561.275
287.91719	3388.475
292.14735	3269.575
296.37445	3145.975
300.59849	3069.575
304.81948	2999.975
309.03742	2966.375
313.25231	2929.975
317.46415	2901.375
321.67296	2850.875
325.87872	2828.575
330.08145	2801.575
334.28114	2794.275
338.47781	2781.375
342.67145	2775.675
346.86207	2783.975
351.04966	2791.275
355.23424	2810.775
359.4158	2815.075
363.59435	2837.675
367.76989	2865.675
371.94243	2870.675
376.11196	2903.875
380.27849	2930.075
384.44203	2981.975
388.60257	3028.775
392.76012	3088.175
396.91468	3197.175
401.06626	3298.775
405.21485	3404.975
409.36047	3452.975
413.50311	3447.775
417.64277	3396.475
421.77947	3364.175
425.9132	3314.375
430.04396	3297.975
434.17176	3246.775
438.2966	3239.575
442.41849	3199.275
446.53742	3210.375
450.6534	3214.975
454.76644	3216.975
458.87653	3229.975
462.98368	3221.575
467.08789	3215.875
471.18916	3236.375
475.2875	3251.975
479.38291	3301.275
483.4754	3367.175
487.56496	3426.575
491.6516	3492.275
495.73531	3551.075
499.81612	3593.175
503.89401	3612.475
507.96899	3596.575
512.04106	3561.175
516.11023	3508.575
520.1765	3447.575
524.23987	3375.275
528.30034	3325.675
532.35792	3290.675
536.41261	3250.075
540.46441	3238.475
544.51333	3213.975
548.55936	3191.875
552.60252	3204.475
556.64279	3206.375
560.6802	3210.075
564.71473	3215.175
568.7464	3244.075
572.7752	3239.175
576.80114	3252.875
580.82422	3274.975
584.84444	3309.475
588.86181	3356.275
592.87633	3397.775
596.888	3410.575
600.89682	3423.875
604.9028	3481.075
608.90594	3563.375
612.90624	3662.375
616.90371	3667.075
620.89834	3613.975
624.89015	3586.675
628.87913	3646.075
632.86528	3719.475
636.84862	3799.975
640.82913	3842.975
644.80683	3839.475
648.78172	3803.575
652.75379	3766.575
656.72306	3719.775
660.68952	3699.875
664.65319	3699.275
668.61405	3754.475
672.57211	3815.875
676.52738	3857.375
680.47986	3879.475
684.42955	3893.075
688.37646	3904.175
692.32058	3877.875
696.26192	3821.575
700.20048	3721.575
704.13626	3626.975
708.06928	3519.275
711.99952	3433.875
715.927	3366.175
719.85171	3302.275
723.77365	3292.275
727.69284	3294.475
731.60928	3283.975
735.52295	3289.675
739.43388	3315.875
743.34206	3362.775
747.24749	3401.075
751.15017	3435.275
755.05012	3498.275
758.94733	3552.475
762.8418	3554.075
766.73354	3540.875
770.62254	3528.075
774.50882	3481.275
778.39237	3433.175
782.27321	3366.475
786.15132	3297.575
790.02671	3250.075
793.89938	3235.275
797.76935	3265.575
801.6366	3302.175
805.50115	3384.175
809.36299	3454.575
813.22213	3466.075
817.07857	3413.375
820.93231	3342.275
824.78336	3251.175
828.63172	3164.975
832.47738	3091.075
836.32036	3080.875
840.16066	3058.175
843.99827	3059.175
847.8332	3070.275
851.66546	3064.675
855.49504	3070.375
859.32195	3076.975
863.1462	3073.175
866.96777	3076.175
870.78668	3085.775
874.60293	3100.475
878.41652	3128.975
882.22745	3154.775
886.03573	3186.175
889.84136	3219.175
893.64433	3220.575
897.44466	3205.775
901.24235	3180.975
905.0374	3140.975
908.8298	3118.575
912.61957	3097.575
916.40671	3072.675
920.19121	3053.775
923.97308	3030.375
927.75233	3020.475
931.52895	3007.075
935.30295	3003.075
939.07433	2994.075
942.84309	2962.375
946.60924	2960.775
950.37278	2944.475
954.13371	2954.175
957.89203	2946.875
961.64774	2936.375
965.40086	2951.875
969.15137	2954.275
972.89929	2924.775
976.64461	2939.275
980.38733	2932.375
984.12747	2931.975
987.86502	2939.275
991.59999	2944.775
995.33237	2948.375
999.06217	2951.875
1002.78939	2971.075
1006.51404	2978.375
1010.23611	2981.375
1013.95561	3008.975
1017.67255	3018.175
1021.38692	3016.475
1025.09872	3027.975
1028.80796	3014.075
1032.51465	3027.175
1036.21877	3010.675
1039.92035	3014.575
1043.61937	3002.175
1047.31584	3006.475
1051.00976	3011.875
1054.70114	3013.675
1058.38998	3019.275
1062.07627	3033.475
1065.76003	3044.075
1069.44126	3035.675
1073.11995	3032.175
1076.79611	3025.075
1080.46974	3021.775
1084.14085	2980.275
1087.80943	2967.475
1091.47549	2944.275
1095.13903	2936.775
1098.80005	2933.375
1102.45857	2920.675
1106.11456	2931.975
1109.76805	2959.075
1113.41903	3007.975
1117.06751	3068.575
1120.71348	3160.775
1124.35696	3255.575
1127.99793	3368.875
1131.63641	3457.475
1135.2724	3528.475
1138.90589	3550.475
1142.5369	3531.975
1146.16542	3485.075
1149.79145	3393.675
1153.415	3287.375
1157.03607	3178.075
1160.65467	3106.775
1164.27079	3046.775
1167.88443	3008.775
1171.49561	3017.575
1175.10432	3038.875
1178.71056	3055.275
1182.31434	3092.475
1185.91565	3123.675
1189.51451	3157.075
1193.11091	3148.975
1196.70485	3177.775
1200.29634	3203.375
1203.88538	3200.375
1207.47197	3222.075
1211.05612	3246.375
1214.63782	3272.575
1218.21708	3292.675
1221.79391	3305.975
1225.36829	3279.975
1228.94024	3274.775
1232.50976	3234.475
1236.07685	3194.375
1239.6415	3177.275
1243.20374	3177.575
1246.76355	3189.175
1250.32093	3207.275
1253.8759	3240.375
1257.42845	3270.075
1260.97859	3311.975
1264.52631	3311.675
1268.07163	3295.675
1271.61453	3269.075
1275.15503	3248.175
1278.69312	3200.375
1282.22882	3161.775
1285.76211	3144.775
1289.29301	3123.175
1292.82151	3125.375
1296.34761	3155.275
1299.87133	3185.975
1303.39266	3218.575
1306.9116	3264.175
1310.42815	3334.175
1313.94233	3375.875
1317.45412	3417.575
1320.96354	3430.975
1324.47058	3444.775
1327.97525	3468.075
1331.47754	3485.475
1334.97747	3494.975
1338.47502	3518.675
1341.97022	3564.875
1345.46305	3592.275
1348.95352	3639.475
1352.44163	3687.275
1355.92738	3736.775
1359.41078	3783.275
1362.89183	3827.175
1366.37053	3818.375
1369.84688	3771.375
1373.32088	3688.175
1376.79254	3605.875
1380.26186	3551.675
1383.72883	3501.475
1387.19347	3473.775
1390.65578	3430.875
1394.11575	3381.675
1397.57339	3351.475
1401.0287	3308.275
1404.48168	3288.575
1407.93234	3244.975
1411.38068	3223.375
1414.82669	3177.675
1418.27039	3149.275
1421.71177	3129.475
1425.15083	3076.875
1428.58758	3037.675
1432.02203	2995.375
1435.45416	2968.775
1438.88399	2935.775
1442.31151	2909.675
1445.73673	2898.575
1449.15965	2877.575
1452.58027	2881.375
1455.9986	2867.575
1459.41463	2887.675
1462.82837	2886.575
1466.23982	2909.175
1469.64898	2935.775
1473.05586	2954.675
1476.46045	2969.575
1479.86276	2983.175
1483.26279	2997.575
1486.66054	2984.275
1490.05602	2996.275
1493.44922	3008.675
1496.84016	3030.975
1500.22882	3048.375
1503.61521	3089.475
1506.99934	3136.575
1510.38121	3182.775
1513.76081	3203.575
1517.13816	3174.475
1520.51324	3157.775
1523.88607	3125.875
1527.25665	3121.975
1530.62498	3136.775
1533.99105	3148.475
1537.35488	3187.475
1540.71647	3229.475
1544.07581	3276.575
1547.4329	3318.075
1550.78776	3364.975
1554.14038	3413.275
1557.49077	3465.075
1560.83892	3500.175
1564.18484	3523.675
1567.52853	3529.875
1570.86999	3560.775
1574.20922	3584.975
1577.54624	3589.675
1580.88103	3600.575
1584.2136	3587.875
1587.54395	3590.275
1590.87208	3580.775
1594.19801	3577.075
1597.52172	3576.575
1600.84321	3562.575
1604.16251	3535.075
1607.47959	3498.875
1610.79447	3473.075
1614.10715	3437.975
1617.41763	3422.775
1620.7259	3388.575
1624.03199	3373.775
1627.33587	3341.275
1630.63757	3338.275
1633.93707	3351.075
1637.23439	3359.875
1640.52951	3390.675
1643.82246	3434.375
1647.11321	3464.575
1650.40179	3517.375
1653.68819	3527.375
1656.97241	3506.475
1660.25446	3481.675
1663.53433	3447.175
1666.81203	3429.175
1670.08756	3370.475
1673.36092	3360.575
1676.63211	3323.675
1679.90115	3284.175
1683.16801	3232.275
1686.43272	3157.975
1689.69527	3099.775
1692.95567	3027.275
1696.2139	2970.475
1699.46999	2892.075
1702.72392	2837.875
1705.97571	2762.875
1709.22535	2699.775
1712.47284	2659.475
1715.71819	2608.975
1718.96139	2580.575
1722.20246	2545.175
1725.44139	2512.375
1728.67818	2476.375
1731.91284	2443.375
1735.14537	2407.675
1738.37576	2394.075
1741.60403	2375.375
1744.83017	2363.975
1748.05418	2360.575
1751.27607	2348.675
1754.49584	2355.975
1757.71349	2364.175
1760.92903	2356.275
1764.14244	2361.575
1767.35375	2332.175
1770.56294	2306.575
1773.77002	2271.575
1776.97499	2238.075
1780.17785	2190.375
1783.37861	2174.075
1786.57727	2139.075
1789.77382	2115.875
1792.96828	2098.375
1796.16064	2072.675
1799.3509	2055.575
1802.53907	2036.675
1805.72514	2032.775
1808.90913	2012.175
1812.09102	2006.175
1815.27083	2002.775
1818.44856	1973.975
1821.6242	1973.875
1824.79776	1969.875
1827.96924	1958.575
1831.13864	1946.075
1834.30597	1943.175
1837.47122	1938.675
1840.6344	1921.275
1843.7955	1921.475
1846.95454	1911.875
1850.11151	1924.275
1853.26642	1907.675
1856.41926	1900.775
1859.57004	1892.475
1862.71876	1898.775
1865.86542	1888.175
1869.01003	1874.275
1872.15258	1873.375
1875.29308	1862.775
1878.43152	1866.475
1881.56792	1858.975
1884.70227	1857.675
1887.83457	1846.575
1890.96482	1848.675
1894.09304	1839.975
1897.21921	1833.675
1900.34335	1834.275
1903.46544	1825.275
1906.58551	1824.675
1909.70353	1808.675
1912.81953	1812.275
1915.93349	1822.175
1919.04543	1814.875
1922.15534	1803.075
1925.26322	1799.375
1928.36908	1784.975
1931.47292	1790.675
1934.57473	1782.975
1937.67453	1777.775
1940.77232	1763.075
1943.86808	1775.675
1946.96184	1749.075
1950.05358	1739.475
1953.14331	1746.175
1956.23103	1744.775
1959.31675	1729.075
1962.40046	1717.475
1965.48217	1708.575
1968.56188	1719.375
1971.63959	1700.975
1974.7153	1695.275
1977.78901	1688.175
1980.86073	1671.375
1983.93046	1673.575
1986.99819	1678.275
1990.06394	1661.475
1993.1277	1667.575
1996.18947	1647.375
1999.24925	1649.375
2002.30706	1636.175
2005.36288	1633.875
2008.41672	1624.875
2011.46859	1619.875
2014.51848	1614.075
2017.56639	1610.875
2020.61233	1598.475
2023.6563	1599.975
2026.6983	1596.775
2029.73833	1587.075
2032.7764	1581.475
2035.8125	1582.475
2038.84664	1555.175
2041.87881	1567.175
2044.90903	1559.575
2047.93729	1557.675
2050.96359	1540.175
2053.98794	1555.075
2057.01034	1551.575
2060.03078	1544.775
2063.04927	1548.275
2066.06582	1542.775
2069.08042	1536.175
2072.09307	1533.775
2075.10378	1529.475
2078.11255	1534.675
2081.11938	1532.575
2084.12426	1529.175
2087.12722	1525.975
2090.12824	1525.475
2093.12732	1525.275
2096.12447	1528.075
2099.11969	1520.275
2102.11299	1521.075
2105.10435	1514.975
2108.09379	1515.975
2111.08131	1521.975
2114.0669	1512.675
2117.05057	1517.375
2120.03233	1526.075
2123.01216	1510.075
2125.99008	1516.075
2128.96609	1515.175
2131.94018	1515.475
2134.91236	1506.475
2137.88263	1508.975
2140.851	1509.175
2143.81746	1514.375
2146.78201	1511.175
2149.74466	1512.075
2152.7054	1508.175
2155.66425	1501.975
2158.6212	1508.075
2161.57625	1499.375
2164.52941	1501.175
2167.48067	1509.575
2170.43004	1493.075
2173.37752	1493.375
2176.32311	1497.875
2179.26681	1490.975
2182.20863	1491.275
2185.14856	1497.675
2188.08661	1489.275
2191.02278	1476.975
2193.95707	1473.475
2196.88948	1480.475
2199.82001	1482.275
2202.74867	1467.475
2205.67545	1463.475
2208.60037	1463.975
2211.52341	1464.975
2214.44458	1469.475
2217.36388	1456.775
2220.28132	1454.675
2223.1969	1441.075
2226.11061	1447.175
2229.02246	1445.075
2231.93245	1434.075
2234.84058	1429.875
2237.74686	1433.175
2240.65128	1420.275
2243.55385	1410.175
2246.45456	1429.375
2249.35343	1420.975
2252.25044	1412.175
2255.14561	1411.275
2258.03893	1408.875
2260.93041	1416.675
2263.82004	1405.475
2266.70783	1394.275
2269.59378	1387.975
2272.4779	1388.275
2275.36017	1378.275
2278.24061	1374.875
2281.11922	1369.275
2283.996	1368.775
2286.87094	1363.675
2289.74405	1359.475
2292.61534	1347.675
2295.4848	1344.875
2298.35243	1354.575
2301.21824	1356.375
2304.08223	1347.075
2306.94439	1349.875
2309.80474	1336.275
2312.66327	1336.075
2315.51999	1330.275
2318.37489	1334.175
2321.22797	1328.575
2324.07925	1321.975
2326.92871	1330.175
2329.77637	1324.975
2332.62222	1326.475
2335.46626	1317.175
2338.3085	1320.275
2341.14893	1304.375
2343.98756	1312.275
2346.8244	1299.575
2349.65943	1296.075
2352.49267	1292.975
2355.32411	1297.975
2358.15376	1297.075
2360.98161	1297.275
2363.80768	1293.475
2366.63195	1290.775
2369.45444	1282.375
2372.27514	1269.775
2375.09405	1275.175
2377.91118	1275.275
2380.72652	1277.175
2383.54009	1277.675
2386.35187	1274.975
2389.16188	1261.875
2391.97011	1260.575
2394.77657	1247.875
2397.58125	1252.975
2400.38416	1251.275
2403.18529	1245.475
2405.98466	1246.275
2408.78226	1243.575
2411.57809	1235.275
2414.37216	1233.175
2417.16446	1238.075
2419.955	1227.575
2422.74378	1229.875
2425.5308	1228.575
2428.31606	1224.575
2431.09956	1223.975
2433.88131	1221.475
2436.6613	1225.375
2439.43954	1217.775
2442.21603	1216.775
2444.99077	1208.475
2447.76377	1213.275
2450.53501	1211.075
2453.30451	1208.775
2456.07226	1208.875
2458.83827	1202.375
2461.60254	1194.975
2464.36507	1197.475
2467.12586	1196.075
2469.88492	1192.875
2472.64224	1194.575
2475.39782	1197.775
2478.15167	1203.675
2480.90379	1190.375
2483.65417	1182.475
2486.40283	1175.275
2489.14976	1171.175
2491.89497	1180.775
2494.63845	1184.875
2497.3802	1177.575
2500.12024	1175.775
2502.85855	1164.575
2505.59514	1161.275
2508.33002	1164.575
2511.06318	1161.275
2513.79462	1157.175
2516.52435	1158.475
2519.25237	1155.875
2521.97867	1147.975
2524.70327	1151.675
2527.42616	1153.275
2530.14734	1148.275
2532.86681	1143.275
2535.58458	1137.675
2538.30065	1130.775
2541.01501	1139.575
2543.72768	1135.175
2546.43864	1124.975
2549.14791	1125.475
2551.85548	1123.875
2554.56136	1122.175
2557.26554	1114.175
2559.96803	1104.675
2562.66883	1115.675
2565.36794	1110.275
2568.06536	1109.975
2570.7611	1113.175
2573.45514	1100.875
2576.14751	1102.475
2578.83819	1102.475
2581.52719	1091.875
2584.21451	1087.475
2586.90015	1092.975
2589.58411	1084.675
2592.2664	1088.075
2594.94701	1079.675
2597.62594	1081.175
2600.30321	1079.275
2602.9788	1076.275
2605.65273	1068.775
2608.32498	1074.675
2610.99557	1070.575
2613.66449	1060.475
2616.33175	1062.475
2618.99734	1060.475
2621.66128	1066.375
2624.32355	1058.475
2626.98416	1060.875
2629.64311	1047.175
2632.30041	1056.575
2634.95605	1055.175
2637.61004	1048.875
2640.26238	1050.275
2642.91306	1044.175
2645.56209	1050.575
2648.20948	1035.775
2650.85521	1040.375
2653.4993	1048.175
2656.14175	1036.675
2658.78255	1041.075
2661.42171	1042.675
2664.05923	1029.075
2666.6951	1040.875
2669.32934	1030.875
2671.96194	1035.975
2674.59291	1037.075
2677.22224	1030.275
2679.84993	1031.175
2682.476	1032.275
2685.10043	1035.875
2687.72324	1029.575
2690.34441	1030.175
2692.96396	1023.875
2695.58188	1032.275
2698.19818	1037.275
2700.81285	1028.875
2703.4259	1042.975
2706.03733	1066.875
2708.64714	1057.575
2711.25533	1038.975
2713.86191	1029.775
2716.46687	1034.275
2719.07021	1028.475
2721.67194	1021.575
2724.27206	1018.675
2726.87057	1029.175
2729.46747	1027.775
2732.06276	1019.275
2734.65644	1014.775
2737.24852	1017.675
2739.83899	1013.475
2742.42786	1012.475
2745.01513	1015.275
2747.60079	1014.975
2750.18486	1009.175
2752.76733	1005.975
2755.3482	1054.375
2757.92747	1025.675
2760.50515	1002.475
2763.08123	1004.175
2765.65573	995.975
2768.22863	998.675
2770.79994	996.775
2773.36967	993.475
2775.9378	993.275
2778.50435	980.175
2781.06932	987.575
2783.6327	987.675
2786.1945	977.875
2788.75471	983.275
2791.31335	976.975
2793.87041	975.175
2796.42589	971.575
2798.97979	968.275
2801.53212	971.775
2804.08288	963.275
2806.63206	964.775
2809.17967	958.875
2811.72571	962.175
2814.27018	963.675
2816.81308	956.375
2819.35442	958.875
2821.89419	957.775
2824.43239	953.175
2826.96904	956.175
2829.50412	955.775
2832.03763	953.775
2834.56959	958.875
2837.1	950.275
2839.62884	943.575
2842.15613	948.075
2844.68186	949.475
2847.20604	945.375
2849.72867	949.275
2852.24974	942.275
2854.76927	946.875
2857.28724	954.175
2859.80367	946.375
2862.31855	939.175
2864.83189	944.875
2867.34368	936.075
2869.85393	937.775
2872.36264	928.175
2874.8698	941.975
2877.37543	931.375
2879.87952	942.375
2882.38207	937.675
2884.88308	937.375
2887.38256	943.375
2889.88051	942.975
2892.37692	945.075
2894.8718	946.075
2897.36515	949.475
2899.85698	945.075
2902.34727	952.875
2904.83604	948.475
2907.32328	954.975
2909.809	958.075
2912.29319	953.175
2914.77587	958.875
2917.25702	970.275
2919.73665	969.875
2922.21476	962.775
2924.69136	964.875
2927.16644	978.575
2929.64	981.175
2932.11205	975.775
2934.58258	983.175
2937.05161	977.275
2939.51912	976.575
2941.98513	989.275
2944.44962	984.475
2946.91261	983.675
2949.37409	987.275
2951.83407	990.875
2954.29254	987.575
2956.74951	985.375
2959.20498	980.875
2961.65895	971.675
2964.11142	974.875
2966.56239	967.175
2969.01186	968.275
2971.45984	956.875
2973.90632	954.575
2976.35131	947.475
2978.7948	953.175
2981.23681	939.275
2983.67732	930.175
2986.11635	941.275
2988.55388	930.975
2990.98993	929.375
2993.4245	933.975
2995.85758	923.275
2998.28917	924.875
3000.71928	923.775
3003.14791	924.275
3005.57506	926.075
3008.00073	917.175
3010.42493	923.875
3012.84764	917.875
3015.26888	925.675
3017.68865	925.475
3020.10694	922.575
3022.52376	917.875
3024.9391	921.375
3027.35298	920.875
3029.76539	918.775
3032.17632	917.975
3034.5858	919.175
3036.9938	921.275
3039.40034	917.575
3041.80542	910.975
3044.20903	911.375
3046.61118	921.175
3049.01187	914.975
3051.4111	912.475
3053.80888	914.975
3056.20519	921.175
3058.60005	913.075
3060.99345	918.075
3063.3854	917.475
3065.7759	913.575
3068.16494	915.075
3070.55254	918.875
3072.93868	915.775
3075.32338	916.375
3077.70662	918.975
3080.08842	921.875
3082.46878	928.975
3084.84769	936.175
3087.22515	936.275
3089.60118	944.475
3091.97576	941.075
3094.3489	944.175
3096.72061	936.475
3099.09087	953.875
3101.4597	949.675
3103.82709	956.975
3106.19305	955.575
3108.55757	955.575
3110.92066	962.775
3113.28232	965.875
3115.64255	965.975
3118.00134	970.075
3120.35871	965.875
3122.71466	968.775
3125.06917	967.375
3127.42226	971.075
3129.77393	986.975
3132.12417	984.375
3134.47299	994.475
3136.82039	987.975
3139.16636	996.775
3141.51092	1006.675
3143.85406	1017.975
3146.19579	1017.775
3148.53609	1017.375
3150.87499	1025.175
3153.21246	1031.975
3155.54853	1038.575
3157.88318	1036.275
3160.21642	1042.575
3162.54826	1051.875
3164.87868	1050.075
3167.2077	1056.075
3169.5353	1064.775
3171.86151	1066.475
3174.18631	1073.675
3176.5097	1067.075
3178.83169	1074.975
3181.15228	1072.175
3183.47147	1079.475
3185.78926	1079.575
3188.10565	1082.275
3190.42065	1091.775
3192.73424	1090.575
3195.04645	1100.375
3197.35725	1101.075
3199.66667	1097.275
3201.97469	1108.575
3204.28132	1106.575
3206.58656	1110.475
3208.8904	1117.275
3211.19287	1111.675
3213.49394	1125.675
3215.79363	1130.975
3218.09193	1132.775
3220.38884	1135.375
3222.68438	1142.675
3224.97853	1123.375
3227.2713	1131.475
3229.56269	1129.375
3231.8527	1133.075
3234.14133	1137.275
3236.42858	1124.175
3238.71446	1130.675
3240.99896	1127.375
3243.28209	1124.575
3245.56384	1122.875
3247.84423	1126.875
3250.12324	1127.775
3252.40088	1127.275
3254.67715	1136.075
