Data from AgNPs_FTO_APTES_UA_0.1mM_CRN_500uM_NaF_0.1M_Addition_RamanShift__1__14-35-37-755.txt Node

Date: Mon Dec 20 14:35:37 GMT 2021
User: TCL
Spectrometer: QEP01345
Trigger mode: 4
Integration Time (sec): 7.000000E0
Scans to average: 10
Electric dark correction enabled: true
Nonlinearity correction enabled: false
Boxcar width: 0
XAxis mode: Raman Shifts
Number of Pixels in Spectrum: 1044
>>>>>Begin Spectral Data<<<<<
46.04893	-0.475
50.45542	1.325
54.85868	-1.875
59.25871	1.125
63.6555	22.325
68.04907	24.125
72.43941	28.625
76.82654	31.025
81.21044	32.225
85.59113	33.625
89.96862	31.125
94.34289	36.525
98.71396	37.425
103.08183	34.925
107.4465	39.325
111.80798	43.825
116.16626	40.525
120.52136	41.725
124.87327	42.125
129.222	39.925
133.56755	43.125
137.90993	45.125
142.24913	43.125
146.58517	45.825
150.91804	51.225
155.24774	59.725
159.57429	66.425
163.89768	83.925
168.21792	104.025
172.53501	133.125
176.84895	177.325
181.15975	242.325
185.46741	326.425
189.77193	449.025
194.07331	601.525
198.37157	768.825
202.6667	950.125
206.9587	1130.825
211.24758	1320.625
215.53334	1503.025
219.81599	1703.325
224.09553	1918.725
228.37195	2162.225
232.64527	2413.525
236.91549	2685.425
241.18261	2929.725
245.44663	3158.725
249.70755	3337.125
253.96539	3474.925
258.22014	3580.025
262.4718	3641.425
266.72039	3671.825
270.96589	3661.125
275.20832	3635.825
279.44768	3578.925
283.68397	3505.225
287.91719	3456.825
292.14735	3387.325
296.37445	3356.625
300.59849	3336.725
304.81948	3311.925
309.03742	3284.625
313.25231	3270.825
317.46415	3233.225
321.67296	3160.825
325.87872	3133.425
330.08145	3118.625
334.28114	3096.825
338.47781	3107.925
342.67145	3125.725
346.86207	3141.025
351.04966	3166.525
355.23424	3216.025
359.4158	3251.925
363.59435	3266.725
367.76989	3323.325
371.94243	3362.725
376.11196	3399.025
380.27849	3447.925
384.44203	3481.225
388.60257	3527.825
392.76012	3556.025
396.91468	3593.225
401.06626	3621.825
405.21485	3656.725
409.36047	3658.925
413.50311	3637.325
417.64277	3624.625
421.77947	3631.025
425.9132	3624.925
430.04396	3629.325
434.17176	3644.725
438.2966	3665.425
442.41849	3667.625
446.53742	3689.725
450.6534	3712.325
454.76644	3736.625
458.87653	3770.925
462.98368	3772.925
467.08789	3782.425
471.18916	3796.725
475.2875	3828.225
479.38291	3847.125
483.4754	3940.325
487.56496	4046.825
491.6516	4180.625
495.73531	4293.025
499.81612	4313.625
503.89401	4268.925
507.96899	4158.725
512.04106	4104.825
516.11023	4044.425
520.1765	4044.725
524.23987	4047.925
528.30034	4092.625
532.35792	4111.825
536.41261	4120.125
540.46441	4051.425
544.51333	3971.925
548.55936	3921.725
552.60252	3873.925
556.64279	3858.825
560.6802	3832.325
564.71473	3828.225
568.7464	3829.625
572.7752	3868.325
576.80114	3876.225
580.82422	3932.125
584.84444	4031.625
588.86181	4158.825
592.87633	4224.625
596.888	4211.825
600.89682	4142.125
604.9028	4147.225
608.90594	4269.825
612.90624	4460.625
616.90371	4551.225
620.89834	4525.825
624.89015	4734.425
628.87913	5120.625
632.86528	5590.925
636.84862	5879.925
640.82913	5896.225
644.80683	5623.825
648.78172	5236.125
652.75379	4893.325
656.72306	4626.525
660.68952	4439.425
664.65319	4320.925
668.61405	4228.325
672.57211	4204.525
676.52738	4211.625
680.47986	4252.425
684.42955	4229.725
688.37646	4197.725
692.32058	4143.825
696.26192	4057.025
700.20048	4019.325
704.13626	3985.725
708.06928	3952.025
711.99952	3946.725
715.927	3951.825
719.85171	3994.725
723.77365	4047.925
727.69284	4095.825
731.60928	4075.925
735.52295	3995.025
739.43388	3945.825
743.34206	3923.125
747.24749	3932.725
751.15017	3909.025
755.05012	3925.125
758.94733	3948.425
762.8418	4002.825
766.73354	4062.625
770.62254	4131.525
774.50882	4142.425
778.39237	4096.525
782.27321	4000.825
786.15132	3909.225
790.02671	3883.425
793.89938	3868.925
797.76935	3894.825
801.6366	3970.525
805.50115	4087.525
809.36299	4264.925
813.22213	4383.025
817.07857	4337.525
820.93231	4171.525
824.78336	4006.425
828.63172	3855.625
832.47738	3764.725
836.32036	3716.025
840.16066	3708.125
843.99827	3688.225
847.8332	3697.425
851.66546	3680.325
855.49504	3673.325
859.32195	3700.325
863.1462	3704.825
866.96777	3757.125
870.78668	3836.925
874.60293	3929.225
878.41652	4036.725
882.22745	4156.125
886.03573	4243.325
889.84136	4257.925
893.64433	4193.425
897.44466	4077.725
901.24235	3881.325
905.0374	3739.925
908.8298	3656.925
912.61957	3592.125
916.40671	3536.625
920.19121	3536.925
923.97308	3522.625
927.75233	3520.125
931.52895	3509.925
935.30295	3505.525
939.07433	3488.025
942.84309	3465.025
946.60924	3462.425
950.37278	3457.825
954.13371	3436.625
957.89203	3425.725
961.64774	3421.725
965.40086	3403.725
969.15137	3391.325
972.89929	3376.725
976.64461	3386.725
980.38733	3363.425
984.12747	3371.625
987.86502	3366.725
991.59999	3367.125
995.33237	3400.625
999.06217	3447.425
1002.78939	3495.825
1006.51404	3543.025
1010.23611	3601.825
1013.95561	3652.325
1017.67255	3685.525
1021.38692	3674.825
1025.09872	3649.825
1028.80796	3607.625
1032.51465	3550.225
1036.21877	3496.025
1039.92035	3463.125
1043.61937	3435.625
1047.31584	3415.125
1051.00976	3412.325
1054.70114	3421.025
1058.38998	3454.525
1062.07627	3490.025
1065.76003	3528.525
1069.44126	3568.425
1073.11995	3625.125
1076.79611	3641.925
1080.46974	3623.725
1084.14085	3574.525
1087.80943	3512.025
1091.47549	3483.925
1095.13903	3437.125
1098.80005	3406.325
1102.45857	3395.225
1106.11456	3396.725
1109.76805	3438.525
1113.41903	3522.325
1117.06751	3681.925
1120.71348	3936.125
1124.35696	4282.725
1127.99793	4712.125
1131.63641	5046.925
1135.2724	5241.425
1138.90589	5200.925
1142.5369	4989.225
1146.16542	4649.625
1149.79145	4296.825
1153.415	3989.125
1157.03607	3739.925
1160.65467	3571.525
1164.27079	3493.525
1167.88443	3455.925
1171.49561	3463.725
1175.10432	3529.125
1178.71056	3605.325
1182.31434	3726.125
1185.91565	3787.225
1189.51451	3847.625
1193.11091	3901.025
1196.70485	3991.125
1200.29634	4064.425
1203.88538	4125.125
1207.47197	4143.825
1211.05612	4076.325
1214.63782	3969.125
1218.21708	3825.025
1221.79391	3719.525
1225.36829	3601.625
1228.94024	3530.525
1232.50976	3509.825
1236.07685	3465.725
1239.6415	3454.025
1243.20374	3468.125
1246.76355	3491.725
1250.32093	3533.525
1253.8759	3540.825
1257.42845	3596.325
1260.97859	3612.925
1264.52631	3633.125
1268.07163	3647.125
1271.61453	3663.425
1275.15503	3646.525
1278.69312	3623.225
1282.22882	3606.425
1285.76211	3590.625
1289.29301	3581.425
1292.82151	3597.925
1296.34761	3624.425
1299.87133	3670.025
1303.39266	3751.625
1306.9116	3850.225
1310.42815	3952.625
1313.94233	4028.625
1317.45412	4072.525
1320.96354	4049.525
1324.47058	4026.025
1327.97525	4016.425
1331.47754	4002.125
1334.97747	4007.025
1338.47502	4046.925
1341.97022	4106.125
1345.46305	4152.725
1348.95352	4266.025
1352.44163	4357.325
1355.92738	4496.325
1359.41078	4666.725
1362.89183	4824.825
1366.37053	4863.125
1369.84688	4713.425
1373.32088	4510.225
1376.79254	4334.725
1380.26186	4213.625
1383.72883	4104.425
1387.19347	4024.225
1390.65578	3912.925
1394.11575	3827.125
1397.57339	3736.025
1401.0287	3672.425
1404.48168	3617.025
1407.93234	3548.725
1411.38068	3488.825
1414.82669	3412.325
1418.27039	3335.025
1421.71177	3284.425
1425.15083	3223.325
1428.58758	3178.425
1432.02203	3139.225
1435.45416	3107.925
1438.88399	3116.725
1442.31151	3099.325
1445.73673	3087.325
1449.15965	3087.525
1452.58027	3085.625
1455.9986	3086.225
1459.41463	3076.525
1462.82837	3088.425
1466.23982	3120.325
1469.64898	3142.825
1473.05586	3170.025
1476.46045	3173.625
1479.86276	3187.325
1483.26279	3216.925
1486.66054	3250.425
1490.05602	3289.925
1493.44922	3358.625
1496.84016	3429.025
1500.22882	3542.325
1503.61521	3632.225
1506.99934	3765.125
1510.38121	3845.425
1513.76081	3859.825
1517.13816	3784.925
1520.51324	3650.225
1523.88607	3558.225
1527.25665	3486.925
1530.62498	3466.425
1533.99105	3491.725
1537.35488	3522.825
1540.71647	3550.125
1544.07581	3593.925
1547.4329	3618.225
1550.78776	3668.125
1554.14038	3652.825
1557.49077	3699.625
1560.83892	3715.625
1564.18484	3718.125
1567.52853	3719.725
1570.86999	3718.825
1574.20922	3727.325
1577.54624	3718.325
1580.88103	3678.325
1584.2136	3630.025
1587.54395	3591.025
1590.87208	3564.425
1594.19801	3565.625
1597.52172	3601.825
1600.84321	3629.825
1604.16251	3620.125
1607.47959	3605.725
1610.79447	3584.525
1614.10715	3569.025
1617.41763	3552.225
1620.7259	3563.425
1624.03199	3600.425
1627.33587	3628.725
1630.63757	3679.425
1633.93707	3760.125
1637.23439	3879.625
1640.52951	4017.525
1643.82246	4189.225
1647.11321	4348.225
1650.40179	4465.325
1653.68819	4475.325
1656.97241	4353.025
1660.25446	4183.125
1663.53433	4060.625
1666.81203	3939.825
1670.08756	3851.225
1673.36092	3805.625
1676.63211	3776.225
1679.90115	3735.925
1683.16801	3704.825
1686.43272	3638.425
1689.69527	3574.125
1692.95567	3510.125
1696.2139	3446.125
1699.46999	3389.925
1702.72392	3307.125
1705.97571	3199.425
1709.22535	3069.825
1712.47284	2948.525
1715.71819	2860.025
1718.96139	2767.425
1722.20246	2690.325
1725.44139	2648.425
1728.67818	2597.425
1731.91284	2557.525
1735.14537	2518.925
1738.37576	2487.525
1741.60403	2463.625
1744.83017	2431.825
1748.05418	2419.825
1751.27607	2422.825
1754.49584	2411.025
1757.71349	2425.425
1760.92903	2415.325
1764.14244	2404.225
1767.35375	2388.425
1770.56294	2381.225
1773.77002	2369.325
1776.97499	2354.425
1780.17785	2324.025
1783.37861	2322.025
1786.57727	2315.625
1789.77382	2294.725
1792.96828	2297.325
1796.16064	2263.425
1799.3509	2254.025
1802.53907	2244.325
1805.72514	2231.825
1808.90913	2239.625
1812.09102	2216.725
1815.27083	2221.825
1818.44856	2204.325
1821.6242	2210.025
1824.79776	2191.425
1827.96924	2194.225
1831.13864	2180.825
1834.30597	2189.225
1837.47122	2190.825
1840.6344	2164.225
1843.7955	2172.325
1846.95454	2165.625
1850.11151	2171.125
1853.26642	2153.925
1856.41926	2156.625
1859.57004	2154.925
1862.71876	2147.225
1865.86542	2142.525
1869.01003	2129.425
1872.15258	2126.525
1875.29308	2127.525
1878.43152	2118.025
1881.56792	2116.525
1884.70227	2110.125
1887.83457	2100.025
1890.96482	2102.525
1894.09304	2099.525
1897.21921	2087.325
1900.34335	2086.625
1903.46544	2075.825
1906.58551	2080.925
1909.70353	2071.325
1912.81953	2068.125
1915.93349	2057.125
1919.04543	2061.425
1922.15534	2054.925
1925.26322	2038.225
1928.36908	2042.225
1931.47292	2032.625
1934.57473	2024.025
1937.67453	2021.925
1940.77232	2001.825
1943.86808	2014.525
1946.96184	2004.925
1950.05358	1998.225
1953.14331	1996.425
1956.23103	1985.925
1959.31675	1965.725
1962.40046	1963.625
1965.48217	1959.725
1968.56188	1954.825
1971.63959	1956.125
1974.7153	1930.825
1977.78901	1933.425
1980.86073	1924.125
1983.93046	1920.325
1986.99819	1914.325
1990.06394	1898.225
1993.1277	1906.925
1996.18947	1882.425
1999.24925	1892.825
2002.30706	1883.725
2005.36288	1871.625
2008.41672	1869.325
2011.46859	1856.425
2014.51848	1858.925
2017.56639	1850.625
2020.61233	1837.025
2023.6563	1832.425
2026.6983	1825.625
2029.73833	1827.825
2032.7764	1821.825
2035.8125	1820.825
2038.84664	1808.925
2041.87881	1801.225
2044.90903	1793.025
2047.93729	1794.625
2050.96359	1780.525
2053.98794	1783.025
2057.01034	1785.425
2060.03078	1780.025
2063.04927	1777.925
2066.06582	1782.525
2069.08042	1767.525
2072.09307	1774.125
2075.10378	1768.125
2078.11255	1757.625
2081.11938	1762.025
2084.12426	1762.825
2087.12722	1762.925
2090.12824	1763.525
2093.12732	1766.225
2096.12447	1760.625
2099.11969	1758.225
2102.11299	1758.625
2105.10435	1762.425
2108.09379	1752.125
2111.08131	1750.325
2114.0669	1747.125
2117.05057	1753.525
2120.03233	1748.125
2123.01216	1749.225
2125.99008	1752.725
2128.96609	1753.025
2131.94018	1747.925
2134.91236	1753.325
2137.88263	1749.725
2140.851	1756.025
2143.81746	1745.325
2146.78201	1749.325
2149.74466	1752.625
2152.7054	1746.025
2155.66425	1745.125
2158.6212	1746.125
2161.57625	1746.525
2164.52941	1731.625
2167.48067	1731.525
2170.43004	1732.725
2173.37752	1730.825
2176.32311	1729.425
2179.26681	1727.825
2182.20863	1733.425
2185.14856	1724.125
2188.08661	1717.025
2191.02278	1727.925
2193.95707	1717.025
2196.88948	1711.725
2199.82001	1706.925
2202.74867	1708.225
2205.67545	1700.325
2208.60037	1694.925
2211.52341	1687.625
2214.44458	1693.025
2217.36388	1683.425
2220.28132	1685.325
2223.1969	1669.325
2226.11061	1662.725
2229.02246	1663.625
2231.93245	1661.525
2234.84058	1659.125
2237.74686	1642.725
2240.65128	1653.225
2243.55385	1649.025
2246.45456	1638.125
2249.35343	1640.425
2252.25044	1632.425
2255.14561	1617.025
2258.03893	1635.025
2260.93041	1632.325
2263.82004	1620.725
2266.70783	1620.025
2269.59378	1605.125
2272.4779	1599.225
2275.36017	1599.925
2278.24061	1590.325
2281.11922	1590.925
2283.996	1594.825
2286.87094	1584.525
2289.74405	1578.925
2292.61534	1575.225
2295.4848	1567.525
2298.35243	1566.425
2301.21824	1560.225
2304.08223	1567.825
2306.94439	1554.925
2309.80474	1557.725
2312.66327	1558.525
2315.51999	1553.325
2318.37489	1550.425
2321.22797	1546.225
2324.07925	1542.525
2326.92871	1549.425
2329.77637	1539.025
2332.62222	1528.925
2335.46626	1521.525
2338.3085	1526.925
2341.14893	1521.525
2343.98756	1514.225
2346.8244	1510.325
2349.65943	1511.725
2352.49267	1518.925
2355.32411	1506.225
2358.15376	1504.725
2360.98161	1505.825
2363.80768	1505.625
2366.63195	1488.425
2369.45444	1490.725
2372.27514	1490.725
2375.09405	1493.025
2377.91118	1486.525
2380.72652	1482.425
2383.54009	1484.925
2386.35187	1471.925
2389.16188	1479.125
2391.97011	1467.825
2394.77657	1472.125
2397.58125	1460.425
2400.38416	1465.925
2403.18529	1450.025
2405.98466	1462.325
2408.78226	1459.925
2411.57809	1442.225
2414.37216	1444.025
2417.16446	1441.925
2419.955	1433.225
2422.74378	1439.225
2425.5308	1422.325
2428.31606	1424.025
2431.09956	1421.725
2433.88131	1410.925
2436.6613	1415.525
2439.43954	1417.325
2442.21603	1408.125
2444.99077	1408.925
2447.76377	1409.925
2450.53501	1402.225
2453.30451	1405.125
2456.07226	1394.425
2458.83827	1401.825
2461.60254	1388.925
2464.36507	1388.325
2467.12586	1391.225
2469.88492	1384.025
2472.64224	1380.325
2475.39782	1392.225
2478.15167	1391.525
2480.90379	1377.625
2483.65417	1380.325
2486.40283	1375.725
2489.14976	1370.925
2491.89497	1367.125
2494.63845	1379.725
2497.3802	1366.125
2500.12024	1368.325
2502.85855	1365.125
2505.59514	1357.325
2508.33002	1354.625
2511.06318	1352.425
2513.79462	1357.725
2516.52435	1348.425
2519.25237	1351.425
2521.97867	1340.825
2524.70327	1342.525
2527.42616	1342.325
2530.14734	1335.225
2532.86681	1327.925
2535.58458	1324.725
2538.30065	1333.925
2541.01501	1323.625
2543.72768	1321.125
2546.43864	1315.725
2549.14791	1319.425
2551.85548	1311.625
2554.56136	1302.425
2557.26554	1295.425
2559.96803	1290.425
2562.66883	1298.225
2565.36794	1290.825
2568.06536	1289.125
2570.7611	1301.425
2573.45514	1288.725
2576.14751	1282.525
2578.83819	1282.325
2581.52719	1270.025
2584.21451	1274.725
2586.90015	1264.825
2589.58411	1261.725
2592.2664	1266.925
2594.94701	1263.025
2597.62594	1255.625
2600.30321	1254.925
2602.9788	1257.925
2605.65273	1248.825
2608.32498	1245.725
2610.99557	1242.225
2613.66449	1238.125
2616.33175	1237.025
2618.99734	1234.725
2621.66128	1238.625
2624.32355	1229.925
2626.98416	1232.125
2629.64311	1223.925
2632.30041	1224.725
2634.95605	1224.525
2637.61004	1222.425
2640.26238	1226.325
2642.91306	1216.625
2645.56209	1210.825
2648.20948	1220.725
2650.85521	1212.825
2653.4993	1214.725
2656.14175	1207.525
2658.78255	1210.225
2661.42171	1205.125
2664.05923	1200.525
2666.6951	1201.225
2669.32934	1202.625
2671.96194	1211.825
2674.59291	1202.825
2677.22224	1200.825
2679.84993	1203.325
2682.476	1198.025
2685.10043	1208.425
2687.72324	1204.325
2690.34441	1196.225
2692.96396	1196.925
2695.58188	1204.525
2698.19818	1201.025
2700.81285	1198.625
2703.4259	1214.325
2706.03733	1235.125
2708.64714	1217.925
2711.25533	1214.425
2713.86191	1210.325
2716.46687	1203.725
2719.07021	1201.125
2721.67194	1199.325
2724.27206	1199.725
2726.87057	1198.325
2729.46747	1198.825
2732.06276	1192.525
2734.65644	1198.525
2737.24852	1190.525
2739.83899	1194.625
2742.42786	1192.725
2745.01513	1181.225
2747.60079	1197.325
2750.18486	1189.125
2752.76733	1183.625
2755.3482	1182.325
2757.92747	1177.225
2760.50515	1177.025
2763.08123	1166.925
2765.65573	1167.925
2768.22863	1177.625
2770.79994	1163.625
2773.36967	1166.325
2775.9378	1162.525
2778.50435	1156.025
2781.06932	1156.425
2783.6327	1157.125
2786.1945	1160.225
2788.75471	1159.725
2791.31335	1147.425
2793.87041	1147.025
2796.42589	1137.625
2798.97979	1141.425
2801.53212	1139.425
2804.08288	1133.825
2806.63206	1138.925
2809.17967	1138.825
2811.72571	1131.025
2814.27018	1128.125
2816.81308	1124.925
2819.35442	1124.525
2821.89419	1121.825
2824.43239	1125.225
2826.96904	1111.725
2829.50412	1127.425
2832.03763	1120.325
2834.56959	1114.025
2837.1	1120.525
2839.62884	1118.325
2842.15613	1118.225
2844.68186	1121.525
2847.20604	1115.925
2849.72867	1116.125
2852.24974	1125.925
2854.76927	1128.525
2857.28724	1139.925
2859.80367	1121.725
2862.31855	1115.025
2864.83189	1125.425
2867.34368	1115.625
2869.85393	1124.825
2872.36264	1120.625
2874.8698	1126.025
2877.37543	1125.725
2879.87952	1129.325
2882.38207	1121.925
2884.88308	1137.825
2887.38256	1127.225
2889.88051	1128.125
2892.37692	1129.225
2894.8718	1134.825
2897.36515	1138.625
2899.85698	1133.325
2902.34727	1144.925
2904.83604	1129.925
2907.32328	1155.825
2909.809	1146.925
2912.29319	1150.025
2914.77587	1151.125
2917.25702	1145.525
2919.73665	1155.225
2922.21476	1150.625
2924.69136	1147.825
2927.16644	1157.825
2929.64	1158.225
2932.11205	1155.425
2934.58258	1167.025
2937.05161	1153.025
2939.51912	1159.925
2941.98513	1156.725
2944.44962	1150.025
2946.91261	1151.025
2949.37409	1162.225
2951.83407	1150.925
2954.29254	1153.625
2956.74951	1147.425
2959.20498	1140.025
2961.65895	1133.925
2964.11142	1132.925
2966.56239	1138.925
2969.01186	1135.425
2971.45984	1125.525
2973.90632	1124.925
2976.35131	1126.325
2978.7948	1116.025
2981.23681	1118.325
2983.67732	1117.125
2986.11635	1119.025
2988.55388	1109.725
2990.98993	1108.225
2993.4245	1107.925
2995.85758	1110.325
2998.28917	1106.825
3000.71928	1109.425
3003.14791	1110.925
3005.57506	1111.725
3008.00073	1117.025
3010.42493	1107.125
3012.84764	1115.225
3015.26888	1122.225
3017.68865	1118.125
3020.10694	1121.425
3022.52376	1127.525
3024.9391	1121.525
3027.35298	1123.325
3029.76539	1120.625
3032.17632	1122.125
3034.5858	1119.525
3036.9938	1129.225
3039.40034	1124.925
3041.80542	1118.725
3044.20903	1122.225
3046.61118	1123.225
3049.01187	1134.025
3051.4111	1131.425
3053.80888	1138.025
3056.20519	1148.025
3058.60005	1135.725
3060.99345	1140.225
3063.3854	1141.025
3065.7759	1145.825
3068.16494	1141.925
3070.55254	1135.725
3072.93868	1148.825
3075.32338	1159.525
3077.70662	1161.625
3080.08842	1156.125
3082.46878	1165.125
3084.84769	1159.725
3087.22515	1167.525
3089.60118	1172.825
3091.97576	1181.425
3094.3489	1185.125
3096.72061	1186.025
3099.09087	1193.825
3101.4597	1203.125
3103.82709	1205.125
3106.19305	1212.025
3108.55757	1222.525
3110.92066	1212.425
3113.28232	1221.125
3115.64255	1219.225
3118.00134	1229.325
3120.35871	1230.025
3122.71466	1236.425
3125.06917	1234.625
3127.42226	1230.325
3129.77393	1258.725
3132.12417	1261.625
3134.47299	1268.925
3136.82039	1265.425
3139.16636	1277.925
3141.51092	1286.825
3143.85406	1302.125
3146.19579	1300.525
3148.53609	1305.025
3150.87499	1316.925
3153.21246	1326.925
3155.54853	1329.325
3157.88318	1341.925
3160.21642	1347.925
3162.54826	1358.425
3164.87868	1363.525
3167.2077	1365.125
3169.5353	1385.125
3171.86151	1380.025
3174.18631	1385.225
3176.5097	1387.725
3178.83169	1392.725
3181.15228	1397.325
3183.47147	1406.825
3185.78926	1415.325
3188.10565	1414.525
3190.42065	1418.225
3192.73424	1421.925
3195.04645	1424.825
3197.35725	1435.325
3199.66667	1433.325
3201.97469	1444.425
3204.28132	1456.225
3206.58656	1446.825
3208.8904	1462.825
3211.19287	1468.025
3213.49394	1462.325
3215.79363	1475.025
3218.09193	1481.125
3220.38884	1491.725
3222.68438	1499.025
3224.97853	1493.425
3227.2713	1487.525
3229.56269	1492.825
3231.8527	1485.025
3234.14133	1479.425
3236.42858	1490.725
