Data from AgNPs_FTO_APTES_UA_0.1mM_CRN_200uM_NaF_0.1M_Addition_RamanShift__15__14-12-17-729.txt Node

Date: Mon Dec 20 14:12:17 GMT 2021
User: TCL
Spectrometer: QEP01345
Trigger mode: 4
Integration Time (sec): 7.000000E0
Scans to average: 10
Electric dark correction enabled: true
Nonlinearity correction enabled: false
Boxcar width: 0
XAxis mode: Raman Shifts
Number of Pixels in Spectrum: 1044
>>>>>Begin Spectral Data<<<<<
46.04893	0.825
50.45542	-1.275
54.85868	-1.475
59.25871	1.125
63.6555	26.625
68.04907	25.925
72.43941	29.925
76.82654	34.025
81.21044	33.025
85.59113	36.225
89.96862	33.525
94.34289	38.025
98.71396	36.425
103.08183	36.025
107.4465	39.725
111.80798	41.225
116.16626	41.325
120.52136	43.025
124.87327	45.225
129.222	41.525
133.56755	45.525
137.90993	48.425
142.24913	49.825
146.58517	50.425
150.91804	64.125
155.24774	74.125
159.57429	84.125
163.89768	107.125
168.21792	140.225
172.53501	177.025
176.84895	249.925
181.15975	339.325
185.46741	474.125
189.77193	655.125
194.07331	880.825
198.37157	1144.025
202.6667	1436.825
206.9587	1739.725
211.24758	2030.525
215.53334	2342.025
219.81599	2643.825
224.09553	2971.425
228.37195	3318.525
232.64527	3683.225
236.91549	4043.625
241.18261	4408.625
245.44663	4725.825
249.70755	5001.425
253.96539	5204.125
258.22014	5356.425
262.4718	5429.325
266.72039	5435.225
270.96589	5376.425
275.20832	5293.825
279.44768	5158.825
283.68397	5030.225
287.91719	4904.925
292.14735	4779.825
296.37445	4703.525
300.59849	4649.225
304.81948	4619.725
309.03742	4592.625
313.25231	4548.525
317.46415	4484.825
321.67296	4392.725
325.87872	4326.925
330.08145	4300.925
334.28114	4291.225
338.47781	4300.125
342.67145	4321.125
346.86207	4371.225
351.04966	4407.525
355.23424	4480.325
359.4158	4557.025
363.59435	4576.325
367.76989	4634.025
371.94243	4678.925
376.11196	4722.325
380.27849	4753.025
384.44203	4793.525
388.60257	4824.825
392.76012	4884.425
396.91468	4933.425
401.06626	4979.325
405.21485	5028.425
409.36047	5039.225
413.50311	5022.525
417.64277	4978.125
421.77947	4963.425
425.9132	4969.425
430.04396	4968.625
434.17176	4974.025
438.2966	5010.625
442.41849	5020.925
446.53742	5077.925
450.6534	5115.225
454.76644	5155.625
458.87653	5179.525
462.98368	5208.725
467.08789	5220.525
471.18916	5237.025
475.2875	5241.325
479.38291	5278.625
483.4754	5351.725
487.56496	5377.125
491.6516	5454.525
495.73531	5521.925
499.81612	5535.425
503.89401	5538.925
507.96899	5490.225
512.04106	5454.325
516.11023	5422.025
520.1765	5405.125
524.23987	5396.425
528.30034	5386.225
532.35792	5366.725
536.41261	5343.025
540.46441	5293.625
544.51333	5243.125
548.55936	5235.025
552.60252	5212.225
556.64279	5236.825
560.6802	5250.425
564.71473	5277.925
568.7464	5295.325
572.7752	5359.025
576.80114	5362.425
580.82422	5394.725
584.84444	5426.325
588.86181	5469.025
592.87633	5501.925
596.888	5502.725
600.89682	5490.525
604.9028	5598.825
608.90594	5826.925
612.90624	6174.025
616.90371	6200.125
620.89834	5894.225
624.89015	5858.825
628.87913	6075.525
632.86528	6347.525
636.84862	6541.625
640.82913	6566.325
644.80683	6411.125
648.78172	6212.325
652.75379	6031.225
656.72306	5936.925
660.68952	5913.525
664.65319	5924.625
668.61405	5961.925
672.57211	6048.125
676.52738	6137.625
680.47986	6195.925
684.42955	6205.725
688.37646	6174.225
692.32058	6093.625
696.26192	6005.725
700.20048	5895.625
704.13626	5819.625
708.06928	5724.525
711.99952	5638.125
715.927	5525.125
719.85171	5480.625
723.77365	5464.225
727.69284	5433.125
731.60928	5407.325
735.52295	5369.425
739.43388	5345.225
743.34206	5338.225
747.24749	5350.325
751.15017	5366.125
755.05012	5399.825
758.94733	5450.225
762.8418	5526.125
766.73354	5681.125
770.62254	5813.425
774.50882	5894.825
778.39237	5790.525
782.27321	5617.425
786.15132	5459.225
790.02671	5370.425
793.89938	5337.525
797.76935	5344.025
801.6366	5385.325
805.50115	5462.325
809.36299	5540.725
813.22213	5588.525
817.07857	5556.225
820.93231	5421.725
824.78336	5278.325
828.63172	5177.125
832.47738	5092.725
836.32036	5049.025
840.16066	5015.925
843.99827	5014.825
847.8332	5000.625
851.66546	4974.225
855.49504	5002.025
859.32195	4999.625
863.1462	5026.825
866.96777	5039.525
870.78668	5084.525
874.60293	5154.525
878.41652	5197.625
882.22745	5271.325
886.03573	5321.425
889.84136	5327.125
893.64433	5305.325
897.44466	5224.025
901.24235	5139.125
905.0374	5048.925
908.8298	4997.525
912.61957	4961.025
916.40671	4927.325
920.19121	4900.325
923.97308	4899.625
927.75233	4881.525
931.52895	4855.625
935.30295	4873.225
939.07433	4850.325
942.84309	4814.625
946.60924	4799.225
950.37278	4786.325
954.13371	4766.425
957.89203	4766.025
961.64774	4753.825
965.40086	4728.425
969.15137	4720.225
972.89929	4698.525
976.64461	4690.625
980.38733	4674.125
984.12747	4669.725
987.86502	4686.825
991.59999	4689.325
995.33237	4716.025
999.06217	4740.025
1002.78939	4794.725
1006.51404	4836.125
1010.23611	4864.225
1013.95561	4907.825
1017.67255	4915.425
1021.38692	4912.725
1025.09872	4873.825
1028.80796	4836.425
1032.51465	4810.125
1036.21877	4766.925
1039.92035	4751.225
1043.61937	4754.625
1047.31584	4748.925
1051.00976	4769.325
1054.70114	4800.825
1058.38998	4827.525
1062.07627	4866.125
1065.76003	4887.225
1069.44126	4923.325
1073.11995	4967.825
1076.79611	4985.825
1080.46974	4983.225
1084.14085	4917.525
1087.80943	4911.125
1091.47549	4868.725
1095.13903	4839.025
1098.80005	4810.025
1102.45857	4790.325
1106.11456	4754.225
1109.76805	4783.625
1113.41903	4851.225
1117.06751	4955.925
1120.71348	5140.725
1124.35696	5370.825
1127.99793	5649.325
1131.63641	5901.825
1135.2724	6013.525
1138.90589	6025.125
1142.5369	5916.925
1146.16542	5722.925
1149.79145	5510.925
1153.415	5306.025
1157.03607	5168.125
1160.65467	5026.125
1164.27079	4981.225
1167.88443	4986.925
1171.49561	5060.625
1175.10432	5149.625
1178.71056	5298.925
1182.31434	5465.725
1185.91565	5545.225
1189.51451	5559.025
1193.11091	5535.825
1196.70485	5541.025
1200.29634	5514.925
1203.88538	5509.025
1207.47197	5436.825
1211.05612	5367.725
1214.63782	5273.525
1218.21708	5194.225
1221.79391	5098.025
1225.36829	5045.225
1228.94024	4995.025
1232.50976	4977.725
1236.07685	4957.325
1239.6415	4948.325
1243.20374	4962.025
1246.76355	4989.925
1250.32093	5013.925
1253.8759	5035.825
1257.42845	5074.725
1260.97859	5083.225
1264.52631	5101.225
1268.07163	5142.125
1271.61453	5156.825
1275.15503	5162.525
1278.69312	5174.025
1282.22882	5173.725
1285.76211	5201.825
1289.29301	5249.625
1292.82151	5309.125
1296.34761	5384.225
1299.87133	5520.125
1303.39266	5646.725
1306.9116	5811.425
1310.42815	5993.225
1313.94233	6151.925
1317.45412	6164.325
1320.96354	6145.325
1324.47058	6086.325
1327.97525	6014.825
1331.47754	5992.825
1334.97747	6001.025
1338.47502	6034.725
1341.97022	6110.025
1345.46305	6223.425
1348.95352	6344.825
1352.44163	6466.925
1355.92738	6612.125
1359.41078	6836.925
1362.89183	7053.325
1366.37053	7057.625
1369.84688	6742.525
1373.32088	6361.925
1376.79254	6115.025
1380.26186	5957.625
1383.72883	5855.525
1387.19347	5780.725
1390.65578	5673.425
1394.11575	5620.125
1397.57339	5526.625
1401.0287	5461.525
1404.48168	5414.125
1407.93234	5329.125
1411.38068	5247.225
1414.82669	5174.725
1418.27039	5055.825
1421.71177	4983.525
1425.15083	4887.625
1428.58758	4795.225
1432.02203	4731.225
1435.45416	4712.125
1438.88399	4672.725
1442.31151	4660.225
1445.73673	4645.325
1449.15965	4644.525
1452.58027	4669.125
1455.9986	4658.925
1459.41463	4690.225
1462.82837	4713.525
1466.23982	4743.425
1469.64898	4796.425
1473.05586	4822.125
1476.46045	4846.025
1479.86276	4851.025
1483.26279	4875.525
1486.66054	4884.425
1490.05602	4896.525
1493.44922	4974.325
1496.84016	5041.825
1500.22882	5167.025
1503.61521	5354.225
1506.99934	5562.425
1510.38121	5754.625
1513.76081	5806.725
1517.13816	5716.225
1520.51324	5520.825
1523.88607	5303.025
1527.25665	5186.625
1530.62498	5121.525
1533.99105	5101.425
1537.35488	5114.725
1540.71647	5132.325
1544.07581	5129.425
1547.4329	5149.525
1550.78776	5168.725
1554.14038	5170.025
1557.49077	5204.325
1560.83892	5235.725
1564.18484	5254.725
1567.52853	5299.125
1570.86999	5357.125
1574.20922	5377.425
1577.54624	5408.725
1580.88103	5382.225
1584.2136	5332.825
1587.54395	5244.325
1590.87208	5226.925
1594.19801	5220.725
1597.52172	5278.525
1600.84321	5321.625
1604.16251	5305.225
1607.47959	5228.325
1610.79447	5173.825
1614.10715	5079.525
1617.41763	5018.725
1620.7259	4950.325
1624.03199	4929.625
1627.33587	4929.125
1630.63757	4932.925
1633.93707	5007.925
1637.23439	5092.625
1640.52951	5228.625
1643.82246	5412.025
1647.11321	5601.925
1650.40179	5751.125
1653.68819	5743.625
1656.97241	5612.325
1660.25446	5392.625
1663.53433	5240.725
1666.81203	5140.825
1670.08756	5093.925
1673.36092	5052.225
1676.63211	5021.825
1679.90115	4993.925
1683.16801	4940.925
1686.43272	4880.725
1689.69527	4774.825
1692.95567	4684.125
1696.2139	4588.925
1699.46999	4496.625
1702.72392	4404.325
1705.97571	4318.225
1709.22535	4241.625
1712.47284	4205.025
1715.71819	4142.225
1718.96139	4106.425
1722.20246	4054.925
1725.44139	4030.725
1728.67818	3967.425
1731.91284	3922.925
1735.14537	3873.925
1738.37576	3832.825
1741.60403	3815.125
1744.83017	3776.025
1748.05418	3759.325
1751.27607	3780.525
1754.49584	3769.325
1757.71349	3768.425
1760.92903	3769.125
1764.14244	3755.825
1767.35375	3713.225
1770.56294	3667.525
1773.77002	3627.825
1776.97499	3590.525
1780.17785	3552.925
1783.37861	3505.125
1786.57727	3466.925
1789.77382	3433.025
1792.96828	3413.325
1796.16064	3374.325
1799.3509	3348.625
1802.53907	3332.225
1805.72514	3316.325
1808.90913	3296.025
1812.09102	3284.025
1815.27083	3272.225
1818.44856	3258.625
1821.6242	3257.525
1824.79776	3245.525
1827.96924	3244.925
1831.13864	3215.825
1834.30597	3209.825
1837.47122	3215.525
1840.6344	3207.625
1843.7955	3210.025
1846.95454	3199.725
1850.11151	3196.725
1853.26642	3182.525
1856.41926	3177.625
1859.57004	3166.525
1862.71876	3175.525
1865.86542	3154.025
1869.01003	3149.425
1872.15258	3149.225
1875.29308	3149.625
1878.43152	3133.225
1881.56792	3118.325
1884.70227	3133.925
1887.83457	3117.025
1890.96482	3104.625
1894.09304	3097.125
1897.21921	3072.125
1900.34335	3091.625
1903.46544	3091.425
1906.58551	3089.225
1909.70353	3071.525
1912.81953	3078.525
1915.93349	3067.625
1919.04543	3052.325
1922.15534	3036.925
1925.26322	3048.325
1928.36908	3028.225
1931.47292	3023.925
1934.57473	3010.525
1937.67453	3011.725
1940.77232	2989.025
1943.86808	2991.725
1946.96184	2973.525
1950.05358	2963.725
1953.14331	2965.425
1956.23103	2931.625
1959.31675	2949.325
1962.40046	2926.825
1965.48217	2916.625
1968.56188	2906.325
1971.63959	2900.125
1974.7153	2887.725
1977.78901	2880.825
1980.86073	2864.625
1983.93046	2856.425
1986.99819	2841.225
1990.06394	2842.925
1993.1277	2847.025
1996.18947	2824.725
1999.24925	2820.325
2002.30706	2806.925
2005.36288	2795.225
2008.41672	2777.425
2011.46859	2797.525
2014.51848	2771.625
2017.56639	2758.225
2020.61233	2752.125
2023.6563	2732.425
2026.6983	2737.225
2029.73833	2725.525
2032.7764	2717.625
2035.8125	2716.125
2038.84664	2695.925
2041.87881	2700.925
2044.90903	2696.925
2047.93729	2689.025
2050.96359	2674.925
2053.98794	2676.925
2057.01034	2673.325
2060.03078	2664.225
2063.04927	2659.325
2066.06582	2660.925
2069.08042	2661.425
2072.09307	2663.825
2075.10378	2666.825
2078.11255	2653.225
2081.11938	2650.725
2084.12426	2652.525
2087.12722	2648.825
2090.12824	2645.425
2093.12732	2647.325
2096.12447	2641.525
2099.11969	2640.025
2102.11299	2645.325
2105.10435	2642.425
2108.09379	2630.225
2111.08131	2630.625
2114.0669	2641.225
2117.05057	2642.025
2120.03233	2654.425
2123.01216	2645.825
2125.99008	2655.825
2128.96609	2650.325
2131.94018	2658.625
2134.91236	2656.125
2137.88263	2645.825
2140.851	2650.425
2143.81746	2643.525
2146.78201	2662.825
2149.74466	2653.725
2152.7054	2657.325
2155.66425	2645.925
2158.6212	2657.725
2161.57625	2634.625
2164.52941	2635.125
2167.48067	2653.025
2170.43004	2642.825
2173.37752	2650.125
2176.32311	2632.425
2179.26681	2625.025
2182.20863	2623.325
2185.14856	2624.225
2188.08661	2619.725
2191.02278	2620.525
2193.95707	2628.625
2196.88948	2606.625
2199.82001	2618.025
2202.74867	2608.625
2205.67545	2590.925
2208.60037	2587.525
2211.52341	2591.925
2214.44458	2586.625
2217.36388	2577.825
2220.28132	2569.025
2223.1969	2554.025
2226.11061	2546.525
2229.02246	2547.625
2231.93245	2551.025
2234.84058	2535.025
2237.74686	2525.025
2240.65128	2521.325
2243.55385	2513.025
2246.45456	2516.825
2249.35343	2521.825
2252.25044	2503.425
2255.14561	2488.825
2258.03893	2497.025
2260.93041	2492.325
2263.82004	2488.825
2266.70783	2476.625
2269.59378	2484.925
2272.4779	2456.525
2275.36017	2450.025
2278.24061	2444.725
2281.11922	2440.225
2283.996	2426.725
2286.87094	2431.825
2289.74405	2435.925
2292.61534	2422.525
2295.4848	2413.525
2298.35243	2408.925
2301.21824	2402.425
2304.08223	2405.325
2306.94439	2403.025
2309.80474	2401.325
2312.66327	2399.725
2315.51999	2392.925
2318.37489	2393.125
2321.22797	2377.025
2324.07925	2376.825
2326.92871	2372.325
2329.77637	2369.925
2332.62222	2372.925
2335.46626	2365.025
2338.3085	2356.325
2341.14893	2352.925
2343.98756	2347.825
2346.8244	2337.625
2349.65943	2329.225
2352.49267	2345.225
2355.32411	2330.525
2358.15376	2322.625
2360.98161	2328.625
2363.80768	2323.425
2366.63195	2321.425
2369.45444	2331.025
2372.27514	2312.225
2375.09405	2316.425
2377.91118	2309.825
2380.72652	2313.325
2383.54009	2294.625
2386.35187	2293.325
2389.16188	2285.925
2391.97011	2285.025
2394.77657	2274.125
2397.58125	2276.625
2400.38416	2265.125
2403.18529	2256.825
2405.98466	2262.825
2408.78226	2268.725
2411.57809	2253.625
2414.37216	2248.825
2417.16446	2237.625
2419.955	2236.225
2422.74378	2231.825
2425.5308	2228.625
2428.31606	2228.925
2431.09956	2212.625
2433.88131	2207.425
2436.6613	2218.625
2439.43954	2213.025
2442.21603	2200.225
2444.99077	2194.825
2447.76377	2192.625
2450.53501	2202.725
2453.30451	2204.225
2456.07226	2198.225
2458.83827	2183.325
2461.60254	2195.225
2464.36507	2188.125
2467.12586	2178.025
2469.88492	2184.525
2472.64224	2181.625
2475.39782	2164.225
2478.15167	2172.025
2480.90379	2163.925
2483.65417	2187.725
2486.40283	2169.725
2489.14976	2166.425
2491.89497	2160.925
2494.63845	2157.425
2497.3802	2152.425
2500.12024	2141.225
2502.85855	2154.125
2505.59514	2143.125
2508.33002	2136.125
2511.06318	2137.225
2513.79462	2131.625
2516.52435	2132.425
2519.25237	2126.425
2521.97867	2120.125
2524.70327	2127.825
2527.42616	2121.525
2530.14734	2107.325
2532.86681	2101.425
2535.58458	2092.325
2538.30065	2108.525
2541.01501	2092.425
2543.72768	2095.825
2546.43864	2088.225
2549.14791	2074.325
2551.85548	2070.025
2554.56136	2063.025
2557.26554	2061.225
2559.96803	2065.825
2562.66883	2048.125
2565.36794	2039.125
2568.06536	2050.325
2570.7611	2050.225
2573.45514	2045.125
2576.14751	2043.725
2578.83819	2037.125
2581.52719	2026.725
2584.21451	2025.825
2586.90015	2019.625
2589.58411	2021.625
2592.2664	2016.425
2594.94701	2005.025
2597.62594	1999.925
2600.30321	1992.825
2602.9788	1993.425
2605.65273	1984.825
2608.32498	1992.525
2610.99557	1977.325
2613.66449	1985.025
2616.33175	1964.525
2618.99734	1973.225
2621.66128	1961.925
2624.32355	1957.025
2626.98416	1969.425
2629.64311	1948.325
2632.30041	1959.325
2634.95605	1943.625
2637.61004	1934.925
2640.26238	1942.025
2642.91306	1940.025
2645.56209	1941.525
2648.20948	1945.625
2650.85521	1938.425
2653.4993	1943.225
2656.14175	1933.325
2658.78255	1944.125
2661.42171	1935.925
2664.05923	1928.025
2666.6951	1930.825
2669.32934	1928.625
2671.96194	1927.225
2674.59291	1923.325
2677.22224	1929.225
2679.84993	1931.125
2682.476	1931.325
2685.10043	1939.225
2687.72324	1934.325
2690.34441	1917.825
2692.96396	1924.225
2695.58188	1926.925
2698.19818	1913.725
2700.81285	1924.225
2703.4259	1932.225
2706.03733	1950.125
2708.64714	1943.225
2711.25533	1931.725
2713.86191	1930.225
2716.46687	1931.725
2719.07021	1922.825
2721.67194	1928.825
2724.27206	1910.625
2726.87057	1926.425
2729.46747	1907.025
2732.06276	1918.325
2734.65644	1924.725
2737.24852	1906.725
2739.83899	1908.925
2742.42786	1899.825
2745.01513	1901.425
2747.60079	1903.125
2750.18486	1897.325
2752.76733	1887.725
2755.3482	1887.825
2757.92747	1896.825
2760.50515	1882.925
2763.08123	1879.625
2765.65573	1873.425
2768.22863	1878.325
2770.79994	1874.625
2773.36967	1871.425
2775.9378	1864.725
2778.50435	1864.125
2781.06932	1855.125
2783.6327	1850.125
2786.1945	1854.825
2788.75471	1858.825
2791.31335	1845.125
2793.87041	1844.725
2796.42589	1839.025
2798.97979	1837.225
2801.53212	1829.125
2804.08288	1832.025
2806.63206	1828.525
2809.17967	1824.325
2811.72571	1823.225
2814.27018	1815.325
2816.81308	1816.125
2819.35442	1804.425
2821.89419	1810.725
2824.43239	1810.325
2826.96904	1803.125
2829.50412	1800.225
2832.03763	1805.825
2834.56959	1807.525
2837.1	1801.625
2839.62884	1790.325
2842.15613	1797.525
2844.68186	1798.925
2847.20604	1796.025
2849.72867	1800.625
2852.24974	1792.125
2854.76927	1791.425
2857.28724	1789.625
2859.80367	1790.625
2862.31855	1790.025
2864.83189	1792.125
2867.34368	1788.625
2869.85393	1793.825
2872.36264	1778.125
2874.8698	1785.925
2877.37543	1791.825
2879.87952	1788.125
2882.38207	1795.325
2884.88308	1789.525
2887.38256	1799.025
2889.88051	1792.525
2892.37692	1801.625
2894.8718	1796.925
2897.36515	1800.525
2899.85698	1799.625
2902.34727	1814.525
2904.83604	1814.025
2907.32328	1809.525
2909.809	1822.425
2912.29319	1813.625
2914.77587	1828.325
2917.25702	1826.225
2919.73665	1824.525
2922.21476	1833.625
2924.69136	1836.825
2927.16644	1841.025
2929.64	1832.025
2932.11205	1842.725
2934.58258	1837.925
2937.05161	1844.325
2939.51912	1838.225
2941.98513	1833.025
2944.44962	1844.925
2946.91261	1836.325
2949.37409	1843.125
2951.83407	1845.125
2954.29254	1846.625
2956.74951	1844.025
2959.20498	1833.725
2961.65895	1824.425
2964.11142	1822.425
2966.56239	1817.525
2969.01186	1810.825
2971.45984	1797.925
2973.90632	1796.325
2976.35131	1793.925
2978.7948	1787.125
2981.23681	1779.125
2983.67732	1779.625
2986.11635	1772.825
2988.55388	1771.625
2990.98993	1777.125
2993.4245	1768.725
2995.85758	1757.425
2998.28917	1768.425
3000.71928	1757.925
3003.14791	1758.225
3005.57506	1751.025
3008.00073	1748.225
3010.42493	1755.525
3012.84764	1750.325
3015.26888	1751.025
3017.68865	1749.125
3020.10694	1750.225
3022.52376	1748.525
3024.9391	1753.325
3027.35298	1751.025
3029.76539	1739.825
3032.17632	1746.025
3034.5858	1744.225
3036.9938	1758.325
3039.40034	1749.525
3041.80542	1738.925
3044.20903	1737.125
3046.61118	1737.625
3049.01187	1739.525
3051.4111	1740.325
3053.80888	1739.725
3056.20519	1733.225
3058.60005	1735.025
3060.99345	1739.325
3063.3854	1738.025
3065.7759	1740.225
3068.16494	1731.425
3070.55254	1736.025
3072.93868	1745.525
3075.32338	1739.625
3077.70662	1738.425
3080.08842	1729.625
3082.46878	1751.225
3084.84769	1745.625
3087.22515	1747.325
3089.60118	1755.825
3091.97576	1768.125
3094.3489	1755.825
3096.72061	1753.925
3099.09087	1774.925
3101.4597	1764.125
3103.82709	1766.925
3106.19305	1780.225
3108.55757	1783.025
3110.92066	1777.925
3113.28232	1785.125
3115.64255	1781.525
3118.00134	1785.425
3120.35871	1789.125
3122.71466	1789.525
3125.06917	1790.625
3127.42226	1789.025
3129.77393	1806.725
3132.12417	1800.025
3134.47299	1813.825
3136.82039	1817.925
3139.16636	1817.625
3141.51092	1834.525
3143.85406	1834.625
3146.19579	1840.425
3148.53609	1853.025
3150.87499	1855.125
3153.21246	1867.025
3155.54853	1878.525
3157.88318	1878.325
3160.21642	1892.225
3162.54826	1889.425
3164.87868	1891.825
3167.2077	1900.325
3169.5353	1900.425
3171.86151	1909.325
3174.18631	1917.625
3176.5097	1931.725
3178.83169	1925.425
3181.15228	1923.925
3183.47147	1938.725
3185.78926	1933.525
3188.10565	1939.225
3190.42065	1948.125
3192.73424	1952.925
3195.04645	1962.125
3197.35725	1958.425
3199.66667	1963.725
3201.97469	1977.125
3204.28132	1985.525
3206.58656	1981.725
3208.8904	1985.525
3211.19287	1987.625
3213.49394	1998.425
3215.79363	2004.325
3218.09193	2019.825
3220.38884	2017.725
3222.68438	2016.425
3224.97853	2004.925
3227.2713	2023.325
3229.56269	2001.825
3231.8527	2013.125
3234.14133	2002.425
3236.42858	2006.325
