Data from AgNPs_FTO_APTES_UA_0.1mM_CRN_0uM_NaF_0.1M_Addition_RamanShift__24__10-30-37-478.txt Node

Date: Mon Dec 20 10:30:37 GMT 2021
User: TCL
Spectrometer: QEP01345
Trigger mode: 4
Integration Time (sec): 7.000000E0
Scans to average: 10
Electric dark correction enabled: true
Nonlinearity correction enabled: false
Boxcar width: 0
XAxis mode: Raman Shifts
Number of Pixels in Spectrum: 1044
>>>>>Begin Spectral Data<<<<<
46.04893	0.6125
50.45542	0.0125
54.85868	-1.4875
59.25871	1.2125
63.6555	25.3125
68.04907	26.3125
72.43941	28.1125
76.82654	28.1125
81.21044	30.3125
85.59113	34.8125
89.96862	31.1125
94.34289	36.2125
98.71396	38.1125
103.08183	33.7125
107.4465	38.3125
111.80798	38.9125
116.16626	39.2125
120.52136	40.8125
124.87327	42.4125
129.222	41.5125
133.56755	44.5125
137.90993	44.9125
142.24913	46.2125
146.58517	48.2125
150.91804	59.7125
155.24774	67.1125
159.57429	77.7125
163.89768	102.5125
168.21792	125.4125
172.53501	159.1125
176.84895	214.6125
181.15975	292.5125
185.46741	394.5125
189.77193	548.4125
194.07331	729.5125
198.37157	932.5125
202.6667	1155.4125
206.9587	1371.8125
211.24758	1592.0125
215.53334	1793.3125
219.81599	2000.5125
224.09553	2229.0125
228.37195	2461.3125
232.64527	2716.3125
236.91549	2969.2125
241.18261	3226.9125
245.44663	3454.7125
249.70755	3661.3125
253.96539	3837.8125
258.22014	3992.7125
262.4718	4088.6125
266.72039	4152.0125
270.96589	4150.7125
275.20832	4149.5125
279.44768	4095.6125
283.68397	4029.4125
287.91719	3960.8125
292.14735	3931.0125
296.37445	3920.7125
300.59849	3902.2125
304.81948	3916.2125
309.03742	3937.6125
313.25231	3908.9125
317.46415	3856.8125
321.67296	3730.4125
325.87872	3656.4125
330.08145	3592.2125
334.28114	3564.6125
338.47781	3609.7125
342.67145	3633.6125
346.86207	3675.2125
351.04966	3772.1125
355.23424	3858.5125
359.4158	3960.1125
363.59435	4024.9125
367.76989	4081.7125
371.94243	4133.4125
376.11196	4176.7125
380.27849	4225.6125
384.44203	4249.5125
388.60257	4272.9125
392.76012	4298.4125
396.91468	4337.8125
401.06626	4388.5125
405.21485	4421.7125
409.36047	4416.7125
413.50311	4326.5125
417.64277	4255.0125
421.77947	4204.8125
425.9132	4178.5125
430.04396	4190.2125
434.17176	4216.9125
438.2966	4251.6125
442.41849	4308.7125
446.53742	4381.1125
450.6534	4451.8125
454.76644	4494.1125
458.87653	4524.1125
462.98368	4506.0125
467.08789	4478.0125
471.18916	4474.0125
475.2875	4489.9125
479.38291	4507.5125
483.4754	4587.7125
487.56496	4727.1125
491.6516	4869.8125
495.73531	4961.5125
499.81612	4902.4125
503.89401	4809.9125
507.96899	4681.2125
512.04106	4631.3125
516.11023	4676.1125
520.1765	4706.8125
524.23987	4783.5125
528.30034	4854.7125
532.35792	4853.5125
536.41261	4794.2125
540.46441	4694.6125
544.51333	4593.3125
548.55936	4526.0125
552.60252	4488.2125
556.64279	4488.9125
560.6802	4488.9125
564.71473	4485.3125
568.7464	4507.6125
572.7752	4556.8125
576.80114	4573.1125
580.82422	4582.2125
584.84444	4663.6125
588.86181	4806.7125
592.87633	4900.5125
596.888	4954.9125
600.89682	4909.4125
604.9028	4977.6125
608.90594	5365.2125
612.90624	6005.4125
616.90371	6180.0125
620.89834	5798.2125
624.89015	5836.7125
628.87913	6268.5125
632.86528	6723.0125
636.84862	6964.7125
640.82913	6829.4125
644.80683	6404.4125
648.78172	5936.9125
652.75379	5531.5125
656.72306	5266.3125
660.68952	5174.8125
664.65319	5076.1125
668.61405	4996.0125
672.57211	4957.7125
676.52738	4981.9125
680.47986	4979.0125
684.42955	4966.5125
688.37646	4977.3125
692.32058	4919.2125
696.26192	4870.4125
700.20048	4809.3125
704.13626	4767.3125
708.06928	4692.4125
711.99952	4631.7125
715.927	4618.2125
719.85171	4657.1125
723.77365	4705.2125
727.69284	4708.8125
731.60928	4658.1125
735.52295	4579.6125
739.43388	4527.3125
743.34206	4530.1125
747.24749	4553.2125
751.15017	4559.8125
755.05012	4557.4125
758.94733	4590.5125
762.8418	4702.1125
766.73354	4939.7125
770.62254	5176.1125
774.50882	5316.5125
778.39237	5257.2125
782.27321	5010.1125
786.15132	4782.3125
790.02671	4688.0125
793.89938	4662.6125
797.76935	4726.8125
801.6366	4858.6125
805.50115	5103.4125
809.36299	5393.3125
813.22213	5467.3125
817.07857	5367.5125
820.93231	5104.2125
824.78336	4811.2125
828.63172	4585.1125
832.47738	4465.6125
836.32036	4401.8125
840.16066	4365.8125
843.99827	4346.4125
847.8332	4327.4125
851.66546	4313.3125
855.49504	4284.5125
859.32195	4299.3125
863.1462	4300.2125
866.96777	4362.8125
870.78668	4474.7125
874.60293	4630.5125
878.41652	4800.8125
882.22745	4991.5125
886.03573	5103.2125
889.84136	5101.2125
893.64433	4937.4125
897.44466	4725.2125
901.24235	4494.4125
905.0374	4304.2125
908.8298	4188.2125
912.61957	4123.7125
916.40671	4098.9125
920.19121	4092.9125
923.97308	4084.0125
927.75233	4071.6125
931.52895	4068.9125
935.30295	4070.0125
939.07433	4038.0125
942.84309	4014.8125
946.60924	4002.3125
950.37278	3989.6125
954.13371	3971.3125
957.89203	3950.5125
961.64774	3922.7125
965.40086	3900.1125
969.15137	3875.0125
972.89929	3852.4125
976.64461	3831.4125
980.38733	3822.6125
984.12747	3827.2125
987.86502	3841.7125
991.59999	3873.6125
995.33237	3927.3125
999.06217	4000.2125
1002.78939	4121.7125
1006.51404	4226.8125
1010.23611	4330.0125
1013.95561	4405.5125
1017.67255	4440.6125
1021.38692	4376.9125
1025.09872	4292.1125
1028.80796	4168.0125
1032.51465	4065.6125
1036.21877	3965.0125
1039.92035	3911.0125
1043.61937	3874.6125
1047.31584	3855.2125
1051.00976	3856.1125
1054.70114	3893.3125
1058.38998	3921.3125
1062.07627	3974.0125
1065.76003	4017.2125
1069.44126	4049.9125
1073.11995	4070.0125
1076.79611	4058.1125
1080.46974	4019.8125
1084.14085	3990.7125
1087.80943	3960.9125
1091.47549	3938.7125
1095.13903	3875.1125
1098.80005	3809.1125
1102.45857	3774.7125
1106.11456	3776.8125
1109.76805	3811.9125
1113.41903	3928.7125
1117.06751	4094.5125
1120.71348	4367.6125
1124.35696	4741.0125
1127.99793	5215.6125
1131.63641	5628.7125
1135.2724	5854.9125
1138.90589	5841.7125
1142.5369	5621.1125
1146.16542	5268.8125
1149.79145	4848.4125
1153.415	4467.4125
1157.03607	4188.6125
1160.65467	4015.2125
1164.27079	3933.2125
1167.88443	3937.2125
1171.49561	4009.7125
1175.10432	4174.3125
1178.71056	4431.8125
1182.31434	4692.2125
1185.91565	4874.9125
1189.51451	5007.0125
1193.11091	5110.8125
1196.70485	5229.9125
1200.29634	5359.1125
1203.88538	5413.2125
1207.47197	5278.6125
1211.05612	5020.5125
1214.63782	4747.3125
1218.21708	4511.8125
1221.79391	4291.0125
1225.36829	4153.8125
1228.94024	4031.7125
1232.50976	3934.7125
1236.07685	3908.9125
1239.6415	3917.6125
1243.20374	3946.6125
1246.76355	3959.5125
1250.32093	3989.3125
1253.8759	4000.9125
1257.42845	4060.2125
1260.97859	4093.1125
1264.52631	4149.9125
1268.07163	4190.2125
1271.61453	4204.7125
1275.15503	4192.7125
1278.69312	4148.1125
1282.22882	4138.1125
1285.76211	4158.3125
1289.29301	4220.1125
1292.82151	4315.6125
1296.34761	4424.0125
1299.87133	4526.7125
1303.39266	4719.8125
1306.9116	4983.5125
1310.42815	5324.1125
1313.94233	5601.1125
1317.45412	5642.0125
1320.96354	5510.9125
1324.47058	5311.5125
1327.97525	5135.6125
1331.47754	5058.3125
1334.97747	5101.6125
1338.47502	5186.1125
1341.97022	5323.7125
1345.46305	5487.8125
1348.95352	5684.8125
1352.44163	5928.7125
1355.92738	6310.4125
1359.41078	6768.2125
1362.89183	7222.8125
1366.37053	7235.4125
1369.84688	6705.5125
1373.32088	6074.6125
1376.79254	5636.3125
1380.26186	5386.6125
1383.72883	5247.3125
1387.19347	5134.2125
1390.65578	4972.6125
1394.11575	4804.2125
1397.57339	4695.1125
1401.0287	4602.6125
1404.48168	4537.8125
1407.93234	4409.0125
1411.38068	4321.7125
1414.82669	4208.2125
1418.27039	4099.0125
1421.71177	3970.0125
1425.15083	3868.0125
1428.58758	3804.4125
1432.02203	3793.9125
1435.45416	3788.0125
1438.88399	3807.7125
1442.31151	3800.1125
1445.73673	3806.5125
1449.15965	3781.3125
1452.58027	3767.2125
1455.9986	3735.1125
1459.41463	3675.2125
1462.82837	3676.3125
1466.23982	3712.8125
1469.64898	3801.5125
1473.05586	3860.2125
1476.46045	3904.5125
1479.86276	3984.9125
1483.26279	4050.8125
1486.66054	4137.0125
1490.05602	4205.6125
1493.44922	4287.4125
1496.84016	4369.1125
1500.22882	4506.0125
1503.61521	4740.4125
1506.99934	5012.8125
1510.38121	5290.0125
1513.76081	5441.3125
1517.13816	5285.8125
1520.51324	4937.0125
1523.88607	4540.2125
1527.25665	4304.6125
1530.62498	4224.6125
1533.99105	4217.2125
1537.35488	4244.3125
1540.71647	4279.9125
1544.07581	4351.4125
1547.4329	4398.7125
1550.78776	4457.8125
1554.14038	4486.6125
1557.49077	4516.9125
1560.83892	4527.4125
1564.18484	4566.6125
1567.52853	4628.5125
1570.86999	4668.0125
1574.20922	4700.7125
1577.54624	4719.2125
1580.88103	4663.8125
1584.2136	4543.1125
1587.54395	4464.4125
1590.87208	4465.2125
1594.19801	4559.8125
1597.52172	4705.9125
1600.84321	4869.3125
1604.16251	4928.8125
1607.47959	4848.4125
1610.79447	4702.4125
1614.10715	4569.5125
1617.41763	4474.8125
1620.7259	4390.6125
1624.03199	4394.3125
1627.33587	4403.0125
1630.63757	4445.6125
1633.93707	4551.6125
1637.23439	4701.0125
1640.52951	4953.6125
1643.82246	5304.7125
1647.11321	5694.6125
1650.40179	5979.7125
1653.68819	5954.2125
1656.97241	5619.5125
1660.25446	5179.9125
1663.53433	4815.7125
1666.81203	4531.1125
1670.08756	4303.1125
1673.36092	4133.7125
1676.63211	4005.9125
1679.90115	3908.0125
1683.16801	3823.1125
1686.43272	3732.4125
1689.69527	3662.9125
1692.95567	3568.7125
1696.2139	3496.8125
1699.46999	3397.9125
1702.72392	3290.8125
1705.97571	3195.8125
1709.22535	3092.2125
1712.47284	3019.1125
1715.71819	2942.9125
1718.96139	2880.2125
1722.20246	2818.9125
1725.44139	2758.1125
1728.67818	2703.1125
1731.91284	2653.1125
1735.14537	2612.4125
1738.37576	2562.5125
1741.60403	2553.9125
1744.83017	2506.4125
1748.05418	2484.0125
1751.27607	2476.9125
1754.49584	2452.6125
1757.71349	2439.8125
1760.92903	2419.2125
1764.14244	2402.5125
1767.35375	2394.3125
1770.56294	2376.2125
1773.77002	2355.0125
1776.97499	2329.4125
1780.17785	2306.6125
1783.37861	2302.8125
1786.57727	2286.5125
1789.77382	2254.8125
1792.96828	2254.2125
1796.16064	2227.7125
1799.3509	2222.8125
1802.53907	2201.7125
1805.72514	2189.5125
1808.90913	2171.0125
1812.09102	2167.7125
1815.27083	2158.2125
1818.44856	2143.7125
1821.6242	2142.3125
1824.79776	2124.2125
1827.96924	2135.0125
1831.13864	2112.1125
1834.30597	2120.2125
1837.47122	2112.1125
1840.6344	2096.2125
1843.7955	2102.7125
1846.95454	2089.4125
1850.11151	2087.4125
1853.26642	2072.5125
1856.41926	2076.4125
1859.57004	2081.4125
1862.71876	2065.7125
1865.86542	2057.8125
1869.01003	2050.9125
1872.15258	2048.6125
1875.29308	2047.8125
1878.43152	2032.1125
1881.56792	2022.6125
1884.70227	2032.1125
1887.83457	2029.3125
1890.96482	2009.2125
1894.09304	2015.0125
1897.21921	2004.1125
1900.34335	1997.8125
1903.46544	1998.6125
1906.58551	1992.9125
1909.70353	1986.3125
1912.81953	1972.9125
1915.93349	1970.3125
1919.04543	1964.0125
1922.15534	1966.3125
1925.26322	1954.4125
1928.36908	1944.2125
1931.47292	1937.6125
1934.57473	1938.2125
1937.67453	1932.8125
1940.77232	1908.7125
1943.86808	1910.7125
1946.96184	1907.8125
1950.05358	1891.2125
1953.14331	1895.5125
1956.23103	1885.7125
1959.31675	1883.1125
1962.40046	1871.5125
1965.48217	1866.3125
1968.56188	1862.1125
1971.63959	1847.5125
1974.7153	1843.0125
1977.78901	1839.6125
1980.86073	1822.2125
1983.93046	1814.2125
1986.99819	1807.6125
1990.06394	1804.1125
1993.1277	1804.1125
1996.18947	1789.3125
1999.24925	1782.3125
2002.30706	1778.9125
2005.36288	1777.2125
2008.41672	1765.9125
2011.46859	1759.6125
2014.51848	1761.1125
2017.56639	1751.0125
2020.61233	1746.6125
2023.6563	1742.0125
2026.6983	1731.6125
2029.73833	1723.7125
2032.7764	1726.6125
2035.8125	1710.8125
2038.84664	1705.2125
2041.87881	1705.1125
2044.90903	1701.6125
2047.93729	1700.4125
2050.96359	1693.7125
2053.98794	1694.2125
2057.01034	1696.6125
2060.03078	1690.6125
2063.04927	1688.7125
2066.06582	1684.1125
2069.08042	1684.0125
2072.09307	1682.1125
2075.10378	1680.2125
2078.11255	1665.2125
2081.11938	1674.9125
2084.12426	1676.9125
2087.12722	1682.1125
2090.12824	1677.9125
2093.12732	1662.6125
2096.12447	1665.4125
2099.11969	1649.8125
2102.11299	1662.7125
2105.10435	1650.4125
2108.09379	1655.3125
2111.08131	1663.7125
2114.0669	1662.0125
2117.05057	1659.4125
2120.03233	1654.2125
2123.01216	1644.2125
2125.99008	1652.8125
2128.96609	1652.4125
2131.94018	1645.1125
2134.91236	1647.1125
2137.88263	1633.7125
2140.851	1646.1125
2143.81746	1642.6125
2146.78201	1636.5125
2149.74466	1641.5125
2152.7054	1633.7125
2155.66425	1634.8125
2158.6212	1638.6125
2161.57625	1627.0125
2164.52941	1624.8125
2167.48067	1626.5125
2170.43004	1618.8125
2173.37752	1611.4125
2176.32311	1616.2125
2179.26681	1607.4125
2182.20863	1612.4125
2185.14856	1610.5125
2188.08661	1597.6125
2191.02278	1601.6125
2193.95707	1595.2125
2196.88948	1605.9125
2199.82001	1589.8125
2202.74867	1583.5125
2205.67545	1584.6125
2208.60037	1589.1125
2211.52341	1575.9125
2214.44458	1569.3125
2217.36388	1575.4125
2220.28132	1560.7125
2223.1969	1548.2125
2226.11061	1557.5125
2229.02246	1541.7125
2231.93245	1541.5125
2234.84058	1548.4125
2237.74686	1537.0125
2240.65128	1529.2125
2243.55385	1529.8125
2246.45456	1524.2125
2249.35343	1516.7125
2252.25044	1520.2125
2255.14561	1517.7125
2258.03893	1510.3125
2260.93041	1500.8125
2263.82004	1496.2125
2266.70783	1502.5125
2269.59378	1500.3125
2272.4779	1490.6125
2275.36017	1487.4125
2278.24061	1480.5125
2281.11922	1468.7125
2283.996	1480.7125
2286.87094	1471.5125
2289.74405	1468.9125
2292.61534	1451.1125
2295.4848	1446.8125
2298.35243	1447.3125
2301.21824	1443.9125
2304.08223	1445.1125
2306.94439	1449.0125
2309.80474	1437.8125
2312.66327	1432.3125
2315.51999	1425.6125
2318.37489	1423.6125
2321.22797	1420.3125
2324.07925	1421.0125
2326.92871	1417.9125
2329.77637	1418.0125
2332.62222	1408.4125
2335.46626	1403.7125
2338.3085	1399.6125
2341.14893	1407.4125
2343.98756	1398.0125
2346.8244	1389.0125
2349.65943	1388.9125
2352.49267	1397.7125
2355.32411	1390.2125
2358.15376	1399.2125
2360.98161	1387.1125
2363.80768	1393.7125
2366.63195	1392.1125
2369.45444	1379.7125
2372.27514	1388.3125
2375.09405	1388.3125
2377.91118	1378.8125
2380.72652	1376.7125
2383.54009	1373.7125
2386.35187	1378.5125
2389.16188	1360.9125
2391.97011	1363.9125
2394.77657	1364.8125
2397.58125	1355.5125
2400.38416	1356.1125
2403.18529	1346.2125
2405.98466	1344.7125
2408.78226	1333.1125
2411.57809	1331.4125
2414.37216	1323.0125
2417.16446	1329.9125
2419.955	1318.0125
2422.74378	1312.2125
2425.5308	1311.9125
2428.31606	1315.1125
2431.09956	1303.5125
2433.88131	1309.5125
2436.6613	1305.5125
2439.43954	1299.1125
2442.21603	1294.1125
2444.99077	1290.6125
2447.76377	1293.4125
2450.53501	1297.1125
2453.30451	1293.6125
2456.07226	1288.2125
2458.83827	1281.8125
2461.60254	1279.7125
2464.36507	1278.1125
2467.12586	1266.8125
2469.88492	1274.2125
2472.64224	1276.4125
2475.39782	1266.2125
2478.15167	1270.2125
2480.90379	1261.0125
2483.65417	1254.7125
2486.40283	1256.3125
2489.14976	1256.5125
2491.89497	1270.5125
2494.63845	1260.7125
2497.3802	1251.8125
2500.12024	1262.6125
2502.85855	1255.9125
2505.59514	1245.7125
2508.33002	1240.7125
2511.06318	1240.1125
2513.79462	1240.6125
2516.52435	1237.0125
2519.25237	1230.9125
2521.97867	1227.6125
2524.70327	1219.7125
2527.42616	1230.5125
2530.14734	1221.0125
2532.86681	1209.5125
2535.58458	1213.5125
2538.30065	1213.8125
2541.01501	1210.1125
2543.72768	1197.2125
2546.43864	1202.7125
2549.14791	1191.0125
2551.85548	1189.1125
2554.56136	1191.0125
2557.26554	1182.5125
2559.96803	1183.5125
2562.66883	1187.4125
2565.36794	1187.6125
2568.06536	1174.9125
2570.7611	1164.8125
2573.45514	1166.6125
2576.14751	1169.1125
2578.83819	1162.1125
2581.52719	1158.1125
2584.21451	1159.4125
2586.90015	1158.0125
2589.58411	1155.3125
2592.2664	1150.3125
2594.94701	1147.4125
2597.62594	1142.9125
2600.30321	1134.4125
2602.9788	1145.7125
2605.65273	1134.1125
2608.32498	1131.0125
2610.99557	1123.4125
2613.66449	1130.4125
2616.33175	1130.1125
2618.99734	1126.4125
2621.66128	1119.3125
2624.32355	1121.1125
2626.98416	1117.5125
2629.64311	1109.9125
2632.30041	1110.8125
2634.95605	1113.4125
2637.61004	1106.8125
2640.26238	1106.7125
2642.91306	1112.6125
2645.56209	1105.9125
2648.20948	1103.1125
2650.85521	1103.0125
2653.4993	1102.2125
2656.14175	1103.4125
2658.78255	1098.6125
2661.42171	1089.1125
2664.05923	1095.2125
2666.6951	1093.0125
2669.32934	1096.9125
2671.96194	1097.6125
2674.59291	1093.3125
2677.22224	1101.9125
2679.84993	1102.8125
2682.476	1096.2125
2685.10043	1098.0125
2687.72324	1098.7125
2690.34441	1101.0125
2692.96396	1093.6125
2695.58188	1108.0125
2698.19818	1102.6125
2700.81285	1106.9125
2703.4259	1100.0125
2706.03733	1093.3125
2708.64714	1097.5125
2711.25533	1097.6125
2713.86191	1103.7125
2716.46687	1109.3125
2719.07021	1099.6125
2721.67194	1112.5125
2724.27206	1103.1125
2726.87057	1114.4125
2729.46747	1106.7125
2732.06276	1103.0125
2734.65644	1107.9125
2737.24852	1106.0125
2739.83899	1105.0125
2742.42786	1101.9125
2745.01513	1098.1125
2747.60079	1101.8125
2750.18486	1101.5125
2752.76733	1099.3125
2755.3482	1099.1125
2757.92747	1086.3125
2760.50515	1096.3125
2763.08123	1086.5125
2765.65573	1088.6125
2768.22863	1093.0125
2770.79994	1088.0125
2773.36967	1093.4125
2775.9378	1083.9125
2778.50435	1079.4125
2781.06932	1078.8125
2783.6327	1077.4125
2786.1945	1086.7125
2788.75471	1088.6125
2791.31335	1087.3125
2793.87041	1081.4125
2796.42589	1078.8125
2798.97979	1077.2125
2801.53212	1073.7125
2804.08288	1073.5125
2806.63206	1071.5125
2809.17967	1069.4125
2811.72571	1068.4125
2814.27018	1069.6125
2816.81308	1068.0125
2819.35442	1064.7125
2821.89419	1067.7125
2824.43239	1072.7125
2826.96904	1067.8125
2829.50412	1070.3125
2832.03763	1067.1125
2834.56959	1069.8125
2837.1	1065.7125
2839.62884	1075.5125
2842.15613	1069.9125
2844.68186	1081.3125
2847.20604	1084.5125
2849.72867	1093.3125
2852.24974	1095.1125
2854.76927	1091.7125
2857.28724	1095.4125
2859.80367	1091.8125
2862.31855	1094.8125
2864.83189	1102.7125
2867.34368	1100.1125
2869.85393	1102.9125
2872.36264	1099.4125
2874.8698	1113.4125
2877.37543	1110.8125
2879.87952	1110.3125
2882.38207	1112.5125
2884.88308	1119.2125
2887.38256	1122.7125
2889.88051	1123.6125
2892.37692	1123.8125
2894.8718	1122.3125
2897.36515	1137.1125
2899.85698	1133.0125
2902.34727	1137.7125
2904.83604	1132.4125
2907.32328	1139.1125
2909.809	1137.7125
2912.29319	1132.1125
2914.77587	1136.4125
2917.25702	1135.2125
2919.73665	1134.7125
2922.21476	1135.2125
2924.69136	1131.8125
2927.16644	1135.4125
2929.64	1141.2125
2932.11205	1137.3125
2934.58258	1125.4125
2937.05161	1121.2125
2939.51912	1113.1125
2941.98513	1108.5125
2944.44962	1107.8125
2946.91261	1102.3125
2949.37409	1108.2125
2951.83407	1088.1125
2954.29254	1081.5125
2956.74951	1079.3125
2959.20498	1074.3125
2961.65895	1063.0125
2964.11142	1066.5125
2966.56239	1066.6125
2969.01186	1057.0125
2971.45984	1050.7125
2973.90632	1050.4125
2976.35131	1031.8125
2978.7948	1029.5125
2981.23681	1032.7125
2983.67732	1026.2125
2986.11635	1028.5125
2988.55388	1015.8125
2990.98993	1018.2125
2993.4245	1017.6125
2995.85758	1017.7125
2998.28917	1018.5125
3000.71928	1009.0125
3003.14791	1006.1125
3005.57506	1017.3125
3008.00073	1012.4125
3010.42493	1011.9125
3012.84764	1019.5125
3015.26888	1018.1125
3017.68865	1015.0125
3020.10694	1011.6125
3022.52376	1015.5125
3024.9391	1018.3125
3027.35298	1019.9125
3029.76539	1019.8125
3032.17632	1014.2125
3034.5858	1018.6125
3036.9938	1024.6125
3039.40034	1021.3125
3041.80542	1016.9125
3044.20903	1016.9125
3046.61118	1020.7125
3049.01187	1017.8125
3051.4111	1025.6125
3053.80888	1022.6125
3056.20519	1031.5125
3058.60005	1024.2125
3060.99345	1034.8125
3063.3854	1030.1125
3065.7759	1027.5125
3068.16494	1036.2125
3070.55254	1042.0125
3072.93868	1031.1125
3075.32338	1045.8125
3077.70662	1039.0125
3080.08842	1049.1125
3082.46878	1052.6125
3084.84769	1043.2125
3087.22515	1063.5125
3089.60118	1060.1125
3091.97576	1062.0125
3094.3489	1069.0125
3096.72061	1070.0125
3099.09087	1074.2125
3101.4597	1087.3125
3103.82709	1087.9125
3106.19305	1090.5125
3108.55757	1101.2125
3110.92066	1098.9125
3113.28232	1095.9125
3115.64255	1104.0125
3118.00134	1103.3125
3120.35871	1111.9125
3122.71466	1111.3125
3125.06917	1112.9125
3127.42226	1113.8125
