Data from AgNPs_FTO_APTES_UA_0.1mM_CRN_10uM_NaF_0.1M_Addition_RamanShift__7__11-26-37-541.txt Node

Date: Mon Dec 20 11:26:37 GMT 2021
User: TCL
Spectrometer: QEP01345
Trigger mode: 4
Integration Time (sec): 7.000000E0
Scans to average: 10
Electric dark correction enabled: true
Nonlinearity correction enabled: false
Boxcar width: 0
XAxis mode: Raman Shifts
Number of Pixels in Spectrum: 1044
>>>>>Begin Spectral Data<<<<<
46.04893	0.325
50.45542	0.325
54.85868	-0.775
59.25871	0.825
63.6555	26.825
68.04907	27.225
72.43941	28.425
76.82654	34.725
81.21044	32.725
85.59113	39.925
89.96862	37.125
94.34289	40.125
98.71396	42.125
103.08183	41.625
107.4465	42.725
111.80798	46.825
116.16626	46.325
120.52136	48.125
124.87327	48.125
129.222	45.025
133.56755	48.025
137.90993	51.225
142.24913	55.925
146.58517	57.025
150.91804	68.225
155.24774	73.725
159.57429	90.425
163.89768	112.625
168.21792	143.925
172.53501	188.025
176.84895	255.725
181.15975	352.525
185.46741	476.525
189.77193	657.025
194.07331	868.125
198.37157	1124.325
202.6667	1391.925
206.9587	1664.325
211.24758	1934.825
215.53334	2206.225
219.81599	2505.125
224.09553	2822.525
228.37195	3187.025
232.64527	3578.925
236.91549	3989.725
241.18261	4386.925
245.44663	4747.925
249.70755	5048.125
253.96539	5284.825
258.22014	5444.725
262.4718	5556.325
266.72039	5596.625
270.96589	5584.525
275.20832	5541.225
279.44768	5443.625
283.68397	5353.225
287.91719	5285.125
292.14735	5205.625
296.37445	5143.925
300.59849	5137.725
304.81948	5120.125
309.03742	5122.125
313.25231	5060.325
317.46415	4992.625
321.67296	4894.925
325.87872	4811.425
330.08145	4753.525
334.28114	4728.325
338.47781	4756.525
342.67145	4763.025
346.86207	4816.525
351.04966	4862.325
355.23424	4920.925
359.4158	5000.525
363.59435	5049.225
367.76989	5102.325
371.94243	5125.925
376.11196	5182.425
380.27849	5222.025
384.44203	5271.825
388.60257	5332.425
392.76012	5365.025
396.91468	5445.325
401.06626	5493.825
405.21485	5527.225
409.36047	5504.425
413.50311	5477.925
417.64277	5446.925
421.77947	5463.025
425.9132	5455.625
430.04396	5473.425
434.17176	5497.625
438.2966	5518.325
442.41849	5555.025
446.53742	5594.525
450.6534	5691.725
454.76644	5740.125
458.87653	5777.025
462.98368	5772.925
467.08789	5765.325
471.18916	5759.425
475.2875	5780.025
479.38291	5797.625
483.4754	5852.925
487.56496	5935.525
491.6516	6031.425
495.73531	6108.725
499.81612	6156.025
503.89401	6138.125
507.96899	6094.125
512.04106	6017.225
516.11023	5955.825
520.1765	5913.425
524.23987	5893.425
528.30034	5869.925
532.35792	5868.825
536.41261	5838.125
540.46441	5793.325
544.51333	5724.225
548.55936	5701.825
552.60252	5695.825
556.64279	5733.525
560.6802	5766.025
564.71473	5762.125
568.7464	5797.925
572.7752	5866.125
576.80114	5961.225
580.82422	6067.125
584.84444	6198.925
588.86181	6360.025
592.87633	6470.325
596.888	6449.725
600.89682	6359.425
604.9028	6309.325
608.90594	6554.725
612.90624	6932.925
616.90371	6850.725
620.89834	6380.025
624.89015	6341.125
628.87913	6641.625
632.86528	7074.425
636.84862	7390.425
640.82913	7428.925
644.80683	7188.725
648.78172	6856.425
652.75379	6545.725
656.72306	6332.325
660.68952	6184.525
664.65319	6038.725
668.61405	5909.025
672.57211	5852.525
676.52738	5876.725
680.47986	5892.525
684.42955	5902.525
688.37646	5876.525
692.32058	5837.925
696.26192	5778.625
700.20048	5740.025
704.13626	5726.225
708.06928	5699.025
711.99952	5676.725
715.927	5679.525
719.85171	5704.125
723.77365	5760.125
727.69284	5773.025
731.60928	5730.725
735.52295	5663.125
739.43388	5611.325
743.34206	5592.325
747.24749	5619.025
751.15017	5634.225
755.05012	5667.625
758.94733	5765.725
762.8418	5912.525
766.73354	6120.625
770.62254	6352.725
774.50882	6402.725
778.39237	6243.025
782.27321	5923.125
786.15132	5706.825
790.02671	5568.925
793.89938	5533.925
797.76935	5536.125
801.6366	5587.025
805.50115	5697.825
809.36299	5891.925
813.22213	5980.825
817.07857	5952.425
820.93231	5823.025
824.78336	5651.525
828.63172	5460.525
832.47738	5393.625
836.32036	5342.425
840.16066	5331.725
843.99827	5311.125
847.8332	5293.225
851.66546	5293.925
855.49504	5300.225
859.32195	5309.025
863.1462	5331.425
866.96777	5355.625
870.78668	5400.225
874.60293	5491.025
878.41652	5594.525
882.22745	5714.425
886.03573	5798.525
889.84136	5847.125
893.64433	5768.225
897.44466	5681.825
901.24235	5513.425
905.0374	5369.825
908.8298	5286.725
912.61957	5241.325
916.40671	5231.125
920.19121	5239.425
923.97308	5233.725
927.75233	5236.725
931.52895	5175.125
935.30295	5143.025
939.07433	5082.525
942.84309	5043.425
946.60924	5004.925
950.37278	5004.725
954.13371	5002.225
957.89203	4978.225
961.64774	4961.825
965.40086	4943.825
969.15137	4955.125
972.89929	4941.625
976.64461	4907.125
980.38733	4912.925
984.12747	4915.125
987.86502	4890.725
991.59999	4929.625
995.33237	4958.625
999.06217	5006.525
1002.78939	5067.825
1006.51404	5155.325
1010.23611	5245.825
1013.95561	5280.925
1017.67255	5313.825
1021.38692	5312.825
1025.09872	5257.425
1028.80796	5200.925
1032.51465	5133.225
1036.21877	5088.425
1039.92035	5054.125
1043.61937	5058.625
1047.31584	5041.325
1051.00976	5045.325
1054.70114	5069.425
1058.38998	5067.525
1062.07627	5118.025
1065.76003	5187.225
1069.44126	5244.325
1073.11995	5320.925
1076.79611	5357.025
1080.46974	5380.825
1084.14085	5368.425
1087.80943	5340.225
1091.47549	5338.425
1095.13903	5307.225
1098.80005	5242.725
1102.45857	5171.525
1106.11456	5155.025
1109.76805	5170.025
1113.41903	5276.425
1117.06751	5448.825
1120.71348	5751.025
1124.35696	6120.125
1127.99793	6549.725
1131.63641	6902.925
1135.2724	7054.525
1138.90589	6997.325
1142.5369	6777.425
1146.16542	6511.425
1149.79145	6179.625
1153.415	5898.025
1157.03607	5660.425
1160.65467	5545.425
1164.27079	5524.325
1167.88443	5575.925
1171.49561	5698.525
1175.10432	5897.225
1178.71056	6169.825
1182.31434	6406.425
1185.91565	6547.025
1189.51451	6591.425
1193.11091	6571.525
1196.70485	6563.825
1200.29634	6542.825
1203.88538	6537.725
1207.47197	6522.025
1211.05612	6403.925
1214.63782	6263.025
1218.21708	6111.425
1221.79391	5921.925
1225.36829	5787.125
1228.94024	5690.525
1232.50976	5625.825
1236.07685	5560.025
1239.6415	5530.525
1243.20374	5530.225
1246.76355	5563.825
1250.32093	5620.625
1253.8759	5682.725
1257.42845	5768.225
1260.97859	5882.825
1264.52631	5975.425
1268.07163	6017.625
1271.61453	6084.225
1275.15503	6115.225
1278.69312	6190.525
1282.22882	6219.425
1285.76211	6341.525
1289.29301	6441.725
1292.82151	6593.125
1296.34761	6791.225
1299.87133	7010.625
1303.39266	7243.125
1306.9116	7492.925
1310.42815	7730.825
1313.94233	7883.625
1317.45412	7898.725
1320.96354	7796.825
1324.47058	7707.125
1327.97525	7619.925
1331.47754	7564.025
1334.97747	7529.025
1338.47502	7494.525
1341.97022	7510.625
1345.46305	7549.525
1348.95352	7654.525
1352.44163	7828.425
1355.92738	8028.325
1359.41078	8362.725
1362.89183	8704.425
1366.37053	8713.425
1369.84688	8292.425
1373.32088	7670.825
1376.79254	7250.525
1380.26186	7019.225
1383.72883	6932.825
1387.19347	6830.725
1390.65578	6723.125
1394.11575	6612.425
1397.57339	6532.925
1401.0287	6489.325
1404.48168	6405.025
1407.93234	6318.325
1411.38068	6171.525
1414.82669	5977.625
1418.27039	5800.125
1421.71177	5627.025
1425.15083	5494.425
1428.58758	5383.825
1432.02203	5394.725
1435.45416	5431.725
1438.88399	5478.625
1442.31151	5522.325
1445.73673	5561.125
1449.15965	5590.425
1452.58027	5598.625
1455.9986	5607.825
1459.41463	5638.425
1462.82837	5666.225
1466.23982	5756.825
1469.64898	5840.325
1473.05586	5864.025
1476.46045	5898.425
1479.86276	5896.825
1483.26279	5905.225
1486.66054	5936.325
1490.05602	6010.325
1493.44922	6115.725
1496.84016	6250.425
1500.22882	6439.025
1503.61521	6688.425
1506.99934	6981.925
1510.38121	7191.725
1513.76081	7231.525
1517.13816	7088.325
1520.51324	6822.125
1523.88607	6602.225
1527.25665	6491.225
1530.62498	6429.225
1533.99105	6418.925
1537.35488	6399.425
1540.71647	6359.225
1544.07581	6321.025
1547.4329	6271.425
1550.78776	6221.725
1554.14038	6193.525
1557.49077	6188.925
1560.83892	6215.925
1564.18484	6236.025
1567.52853	6249.725
1570.86999	6288.525
1574.20922	6335.525
1577.54624	6372.225
1580.88103	6314.525
1584.2136	6239.325
1587.54395	6242.225
1590.87208	6305.025
1594.19801	6419.425
1597.52172	6594.525
1600.84321	6661.425
1604.16251	6535.525
1607.47959	6332.425
1610.79447	6099.225
1614.10715	5863.025
1617.41763	5726.125
1620.7259	5598.025
1624.03199	5555.225
1627.33587	5595.425
1630.63757	5676.525
1633.93707	5845.225
1637.23439	6131.725
1640.52951	6564.325
1643.82246	7060.825
1647.11321	7533.225
1650.40179	7744.125
1653.68819	7555.625
1656.97241	7066.925
1660.25446	6524.425
1663.53433	6135.325
1666.81203	5860.525
1670.08756	5686.125
1673.36092	5560.925
1676.63211	5483.625
1679.90115	5437.125
1683.16801	5372.625
1686.43272	5301.825
1689.69527	5217.325
1692.95567	5137.425
1696.2139	5040.925
1699.46999	4964.225
1702.72392	4880.225
1705.97571	4779.825
1709.22535	4663.425
1712.47284	4565.225
1715.71819	4433.325
1718.96139	4325.325
1722.20246	4233.925
1725.44139	4154.825
1728.67818	4078.925
1731.91284	4004.425
1735.14537	3968.625
1738.37576	3943.825
1741.60403	3894.525
1744.83017	3869.325
1748.05418	3839.125
1751.27607	3821.725
1754.49584	3804.725
1757.71349	3805.225
1760.92903	3791.925
1764.14244	3787.725
1767.35375	3783.325
1770.56294	3768.825
1773.77002	3750.225
1776.97499	3746.925
1780.17785	3712.525
1783.37861	3715.525
1786.57727	3704.825
1789.77382	3690.125
1792.96828	3683.925
1796.16064	3654.625
1799.3509	3651.525
1802.53907	3625.625
1805.72514	3617.425
1808.90913	3617.425
1812.09102	3603.825
1815.27083	3601.425
1818.44856	3579.225
1821.6242	3572.025
1824.79776	3567.225
1827.96924	3564.725
1831.13864	3561.425
1834.30597	3549.725
1837.47122	3544.925
1840.6344	3535.625
1843.7955	3533.425
1846.95454	3542.025
1850.11151	3532.325
1853.26642	3533.625
1856.41926	3522.825
1859.57004	3517.525
1862.71876	3518.225
1865.86542	3499.725
1869.01003	3487.325
1872.15258	3491.925
1875.29308	3488.625
1878.43152	3484.125
1881.56792	3479.125
1884.70227	3463.525
1887.83457	3467.225
1890.96482	3464.325
1894.09304	3448.525
1897.21921	3433.625
1900.34335	3427.425
1903.46544	3419.025
1906.58551	3419.625
1909.70353	3406.825
1912.81953	3421.125
1915.93349	3402.425
1919.04543	3401.525
1922.15534	3371.325
1925.26322	3375.825
1928.36908	3353.525
1931.47292	3365.025
1934.57473	3349.425
1937.67453	3336.725
1940.77232	3319.625
1943.86808	3316.825
1946.96184	3307.725
1950.05358	3286.425
1953.14331	3276.825
1956.23103	3284.325
1959.31675	3266.025
1962.40046	3271.125
1965.48217	3247.625
1968.56188	3238.525
1971.63959	3231.625
1974.7153	3212.325
1977.78901	3209.925
1980.86073	3201.525
1983.93046	3189.525
1986.99819	3169.525
1990.06394	3168.225
1993.1277	3155.825
1996.18947	3145.725
1999.24925	3142.125
2002.30706	3133.225
2005.36288	3110.825
2008.41672	3104.125
2011.46859	3101.325
2014.51848	3079.825
2017.56639	3069.725
2020.61233	3062.725
2023.6563	3042.525
2026.6983	3041.025
2029.73833	3029.825
2032.7764	3015.625
2035.8125	3019.425
2038.84664	3018.725
2041.87881	3020.425
2044.90903	3005.125
2047.93729	2999.625
2050.96359	2985.125
2053.98794	2989.425
2057.01034	2989.025
2060.03078	2984.025
2063.04927	2964.825
2066.06582	2977.825
2069.08042	2977.425
2072.09307	2952.725
2075.10378	2965.525
2078.11255	2954.825
2081.11938	2960.125
2084.12426	2961.525
2087.12722	2952.425
2090.12824	2947.125
2093.12732	2953.525
2096.12447	2960.825
2099.11969	2942.525
2102.11299	2952.625
2105.10435	2943.925
2108.09379	2943.225
2111.08131	2951.325
2114.0669	2959.225
2117.05057	2948.225
2120.03233	2955.325
2123.01216	2948.625
2125.99008	2958.125
2128.96609	2952.625
2131.94018	2944.825
2134.91236	2952.025
2137.88263	2944.425
2140.851	2947.425
2143.81746	2955.325
2146.78201	2944.725
2149.74466	2944.725
2152.7054	2955.625
2155.66425	2954.025
2158.6212	2933.825
2161.57625	2940.125
2164.52941	2940.625
2167.48067	2930.925
2170.43004	2934.625
2173.37752	2915.525
2176.32311	2914.625
2179.26681	2924.625
2182.20863	2921.625
2185.14856	2922.225
2188.08661	2919.625
2191.02278	2925.525
2193.95707	2908.425
2196.88948	2907.125
2199.82001	2891.925
2202.74867	2883.325
2205.67545	2889.025
2208.60037	2878.825
2211.52341	2876.925
2214.44458	2866.425
2217.36388	2846.025
2220.28132	2848.025
2223.1969	2833.925
2226.11061	2839.925
2229.02246	2830.625
2231.93245	2828.125
2234.84058	2823.725
2237.74686	2818.625
2240.65128	2802.125
2243.55385	2809.325
2246.45456	2799.825
2249.35343	2802.225
2252.25044	2793.725
2255.14561	2782.225
2258.03893	2782.025
2260.93041	2770.325
2263.82004	2768.125
2266.70783	2768.925
2269.59378	2757.725
2272.4779	2744.525
2275.36017	2728.425
2278.24061	2734.125
2281.11922	2723.725
2283.996	2721.925
2286.87094	2723.725
2289.74405	2708.425
2292.61534	2689.825
2295.4848	2698.925
2298.35243	2678.025
2301.21824	2693.625
2304.08223	2693.025
2306.94439	2686.925
2309.80474	2683.025
2312.66327	2675.425
2315.51999	2665.025
2318.37489	2668.525
2321.22797	2651.725
2324.07925	2654.525
2326.92871	2645.925
2329.77637	2651.025
2332.62222	2631.825
2335.46626	2634.425
2338.3085	2628.325
2341.14893	2629.125
2343.98756	2618.125
2346.8244	2623.525
2349.65943	2612.925
2352.49267	2610.825
2355.32411	2603.025
2358.15376	2603.325
2360.98161	2597.325
2363.80768	2613.025
2366.63195	2596.825
2369.45444	2592.825
2372.27514	2581.925
2375.09405	2592.125
2377.91118	2590.125
2380.72652	2590.025
2383.54009	2563.225
2386.35187	2562.425
2389.16188	2563.125
2391.97011	2553.825
2394.77657	2548.125
2397.58125	2534.925
2400.38416	2540.425
2403.18529	2525.025
2405.98466	2535.125
2408.78226	2528.625
2411.57809	2512.125
2414.37216	2505.925
2417.16446	2511.225
2419.955	2503.925
2422.74378	2490.925
2425.5308	2493.525
2428.31606	2493.625
2431.09956	2485.225
2433.88131	2490.225
2436.6613	2484.525
2439.43954	2479.825
2442.21603	2468.425
2444.99077	2468.725
2447.76377	2466.825
2450.53501	2469.925
2453.30451	2477.025
2456.07226	2456.125
2458.83827	2447.925
2461.60254	2446.425
2464.36507	2445.925
2467.12586	2432.625
2469.88492	2449.225
2472.64224	2443.025
2475.39782	2443.425
2478.15167	2433.725
2480.90379	2421.825
2483.65417	2424.825
2486.40283	2426.625
2489.14976	2430.925
2491.89497	2427.225
2494.63845	2420.825
2497.3802	2412.425
2500.12024	2410.025
2502.85855	2417.725
2505.59514	2396.425
2508.33002	2420.325
2511.06318	2406.625
2513.79462	2395.525
2516.52435	2396.525
2519.25237	2388.025
2521.97867	2389.825
2524.70327	2381.425
2527.42616	2383.125
2530.14734	2375.925
2532.86681	2365.525
2535.58458	2357.425
2538.30065	2352.625
2541.01501	2351.225
2543.72768	2343.325
2546.43864	2345.325
2549.14791	2333.525
2551.85548	2331.525
2554.56136	2327.325
2557.26554	2323.025
2559.96803	2321.325
2562.66883	2322.425
2565.36794	2311.725
2568.06536	2314.225
2570.7611	2315.125
2573.45514	2301.425
2576.14751	2297.125
2578.83819	2292.725
2581.52719	2279.525
2584.21451	2283.525
2586.90015	2276.425
2589.58411	2281.525
2592.2664	2278.125
2594.94701	2267.425
2597.62594	2262.825
2600.30321	2249.425
2602.9788	2254.125
2605.65273	2249.325
2608.32498	2248.325
2610.99557	2235.525
2613.66449	2239.225
2616.33175	2235.025
2618.99734	2228.625
2621.66128	2227.125
2624.32355	2224.625
2626.98416	2218.725
2629.64311	2212.925
2632.30041	2215.725
2634.95605	2225.325
2637.61004	2203.025
2640.26238	2201.025
2642.91306	2213.925
2645.56209	2197.225
2648.20948	2200.225
2650.85521	2200.025
2653.4993	2205.625
2656.14175	2189.325
2658.78255	2183.225
2661.42171	2187.625
2664.05923	2193.125
2666.6951	2190.225
2669.32934	2189.525
2671.96194	2184.725
2674.59291	2195.425
2677.22224	2193.625
2679.84993	2188.025
2682.476	2179.825
2685.10043	2185.325
2687.72324	2187.025
2690.34441	2188.125
2692.96396	2185.525
2695.58188	2176.225
2698.19818	2188.625
2700.81285	2194.125
2703.4259	2191.625
2706.03733	2208.325
2708.64714	2209.125
2711.25533	2184.525
2713.86191	2191.225
2716.46687	2189.125
2719.07021	2183.725
2721.67194	2188.925
2724.27206	2181.425
2726.87057	2193.825
2729.46747	2180.425
2732.06276	2178.625
2734.65644	2176.225
2737.24852	2176.725
2739.83899	2175.125
2742.42786	2178.625
2745.01513	2178.825
2747.60079	2167.225
2750.18486	2168.525
2752.76733	2162.425
2755.3482	2154.925
2757.92747	2155.225
2760.50515	2152.125
2763.08123	2138.925
2765.65573	2147.225
2768.22863	2148.225
2770.79994	2142.125
2773.36967	2146.325
2775.9378	2132.825
2778.50435	2133.325
2781.06932	2116.225
2783.6327	2117.325
2786.1945	2120.225
2788.75471	2118.225
2791.31335	2114.325
2793.87041	2114.625
2796.42589	2082.325
2798.97979	2098.625
2801.53212	2089.125
2804.08288	2092.525
2806.63206	2089.325
2809.17967	2082.325
2811.72571	2070.525
2814.27018	2075.525
2816.81308	2073.625
2819.35442	2065.225
2821.89419	2065.625
2824.43239	2057.125
2826.96904	2059.125
2829.50412	2059.625
2832.03763	2060.025
2834.56959	2057.425
2837.1	2046.825
2839.62884	2053.325
2842.15613	2043.125
2844.68186	2043.625
2847.20604	2058.525
2849.72867	2047.325
2852.24974	2058.625
2854.76927	2060.625
2857.28724	2053.325
2859.80367	2046.025
2862.31855	2055.325
2864.83189	2056.625
2867.34368	2048.225
2869.85393	2046.825
2872.36264	2053.725
2874.8698	2054.825
2877.37543	2056.225
2879.87952	2060.625
2882.38207	2053.325
2884.88308	2057.325
2887.38256	2061.725
2889.88051	2058.425
2892.37692	2062.825
2894.8718	2053.825
2897.36515	2060.925
2899.85698	2062.925
2902.34727	2067.825
2904.83604	2060.625
2907.32328	2066.925
2909.809	2059.625
2912.29319	2061.325
2914.77587	2049.625
2917.25702	2067.425
2919.73665	2059.325
2922.21476	2061.325
2924.69136	2063.025
2927.16644	2069.825
2929.64	2054.225
2932.11205	2063.525
2934.58258	2061.925
2937.05161	2062.325
2939.51912	2066.125
2941.98513	2059.225
2944.44962	2061.225
2946.91261	2042.925
2949.37409	2042.725
2951.83407	2051.325
2954.29254	2042.125
2956.74951	2038.125
2959.20498	2027.725
2961.65895	2024.025
2964.11142	2027.225
2966.56239	2015.525
2969.01186	2023.725
2971.45984	2012.025
2973.90632	2011.425
2976.35131	2010.025
2978.7948	2010.325
2981.23681	1992.825
2983.67732	1995.925
2986.11635	1992.425
2988.55388	1991.625
2990.98993	1991.225
2993.4245	1985.425
2995.85758	1975.625
2998.28917	1972.025
3000.71928	1976.025
3003.14791	1981.525
3005.57506	1970.625
3008.00073	1977.625
3010.42493	1972.925
3012.84764	1963.325
3015.26888	1974.225
3017.68865	1977.125
3020.10694	1971.625
3022.52376	1965.125
3024.9391	1964.725
3027.35298	1966.325
3029.76539	1956.625
3032.17632	1949.025
3034.5858	1954.925
3036.9938	1965.125
3039.40034	1954.225
3041.80542	1955.625
3044.20903	1953.025
3046.61118	1964.725
3049.01187	1953.625
3051.4111	1959.125
3053.80888	1962.425
3056.20519	1954.825
3058.60005	1955.225
3060.99345	1957.025
3063.3854	1959.325
3065.7759	1956.525
3068.16494	1952.125
3070.55254	1955.725
3072.93868	1944.725
3075.32338	1963.425
3077.70662	1959.925
3080.08842	1963.425
3082.46878	1962.725
3084.84769	1958.925
3087.22515	1975.525
3089.60118	1963.625
3091.97576	1968.125
3094.3489	1972.825
3096.72061	1989.025
3099.09087	1974.425
3101.4597	1989.125
3103.82709	1992.125
3106.19305	1993.125
3108.55757	2002.725
3110.92066	1994.225
3113.28232	1988.625
3115.64255	1995.525
3118.00134	2003.625
3120.35871	2001.025
3122.71466	2007.125
3125.06917	2007.525
3127.42226	2001.225
3129.77393	2018.125
3132.12417	2018.625
3134.47299	2025.425
3136.82039	2026.625
3139.16636	2026.425
3141.51092	2039.425
3143.85406	2036.125
3146.19579	2043.825
3148.53609	2062.825
3150.87499	2057.525
3153.21246	2063.825
3155.54853	2074.325
3157.88318	2081.925
3160.21642	2080.125
3162.54826	2099.725
3164.87868	2091.025
3167.2077	2100.525
3169.5353	2112.525
3171.86151	2105.325
3174.18631	2110.925
3176.5097	2110.025
3178.83169	2115.025
3181.15228	2120.325
3183.47147	2118.425
3185.78926	2125.525
3188.10565	2127.625
3190.42065	2133.925
3192.73424	2137.425
3195.04645	2138.125
3197.35725	2141.725
3199.66667	2155.225
3201.97469	2160.725
3204.28132	2174.325
3206.58656	2169.725
3208.8904	2175.325
3211.19287	2173.925
3213.49394	2180.325
3215.79363	2173.725
3218.09193	2185.425
3220.38884	2186.825
3222.68438	2183.825
3224.97853	2175.925
3227.2713	2181.025
3229.56269	2181.025
3231.8527	2186.025
3234.14133	2174.325
3236.42858	2176.325
