Data from AgNPs_FTO_APTES_UA_0.1mM_CRN_200uM_NaF_0.1M_Addition_RamanShift__3__13-58-17-713.txt Node

Date: Mon Dec 20 13:58:17 GMT 2021
User: TCL
Spectrometer: QEP01345
Trigger mode: 4
Integration Time (sec): 7.000000E0
Scans to average: 10
Electric dark correction enabled: true
Nonlinearity correction enabled: false
Boxcar width: 0
XAxis mode: Raman Shifts
Number of Pixels in Spectrum: 1044
>>>>>Begin Spectral Data<<<<<
46.04893	1.15
50.45542	-0.25
54.85868	-1.95
59.25871	-0.05
63.6555	27.55
68.04907	29.05
72.43941	31.65
76.82654	32.35
81.21044	32.95
85.59113	37.55
89.96862	35.15
94.34289	38.15
98.71396	39.65
103.08183	37.95
107.4465	43.25
111.80798	46.05
116.16626	44.15
120.52136	45.05
124.87327	45.35
129.222	44.95
133.56755	49.75
137.90993	54.65
142.24913	53.05
146.58517	58.95
150.91804	64.75
155.24774	74.65
159.57429	91.65
163.89768	112.25
168.21792	144.65
172.53501	184.95
176.84895	251.75
181.15975	348.95
185.46741	476.25
189.77193	662.95
194.07331	876.45
198.37157	1142.55
202.6667	1416.95
206.9587	1692.25
211.24758	1965.95
215.53334	2244.95
219.81599	2538.55
224.09553	2845.45
228.37195	3208.25
232.64527	3599.75
236.91549	4006.45
241.18261	4369.05
245.44663	4721.25
249.70755	5018.25
253.96539	5223.25
258.22014	5390.85
262.4718	5489.85
266.72039	5552.45
270.96589	5546.55
275.20832	5492.45
279.44768	5423.45
283.68397	5337.55
287.91719	5268.65
292.14735	5185.95
296.37445	5161.95
300.59849	5142.35
304.81948	5104.05
309.03742	5076.25
313.25231	5029.85
317.46415	4951.25
321.67296	4882.55
325.87872	4813.55
330.08145	4788.15
334.28114	4763.75
338.47781	4777.45
342.67145	4797.05
346.86207	4843.05
351.04966	4900.95
355.23424	4956.05
359.4158	5018.75
363.59435	5071.65
367.76989	5122.35
371.94243	5183.95
376.11196	5225.75
380.27849	5296.15
384.44203	5342.15
388.60257	5403.95
392.76012	5446.05
396.91468	5499.25
401.06626	5555.55
405.21485	5592.95
409.36047	5595.55
413.50311	5571.85
417.64277	5527.55
421.77947	5531.75
425.9132	5508.35
430.04396	5532.75
434.17176	5564.85
438.2966	5583.95
442.41849	5613.65
446.53742	5678.15
450.6534	5730.55
454.76644	5778.15
458.87653	5826.25
462.98368	5843.65
467.08789	5845.95
471.18916	5854.95
475.2875	5885.25
479.38291	5927.35
483.4754	6026.65
487.56496	6151.05
491.6516	6304.35
495.73531	6427.65
499.81612	6434.35
503.89401	6360.95
507.96899	6253.55
512.04106	6177.65
516.11023	6130.25
520.1765	6129.75
524.23987	6166.05
528.30034	6209.95
532.35792	6225.35
536.41261	6206.85
540.46441	6130.75
544.51333	6043.15
548.55936	5975.65
552.60252	5919.55
556.64279	5909.85
560.6802	5917.85
564.71473	5915.05
568.7464	5931.75
572.7752	5996.85
576.80114	6057.25
580.82422	6113.05
584.84444	6229.95
588.86181	6369.95
592.87633	6469.85
596.888	6454.25
600.89682	6376.65
604.9028	6432.15
608.90594	6654.75
612.90624	6984.75
616.90371	7042.75
620.89834	6843.55
624.89015	7038.35
628.87913	7552.35
632.86528	8141.05
636.84862	8545.25
640.82913	8555.05
644.80683	8192.75
648.78172	7660.75
652.75379	7212.05
656.72306	6840.15
660.68952	6662.25
664.65319	6487.55
668.61405	6374.95
672.57211	6335.75
676.52738	6365.65
680.47986	6406.55
684.42955	6417.55
688.37646	6357.55
692.32058	6305.15
696.26192	6209.15
700.20048	6146.85
704.13626	6120.65
708.06928	6100.95
711.99952	6061.75
715.927	6067.55
719.85171	6136.05
723.77365	6206.75
727.69284	6254.35
731.60928	6222.85
735.52295	6114.45
739.43388	6026.95
743.34206	6011.35
747.24749	6018.05
751.15017	6013.35
755.05012	6041.75
758.94733	6084.95
762.8418	6199.65
766.73354	6334.35
770.62254	6492.25
774.50882	6535.05
778.39237	6410.35
782.27321	6221.35
786.15132	6071.15
790.02671	5977.25
793.89938	5958.45
797.76935	5965.65
801.6366	6046.65
805.50115	6232.25
809.36299	6459.25
813.22213	6619.65
817.07857	6602.25
820.93231	6426.75
824.78336	6167.85
828.63172	5947.45
832.47738	5832.55
836.32036	5780.35
840.16066	5727.15
843.99827	5766.15
847.8332	5740.55
851.66546	5722.95
855.49504	5715.15
859.32195	5714.45
863.1462	5784.35
866.96777	5822.55
870.78668	5913.65
874.60293	6052.05
878.41652	6205.65
882.22745	6375.45
886.03573	6512.75
889.84136	6553.85
893.64433	6495.25
897.44466	6296.85
901.24235	6056.85
905.0374	5845.25
908.8298	5700.15
912.61957	5636.05
916.40671	5595.85
920.19121	5585.55
923.97308	5578.15
927.75233	5562.25
931.52895	5547.85
935.30295	5521.65
939.07433	5511.05
942.84309	5457.55
946.60924	5443.95
950.37278	5435.15
954.13371	5427.15
957.89203	5438.35
961.64774	5409.15
965.40086	5389.65
969.15137	5369.15
972.89929	5344.95
976.64461	5339.25
980.38733	5312.65
984.12747	5319.75
987.86502	5342.55
991.59999	5375.05
995.33237	5431.05
999.06217	5470.75
1002.78939	5568.15
1006.51404	5634.75
1010.23611	5728.75
1013.95561	5795.75
1017.67255	5842.55
1021.38692	5836.95
1025.09872	5786.75
1028.80796	5724.45
1032.51465	5679.65
1036.21877	5612.85
1039.92035	5564.95
1043.61937	5523.25
1047.31584	5491.75
1051.00976	5488.65
1054.70114	5509.75
1058.38998	5534.65
1062.07627	5608.75
1065.76003	5687.55
1069.44126	5750.45
1073.11995	5859.85
1076.79611	5907.05
1080.46974	5869.95
1084.14085	5807.15
1087.80943	5715.65
1091.47549	5678.35
1095.13903	5600.65
1098.80005	5586.45
1102.45857	5526.35
1106.11456	5524.15
1109.76805	5563.05
1113.41903	5707.15
1117.06751	5917.05
1120.71348	6236.15
1124.35696	6751.05
1127.99793	7283.15
1131.63641	7788.35
1135.2724	8031.45
1138.90589	7978.45
1142.5369	7702.65
1146.16542	7261.75
1149.79145	6796.05
1153.415	6372.25
1157.03607	6053.95
1160.65467	5857.65
1164.27079	5782.95
1167.88443	5779.45
1171.49561	5832.25
1175.10432	5958.55
1178.71056	6152.05
1182.31434	6329.25
1185.91565	6479.95
1189.51451	6552.75
1193.11091	6615.15
1196.70485	6685.95
1200.29634	6783.95
1203.88538	6839.15
1207.47197	6824.65
1211.05612	6718.55
1214.63782	6537.75
1218.21708	6359.45
1221.79391	6161.45
1225.36829	6006.45
1228.94024	5896.25
1232.50976	5829.95
1236.07685	5786.65
1239.6415	5767.85
1243.20374	5787.35
1246.76355	5830.45
1250.32093	5899.65
1253.8759	5961.85
1257.42845	6024.15
1260.97859	6070.85
1264.52631	6148.45
1268.07163	6172.15
1271.61453	6193.05
1275.15503	6210.25
1278.69312	6211.75
1282.22882	6186.85
1285.76211	6211.15
1289.29301	6234.95
1292.82151	6301.75
1296.34761	6395.55
1299.87133	6510.65
1303.39266	6667.15
1306.9116	6845.75
1310.42815	7028.75
1313.94233	7190.75
1317.45412	7212.75
1320.96354	7191.65
1324.47058	7149.85
1327.97525	7113.55
1331.47754	7098.85
1334.97747	7097.05
1338.47502	7143.75
1341.97022	7242.45
1345.46305	7327.25
1348.95352	7438.05
1352.44163	7596.15
1355.92738	7782.15
1359.41078	8038.45
1362.89183	8285.75
1366.37053	8301.95
1369.84688	7999.75
1373.32088	7589.55
1376.79254	7278.85
1380.26186	7077.55
1383.72883	6923.35
1387.19347	6783.65
1390.65578	6663.05
1394.11575	6536.35
1397.57339	6439.35
1401.0287	6337.15
1404.48168	6295.05
1407.93234	6162.25
1411.38068	6042.75
1414.82669	5904.65
1418.27039	5761.95
1421.71177	5653.25
1425.15083	5557.45
1428.58758	5497.05
1432.02203	5432.15
1435.45416	5447.05
1438.88399	5443.05
1442.31151	5426.15
1445.73673	5443.65
1449.15965	5449.15
1452.58027	5452.35
1455.9986	5453.25
1459.41463	5469.75
1462.82837	5492.55
1466.23982	5527.65
1469.64898	5575.85
1473.05586	5614.55
1476.46045	5640.05
1479.86276	5673.25
1483.26279	5694.65
1486.66054	5724.05
1490.05602	5776.35
1493.44922	5892.05
1496.84016	6028.15
1500.22882	6192.35
1503.61521	6401.45
1506.99934	6609.35
1510.38121	6792.15
1513.76081	6829.25
1517.13816	6703.85
1520.51324	6492.15
1523.88607	6293.25
1527.25665	6213.15
1530.62498	6173.75
1533.99105	6188.45
1537.35488	6195.55
1540.71647	6239.35
1544.07581	6265.15
1547.4329	6273.15
1550.78776	6293.05
1554.14038	6294.45
1557.49077	6302.45
1560.83892	6316.65
1564.18484	6336.95
1567.52853	6347.15
1570.86999	6391.45
1574.20922	6428.65
1577.54624	6442.15
1580.88103	6413.05
1584.2136	6335.15
1587.54395	6263.15
1590.87208	6242.35
1594.19801	6273.25
1597.52172	6367.05
1600.84321	6400.45
1604.16251	6367.05
1607.47959	6283.25
1610.79447	6180.75
1614.10715	6097.25
1617.41763	6025.45
1620.7259	5990.95
1624.03199	5971.95
1627.33587	5999.75
1630.63757	6086.35
1633.93707	6228.45
1637.23439	6419.65
1640.52951	6690.45
1643.82246	7010.25
1647.11321	7309.35
1650.40179	7491.85
1653.68819	7435.95
1656.97241	7165.75
1660.25446	6866.55
1663.53433	6583.75
1666.81203	6420.75
1670.08756	6306.35
1673.36092	6230.05
1676.63211	6188.35
1679.90115	6163.05
1683.16801	6110.35
1686.43272	6048.75
1689.69527	5948.25
1692.95567	5848.55
1696.2139	5744.75
1699.46999	5644.25
1702.72392	5531.75
1705.97571	5377.45
1709.22535	5207.65
1712.47284	5058.85
1715.71819	4933.55
1718.96139	4796.15
1722.20246	4742.65
1725.44139	4654.55
1728.67818	4594.95
1731.91284	4507.65
1735.14537	4460.55
1738.37576	4415.55
1741.60403	4393.75
1744.83017	4355.45
1748.05418	4342.35
1751.27607	4344.45
1754.49584	4334.35
1757.71349	4333.95
1760.92903	4322.25
1764.14244	4309.65
1767.35375	4291.05
1770.56294	4260.15
1773.77002	4245.65
1776.97499	4229.25
1780.17785	4200.35
1783.37861	4182.35
1786.57727	4174.65
1789.77382	4158.45
1792.96828	4135.55
1796.16064	4117.35
1799.3509	4114.35
1802.53907	4095.35
1805.72514	4075.25
1808.90913	4069.95
1812.09102	4058.95
1815.27083	4037.55
1818.44856	4032.75
1821.6242	4025.35
1824.79776	4021.55
1827.96924	4022.05
1831.13864	3998.35
1834.30597	4012.15
1837.47122	3991.95
1840.6344	3999.35
1843.7955	4005.05
1846.95454	3980.45
1850.11151	3994.85
1853.26642	3987.95
1856.41926	3951.55
1859.57004	3972.15
1862.71876	3965.45
1865.86542	3972.15
1869.01003	3950.45
1872.15258	3945.75
1875.29308	3941.05
1878.43152	3918.65
1881.56792	3921.05
1884.70227	3913.45
1887.83457	3911.45
1890.96482	3905.45
1894.09304	3906.05
1897.21921	3882.75
1900.34335	3881.85
1903.46544	3885.75
1906.58551	3870.15
1909.70353	3883.55
1912.81953	3869.15
1915.93349	3848.35
1919.04543	3847.65
1922.15534	3839.25
1925.26322	3827.05
1928.36908	3823.35
1931.47292	3821.65
1934.57473	3802.75
1937.67453	3797.15
1940.77232	3781.25
1943.86808	3777.65
1946.96184	3768.95
1950.05358	3756.35
1953.14331	3744.95
1956.23103	3730.75
1959.31675	3720.15
1962.40046	3721.05
1965.48217	3694.65
1968.56188	3667.05
1971.63959	3677.15
1974.7153	3657.45
1977.78901	3655.35
1980.86073	3640.85
1983.93046	3627.25
1986.99819	3619.85
1990.06394	3616.55
1993.1277	3610.05
1996.18947	3586.55
1999.24925	3579.65
2002.30706	3562.55
2005.36288	3557.75
2008.41672	3549.75
2011.46859	3539.55
2014.51848	3533.25
2017.56639	3513.05
2020.61233	3494.15
2023.6563	3493.45
2026.6983	3480.35
2029.73833	3477.95
2032.7764	3461.55
2035.8125	3456.35
2038.84664	3464.45
2041.87881	3449.65
2044.90903	3428.75
2047.93729	3431.15
2050.96359	3433.65
2053.98794	3410.95
2057.01034	3418.65
2060.03078	3405.75
2063.04927	3416.65
2066.06582	3416.75
2069.08042	3416.85
2072.09307	3404.45
2075.10378	3414.65
2078.11255	3414.65
2081.11938	3392.95
2084.12426	3395.65
2087.12722	3399.45
2090.12824	3396.15
2093.12732	3400.75
2096.12447	3407.15
2099.11969	3386.15
2102.11299	3386.95
2105.10435	3396.75
2108.09379	3390.65
2111.08131	3394.35
2114.0669	3390.05
2117.05057	3409.35
2120.03233	3413.95
2123.01216	3412.75
2125.99008	3403.35
2128.96609	3413.75
2131.94018	3401.05
2134.91236	3410.35
2137.88263	3396.95
2140.851	3417.45
2143.81746	3408.25
2146.78201	3416.25
2149.74466	3414.75
2152.7054	3424.35
2155.66425	3420.85
2158.6212	3407.65
2161.57625	3404.55
2164.52941	3412.45
2167.48067	3406.85
2170.43004	3403.45
2173.37752	3397.65
2176.32311	3404.95
2179.26681	3385.35
2182.20863	3386.25
2185.14856	3395.15
2188.08661	3385.25
2191.02278	3388.65
2193.95707	3388.45
2196.88948	3379.15
2199.82001	3375.95
2202.74867	3359.45
2205.67545	3375.55
2208.60037	3370.85
2211.52341	3354.55
2214.44458	3339.45
2217.36388	3353.85
2220.28132	3332.85
2223.1969	3315.15
2226.11061	3318.45
2229.02246	3320.45
2231.93245	3309.25
2234.84058	3290.75
2237.74686	3300.55
2240.65128	3287.35
2243.55385	3283.85
2246.45456	3289.15
2249.35343	3272.85
2252.25044	3263.95
2255.14561	3260.15
2258.03893	3264.25
2260.93041	3258.75
2263.82004	3251.25
2266.70783	3247.95
2269.59378	3228.15
2272.4779	3222.55
2275.36017	3221.75
2278.24061	3195.75
2281.11922	3194.45
2283.996	3188.05
2286.87094	3192.15
2289.74405	3184.25
2292.61534	3180.05
2295.4848	3180.95
2298.35243	3170.65
2301.21824	3159.85
2304.08223	3148.05
2306.94439	3166.15
2309.80474	3145.15
2312.66327	3155.35
2315.51999	3143.15
2318.37489	3150.35
2321.22797	3127.85
2324.07925	3125.25
2326.92871	3136.45
2329.77637	3131.25
2332.62222	3116.55
2335.46626	3108.35
2338.3085	3103.15
2341.14893	3095.25
2343.98756	3092.35
2346.8244	3088.25
2349.65943	3086.95
2352.49267	3083.05
2355.32411	3082.85
2358.15376	3084.95
2360.98161	3067.55
2363.80768	3076.15
2366.63195	3069.65
2369.45444	3066.85
2372.27514	3056.85
2375.09405	3063.85
2377.91118	3059.95
2380.72652	3058.95
2383.54009	3043.55
2386.35187	3045.35
2389.16188	3031.35
2391.97011	3032.65
2394.77657	3019.65
2397.58125	3013.35
2400.38416	3006.45
2403.18529	3006.35
2405.98466	3008.35
2408.78226	3002.75
2411.57809	2998.35
2414.37216	2975.05
2417.16446	2981.25
2419.955	2972.45
2422.74378	2975.05
2425.5308	2956.25
2428.31606	2977.05
2431.09956	2967.85
2433.88131	2953.45
2436.6613	2954.65
2439.43954	2948.15
2442.21603	2945.25
2444.99077	2942.95
2447.76377	2934.05
2450.53501	2937.75
2453.30451	2935.25
2456.07226	2926.55
2458.83827	2928.65
2461.60254	2905.25
2464.36507	2923.75
2467.12586	2915.75
2469.88492	2905.25
2472.64224	2905.75
2475.39782	2911.75
2478.15167	2909.55
2480.90379	2898.75
2483.65417	2896.95
2486.40283	2897.65
2489.14976	2892.35
2491.89497	2890.15
2494.63845	2898.85
2497.3802	2890.25
2500.12024	2878.85
2502.85855	2892.05
2505.59514	2883.65
2508.33002	2875.15
2511.06318	2860.85
2513.79462	2872.15
2516.52435	2856.75
2519.25237	2856.15
2521.97867	2846.95
2524.70327	2850.65
2527.42616	2856.85
2530.14734	2845.75
2532.86681	2827.95
2535.58458	2826.65
2538.30065	2823.85
2541.01501	2831.35
2543.72768	2816.95
2546.43864	2806.45
2549.14791	2814.45
2551.85548	2807.15
2554.56136	2794.35
2557.26554	2789.55
2559.96803	2785.65
2562.66883	2776.05
2565.36794	2766.55
2568.06536	2777.45
2570.7611	2766.35
2573.45514	2752.85
2576.14751	2754.45
2578.83819	2752.95
2581.52719	2744.15
2584.21451	2748.95
2586.90015	2720.75
2589.58411	2731.95
2592.2664	2721.85
2594.94701	2715.45
2597.62594	2716.05
2600.30321	2705.25
2602.9788	2708.45
2605.65273	2690.55
2608.32498	2688.25
2610.99557	2687.85
2613.66449	2672.65
2616.33175	2689.65
2618.99734	2680.75
2621.66128	2672.85
2624.32355	2658.15
2626.98416	2669.45
2629.64311	2658.85
2632.30041	2664.65
2634.95605	2649.15
2637.61004	2649.05
2640.26238	2657.35
2642.91306	2649.95
2645.56209	2642.85
2648.20948	2635.05
2650.85521	2655.95
2653.4993	2634.55
2656.14175	2636.35
2658.78255	2646.25
2661.42171	2631.65
2664.05923	2634.65
2666.6951	2627.85
2669.32934	2632.95
2671.96194	2628.15
2674.59291	2627.15
2677.22224	2639.05
2679.84993	2634.65
2682.476	2640.65
2685.10043	2637.65
2687.72324	2631.75
2690.34441	2629.45
2692.96396	2620.45
2695.58188	2642.85
2698.19818	2630.45
2700.81285	2633.65
2703.4259	2634.25
2706.03733	2669.55
2708.64714	2656.15
2711.25533	2645.55
2713.86191	2636.85
2716.46687	2640.45
2719.07021	2662.35
2721.67194	2638.65
2724.27206	2625.95
2726.87057	2637.55
2729.46747	2637.35
2732.06276	2632.55
2734.65644	2627.35
2737.24852	2629.05
2739.83899	2630.95
2742.42786	2631.85
2745.01513	2606.05
2747.60079	2613.45
2750.18486	2603.15
2752.76733	2601.25
2755.3482	2606.35
2757.92747	2607.15
2760.50515	2600.75
2763.08123	2597.15
2765.65573	2586.35
2768.22863	2594.25
2770.79994	2595.45
2773.36967	2586.45
2775.9378	2581.55
2778.50435	2575.95
2781.06932	2582.95
2783.6327	2566.25
2786.1945	2576.45
2788.75471	2563.85
2791.31335	2567.45
2793.87041	2533.85
2796.42589	2528.35
2798.97979	2534.65
2801.53212	2545.25
2804.08288	2528.55
2806.63206	2524.75
2809.17967	2515.65
2811.72571	2504.55
2814.27018	2493.25
2816.81308	2499.25
2819.35442	2501.95
2821.89419	2495.85
2824.43239	2494.55
2826.96904	2502.05
2829.50412	2501.35
2832.03763	2490.25
2834.56959	2492.85
2837.1	2480.55
2839.62884	2496.45
2842.15613	2491.55
2844.68186	2477.65
2847.20604	2490.75
2849.72867	2491.85
2852.24974	2478.35
2854.76927	2493.85
2857.28724	2494.85
2859.80367	2485.65
2862.31855	2478.15
2864.83189	2490.15
2867.34368	2484.85
2869.85393	2484.55
2872.36264	2485.65
2874.8698	2491.55
2877.37543	2482.75
2879.87952	2485.95
2882.38207	2478.35
2884.88308	2476.25
2887.38256	2493.45
2889.88051	2499.65
2892.37692	2493.55
2894.8718	2486.25
2897.36515	2486.65
2899.85698	2495.45
2902.34727	2497.95
2904.83604	2501.55
2907.32328	2507.95
2909.809	2511.35
2912.29319	2502.25
2914.77587	2497.95
2917.25702	2517.45
2919.73665	2509.25
2922.21476	2515.25
2924.69136	2520.35
2927.16644	2527.55
2929.64	2517.35
2932.11205	2518.55
2934.58258	2509.15
2937.05161	2528.05
2939.51912	2524.15
2941.98513	2517.35
2944.44962	2522.05
2946.91261	2505.65
2949.37409	2509.05
2951.83407	2517.35
2954.29254	2522.75
2956.74951	2507.45
2959.20498	2501.45
2961.65895	2505.15
2964.11142	2491.75
2966.56239	2491.35
2969.01186	2485.25
2971.45984	2492.25
2973.90632	2470.75
2976.35131	2462.85
2978.7948	2460.05
2981.23681	2459.85
2983.67732	2453.35
2986.11635	2452.85
2988.55388	2457.75
2990.98993	2458.05
2993.4245	2440.15
2995.85758	2439.85
2998.28917	2432.25
3000.71928	2431.35
3003.14791	2436.25
3005.57506	2434.15
3008.00073	2424.85
3010.42493	2427.35
3012.84764	2436.35
3015.26888	2444.25
3017.68865	2426.35
3020.10694	2427.05
3022.52376	2432.65
3024.9391	2440.55
3027.35298	2426.35
3029.76539	2426.85
3032.17632	2431.55
3034.5858	2422.85
3036.9938	2424.75
3039.40034	2421.55
3041.80542	2422.45
3044.20903	2413.15
3046.61118	2425.35
3049.01187	2421.85
3051.4111	2424.45
3053.80888	2426.65
3056.20519	2442.35
3058.60005	2422.65
3060.99345	2423.15
3063.3854	2427.35
3065.7759	2417.95
3068.16494	2429.55
3070.55254	2427.95
3072.93868	2426.15
3075.32338	2436.15
3077.70662	2421.75
3080.08842	2432.85
3082.46878	2433.75
3084.84769	2431.35
3087.22515	2431.45
3089.60118	2446.15
3091.97576	2442.65
3094.3489	2462.15
3096.72061	2457.05
3099.09087	2468.35
3101.4597	2458.05
3103.82709	2467.45
3106.19305	2464.75
3108.55757	2469.35
3110.92066	2468.65
3113.28232	2470.05
3115.64255	2474.35
3118.00134	2472.35
3120.35871	2483.25
3122.71466	2479.95
3125.06917	2483.85
3127.42226	2483.45
3129.77393	2504.45
3132.12417	2509.05
3134.47299	2506.45
3136.82039	2516.35
3139.16636	2509.65
3141.51092	2532.85
3143.85406	2541.55
3146.19579	2541.55
3148.53609	2546.45
3150.87499	2554.35
3153.21246	2569.45
3155.54853	2579.75
3157.88318	2578.15
3160.21642	2581.55
3162.54826	2595.45
3164.87868	2595.35
3167.2077	2606.45
3169.5353	2603.85
3171.86151	2612.15
3174.18631	2621.95
3176.5097	2611.55
3178.83169	2622.55
3181.15228	2626.55
3183.47147	2639.85
3185.78926	2638.05
3188.10565	2632.95
3190.42065	2647.35
3192.73424	2650.55
3195.04645	2651.45
3197.35725	2651.25
3199.66667	2663.95
3201.97469	2665.55
3204.28132	2685.55
3206.58656	2673.45
3208.8904	2678.15
3211.19287	2700.95
3213.49394	2694.65
3215.79363	2696.75
3218.09193	2704.95
3220.38884	2706.85
3222.68438	2715.25
3224.97853	2705.05
3227.2713	2710.75
3229.56269	2711.15
3231.8527	2704.15
3234.14133	2692.45
3236.42858	2688.15
3238.71446	2693.15
3240.99896	2687.15
3243.28209	2694.25
3245.56384	2699.75
3247.84423	2687.85
3250.12324	2693.85
3252.40088	2697.25
3254.67715	2699.75
3256.95205	2697.95
3259.22558	2694.15
3261.49775	2688.45
3263.76855	2676.85
3266.03799	2682.05
3268.30606	2676.85
3270.57277	2672.95
3272.83812	2679.45
3275.10211	2663.85
3277.36474	2671.85
3279.62601	2666.05
3281.88593	2669.95
3284.14448	2661.15
3286.40168	2663.35
3288.65753	2657.85
3290.91202	2665.85
3293.16516	2622.35
3295.41695	2637.75
3297.66738	2636.35
3299.91647	2621.95
3302.16421	2607.45
3304.4106	2594.05
3306.65564	2581.25
3308.89933	2568.55
3311.14169	2558.95
3313.38269	2550.25
3315.62236	2526.55
3317.86068	2510.75
3320.09766	2473.75
3322.3333	2453.65
3324.5676	2473.25
3326.80056	2428.15
3329.03219	2419.35
3331.26248	0.95
3333.49143	0.65
3335.71905	-0.65
