Data from AgNPs_FTO_APTES_UA_0.1mM_CRN_0uM_NaF_0.1M_Addition_RamanShift__15__10-20-07-466.txt Node

Date: Mon Dec 20 10:20:07 GMT 2021
User: TCL
Spectrometer: QEP01345
Trigger mode: 4
Integration Time (sec): 7.000000E0
Scans to average: 10
Electric dark correction enabled: true
Nonlinearity correction enabled: false
Boxcar width: 0
XAxis mode: Raman Shifts
Number of Pixels in Spectrum: 1044
>>>>>Begin Spectral Data<<<<<
46.04893	0.75
50.45542	-1.15
54.85868	-0.95
59.25871	1.95
63.6555	22.75
68.04907	23.25
72.43941	25.25
76.82654	28.85
81.21044	27.25
85.59113	31.75
89.96862	31.35
94.34289	31.55
98.71396	32.95
103.08183	32.35
107.4465	32.95
111.80798	35.55
116.16626	36.95
120.52136	35.95
124.87327	37.85
129.222	33.75
133.56755	35.95
137.90993	40.25
142.24913	39.25
146.58517	40.55
150.91804	47.45
155.24774	55.35
159.57429	55.65
163.89768	72.45
168.21792	89.05
172.53501	109.05
176.84895	147.35
181.15975	202.95
185.46741	269.85
189.77193	375.55
194.07331	492.15
198.37157	640.75
202.6667	800.85
206.9587	959.65
211.24758	1114.65
215.53334	1272.35
219.81599	1429.65
224.09553	1591.15
228.37195	1772.95
232.64527	1976.55
236.91549	2159.15
241.18261	2348.75
245.44663	2518.95
249.70755	2657.05
253.96539	2788.35
258.22014	2858.85
262.4718	2931.05
266.72039	2952.55
270.96589	2947.75
275.20832	2939.55
279.44768	2876.35
283.68397	2803.35
287.91719	2743.85
292.14735	2670.95
296.37445	2620.95
300.59849	2608.95
304.81948	2583.85
309.03742	2579.75
313.25231	2529.85
317.46415	2500.85
321.67296	2439.75
325.87872	2401.75
330.08145	2369.95
334.28114	2362.65
338.47781	2366.65
342.67145	2383.65
346.86207	2410.55
351.04966	2434.65
355.23424	2497.05
359.4158	2525.65
363.59435	2575.55
367.76989	2607.65
371.94243	2644.45
376.11196	2660.85
380.27849	2682.45
384.44203	2709.85
388.60257	2705.95
392.76012	2728.95
396.91468	2747.75
401.06626	2767.25
405.21485	2789.95
409.36047	2769.05
413.50311	2727.65
417.64277	2693.05
421.77947	2689.55
425.9132	2676.55
430.04396	2666.55
434.17176	2682.75
438.2966	2708.05
442.41849	2710.85
446.53742	2738.85
450.6534	2759.25
454.76644	2778.65
458.87653	2799.05
462.98368	2806.85
467.08789	2794.55
471.18916	2818.25
475.2875	2816.75
479.38291	2840.55
483.4754	2847.05
487.56496	2906.55
491.6516	2942.75
495.73531	2983.45
499.81612	2980.45
503.89401	2975.75
507.96899	2947.75
512.04106	2950.85
516.11023	2938.05
520.1765	2948.95
524.23987	2939.25
528.30034	2935.85
532.35792	2932.45
536.41261	2921.75
540.46441	2900.25
544.51333	2848.75
548.55936	2834.95
552.60252	2832.25
556.64279	2851.85
560.6802	2851.55
564.71473	2854.05
568.7464	2870.15
572.7752	2896.65
576.80114	2877.75
580.82422	2875.75
584.84444	2884.95
588.86181	2935.05
592.87633	2942.65
596.888	2960.05
600.89682	2952.55
604.9028	3013.85
608.90594	3213.45
612.90624	3536.65
616.90371	3590.45
620.89834	3324.25
624.89015	3221.85
628.87913	3357.85
632.86528	3518.45
636.84862	3653.25
640.82913	3641.05
644.80683	3521.45
648.78172	3366.55
652.75379	3236.95
656.72306	3191.75
660.68952	3169.05
664.65319	3171.35
668.61405	3173.25
672.57211	3190.95
676.52738	3247.35
680.47986	3328.85
684.42955	3409.35
688.37646	3471.05
692.32058	3468.25
696.26192	3344.65
700.20048	3238.35
704.13626	3180.05
708.06928	3151.85
711.99952	3149.95
715.927	3089.85
719.85171	3041.75
723.77365	3032.55
727.69284	3012.55
731.60928	2990.95
735.52295	2950.65
739.43388	2923.75
743.34206	2920.05
747.24749	2911.35
751.15017	2908.55
755.05012	2910.25
758.94733	2931.65
762.8418	2999.05
766.73354	3119.15
770.62254	3269.85
774.50882	3374.55
778.39237	3346.15
782.27321	3194.05
786.15132	3064.85
790.02671	3018.35
793.89938	3015.05
797.76935	3037.55
801.6366	3057.85
805.50115	3121.45
809.36299	3196.65
813.22213	3209.05
817.07857	3157.55
820.93231	3072.35
824.78336	2965.95
828.63172	2908.55
832.47738	2871.25
836.32036	2854.85
840.16066	2855.95
843.99827	2831.05
847.8332	2831.55
851.66546	2813.95
855.49504	2807.85
859.32195	2791.05
863.1462	2793.05
866.96777	2801.45
870.78668	2801.05
874.60293	2843.85
878.41652	2895.45
882.22745	2948.15
886.03573	2972.95
889.84136	2999.05
893.64433	2975.15
897.44466	2924.95
901.24235	2879.35
905.0374	2830.55
908.8298	2804.25
912.61957	2814.75
916.40671	2849.45
920.19121	2883.05
923.97308	2931.65
927.75233	2947.55
931.52895	2956.65
935.30295	2946.15
939.07433	2913.35
942.84309	2861.05
946.60924	2838.65
950.37278	2812.15
954.13371	2808.95
957.89203	2784.45
961.64774	2753.85
965.40086	2714.45
969.15137	2677.25
972.89929	2666.15
976.64461	2640.05
980.38733	2625.05
984.12747	2613.95
987.86502	2633.55
991.59999	2631.95
995.33237	2640.75
999.06217	2667.85
1002.78939	2710.15
1006.51404	2746.15
1010.23611	2774.35
1013.95561	2811.15
1017.67255	2825.05
1021.38692	2827.85
1025.09872	2809.65
1028.80796	2767.25
1032.51465	2724.45
1036.21877	2695.95
1039.92035	2677.55
1043.61937	2651.85
1047.31584	2650.15
1051.00976	2628.95
1054.70114	2630.35
1058.38998	2628.35
1062.07627	2642.45
1065.76003	2639.75
1069.44126	2647.35
1073.11995	2674.25
1076.79611	2670.45
1080.46974	2656.45
1084.14085	2651.35
1087.80943	2651.25
1091.47549	2623.15
1095.13903	2599.35
1098.80005	2586.75
1102.45857	2563.45
1106.11456	2572.35
1109.76805	2573.95
1113.41903	2638.55
1117.06751	2721.75
1120.71348	2844.45
1124.35696	2995.85
1127.99793	3181.55
1131.63641	3332.15
1135.2724	3414.35
1138.90589	3382.55
1142.5369	3259.75
1146.16542	3111.85
1149.79145	2948.25
1153.415	2812.05
1157.03607	2718.15
1160.65467	2674.75
1164.27079	2650.75
1167.88443	2660.05
1171.49561	2686.15
1175.10432	2771.65
1178.71056	2887.35
1182.31434	2998.45
1185.91565	3042.65
1189.51451	3040.55
1193.11091	3013.45
1196.70485	2984.25
1200.29634	2988.25
1203.88538	3001.65
1207.47197	2960.25
1211.05612	2881.05
1214.63782	2793.55
1218.21708	2735.45
1221.79391	2695.95
1225.36829	2661.45
1228.94024	2645.05
1232.50976	2643.95
1236.07685	2644.65
1239.6415	2655.85
1243.20374	2665.65
1246.76355	2690.25
1250.32093	2708.15
1253.8759	2719.75
1257.42845	2742.95
1260.97859	2780.05
1264.52631	2807.95
1268.07163	2840.35
1271.61453	2871.95
1275.15503	2878.05
1278.69312	2892.25
1282.22882	2904.15
1285.76211	2918.25
1289.29301	2971.65
1292.82151	3012.85
1296.34761	3089.85
1299.87133	3161.35
1303.39266	3259.85
1306.9116	3395.15
1310.42815	3518.65
1313.94233	3618.25
1317.45412	3569.65
1320.96354	3495.05
1324.47058	3383.75
1327.97525	3320.85
1331.47754	3270.65
1334.97747	3299.55
1338.47502	3361.15
1341.97022	3433.35
1345.46305	3550.15
1348.95352	3689.45
1352.44163	3887.15
1355.92738	4106.85
1359.41078	4392.75
1362.89183	4681.35
1366.37053	4728.65
1369.84688	4445.65
1373.32088	4102.05
1376.79254	3876.05
1380.26186	3730.95
1383.72883	3627.15
1387.19347	3535.85
1390.65578	3451.05
1394.11575	3374.75
1397.57339	3301.65
1401.0287	3239.95
1404.48168	3182.95
1407.93234	3104.55
1411.38068	3039.65
1414.82669	2984.45
1418.27039	2946.75
1421.71177	2913.75
1425.15083	2860.45
1428.58758	2815.75
1432.02203	2771.45
1435.45416	2740.95
1438.88399	2727.35
1442.31151	2720.25
1445.73673	2680.65
1449.15965	2669.35
1452.58027	2673.15
1455.9986	2653.95
1459.41463	2653.55
1462.82837	2658.65
1466.23982	2690.85
1469.64898	2705.05
1473.05586	2741.65
1476.46045	2754.55
1479.86276	2778.95
1483.26279	2793.45
1486.66054	2836.95
1490.05602	2847.55
1493.44922	2902.15
1496.84016	2964.45
1500.22882	3062.45
1503.61521	3221.25
1506.99934	3430.35
1510.38121	3586.75
1513.76081	3654.95
1517.13816	3561.55
1520.51324	3338.45
1523.88607	3119.05
1527.25665	2990.15
1530.62498	2906.15
1533.99105	2862.35
1537.35488	2853.55
1540.71647	2850.85
1544.07581	2867.35
1547.4329	2885.55
1550.78776	2918.15
1554.14038	2925.65
1557.49077	2957.75
1560.83892	2975.65
1564.18484	2988.25
1567.52853	2998.15
1570.86999	3022.65
1574.20922	3019.65
1577.54624	3006.45
1580.88103	2935.35
1584.2136	2858.75
1587.54395	2801.15
1590.87208	2762.65
1594.19801	2745.05
1597.52172	2772.35
1600.84321	2800.95
1604.16251	2774.95
1607.47959	2768.95
1610.79447	2746.35
1614.10715	2720.05
1617.41763	2695.75
1620.7259	2682.85
1624.03199	2673.55
1627.33587	2664.35
1630.63757	2662.85
1633.93707	2693.35
1637.23439	2722.15
1640.52951	2769.15
1643.82246	2852.25
1647.11321	2973.65
1650.40179	3100.85
1653.68819	3121.75
1656.97241	3019.25
1660.25446	2847.95
1663.53433	2745.85
1666.81203	2691.35
1670.08756	2649.15
1673.36092	2624.25
1676.63211	2622.45
1679.90115	2615.35
1683.16801	2603.65
1686.43272	2553.05
1689.69527	2505.05
1692.95567	2458.85
1696.2139	2408.65
1699.46999	2345.55
1702.72392	2295.45
1705.97571	2234.65
1709.22535	2191.75
1712.47284	2147.55
1715.71819	2092.85
1718.96139	2041.15
1722.20246	2001.05
1725.44139	1953.05
1728.67818	1913.95
1731.91284	1858.65
1735.14537	1828.25
1738.37576	1791.85
1741.60403	1758.65
1744.83017	1743.25
1748.05418	1722.45
1751.27607	1699.75
1754.49584	1677.95
1757.71349	1668.45
1760.92903	1656.15
1764.14244	1645.55
1767.35375	1637.05
1770.56294	1627.05
1773.77002	1622.65
1776.97499	1613.65
1780.17785	1611.15
1783.37861	1595.65
1786.57727	1598.45
1789.77382	1578.25
1792.96828	1574.75
1796.16064	1564.85
1799.3509	1552.05
1802.53907	1541.75
1805.72514	1528.05
1808.90913	1523.65
1812.09102	1524.05
1815.27083	1514.65
1818.44856	1503.15
1821.6242	1498.65
1824.79776	1499.35
1827.96924	1498.25
1831.13864	1480.65
1834.30597	1483.75
1837.47122	1476.25
1840.6344	1470.85
1843.7955	1469.25
1846.95454	1475.65
1850.11151	1469.45
1853.26642	1469.25
1856.41926	1464.45
1859.57004	1463.35
1862.71876	1457.35
1865.86542	1441.95
1869.01003	1451.15
1872.15258	1441.25
1875.29308	1448.15
1878.43152	1442.35
1881.56792	1436.75
1884.70227	1431.15
1887.83457	1425.15
1890.96482	1430.25
1894.09304	1427.85
1897.21921	1412.95
1900.34335	1421.95
1903.46544	1412.65
1906.58551	1421.25
1909.70353	1400.55
1912.81953	1395.85
1915.93349	1397.75
1919.04543	1392.45
1922.15534	1396.75
1925.26322	1385.85
1928.36908	1383.45
1931.47292	1378.85
1934.57473	1385.35
1937.67453	1368.15
1940.77232	1356.55
1943.86808	1368.15
1946.96184	1360.25
1950.05358	1350.45
1953.14331	1347.35
1956.23103	1335.85
1959.31675	1335.85
1962.40046	1335.45
1965.48217	1328.65
1968.56188	1326.95
1971.63959	1319.35
1974.7153	1308.55
1977.78901	1309.95
1980.86073	1305.55
1983.93046	1300.95
1986.99819	1301.35
1990.06394	1290.25
1993.1277	1285.95
1996.18947	1281.75
1999.24925	1283.45
2002.30706	1268.25
2005.36288	1263.95
2008.41672	1264.85
2011.46859	1262.15
2014.51848	1259.05
2017.56639	1246.25
2020.61233	1247.05
2023.6563	1237.15
2026.6983	1236.95
2029.73833	1229.95
2032.7764	1231.45
2035.8125	1229.25
2038.84664	1225.95
2041.87881	1218.25
2044.90903	1221.95
2047.93729	1218.95
2050.96359	1220.35
2053.98794	1219.75
2057.01034	1216.35
2060.03078	1214.35
2063.04927	1221.55
2066.06582	1217.75
2069.08042	1215.45
2072.09307	1204.05
2075.10378	1213.55
2078.11255	1211.05
2081.11938	1202.95
2084.12426	1208.75
2087.12722	1212.45
2090.12824	1215.35
2093.12732	1204.65
2096.12447	1207.05
2099.11969	1214.75
2102.11299	1208.95
2105.10435	1215.95
2108.09379	1214.35
2111.08131	1207.85
2114.0669	1207.35
2117.05057	1212.65
2120.03233	1200.75
2123.01216	1194.65
2125.99008	1199.65
2128.96609	1202.55
2131.94018	1205.45
2134.91236	1202.15
2137.88263	1186.35
2140.851	1190.35
2143.81746	1196.85
2146.78201	1191.75
2149.74466	1183.35
2152.7054	1186.55
2155.66425	1184.55
2158.6212	1185.15
2161.57625	1183.65
2164.52941	1176.85
2167.48067	1180.15
2170.43004	1175.05
2173.37752	1174.55
2176.32311	1173.65
2179.26681	1160.75
2182.20863	1168.15
2185.14856	1163.65
2188.08661	1174.95
2191.02278	1166.75
2193.95707	1165.05
2196.88948	1160.85
2199.82001	1154.95
2202.74867	1153.15
2205.67545	1150.55
2208.60037	1156.75
2211.52341	1148.95
2214.44458	1142.15
2217.36388	1142.05
2220.28132	1144.15
2223.1969	1130.85
2226.11061	1119.85
2229.02246	1133.85
2231.93245	1118.85
2234.84058	1123.25
2237.74686	1115.65
2240.65128	1116.05
2243.55385	1111.35
2246.45456	1104.15
2249.35343	1111.35
2252.25044	1100.85
2255.14561	1092.65
2258.03893	1100.75
2260.93041	1098.75
2263.82004	1089.25
2266.70783	1093.35
2269.59378	1088.15
2272.4779	1080.85
2275.36017	1075.95
2278.24061	1077.25
2281.11922	1075.15
2283.996	1075.85
2286.87094	1068.15
2289.74405	1068.35
2292.61534	1062.25
2295.4848	1058.65
2298.35243	1059.65
2301.21824	1052.45
2304.08223	1047.05
2306.94439	1054.05
2309.80474	1050.55
2312.66327	1053.85
2315.51999	1036.05
2318.37489	1048.65
2321.22797	1037.95
2324.07925	1029.85
2326.92871	1043.05
2329.77637	1045.95
2332.62222	1036.75
2335.46626	1027.35
2338.3085	1028.65
2341.14893	1024.55
2343.98756	1018.75
2346.8244	1024.25
2349.65943	1011.95
2352.49267	1024.95
2355.32411	1022.35
2358.15376	1017.25
2360.98161	1013.85
2363.80768	1006.85
2366.63195	1020.65
2369.45444	1011.55
2372.27514	1014.65
2375.09405	1013.65
2377.91118	1009.65
2380.72652	1008.15
2383.54009	1008.65
2386.35187	1012.95
2389.16188	997.85
2391.97011	999.85
2394.77657	997.75
2397.58125	990.85
2400.38416	979.55
2403.18529	981.25
2405.98466	985.75
2408.78226	979.55
2411.57809	977.25
2414.37216	963.05
2417.16446	976.55
2419.955	973.65
2422.74378	972.85
2425.5308	962.55
2428.31606	964.45
2431.09956	955.05
2433.88131	959.05
2436.6613	960.55
2439.43954	954.35
2442.21603	955.65
2444.99077	948.15
2447.76377	946.45
2450.53501	947.75
2453.30451	953.55
2456.07226	948.95
2458.83827	946.05
2461.60254	942.75
2464.36507	939.55
2467.12586	932.15
2469.88492	936.15
2472.64224	936.55
2475.39782	933.15
2478.15167	931.95
2480.90379	929.85
2483.65417	931.75
2486.40283	917.15
2489.14976	925.05
2491.89497	920.25
2494.63845	924.85
2497.3802	920.45
2500.12024	919.75
2502.85855	915.95
2505.59514	914.95
2508.33002	910.35
2511.06318	916.35
2513.79462	915.95
2516.52435	916.95
2519.25237	907.05
2521.97867	901.15
2524.70327	902.55
2527.42616	902.35
2530.14734	898.25
2532.86681	890.55
2535.58458	887.15
2538.30065	890.75
2541.01501	889.15
2543.72768	891.35
2546.43864	884.25
2549.14791	888.55
2551.85548	882.05
2554.56136	878.95
2557.26554	875.65
2559.96803	870.75
2562.66883	879.95
2565.36794	869.45
2568.06536	868.65
2570.7611	872.65
2573.45514	864.05
2576.14751	869.05
2578.83819	857.35
2581.52719	863.05
2584.21451	864.15
2586.90015	859.85
2589.58411	859.15
2592.2664	851.95
2594.94701	857.65
2597.62594	852.55
2600.30321	843.95
2602.9788	840.05
2605.65273	845.45
2608.32498	843.75
2610.99557	845.05
2613.66449	835.35
2616.33175	837.95
2618.99734	826.65
2621.66128	833.05
2624.32355	832.45
2626.98416	834.45
2629.64311	831.65
2632.30041	823.95
2634.95605	828.35
2637.61004	818.65
2640.26238	828.35
2642.91306	821.65
2645.56209	827.35
2648.20948	823.45
2650.85521	820.15
2653.4993	820.75
2656.14175	822.35
2658.78255	824.65
2661.42171	815.55
2664.05923	820.45
2666.6951	820.35
2669.32934	819.85
2671.96194	826.85
2674.59291	814.55
2677.22224	817.75
2679.84993	819.35
2682.476	822.45
2685.10043	821.75
2687.72324	817.85
2690.34441	822.25
2692.96396	820.75
2695.58188	826.75
2698.19818	818.35
2700.81285	823.15
2703.4259	815.05
2706.03733	803.95
2708.64714	823.85
2711.25533	816.35
2713.86191	821.05
2716.46687	826.35
2719.07021	821.35
2721.67194	819.25
2724.27206	817.55
2726.87057	822.35
2729.46747	827.55
2732.06276	820.45
2734.65644	822.45
2737.24852	815.55
2739.83899	819.45
2742.42786	815.85
2745.01513	812.85
2747.60079	814.65
2750.18486	816.75
2752.76733	810.65
2755.3482	811.25
2757.92747	813.85
2760.50515	809.45
2763.08123	802.05
2765.65573	804.65
2768.22863	807.35
2770.79994	796.35
2773.36967	799.65
2775.9378	794.55
2778.50435	788.95
2781.06932	792.55
2783.6327	788.85
2786.1945	792.15
2788.75471	789.75
2791.31335	787.45
2793.87041	785.15
2796.42589	779.65
2798.97979	783.95
2801.53212	785.15
2804.08288	776.85
2806.63206	776.95
2809.17967	778.65
2811.72571	776.25
2814.27018	767.75
2816.81308	771.45
2819.35442	770.45
2821.89419	769.85
2824.43239	759.15
2826.96904	768.85
2829.50412	767.25
2832.03763	763.35
2834.56959	764.95
2837.1	770.05
2839.62884	766.45
2842.15613	764.45
2844.68186	770.75
2847.20604	774.85
2849.72867	774.35
2852.24974	771.35
2854.76927	773.75
2857.28724	768.55
2859.80367	770.45
2862.31855	773.35
2864.83189	778.75
2867.34368	784.65
2869.85393	784.75
2872.36264	788.65
2874.8698	792.45
2877.37543	792.55
2879.87952	795.05
2882.38207	802.45
2884.88308	802.75
2887.38256	800.25
2889.88051	810.05
2892.37692	801.95
2894.8718	815.55
2897.36515	819.35
2899.85698	819.65
2902.34727	828.25
2904.83604	828.65
2907.32328	838.45
2909.809	829.35
2912.29319	832.05
2914.77587	837.45
2917.25702	835.55
2919.73665	838.25
2922.21476	848.25
2924.69136	855.55
2927.16644	856.05
2929.64	862.85
2932.11205	862.05
2934.58258	863.45
2937.05161	866.15
2939.51912	860.75
2941.98513	862.05
2944.44962	857.25
2946.91261	849.75
2949.37409	848.55
2951.83407	839.85
2954.29254	841.35
2956.74951	830.35
2959.20498	823.05
2961.65895	811.85
2964.11142	811.35
2966.56239	807.35
2969.01186	800.15
2971.45984	800.45
2973.90632	787.85
2976.35131	789.35
2978.7948	788.25
2981.23681	780.25
2983.67732	778.15
2986.11635	777.85
2988.55388	781.45
2990.98993	774.45
2993.4245	766.65
2995.85758	767.65
2998.28917	771.65
3000.71928	767.35
3003.14791	768.25
3005.57506	773.45
3008.00073	769.85
3010.42493	768.65
3012.84764	773.65
3015.26888	769.35
3017.68865	768.85
3020.10694	771.85
3022.52376	767.95
3024.9391	771.25
3027.35298	766.35
3029.76539	774.35
3032.17632	770.55
3034.5858	766.95
3036.9938	774.15
3039.40034	776.45
3041.80542	779.55
3044.20903	769.25
3046.61118	778.75
3049.01187	775.35
3051.4111	770.95
3053.80888	777.65
3056.20519	782.15
3058.60005	784.95
3060.99345	782.75
3063.3854	783.35
3065.7759	780.85
3068.16494	780.25
3070.55254	786.05
3072.93868	796.25
3075.32338	797.95
3077.70662	799.25
3080.08842	801.75
3082.46878	805.55
3084.84769	806.75
3087.22515	813.05
3089.60118	814.65
3091.97576	816.15
3094.3489	817.95
3096.72061	821.65
3099.09087	832.25
3101.4597	829.25
3103.82709	831.35
3106.19305	835.85
3108.55757	843.45
3110.92066	845.95
3113.28232	843.05
3115.64255	847.95
3118.00134	854.95
3120.35871	849.55
3122.71466	856.35
3125.06917	863.55
3127.42226	866.95
3129.77393	873.75
3132.12417	885.05
3134.47299	887.65
3136.82039	886.65
3139.16636	892.65
3141.51092	902.25
3143.85406	908.55
3146.19579	910.65
3148.53609	924.25
3150.87499	963.25
3153.21246	938.85
3155.54853	939.55
3157.88318	943.65
3160.21642	953.85
3162.54826	965.25
3164.87868	962.55
3167.2077	965.05
3169.5353	968.05
3171.86151	971.55
3174.18631	982.15
3176.5097	989.85
3178.83169	987.05
3181.15228	991.25
3183.47147	1001.25
3185.78926	1006.15
3188.10565	1010.85
3190.42065	1014.55
3192.73424	1014.75
3195.04645	1019.35
3197.35725	1027.85
3199.66667	1028.65
3201.97469	1037.75
3204.28132	1048.25
3206.58656	1047.25
3208.8904	1045.45
3211.19287	1047.75
3213.49394	1061.55
3215.79363	1060.85
3218.09193	1055.65
3220.38884	1067.35
3222.68438	1057.75
3224.97853	1066.05
3227.2713	1072.75
3229.56269	1065.45
3231.8527	1080.95
3234.14133	1065.75
3236.42858	1074.05
3238.71446	1071.85
3240.99896	1073.55
3243.28209	1073.75
3245.56384	1082.25
3247.84423	1080.95
3250.12324	1070.75
3252.40088	1082.45
3254.67715	1078.75
3256.95205	1078.75
3259.22558	1084.55
3261.49775	1071.45
3263.76855	1081.45
3266.03799	1086.75
3268.30606	1067.35
3270.57277	1074.85
3272.83812	1071.05
3275.10211	1076.55
3277.36474	1079.95
3279.62601	1076.15
3281.88593	1079.05
3284.14448	1074.25
3286.40168	1072.05
3288.65753	1071.25
3290.91202	1078.15
3293.16516	1062.15
3295.41695	1063.45
3297.66738	1061.25
3299.91647	1052.95
3302.16421	1053.05
3304.4106	1050.95
3306.65564	1046.45
3308.89933	1040.35
3311.14169	1031.45
3313.38269	1022.15
3315.62236	1023.25
3317.86068	1016.05
3320.09766	1009.95
3322.3333	999.95
3324.5676	1005.55
3326.80056	980.55
3329.03219	986.15
3331.26248	-0.45
3333.49143	-0.05
3335.71905	-0.35
