Data from AgNPs_FTO_APTES_UA_0.1mM_CRN_1000uM_NaF_0.1M_Addition_RamanShift__5__15-19-57-804.txt Node

Date: Mon Dec 20 15:19:57 GMT 2021
User: TCL
Spectrometer: QEP01345
Trigger mode: 4
Integration Time (sec): 7.000000E0
Scans to average: 10
Electric dark correction enabled: true
Nonlinearity correction enabled: false
Boxcar width: 0
XAxis mode: Raman Shifts
Number of Pixels in Spectrum: 1044
>>>>>Begin Spectral Data<<<<<
46.04893	1.225
50.45542	-0.175
54.85868	-0.975
59.25871	2.625
63.6555	23.225
68.04907	23.625
72.43941	29.525
76.82654	29.225
81.21044	28.725
85.59113	34.325
89.96862	27.525
94.34289	36.125
98.71396	33.925
103.08183	36.025
107.4465	35.325
111.80798	39.925
116.16626	37.425
120.52136	38.325
124.87327	38.825
129.222	37.825
133.56755	41.825
137.90993	42.325
142.24913	43.725
146.58517	43.725
150.91804	54.825
155.24774	57.725
159.57429	67.325
163.89768	80.925
168.21792	105.925
172.53501	131.425
176.84895	179.225
181.15975	245.325
185.46741	335.625
189.77193	458.725
194.07331	605.525
198.37157	786.525
202.6667	975.525
206.9587	1165.925
211.24758	1370.725
215.53334	1560.225
219.81599	1781.225
224.09553	2019.625
228.37195	2270.125
232.64527	2551.525
236.91549	2841.125
241.18261	3109.425
245.44663	3344.425
249.70755	3522.725
253.96539	3666.725
258.22014	3742.725
262.4718	3799.225
266.72039	3793.625
270.96589	3785.625
275.20832	3728.625
279.44768	3679.125
283.68397	3611.825
287.91719	3556.025
292.14735	3514.225
296.37445	3462.625
300.59849	3437.325
304.81948	3388.325
309.03742	3371.725
313.25231	3345.025
317.46415	3297.925
321.67296	3261.925
325.87872	3219.125
330.08145	3196.625
334.28114	3196.525
338.47781	3195.025
342.67145	3200.325
346.86207	3224.925
351.04966	3260.625
355.23424	3286.025
359.4158	3327.725
363.59435	3357.125
367.76989	3399.225
371.94243	3441.025
376.11196	3478.025
380.27849	3529.125
384.44203	3564.725
388.60257	3618.025
392.76012	3630.425
396.91468	3668.725
401.06626	3693.125
405.21485	3701.425
409.36047	3715.225
413.50311	3708.725
417.64277	3694.425
421.77947	3684.325
425.9132	3678.525
430.04396	3712.525
434.17176	3716.825
438.2966	3732.625
442.41849	3749.125
446.53742	3769.125
450.6534	3785.525
454.76644	3828.925
458.87653	3851.925
462.98368	3868.825
467.08789	3865.625
471.18916	3891.425
475.2875	3926.125
479.38291	3953.525
483.4754	4038.225
487.56496	4135.325
491.6516	4258.525
495.73531	4350.125
499.81612	4374.425
503.89401	4319.125
507.96899	4244.625
512.04106	4163.925
516.11023	4132.025
520.1765	4140.125
524.23987	4187.225
528.30034	4209.525
532.35792	4221.825
536.41261	4224.925
540.46441	4173.425
544.51333	4094.625
548.55936	4030.125
552.60252	3965.825
556.64279	3932.125
560.6802	3925.125
564.71473	3924.925
568.7464	3938.925
572.7752	3949.125
576.80114	3998.325
580.82422	4058.025
584.84444	4128.925
588.86181	4223.425
592.87633	4289.125
596.888	4286.725
600.89682	4227.525
604.9028	4233.825
608.90594	4315.825
612.90624	4477.825
616.90371	4565.325
620.89834	4608.725
624.89015	4847.825
628.87913	5281.925
632.86528	5764.325
636.84862	6076.625
640.82913	6108.825
644.80683	5823.325
648.78172	5404.325
652.75379	5001.325
656.72306	4709.325
660.68952	4556.825
664.65319	4427.825
668.61405	4356.525
672.57211	4334.225
676.52738	4331.725
680.47986	4365.425
684.42955	4368.525
688.37646	4336.025
692.32058	4264.025
696.26192	4180.025
700.20048	4153.125
704.13626	4131.325
708.06928	4105.525
711.99952	4094.525
715.927	4091.425
719.85171	4134.725
723.77365	4193.625
727.69284	4250.625
731.60928	4244.225
735.52295	4148.925
739.43388	4071.825
743.34206	4029.425
747.24749	4028.525
751.15017	4023.225
755.05012	4032.625
758.94733	4042.025
762.8418	4077.825
766.73354	4144.725
770.62254	4189.225
774.50882	4179.925
778.39237	4131.025
782.27321	4049.125
786.15132	3995.725
790.02671	3956.225
793.89938	3950.725
797.76935	3983.525
801.6366	4050.225
805.50115	4180.725
809.36299	4390.525
813.22213	4521.825
817.07857	4526.825
820.93231	4376.425
824.78336	4173.425
828.63172	4003.925
832.47738	3869.925
836.32036	3832.525
840.16066	3801.225
843.99827	3767.825
847.8332	3780.025
851.66546	3784.525
855.49504	3780.625
859.32195	3805.125
863.1462	3823.225
866.96777	3869.925
870.78668	3924.525
874.60293	4041.325
878.41652	4156.625
882.22745	4289.525
886.03573	4401.425
889.84136	4486.725
893.64433	4408.425
897.44466	4259.425
901.24235	4041.025
905.0374	3883.925
908.8298	3768.225
912.61957	3688.725
916.40671	3663.425
920.19121	3650.725
923.97308	3625.325
927.75233	3633.125
931.52895	3619.425
935.30295	3605.225
939.07433	3605.325
942.84309	3575.125
946.60924	3564.725
950.37278	3560.625
954.13371	3533.325
957.89203	3526.825
961.64774	3526.225
965.40086	3511.325
969.15137	3495.525
972.89929	3498.025
976.64461	3481.625
980.38733	3476.325
984.12747	3481.825
987.86502	3479.525
991.59999	3480.725
995.33237	3517.825
999.06217	3553.025
1002.78939	3601.225
1006.51404	3675.225
1010.23611	3719.425
1013.95561	3784.025
1017.67255	3802.625
1021.38692	3811.525
1025.09872	3795.625
1028.80796	3745.625
1032.51465	3693.325
1036.21877	3633.325
1039.92035	3572.025
1043.61937	3539.325
1047.31584	3523.525
1051.00976	3538.325
1054.70114	3550.325
1058.38998	3575.025
1062.07627	3627.025
1065.76003	3674.425
1069.44126	3737.825
1073.11995	3798.125
1076.79611	3820.225
1080.46974	3774.425
1084.14085	3723.025
1087.80943	3644.125
1091.47549	3584.825
1095.13903	3551.725
1098.80005	3516.925
1102.45857	3509.425
1106.11456	3529.425
1109.76805	3561.125
1113.41903	3650.825
1117.06751	3839.325
1120.71348	4098.925
1124.35696	4504.725
1127.99793	4940.525
1131.63641	5322.825
1135.2724	5540.825
1138.90589	5507.425
1142.5369	5275.525
1146.16542	4906.825
1149.79145	4524.525
1153.415	4167.925
1157.03607	3891.925
1160.65467	3725.325
1164.27079	3618.425
1167.88443	3582.925
1171.49561	3592.625
1175.10432	3625.525
1178.71056	3699.425
1182.31434	3769.625
1185.91565	3842.525
1189.51451	3893.425
1193.11091	3957.125
1196.70485	4067.625
1200.29634	4179.825
1203.88538	4254.725
1207.47197	4284.325
1211.05612	4223.525
1214.63782	4112.825
1218.21708	3955.225
1221.79391	3823.225
1225.36829	3715.125
1228.94024	3628.625
1232.50976	3593.625
1236.07685	3558.425
1239.6415	3544.525
1243.20374	3578.425
1246.76355	3596.825
1250.32093	3634.225
1253.8759	3681.325
1257.42845	3695.025
1260.97859	3717.425
1264.52631	3751.325
1268.07163	3749.625
1271.61453	3749.825
1275.15503	3729.025
1278.69312	3702.425
1282.22882	3664.625
1285.76211	3648.125
1289.29301	3646.025
1292.82151	3645.125
1296.34761	3656.425
1299.87133	3718.525
1303.39266	3756.925
1306.9116	3829.925
1310.42815	3932.925
1313.94233	3996.625
1317.45412	4019.625
1320.96354	4040.925
1324.47058	4045.425
1327.97525	4053.725
1331.47754	4081.125
1334.97747	4113.625
1338.47502	4159.125
1341.97022	4224.025
1345.46305	4304.925
1348.95352	4394.225
1352.44163	4499.625
1355.92738	4608.825
1359.41078	4714.325
1362.89183	4826.625
1366.37053	4842.925
1369.84688	4736.125
1373.32088	4601.525
1376.79254	4463.325
1380.26186	4349.525
1383.72883	4251.325
1387.19347	4140.725
1390.65578	4056.925
1394.11575	3959.425
1397.57339	3866.725
1401.0287	3794.325
1404.48168	3738.525
1407.93234	3669.725
1411.38068	3595.425
1414.82669	3518.125
1418.27039	3454.625
1421.71177	3381.025
1425.15083	3319.325
1428.58758	3240.825
1432.02203	3201.725
1435.45416	3182.125
1438.88399	3171.625
1442.31151	3141.925
1445.73673	3145.725
1449.15965	3135.625
1452.58027	3138.825
1455.9986	3125.225
1459.41463	3139.825
1462.82837	3159.625
1466.23982	3178.825
1469.64898	3185.725
1473.05586	3206.025
1476.46045	3203.925
1479.86276	3222.625
1483.26279	3229.325
1486.66054	3275.325
1490.05602	3297.125
1493.44922	3338.725
1496.84016	3388.625
1500.22882	3464.125
1503.61521	3578.125
1506.99934	3672.825
1510.38121	3751.425
1513.76081	3759.025
1517.13816	3711.925
1520.51324	3617.325
1523.88607	3539.425
1527.25665	3507.425
1530.62498	3498.225
1533.99105	3534.925
1537.35488	3559.025
1540.71647	3607.825
1544.07581	3628.325
1547.4329	3675.125
1550.78776	3702.425
1554.14038	3710.625
1557.49077	3731.925
1560.83892	3753.625
1564.18484	3747.125
1567.52853	3747.025
1570.86999	3771.925
1574.20922	3784.925
1577.54624	3810.925
1580.88103	3796.825
1584.2136	3749.025
1587.54395	3682.825
1590.87208	3639.725
1594.19801	3620.425
1597.52172	3633.725
1600.84321	3641.125
1604.16251	3638.225
1607.47959	3634.625
1610.79447	3633.225
1614.10715	3602.425
1617.41763	3607.725
1620.7259	3602.825
1624.03199	3627.225
1627.33587	3645.125
1630.63757	3690.925
1633.93707	3734.225
1637.23439	3822.625
1640.52951	3930.625
1643.82246	4050.725
1647.11321	4198.925
1650.40179	4313.325
1653.68819	4332.225
1656.97241	4283.325
1660.25446	4190.925
1663.53433	4127.525
1666.81203	4058.425
1670.08756	4037.025
1673.36092	4033.125
1676.63211	4036.525
1679.90115	4028.725
1683.16801	4002.625
1686.43272	3971.525
1689.69527	3914.825
1692.95567	3850.425
1696.2139	3756.625
1699.46999	3682.625
1702.72392	3580.725
1705.97571	3434.825
1709.22535	3277.925
1712.47284	3158.325
1715.71819	3048.925
1718.96139	2952.025
1722.20246	2870.925
1725.44139	2811.525
1728.67818	2758.225
1731.91284	2710.025
1735.14537	2673.925
1738.37576	2640.425
1741.60403	2611.725
1744.83017	2594.725
1748.05418	2577.325
1751.27607	2570.825
1754.49584	2585.025
1757.71349	2583.925
1760.92903	2570.125
1764.14244	2561.925
1767.35375	2543.825
1770.56294	2532.825
1773.77002	2517.225
1776.97499	2484.725
1780.17785	2464.325
1783.37861	2449.325
1786.57727	2434.825
1789.77382	2421.125
1792.96828	2406.925
1796.16064	2388.825
1799.3509	2372.625
1802.53907	2369.225
1805.72514	2355.825
1808.90913	2340.625
1812.09102	2335.325
1815.27083	2325.425
1818.44856	2316.925
1821.6242	2304.825
1824.79776	2318.925
1827.96924	2306.825
1831.13864	2285.525
1834.30597	2281.625
1837.47122	2285.225
1840.6344	2289.125
1843.7955	2275.525
1846.95454	2275.125
1850.11151	2279.525
1853.26642	2266.525
1856.41926	2262.725
1859.57004	2259.025
1862.71876	2251.125
1865.86542	2252.525
1869.01003	2245.725
1872.15258	2240.025
1875.29308	2231.325
1878.43152	2231.025
1881.56792	2212.825
1884.70227	2219.825
1887.83457	2204.425
1890.96482	2206.325
1894.09304	2199.925
1897.21921	2200.625
1900.34335	2188.025
1903.46544	2188.525
1906.58551	2195.025
1909.70353	2184.425
1912.81953	2173.325
1915.93349	2162.725
1919.04543	2176.225
1922.15534	2172.925
1925.26322	2159.725
1928.36908	2154.025
1931.47292	2145.225
1934.57473	2130.725
1937.67453	2132.325
1940.77232	2129.725
1943.86808	2116.125
1946.96184	2118.925
1950.05358	2105.725
1953.14331	2096.125
1956.23103	2088.225
1959.31675	2074.625
1962.40046	2070.925
1965.48217	2069.725
1968.56188	2056.325
1971.63959	2045.925
1974.7153	2044.825
1977.78901	2042.925
1980.86073	2031.725
1983.93046	2028.225
1986.99819	2012.125
1990.06394	2011.325
1993.1277	2005.125
1996.18947	1991.925
1999.24925	1991.425
2002.30706	1981.725
2005.36288	1983.925
2008.41672	1973.325
2011.46859	1959.025
2014.51848	1957.025
2017.56639	1946.625
2020.61233	1952.025
2023.6563	1935.925
2026.6983	1935.925
2029.73833	1921.325
2032.7764	1913.125
2035.8125	1912.625
2038.84664	1899.125
2041.87881	1909.525
2044.90903	1894.525
2047.93729	1885.625
2050.96359	1877.725
2053.98794	1884.925
2057.01034	1891.125
2060.03078	1879.425
2063.04927	1873.625
2066.06582	1882.125
2069.08042	1884.025
2072.09307	1869.225
2075.10378	1875.325
2078.11255	1868.325
2081.11938	1872.325
2084.12426	1861.325
2087.12722	1873.925
2090.12824	1862.225
2093.12732	1851.625
2096.12447	1871.525
2099.11969	1854.125
2102.11299	1858.625
2105.10435	1850.125
2108.09379	1853.125
2111.08131	1849.825
2114.0669	1852.925
2117.05057	1848.925
2120.03233	1857.125
2123.01216	1855.925
2125.99008	1857.425
2128.96609	1851.125
2131.94018	1854.525
2134.91236	1862.625
2137.88263	1854.425
2140.851	1856.425
2143.81746	1860.725
2146.78201	1848.325
2149.74466	1854.625
2152.7054	1861.425
2155.66425	1853.525
2158.6212	1848.325
2161.57625	1848.825
2164.52941	1841.425
2167.48067	1839.525
2170.43004	1838.825
2173.37752	1836.325
2176.32311	1831.625
2179.26681	1828.925
2182.20863	1832.025
2185.14856	1832.125
2188.08661	1834.325
2191.02278	1826.825
2193.95707	1828.825
2196.88948	1814.525
2199.82001	1818.925
2202.74867	1808.825
2205.67545	1805.725
2208.60037	1801.725
2211.52341	1802.525
2214.44458	1789.825
2217.36388	1791.825
2220.28132	1785.425
2223.1969	1769.725
2226.11061	1786.225
2229.02246	1763.225
2231.93245	1755.125
2234.84058	1764.225
2237.74686	1752.425
2240.65128	1759.325
2243.55385	1755.125
2246.45456	1739.725
2249.35343	1738.825
2252.25044	1743.225
2255.14561	1729.525
2258.03893	1747.425
2260.93041	1745.825
2263.82004	1745.625
2266.70783	1717.025
2269.59378	1710.725
2272.4779	1705.225
2275.36017	1708.025
2278.24061	1703.925
2281.11922	1704.125
2283.996	1694.625
2286.87094	1696.725
2289.74405	1686.225
2292.61534	1690.425
2295.4848	1678.025
2298.35243	1677.025
2301.21824	1677.325
2304.08223	1679.925
2306.94439	1672.025
2309.80474	1662.225
2312.66327	1659.025
2315.51999	1657.125
2318.37489	1658.725
2321.22797	1645.625
2324.07925	1653.625
2326.92871	1646.725
2329.77637	1650.125
2332.62222	1638.525
2335.46626	1632.725
2338.3085	1638.025
2341.14893	1634.825
2343.98756	1624.825
2346.8244	1615.325
2349.65943	1612.025
2352.49267	1612.425
2355.32411	1615.325
2358.15376	1616.025
2360.98161	1608.625
2363.80768	1606.825
2366.63195	1602.525
2369.45444	1604.225
2372.27514	1601.325
2375.09405	1598.425
2377.91118	1586.325
2380.72652	1590.425
2383.54009	1579.125
2386.35187	1592.625
2389.16188	1573.525
2391.97011	1583.525
2394.77657	1574.925
2397.58125	1565.825
2400.38416	1568.925
2403.18529	1564.225
2405.98466	1559.325
2408.78226	1558.525
2411.57809	1557.525
2414.37216	1545.125
2417.16446	1555.425
2419.955	1542.925
2422.74378	1544.625
2425.5308	1533.225
2428.31606	1536.825
2431.09956	1527.525
2433.88131	1521.125
2436.6613	1519.225
2439.43954	1525.525
2442.21603	1519.125
2444.99077	1513.725
2447.76377	1515.825
2450.53501	1509.125
2453.30451	1514.025
2456.07226	1511.225
2458.83827	1513.525
2461.60254	1492.125
2464.36507	1503.625
2467.12586	1496.325
2469.88492	1497.125
2472.64224	1483.725
2475.39782	1489.725
2478.15167	1494.925
2480.90379	1491.825
2483.65417	1486.025
2486.40283	1482.025
2489.14976	1480.425
2491.89497	1475.025
2494.63845	1479.525
2497.3802	1472.425
2500.12024	1472.725
2502.85855	1467.825
2505.59514	1467.225
2508.33002	1460.025
2511.06318	1462.825
2513.79462	1466.025
2516.52435	1450.425
2519.25237	1451.725
2521.97867	1447.725
2524.70327	1440.225
2527.42616	1447.825
2530.14734	1447.425
2532.86681	1435.025
2535.58458	1433.725
2538.30065	1415.525
2541.01501	1428.725
2543.72768	1419.425
2546.43864	1422.625
2549.14791	1421.425
2551.85548	1418.725
2554.56136	1415.925
2557.26554	1407.625
2559.96803	1399.725
2562.66883	1404.425
2565.36794	1395.225
2568.06536	1405.425
2570.7611	1396.725
2573.45514	1381.825
2576.14751	1394.225
2578.83819	1383.225
2581.52719	1388.125
2584.21451	1379.625
2586.90015	1373.425
2589.58411	1376.625
2592.2664	1369.025
2594.94701	1362.725
2597.62594	1363.925
2600.30321	1357.925
2602.9788	1354.625
2605.65273	1347.025
2608.32498	1340.025
2610.99557	1343.425
2613.66449	1348.125
2616.33175	1342.825
2618.99734	1343.025
2621.66128	1338.325
2624.32355	1334.125
2626.98416	1337.025
2629.64311	1329.625
2632.30041	1323.925
2634.95605	1327.125
2637.61004	1323.325
2640.26238	1322.225
2642.91306	1322.625
2645.56209	1324.425
2648.20948	1315.125
2650.85521	1313.025
2653.4993	1318.725
2656.14175	1315.325
2658.78255	1314.425
2661.42171	1310.825
2664.05923	1302.925
2666.6951	1307.225
2669.32934	1307.025
2671.96194	1307.025
2674.59291	1306.625
2677.22224	1305.725
2679.84993	1313.525
2682.476	1308.825
2685.10043	1309.225
2687.72324	1307.425
2690.34441	1304.525
2692.96396	1294.925
2695.58188	1312.625
2698.19818	1305.925
2700.81285	1307.825
2703.4259	1321.125
2706.03733	1359.025
2708.64714	1329.825
2711.25533	1316.625
2713.86191	1311.225
2716.46687	1331.725
2719.07021	1313.625
2721.67194	1305.325
2724.27206	1305.025
2726.87057	1301.625
2729.46747	1299.425
2732.06276	1294.725
2734.65644	1297.525
2737.24852	1301.325
2739.83899	1291.525
2742.42786	1294.225
2745.01513	1292.425
2747.60079	1284.625
2750.18486	1286.825
2752.76733	1283.825
2755.3482	1284.425
2757.92747	1277.425
2760.50515	1276.525
2763.08123	1271.725
2765.65573	1270.125
2768.22863	1271.125
2770.79994	1272.425
2773.36967	1271.225
2775.9378	1280.125
2778.50435	1260.825
2781.06932	1267.725
2783.6327	1264.025
2786.1945	1257.325
2788.75471	1248.425
2791.31335	1252.825
2793.87041	1246.425
2796.42589	1242.025
2798.97979	1236.625
2801.53212	1244.025
2804.08288	1237.125
2806.63206	1239.225
2809.17967	1230.525
2811.72571	1228.125
2814.27018	1225.525
2816.81308	1223.425
2819.35442	1223.225
2821.89419	1215.925
2824.43239	1223.325
2826.96904	1212.525
2829.50412	1221.325
2832.03763	1225.925
2834.56959	1220.125
2837.1	1219.125
2839.62884	1208.925
2842.15613	1218.125
2844.68186	1212.925
2847.20604	1214.625
2849.72867	1210.325
2852.24974	1210.725
2854.76927	1219.225
2857.28724	1229.425
2859.80367	1217.125
2862.31855	1205.425
2864.83189	1209.325
2867.34368	1204.625
2869.85393	1207.025
2872.36264	1202.225
2874.8698	1207.225
2877.37543	1214.425
2879.87952	1218.725
2882.38207	1214.125
2884.88308	1215.025
2887.38256	1220.125
2889.88051	1219.825
2892.37692	1218.625
2894.8718	1220.325
2897.36515	1225.325
2899.85698	1235.325
2902.34727	1235.125
2904.83604	1239.625
2907.32328	1242.025
2909.809	1242.325
2912.29319	1246.925
2914.77587	1245.225
2917.25702	1248.625
2919.73665	1240.225
2922.21476	1252.425
2924.69136	1245.125
2927.16644	1247.525
2929.64	1254.725
2932.11205	1251.025
2934.58258	1260.125
2937.05161	1256.825
2939.51912	1259.425
2941.98513	1255.125
2944.44962	1258.925
2946.91261	1248.525
2949.37409	1255.625
2951.83407	1256.725
2954.29254	1256.725
2956.74951	1257.125
2959.20498	1242.825
2961.65895	1235.425
2964.11142	1240.725
2966.56239	1238.725
2969.01186	1227.325
2971.45984	1217.825
2973.90632	1217.125
2976.35131	1216.725
2978.7948	1219.825
2981.23681	1209.525
2983.67732	1223.125
2986.11635	1211.225
2988.55388	1208.825
2990.98993	1211.925
2993.4245	1193.125
2995.85758	1210.825
2998.28917	1200.325
3000.71928	1204.925
3003.14791	1204.425
3005.57506	1205.625
3008.00073	1214.725
3010.42493	1207.325
3012.84764	1206.825
3015.26888	1210.625
3017.68865	1208.925
3020.10694	1209.325
3022.52376	1215.325
3024.9391	1208.025
3027.35298	1205.025
3029.76539	1220.225
3032.17632	1220.025
3034.5858	1211.025
3036.9938	1221.025
3039.40034	1215.325
3041.80542	1218.125
3044.20903	1218.425
3046.61118	1211.025
3049.01187	1209.625
3051.4111	1211.025
3053.80888	1216.925
3056.20519	1219.625
3058.60005	1216.125
3060.99345	1222.825
3063.3854	1220.325
3065.7759	1216.325
3068.16494	1217.425
3070.55254	1221.725
3072.93868	1223.225
3075.32338	1232.625
3077.70662	1221.325
3080.08842	1231.625
3082.46878	1236.225
3084.84769	1237.825
3087.22515	1233.325
3089.60118	1254.225
3091.97576	1251.625
3094.3489	1255.725
3096.72061	1264.925
3099.09087	1271.525
3101.4597	1275.925
3103.82709	1275.825
3106.19305	1278.225
3108.55757	1275.025
3110.92066	1275.225
3113.28232	1281.125
3115.64255	1282.025
3118.00134	1290.825
3120.35871	1293.125
3122.71466	1300.925
3125.06917	1306.225
3127.42226	1301.525
3129.77393	1315.225
3132.12417	1318.925
3134.47299	1321.425
3136.82039	1325.525
3139.16636	1324.725
3141.51092	1339.125
3143.85406	1345.825
3146.19579	1355.525
3148.53609	1354.525
3150.87499	1370.625
3153.21246	1378.825
3155.54853	1386.425
3157.88318	1384.725
3160.21642	1392.425
3162.54826	1400.925
3164.87868	1400.225
3167.2077	1415.425
3169.5353	1417.825
3171.86151	1411.925
3174.18631	1422.925
3176.5097	1422.725
3178.83169	1418.625
3181.15228	1426.025
3183.47147	1436.125
3185.78926	1444.325
3188.10565	1443.625
3190.42065	1444.325
3192.73424	1455.925
3195.04645	1461.625
3197.35725	1462.925
3199.66667	1460.625
3201.97469	1475.025
3204.28132	1476.125
3206.58656	1473.325
3208.8904	1492.425
3211.19287	1483.525
3213.49394	1484.125
3215.79363	1504.225
3218.09193	1500.025
3220.38884	1505.125
3222.68438	1520.525
3224.97853	1505.125
3227.2713	1512.325
3229.56269	1512.025
3231.8527	1510.825
3234.14133	1499.325
3236.42858	1498.525
