Data from AgNPs_FTO_APTES_UA_0.1mM_CRN_50uM_NaF_0.1M_Addition_RamanShift__9__12-47-07-633.txt Node

Date: Mon Dec 20 12:47:07 GMT 2021
User: TCL
Spectrometer: QEP01345
Trigger mode: 4
Integration Time (sec): 7.000000E0
Scans to average: 10
Electric dark correction enabled: true
Nonlinearity correction enabled: false
Boxcar width: 0
XAxis mode: Raman Shifts
Number of Pixels in Spectrum: 1044
>>>>>Begin Spectral Data<<<<<
46.04893	-0.0875
50.45542	-1.0875
54.85868	-1.3875
59.25871	0.3125
63.6555	30.6125
68.04907	30.0125
72.43941	30.5125
76.82654	33.8125
81.21044	35.6125
85.59113	40.0125
89.96862	37.8125
94.34289	39.7125
98.71396	41.5125
103.08183	40.0125
107.4465	41.7125
111.80798	43.8125
116.16626	43.8125
120.52136	46.0125
124.87327	48.4125
129.222	46.4125
133.56755	49.7125
137.90993	54.0125
142.24913	55.6125
146.58517	59.9125
150.91804	67.0125
155.24774	81.2125
159.57429	94.3125
163.89768	122.2125
168.21792	154.3125
172.53501	196.1125
176.84895	272.4125
181.15975	379.8125
185.46741	515.5125
189.77193	719.4125
194.07331	958.2125
198.37157	1244.3125
202.6667	1542.8125
206.9587	1844.6125
211.24758	2139.5125
215.53334	2455.6125
219.81599	2770.4125
224.09553	3135.4125
228.37195	3518.7125
232.64527	3987.6125
236.91549	4459.1125
241.18261	4908.3125
245.44663	5337.8125
249.70755	5676.6125
253.96539	5933.3125
258.22014	6113.7125
262.4718	6234.6125
266.72039	6289.7125
270.96589	6272.3125
275.20832	6217.5125
279.44768	6118.8125
283.68397	6020.6125
287.91719	5900.8125
292.14735	5824.7125
296.37445	5764.6125
300.59849	5753.4125
304.81948	5708.5125
309.03742	5677.9125
313.25231	5623.1125
317.46415	5532.3125
321.67296	5450.7125
325.87872	5375.4125
330.08145	5334.0125
334.28114	5308.3125
338.47781	5328.1125
342.67145	5346.5125
346.86207	5395.4125
351.04966	5445.0125
355.23424	5506.1125
359.4158	5569.2125
363.59435	5631.6125
367.76989	5680.5125
371.94243	5728.5125
376.11196	5790.6125
380.27849	5851.7125
384.44203	5906.5125
388.60257	5962.0125
392.76012	6015.7125
396.91468	6081.2125
401.06626	6133.3125
405.21485	6188.4125
409.36047	6172.6125
413.50311	6145.1125
417.64277	6104.4125
421.77947	6104.4125
425.9132	6115.3125
430.04396	6102.6125
434.17176	6141.9125
438.2966	6156.9125
442.41849	6186.0125
446.53742	6225.4125
450.6534	6281.4125
454.76644	6315.2125
458.87653	6376.4125
462.98368	6384.0125
467.08789	6405.9125
471.18916	6426.1125
475.2875	6446.0125
479.38291	6484.9125
483.4754	6542.4125
487.56496	6636.3125
491.6516	6742.4125
495.73531	6848.8125
499.81612	6903.5125
503.89401	6861.1125
507.96899	6802.0125
512.04106	6729.4125
516.11023	6675.0125
520.1765	6665.8125
524.23987	6668.1125
528.30034	6647.6125
532.35792	6656.0125
536.41261	6646.8125
540.46441	6595.1125
544.51333	6532.0125
548.55936	6481.4125
552.60252	6471.7125
556.64279	6460.7125
560.6802	6463.3125
564.71473	6455.3125
568.7464	6491.1125
572.7752	6550.1125
576.80114	6588.4125
580.82422	6673.4125
584.84444	6767.4125
588.86181	6878.7125
592.87633	6909.1125
596.888	6913.0125
600.89682	6853.3125
604.9028	6880.8125
608.90594	7129.4125
612.90624	7477.7125
616.90371	7494.5125
620.89834	7137.1125
624.89015	7191.7125
628.87913	7572.1125
632.86528	8059.3125
636.84862	8433.5125
640.82913	8490.9125
644.80683	8251.2125
648.78172	7839.6125
652.75379	7469.6125
656.72306	7208.9125
660.68952	7023.9125
664.65319	6880.3125
668.61405	6769.0125
672.57211	6714.2125
676.52738	6726.7125
680.47986	6745.0125
684.42955	6739.5125
688.37646	6702.1125
692.32058	6637.7125
696.26192	6559.3125
700.20048	6510.9125
704.13626	6500.5125
708.06928	6461.3125
711.99952	6454.4125
715.927	6452.5125
719.85171	6488.8125
723.77365	6548.1125
727.69284	6597.6125
731.60928	6559.6125
735.52295	6481.4125
739.43388	6397.9125
743.34206	6381.2125
747.24749	6408.3125
751.15017	6406.1125
755.05012	6429.9125
758.94733	6478.6125
762.8418	6599.5125
766.73354	6752.6125
770.62254	6950.3125
774.50882	6993.9125
778.39237	6862.9125
782.27321	6612.6125
786.15132	6410.3125
790.02671	6314.2125
793.89938	6264.3125
797.76935	6276.0125
801.6366	6319.6125
805.50115	6470.8125
809.36299	6671.6125
813.22213	6834.4125
817.07857	6819.6125
820.93231	6676.6125
824.78336	6445.1125
828.63172	6284.1125
832.47738	6155.4125
836.32036	6089.3125
840.16066	6045.8125
843.99827	6048.3125
847.8332	6040.0125
851.66546	6007.6125
855.49504	6009.4125
859.32195	6044.4125
863.1462	6060.4125
866.96777	6106.3125
870.78668	6167.9125
874.60293	6253.5125
878.41652	6390.0125
882.22745	6493.5125
886.03573	6627.6125
889.84136	6692.3125
893.64433	6639.8125
897.44466	6493.5125
901.24235	6294.7125
905.0374	6119.9125
908.8298	6031.3125
912.61957	5963.2125
916.40671	5926.2125
920.19121	5930.1125
923.97308	5892.4125
927.75233	5890.0125
931.52895	5840.4125
935.30295	5815.1125
939.07433	5769.6125
942.84309	5723.5125
946.60924	5700.7125
950.37278	5671.6125
954.13371	5673.2125
957.89203	5657.0125
961.64774	5649.5125
965.40086	5629.8125
969.15137	5616.0125
972.89929	5598.6125
976.64461	5594.7125
980.38733	5567.8125
984.12747	5548.0125
987.86502	5586.1125
991.59999	5600.8125
995.33237	5625.2125
999.06217	5677.9125
1002.78939	5738.0125
1006.51404	5806.5125
1010.23611	5862.5125
1013.95561	5943.7125
1017.67255	5951.1125
1021.38692	5959.1125
1025.09872	5928.1125
1028.80796	5871.5125
1032.51465	5816.5125
1036.21877	5753.6125
1039.92035	5712.0125
1043.61937	5691.6125
1047.31584	5669.2125
1051.00976	5673.5125
1054.70114	5685.3125
1058.38998	5712.5125
1062.07627	5770.0125
1065.76003	5827.9125
1069.44126	5884.3125
1073.11995	5943.1125
1076.79611	5968.7125
1080.46974	5985.7125
1084.14085	5948.4125
1087.80943	5893.6125
1091.47549	5870.8125
1095.13903	5847.3125
1098.80005	5794.9125
1102.45857	5747.8125
1106.11456	5722.1125
1109.76805	5761.4125
1113.41903	5868.8125
1117.06751	6071.6125
1120.71348	6430.5125
1124.35696	6838.5125
1127.99793	7310.6125
1131.63641	7709.1125
1135.2724	7893.8125
1138.90589	7850.1125
1142.5369	7592.7125
1146.16542	7226.5125
1149.79145	6868.0125
1153.415	6494.2125
1157.03607	6213.5125
1160.65467	6020.7125
1164.27079	5943.2125
1167.88443	5932.2125
1171.49561	5999.6125
1175.10432	6157.1125
1178.71056	6342.7125
1182.31434	6546.5125
1185.91565	6667.4125
1189.51451	6742.8125
1193.11091	6770.5125
1196.70485	6832.1125
1200.29634	6849.6125
1203.88538	6863.9125
1207.47197	6828.9125
1211.05612	6744.9125
1214.63782	6606.9125
1218.21708	6451.9125
1221.79391	6267.9125
1225.36829	6131.3125
1228.94024	6027.2125
1232.50976	5954.1125
1236.07685	5915.5125
1239.6415	5909.3125
1243.20374	5917.3125
1246.76355	5955.6125
1250.32093	5993.7125
1253.8759	6051.7125
1257.42845	6132.5125
1260.97859	6188.7125
1264.52631	6267.9125
1268.07163	6328.8125
1271.61453	6341.6125
1275.15503	6341.7125
1278.69312	6354.2125
1282.22882	6353.6125
1285.76211	6373.8125
1289.29301	6384.6125
1292.82151	6477.7125
1296.34761	6583.4125
1299.87133	6703.8125
1303.39266	6842.6125
1306.9116	7036.9125
1310.42815	7212.8125
1313.94233	7346.5125
1317.45412	7383.4125
1320.96354	7347.6125
1324.47058	7331.1125
1327.97525	7276.6125
1331.47754	7252.5125
1334.97747	7259.3125
1338.47502	7312.4125
1341.97022	7389.0125
1345.46305	7484.1125
1348.95352	7614.4125
1352.44163	7760.5125
1355.92738	7904.9125
1359.41078	8109.3125
1362.89183	8396.6125
1366.37053	8380.6125
1369.84688	8026.6125
1373.32088	7611.4125
1376.79254	7304.9125
1380.26186	7087.8125
1383.72883	6981.8125
1387.19347	6868.5125
1390.65578	6732.7125
1394.11575	6626.1125
1397.57339	6514.3125
1401.0287	6425.5125
1404.48168	6324.1125
1407.93234	6209.5125
1411.38068	6094.0125
1414.82669	5940.1125
1418.27039	5805.9125
1421.71177	5652.8125
1425.15083	5545.5125
1428.58758	5496.5125
1432.02203	5461.7125
1435.45416	5450.0125
1438.88399	5461.6125
1442.31151	5484.4125
1445.73673	5489.0125
1449.15965	5508.7125
1452.58027	5529.9125
1455.9986	5543.3125
1459.41463	5586.1125
1462.82837	5614.8125
1466.23982	5654.9125
1469.64898	5691.5125
1473.05586	5735.4125
1476.46045	5752.3125
1479.86276	5742.9125
1483.26279	5773.6125
1486.66054	5821.3125
1490.05602	5862.3125
1493.44922	5970.0125
1496.84016	6103.3125
1500.22882	6297.7125
1503.61521	6558.6125
1506.99934	6823.2125
1510.38121	7036.0125
1513.76081	7094.4125
1517.13816	6948.5125
1520.51324	6688.0125
1523.88607	6484.0125
1527.25665	6354.1125
1530.62498	6304.2125
1533.99105	6311.3125
1537.35488	6310.9125
1540.71647	6322.3125
1544.07581	6320.3125
1547.4329	6316.7125
1550.78776	6309.3125
1554.14038	6315.0125
1557.49077	6329.6125
1560.83892	6339.9125
1564.18484	6357.9125
1567.52853	6370.4125
1570.86999	6387.4125
1574.20922	6433.8125
1577.54624	6422.5125
1580.88103	6375.4125
1584.2136	6274.1125
1587.54395	6200.5125
1590.87208	6194.3125
1594.19801	6227.7125
1597.52172	6304.1125
1600.84321	6318.4125
1604.16251	6274.6125
1607.47959	6173.6125
1610.79447	6067.8125
1614.10715	5969.2125
1617.41763	5861.8125
1620.7259	5770.5125
1624.03199	5763.6125
1627.33587	5795.7125
1630.63757	5851.7125
1633.93707	5989.0125
1637.23439	6165.5125
1640.52951	6428.5125
1643.82246	6740.5125
1647.11321	7049.8125
1650.40179	7235.8125
1653.68819	7209.7125
1656.97241	6930.9125
1660.25446	6617.4125
1663.53433	6351.1125
1666.81203	6152.8125
1670.08756	6039.7125
1673.36092	5962.3125
1676.63211	5923.3125
1679.90115	5914.6125
1683.16801	5859.0125
1686.43272	5806.7125
1689.69527	5726.5125
1692.95567	5616.0125
1696.2139	5525.1125
1699.46999	5437.4125
1702.72392	5351.3125
1705.97571	5255.6125
1709.22535	5126.7125
1712.47284	4979.0125
1715.71819	4844.4125
1718.96139	4730.5125
1722.20246	4603.6125
1725.44139	4517.9125
1728.67818	4448.4125
1731.91284	4357.1125
1735.14537	4315.2125
1738.37576	4274.5125
1741.60403	4235.8125
1744.83017	4193.5125
1748.05418	4176.4125
1751.27607	4169.1125
1754.49584	4146.2125
1757.71349	4156.3125
1760.92903	4137.4125
1764.14244	4123.7125
1767.35375	4109.1125
1770.56294	4100.4125
1773.77002	4088.8125
1776.97499	4060.9125
1780.17785	4051.2125
1783.37861	4032.3125
1786.57727	4023.0125
1789.77382	4002.4125
1792.96828	3995.9125
1796.16064	3968.4125
1799.3509	3950.1125
1802.53907	3948.2125
1805.72514	3933.7125
1808.90913	3924.0125
1812.09102	3905.0125
1815.27083	3899.4125
1818.44856	3874.5125
1821.6242	3878.5125
1824.79776	3862.6125
1827.96924	3860.9125
1831.13864	3841.8125
1834.30597	3853.8125
1837.47122	3842.8125
1840.6344	3820.8125
1843.7955	3838.1125
1846.95454	3817.5125
1850.11151	3824.4125
1853.26642	3801.1125
1856.41926	3802.1125
1859.57004	3786.0125
1862.71876	3789.9125
1865.86542	3780.6125
1869.01003	3774.6125
1872.15258	3755.3125
1875.29308	3774.0125
1878.43152	3758.6125
1881.56792	3737.5125
1884.70227	3734.6125
1887.83457	3721.8125
1890.96482	3725.7125
1894.09304	3705.9125
1897.21921	3694.7125
1900.34335	3695.6125
1903.46544	3692.6125
1906.58551	3690.8125
1909.70353	3684.4125
1912.81953	3656.8125
1915.93349	3664.8125
1919.04543	3664.1125
1922.15534	3640.1125
1925.26322	3632.9125
1928.36908	3630.0125
1931.47292	3626.7125
1934.57473	3604.3125
1937.67453	3591.7125
1940.77232	3586.1125
1943.86808	3563.4125
1946.96184	3559.9125
1950.05358	3543.6125
1953.14331	3536.7125
1956.23103	3531.5125
1959.31675	3521.3125
1962.40046	3503.9125
1965.48217	3500.3125
1968.56188	3480.5125
1971.63959	3470.1125
1974.7153	3444.7125
1977.78901	3441.1125
1980.86073	3438.2125
1983.93046	3413.2125
1986.99819	3412.5125
1990.06394	3411.7125
1993.1277	3388.2125
1996.18947	3373.6125
1999.24925	3366.6125
2002.30706	3346.2125
2005.36288	3342.0125
2008.41672	3337.7125
2011.46859	3313.0125
2014.51848	3295.7125
2017.56639	3290.1125
2020.61233	3291.6125
2023.6563	3273.6125
2026.6983	3265.8125
2029.73833	3252.4125
2032.7764	3252.9125
2035.8125	3232.7125
2038.84664	3226.2125
2041.87881	3215.9125
2044.90903	3196.7125
2047.93729	3203.6125
2050.96359	3192.7125
2053.98794	3197.3125
2057.01034	3178.7125
2060.03078	3180.6125
2063.04927	3154.8125
2066.06582	3178.0125
2069.08042	3160.5125
2072.09307	3166.2125
2075.10378	3162.4125
2078.11255	3157.9125
2081.11938	3150.0125
2084.12426	3151.4125
2087.12722	3160.6125
2090.12824	3144.8125
2093.12732	3145.3125
2096.12447	3136.5125
2099.11969	3154.2125
2102.11299	3147.5125
2105.10435	3136.4125
2108.09379	3142.0125
2111.08131	3138.1125
2114.0669	3144.0125
2117.05057	3142.6125
2120.03233	3149.3125
2123.01216	3144.2125
2125.99008	3152.8125
2128.96609	3136.1125
2131.94018	3144.3125
2134.91236	3133.9125
2137.88263	3144.3125
2140.851	3135.7125
2143.81746	3143.3125
2146.78201	3142.9125
2149.74466	3144.7125
2152.7054	3132.1125
2155.66425	3121.2125
2158.6212	3126.0125
2161.57625	3127.2125
2164.52941	3127.0125
2167.48067	3129.3125
2170.43004	3113.2125
2173.37752	3116.8125
2176.32311	3114.7125
2179.26681	3100.9125
2182.20863	3095.5125
2185.14856	3099.4125
2188.08661	3102.7125
2191.02278	3104.9125
2193.95707	3088.7125
2196.88948	3078.3125
2199.82001	3073.5125
2202.74867	3072.9125
2205.67545	3060.9125
2208.60037	3059.8125
2211.52341	3056.4125
2214.44458	3040.8125
2217.36388	3037.8125
2220.28132	3042.2125
2223.1969	3024.7125
2226.11061	3012.6125
2229.02246	3003.5125
2231.93245	2993.4125
2234.84058	2988.5125
2237.74686	2987.5125
2240.65128	2977.8125
2243.55385	2981.6125
2246.45456	2972.6125
2249.35343	2958.7125
2252.25044	2961.5125
2255.14561	2944.2125
2258.03893	2955.1125
2260.93041	2953.3125
2263.82004	2926.1125
2266.70783	2912.2125
2269.59378	2914.1125
2272.4779	2904.3125
2275.36017	2899.3125
2278.24061	2893.7125
2281.11922	2889.3125
2283.996	2875.9125
2286.87094	2876.3125
2289.74405	2857.2125
2292.61534	2853.0125
2295.4848	2850.3125
2298.35243	2845.3125
2301.21824	2838.0125
2304.08223	2829.1125
2306.94439	2830.6125
2309.80474	2807.4125
2312.66327	2823.7125
2315.51999	2811.4125
2318.37489	2819.0125
2321.22797	2803.2125
2324.07925	2809.9125
2326.92871	2812.8125
2329.77637	2801.6125
2332.62222	2789.9125
2335.46626	2779.6125
2338.3085	2766.6125
2341.14893	2769.4125
2343.98756	2756.5125
2346.8244	2761.6125
2349.65943	2755.8125
2352.49267	2749.7125
2355.32411	2745.1125
2358.15376	2742.5125
2360.98161	2732.0125
2363.80768	2747.3125
2366.63195	2743.6125
2369.45444	2732.5125
2372.27514	2718.3125
2375.09405	2727.8125
2377.91118	2705.4125
2380.72652	2702.0125
2383.54009	2696.8125
2386.35187	2705.9125
2389.16188	2691.3125
2391.97011	2690.4125
2394.77657	2681.0125
2397.58125	2676.0125
2400.38416	2673.7125
2403.18529	2657.3125
2405.98466	2654.1125
2408.78226	2644.2125
2411.57809	2651.5125
2414.37216	2632.6125
2417.16446	2640.4125
2419.955	2630.1125
2422.74378	2630.4125
2425.5308	2606.4125
2428.31606	2615.6125
2431.09956	2597.2125
2433.88131	2601.2125
2436.6613	2608.1125
2439.43954	2589.7125
2442.21603	2593.0125
2444.99077	2581.8125
2447.76377	2586.4125
2450.53501	2591.0125
2453.30451	2581.5125
2456.07226	2582.5125
2458.83827	2563.3125
2461.60254	2570.4125
2464.36507	2550.6125
2467.12586	2548.4125
2469.88492	2567.0125
2472.64224	2549.7125
2475.39782	2546.9125
2478.15167	2550.2125
2480.90379	2539.3125
2483.65417	2546.1125
2486.40283	2533.9125
2489.14976	2534.4125
2491.89497	2526.1125
2494.63845	2537.0125
2497.3802	2524.8125
2500.12024	2531.7125
2502.85855	2526.3125
2505.59514	2503.3125
2508.33002	2514.8125
2511.06318	2487.8125
2513.79462	2508.8125
2516.52435	2497.5125
2519.25237	2482.5125
2521.97867	2486.6125
2524.70327	2474.6125
2527.42616	2461.9125
2530.14734	2459.5125
2532.86681	2468.8125
2535.58458	2465.1125
2538.30065	2451.0125
2541.01501	2458.0125
2543.72768	2458.7125
2546.43864	2439.4125
2549.14791	2432.3125
2551.85548	2435.3125
2554.56136	2422.8125
2557.26554	2413.4125
2559.96803	2412.0125
2562.66883	2402.2125
2565.36794	2407.1125
2568.06536	2399.6125
2570.7611	2395.0125
2573.45514	2387.2125
2576.14751	2380.4125
2578.83819	2371.4125
2581.52719	2372.9125
2584.21451	2364.1125
2586.90015	2360.0125
2589.58411	2357.9125
2592.2664	2352.1125
2594.94701	2346.6125
2597.62594	2341.1125
2600.30321	2329.8125
2602.9788	2322.9125
2605.65273	2317.3125
2608.32498	2317.4125
2610.99557	2316.0125
2613.66449	2310.3125
2616.33175	2306.3125
2618.99734	2306.0125
2621.66128	2299.1125
2624.32355	2307.5125
2626.98416	2291.6125
2629.64311	2296.2125
2632.30041	2278.9125
2634.95605	2289.2125
2637.61004	2281.2125
2640.26238	2285.2125
2642.91306	2270.9125
2645.56209	2262.5125
2648.20948	2269.9125
2650.85521	2264.6125
2653.4993	2260.0125
2656.14175	2261.6125
2658.78255	2258.1125
2661.42171	2252.0125
2664.05923	2245.0125
2666.6951	2254.5125
2669.32934	2251.2125
2671.96194	2246.7125
2674.59291	2246.3125
2677.22224	2242.8125
2679.84993	2257.5125
2682.476	2249.8125
2685.10043	2240.2125
2687.72324	2240.9125
2690.34441	2250.1125
2692.96396	2245.3125
2695.58188	2238.5125
2698.19818	2249.7125
2700.81285	2241.2125
2703.4259	2248.9125
2706.03733	2278.1125
2708.64714	2260.4125
2711.25533	2258.1125
2713.86191	2245.9125
2716.46687	2244.5125
2719.07021	2244.1125
2721.67194	2242.4125
2724.27206	2230.5125
2726.87057	2239.8125
2729.46747	2242.3125
2732.06276	2235.2125
2734.65644	2237.7125
2737.24852	2223.2125
2739.83899	2230.8125
2742.42786	2227.7125
2745.01513	2208.1125
2747.60079	2230.1125
2750.18486	2214.2125
2752.76733	2207.7125
2755.3482	2204.3125
2757.92747	2207.3125
2760.50515	2207.5125
2763.08123	2205.6125
2765.65573	2196.1125
2768.22863	2187.5125
2770.79994	2185.9125
2773.36967	2185.7125
2775.9378	2188.2125
2778.50435	2181.6125
2781.06932	2169.6125
2783.6327	2163.9125
2786.1945	2155.1125
2788.75471	2153.9125
2791.31335	2146.5125
2793.87041	2136.3125
2796.42589	2139.0125
2798.97979	2130.9125
2801.53212	2127.8125
2804.08288	2124.4125
2806.63206	2130.9125
2809.17967	2115.4125
2811.72571	2115.5125
2814.27018	2118.0125
2816.81308	2101.9125
2819.35442	2105.3125
2821.89419	2095.5125
2824.43239	2098.5125
2826.96904	2091.8125
2829.50412	2091.5125
2832.03763	2083.9125
2834.56959	2086.8125
2837.1	2074.8125
2839.62884	2074.4125
2842.15613	2084.3125
2844.68186	2084.6125
2847.20604	2082.6125
2849.72867	2094.6125
2852.24974	2097.9125
2854.76927	2087.9125
2857.28724	2077.4125
2859.80367	2078.0125
2862.31855	2083.4125
2864.83189	2065.1125
2867.34368	2074.3125
2869.85393	2073.4125
2872.36264	2071.0125
2874.8698	2073.4125
2877.37543	2065.1125
2879.87952	2068.7125
2882.38207	2072.7125
2884.88308	2070.7125
2887.38256	2061.1125
2889.88051	2071.4125
2892.37692	2064.3125
2894.8718	2073.0125
2897.36515	2060.6125
2899.85698	2061.7125
2902.34727	2076.6125
2904.83604	2073.2125
2907.32328	2077.5125
2909.809	2074.3125
2912.29319	2078.8125
2914.77587	2084.5125
2917.25702	2077.9125
2919.73665	2069.0125
2922.21476	2072.1125
2924.69136	2063.9125
2927.16644	2062.5125
2929.64	2067.9125
2932.11205	2066.9125
2934.58258	2067.7125
2937.05161	2070.5125
2939.51912	2073.1125
2941.98513	2067.6125
2944.44962	2062.4125
2946.91261	2052.3125
2949.37409	2057.0125
2951.83407	2068.2125
2954.29254	2059.7125
2956.74951	2062.5125
2959.20498	2053.0125
2961.65895	2059.8125
2964.11142	2051.7125
2966.56239	2047.7125
2969.01186	2039.4125
2971.45984	2032.3125
2973.90632	2026.3125
2976.35131	2025.6125
2978.7948	2031.3125
2981.23681	2018.0125
2983.67732	2023.0125
2986.11635	2013.5125
2988.55388	2014.5125
2990.98993	2007.9125
2993.4245	2006.6125
2995.85758	2006.7125
2998.28917	2005.0125
3000.71928	1995.4125
3003.14791	2002.6125
3005.57506	1996.8125
3008.00073	1997.1125
3010.42493	1992.1125
3012.84764	1989.6125
3015.26888	2001.9125
3017.68865	1997.8125
3020.10694	1996.7125
3022.52376	1990.6125
3024.9391	2001.2125
3027.35298	1986.7125
3029.76539	1983.6125
3032.17632	1999.4125
3034.5858	1994.3125
3036.9938	1992.1125
3039.40034	1993.3125
3041.80542	1999.5125
3044.20903	1988.0125
3046.61118	1998.2125
3049.01187	1989.5125
3051.4111	1988.4125
3053.80888	2000.7125
3056.20519	1991.7125
3058.60005	1982.6125
3060.99345	1991.1125
3063.3854	1995.7125
3065.7759	1987.9125
3068.16494	1989.2125
3070.55254	1980.0125
3072.93868	1978.2125
3075.32338	1996.5125
3077.70662	1990.8125
3080.08842	1991.7125
3082.46878	2007.6125
3084.84769	1998.2125
3087.22515	2004.6125
3089.60118	2008.5125
3091.97576	2016.8125
3094.3489	2005.8125
3096.72061	2011.0125
3099.09087	2016.3125
3101.4597	2027.1125
3103.82709	2027.4125
3106.19305	2034.7125
3108.55757	2043.7125
3110.92066	2035.0125
3113.28232	2026.6125
3115.64255	2021.4125
3118.00134	2027.6125
3120.35871	2046.7125
3122.71466	2038.1125
3125.06917	2054.0125
