Data from AgNPs_FTO_APTES_UA_0.1mM_CRN_1000uM_NaF_0.1M_Addition_RamanShift__16__15-32-47-819.txt Node

Date: Mon Dec 20 15:32:47 GMT 2021
User: TCL
Spectrometer: QEP01345
Trigger mode: 4
Integration Time (sec): 7.000000E0
Scans to average: 10
Electric dark correction enabled: true
Nonlinearity correction enabled: false
Boxcar width: 0
XAxis mode: Raman Shifts
Number of Pixels in Spectrum: 1044
>>>>>Begin Spectral Data<<<<<
46.04893	1.6125
50.45542	-0.1875
54.85868	-0.6875
59.25871	0.1125
63.6555	21.1125
68.04907	21.2125
72.43941	23.2125
76.82654	24.8125
81.21044	23.7125
85.59113	31.3125
89.96862	25.8125
94.34289	29.8125
98.71396	29.8125
103.08183	29.3125
107.4465	32.9125
111.80798	32.7125
116.16626	32.6125
120.52136	32.9125
124.87327	36.0125
129.222	34.3125
133.56755	33.1125
137.90993	35.3125
142.24913	36.8125
146.58517	35.9125
150.91804	47.4125
155.24774	52.1125
159.57429	56.1125
163.89768	71.7125
168.21792	92.4125
172.53501	116.4125
176.84895	152.7125
181.15975	209.6125
185.46741	293.1125
189.77193	398.2125
194.07331	535.6125
198.37157	701.2125
202.6667	875.4125
206.9587	1057.6125
211.24758	1238.6125
215.53334	1420.4125
219.81599	1614.7125
224.09553	1805.0125
228.37195	2023.4125
232.64527	2233.0125
236.91549	2447.0125
241.18261	2649.2125
245.44663	2834.6125
249.70755	2978.4125
253.96539	3110.6125
258.22014	3170.9125
262.4718	3224.3125
266.72039	3220.2125
270.96589	3201.9125
275.20832	3165.8125
279.44768	3085.2125
283.68397	3023.8125
287.91719	2951.9125
292.14735	2884.9125
296.37445	2831.5125
300.59849	2806.7125
304.81948	2781.2125
309.03742	2757.4125
313.25231	2734.0125
317.46415	2715.8125
321.67296	2672.7125
325.87872	2659.8125
330.08145	2647.1125
334.28114	2641.0125
338.47781	2651.3125
342.67145	2649.8125
346.86207	2684.9125
351.04966	2725.5125
355.23424	2742.1125
359.4158	2785.5125
363.59435	2809.9125
367.76989	2821.6125
371.94243	2871.9125
376.11196	2906.1125
380.27849	2937.9125
384.44203	2944.3125
388.60257	2992.3125
392.76012	3020.1125
396.91468	3045.9125
401.06626	3072.0125
405.21485	3084.7125
409.36047	3105.3125
413.50311	3095.7125
417.64277	3091.2125
421.77947	3092.0125
425.9132	3089.4125
430.04396	3101.2125
434.17176	3117.3125
438.2966	3130.4125
442.41849	3128.4125
446.53742	3151.0125
450.6534	3176.9125
454.76644	3202.0125
458.87653	3213.3125
462.98368	3230.3125
467.08789	3237.4125
471.18916	3257.7125
475.2875	3271.1125
479.38291	3286.2125
483.4754	3320.0125
487.56496	3368.9125
491.6516	3424.0125
495.73531	3464.0125
499.81612	3459.9125
503.89401	3453.3125
507.96899	3429.4125
512.04106	3395.5125
516.11023	3376.3125
520.1765	3378.4125
524.23987	3386.3125
528.30034	3383.3125
532.35792	3390.2125
536.41261	3380.4125
540.46441	3334.9125
544.51333	3305.4125
548.55936	3270.0125
552.60252	3238.5125
556.64279	3254.2125
560.6802	3270.5125
564.71473	3265.2125
568.7464	3289.7125
572.7752	3308.1125
576.80114	3322.5125
580.82422	3331.1125
584.84444	3375.1125
588.86181	3407.7125
592.87633	3430.8125
596.888	3435.4125
600.89682	3435.9125
604.9028	3462.6125
608.90594	3568.6125
612.90624	3714.6125
616.90371	3759.0125
620.89834	3697.7125
624.89015	3757.3125
628.87913	3938.1125
632.86528	4154.0125
636.84862	4287.5125
640.82913	4291.0125
644.80683	4173.1125
648.78172	3984.7125
652.75379	3834.4125
656.72306	3743.8125
660.68952	3708.7125
664.65319	3695.2125
668.61405	3734.2125
672.57211	3790.2125
676.52738	3851.3125
680.47986	3900.9125
684.42955	3896.0125
688.37646	3861.9125
692.32058	3810.4125
696.26192	3732.8125
700.20048	3668.9125
704.13626	3619.6125
708.06928	3574.3125
711.99952	3510.2125
715.927	3468.9125
719.85171	3447.6125
723.77365	3444.5125
727.69284	3452.3125
731.60928	3432.6125
735.52295	3396.9125
739.43388	3364.9125
743.34206	3361.0125
747.24749	3357.4125
751.15017	3371.9125
755.05012	3379.9125
758.94733	3384.3125
762.8418	3432.4125
766.73354	3485.5125
770.62254	3524.1125
774.50882	3541.4125
778.39237	3516.6125
782.27321	3429.1125
786.15132	3361.4125
790.02671	3328.1125
793.89938	3336.0125
797.76935	3345.4125
801.6366	3371.9125
805.50115	3427.0125
809.36299	3498.4125
813.22213	3551.9125
817.07857	3521.3125
820.93231	3433.1125
824.78336	3337.5125
828.63172	3253.1125
832.47738	3188.8125
836.32036	3165.3125
840.16066	3148.4125
843.99827	3148.9125
847.8332	3142.3125
851.66546	3127.4125
855.49504	3128.8125
859.32195	3143.3125
863.1462	3166.8125
866.96777	3184.2125
870.78668	3212.1125
874.60293	3245.4125
878.41652	3292.5125
882.22745	3344.0125
886.03573	3388.2125
889.84136	3408.1125
893.64433	3362.9125
897.44466	3297.9125
901.24235	3224.2125
905.0374	3150.3125
908.8298	3122.3125
912.61957	3084.8125
916.40671	3045.6125
920.19121	3043.6125
923.97308	3037.8125
927.75233	3044.4125
931.52895	3037.1125
935.30295	3045.5125
939.07433	3028.7125
942.84309	3012.2125
946.60924	2994.4125
950.37278	2988.3125
954.13371	2984.7125
957.89203	2963.0125
961.64774	2961.5125
965.40086	2947.1125
969.15137	2946.1125
972.89929	2913.5125
976.64461	2918.1125
980.38733	2914.7125
984.12747	2920.7125
987.86502	2910.5125
991.59999	2916.1125
995.33237	2925.5125
999.06217	2951.9125
1002.78939	2978.9125
1006.51404	3008.2125
1010.23611	3042.0125
1013.95561	3065.4125
1017.67255	3071.4125
1021.38692	3060.1125
1025.09872	3033.4125
1028.80796	3003.6125
1032.51465	2976.6125
1036.21877	2960.5125
1039.92035	2938.8125
1043.61937	2927.2125
1047.31584	2944.0125
1051.00976	2947.6125
1054.70114	2972.1125
1058.38998	2971.4125
1062.07627	2990.3125
1065.76003	3011.0125
1069.44126	3034.8125
1073.11995	3051.9125
1076.79611	3073.0125
1080.46974	3059.8125
1084.14085	3027.0125
1087.80943	2979.3125
1091.47549	2964.5125
1095.13903	2940.9125
1098.80005	2915.2125
1102.45857	2906.6125
1106.11456	2908.6125
1109.76805	2916.4125
1113.41903	2979.2125
1117.06751	3043.1125
1120.71348	3151.6125
1124.35696	3299.9125
1127.99793	3500.7125
1131.63641	3698.7125
1135.2724	3788.6125
1138.90589	3797.4125
1142.5369	3718.7125
1146.16542	3564.5125
1149.79145	3383.7125
1153.415	3222.7125
1157.03607	3109.6125
1160.65467	3024.8125
1164.27079	2992.0125
1167.88443	2962.8125
1171.49561	2992.6125
1175.10432	3033.4125
1178.71056	3092.3125
1182.31434	3146.5125
1185.91565	3175.9125
1189.51451	3209.0125
1193.11091	3224.6125
1196.70485	3245.1125
1200.29634	3272.2125
1203.88538	3290.2125
1207.47197	3264.8125
1211.05612	3212.2125
1214.63782	3141.9125
1218.21708	3084.6125
1221.79391	3008.0125
1225.36829	2965.4125
1228.94024	2940.0125
1232.50976	2918.9125
1236.07685	2912.6125
1239.6415	2922.6125
1243.20374	2929.0125
1246.76355	2964.4125
1250.32093	2964.0125
1253.8759	2975.2125
1257.42845	2977.2125
1260.97859	3001.2125
1264.52631	3005.6125
1268.07163	2997.6125
1271.61453	3001.2125
1275.15503	2991.9125
1278.69312	2979.6125
1282.22882	2975.8125
1285.76211	2977.5125
1289.29301	2980.5125
1292.82151	3006.6125
1296.34761	3036.0125
1299.87133	3084.1125
1303.39266	3150.1125
1306.9116	3199.1125
1310.42815	3285.5125
1313.94233	3362.9125
1317.45412	3363.3125
1320.96354	3368.8125
1324.47058	3345.0125
1327.97525	3341.8125
1331.47754	3326.4125
1334.97747	3338.2125
1338.47502	3353.6125
1341.97022	3393.2125
1345.46305	3460.5125
1348.95352	3534.3125
1352.44163	3608.5125
1355.92738	3694.3125
1359.41078	3778.0125
1362.89183	3877.6125
1366.37053	3866.7125
1369.84688	3757.3125
1373.32088	3613.4125
1376.79254	3489.1125
1380.26186	3411.5125
1383.72883	3341.5125
1387.19347	3295.0125
1390.65578	3227.1125
1394.11575	3177.1125
1397.57339	3141.2125
1401.0287	3097.8125
1404.48168	3066.6125
1407.93234	3032.5125
1411.38068	2998.2125
1414.82669	2957.3125
1418.27039	2920.2125
1421.71177	2880.7125
1425.15083	2820.6125
1428.58758	2780.2125
1432.02203	2729.9125
1435.45416	2679.2125
1438.88399	2643.8125
1442.31151	2617.7125
1445.73673	2631.7125
1449.15965	2615.7125
1452.58027	2609.9125
1455.9986	2595.0125
1459.41463	2604.7125
1462.82837	2620.7125
1466.23982	2628.6125
1469.64898	2636.2125
1473.05586	2663.1125
1476.46045	2672.2125
1479.86276	2678.5125
1483.26279	2685.1125
1486.66054	2699.9125
1490.05602	2706.0125
1493.44922	2733.4125
1496.84016	2756.2125
1500.22882	2825.4125
1503.61521	2894.8125
1506.99934	2989.0125
1510.38121	3068.7125
1513.76081	3082.9125
1517.13816	3040.9125
1520.51324	2953.4125
1523.88607	2880.7125
1527.25665	2838.1125
1530.62498	2812.3125
1533.99105	2796.8125
1537.35488	2818.1125
1540.71647	2809.7125
1544.07581	2848.1125
1547.4329	2847.8125
1550.78776	2858.3125
1554.14038	2884.0125
1557.49077	2898.3125
1560.83892	2912.7125
1564.18484	2912.0125
1567.52853	2933.7125
1570.86999	2953.2125
1574.20922	2984.8125
1577.54624	2983.0125
1580.88103	2999.9125
1584.2136	2973.5125
1587.54395	2932.1125
1590.87208	2905.5125
1594.19801	2904.3125
1597.52172	2913.7125
1600.84321	2920.0125
1604.16251	2918.2125
1607.47959	2911.7125
1610.79447	2894.9125
1614.10715	2868.8125
1617.41763	2851.9125
1620.7259	2836.1125
1624.03199	2818.2125
1627.33587	2826.0125
1630.63757	2830.1125
1633.93707	2844.7125
1637.23439	2872.8125
1640.52951	2928.2125
1643.82246	3005.1125
1647.11321	3087.4125
1650.40179	3164.1125
1653.68819	3179.5125
1656.97241	3135.1125
1660.25446	3075.8125
1663.53433	3036.2125
1666.81203	3011.8125
1670.08756	3004.4125
1673.36092	3006.2125
1676.63211	2998.9125
1679.90115	2999.8125
1683.16801	2971.2125
1686.43272	2933.6125
1689.69527	2894.0125
1692.95567	2847.2125
1696.2139	2778.8125
1699.46999	2733.6125
1702.72392	2661.9125
1705.97571	2591.4125
1709.22535	2516.0125
1712.47284	2473.9125
1715.71819	2431.2125
1718.96139	2406.0125
1722.20246	2378.1125
1725.44139	2350.6125
1728.67818	2327.4125
1731.91284	2295.6125
1735.14537	2276.8125
1738.37576	2249.6125
1741.60403	2228.2125
1744.83017	2222.4125
1748.05418	2228.6125
1751.27607	2230.7125
1754.49584	2245.0125
1757.71349	2253.7125
1760.92903	2236.5125
1764.14244	2235.6125
1767.35375	2212.6125
1770.56294	2170.6125
1773.77002	2146.5125
1776.97499	2110.5125
1780.17785	2074.2125
1783.37861	2042.6125
1786.57727	2026.4125
1789.77382	1983.0125
1792.96828	1962.0125
1796.16064	1955.9125
1799.3509	1929.6125
1802.53907	1914.5125
1805.72514	1905.3125
1808.90913	1897.2125
1812.09102	1895.8125
1815.27083	1874.0125
1818.44856	1870.3125
1821.6242	1864.1125
1824.79776	1858.8125
1827.96924	1854.6125
1831.13864	1850.1125
1834.30597	1847.1125
1837.47122	1835.0125
1840.6344	1831.8125
1843.7955	1831.8125
1846.95454	1839.5125
1850.11151	1829.8125
1853.26642	1817.2125
1856.41926	1812.1125
1859.57004	1814.0125
1862.71876	1799.5125
1865.86542	1808.5125
1869.01003	1791.2125
1872.15258	1782.5125
1875.29308	1792.6125
1878.43152	1783.1125
1881.56792	1784.7125
1884.70227	1776.1125
1887.83457	1776.2125
1890.96482	1767.6125
1894.09304	1756.1125
1897.21921	1771.7125
1900.34335	1752.2125
1903.46544	1761.3125
1906.58551	1750.1125
1909.70353	1756.2125
1912.81953	1750.7125
1915.93349	1744.7125
1919.04543	1735.7125
1922.15534	1741.3125
1925.26322	1737.1125
1928.36908	1725.7125
1931.47292	1721.7125
1934.57473	1715.4125
1937.67453	1700.8125
1940.77232	1696.6125
1943.86808	1702.7125
1946.96184	1685.2125
1950.05358	1681.4125
1953.14331	1682.8125
1956.23103	1664.3125
1959.31675	1663.8125
1962.40046	1663.5125
1965.48217	1649.9125
1968.56188	1647.8125
1971.63959	1650.4125
1974.7153	1632.3125
1977.78901	1631.8125
1980.86073	1629.4125
1983.93046	1622.4125
1986.99819	1608.2125
1990.06394	1596.7125
1993.1277	1603.9125
1996.18947	1599.7125
1999.24925	1587.5125
2002.30706	1578.3125
2005.36288	1570.7125
2008.41672	1567.2125
2011.46859	1569.0125
2014.51848	1563.4125
2017.56639	1562.2125
2020.61233	1539.6125
2023.6563	1546.9125
2026.6983	1542.1125
2029.73833	1535.2125
2032.7764	1529.8125
2035.8125	1520.3125
2038.84664	1513.7125
2041.87881	1519.8125
2044.90903	1515.8125
2047.93729	1510.5125
2050.96359	1507.0125
2053.98794	1506.2125
2057.01034	1501.9125
2060.03078	1496.3125
2063.04927	1502.8125
2066.06582	1488.7125
2069.08042	1491.7125
2072.09307	1490.2125
2075.10378	1494.2125
2078.11255	1471.5125
2081.11938	1474.8125
2084.12426	1480.4125
2087.12722	1483.1125
2090.12824	1476.5125
2093.12732	1481.1125
2096.12447	1482.5125
2099.11969	1481.2125
2102.11299	1480.0125
2105.10435	1475.6125
2108.09379	1472.5125
2111.08131	1474.1125
2114.0669	1471.3125
2117.05057	1482.4125
2120.03233	1479.3125
2123.01216	1469.0125
2125.99008	1470.9125
2128.96609	1466.0125
2131.94018	1475.2125
2134.91236	1478.3125
2137.88263	1475.7125
2140.851	1474.9125
2143.81746	1480.9125
2146.78201	1472.6125
2149.74466	1471.2125
2152.7054	1472.7125
2155.66425	1468.2125
2158.6212	1468.8125
2161.57625	1462.3125
2164.52941	1468.3125
2167.48067	1465.9125
2170.43004	1467.9125
2173.37752	1453.6125
2176.32311	1456.2125
2179.26681	1460.1125
2182.20863	1460.2125
2185.14856	1446.2125
2188.08661	1451.2125
2191.02278	1451.9125
2193.95707	1450.0125
2196.88948	1445.9125
2199.82001	1444.3125
2202.74867	1440.4125
2205.67545	1430.5125
2208.60037	1430.1125
2211.52341	1428.4125
2214.44458	1420.2125
2217.36388	1420.9125
2220.28132	1426.4125
2223.1969	1412.0125
2226.11061	1407.9125
2229.02246	1394.7125
2231.93245	1400.0125
2234.84058	1400.3125
2237.74686	1401.5125
2240.65128	1390.2125
2243.55385	1385.0125
2246.45456	1374.3125
2249.35343	1380.6125
2252.25044	1379.4125
2255.14561	1370.4125
2258.03893	1383.2125
2260.93041	1380.5125
2263.82004	1370.8125
2266.70783	1368.3125
2269.59378	1365.1125
2272.4779	1358.9125
2275.36017	1349.3125
2278.24061	1345.6125
2281.11922	1346.2125
2283.996	1344.1125
2286.87094	1339.0125
2289.74405	1335.9125
2292.61534	1324.6125
2295.4848	1336.4125
2298.35243	1321.8125
2301.21824	1316.0125
2304.08223	1320.3125
2306.94439	1320.2125
2309.80474	1309.1125
2312.66327	1318.2125
2315.51999	1314.4125
2318.37489	1305.2125
2321.22797	1302.4125
2324.07925	1302.8125
2326.92871	1303.0125
2329.77637	1300.5125
2332.62222	1297.1125
2335.46626	1292.1125
2338.3085	1293.3125
2341.14893	1285.4125
2343.98756	1289.6125
2346.8244	1271.3125
2349.65943	1265.5125
2352.49267	1277.5125
2355.32411	1276.5125
2358.15376	1271.7125
2360.98161	1269.2125
2363.80768	1271.0125
2366.63195	1272.3125
2369.45444	1263.6125
2372.27514	1267.5125
2375.09405	1264.7125
2377.91118	1257.0125
2380.72652	1253.1125
2383.54009	1248.7125
2386.35187	1256.0125
2389.16188	1245.5125
2391.97011	1240.7125
2394.77657	1230.9125
2397.58125	1236.2125
2400.38416	1236.8125
2403.18529	1230.4125
2405.98466	1232.6125
2408.78226	1224.6125
2411.57809	1224.9125
2414.37216	1220.6125
2417.16446	1223.3125
2419.955	1218.9125
2422.74378	1215.7125
2425.5308	1211.2125
2428.31606	1202.9125
2431.09956	1206.8125
2433.88131	1201.0125
2436.6613	1207.7125
2439.43954	1197.0125
2442.21603	1194.8125
2444.99077	1184.3125
2447.76377	1191.0125
2450.53501	1194.0125
2453.30451	1187.3125
2456.07226	1187.7125
2458.83827	1178.9125
2461.60254	1176.8125
2464.36507	1173.5125
2467.12586	1180.8125
2469.88492	1177.8125
2472.64224	1173.9125
2475.39782	1179.1125
2478.15167	1182.7125
2480.90379	1184.2125
2483.65417	1169.9125
2486.40283	1169.8125
2489.14976	1169.1125
2491.89497	1163.1125
2494.63845	1171.9125
2497.3802	1163.4125
2500.12024	1153.9125
2502.85855	1154.8125
2505.59514	1158.5125
2508.33002	1154.0125
2511.06318	1151.8125
2513.79462	1147.7125
2516.52435	1143.0125
2519.25237	1141.6125
2521.97867	1134.9125
2524.70327	1132.8125
2527.42616	1131.6125
2530.14734	1138.6125
2532.86681	1133.1125
2535.58458	1131.4125
2538.30065	1121.8125
2541.01501	1123.9125
2543.72768	1126.4125
2546.43864	1112.9125
2549.14791	1109.9125
2551.85548	1108.4125
2554.56136	1114.2125
2557.26554	1107.4125
2559.96803	1102.9125
2562.66883	1101.0125
2565.36794	1097.9125
2568.06536	1094.5125
2570.7611	1100.0125
2573.45514	1092.8125
2576.14751	1094.8125
2578.83819	1083.0125
2581.52719	1088.5125
2584.21451	1085.8125
2586.90015	1079.3125
2589.58411	1073.8125
2592.2664	1072.3125
2594.94701	1066.0125
2597.62594	1073.2125
2600.30321	1062.5125
2602.9788	1066.0125
2605.65273	1055.6125
2608.32498	1059.7125
2610.99557	1055.2125
2613.66449	1046.4125
2616.33175	1045.0125
2618.99734	1045.7125
2621.66128	1052.3125
2624.32355	1046.2125
2626.98416	1047.9125
2629.64311	1040.3125
2632.30041	1038.7125
2634.95605	1040.6125
2637.61004	1039.8125
2640.26238	1037.2125
2642.91306	1035.2125
2645.56209	1038.2125
2648.20948	1039.2125
2650.85521	1034.9125
2653.4993	1026.2125
2656.14175	1026.7125
2658.78255	1027.7125
2661.42171	1027.3125
2664.05923	1021.1125
2666.6951	1023.7125
2669.32934	1028.5125
2671.96194	1029.6125
2674.59291	1027.0125
2677.22224	1027.1125
2679.84993	1018.6125
2682.476	1018.5125
2685.10043	1023.6125
2687.72324	1018.8125
2690.34441	1017.2125
2692.96396	1014.4125
2695.58188	1023.8125
2698.19818	1026.3125
2700.81285	1020.8125
2703.4259	1030.3125
2706.03733	1062.7125
2708.64714	1042.8125
2711.25533	1020.5125
2713.86191	1024.6125
2716.46687	1030.1125
2719.07021	1027.3125
2721.67194	1010.8125
2724.27206	1010.4125
2726.87057	1020.5125
2729.46747	1019.6125
2732.06276	1012.7125
2734.65644	1013.2125
2737.24852	1007.2125
2739.83899	1001.1125
2742.42786	999.4125
2745.01513	1000.7125
2747.60079	1016.1125
2750.18486	1001.5125
2752.76733	1006.3125
2755.3482	1006.8125
2757.92747	997.1125
2760.50515	994.4125
2763.08123	994.6125
2765.65573	992.9125
2768.22863	995.6125
2770.79994	984.9125
2773.36967	988.5125
2775.9378	991.5125
2778.50435	980.9125
2781.06932	986.6125
2783.6327	979.0125
2786.1945	981.9125
2788.75471	976.3125
2791.31335	979.1125
2793.87041	966.6125
2796.42589	969.0125
2798.97979	973.4125
2801.53212	971.1125
2804.08288	970.1125
2806.63206	963.8125
2809.17967	959.4125
2811.72571	959.3125
2814.27018	959.4125
2816.81308	965.3125
2819.35442	962.0125
2821.89419	953.4125
2824.43239	957.5125
2826.96904	953.8125
2829.50412	958.8125
2832.03763	955.6125
2834.56959	955.5125
2837.1	947.1125
2839.62884	958.6125
2842.15613	954.4125
2844.68186	950.3125
2847.20604	955.5125
2849.72867	960.2125
2852.24974	956.6125
2854.76927	957.9125
2857.28724	965.3125
2859.80367	949.3125
2862.31855	946.2125
2864.83189	945.4125
2867.34368	940.7125
2869.85393	947.1125
2872.36264	940.9125
2874.8698	956.7125
2877.37543	943.9125
2879.87952	950.0125
2882.38207	949.8125
2884.88308	951.5125
2887.38256	951.0125
2889.88051	955.2125
2892.37692	953.5125
2894.8718	956.7125
2897.36515	958.0125
2899.85698	964.8125
2902.34727	962.3125
2904.83604	972.1125
2907.32328	977.3125
2909.809	971.7125
2912.29319	981.2125
2914.77587	975.9125
2917.25702	979.8125
2919.73665	990.8125
2922.21476	988.2125
2924.69136	986.7125
2927.16644	989.4125
2929.64	996.2125
2932.11205	995.6125
2934.58258	1003.7125
2937.05161	995.4125
2939.51912	998.4125
2941.98513	999.6125
2944.44962	998.7125
2946.91261	998.9125
2949.37409	1008.8125
2951.83407	1000.9125
2954.29254	1003.8125
2956.74951	998.8125
2959.20498	997.0125
2961.65895	989.8125
2964.11142	991.9125
2966.56239	982.8125
2969.01186	982.5125
2971.45984	977.1125
2973.90632	967.7125
2976.35131	975.8125
2978.7948	971.5125
2981.23681	964.3125
2983.67732	954.7125
2986.11635	962.7125
2988.55388	958.7125
2990.98993	957.3125
2993.4245	955.1125
2995.85758	950.2125
2998.28917	950.1125
3000.71928	949.8125
3003.14791	955.3125
3005.57506	946.7125
3008.00073	952.3125
3010.42493	952.6125
3012.84764	960.4125
3015.26888	957.7125
3017.68865	953.0125
3020.10694	958.1125
3022.52376	948.8125
3024.9391	954.3125
3027.35298	947.6125
3029.76539	946.1125
3032.17632	952.5125
3034.5858	948.0125
3036.9938	944.8125
3039.40034	953.1125
3041.80542	946.6125
3044.20903	951.1125
3046.61118	951.3125
3049.01187	948.7125
3051.4111	947.4125
3053.80888	955.3125
3056.20519	952.0125
3058.60005	944.5125
3060.99345	960.1125
3063.3854	955.3125
3065.7759	960.6125
3068.16494	958.5125
3070.55254	959.4125
3072.93868	961.1125
3075.32338	966.6125
3077.70662	960.8125
3080.08842	959.6125
3082.46878	974.5125
3084.84769	969.3125
3087.22515	982.2125
3089.60118	981.2125
3091.97576	981.2125
3094.3489	984.9125
3096.72061	986.7125
3099.09087	993.3125
3101.4597	1000.7125
3103.82709	996.8125
3106.19305	994.5125
3108.55757	1005.9125
3110.92066	1006.7125
3113.28232	1010.1125
3115.64255	1018.0125
3118.00134	1025.6125
3120.35871	1023.0125
3122.71466	1019.1125
3125.06917	1022.8125
3127.42226	1017.4125
3129.77393	1041.3125
3132.12417	1040.8125
3134.47299	1052.3125
3136.82039	1046.2125
3139.16636	1060.4125
3141.51092	1063.8125
