Data from AgNPs_FTO_APTES_UA_0.1mM_CRN_0uM_NaF_0.1M_Addition_RamanShift__18__10-23-37-470.txt Node

Date: Mon Dec 20 10:23:37 GMT 2021
User: TCL
Spectrometer: QEP01345
Trigger mode: 4
Integration Time (sec): 7.000000E0
Scans to average: 10
Electric dark correction enabled: true
Nonlinearity correction enabled: false
Boxcar width: 0
XAxis mode: Raman Shifts
Number of Pixels in Spectrum: 1044
>>>>>Begin Spectral Data<<<<<
46.04893	-0.35
50.45542	0.65
54.85868	-1.55
59.25871	0.95
63.6555	22.15
68.04907	24.45
72.43941	23.55
76.82654	27.45
81.21044	28.25
85.59113	36.25
89.96862	28.65
94.34289	34.45
98.71396	33.55
103.08183	31.55
107.4465	33.75
111.80798	36.75
116.16626	34.05
120.52136	37.65
124.87327	39.05
129.222	37.45
133.56755	38.25
137.90993	39.75
142.24913	37.65
146.58517	40.85
150.91804	50.05
155.24774	54.25
159.57429	63.35
163.89768	77.85
168.21792	98.65
172.53501	120.85
176.84895	161.45
181.15975	222.85
185.46741	301.25
189.77193	416.65
194.07331	552.65
198.37157	710.15
202.6667	883.25
206.9587	1057.25
211.24758	1229.35
215.53334	1389.45
219.81599	1565.35
224.09553	1742.75
228.37195	1927.35
232.64527	2119.55
236.91549	2326.15
241.18261	2524.35
245.44663	2709.65
249.70755	2879.25
253.96539	3029.55
258.22014	3139.75
262.4718	3223.35
266.72039	3275.55
270.96589	3288.65
275.20832	3263.95
279.44768	3217.65
283.68397	3149.35
287.91719	3088.95
292.14735	3043.75
296.37445	3011.95
300.59849	2988.05
304.81948	2994.25
309.03742	2981.85
313.25231	2963.35
317.46415	2912.05
321.67296	2844.65
325.87872	2794.05
330.08145	2771.65
334.28114	2768.55
338.47781	2765.85
342.67145	2796.15
346.86207	2828.35
351.04966	2893.95
355.23424	2950.95
359.4158	3001.75
363.59435	3046.15
367.76989	3098.45
371.94243	3132.05
376.11196	3166.55
380.27849	3193.65
384.44203	3225.85
388.60257	3249.75
392.76012	3262.65
396.91468	3283.25
401.06626	3302.65
405.21485	3339.05
409.36047	3315.45
413.50311	3279.75
417.64277	3229.85
421.77947	3216.55
425.9132	3196.45
430.04396	3206.85
434.17176	3220.95
438.2966	3243.45
442.41849	3262.15
446.53742	3281.05
450.6534	3316.55
454.76644	3339.15
458.87653	3347.55
462.98368	3347.45
467.08789	3354.95
471.18916	3363.75
475.2875	3366.55
479.38291	3394.75
483.4754	3433.15
487.56496	3492.85
491.6516	3569.15
495.73531	3619.05
499.81612	3607.55
503.89401	3577.05
507.96899	3523.15
512.04106	3517.45
516.11023	3497.15
520.1765	3527.75
524.23987	3567.85
528.30034	3578.65
532.35792	3553.15
536.41261	3540.65
540.46441	3471.25
544.51333	3433.15
548.55936	3418.25
552.60252	3403.55
556.64279	3421.15
560.6802	3431.95
564.71473	3426.75
568.7464	3455.15
572.7752	3465.55
576.80114	3465.35
580.82422	3458.05
584.84444	3478.05
588.86181	3527.55
592.87633	3564.35
596.888	3568.95
600.89682	3575.75
604.9028	3627.75
608.90594	3861.45
612.90624	4261.55
616.90371	4354.55
620.89834	4066.25
624.89015	3999.75
628.87913	4206.55
632.86528	4420.25
636.84862	4575.05
640.82913	4520.45
644.80683	4338.25
648.78172	4107.35
652.75379	3939.15
656.72306	3848.65
660.68952	3843.55
664.65319	3830.35
668.61405	3830.35
672.57211	3841.15
676.52738	3889.95
680.47986	3934.45
684.42955	3967.25
688.37646	4020.05
692.32058	3997.65
696.26192	3896.05
700.20048	3823.65
704.13626	3758.95
708.06928	3718.95
711.99952	3680.75
715.927	3627.55
719.85171	3603.25
723.77365	3608.95
727.69284	3598.45
731.60928	3569.35
735.52295	3527.25
739.43388	3485.35
743.34206	3485.85
747.24749	3482.35
751.15017	3486.05
755.05012	3476.75
758.94733	3500.15
762.8418	3575.95
766.73354	3708.75
770.62254	3870.65
774.50882	4004.65
778.39237	3950.65
782.27321	3793.25
786.15132	3647.55
790.02671	3582.45
793.89938	3588.05
797.76935	3602.65
801.6366	3659.75
805.50115	3768.65
809.36299	3871.75
813.22213	3930.15
817.07857	3842.15
820.93231	3698.75
824.78336	3559.45
828.63172	3479.05
832.47738	3424.25
836.32036	3420.95
840.16066	3389.15
843.99827	3375.85
847.8332	3380.55
851.66546	3368.65
855.49504	3352.15
859.32195	3345.55
863.1462	3348.65
866.96777	3355.85
870.78668	3395.35
874.60293	3432.65
878.41652	3507.95
882.22745	3597.55
886.03573	3639.35
889.84136	3658.55
893.64433	3610.85
897.44466	3520.55
901.24235	3415.65
905.0374	3344.15
908.8298	3307.45
912.61957	3301.45
916.40671	3323.95
920.19121	3336.95
923.97308	3368.25
927.75233	3380.85
931.52895	3363.45
935.30295	3349.85
939.07433	3335.35
942.84309	3292.45
946.60924	3278.35
950.37278	3261.25
954.13371	3242.25
957.89203	3219.25
961.64774	3192.75
965.40086	3160.85
969.15137	3126.15
972.89929	3106.55
976.64461	3088.65
980.38733	3076.45
984.12747	3065.95
987.86502	3058.25
991.59999	3081.15
995.33237	3112.95
999.06217	3143.05
1002.78939	3192.15
1006.51404	3244.35
1010.23611	3297.05
1013.95561	3337.45
1017.67255	3337.05
1021.38692	3338.05
1025.09872	3287.35
1028.80796	3238.25
1032.51465	3176.15
1036.21877	3153.65
1039.92035	3110.45
1043.61937	3080.45
1047.31584	3068.15
1051.00976	3062.05
1054.70114	3059.85
1058.38998	3074.05
1062.07627	3098.05
1065.76003	3109.45
1069.44126	3116.45
1073.11995	3126.85
1076.79611	3132.65
1080.46974	3111.25
1084.14085	3099.85
1087.80943	3082.55
1091.47549	3073.45
1095.13903	3041.65
1098.80005	3022.35
1102.45857	2986.95
1106.11456	2986.55
1109.76805	3018.45
1113.41903	3070.85
1117.06751	3169.45
1120.71348	3309.15
1124.35696	3508.55
1127.99793	3750.05
1131.63641	3967.05
1135.2724	4050.05
1138.90589	4036.15
1142.5369	3902.55
1146.16542	3681.95
1149.79145	3476.05
1153.415	3303.95
1157.03607	3169.55
1160.65467	3101.05
1164.27079	3058.25
1167.88443	3071.55
1171.49561	3108.15
1175.10432	3195.35
1178.71056	3340.15
1182.31434	3476.45
1185.91565	3550.55
1189.51451	3555.15
1193.11091	3536.65
1196.70485	3552.65
1200.29634	3593.05
1203.88538	3613.25
1207.47197	3560.85
1211.05612	3445.65
1214.63782	3338.65
1218.21708	3224.65
1221.79391	3145.65
1225.36829	3091.55
1228.94024	3055.25
1232.50976	3041.85
1236.07685	3036.35
1239.6415	3047.55
1243.20374	3045.45
1246.76355	3060.35
1250.32093	3082.95
1253.8759	3089.35
1257.42845	3125.95
1260.97859	3146.45
1264.52631	3181.95
1268.07163	3201.25
1271.61453	3216.55
1275.15503	3235.35
1278.69312	3226.55
1282.22882	3228.35
1285.76211	3238.05
1289.29301	3272.85
1292.82151	3311.35
1296.34761	3378.55
1299.87133	3450.55
1303.39266	3571.95
1306.9116	3730.55
1310.42815	3905.45
1313.94233	4030.65
1317.45412	4020.05
1320.96354	3930.15
1324.47058	3822.35
1327.97525	3730.05
1331.47754	3692.95
1334.97747	3724.95
1338.47502	3768.25
1341.97022	3844.95
1345.46305	3977.55
1348.95352	4132.75
1352.44163	4349.65
1355.92738	4592.15
1359.41078	4916.75
1362.89183	5231.95
1366.37053	5264.95
1369.84688	4921.55
1373.32088	4549.35
1376.79254	4264.85
1380.26186	4094.55
1383.72883	3978.55
1387.19347	3884.55
1390.65578	3781.75
1394.11575	3696.15
1397.57339	3614.15
1401.0287	3546.55
1404.48168	3461.25
1407.93234	3380.85
1411.38068	3318.15
1414.82669	3236.45
1418.27039	3175.55
1421.71177	3114.45
1425.15083	3071.55
1428.58758	3034.05
1432.02203	2999.15
1435.45416	2978.65
1438.88399	2965.55
1442.31151	2943.65
1445.73673	2943.85
1449.15965	2926.35
1452.58027	2912.25
1455.9986	2909.65
1459.41463	2914.15
1462.82837	2913.85
1466.23982	2922.75
1469.64898	2961.15
1473.05586	2975.85
1476.46045	3013.35
1479.86276	3024.45
1483.26279	3054.15
1486.66054	3071.55
1490.05602	3097.45
1493.44922	3158.25
1496.84016	3226.35
1500.22882	3356.35
1503.61521	3552.95
1506.99934	3781.45
1510.38121	3975.55
1513.76081	4069.95
1517.13816	3957.55
1520.51324	3704.45
1523.88607	3435.35
1527.25665	3269.65
1530.62498	3192.95
1533.99105	3162.45
1537.35488	3145.05
1540.71647	3157.35
1544.07581	3184.65
1547.4329	3215.55
1550.78776	3263.55
1554.14038	3302.35
1557.49077	3336.95
1560.83892	3358.65
1564.18484	3385.65
1567.52853	3419.55
1570.86999	3432.75
1574.20922	3437.05
1577.54624	3421.15
1580.88103	3373.55
1584.2136	3273.45
1587.54395	3223.85
1590.87208	3177.15
1594.19801	3186.15
1597.52172	3229.95
1600.84321	3267.95
1604.16251	3263.35
1607.47959	3236.35
1610.79447	3217.35
1614.10715	3184.85
1617.41763	3149.55
1620.7259	3133.45
1624.03199	3109.65
1627.33587	3108.35
1630.63757	3104.35
1633.93707	3124.45
1637.23439	3165.15
1640.52951	3214.75
1643.82246	3322.95
1647.11321	3486.05
1650.40179	3630.75
1653.68819	3640.85
1656.97241	3505.55
1660.25446	3316.75
1663.53433	3167.15
1666.81203	3084.05
1670.08756	3020.25
1673.36092	2977.15
1676.63211	2964.85
1679.90115	2953.65
1683.16801	2920.15
1686.43272	2888.35
1689.69527	2843.75
1692.95567	2812.65
1696.2139	2771.65
1699.46999	2697.65
1702.72392	2634.55
1705.97571	2562.45
1709.22535	2483.45
1712.47284	2435.05
1715.71819	2379.25
1718.96139	2324.45
1722.20246	2271.65
1725.44139	2214.15
1728.67818	2166.85
1731.91284	2125.55
1735.14537	2081.55
1738.37576	2044.75
1741.60403	2023.15
1744.83017	2005.55
1748.05418	1982.65
1751.27607	1974.05
1754.49584	1946.35
1757.71349	1940.75
1760.92903	1933.25
1764.14244	1921.55
1767.35375	1920.05
1770.56294	1901.75
1773.77002	1884.65
1776.97499	1874.35
1780.17785	1864.75
1783.37861	1842.35
1786.57727	1841.85
1789.77382	1821.15
1792.96828	1807.05
1796.16064	1799.65
1799.3509	1786.05
1802.53907	1769.35
1805.72514	1764.95
1808.90913	1754.55
1812.09102	1748.15
1815.27083	1736.35
1818.44856	1743.35
1821.6242	1735.65
1824.79776	1728.85
1827.96924	1719.75
1831.13864	1712.15
1834.30597	1710.25
1837.47122	1708.05
1840.6344	1698.25
1843.7955	1701.15
1846.95454	1700.15
1850.11151	1691.15
1853.26642	1681.05
1856.41926	1686.55
1859.57004	1670.85
1862.71876	1673.75
1865.86542	1669.65
1869.01003	1657.65
1872.15258	1663.05
1875.29308	1651.65
1878.43152	1647.15
1881.56792	1652.35
1884.70227	1645.65
1887.83457	1646.65
1890.96482	1637.15
1894.09304	1634.05
1897.21921	1630.45
1900.34335	1625.95
1903.46544	1625.95
1906.58551	1632.55
1909.70353	1620.25
1912.81953	1615.35
1915.93349	1602.35
1919.04543	1597.75
1922.15534	1597.25
1925.26322	1600.45
1928.36908	1584.05
1931.47292	1583.25
1934.57473	1573.65
1937.67453	1567.45
1940.77232	1562.35
1943.86808	1558.95
1946.96184	1559.35
1950.05358	1536.45
1953.14331	1541.65
1956.23103	1536.75
1959.31675	1536.25
1962.40046	1520.85
1965.48217	1518.35
1968.56188	1515.55
1971.63959	1512.75
1974.7153	1506.15
1977.78901	1491.65
1980.86073	1489.15
1983.93046	1495.95
1986.99819	1478.45
1990.06394	1475.65
1993.1277	1480.15
1996.18947	1470.95
1999.24925	1458.65
2002.30706	1454.75
2005.36288	1446.45
2008.41672	1434.55
2011.46859	1441.05
2014.51848	1430.75
2017.56639	1430.85
2020.61233	1427.05
2023.6563	1416.65
2026.6983	1410.45
2029.73833	1412.05
2032.7764	1404.45
2035.8125	1397.05
2038.84664	1392.15
2041.87881	1397.65
2044.90903	1388.25
2047.93729	1381.05
2050.96359	1381.65
2053.98794	1387.95
2057.01034	1384.75
2060.03078	1386.45
2063.04927	1373.25
2066.06582	1377.25
2069.08042	1386.95
2072.09307	1371.05
2075.10378	1371.75
2078.11255	1381.55
2081.11938	1372.35
2084.12426	1367.45
2087.12722	1367.65
2090.12824	1362.65
2093.12732	1370.25
2096.12447	1372.65
2099.11969	1367.55
2102.11299	1366.35
2105.10435	1357.75
2108.09379	1361.25
2111.08131	1361.05
2114.0669	1356.35
2117.05057	1358.15
2120.03233	1361.25
2123.01216	1359.85
2125.99008	1358.65
2128.96609	1353.55
2131.94018	1355.05
2134.91236	1351.25
2137.88263	1354.65
2140.851	1345.75
2143.81746	1348.75
2146.78201	1343.75
2149.74466	1343.05
2152.7054	1347.95
2155.66425	1336.45
2158.6212	1335.05
2161.57625	1330.35
2164.52941	1330.25
2167.48067	1334.45
2170.43004	1331.55
2173.37752	1322.95
2176.32311	1321.05
2179.26681	1324.65
2182.20863	1317.65
2185.14856	1323.95
2188.08661	1322.95
2191.02278	1319.55
2193.95707	1317.65
2196.88948	1316.75
2199.82001	1313.95
2202.74867	1306.45
2205.67545	1304.75
2208.60037	1312.05
2211.52341	1291.25
2214.44458	1291.85
2217.36388	1294.15
2220.28132	1283.35
2223.1969	1283.65
2226.11061	1268.25
2229.02246	1275.05
2231.93245	1271.05
2234.84058	1259.95
2237.74686	1265.35
2240.65128	1261.25
2243.55385	1259.55
2246.45456	1254.45
2249.35343	1255.65
2252.25044	1240.65
2255.14561	1241.55
2258.03893	1242.85
2260.93041	1229.85
2263.82004	1227.15
2266.70783	1236.25
2269.59378	1231.45
2272.4779	1223.75
2275.36017	1217.65
2278.24061	1215.75
2281.11922	1210.55
2283.996	1212.35
2286.87094	1204.05
2289.74405	1210.85
2292.61534	1194.45
2295.4848	1200.55
2298.35243	1189.55
2301.21824	1187.85
2304.08223	1185.65
2306.94439	1183.55
2309.80474	1188.25
2312.66327	1182.45
2315.51999	1178.15
2318.37489	1173.95
2321.22797	1177.65
2324.07925	1165.75
2326.92871	1165.35
2329.77637	1165.75
2332.62222	1164.45
2335.46626	1158.15
2338.3085	1151.65
2341.14893	1155.55
2343.98756	1151.25
2346.8244	1149.45
2349.65943	1145.75
2352.49267	1152.65
2355.32411	1147.65
2358.15376	1145.85
2360.98161	1142.45
2363.80768	1146.95
2366.63195	1141.75
2369.45444	1141.45
2372.27514	1134.05
2375.09405	1134.95
2377.91118	1132.95
2380.72652	1135.15
2383.54009	1127.75
2386.35187	1126.55
2389.16188	1119.85
2391.97011	1120.95
2394.77657	1108.75
2397.58125	1109.35
2400.38416	1107.45
2403.18529	1098.75
2405.98466	1093.25
2408.78226	1102.85
2411.57809	1091.45
2414.37216	1083.85
2417.16446	1087.55
2419.955	1081.85
2422.74378	1084.45
2425.5308	1077.85
2428.31606	1079.85
2431.09956	1073.05
2433.88131	1071.55
2436.6613	1076.85
2439.43954	1073.55
2442.21603	1067.25
2444.99077	1063.15
2447.76377	1061.45
2450.53501	1065.75
2453.30451	1060.75
2456.07226	1060.15
2458.83827	1054.85
2461.60254	1055.45
2464.36507	1055.65
2467.12586	1052.65
2469.88492	1046.75
2472.64224	1045.85
2475.39782	1035.95
2478.15167	1041.35
2480.90379	1037.95
2483.65417	1037.45
2486.40283	1033.35
2489.14976	1036.25
2491.89497	1036.35
2494.63845	1030.45
2497.3802	1026.65
2500.12024	1025.85
2502.85855	1028.25
2505.59514	1031.25
2508.33002	1024.05
2511.06318	1017.45
2513.79462	1017.15
2516.52435	1015.75
2519.25237	1009.55
2521.97867	1010.05
2524.70327	994.55
2527.42616	1002.95
2530.14734	1002.75
2532.86681	988.65
2535.58458	998.75
2538.30065	992.35
2541.01501	1003.25
2543.72768	984.55
2546.43864	987.75
2549.14791	983.65
2551.85548	976.05
2554.56136	972.25
2557.26554	980.25
2559.96803	974.55
2562.66883	972.45
2565.36794	972.45
2568.06536	972.15
2570.7611	962.95
2573.45514	965.35
2576.14751	964.25
2578.83819	954.15
2581.52719	953.05
2584.21451	949.85
2586.90015	948.45
2589.58411	951.15
2592.2664	948.15
2594.94701	944.15
2597.62594	943.25
2600.30321	938.95
2602.9788	932.75
2605.65273	933.85
2608.32498	922.75
2610.99557	928.45
2613.66449	930.25
2616.33175	928.85
2618.99734	927.35
2621.66128	920.15
2624.32355	919.75
2626.98416	923.45
2629.64311	913.85
2632.30041	917.15
2634.95605	918.75
2637.61004	912.75
2640.26238	914.55
2642.91306	906.55
2645.56209	902.75
2648.20948	905.15
2650.85521	906.15
2653.4993	902.95
2656.14175	909.65
2658.78255	897.75
2661.42171	904.15
2664.05923	903.65
2666.6951	894.15
2669.32934	901.35
2671.96194	906.25
2674.59291	903.95
2677.22224	902.35
2679.84993	902.05
2682.476	899.35
2685.10043	898.85
2687.72324	901.55
2690.34441	902.05
2692.96396	901.35
2695.58188	901.75
2698.19818	899.05
2700.81285	907.25
2703.4259	901.15
2706.03733	889.45
2708.64714	901.25
2711.25533	900.25
2713.86191	903.45
2716.46687	906.25
2719.07021	900.65
2721.67194	892.85
2724.27206	899.45
2726.87057	906.45
2729.46747	899.75
2732.06276	897.25
2734.65644	894.35
2737.24852	894.55
2739.83899	901.45
2742.42786	896.05
2745.01513	893.65
2747.60079	891.35
2750.18486	891.25
2752.76733	883.65
2755.3482	886.65
2757.92747	884.35
2760.50515	885.75
2763.08123	879.55
2765.65573	877.25
2768.22863	877.45
2770.79994	872.65
2773.36967	870.75
2775.9378	869.15
2778.50435	869.35
2781.06932	868.45
2783.6327	870.45
2786.1945	871.55
2788.75471	863.15
2791.31335	858.95
2793.87041	857.55
2796.42589	853.55
2798.97979	857.05
2801.53212	858.15
2804.08288	854.05
2806.63206	847.25
2809.17967	851.35
2811.72571	848.15
2814.27018	844.75
2816.81308	849.25
2819.35442	843.95
2821.89419	843.55
2824.43239	838.75
2826.96904	841.05
2829.50412	839.75
2832.03763	837.65
2834.56959	844.05
2837.1	841.55
2839.62884	848.15
2842.15613	836.75
2844.68186	847.45
2847.20604	845.75
2849.72867	845.75
2852.24974	851.15
2854.76927	856.55
2857.28724	851.25
2859.80367	843.65
2862.31855	855.65
2864.83189	857.25
2867.34368	860.55
2869.85393	857.65
2872.36264	858.85
2874.8698	868.05
2877.37543	874.15
2879.87952	876.15
2882.38207	881.65
2884.88308	881.55
2887.38256	879.05
2889.88051	883.25
2892.37692	889.45
2894.8718	885.25
2897.36515	896.75
2899.85698	898.45
2902.34727	907.05
2904.83604	903.35
2907.32328	913.15
2909.809	905.55
2912.29319	907.45
2914.77587	905.25
2917.25702	912.85
2919.73665	909.85
2922.21476	914.85
2924.69136	917.45
2927.16644	915.75
2929.64	922.25
2932.11205	926.05
2934.58258	919.85
2937.05161	919.35
2939.51912	918.35
2941.98513	921.65
2944.44962	912.35
2946.91261	900.95
2949.37409	907.05
2951.83407	899.95
2954.29254	893.55
2956.74951	889.75
2959.20498	882.85
2961.65895	872.15
2964.11142	872.35
2966.56239	855.55
2969.01186	868.75
2971.45984	858.65
2973.90632	860.65
2976.35131	848.35
2978.7948	847.55
2981.23681	839.15
2983.67732	844.05
2986.11635	845.05
2988.55388	841.95
2990.98993	833.35
2993.4245	825.15
2995.85758	837.65
2998.28917	827.75
3000.71928	830.35
3003.14791	827.45
3005.57506	829.85
3008.00073	829.65
3010.42493	829.25
3012.84764	835.25
3015.26888	831.25
3017.68865	830.55
3020.10694	831.05
3022.52376	835.75
3024.9391	831.05
3027.35298	826.05
3029.76539	827.65
3032.17632	833.85
3034.5858	832.75
3036.9938	839.95
3039.40034	831.05
3041.80542	835.35
3044.20903	835.65
3046.61118	839.75
3049.01187	838.35
3051.4111	840.55
3053.80888	843.65
3056.20519	837.35
3058.60005	846.15
3060.99345	845.15
3063.3854	847.55
3065.7759	846.85
3068.16494	843.35
3070.55254	841.45
3072.93868	850.45
3075.32338	854.45
3077.70662	855.25
3080.08842	864.45
3082.46878	861.25
3084.84769	867.15
3087.22515	877.05
3089.60118	874.75
3091.97576	877.25
3094.3489	875.85
3096.72061	880.05
3099.09087	889.35
3101.4597	892.65
3103.82709	896.05
3106.19305	897.45
3108.55757	906.85
3110.92066	915.25
3113.28232	909.75
3115.64255	912.45
3118.00134	921.75
3120.35871	919.55
3122.71466	930.75
3125.06917	929.25
3127.42226	929.25
3129.77393	936.05
3132.12417	940.15
3134.47299	952.05
3136.82039	953.25
3139.16636	958.85
3141.51092	965.95
3143.85406	970.85
3146.19579	977.05
3148.53609	985.15
3150.87499	989.55
3153.21246	1005.15
3155.54853	1006.05
3157.88318	1008.35
3160.21642	1017.25
3162.54826	1014.45
3164.87868	1027.65
3167.2077	1030.15
3169.5353	1031.75
3171.86151	1042.75
3174.18631	1050.45
3176.5097	1051.45
3178.83169	1054.55
3181.15228	1051.35
3183.47147	1058.55
3185.78926	1064.85
3188.10565	1065.25
3190.42065	1076.55
3192.73424	1078.05
3195.04645	1076.25
3197.35725	1085.25
3199.66667	1099.25
3201.97469	1106.05
3204.28132	1111.25
3206.58656	1106.95
3208.8904	1114.85
3211.19287	1116.95
3213.49394	1120.15
3215.79363	1123.75
3218.09193	1126.15
3220.38884	1126.25
3222.68438	1122.15
3224.97853	1136.45
3227.2713	1130.85
3229.56269	1132.85
3231.8527	1143.05
3234.14133	1134.85
3236.42858	1125.95
3238.71446	1132.55
3240.99896	1131.15
3243.28209	1148.05
3245.56384	1138.35
3247.84423	1131.55
3250.12324	1135.05
3252.40088	1142.25
3254.67715	1138.85
3256.95205	1143.85
3259.22558	1143.75
3261.49775	1144.25
3263.76855	1138.75
3266.03799	1136.35
3268.30606	1145.75
3270.57277	1143.85
3272.83812	1139.15
3275.10211	1132.35
3277.36474	1133.55
3279.62601	1135.95
3281.88593	1134.65
3284.14448	1136.95
3286.40168	1140.95
3288.65753	1125.95
3290.91202	1130.05
3293.16516	1126.45
3295.41695	1125.75
3297.66738	1116.65
3299.91647	1122.15
3302.16421	1107.25
3304.4106	1113.05
3306.65564	1103.15
3308.89933	1101.45
3311.14169	1089.75
3313.38269	1082.05
3315.62236	1085.55
3317.86068	1076.05
3320.09766	1064.65
3322.3333	1056.75
3324.5676	1055.05
3326.80056	1036.75
3329.03219	1030.55
3331.26248	0.55
3333.49143	0.25
3335.71905	0.35
