Data from AgNPs_FTO_APTES_UA_0.1mM_CRN_10uM_NaF_0.1M_Addition_RamanShift__3__11-21-57-536.txt Node

Date: Mon Dec 20 11:21:57 GMT 2021
User: TCL
Spectrometer: QEP01345
Trigger mode: 4
Integration Time (sec): 7.000000E0
Scans to average: 10
Electric dark correction enabled: true
Nonlinearity correction enabled: false
Boxcar width: 0
XAxis mode: Raman Shifts
Number of Pixels in Spectrum: 1044
>>>>>Begin Spectral Data<<<<<
46.04893	0.9375
50.45542	-0.4625
54.85868	-1.0625
59.25871	1.7375
63.6555	32.6375
68.04907	30.1375
72.43941	34.8375
76.82654	37.3375
81.21044	37.5375
85.59113	43.2375
89.96862	41.5375
94.34289	40.0375
98.71396	44.3375
103.08183	44.9375
107.4465	48.2375
111.80798	49.0375
116.16626	46.8375
120.52136	49.0375
124.87327	52.3375
129.222	49.1375
133.56755	50.0375
137.90993	55.0375
142.24913	56.5375
146.58517	60.1375
150.91804	70.9375
155.24774	84.8375
159.57429	91.3375
163.89768	119.1375
168.21792	152.9375
172.53501	194.9375
176.84895	266.9375
181.15975	366.3375
185.46741	502.8375
189.77193	689.5375
194.07331	907.9375
198.37157	1173.0375
202.6667	1459.9375
206.9587	1732.3375
211.24758	2014.6375
215.53334	2286.7375
219.81599	2590.5375
224.09553	2913.2375
228.37195	3275.1375
232.64527	3659.3375
236.91549	4060.7375
241.18261	4456.0375
245.44663	4814.5375
249.70755	5115.9375
253.96539	5355.2375
258.22014	5550.0375
262.4718	5662.9375
266.72039	5747.0375
270.96589	5756.0375
275.20832	5747.6375
279.44768	5667.4375
283.68397	5574.2375
287.91719	5481.5375
292.14735	5442.0375
296.37445	5407.8375
300.59849	5399.7375
304.81948	5426.7375
309.03742	5417.1375
313.25231	5369.9375
317.46415	5306.7375
321.67296	5200.6375
325.87872	5098.2375
330.08145	5042.6375
334.28114	5012.8375
338.47781	5015.7375
342.67145	5044.7375
346.86207	5098.7375
351.04966	5170.3375
355.23424	5244.9375
359.4158	5326.3375
363.59435	5383.6375
367.76989	5435.9375
371.94243	5492.2375
376.11196	5529.6375
380.27849	5578.2375
384.44203	5631.2375
388.60257	5664.9375
392.76012	5745.9375
396.91468	5806.8375
401.06626	5857.4375
405.21485	5913.1375
409.36047	5895.1375
413.50311	5851.8375
417.64277	5801.1375
421.77947	5783.7375
425.9132	5780.4375
430.04396	5807.0375
434.17176	5832.0375
438.2966	5877.2375
442.41849	5923.4375
446.53742	6006.0375
450.6534	6103.2375
454.76644	6181.4375
458.87653	6200.5375
462.98368	6199.4375
467.08789	6149.0375
471.18916	6141.1375
475.2875	6147.8375
479.38291	6166.7375
483.4754	6228.8375
487.56496	6340.6375
491.6516	6458.6375
495.73531	6546.0375
499.81612	6576.0375
503.89401	6528.9375
507.96899	6477.0375
512.04106	6376.4375
516.11023	6313.0375
520.1765	6300.6375
524.23987	6310.8375
528.30034	6314.2375
532.35792	6313.2375
536.41261	6273.0375
540.46441	6183.0375
544.51333	6120.4375
548.55936	6077.3375
552.60252	6076.5375
556.64279	6118.3375
560.6802	6140.0375
564.71473	6171.6375
568.7464	6209.7375
572.7752	6307.5375
576.80114	6347.6375
580.82422	6439.0375
584.84444	6594.6375
588.86181	6823.5375
592.87633	6994.0375
596.888	6988.6375
600.89682	6859.2375
604.9028	6846.8375
608.90594	7159.6375
612.90624	7682.8375
616.90371	7588.9375
620.89834	7003.3375
624.89015	6920.1375
628.87913	7306.8375
632.86528	7794.6375
636.84862	8144.3375
640.82913	8124.6375
644.80683	7804.8375
648.78172	7387.2375
652.75379	7033.5375
656.72306	6783.1375
660.68952	6625.2375
664.65319	6453.3375
668.61405	6310.9375
672.57211	6225.0375
676.52738	6236.8375
680.47986	6260.3375
684.42955	6282.1375
688.37646	6241.1375
692.32058	6203.1375
696.26192	6151.7375
700.20048	6129.8375
704.13626	6119.2375
708.06928	6084.6375
711.99952	6087.9375
715.927	6077.9375
719.85171	6123.9375
723.77365	6179.3375
727.69284	6196.4375
731.60928	6142.0375
735.52295	6062.7375
739.43388	6005.7375
743.34206	6002.7375
747.24749	6034.5375
751.15017	6043.5375
755.05012	6081.8375
758.94733	6166.1375
762.8418	6355.0375
766.73354	6620.5375
770.62254	6925.8375
774.50882	7002.2375
778.39237	6810.2375
782.27321	6481.2375
786.15132	6196.0375
790.02671	6031.7375
793.89938	5963.0375
797.76935	5976.0375
801.6366	6029.8375
805.50115	6176.6375
809.36299	6367.0375
813.22213	6472.7375
817.07857	6427.4375
820.93231	6257.1375
824.78336	6065.3375
828.63172	5899.9375
832.47738	5799.8375
836.32036	5775.8375
840.16066	5754.0375
843.99827	5725.3375
847.8332	5713.6375
851.66546	5728.7375
855.49504	5724.1375
859.32195	5731.8375
863.1462	5750.7375
866.96777	5787.3375
870.78668	5859.1375
874.60293	5967.3375
878.41652	6096.4375
882.22745	6226.4375
886.03573	6323.8375
889.84136	6362.9375
893.64433	6297.5375
897.44466	6160.3375
901.24235	5971.0375
905.0374	5816.3375
908.8298	5698.2375
912.61957	5639.4375
916.40671	5628.3375
920.19121	5630.2375
923.97308	5649.5375
927.75233	5643.5375
931.52895	5615.8375
935.30295	5570.0375
939.07433	5500.6375
942.84309	5464.6375
946.60924	5426.8375
950.37278	5400.0375
954.13371	5400.3375
957.89203	5379.6375
961.64774	5362.6375
965.40086	5358.3375
969.15137	5353.8375
972.89929	5342.7375
976.64461	5321.3375
980.38733	5316.0375
984.12747	5325.2375
987.86502	5314.5375
991.59999	5379.9375
995.33237	5406.7375
999.06217	5488.3375
1002.78939	5594.9375
1006.51404	5681.3375
1010.23611	5760.7375
1013.95561	5847.6375
1017.67255	5869.0375
1021.38692	5854.1375
1025.09872	5793.1375
1028.80796	5702.8375
1032.51465	5648.4375
1036.21877	5608.6375
1039.92035	5555.9375
1043.61937	5531.9375
1047.31584	5527.8375
1051.00976	5523.1375
1054.70114	5540.1375
1058.38998	5540.9375
1062.07627	5609.5375
1065.76003	5670.2375
1069.44126	5725.9375
1073.11995	5815.9375
1076.79611	5867.2375
1080.46974	5885.0375
1084.14085	5872.7375
1087.80943	5832.7375
1091.47549	5839.0375
1095.13903	5805.7375
1098.80005	5718.8375
1102.45857	5662.0375
1106.11456	5602.4375
1109.76805	5650.3375
1113.41903	5748.9375
1117.06751	5944.4375
1120.71348	6266.2375
1124.35696	6697.8375
1127.99793	7153.5375
1131.63641	7542.4375
1135.2724	7722.6375
1138.90589	7688.0375
1142.5369	7450.2375
1146.16542	7131.7375
1149.79145	6747.4375
1153.415	6414.2375
1157.03607	6168.6375
1160.65467	6052.6375
1164.27079	6038.3375
1167.88443	6136.1375
1171.49561	6312.7375
1175.10432	6539.7375
1178.71056	6899.4375
1182.31434	7232.5375
1185.91565	7402.8375
1189.51451	7417.2375
1193.11091	7356.1375
1196.70485	7310.6375
1200.29634	7303.8375
1203.88538	7297.9375
1207.47197	7226.0375
1211.05612	7104.0375
1214.63782	6928.6375
1218.21708	6734.1375
1221.79391	6550.3375
1225.36829	6415.1375
1228.94024	6313.1375
1232.50976	6207.0375
1236.07685	6125.8375
1239.6415	6087.5375
1243.20374	6078.0375
1246.76355	6142.6375
1250.32093	6188.9375
1253.8759	6268.5375
1257.42845	6375.6375
1260.97859	6489.4375
1264.52631	6578.3375
1268.07163	6671.1375
1271.61453	6741.4375
1275.15503	6810.7375
1278.69312	6866.5375
1282.22882	6945.6375
1285.76211	7065.8375
1289.29301	7207.6375
1292.82151	7404.4375
1296.34761	7645.2375
1299.87133	7921.4375
1303.39266	8221.7375
1306.9116	8576.6375
1310.42815	8888.0375
1313.94233	9110.9375
1317.45412	9106.8375
1320.96354	8951.5375
1324.47058	8757.6375
1327.97525	8574.9375
1331.47754	8457.0375
1334.97747	8363.3375
1338.47502	8328.8375
1341.97022	8334.4375
1345.46305	8373.1375
1348.95352	8503.6375
1352.44163	8752.9375
1355.92738	9065.5375
1359.41078	9581.9375
1362.89183	10009.3375
1366.37053	10037.7375
1369.84688	9433.1375
1373.32088	8648.7375
1376.79254	8091.3375
1380.26186	7811.2375
1383.72883	7655.1375
1387.19347	7562.7375
1390.65578	7397.2375
1394.11575	7284.7375
1397.57339	7225.9375
1401.0287	7201.0375
1404.48168	7191.8375
1407.93234	7109.3375
1411.38068	6933.8375
1414.82669	6732.4375
1418.27039	6521.0375
1421.71177	6363.6375
1425.15083	6197.2375
1428.58758	6097.5375
1432.02203	6091.7375
1435.45416	6150.6375
1438.88399	6208.3375
1442.31151	6268.2375
1445.73673	6295.1375
1449.15965	6324.0375
1452.58027	6336.5375
1455.9986	6336.6375
1459.41463	6327.2375
1462.82837	6380.5375
1466.23982	6444.2375
1469.64898	6549.1375
1473.05586	6588.4375
1476.46045	6603.3375
1479.86276	6638.8375
1483.26279	6657.5375
1486.66054	6707.5375
1490.05602	6770.9375
1493.44922	6912.6375
1496.84016	7076.7375
1500.22882	7307.9375
1503.61521	7605.9375
1506.99934	7951.8375
1510.38121	8209.1375
1513.76081	8292.1375
1517.13816	8086.3375
1520.51324	7733.5375
1523.88607	7398.3375
1527.25665	7259.5375
1530.62498	7187.4375
1533.99105	7173.9375
1537.35488	7152.1375
1540.71647	7126.8375
1544.07581	7081.7375
1547.4329	7011.2375
1550.78776	6980.2375
1554.14038	6928.3375
1557.49077	6947.1375
1560.83892	6946.3375
1564.18484	6987.0375
1567.52853	7026.3375
1570.86999	7100.0375
1574.20922	7135.5375
1577.54624	7162.7375
1580.88103	7103.5375
1584.2136	7007.8375
1587.54395	7025.9375
1590.87208	7151.1375
1594.19801	7333.4375
1597.52172	7559.3375
1600.84321	7657.9375
1604.16251	7534.6375
1607.47959	7273.9375
1610.79447	6976.2375
1614.10715	6704.5375
1617.41763	6512.8375
1620.7259	6374.5375
1624.03199	6352.7375
1627.33587	6380.2375
1630.63757	6490.6375
1633.93707	6718.5375
1637.23439	7086.8375
1640.52951	7603.0375
1643.82246	8202.6375
1647.11321	8764.6375
1650.40179	8997.5375
1653.68819	8750.7375
1656.97241	8086.3375
1660.25446	7419.7375
1663.53433	6898.2375
1666.81203	6537.9375
1670.08756	6351.6375
1673.36092	6184.8375
1676.63211	6094.6375
1679.90115	6024.2375
1683.16801	5947.1375
1686.43272	5842.1375
1689.69527	5758.5375
1692.95567	5655.5375
1696.2139	5576.0375
1699.46999	5492.4375
1702.72392	5379.6375
1705.97571	5280.1375
1709.22535	5128.2375
1712.47284	5010.7375
1715.71819	4907.9375
1718.96139	4834.7375
1722.20246	4742.2375
1725.44139	4673.4375
1728.67818	4612.1375
1731.91284	4561.3375
1735.14537	4515.2375
1738.37576	4472.3375
1741.60403	4427.0375
1744.83017	4405.5375
1748.05418	4407.0375
1751.27607	4377.2375
1754.49584	4366.5375
1757.71349	4378.0375
1760.92903	4354.1375
1764.14244	4362.9375
1767.35375	4350.2375
1770.56294	4337.9375
1773.77002	4309.1375
1776.97499	4307.4375
1780.17785	4281.7375
1783.37861	4260.0375
1786.57727	4255.4375
1789.77382	4240.2375
1792.96828	4239.7375
1796.16064	4225.5375
1799.3509	4218.3375
1802.53907	4209.3375
1805.72514	4193.6375
1808.90913	4177.8375
1812.09102	4173.3375
1815.27083	4161.8375
1818.44856	4154.2375
1821.6242	4145.8375
1824.79776	4132.3375
1827.96924	4130.8375
1831.13864	4106.5375
1834.30597	4122.1375
1837.47122	4107.0375
1840.6344	4093.1375
1843.7955	4118.7375
1846.95454	4092.1375
1850.11151	4099.5375
1853.26642	4096.5375
1856.41926	4088.5375
1859.57004	4082.6375
1862.71876	4077.0375
1865.86542	4070.7375
1869.01003	4068.5375
1872.15258	4061.4375
1875.29308	4055.7375
1878.43152	4065.5375
1881.56792	4058.3375
1884.70227	4030.4375
1887.83457	4031.5375
1890.96482	4014.3375
1894.09304	4018.5375
1897.21921	4001.6375
1900.34335	4021.3375
1903.46544	4007.9375
1906.58551	4000.4375
1909.70353	4002.8375
1912.81953	3982.7375
1915.93349	3981.7375
1919.04543	3976.2375
1922.15534	3957.9375
1925.26322	3952.6375
1928.36908	3951.6375
1931.47292	3941.1375
1934.57473	3930.8375
1937.67453	3912.1375
1940.77232	3908.3375
1943.86808	3894.3375
1946.96184	3883.8375
1950.05358	3865.8375
1953.14331	3863.5375
1956.23103	3852.7375
1959.31675	3836.4375
1962.40046	3827.1375
1965.48217	3835.0375
1968.56188	3819.1375
1971.63959	3797.5375
1974.7153	3761.3375
1977.78901	3782.2375
1980.86073	3767.0375
1983.93046	3752.4375
1986.99819	3729.0375
1990.06394	3730.3375
1993.1277	3727.6375
1996.18947	3701.9375
1999.24925	3702.9375
2002.30706	3687.3375
2005.36288	3682.3375
2008.41672	3672.9375
2011.46859	3652.6375
2014.51848	3649.9375
2017.56639	3632.8375
2020.61233	3624.5375
2023.6563	3620.8375
2026.6983	3609.5375
2029.73833	3604.3375
2032.7764	3591.3375
2035.8125	3575.7375
2038.84664	3575.1375
2041.87881	3566.7375
2044.90903	3564.0375
2047.93729	3559.5375
2050.96359	3552.4375
2053.98794	3546.6375
2057.01034	3548.1375
2060.03078	3532.1375
2063.04927	3536.5375
2066.06582	3527.0375
2069.08042	3530.1375
2072.09307	3523.1375
2075.10378	3520.6375
2078.11255	3519.2375
2081.11938	3527.9375
2084.12426	3537.7375
2087.12722	3526.8375
2090.12824	3512.6375
2093.12732	3516.1375
2096.12447	3515.3375
2099.11969	3512.2375
2102.11299	3511.3375
2105.10435	3526.3375
2108.09379	3519.4375
2111.08131	3529.1375
2114.0669	3520.5375
2117.05057	3524.1375
2120.03233	3530.0375
2123.01216	3529.2375
2125.99008	3525.0375
2128.96609	3537.6375
2131.94018	3537.3375
2134.91236	3540.6375
2137.88263	3540.1375
2140.851	3544.8375
2143.81746	3547.7375
2146.78201	3524.3375
2149.74466	3535.6375
2152.7054	3535.4375
2155.66425	3539.7375
2158.6212	3547.7375
2161.57625	3540.9375
2164.52941	3543.6375
2167.48067	3540.7375
2170.43004	3541.3375
2173.37752	3530.5375
2176.32311	3525.4375
2179.26681	3508.5375
2182.20863	3519.6375
2185.14856	3530.6375
2188.08661	3520.5375
2191.02278	3513.0375
2193.95707	3512.1375
2196.88948	3501.6375
2199.82001	3504.5375
2202.74867	3496.6375
2205.67545	3489.4375
2208.60037	3499.2375
2211.52341	3472.6375
2214.44458	3465.5375
2217.36388	3465.4375
2220.28132	3462.0375
2223.1969	3447.5375
2226.11061	3453.8375
2229.02246	3430.3375
2231.93245	3449.3375
2234.84058	3431.3375
2237.74686	3429.1375
2240.65128	3414.1375
2243.55385	3419.0375
2246.45456	3416.7375
2249.35343	3414.1375
2252.25044	3403.0375
2255.14561	3387.0375
2258.03893	3399.4375
2260.93041	3386.4375
2263.82004	3385.6375
2266.70783	3382.2375
2269.59378	3360.7375
2272.4779	3358.4375
2275.36017	3345.1375
2278.24061	3342.7375
2281.11922	3323.5375
2283.996	3324.7375
2286.87094	3325.0375
2289.74405	3307.6375
2292.61534	3316.7375
2295.4848	3296.8375
2298.35243	3293.1375
2301.21824	3309.0375
2304.08223	3294.7375
2306.94439	3297.3375
2309.80474	3291.9375
2312.66327	3293.9375
2315.51999	3289.0375
2318.37489	3294.0375
2321.22797	3262.1375
2324.07925	3271.2375
2326.92871	3264.5375
2329.77637	3259.9375
2332.62222	3252.3375
2335.46626	3240.9375
2338.3085	3240.1375
2341.14893	3241.1375
2343.98756	3240.9375
2346.8244	3221.4375
2349.65943	3226.2375
2352.49267	3226.1375
2355.32411	3228.5375
2358.15376	3213.8375
2360.98161	3221.6375
2363.80768	3212.5375
2366.63195	3206.3375
2369.45444	3214.4375
2372.27514	3212.9375
2375.09405	3212.5375
2377.91118	3203.1375
2380.72652	3198.3375
2383.54009	3184.3375
2386.35187	3191.1375
2389.16188	3173.4375
2391.97011	3171.2375
2394.77657	3173.8375
2397.58125	3159.5375
2400.38416	3151.2375
2403.18529	3146.0375
2405.98466	3142.3375
2408.78226	3139.4375
2411.57809	3124.2375
2414.37216	3121.6375
2417.16446	3116.1375
2419.955	3093.7375
2422.74378	3101.3375
2425.5308	3105.1375
2428.31606	3107.3375
2431.09956	3091.8375
2433.88131	3105.7375
2436.6613	3101.8375
2439.43954	3092.2375
2442.21603	3084.6375
2444.99077	3072.0375
2447.76377	3088.4375
2450.53501	3079.7375
2453.30451	3093.8375
2456.07226	3077.2375
2458.83827	3066.6375
2461.60254	3058.9375
2464.36507	3055.3375
2467.12586	3049.4375
2469.88492	3053.1375
2472.64224	3067.6375
2475.39782	3057.0375
2478.15167	3063.3375
2480.90379	3067.3375
2483.65417	3051.7375
2486.40283	3039.5375
2489.14976	3064.8375
2491.89497	3063.5375
2494.63845	3047.7375
2497.3802	3045.9375
2500.12024	3035.8375
2502.85855	3037.1375
2505.59514	3041.3375
2508.33002	3028.9375
2511.06318	3019.5375
2513.79462	3020.0375
2516.52435	3014.5375
2519.25237	3015.5375
2521.97867	2992.1375
2524.70327	2996.5375
2527.42616	3003.5375
2530.14734	3002.2375
2532.86681	2988.8375
2535.58458	2987.8375
2538.30065	2975.3375
2541.01501	2982.0375
2543.72768	2964.0375
2546.43864	2963.5375
2549.14791	2956.1375
2551.85548	2954.6375
2554.56136	2956.1375
2557.26554	2952.7375
2559.96803	2941.3375
2562.66883	2946.0375
2565.36794	2920.2375
2568.06536	2925.2375
2570.7611	2934.2375
2573.45514	2919.4375
2576.14751	2924.2375
2578.83819	2913.5375
2581.52719	2916.2375
2584.21451	2894.3375
2586.90015	2907.3375
2589.58411	2901.5375
2592.2664	2903.9375
2594.94701	2885.5375
2597.62594	2874.5375
2600.30321	2866.8375
2602.9788	2857.9375
2605.65273	2866.1375
2608.32498	2861.6375
2610.99557	2859.2375
2613.66449	2845.6375
2616.33175	2862.0375
2618.99734	2850.6375
2621.66128	2847.0375
2624.32355	2842.8375
2626.98416	2832.2375
2629.64311	2832.4375
2632.30041	2840.3375
2634.95605	2839.6375
2637.61004	2828.0375
2640.26238	2820.6375
2642.91306	2835.1375
2645.56209	2821.4375
2648.20948	2823.2375
2650.85521	2821.0375
2653.4993	2814.3375
2656.14175	2817.9375
2658.78255	2811.5375
2661.42171	2811.8375
2664.05923	2816.9375
2666.6951	2816.9375
2669.32934	2822.2375
2671.96194	2804.7375
2674.59291	2817.8375
2677.22224	2817.9375
2679.84993	2823.6375
2682.476	2803.9375
2685.10043	2814.8375
2687.72324	2801.2375
2690.34441	2809.9375
2692.96396	2803.5375
2695.58188	2807.1375
2698.19818	2811.0375
2700.81285	2808.6375
2703.4259	2823.2375
2706.03733	2848.1375
2708.64714	2825.4375
2711.25533	2820.5375
2713.86191	2820.8375
2716.46687	2823.0375
2719.07021	2821.0375
2721.67194	2824.5375
2724.27206	2807.4375
2726.87057	2820.9375
2729.46747	2821.3375
2732.06276	2822.1375
2734.65644	2811.2375
2737.24852	2813.4375
2739.83899	2817.8375
2742.42786	2816.4375
2745.01513	2798.2375
2747.60079	2804.9375
2750.18486	2803.2375
2752.76733	2801.7375
2755.3482	2798.2375
2757.92747	2787.6375
2760.50515	2798.1375
2763.08123	2797.1375
2765.65573	2772.0375
2768.22863	2781.8375
2770.79994	2772.1375
2773.36967	2784.0375
2775.9378	2778.4375
2778.50435	2757.5375
2781.06932	2760.3375
2783.6327	2754.6375
2786.1945	2757.9375
2788.75471	2750.1375
2791.31335	2752.0375
2793.87041	2742.1375
2796.42589	2732.8375
2798.97979	2724.3375
2801.53212	2728.5375
2804.08288	2720.8375
2806.63206	2715.9375
2809.17967	2716.3375
2811.72571	2713.5375
2814.27018	2705.1375
2816.81308	2710.3375
2819.35442	2709.9375
2821.89419	2691.1375
2824.43239	2696.8375
2826.96904	2697.5375
2829.50412	2680.9375
2832.03763	2682.7375
2834.56959	2686.1375
2837.1	2680.5375
2839.62884	2682.7375
2842.15613	2682.1375
2844.68186	2695.4375
2847.20604	2688.3375
2849.72867	2676.2375
2852.24974	2692.2375
2854.76927	2698.0375
2857.28724	2696.2375
2859.80367	2685.3375
2862.31855	2688.8375
2864.83189	2680.9375
2867.34368	2682.4375
2869.85393	2683.4375
2872.36264	2680.4375
2874.8698	2689.8375
2877.37543	2685.7375
2879.87952	2699.4375
2882.38207	2685.3375
2884.88308	2686.8375
2887.38256	2690.6375
2889.88051	2689.4375
2892.37692	2690.4375
2894.8718	2696.6375
2897.36515	2705.0375
2899.85698	2694.3375
2902.34727	2713.1375
2904.83604	2689.0375
2907.32328	2712.0375
2909.809	2705.1375
2912.29319	2707.2375
2914.77587	2715.8375
2917.25702	2699.8375
2919.73665	2703.6375
2922.21476	2705.9375
2924.69136	2703.5375
2927.16644	2708.7375
2929.64	2705.9375
2932.11205	2703.1375
2934.58258	2704.4375
2937.05161	2692.9375
2939.51912	2699.3375
2941.98513	2697.7375
2944.44962	2693.5375
2946.91261	2675.6375
2949.37409	2687.5375
2951.83407	2693.0375
2954.29254	2689.5375
2956.74951	2683.2375
2959.20498	2672.8375
2961.65895	2661.2375
2964.11142	2679.4375
2966.56239	2663.0375
2969.01186	2661.5375
2971.45984	2653.8375
2973.90632	2654.4375
2976.35131	2634.9375
2978.7948	2653.8375
2981.23681	2639.7375
2983.67732	2640.1375
2986.11635	2625.1375
2988.55388	2618.6375
2990.98993	2624.2375
2993.4245	2610.2375
2995.85758	2610.2375
2998.28917	2610.3375
3000.71928	2601.5375
3003.14791	2601.5375
3005.57506	2612.2375
3008.00073	2607.7375
3010.42493	2602.7375
3012.84764	2598.9375
3015.26888	2602.1375
3017.68865	2604.8375
3020.10694	2599.1375
3022.52376	2598.7375
3024.9391	2593.4375
3027.35298	2591.7375
3029.76539	2586.6375
3032.17632	2590.6375
3034.5858	2572.2375
3036.9938	2590.8375
3039.40034	2596.7375
3041.80542	2587.2375
3044.20903	2596.1375
3046.61118	2587.5375
3049.01187	2585.8375
3051.4111	2578.4375
3053.80888	2590.9375
3056.20519	2582.0375
3058.60005	2572.0375
3060.99345	2575.8375
3063.3854	2573.5375
3065.7759	2568.5375
3068.16494	2578.2375
3070.55254	2568.9375
3072.93868	2584.4375
3075.32338	2573.0375
3077.70662	2569.7375
3080.08842	2576.9375
3082.46878	2568.5375
3084.84769	2580.6375
3087.22515	2585.2375
3089.60118	2580.5375
3091.97576	2600.0375
3094.3489	2597.3375
3096.72061	2600.4375
3099.09087	2612.5375
3101.4597	2609.2375
3103.82709	2615.4375
3106.19305	2607.3375
3108.55757	2616.9375
3110.92066	2602.6375
3113.28232	2607.8375
3115.64255	2605.3375
3118.00134	2616.5375
3120.35871	2600.7375
3122.71466	2619.1375
3125.06917	2627.7375
