Data from AgNPs_FTO_APTES_UA_0.1mM_CRN_200uM_NaF_0.1M_Addition_RamanShift__24__14-22-47-740.txt Node

Date: Mon Dec 20 14:22:47 GMT 2021
User: TCL
Spectrometer: QEP01345
Trigger mode: 4
Integration Time (sec): 7.000000E0
Scans to average: 10
Electric dark correction enabled: true
Nonlinearity correction enabled: false
Boxcar width: 0
XAxis mode: Raman Shifts
Number of Pixels in Spectrum: 1044
>>>>>Begin Spectral Data<<<<<
46.04893	0.625
50.45542	0.425
54.85868	-0.875
59.25871	1.625
63.6555	26.625
68.04907	30.325
72.43941	31.425
76.82654	33.425
81.21044	30.925
85.59113	37.025
89.96862	32.225
94.34289	35.225
98.71396	37.425
103.08183	37.225
107.4465	40.625
111.80798	43.225
116.16626	43.625
120.52136	42.125
124.87327	47.325
129.222	44.825
133.56755	46.925
137.90993	51.125
142.24913	51.625
146.58517	55.025
150.91804	64.325
155.24774	78.625
159.57429	89.725
163.89768	114.025
168.21792	146.925
172.53501	187.825
176.84895	257.125
181.15975	350.925
185.46741	489.625
189.77193	667.325
194.07331	889.225
198.37157	1174.525
202.6667	1453.225
206.9587	1745.825
211.24758	2025.125
215.53334	2304.125
219.81599	2586.425
224.09553	2876.325
228.37195	3186.625
232.64527	3518.325
236.91549	3861.725
241.18261	4181.125
245.44663	4509.325
249.70755	4765.025
253.96539	5001.925
258.22014	5201.725
262.4718	5323.525
266.72039	5397.325
270.96589	5413.225
275.20832	5379.025
279.44768	5317.125
283.68397	5232.725
287.91719	5153.525
292.14735	5108.025
296.37445	5066.325
300.59849	5058.925
304.81948	5055.925
309.03742	5057.825
313.25231	4998.525
317.46415	4892.025
321.67296	4816.425
325.87872	4715.425
330.08145	4658.825
334.28114	4656.425
338.47781	4685.725
342.67145	4710.825
346.86207	4771.225
351.04966	4851.125
355.23424	4943.025
359.4158	5033.925
363.59435	5113.625
367.76989	5148.325
371.94243	5211.025
376.11196	5269.125
380.27849	5308.725
384.44203	5347.925
388.60257	5402.025
392.76012	5442.825
396.91468	5485.725
401.06626	5546.225
405.21485	5607.925
409.36047	5611.925
413.50311	5548.225
417.64277	5455.825
421.77947	5435.125
425.9132	5438.825
430.04396	5442.025
434.17176	5463.025
438.2966	5499.625
442.41849	5531.125
446.53742	5607.125
450.6534	5684.825
454.76644	5726.525
458.87653	5762.225
462.98368	5756.025
467.08789	5756.625
471.18916	5767.125
475.2875	5775.925
479.38291	5815.525
483.4754	5884.125
487.56496	6003.125
491.6516	6090.525
495.73531	6132.925
499.81612	6094.325
503.89401	6013.925
507.96899	5911.425
512.04106	5879.225
516.11023	5881.425
520.1765	5907.725
524.23987	5993.825
528.30034	6018.225
532.35792	6028.625
536.41261	5962.625
540.46441	5851.025
544.51333	5768.725
548.55936	5707.425
552.60252	5676.825
556.64279	5700.325
560.6802	5719.325
564.71473	5748.325
568.7464	5800.225
572.7752	5882.125
576.80114	5875.725
580.82422	5883.025
584.84444	5935.625
588.86181	6030.225
592.87633	6096.625
596.888	6099.825
600.89682	6092.925
604.9028	6180.725
608.90594	6580.525
612.90624	7120.125
616.90371	7210.125
620.89834	6841.225
624.89015	6902.625
628.87913	7316.525
632.86528	7803.725
636.84862	8032.125
640.82913	7906.525
644.80683	7461.125
648.78172	6978.925
652.75379	6605.125
656.72306	6398.825
660.68952	6327.525
664.65319	6280.525
668.61405	6225.525
672.57211	6262.225
676.52738	6303.825
680.47986	6332.325
684.42955	6314.725
688.37646	6271.025
692.32058	6229.625
696.26192	6173.625
700.20048	6106.625
704.13626	6072.425
708.06928	5976.625
711.99952	5915.625
715.927	5858.125
719.85171	5845.425
723.77365	5865.225
727.69284	5889.625
731.60928	5824.425
735.52295	5756.325
739.43388	5695.525
743.34206	5668.525
747.24749	5706.025
751.15017	5719.725
755.05012	5749.825
758.94733	5785.425
762.8418	5937.825
766.73354	6155.425
770.62254	6354.625
774.50882	6468.925
778.39237	6343.525
782.27321	6102.225
786.15132	5873.425
790.02671	5791.725
793.89938	5797.625
797.76935	5841.425
801.6366	5956.525
805.50115	6182.225
809.36299	6422.625
813.22213	6516.425
817.07857	6396.625
820.93231	6139.625
824.78336	5852.625
828.63172	5626.125
832.47738	5524.625
836.32036	5470.725
840.16066	5423.625
843.99827	5399.725
847.8332	5352.225
851.66546	5365.025
855.49504	5352.325
859.32195	5354.525
863.1462	5380.125
866.96777	5463.325
870.78668	5545.725
874.60293	5676.625
878.41652	5833.025
882.22745	5988.825
886.03573	6111.825
889.84136	6108.025
893.64433	5961.025
897.44466	5737.925
901.24235	5515.325
905.0374	5346.125
908.8298	5240.425
912.61957	5162.925
916.40671	5111.825
920.19121	5121.825
923.97308	5111.925
927.75233	5115.525
931.52895	5097.325
935.30295	5091.625
939.07433	5060.325
942.84309	5033.425
946.60924	5017.625
950.37278	5023.825
954.13371	5015.825
957.89203	5001.625
961.64774	4978.325
965.40086	4948.725
969.15137	4911.725
972.89929	4877.025
976.64461	4868.625
980.38733	4855.525
984.12747	4837.625
987.86502	4856.225
991.59999	4890.825
995.33237	4934.725
999.06217	5013.425
1002.78939	5112.625
1006.51404	5201.625
1010.23611	5311.425
1013.95561	5391.125
1017.67255	5419.725
1021.38692	5378.525
1025.09872	5286.725
1028.80796	5165.925
1032.51465	5079.925
1036.21877	4980.825
1039.92035	4955.025
1043.61937	4935.825
1047.31584	4929.825
1051.00976	4958.125
1054.70114	4967.825
1058.38998	5008.325
1062.07627	5059.225
1065.76003	5126.925
1069.44126	5189.625
1073.11995	5222.325
1076.79611	5224.525
1080.46974	5184.925
1084.14085	5117.925
1087.80943	5056.925
1091.47549	5010.025
1095.13903	4960.725
1098.80005	4920.025
1102.45857	4863.125
1106.11456	4876.025
1109.76805	4900.725
1113.41903	4975.625
1117.06751	5115.625
1120.71348	5339.725
1124.35696	5658.525
1127.99793	6070.325
1131.63641	6479.925
1135.2724	6720.425
1138.90589	6758.525
1142.5369	6591.225
1146.16542	6260.425
1149.79145	5889.725
1153.415	5544.725
1157.03607	5301.125
1160.65467	5165.025
1164.27079	5098.425
1167.88443	5121.725
1171.49561	5227.225
1175.10432	5410.025
1178.71056	5653.725
1182.31434	5909.125
1185.91565	6039.325
1189.51451	6108.425
1193.11091	6164.925
1196.70485	6271.725
1200.29634	6376.825
1203.88538	6413.125
1207.47197	6345.125
1211.05612	6145.825
1214.63782	5876.925
1218.21708	5629.225
1221.79391	5434.025
1225.36829	5266.825
1228.94024	5157.625
1232.50976	5091.425
1236.07685	5043.825
1239.6415	5068.425
1243.20374	5065.825
1246.76355	5084.625
1250.32093	5140.325
1253.8759	5143.825
1257.42845	5199.325
1260.97859	5233.125
1264.52631	5261.025
1268.07163	5288.325
1271.61453	5291.525
1275.15503	5312.225
1278.69312	5317.225
1282.22882	5310.325
1285.76211	5345.425
1289.29301	5434.625
1292.82151	5506.725
1296.34761	5633.525
1299.87133	5815.925
1303.39266	6040.825
1306.9116	6303.725
1310.42815	6618.425
1313.94233	6827.825
1317.45412	6855.425
1320.96354	6779.525
1324.47058	6674.525
1327.97525	6612.225
1331.47754	6586.625
1334.97747	6594.925
1338.47502	6671.825
1341.97022	6776.125
1345.46305	6884.725
1348.95352	7003.625
1352.44163	7178.225
1355.92738	7382.725
1359.41078	7702.925
1362.89183	8036.525
1366.37053	7983.825
1369.84688	7488.925
1373.32088	6954.025
1376.79254	6573.925
1380.26186	6335.425
1383.72883	6197.125
1387.19347	6118.125
1390.65578	6009.025
1394.11575	5916.825
1397.57339	5878.425
1401.0287	5864.625
1404.48168	5838.225
1407.93234	5781.325
1411.38068	5682.425
1414.82669	5505.725
1418.27039	5340.525
1421.71177	5174.425
1425.15083	5025.825
1428.58758	4906.425
1432.02203	4838.625
1435.45416	4821.725
1438.88399	4807.925
1442.31151	4806.825
1445.73673	4800.925
1449.15965	4815.825
1452.58027	4834.325
1455.9986	4830.625
1459.41463	4855.325
1462.82837	4863.625
1466.23982	4922.825
1469.64898	4977.425
1473.05586	4989.425
1476.46045	5001.125
1479.86276	4995.925
1483.26279	5020.325
1486.66054	5041.525
1490.05602	5074.225
1493.44922	5164.325
1496.84016	5252.625
1500.22882	5414.325
1503.61521	5655.425
1506.99934	5932.625
1510.38121	6191.125
1513.76081	6263.425
1517.13816	6097.825
1520.51324	5791.625
1523.88607	5501.225
1527.25665	5354.325
1530.62498	5284.125
1533.99105	5280.625
1537.35488	5307.425
1540.71647	5330.925
1544.07581	5338.725
1547.4329	5371.025
1550.78776	5401.525
1554.14038	5390.525
1557.49077	5408.325
1560.83892	5437.725
1564.18484	5471.025
1567.52853	5496.225
1570.86999	5558.825
1574.20922	5623.425
1577.54624	5667.025
1580.88103	5660.525
1584.2136	5590.425
1587.54395	5550.925
1590.87208	5560.925
1594.19801	5669.925
1597.52172	5809.825
1600.84321	5873.225
1604.16251	5855.725
1607.47959	5752.225
1610.79447	5619.125
1614.10715	5486.825
1617.41763	5377.325
1620.7259	5304.925
1624.03199	5250.625
1627.33587	5223.425
1630.63757	5244.425
1633.93707	5292.525
1637.23439	5441.425
1640.52951	5628.125
1643.82246	5935.125
1647.11321	6212.225
1650.40179	6442.925
1653.68819	6404.325
1656.97241	6108.925
1660.25446	5746.725
1663.53433	5446.525
1666.81203	5272.925
1670.08756	5129.125
1673.36092	5033.825
1676.63211	4974.825
1679.90115	4896.225
1683.16801	4824.525
1686.43272	4751.125
1689.69527	4670.125
1692.95567	4589.625
1696.2139	4499.825
1699.46999	4381.125
1702.72392	4283.925
1705.97571	4170.825
1709.22535	4071.625
1712.47284	3987.225
1715.71819	3931.025
1718.96139	3883.725
1722.20246	3825.925
1725.44139	3793.225
1728.67818	3756.425
1731.91284	3715.025
1735.14537	3667.925
1738.37576	3644.625
1741.60403	3618.425
1744.83017	3610.625
1748.05418	3597.525
1751.27607	3602.225
1754.49584	3584.825
1757.71349	3599.625
1760.92903	3576.825
1764.14244	3541.625
1767.35375	3525.025
1770.56294	3468.825
1773.77002	3446.125
1776.97499	3401.225
1780.17785	3366.625
1783.37861	3327.425
1786.57727	3320.325
1789.77382	3275.025
1792.96828	3271.525
1796.16064	3224.525
1799.3509	3220.325
1802.53907	3204.325
1805.72514	3185.425
1808.90913	3181.125
1812.09102	3153.025
1815.27083	3154.625
1818.44856	3151.525
1821.6242	3134.725
1824.79776	3196.625
1827.96924	3343.025
1831.13864	3111.825
1834.30597	3097.925
1837.47122	3094.625
1840.6344	3084.525
1843.7955	3079.225
1846.95454	3073.925
1850.11151	3074.625
1853.26642	3056.525
1856.41926	3060.825
1859.57004	3054.825
1862.71876	3058.825
1865.86542	3044.625
1869.01003	3035.225
1872.15258	3035.425
1875.29308	3035.925
1878.43152	3022.825
1881.56792	2997.525
1884.70227	3015.225
1887.83457	3000.325
1890.96482	2991.025
1894.09304	2980.425
1897.21921	2983.825
1900.34335	2969.625
1903.46544	2968.125
1906.58551	2962.425
1909.70353	2962.725
1912.81953	2949.025
1915.93349	2935.225
1919.04543	2929.925
1922.15534	2928.225
1925.26322	2917.525
1928.36908	2913.725
1931.47292	2898.125
1934.57473	2904.225
1937.67453	2888.425
1940.77232	2879.425
1943.86808	2871.625
1946.96184	2861.425
1950.05358	2852.025
1953.14331	2854.225
1956.23103	2836.725
1959.31675	2820.025
1962.40046	2815.425
1965.48217	2807.525
1968.56188	2789.625
1971.63959	2791.225
1974.7153	2769.425
1977.78901	2756.525
1980.86073	2762.325
1983.93046	2736.625
1986.99819	2732.625
1990.06394	2733.325
1993.1277	2720.725
1996.18947	2705.525
1999.24925	2711.225
2002.30706	2695.425
2005.36288	2678.225
2008.41672	2675.725
2011.46859	2655.625
2014.51848	2644.925
2017.56639	2641.225
2020.61233	2628.525
2023.6563	2645.225
2026.6983	2630.725
2029.73833	2612.225
2032.7764	2601.525
2035.8125	2594.825
2038.84664	2594.025
2041.87881	2590.925
2044.90903	2570.325
2047.93729	2570.625
2050.96359	2568.225
2053.98794	2568.725
2057.01034	2559.225
2060.03078	2560.225
2063.04927	2548.725
2066.06582	2558.125
2069.08042	2547.025
2072.09307	2542.125
2075.10378	2538.125
2078.11255	2538.225
2081.11938	2541.425
2084.12426	2534.425
2087.12722	2542.525
2090.12824	2544.925
2093.12732	2536.225
2096.12447	2522.025
2099.11969	2517.125
2102.11299	2534.225
2105.10435	2516.525
2108.09379	2520.225
2111.08131	2513.925
2114.0669	2507.325
2117.05057	2519.925
2120.03233	2520.425
2123.01216	2534.025
2125.99008	2529.625
2128.96609	2523.425
2131.94018	2528.325
2134.91236	2524.625
2137.88263	2519.425
2140.851	2527.525
2143.81746	2524.325
2146.78201	2525.325
2149.74466	2525.025
2152.7054	2533.025
2155.66425	2526.525
2158.6212	2521.925
2161.57625	2518.825
2164.52941	2512.325
2167.48067	2509.225
2170.43004	2512.225
2173.37752	2498.325
2176.32311	2506.725
2179.26681	2504.625
2182.20863	2500.225
2185.14856	2493.825
2188.08661	2484.025
2191.02278	2488.525
2193.95707	2483.125
2196.88948	2475.625
2199.82001	2470.625
2202.74867	2456.325
2205.67545	2475.725
2208.60037	2457.825
2211.52341	2452.925
2214.44458	2450.825
2217.36388	2447.525
2220.28132	2429.525
2223.1969	2432.725
2226.11061	2430.625
2229.02246	2406.125
2231.93245	2411.925
2234.84058	2403.925
2237.74686	2401.625
2240.65128	2399.225
2243.55385	2401.525
2246.45456	2382.025
2249.35343	2381.125
2252.25044	2377.525
2255.14561	2366.325
2258.03893	2380.525
2260.93041	2367.125
2263.82004	2359.825
2266.70783	2347.725
2269.59378	2351.825
2272.4779	2336.125
2275.36017	2333.325
2278.24061	2327.125
2281.11922	2313.625
2283.996	2313.425
2286.87094	2321.125
2289.74405	2296.925
2292.61534	2300.825
2295.4848	2286.625
2298.35243	2295.425
2301.21824	2287.225
2304.08223	2273.325
2306.94439	2272.525
2309.80474	2266.925
2312.66327	2277.825
2315.51999	2274.525
2318.37489	2260.425
2321.22797	2274.425
2324.07925	2261.825
2326.92871	2260.025
2329.77637	2243.725
2332.62222	2246.325
2335.46626	2235.125
2338.3085	2228.925
2341.14893	2238.025
2343.98756	2229.225
2346.8244	2222.725
2349.65943	2212.325
2352.49267	2228.825
2355.32411	2226.225
2358.15376	2223.625
2360.98161	2213.925
2363.80768	2208.125
2366.63195	2200.825
2369.45444	2207.125
2372.27514	2205.325
2375.09405	2197.025
2377.91118	2197.725
2380.72652	2184.025
2383.54009	2181.425
2386.35187	2180.525
2389.16188	2167.525
2391.97011	2163.025
2394.77657	2164.125
2397.58125	2162.625
2400.38416	2161.925
2403.18529	2153.625
2405.98466	2131.525
2408.78226	2147.925
2411.57809	2137.325
2414.37216	2132.625
2417.16446	2134.825
2419.955	2116.825
2422.74378	2112.625
2425.5308	2110.325
2428.31606	2116.425
2431.09956	2101.225
2433.88131	2089.725
2436.6613	2107.725
2439.43954	2100.225
2442.21603	2090.525
2444.99077	2087.225
2447.76377	2088.225
2450.53501	2090.125
2453.30451	2089.025
2456.07226	2076.425
2458.83827	2072.925
2461.60254	2063.525
2464.36507	2059.125
2467.12586	2061.125
2469.88492	2064.725
2472.64224	2053.825
2475.39782	2054.925
2478.15167	2057.925
2480.90379	2060.925
2483.65417	2059.525
2486.40283	2051.125
2489.14976	2050.325
2491.89497	2050.125
2494.63845	2048.725
2497.3802	2056.625
2500.12024	2049.025
2502.85855	2044.025
2505.59514	2033.225
2508.33002	2026.825
2511.06318	2019.525
2513.79462	2023.725
2516.52435	2014.925
2519.25237	2016.225
2521.97867	2016.325
2524.70327	2019.325
2527.42616	2001.425
2530.14734	2002.725
2532.86681	1989.225
2535.58458	1987.425
2538.30065	1989.725
2541.01501	1987.225
2543.72768	1983.525
2546.43864	1971.925
2549.14791	1964.225
2551.85548	1967.225
2554.56136	1951.625
2557.26554	1966.225
2559.96803	1947.925
2562.66883	1951.025
2565.36794	1941.325
2568.06536	1935.225
2570.7611	1938.925
2573.45514	1934.325
2576.14751	1928.225
2578.83819	1924.925
2581.52719	1915.125
2584.21451	1908.725
2586.90015	1907.725
2589.58411	1901.425
2592.2664	1901.725
2594.94701	1891.725
2597.62594	1911.225
2600.30321	1888.325
2602.9788	1885.525
2605.65273	1878.825
2608.32498	1875.625
2610.99557	1862.225
2613.66449	1867.025
2616.33175	1871.225
2618.99734	1865.025
2621.66128	1866.225
2624.32355	1862.225
2626.98416	1856.725
2629.64311	1859.525
2632.30041	1857.925
2634.95605	1851.925
2637.61004	1847.825
2640.26238	1838.825
2642.91306	1839.725
2645.56209	1830.525
2648.20948	1839.425
2650.85521	1828.825
2653.4993	1836.825
2656.14175	1836.225
2658.78255	1828.525
2661.42171	1829.325
2664.05923	1835.125
2666.6951	1838.025
2669.32934	1837.125
2671.96194	1825.525
2674.59291	1827.425
2677.22224	1827.125
2679.84993	1833.725
2682.476	1833.825
2685.10043	1834.925
2687.72324	1831.025
2690.34441	1819.825
2692.96396	1827.625
2695.58188	1831.825
2698.19818	1827.825
2700.81285	1832.525
2703.4259	1838.125
2706.03733	1858.825
2708.64714	1848.125
2711.25533	1842.525
2713.86191	1826.425
2716.46687	1824.625
2719.07021	1835.025
2721.67194	1827.225
2724.27206	1819.425
2726.87057	1831.325
2729.46747	1825.125
2732.06276	1825.725
2734.65644	1813.425
2737.24852	1818.725
2739.83899	1809.625
2742.42786	1814.725
2745.01513	1810.125
2747.60079	1806.225
2750.18486	1809.225
2752.76733	1784.125
2755.3482	1796.725
2757.92747	1801.725
2760.50515	1786.425
2763.08123	1787.025
2765.65573	1777.225
2768.22863	1785.925
2770.79994	1780.725
2773.36967	1783.825
2775.9378	1776.725
2778.50435	1776.125
2781.06932	1775.225
2783.6327	1766.525
2786.1945	1770.125
2788.75471	1762.625
2791.31335	1773.825
2793.87041	1759.425
2796.42589	1748.825
2798.97979	1752.225
2801.53212	1748.825
2804.08288	1741.325
2806.63206	1743.125
2809.17967	1729.025
2811.72571	1740.625
2814.27018	1735.225
2816.81308	1732.425
2819.35442	1739.125
2821.89419	1721.425
2824.43239	1728.925
2826.96904	1727.925
2829.50412	1725.025
2832.03763	1717.025
2834.56959	1720.325
2837.1	1714.825
2839.62884	1724.925
2842.15613	1712.925
2844.68186	1726.325
2847.20604	1718.625
2849.72867	1722.425
2852.24974	1723.825
2854.76927	1718.025
2857.28724	1731.725
2859.80367	1718.025
2862.31855	1719.125
2864.83189	1716.825
2867.34368	1715.325
2869.85393	1709.925
2872.36264	1719.225
2874.8698	1726.725
2877.37543	1728.425
2879.87952	1733.925
2882.38207	1721.625
2884.88308	1729.425
2887.38256	1731.925
2889.88051	1734.525
2892.37692	1720.725
2894.8718	1738.625
2897.36515	1734.725
2899.85698	1744.925
2902.34727	1739.725
2904.83604	1743.525
2907.32328	1754.525
2909.809	1759.625
2912.29319	1759.525
2914.77587	1759.025
2917.25702	1765.425
2919.73665	1764.125
2922.21476	1768.625
2924.69136	1772.925
2927.16644	1779.825
2929.64	1784.025
2932.11205	1775.225
2934.58258	1767.825
2937.05161	1775.825
2939.51912	1776.625
2941.98513	1784.425
2944.44962	1766.625
2946.91261	1766.225
2949.37409	1773.825
2951.83407	1771.025
2954.29254	1771.225
2956.74951	1759.025
2959.20498	1771.725
2961.65895	1760.825
2964.11142	1752.325
2966.56239	1743.125
2969.01186	1739.225
2971.45984	1735.625
2973.90632	1720.425
2976.35131	1717.225
2978.7948	1713.325
2981.23681	1708.225
2983.67732	1692.325
2986.11635	1703.625
2988.55388	1705.325
2990.98993	1700.125
2993.4245	1691.925
2995.85758	1693.625
2998.28917	1691.125
3000.71928	1686.525
3003.14791	1688.425
3005.57506	1691.725
3008.00073	1683.525
3010.42493	1687.725
3012.84764	1680.325
3015.26888	1691.325
3017.68865	1688.725
3020.10694	1684.825
3022.52376	1686.825
3024.9391	1688.825
3027.35298	1700.025
3029.76539	1679.225
3032.17632	1693.425
3034.5858	1688.625
3036.9938	1688.625
3039.40034	1690.225
3041.80542	1688.025
3044.20903	1681.725
3046.61118	1681.125
3049.01187	1676.525
3051.4111	1681.525
3053.80888	1693.525
3056.20519	1697.625
3058.60005	1680.225
3060.99345	1681.125
3063.3854	1678.725
3065.7759	1668.925
3068.16494	1683.925
3070.55254	1691.125
3072.93868	1682.325
3075.32338	1691.825
3077.70662	1683.525
3080.08842	1695.125
3082.46878	1690.525
3084.84769	1694.325
3087.22515	1698.625
3089.60118	1702.025
3091.97576	1704.525
3094.3489	1715.425
3096.72061	1724.625
3099.09087	1732.425
3101.4597	1725.225
3103.82709	1723.225
3106.19305	1725.525
3108.55757	1742.725
3110.92066	1742.925
3113.28232	1737.625
3115.64255	1743.025
3118.00134	1749.625
3120.35871	1748.125
3122.71466	1764.025
3125.06917	1762.825
3127.42226	1761.225
3129.77393	1778.925
3132.12417	1776.725
3134.47299	1783.125
3136.82039	1789.225
3139.16636	1789.225
3141.51092	1798.525
3143.85406	1799.925
3146.19579	1819.725
3148.53609	1826.225
3150.87499	1838.925
3153.21246	1842.625
3155.54853	1847.925
3157.88318	1863.725
3160.21642	1868.525
3162.54826	1877.425
3164.87868	1875.725
3167.2077	1889.325
3169.5353	1891.525
3171.86151	1893.225
3174.18631	1889.125
3176.5097	1899.925
3178.83169	1911.125
3181.15228	1912.825
3183.47147	1926.725
3185.78926	1918.525
3188.10565	1924.025
3190.42065	1933.825
3192.73424	1936.325
3195.04645	1945.625
3197.35725	1947.825
3199.66667	1950.025
3201.97469	1961.125
3204.28132	1969.925
3206.58656	1971.225
3208.8904	1984.025
3211.19287	1990.925
3213.49394	1984.325
3215.79363	1986.825
3218.09193	1991.425
3220.38884	2001.925
3222.68438	2009.225
3224.97853	2003.725
3227.2713	2007.625
3229.56269	2006.325
3231.8527	2007.025
3234.14133	2002.925
3236.42858	2016.925
