Data from AgNPs_FTO_APTES_UA_0.1mM_CRN_0uM_NaF_0.1M_Addition_RamanShift__22__10-28-17-475.txt Node

Date: Mon Dec 20 10:28:17 GMT 2021
User: TCL
Spectrometer: QEP01345
Trigger mode: 4
Integration Time (sec): 7.000000E0
Scans to average: 10
Electric dark correction enabled: true
Nonlinearity correction enabled: false
Boxcar width: 0
XAxis mode: Raman Shifts
Number of Pixels in Spectrum: 1044
>>>>>Begin Spectral Data<<<<<
46.04893	1.05
50.45542	0.15
54.85868	-0.95
59.25871	1.75
63.6555	25.25
68.04907	25.15
72.43941	28.75
76.82654	26.55
81.21044	28.25
85.59113	35.85
89.96862	32.45
94.34289	32.65
98.71396	33.85
103.08183	31.25
107.4465	37.05
111.80798	36.35
116.16626	37.85
120.52136	40.85
124.87327	40.35
129.222	38.85
133.56755	40.65
137.90993	43.35
142.24913	43.75
146.58517	44.95
150.91804	53.45
155.24774	58.85
159.57429	68.75
163.89768	85.65
168.21792	114.95
172.53501	139.65
176.84895	193.25
181.15975	262.45
185.46741	351.75
189.77193	490.55
194.07331	655.55
198.37157	840.05
202.6667	1039.55
206.9587	1236.65
211.24758	1432.25
215.53334	1620.35
219.81599	1802.05
224.09553	2003.45
228.37195	2210.85
232.64527	2435.35
236.91549	2655.85
241.18261	2887.85
245.44663	3109.65
249.70755	3303.75
253.96539	3481.45
258.22014	3620.25
262.4718	3726.45
266.72039	3776.45
270.96589	3795.25
275.20832	3773.75
279.44768	3724.55
283.68397	3677.85
287.91719	3603.05
292.14735	3563.25
296.37445	3514.55
300.59849	3531.15
304.81948	3516.35
309.03742	3517.85
313.25231	3502.95
317.46415	3452.15
321.67296	3372.95
325.87872	3307.05
330.08145	3273.85
334.28114	3280.65
338.47781	3287.05
342.67145	3318.85
346.86207	3376.85
351.04966	3445.15
355.23424	3502.05
359.4158	3596.85
363.59435	3664.65
367.76989	3701.35
371.94243	3756.45
376.11196	3786.65
380.27849	3821.25
384.44203	3873.95
388.60257	3892.85
392.76012	3910.95
396.91468	3940.55
401.06626	3996.85
405.21485	4009.05
409.36047	3977.25
413.50311	3944.15
417.64277	3881.25
421.77947	3853.15
425.9132	3853.55
430.04396	3837.45
434.17176	3856.25
438.2966	3871.05
442.41849	3932.45
446.53742	3939.65
450.6534	4001.25
454.76644	4026.25
458.87653	4046.15
462.98368	4051.35
467.08789	4059.75
471.18916	4064.65
475.2875	4081.55
479.38291	4107.35
483.4754	4195.35
487.56496	4299.05
491.6516	4386.75
495.73531	4444.65
499.81612	4406.85
503.89401	4346.55
507.96899	4266.65
512.04106	4251.65
516.11023	4258.85
520.1765	4302.55
524.23987	4365.45
528.30034	4390.55
532.35792	4389.85
536.41261	4343.55
540.46441	4261.95
544.51333	4193.55
548.55936	4153.15
552.60252	4126.85
556.64279	4125.45
560.6802	4135.85
564.71473	4142.05
568.7464	4176.45
572.7752	4199.95
576.80114	4196.35
580.82422	4204.55
584.84444	4241.75
588.86181	4320.25
592.87633	4353.35
596.888	4367.65
600.89682	4373.55
604.9028	4442.45
608.90594	4750.55
612.90624	5253.45
616.90371	5365.75
620.89834	5096.45
624.89015	5127.75
628.87913	5422.65
632.86528	5772.75
636.84862	5901.15
640.82913	5793.15
644.80683	5490.85
648.78172	5162.35
652.75379	4896.15
656.72306	4735.05
660.68952	4663.95
664.65319	4627.15
668.61405	4600.15
672.57211	4588.45
676.52738	4611.25
680.47986	4641.45
684.42955	4641.35
688.37646	4657.75
692.32058	4637.25
696.26192	4575.35
700.20048	4528.65
704.13626	4491.45
708.06928	4407.45
711.99952	4361.65
715.927	4311.85
719.85171	4330.05
723.77365	4352.05
727.69284	4345.05
731.60928	4312.35
735.52295	4244.65
739.43388	4197.25
743.34206	4201.65
747.24749	4198.25
751.15017	4216.05
755.05012	4219.45
758.94733	4246.05
762.8418	4339.55
766.73354	4488.35
770.62254	4689.85
774.50882	4798.55
778.39237	4752.45
782.27321	4557.65
786.15132	4397.35
790.02671	4343.35
793.89938	4335.05
797.76935	4382.25
801.6366	4489.85
805.50115	4673.25
809.36299	4871.95
813.22213	4944.35
817.07857	4843.05
820.93231	4629.75
824.78336	4400.35
828.63172	4224.25
832.47738	4159.95
836.32036	4124.45
840.16066	4106.15
843.99827	4077.15
847.8332	4061.55
851.66546	4036.05
855.49504	4023.65
859.32195	4025.15
863.1462	4037.85
866.96777	4066.15
870.78668	4128.35
874.60293	4246.55
878.41652	4379.95
882.22745	4511.45
886.03573	4586.05
889.84136	4587.95
893.64433	4494.75
897.44466	4335.55
901.24235	4151.05
905.0374	4019.75
908.8298	3948.25
912.61957	3915.05
916.40671	3912.65
920.19121	3899.25
923.97308	3893.05
927.75233	3900.45
931.52895	3883.65
935.30295	3896.85
939.07433	3872.75
942.84309	3835.75
946.60924	3821.55
950.37278	3819.75
954.13371	3810.65
957.89203	3785.95
961.64774	3749.95
965.40086	3726.45
969.15137	3703.35
972.89929	3662.15
976.64461	3651.85
980.38733	3635.35
984.12747	3628.15
987.86502	3635.15
991.59999	3648.65
995.33237	3696.35
999.06217	3763.35
1002.78939	3829.55
1006.51404	3922.55
1010.23611	4000.55
1013.95561	4062.55
1017.67255	4055.45
1021.38692	4028.15
1025.09872	3961.65
1028.80796	3885.95
1032.51465	3770.05
1036.21877	3723.95
1039.92035	3678.45
1043.61937	3636.85
1047.31584	3616.55
1051.00976	3628.25
1054.70114	3641.45
1058.38998	3666.45
1062.07627	3688.25
1065.76003	3734.65
1069.44126	3752.55
1073.11995	3749.35
1076.79611	3733.95
1080.46974	3714.55
1084.14085	3686.75
1087.80943	3652.75
1091.47549	3643.95
1095.13903	3589.15
1098.80005	3555.05
1102.45857	3528.35
1106.11456	3535.05
1109.76805	3553.25
1113.41903	3631.15
1117.06751	3770.85
1120.71348	3949.45
1124.35696	4235.35
1127.99793	4560.55
1131.63641	4875.85
1135.2724	5026.65
1138.90589	5026.45
1142.5369	4842.65
1146.16542	4584.55
1149.79145	4274.95
1153.415	3986.55
1157.03607	3796.65
1160.65467	3670.25
1164.27079	3612.45
1167.88443	3608.95
1171.49561	3659.25
1175.10432	3766.65
1178.71056	3945.55
1182.31434	4110.55
1185.91565	4225.25
1189.51451	4293.55
1193.11091	4363.15
1196.70485	4460.65
1200.29634	4569.95
1203.88538	4590.55
1207.47197	4506.35
1211.05612	4331.05
1214.63782	4135.95
1218.21708	3941.45
1221.79391	3794.35
1225.36829	3685.35
1228.94024	3618.75
1232.50976	3582.05
1236.07685	3569.25
1239.6415	3557.65
1243.20374	3572.55
1246.76355	3589.75
1250.32093	3609.35
1253.8759	3612.95
1257.42845	3658.95
1260.97859	3693.45
1264.52631	3710.95
1268.07163	3736.35
1271.61453	3759.25
1275.15503	3736.75
1278.69312	3735.95
1282.22882	3727.65
1285.76211	3746.05
1289.29301	3767.45
1292.82151	3836.25
1296.34761	3884.95
1299.87133	3971.35
1303.39266	4101.25
1306.9116	4299.85
1310.42815	4534.85
1313.94233	4701.55
1317.45412	4740.45
1320.96354	4636.75
1324.47058	4521.15
1327.97525	4417.35
1331.47754	4379.85
1334.97747	4404.45
1338.47502	4490.85
1341.97022	4560.65
1345.46305	4691.55
1348.95352	4888.15
1352.44163	5102.15
1355.92738	5367.45
1359.41078	5701.25
1362.89183	6070.75
1366.37053	6081.35
1369.84688	5706.65
1373.32088	5252.45
1376.79254	4937.75
1380.26186	4730.65
1383.72883	4611.05
1387.19347	4507.85
1390.65578	4387.65
1394.11575	4281.45
1397.57339	4199.35
1401.0287	4092.25
1404.48168	4035.95
1407.93234	3931.95
1411.38068	3840.95
1414.82669	3738.15
1418.27039	3644.15
1421.71177	3567.85
1425.15083	3481.05
1428.58758	3436.75
1432.02203	3393.35
1435.45416	3377.25
1438.88399	3386.95
1442.31151	3365.35
1445.73673	3353.85
1449.15965	3351.65
1452.58027	3345.75
1455.9986	3334.85
1459.41463	3309.75
1462.82837	3325.35
1466.23982	3322.25
1469.64898	3381.75
1473.05586	3404.35
1476.46045	3418.75
1479.86276	3445.55
1483.26279	3488.75
1486.66054	3526.05
1490.05602	3589.35
1493.44922	3645.05
1496.84016	3730.95
1500.22882	3863.25
1503.61521	4080.35
1506.99934	4311.45
1510.38121	4545.35
1513.76081	4658.45
1517.13816	4534.45
1520.51324	4269.35
1523.88607	3961.55
1527.25665	3778.55
1530.62498	3676.85
1533.99105	3637.75
1537.35488	3655.85
1540.71647	3678.15
1544.07581	3733.15
1547.4329	3771.65
1550.78776	3818.05
1554.14038	3860.75
1557.49077	3888.75
1560.83892	3919.85
1564.18484	3962.45
1567.52853	4002.45
1570.86999	4027.95
1574.20922	4039.45
1577.54624	4044.85
1580.88103	4007.95
1584.2136	3893.95
1587.54395	3842.15
1590.87208	3848.85
1594.19801	3869.25
1597.52172	3938.55
1600.84321	4008.25
1604.16251	4014.45
1607.47959	3994.65
1610.79447	3945.55
1614.10715	3893.65
1617.41763	3839.25
1620.7259	3819.45
1624.03199	3794.35
1627.33587	3791.35
1630.63757	3787.85
1633.93707	3819.85
1637.23439	3876.35
1640.52951	3990.75
1643.82246	4167.15
1647.11321	4384.05
1650.40179	4565.15
1653.68819	4599.45
1656.97241	4406.15
1660.25446	4145.95
1663.53433	3938.45
1666.81203	3782.75
1670.08756	3664.85
1673.36092	3584.15
1676.63211	3510.75
1679.90115	3476.25
1683.16801	3396.35
1686.43272	3358.25
1689.69527	3316.75
1692.95567	3262.15
1696.2139	3208.65
1699.46999	3125.85
1702.72392	3032.85
1705.97571	2955.45
1709.22535	2874.15
1712.47284	2808.25
1715.71819	2727.95
1718.96139	2672.55
1722.20246	2620.55
1725.44139	2574.05
1728.67818	2516.35
1731.91284	2462.65
1735.14537	2412.95
1738.37576	2384.25
1741.60403	2364.85
1744.83017	2331.15
1748.05418	2327.25
1751.27607	2301.05
1754.49584	2283.15
1757.71349	2287.55
1760.92903	2258.85
1764.14244	2252.45
1767.35375	2228.85
1770.56294	2228.15
1773.77002	2206.25
1776.97499	2193.45
1780.17785	2179.95
1783.37861	2159.65
1786.57727	2139.15
1789.77382	2117.35
1792.96828	2108.15
1796.16064	2083.65
1799.3509	2069.05
1802.53907	2065.75
1805.72514	2055.55
1808.90913	2040.15
1812.09102	2037.95
1815.27083	2014.75
1818.44856	2017.75
1821.6242	2007.95
1824.79776	1996.95
1827.96924	2000.75
1831.13864	1980.05
1834.30597	1977.35
1837.47122	1976.15
1840.6344	1973.95
1843.7955	1959.15
1846.95454	1962.15
1850.11151	1953.05
1853.26642	1962.15
1856.41926	1951.65
1859.57004	1945.35
1862.71876	1933.05
1865.86542	1935.45
1869.01003	1933.95
1872.15258	1916.15
1875.29308	1925.15
1878.43152	1917.35
1881.56792	1906.65
1884.70227	1907.65
1887.83457	1901.25
1890.96482	1896.55
1894.09304	1891.05
1897.21921	1886.15
1900.34335	1870.55
1903.46544	1870.15
1906.58551	1877.55
1909.70353	1866.55
1912.81953	1856.95
1915.93349	1856.35
1919.04543	1849.35
1922.15534	1849.65
1925.26322	1836.25
1928.36908	1834.55
1931.47292	1821.15
1934.57473	1819.65
1937.67453	1809.05
1940.77232	1790.45
1943.86808	1803.15
1946.96184	1794.35
1950.05358	1788.05
1953.14331	1778.85
1956.23103	1769.45
1959.31675	1759.55
1962.40046	1752.35
1965.48217	1755.95
1968.56188	1751.55
1971.63959	1735.55
1974.7153	1722.35
1977.78901	1726.25
1980.86073	1713.75
1983.93046	1714.15
1986.99819	1714.25
1990.06394	1698.15
1993.1277	1700.75
1996.18947	1689.85
1999.24925	1689.55
2002.30706	1678.35
2005.36288	1670.95
2008.41672	1657.65
2011.46859	1658.95
2014.51848	1642.25
2017.56639	1650.45
2020.61233	1649.15
2023.6563	1632.15
2026.6983	1623.35
2029.73833	1618.35
2032.7764	1616.35
2035.8125	1606.95
2038.84664	1616.45
2041.87881	1601.75
2044.90903	1597.55
2047.93729	1600.85
2050.96359	1583.45
2053.98794	1587.55
2057.01034	1583.35
2060.03078	1591.45
2063.04927	1589.75
2066.06582	1584.45
2069.08042	1579.65
2072.09307	1570.15
2075.10378	1577.95
2078.11255	1576.65
2081.11938	1569.65
2084.12426	1570.55
2087.12722	1575.95
2090.12824	1571.05
2093.12732	1556.95
2096.12447	1565.05
2099.11969	1557.15
2102.11299	1561.05
2105.10435	1549.55
2108.09379	1556.95
2111.08131	1557.85
2114.0669	1551.45
2117.05057	1552.15
2120.03233	1556.55
2123.01216	1550.15
2125.99008	1551.65
2128.96609	1549.55
2131.94018	1552.65
2134.91236	1549.05
2137.88263	1545.65
2140.851	1547.45
2143.81746	1544.75
2146.78201	1543.35
2149.74466	1539.95
2152.7054	1539.15
2155.66425	1535.35
2158.6212	1530.25
2161.57625	1522.15
2164.52941	1525.05
2167.48067	1530.35
2170.43004	1516.75
2173.37752	1521.85
2176.32311	1521.25
2179.26681	1526.45
2182.20863	1518.55
2185.14856	1516.45
2188.08661	1506.75
2191.02278	1513.15
2193.95707	1501.05
2196.88948	1497.35
2199.82001	1503.25
2202.74867	1497.65
2205.67545	1490.25
2208.60037	1491.85
2211.52341	1485.35
2214.44458	1480.95
2217.36388	1476.05
2220.28132	1468.25
2223.1969	1461.15
2226.11061	1468.95
2229.02246	1451.65
2231.93245	1458.75
2234.84058	1444.95
2237.74686	1448.45
2240.65128	1446.65
2243.55385	1437.55
2246.45456	1426.75
2249.35343	1432.75
2252.25044	1435.25
2255.14561	1420.75
2258.03893	1420.25
2260.93041	1422.05
2263.82004	1415.85
2266.70783	1422.65
2269.59378	1406.05
2272.4779	1400.55
2275.36017	1395.05
2278.24061	1388.35
2281.11922	1387.75
2283.996	1381.75
2286.87094	1379.45
2289.74405	1376.05
2292.61534	1368.25
2295.4848	1357.65
2298.35243	1361.55
2301.21824	1354.85
2304.08223	1359.25
2306.94439	1354.65
2309.80474	1346.05
2312.66327	1349.95
2315.51999	1348.25
2318.37489	1336.55
2321.22797	1338.95
2324.07925	1332.75
2326.92871	1329.45
2329.77637	1334.85
2332.62222	1337.65
2335.46626	1311.35
2338.3085	1321.15
2341.14893	1317.15
2343.98756	1311.15
2346.8244	1308.35
2349.65943	1304.35
2352.49267	1308.65
2355.32411	1305.25
2358.15376	1303.45
2360.98161	1291.15
2363.80768	1293.55
2366.63195	1303.85
2369.45444	1297.65
2372.27514	1294.95
2375.09405	1296.65
2377.91118	1296.75
2380.72652	1290.85
2383.54009	1289.95
2386.35187	1291.55
2389.16188	1285.05
2391.97011	1276.05
2394.77657	1270.85
2397.58125	1258.05
2400.38416	1258.95
2403.18529	1262.05
2405.98466	1258.95
2408.78226	1258.55
2411.57809	1242.95
2414.37216	1241.85
2417.16446	1245.75
2419.955	1244.45
2422.74378	1231.65
2425.5308	1232.85
2428.31606	1227.95
2431.09956	1219.05
2433.88131	1226.95
2436.6613	1221.35
2439.43954	1214.65
2442.21603	1216.15
2444.99077	1214.45
2447.76377	1208.75
2450.53501	1212.25
2453.30451	1207.95
2456.07226	1204.15
2458.83827	1202.05
2461.60254	1195.75
2464.36507	1192.95
2467.12586	1193.05
2469.88492	1189.95
2472.64224	1185.05
2475.39782	1184.25
2478.15167	1184.45
2480.90379	1180.65
2483.65417	1181.05
2486.40283	1176.65
2489.14976	1172.55
2491.89497	1179.65
2494.63845	1181.85
2497.3802	1171.95
2500.12024	1169.35
2502.85855	1165.95
2505.59514	1163.05
2508.33002	1162.75
2511.06318	1155.45
2513.79462	1157.65
2516.52435	1156.35
2519.25237	1146.85
2521.97867	1145.05
2524.70327	1144.35
2527.42616	1141.05
2530.14734	1138.85
2532.86681	1125.65
2535.58458	1129.65
2538.30065	1128.85
2541.01501	1124.15
2543.72768	1125.65
2546.43864	1116.55
2549.14791	1118.45
2551.85548	1108.75
2554.56136	1109.15
2557.26554	1103.35
2559.96803	1103.45
2562.66883	1096.15
2565.36794	1094.95
2568.06536	1098.65
2570.7611	1085.35
2573.45514	1094.55
2576.14751	1091.75
2578.83819	1090.65
2581.52719	1088.15
2584.21451	1069.35
2586.90015	1072.65
2589.58411	1071.05
2592.2664	1063.65
2594.94701	1065.35
2597.62594	1063.45
2600.30321	1059.35
2602.9788	1065.25
2605.65273	1053.35
2608.32498	1048.45
2610.99557	1051.35
2613.66449	1053.35
2616.33175	1049.65
2618.99734	1046.35
2621.66128	1042.25
2624.32355	1044.15
2626.98416	1037.35
2629.64311	1029.55
2632.30041	1037.45
2634.95605	1028.35
2637.61004	1026.45
2640.26238	1025.05
2642.91306	1030.55
2645.56209	1027.55
2648.20948	1018.75
2650.85521	1017.55
2653.4993	1022.55
2656.14175	1021.75
2658.78255	1020.65
2661.42171	1016.45
2664.05923	1014.25
2666.6951	1017.05
2669.32934	1015.25
2671.96194	1013.85
2674.59291	1013.25
2677.22224	1017.05
2679.84993	1023.05
2682.476	1014.65
2685.10043	1019.45
2687.72324	1021.95
2690.34441	1010.15
2692.96396	1014.65
2695.58188	1024.35
2698.19818	1020.85
2700.81285	1019.65
2703.4259	1024.65
2706.03733	1011.25
2708.64714	1019.35
2711.25533	1015.45
2713.86191	1011.35
2716.46687	1014.45
2719.07021	1025.15
2721.67194	1019.25
2724.27206	1018.65
2726.87057	1021.15
2729.46747	1025.35
2732.06276	1017.95
2734.65644	1018.85
2737.24852	1013.35
2739.83899	1014.35
2742.42786	1007.45
2745.01513	1005.45
2747.60079	1010.75
2750.18486	1001.75
2752.76733	1004.25
2755.3482	1004.35
2757.92747	1002.85
2760.50515	1006.35
2763.08123	1001.45
2765.65573	997.65
2768.22863	1009.85
2770.79994	998.05
2773.36967	996.25
2775.9378	991.95
2778.50435	988.25
2781.06932	987.05
2783.6327	982.35
2786.1945	995.35
2788.75471	982.85
2791.31335	986.35
2793.87041	984.35
2796.42589	979.05
2798.97979	971.35
2801.53212	971.05
2804.08288	976.25
2806.63206	969.25
2809.17967	966.25
2811.72571	969.25
2814.27018	976.35
2816.81308	972.95
2819.35442	963.65
2821.89419	957.15
2824.43239	964.95
2826.96904	966.35
2829.50412	959.35
2832.03763	963.05
2834.56959	961.75
2837.1	962.95
2839.62884	963.25
2842.15613	964.45
2844.68186	965.65
2847.20604	971.95
2849.72867	969.75
2852.24974	972.95
2854.76927	972.45
2857.28724	977.55
2859.80367	975.95
2862.31855	977.75
2864.83189	989.45
2867.34368	989.05
2869.85393	982.25
2872.36264	990.25
2874.8698	1002.85
2877.37543	1002.35
2879.87952	998.15
2882.38207	1007.45
2884.88308	1008.05
2887.38256	1013.25
2889.88051	1009.65
2892.37692	1013.55
2894.8718	1014.05
2897.36515	1020.85
2899.85698	1022.05
2902.34727	1030.25
2904.83604	1024.85
2907.32328	1024.75
2909.809	1031.75
2912.29319	1024.15
2914.77587	1019.95
2917.25702	1028.55
2919.73665	1035.65
2922.21476	1032.85
2924.69136	1036.25
2927.16644	1026.65
2929.64	1034.75
2932.11205	1031.15
2934.58258	1029.25
2937.05161	1020.55
2939.51912	1021.75
2941.98513	1018.25
2944.44962	1011.75
2946.91261	1003.55
2949.37409	1010.45
2951.83407	1003.45
2954.29254	998.55
2956.74951	986.05
2959.20498	991.35
2961.65895	976.25
2964.11142	974.95
2966.56239	962.55
2969.01186	965.65
2971.45984	958.25
2973.90632	947.25
2976.35131	950.35
2978.7948	952.45
2981.23681	943.85
2983.67732	937.05
2986.11635	949.75
2988.55388	936.95
2990.98993	937.15
2993.4245	931.75
2995.85758	929.35
2998.28917	929.95
3000.71928	922.05
3003.14791	924.95
3005.57506	924.95
3008.00073	922.35
3010.42493	926.55
3012.84764	928.35
3015.26888	926.55
3017.68865	929.05
3020.10694	925.35
3022.52376	934.15
3024.9391	931.85
3027.35298	921.45
3029.76539	933.15
3032.17632	927.05
3034.5858	925.75
3036.9938	931.85
3039.40034	929.25
3041.80542	929.75
3044.20903	930.85
3046.61118	933.25
3049.01187	936.05
3051.4111	938.35
3053.80888	944.95
3056.20519	942.25
3058.60005	941.65
3060.99345	948.35
3063.3854	944.25
3065.7759	946.35
3068.16494	947.75
3070.55254	943.45
3072.93868	948.35
3075.32338	959.35
3077.70662	959.35
3080.08842	956.35
3082.46878	964.35
3084.84769	960.95
3087.22515	971.25
3089.60118	969.35
3091.97576	968.85
3094.3489	975.55
3096.72061	983.35
3099.09087	991.15
3101.4597	991.05
3103.82709	997.55
3106.19305	1002.25
3108.55757	1010.05
3110.92066	1014.35
3113.28232	1005.55
3115.64255	1011.45
3118.00134	1012.75
3120.35871	1009.95
3122.71466	1023.55
3125.06917	1027.35
3127.42226	1024.85
3129.77393	1042.15
3132.12417	1043.15
3134.47299	1051.15
3136.82039	1051.55
3139.16636	1061.65
3141.51092	1065.35
3143.85406	1078.85
3146.19579	1079.85
3148.53609	1088.65
3150.87499	1095.95
3153.21246	1093.05
3155.54853	1104.85
3157.88318	1116.85
3160.21642	1127.45
3162.54826	1130.25
3164.87868	1130.85
3167.2077	1133.95
3169.5353	1147.05
3171.86151	1144.35
3174.18631	1157.95
3176.5097	1158.15
3178.83169	1162.45
3181.15228	1165.95
3183.47147	1168.65
3185.78926	1173.25
3188.10565	1174.15
3190.42065	1192.95
3192.73424	1184.95
3195.04645	1190.75
3197.35725	1206.35
3199.66667	1201.35
3201.97469	1203.85
3204.28132	1204.95
3206.58656	1222.15
3208.8904	1223.25
3211.19287	1230.35
3213.49394	1240.45
3215.79363	1236.15
3218.09193	1237.35
3220.38884	1244.15
3222.68438	1243.65
3224.97853	1242.05
3227.2713	1252.85
3229.56269	1245.85
3231.8527	1249.35
3234.14133	1243.45
3236.42858	1239.65
3238.71446	1242.25
3240.99896	1248.15
3243.28209	1249.65
3245.56384	1253.45
3247.84423	1253.75
3250.12324	1255.95
3252.40088	1253.55
3254.67715	1251.75
3256.95205	1245.25
3259.22558	1263.95
3261.49775	1261.05
3263.76855	1255.55
3266.03799	1251.95
3268.30606	1255.45
3270.57277	1246.85
3272.83812	1245.15
3275.10211	1247.25
3277.36474	1254.85
3279.62601	1251.85
3281.88593	1248.95
3284.14448	1258.85
3286.40168	1247.55
3288.65753	1248.75
3290.91202	1271.15
3293.16516	1295.95
3295.41695	1245.25
3297.66738	1226.65
3299.91647	1226.95
3302.16421	1218.85
3304.4106	1220.65
3306.65564	1213.15
3308.89933	1200.55
3311.14169	1194.35
3313.38269	1184.15
3315.62236	1186.65
3317.86068	1175.25
3320.09766	1161.55
3322.3333	1157.85
3324.5676	1157.85
3326.80056	1128.35
3329.03219	1131.85
3331.26248	-1.45
3333.49143	0.15
3335.71905	-0.65
