Data from AgNPs_FTO_APTES_UA_0.1mM_CRN_1000uM_NaF_0.1M_Addition_RamanShift__2__15-16-27-801.txt Node

Date: Mon Dec 20 15:16:27 GMT 2021
User: TCL
Spectrometer: QEP01345
Trigger mode: 4
Integration Time (sec): 7.000000E0
Scans to average: 10
Electric dark correction enabled: true
Nonlinearity correction enabled: false
Boxcar width: 0
XAxis mode: Raman Shifts
Number of Pixels in Spectrum: 1044
>>>>>Begin Spectral Data<<<<<
46.04893	1.675
50.45542	-0.525
54.85868	-1.025
59.25871	0.375
63.6555	22.975
68.04907	23.775
72.43941	28.775
76.82654	30.275
81.21044	25.875
85.59113	35.875
89.96862	29.175
94.34289	35.275
98.71396	33.275
103.08183	35.175
107.4465	37.375
111.80798	39.875
116.16626	40.175
120.52136	38.275
124.87327	39.875
129.222	39.675
133.56755	40.275
137.90993	44.775
142.24913	44.875
146.58517	45.875
150.91804	52.775
155.24774	60.275
159.57429	68.375
163.89768	87.675
168.21792	109.075
172.53501	139.675
176.84895	185.475
181.15975	258.675
185.46741	351.275
189.77193	485.175
194.07331	644.275
198.37157	829.575
202.6667	1032.475
206.9587	1239.175
211.24758	1450.575
215.53334	1662.775
219.81599	1882.675
224.09553	2138.075
228.37195	2399.675
232.64527	2694.575
236.91549	2996.875
241.18261	3268.275
245.44663	3507.275
249.70755	3712.675
253.96539	3859.875
258.22014	3964.775
262.4718	4021.575
266.72039	4032.575
270.96589	4026.775
275.20832	3984.275
279.44768	3933.475
283.68397	3877.675
287.91719	3796.875
292.14735	3733.475
296.37445	3701.675
300.59849	3674.575
304.81948	3647.375
309.03742	3618.375
313.25231	3571.475
317.46415	3534.875
321.67296	3485.175
325.87872	3460.875
330.08145	3419.775
334.28114	3418.875
338.47781	3432.475
342.67145	3446.475
346.86207	3455.975
351.04966	3507.875
355.23424	3542.775
359.4158	3593.475
363.59435	3625.675
367.76989	3672.175
371.94243	3694.475
376.11196	3744.275
380.27849	3798.375
384.44203	3831.475
388.60257	3888.475
392.76012	3924.475
396.91468	3942.175
401.06626	3981.975
405.21485	3990.275
409.36047	4013.475
413.50311	3990.675
417.64277	3976.475
421.77947	3982.475
425.9132	3989.375
430.04396	3980.475
434.17176	4006.675
438.2966	4007.975
442.41849	4034.775
446.53742	4068.875
450.6534	4101.375
454.76644	4117.775
458.87653	4162.375
462.98368	4183.575
467.08789	4183.475
471.18916	4204.975
475.2875	4243.975
479.38291	4280.475
483.4754	4339.775
487.56496	4464.075
491.6516	4588.675
495.73531	4684.075
499.81612	4692.275
503.89401	4657.975
507.96899	4550.275
512.04106	4491.875
516.11023	4457.775
520.1765	4473.475
524.23987	4503.975
528.30034	4533.875
532.35792	4552.575
536.41261	4564.675
540.46441	4484.775
544.51333	4424.275
548.55936	4347.775
552.60252	4275.475
556.64279	4258.675
560.6802	4251.975
564.71473	4238.575
568.7464	4255.275
572.7752	4302.075
576.80114	4323.575
580.82422	4386.175
584.84444	4451.875
588.86181	4553.875
592.87633	4617.775
596.888	4603.375
600.89682	4563.475
604.9028	4569.175
608.90594	4664.475
612.90624	4859.475
616.90371	4960.275
620.89834	4986.275
624.89015	5220.975
628.87913	5666.175
632.86528	6149.375
636.84862	6493.875
640.82913	6523.375
644.80683	6207.275
648.78172	5764.475
652.75379	5371.275
656.72306	5078.575
660.68952	4894.075
664.65319	4761.675
668.61405	4675.175
672.57211	4645.275
676.52738	4675.375
680.47986	4687.175
684.42955	4683.675
688.37646	4636.375
692.32058	4594.675
696.26192	4521.075
700.20048	4478.675
704.13626	4465.575
708.06928	4427.575
711.99952	4420.375
715.927	4449.575
719.85171	4487.975
723.77365	4554.575
727.69284	4603.575
731.60928	4580.975
735.52295	4498.175
739.43388	4415.775
743.34206	4381.575
747.24749	4377.875
751.15017	4375.475
755.05012	4390.375
758.94733	4390.875
762.8418	4428.975
766.73354	4504.975
770.62254	4541.775
774.50882	4556.775
778.39237	4509.175
782.27321	4404.275
786.15132	4340.775
790.02671	4296.275
793.89938	4308.075
797.76935	4342.475
801.6366	4411.475
805.50115	4535.875
809.36299	4741.275
813.22213	4898.075
817.07857	4890.475
820.93231	4733.775
824.78336	4526.975
828.63172	4325.275
832.47738	4225.375
836.32036	4178.975
840.16066	4155.175
843.99827	4135.575
847.8332	4140.675
851.66546	4131.975
855.49504	4130.975
859.32195	4153.275
863.1462	4173.375
866.96777	4240.175
870.78668	4302.175
874.60293	4403.175
878.41652	4530.975
882.22745	4663.275
886.03573	4773.075
889.84136	4837.775
893.64433	4784.675
897.44466	4598.975
901.24235	4417.975
905.0374	4230.275
908.8298	4111.075
912.61957	4046.175
916.40671	4008.675
920.19121	3999.675
923.97308	3980.475
927.75233	3973.575
931.52895	3967.975
935.30295	3939.975
939.07433	3944.075
942.84309	3924.975
946.60924	3918.475
950.37278	3891.075
954.13371	3881.275
957.89203	3867.775
961.64774	3865.675
965.40086	3863.975
969.15137	3830.475
972.89929	3809.075
976.64461	3822.875
980.38733	3820.075
984.12747	3802.175
987.86502	3816.375
991.59999	3837.275
995.33237	3875.275
999.06217	3905.475
1002.78939	3956.575
1006.51404	4023.475
1010.23611	4093.575
1013.95561	4137.075
1017.67255	4175.475
1021.38692	4168.775
1025.09872	4145.075
1028.80796	4093.175
1032.51465	4032.475
1036.21877	3985.775
1039.92035	3929.775
1043.61937	3899.575
1047.31584	3877.375
1051.00976	3881.675
1054.70114	3898.275
1058.38998	3917.175
1062.07627	3978.875
1065.76003	4038.875
1069.44126	4108.975
1073.11995	4149.475
1076.79611	4178.175
1080.46974	4157.375
1084.14085	4088.775
1087.80943	3995.575
1091.47549	3949.375
1095.13903	3903.175
1098.80005	3860.575
1102.45857	3855.475
1106.11456	3865.675
1109.76805	3919.575
1113.41903	4029.175
1117.06751	4171.875
1120.71348	4454.875
1124.35696	4853.175
1127.99793	5314.575
1131.63641	5730.775
1135.2724	5920.475
1138.90589	5908.775
1142.5369	5661.275
1146.16542	5294.275
1149.79145	4886.775
1153.415	4533.575
1157.03607	4253.075
1160.65467	4076.775
1164.27079	3966.775
1167.88443	3932.575
1171.49561	3958.075
1175.10432	4002.075
1178.71056	4078.875
1182.31434	4136.775
1185.91565	4219.775
1189.51451	4282.775
1193.11091	4359.375
1196.70485	4463.075
1200.29634	4572.875
1203.88538	4642.075
1207.47197	4670.975
1211.05612	4605.275
1214.63782	4508.275
1218.21708	4345.375
1221.79391	4184.975
1225.36829	4062.375
1228.94024	3987.775
1232.50976	3934.775
1236.07685	3899.175
1239.6415	3899.275
1243.20374	3925.775
1246.76355	3964.575
1250.32093	3993.575
1253.8759	4036.375
1257.42845	4069.375
1260.97859	4100.975
1264.52631	4107.475
1268.07163	4134.675
1271.61453	4119.575
1275.15503	4096.975
1278.69312	4083.475
1282.22882	4046.075
1285.76211	4014.575
1289.29301	3997.375
1292.82151	4032.775
1296.34761	4055.075
1299.87133	4094.775
1303.39266	4147.575
1306.9116	4224.075
1310.42815	4333.075
1313.94233	4416.575
1317.45412	4443.075
1320.96354	4444.475
1324.47058	4460.475
1327.97525	4472.775
1331.47754	4463.975
1334.97747	4506.675
1338.47502	4532.975
1341.97022	4630.175
1345.46305	4683.475
1348.95352	4795.975
1352.44163	4877.975
1355.92738	5004.775
1359.41078	5132.275
1362.89183	5256.375
1366.37053	5270.875
1369.84688	5137.675
1373.32088	4995.175
1376.79254	4826.075
1380.26186	4701.475
1383.72883	4605.375
1387.19347	4505.175
1390.65578	4397.875
1394.11575	4328.075
1397.57339	4221.775
1401.0287	4139.275
1404.48168	4094.475
1407.93234	4034.575
1411.38068	3956.475
1414.82669	3887.175
1418.27039	3814.475
1421.71177	3739.875
1425.15083	3669.975
1428.58758	3627.175
1432.02203	3550.075
1435.45416	3517.975
1438.88399	3513.275
1442.31151	3484.475
1445.73673	3498.275
1449.15965	3484.875
1452.58027	3484.675
1455.9986	3494.075
1459.41463	3480.475
1462.82837	3490.875
1466.23982	3514.375
1469.64898	3533.975
1473.05586	3547.275
1476.46045	3552.075
1479.86276	3570.675
1483.26279	3569.975
1486.66054	3614.775
1490.05602	3638.775
1493.44922	3697.375
1496.84016	3764.975
1500.22882	3837.775
1503.61521	3939.175
1506.99934	4065.075
1510.38121	4133.375
1513.76081	4159.875
1517.13816	4088.475
1520.51324	3999.975
1523.88607	3902.875
1527.25665	3869.575
1530.62498	3862.975
1533.99105	3882.175
1537.35488	3910.475
1540.71647	3960.275
1544.07581	3992.675
1547.4329	4028.475
1550.78776	4054.975
1554.14038	4062.975
1557.49077	4085.775
1560.83892	4110.975
1564.18484	4112.275
1567.52853	4128.875
1570.86999	4128.075
1574.20922	4157.775
1577.54624	4164.675
1580.88103	4155.175
1584.2136	4106.275
1587.54395	4054.175
1590.87208	4003.775
1594.19801	4000.175
1597.52172	4006.275
1600.84321	4032.175
1604.16251	4022.175
1607.47959	3999.275
1610.79447	4004.675
1614.10715	3992.675
1617.41763	3968.075
1620.7259	3971.175
1624.03199	3986.875
1627.33587	4003.875
1630.63757	4048.475
1633.93707	4095.875
1637.23439	4186.175
1640.52951	4310.775
1643.82246	4449.775
1647.11321	4597.175
1650.40179	4712.575
1653.68819	4727.775
1656.97241	4660.475
1660.25446	4554.675
1663.53433	4480.675
1666.81203	4417.375
1670.08756	4386.875
1673.36092	4367.875
1676.63211	4363.675
1679.90115	4371.875
1683.16801	4332.275
1686.43272	4312.075
1689.69527	4228.475
1692.95567	4162.375
1696.2139	4078.575
1699.46999	3991.875
1702.72392	3873.175
1705.97571	3739.675
1709.22535	3568.675
1712.47284	3443.175
1715.71819	3325.975
1718.96139	3231.775
1722.20246	3172.175
1725.44139	3105.175
1728.67818	3066.175
1731.91284	3026.875
1735.14537	2981.775
1738.37576	2944.275
1741.60403	2923.075
1744.83017	2892.175
1748.05418	2879.675
1751.27607	2880.675
1754.49584	2885.975
1757.71349	2895.375
1760.92903	2878.675
1764.14244	2861.775
1767.35375	2863.275
1770.56294	2832.775
1773.77002	2827.775
1776.97499	2807.475
1780.17785	2786.075
1783.37861	2764.875
1786.57727	2742.675
1789.77382	2725.175
1792.96828	2712.475
1796.16064	2697.675
1799.3509	2687.275
1802.53907	2676.175
1805.72514	2677.375
1808.90913	2652.675
1812.09102	2643.475
1815.27083	2643.275
1818.44856	2633.075
1821.6242	2620.775
1824.79776	2615.875
1827.96924	2613.975
1831.13864	2593.975
1834.30597	2597.575
1837.47122	2585.075
1840.6344	2594.975
1843.7955	2595.075
1846.95454	2587.075
1850.11151	2586.475
1853.26642	2568.275
1856.41926	2574.375
1859.57004	2566.375
1862.71876	2567.075
1865.86542	2563.475
1869.01003	2545.475
1872.15258	2540.375
1875.29308	2542.875
1878.43152	2530.675
1881.56792	2525.375
1884.70227	2514.575
1887.83457	2522.575
1890.96482	2509.675
1894.09304	2508.775
1897.21921	2502.675
1900.34335	2501.675
1903.46544	2492.175
1906.58551	2489.575
1909.70353	2490.475
1912.81953	2475.275
1915.93349	2480.275
1919.04543	2477.975
1922.15534	2463.575
1925.26322	2459.875
1928.36908	2440.375
1931.47292	2448.175
1934.57473	2439.075
1937.67453	2420.075
1940.77232	2425.075
1943.86808	2412.975
1946.96184	2412.275
1950.05358	2398.875
1953.14331	2394.575
1956.23103	2376.675
1959.31675	2375.475
1962.40046	2367.375
1965.48217	2363.375
1968.56188	2362.775
1971.63959	2337.275
1974.7153	2334.175
1977.78901	2328.675
1980.86073	2322.075
1983.93046	2306.675
1986.99819	2305.775
1990.06394	2296.675
1993.1277	2288.475
1996.18947	2278.775
1999.24925	2277.375
2002.30706	2262.575
2005.36288	2268.075
2008.41672	2248.375
2011.46859	2235.775
2014.51848	2237.475
2017.56639	2229.375
2020.61233	2220.275
2023.6563	2215.575
2026.6983	2212.375
2029.73833	2208.975
2032.7764	2200.975
2035.8125	2190.875
2038.84664	2181.675
2041.87881	2172.975
2044.90903	2160.275
2047.93729	2173.675
2050.96359	2164.975
2053.98794	2165.375
2057.01034	2160.075
2060.03078	2149.875
2063.04927	2148.575
2066.06582	2149.575
2069.08042	2140.875
2072.09307	2141.075
2075.10378	2150.475
2078.11255	2143.275
2081.11938	2138.075
2084.12426	2140.375
2087.12722	2136.775
2090.12824	2145.675
2093.12732	2133.775
2096.12447	2126.175
2099.11969	2127.775
2102.11299	2137.475
2105.10435	2122.675
2108.09379	2123.675
2111.08131	2127.175
2114.0669	2134.575
2117.05057	2137.075
2120.03233	2130.175
2123.01216	2124.775
2125.99008	2136.875
2128.96609	2130.075
2131.94018	2140.475
2134.91236	2142.075
2137.88263	2122.275
2140.851	2132.875
2143.81746	2134.975
2146.78201	2135.875
2149.74466	2129.375
2152.7054	2139.675
2155.66425	2127.875
2158.6212	2128.575
2161.57625	2121.975
2164.52941	2126.175
2167.48067	2122.075
2170.43004	2119.375
2173.37752	2120.275
2176.32311	2112.575
2179.26681	2115.775
2182.20863	2109.275
2185.14856	2104.975
2188.08661	2103.775
2191.02278	2109.575
2193.95707	2096.075
2196.88948	2091.175
2199.82001	2099.075
2202.74867	2079.875
2205.67545	2079.075
2208.60037	2082.775
2211.52341	2065.575
2214.44458	2066.975
2217.36388	2062.675
2220.28132	2051.175
2223.1969	2045.875
2226.11061	2046.575
2229.02246	2053.575
2231.93245	2034.275
2234.84058	2029.475
2237.74686	2030.575
2240.65128	2029.875
2243.55385	2028.475
2246.45456	2012.475
2249.35343	2011.875
2252.25044	2014.375
2255.14561	2014.475
2258.03893	2004.075
2260.93041	2011.075
2263.82004	1992.275
2266.70783	1979.975
2269.59378	1980.975
2272.4779	1971.675
2275.36017	1977.275
2278.24061	1961.375
2281.11922	1952.475
2283.996	1954.875
2286.87094	1949.675
2289.74405	1942.775
2292.61534	1946.575
2295.4848	1934.575
2298.35243	1939.875
2301.21824	1948.275
2304.08223	1937.775
2306.94439	1926.675
2309.80474	1922.075
2312.66327	1924.275
2315.51999	1911.875
2318.37489	1923.875
2321.22797	1909.075
2324.07925	1907.275
2326.92871	1901.075
2329.77637	1906.175
2332.62222	1897.675
2335.46626	1887.375
2338.3085	1887.075
2341.14893	1883.675
2343.98756	1885.875
2346.8244	1877.175
2349.65943	1875.275
2352.49267	1871.175
2355.32411	1868.875
2358.15376	1854.975
2360.98161	1857.675
2363.80768	1858.475
2366.63195	1861.675
2369.45444	1865.175
2372.27514	1854.175
2375.09405	1842.275
2377.91118	1847.375
2380.72652	1841.575
2383.54009	1837.875
2386.35187	1837.575
2389.16188	1841.375
2391.97011	1836.175
2394.77657	1828.875
2397.58125	1812.075
2400.38416	1817.275
2403.18529	1812.975
2405.98466	1807.275
2408.78226	1807.475
2411.57809	1801.575
2414.37216	1787.475
2417.16446	1794.475
2419.955	1788.575
2422.74378	1788.475
2425.5308	1779.175
2428.31606	1780.175
2431.09956	1787.075
2433.88131	1775.175
2436.6613	1771.575
2439.43954	1776.075
2442.21603	1762.075
2444.99077	1756.575
2447.76377	1759.975
2450.53501	1755.675
2453.30451	1752.975
2456.07226	1760.375
2458.83827	1746.975
2461.60254	1731.875
2464.36507	1753.475
2467.12586	1731.175
2469.88492	1739.875
2472.64224	1737.275
2475.39782	1742.875
2478.15167	1734.675
2480.90379	1731.575
2483.65417	1727.775
2486.40283	1725.475
2489.14976	1728.275
2491.89497	1722.975
2494.63845	1722.275
2497.3802	1717.375
2500.12024	1712.175
2502.85855	1704.775
2505.59514	1704.175
2508.33002	1702.275
2511.06318	1699.875
2513.79462	1700.975
2516.52435	1690.175
2519.25237	1691.075
2521.97867	1677.575
2524.70327	1689.575
2527.42616	1682.975
2530.14734	1673.375
2532.86681	1673.175
2535.58458	1659.675
2538.30065	1670.475
2541.01501	1663.275
2543.72768	1656.775
2546.43864	1658.875
2549.14791	1655.875
2551.85548	1654.275
2554.56136	1647.875
2557.26554	1643.975
2559.96803	1641.275
2562.66883	1627.075
2565.36794	1631.475
2568.06536	1632.375
2570.7611	1630.675
2573.45514	1625.575
2576.14751	1614.575
2578.83819	1615.775
2581.52719	1608.375
2584.21451	1602.775
2586.90015	1601.575
2589.58411	1595.875
2592.2664	1598.675
2594.94701	1589.275
2597.62594	1588.975
2600.30321	1577.575
2602.9788	1582.475
2605.65273	1582.375
2608.32498	1573.575
2610.99557	1573.775
2613.66449	1567.175
2616.33175	1561.475
2618.99734	1559.775
2621.66128	1548.175
2624.32355	1555.675
2626.98416	1546.575
2629.64311	1553.775
2632.30041	1553.975
2634.95605	1543.475
2637.61004	1549.775
2640.26238	1544.375
2642.91306	1538.075
2645.56209	1547.475
2648.20948	1540.175
2650.85521	1538.275
2653.4993	1542.975
2656.14175	1540.175
2658.78255	1537.875
2661.42171	1529.575
2664.05923	1530.175
2666.6951	1527.075
2669.32934	1527.875
2671.96194	1523.975
2674.59291	1528.775
2677.22224	1525.275
2679.84993	1517.675
2682.476	1520.975
2685.10043	1520.775
2687.72324	1520.575
2690.34441	1515.475
2692.96396	1513.675
2695.58188	1526.075
2698.19818	1521.275
2700.81285	1527.575
2703.4259	1541.575
2706.03733	1569.075
2708.64714	1547.575
2711.25533	1537.975
2713.86191	1527.775
2716.46687	1526.775
2719.07021	1525.975
2721.67194	1523.575
2724.27206	1514.775
2726.87057	1527.175
2729.46747	1526.475
2732.06276	1515.675
2734.65644	1520.775
2737.24852	1510.275
2739.83899	1509.275
2742.42786	1509.975
2745.01513	1506.075
2747.60079	1504.375
2750.18486	1511.275
2752.76733	1494.875
2755.3482	1495.975
2757.92747	1495.975
2760.50515	1492.675
2763.08123	1493.175
2765.65573	1485.375
2768.22863	1485.575
2770.79994	1484.475
2773.36967	1486.475
2775.9378	1479.475
2778.50435	1458.775
2781.06932	1474.475
2783.6327	1471.775
2786.1945	1457.975
2788.75471	1467.175
2791.31335	1459.875
2793.87041	1458.075
2796.42589	1445.875
2798.97979	1451.575
2801.53212	1447.275
2804.08288	1439.875
2806.63206	1443.275
2809.17967	1436.975
2811.72571	1435.075
2814.27018	1435.875
2816.81308	1440.575
2819.35442	1431.575
2821.89419	1429.775
2824.43239	1425.075
2826.96904	1420.475
2829.50412	1423.275
2832.03763	1422.375
2834.56959	1424.375
2837.1	1412.275
2839.62884	1419.975
2842.15613	1414.475
2844.68186	1425.375
2847.20604	1411.775
2849.72867	1415.075
2852.24974	1425.275
2854.76927	1419.775
2857.28724	1428.475
2859.80367	1405.575
2862.31855	1414.175
2864.83189	1406.975
2867.34368	1415.375
2869.85393	1409.175
2872.36264	1402.575
2874.8698	1413.575
2877.37543	1407.175
2879.87952	1411.575
2882.38207	1421.075
2884.88308	1413.375
2887.38256	1414.275
2889.88051	1414.175
2892.37692	1416.975
2894.8718	1417.975
2897.36515	1429.675
2899.85698	1432.075
2902.34727	1439.875
2904.83604	1447.175
2907.32328	1444.275
2909.809	1441.875
2912.29319	1445.575
2914.77587	1444.975
2917.25702	1456.975
2919.73665	1447.375
2922.21476	1461.375
2924.69136	1456.675
2927.16644	1460.975
2929.64	1464.775
2932.11205	1462.675
2934.58258	1462.975
2937.05161	1459.875
2939.51912	1458.475
2941.98513	1462.475
2944.44962	1461.475
2946.91261	1454.875
2949.37409	1451.875
2951.83407	1454.975
2954.29254	1462.175
2956.74951	1447.175
2959.20498	1455.275
2961.65895	1437.875
2964.11142	1443.275
2966.56239	1440.675
2969.01186	1430.675
2971.45984	1423.675
2973.90632	1418.475
2976.35131	1417.575
2978.7948	1417.375
2981.23681	1414.575
2983.67732	1408.475
2986.11635	1408.375
2988.55388	1407.675
2990.98993	1399.675
2993.4245	1397.775
2995.85758	1392.775
2998.28917	1400.175
3000.71928	1395.475
3003.14791	1390.575
3005.57506	1404.875
3008.00073	1391.475
3010.42493	1399.175
3012.84764	1402.475
3015.26888	1389.475
3017.68865	1397.875
3020.10694	1393.175
3022.52376	1396.475
3024.9391	1401.575
3027.35298	1394.875
3029.76539	1400.775
3032.17632	1406.075
3034.5858	1401.075
3036.9938	1401.875
3039.40034	1404.675
3041.80542	1402.275
3044.20903	1398.875
3046.61118	1407.375
3049.01187	1393.375
3051.4111	1404.375
3053.80888	1402.975
3056.20519	1395.475
3058.60005	1404.575
3060.99345	1400.975
3063.3854	1405.275
3065.7759	1394.575
3068.16494	1400.075
3070.55254	1402.275
3072.93868	1411.775
3075.32338	1413.675
3077.70662	1413.675
3080.08842	1420.875
3082.46878	1419.975
3084.84769	1417.875
3087.22515	1427.175
3089.60118	1435.075
3091.97576	1439.775
3094.3489	1443.875
3096.72061	1449.975
3099.09087	1455.075
3101.4597	1451.475
3103.82709	1455.975
3106.19305	1457.875
3108.55757	1467.275
3110.92066	1466.275
3113.28232	1461.475
3115.64255	1470.375
3118.00134	1479.375
3120.35871	1484.675
3122.71466	1473.575
3125.06917	1480.975
3127.42226	1477.075
3129.77393	1495.775
3132.12417	1487.775
3134.47299	1505.275
3136.82039	1496.775
3139.16636	1508.475
3141.51092	1514.175
3143.85406	1526.275
3146.19579	1539.175
3148.53609	1541.075
3150.87499	1545.375
3153.21246	1554.675
3155.54853	1564.575
3157.88318	1567.975
3160.21642	1577.875
3162.54826	1581.575
3164.87868	1579.075
3167.2077	1592.775
3169.5353	1598.275
3171.86151	1593.275
3174.18631	1600.575
3176.5097	1603.175
3178.83169	1598.175
3181.15228	1599.275
3183.47147	1616.775
3185.78926	1616.975
3188.10565	1629.475
3190.42065	1625.275
3192.73424	1637.475
3195.04645	1628.475
3197.35725	1633.675
3199.66667	1652.475
3201.97469	1651.575
3204.28132	1663.675
3206.58656	1663.075
3208.8904	1664.075
3211.19287	1671.075
3213.49394	1672.375
3215.79363	1682.075
3218.09193	1687.775
3220.38884	1680.575
3222.68438	1697.675
3224.97853	1693.675
3227.2713	1687.175
3229.56269	1689.775
3231.8527	1695.375
3234.14133	1678.875
3236.42858	1676.175
