Data from AgNPs_FTO_APTES_UA_0.1mM_CRN_500uM_NaF_0.1M_Addition_RamanShift__9__14-44-57-765.txt Node

Date: Mon Dec 20 14:44:57 GMT 2021
User: TCL
Spectrometer: QEP01345
Trigger mode: 4
Integration Time (sec): 7.000000E0
Scans to average: 10
Electric dark correction enabled: true
Nonlinearity correction enabled: false
Boxcar width: 0
XAxis mode: Raman Shifts
Number of Pixels in Spectrum: 1044
>>>>>Begin Spectral Data<<<<<
46.04893	-0.4875
50.45542	-1.0875
54.85868	-0.8875
59.25871	0.7125
63.6555	24.4125
68.04907	25.5125
72.43941	27.1125
76.82654	28.7125
81.21044	29.9125
85.59113	36.2125
89.96862	34.7125
94.34289	36.0125
98.71396	31.8125
103.08183	33.3125
107.4465	37.5125
111.80798	41.3125
116.16626	41.1125
120.52136	39.9125
124.87327	39.3125
129.222	39.1125
133.56755	40.2125
137.90993	42.5125
142.24913	45.2125
146.58517	46.6125
150.91804	54.8125
155.24774	61.2125
159.57429	66.2125
163.89768	79.6125
168.21792	106.0125
172.53501	131.3125
176.84895	179.8125
181.15975	246.7125
185.46741	333.0125
189.77193	458.7125
194.07331	599.8125
198.37157	775.5125
202.6667	962.0125
206.9587	1163.0125
211.24758	1353.1125
215.53334	1549.8125
219.81599	1756.1125
224.09553	1977.8125
228.37195	2237.3125
232.64527	2521.9125
236.91549	2830.5125
241.18261	3111.5125
245.44663	3372.6125
249.70755	3568.7125
253.96539	3695.0125
258.22014	3779.1125
262.4718	3799.9125
266.72039	3789.0125
270.96589	3727.5125
275.20832	3658.1125
279.44768	3560.8125
283.68397	3462.1125
287.91719	3381.8125
292.14735	3292.2125
296.37445	3236.2125
300.59849	3181.0125
304.81948	3152.8125
309.03742	3129.4125
313.25231	3096.0125
317.46415	3048.8125
321.67296	3008.7125
325.87872	2990.9125
330.08145	2953.6125
334.28114	2948.7125
338.47781	2946.9125
342.67145	2953.0125
346.86207	2972.3125
351.04966	2984.8125
355.23424	3019.7125
359.4158	3046.7125
363.59435	3076.8125
367.76989	3108.7125
371.94243	3147.1125
376.11196	3169.8125
380.27849	3208.4125
384.44203	3230.7125
388.60257	3269.8125
392.76012	3310.7125
396.91468	3364.6125
401.06626	3390.4125
405.21485	3425.4125
409.36047	3433.4125
413.50311	3424.8125
417.64277	3411.8125
421.77947	3419.8125
425.9132	3414.5125
430.04396	3409.6125
434.17176	3418.9125
438.2966	3419.1125
442.41849	3414.0125
446.53742	3420.9125
450.6534	3442.6125
454.76644	3462.9125
458.87653	3473.1125
462.98368	3488.8125
467.08789	3488.7125
471.18916	3515.0125
475.2875	3543.5125
479.38291	3564.6125
483.4754	3624.1125
487.56496	3701.9125
491.6516	3817.9125
495.73531	3917.7125
499.81612	3951.8125
503.89401	3949.4125
507.96899	3887.3125
512.04106	3805.2125
516.11023	3768.8125
520.1765	3718.8125
524.23987	3709.1125
528.30034	3717.7125
532.35792	3733.6125
536.41261	3715.1125
540.46441	3694.7125
544.51333	3641.0125
548.55936	3592.5125
552.60252	3574.3125
556.64279	3556.0125
560.6802	3537.1125
564.71473	3532.5125
568.7464	3539.6125
572.7752	3563.7125
576.80114	3583.2125
580.82422	3624.2125
584.84444	3709.6125
588.86181	3790.8125
592.87633	3837.9125
596.888	3830.6125
600.89682	3798.0125
604.9028	3795.0125
608.90594	3882.8125
612.90624	4052.0125
616.90371	4107.3125
620.89834	4028.5125
624.89015	4169.9125
628.87913	4440.8125
632.86528	4770.9125
636.84862	5034.8125
640.82913	5093.4125
644.80683	4947.9125
648.78172	4687.3125
652.75379	4432.4125
656.72306	4241.7125
660.68952	4092.6125
664.65319	4006.6125
668.61405	3947.6125
672.57211	3936.7125
676.52738	3964.3125
680.47986	3977.3125
684.42955	3999.9125
688.37646	3969.1125
692.32058	3914.0125
696.26192	3819.3125
700.20048	3756.1125
704.13626	3692.6125
708.06928	3681.2125
711.99952	3657.6125
715.927	3637.3125
719.85171	3653.3125
723.77365	3693.5125
727.69284	3732.0125
731.60928	3715.3125
735.52295	3647.4125
739.43388	3623.3125
743.34206	3606.0125
747.24749	3620.8125
751.15017	3623.9125
755.05012	3644.8125
758.94733	3644.4125
762.8418	3704.7125
766.73354	3759.5125
770.62254	3780.7125
774.50882	3792.0125
778.39237	3733.5125
782.27321	3649.8125
786.15132	3571.8125
790.02671	3541.6125
793.89938	3542.1125
797.76935	3554.9125
801.6366	3599.9125
805.50115	3724.9125
809.36299	3854.0125
813.22213	3934.8125
817.07857	3933.7125
820.93231	3803.9125
824.78336	3660.6125
828.63172	3518.4125
832.47738	3447.6125
836.32036	3395.3125
840.16066	3377.9125
843.99827	3367.4125
847.8332	3373.6125
851.66546	3367.2125
855.49504	3364.1125
859.32195	3377.1125
863.1462	3399.7125
866.96777	3426.1125
870.78668	3448.8125
874.60293	3528.2125
878.41652	3599.7125
882.22745	3690.5125
886.03573	3750.9125
889.84136	3784.8125
893.64433	3760.7125
897.44466	3652.6125
901.24235	3530.8125
905.0374	3433.5125
908.8298	3356.4125
912.61957	3300.8125
916.40671	3288.9125
920.19121	3249.3125
923.97308	3244.6125
927.75233	3237.4125
931.52895	3231.5125
935.30295	3204.7125
939.07433	3199.3125
942.84309	3169.4125
946.60924	3160.5125
950.37278	3143.1125
954.13371	3144.5125
957.89203	3137.0125
961.64774	3141.8125
965.40086	3135.1125
969.15137	3108.1125
972.89929	3113.1125
976.64461	3095.8125
980.38733	3085.5125
984.12747	3075.4125
987.86502	3092.0125
991.59999	3098.8125
995.33237	3094.5125
999.06217	3150.7125
1002.78939	3183.9125
1006.51404	3221.0125
1010.23611	3252.1125
1013.95561	3302.5125
1017.67255	3309.3125
1021.38692	3327.5125
1025.09872	3300.5125
1028.80796	3266.0125
1032.51465	3233.6125
1036.21877	3203.3125
1039.92035	3172.6125
1043.61937	3141.4125
1047.31584	3137.5125
1051.00976	3130.6125
1054.70114	3147.8125
1058.38998	3153.9125
1062.07627	3186.7125
1065.76003	3208.3125
1069.44126	3239.9125
1073.11995	3287.1125
1076.79611	3303.3125
1080.46974	3275.6125
1084.14085	3262.9125
1087.80943	3219.9125
1091.47549	3184.8125
1095.13903	3156.3125
1098.80005	3130.8125
1102.45857	3123.5125
1106.11456	3123.0125
1109.76805	3156.9125
1113.41903	3234.2125
1117.06751	3388.4125
1120.71348	3613.5125
1124.35696	3903.5125
1127.99793	4225.1125
1131.63641	4508.8125
1135.2724	4650.8125
1138.90589	4606.3125
1142.5369	4435.7125
1146.16542	4208.4125
1149.79145	3934.5125
1153.415	3667.1125
1157.03607	3445.8125
1160.65467	3305.6125
1164.27079	3219.3125
1167.88443	3166.1125
1171.49561	3186.8125
1175.10432	3213.1125
1178.71056	3293.4125
1182.31434	3350.4125
1185.91565	3425.7125
1189.51451	3450.3125
1193.11091	3498.6125
1196.70485	3568.6125
1200.29634	3635.6125
1203.88538	3670.8125
1207.47197	3690.0125
1211.05612	3638.1125
1214.63782	3579.7125
1218.21708	3497.6125
1221.79391	3404.5125
1225.36829	3327.7125
1228.94024	3271.4125
1232.50976	3217.5125
1236.07685	3204.6125
1239.6415	3189.7125
1243.20374	3202.2125
1246.76355	3218.1125
1250.32093	3250.1125
1253.8759	3278.0125
1257.42845	3299.9125
1260.97859	3322.4125
1264.52631	3346.3125
1268.07163	3353.8125
1271.61453	3343.5125
1275.15503	3337.7125
1278.69312	3321.6125
1282.22882	3289.6125
1285.76211	3274.2125
1289.29301	3271.1125
1292.82151	3282.7125
1296.34761	3312.4125
1299.87133	3350.0125
1303.39266	3394.3125
1306.9116	3480.3125
1310.42815	3569.2125
1313.94233	3635.5125
1317.45412	3652.4125
1320.96354	3659.2125
1324.47058	3654.3125
1327.97525	3649.7125
1331.47754	3673.4125
1334.97747	3688.2125
1338.47502	3707.0125
1341.97022	3775.1125
1345.46305	3831.8125
1348.95352	3901.5125
1352.44163	3989.8125
1355.92738	4080.4125
1359.41078	4184.4125
1362.89183	4291.8125
1366.37053	4324.4125
1369.84688	4217.5125
1373.32088	4082.6125
1376.79254	3942.3125
1380.26186	3840.2125
1383.72883	3772.4125
1387.19347	3684.7125
1390.65578	3625.0125
1394.11575	3544.3125
1397.57339	3479.5125
1401.0287	3407.4125
1404.48168	3356.9125
1407.93234	3284.2125
1411.38068	3207.4125
1414.82669	3147.7125
1418.27039	3077.3125
1421.71177	3023.0125
1425.15083	2963.9125
1428.58758	2936.9125
1432.02203	2887.7125
1435.45416	2875.1125
1438.88399	2859.4125
1442.31151	2838.8125
1445.73673	2841.9125
1449.15965	2837.2125
1452.58027	2841.6125
1455.9986	2860.4125
1459.41463	2863.8125
1462.82837	2873.4125
1466.23982	2889.5125
1469.64898	2921.4125
1473.05586	2927.5125
1476.46045	2948.8125
1479.86276	2962.3125
1483.26279	2963.4125
1486.66054	2987.6125
1490.05602	3016.2125
1493.44922	3055.9125
1496.84016	3111.0125
1500.22882	3191.8125
1503.61521	3275.7125
1506.99934	3386.5125
1510.38121	3465.0125
1513.76081	3471.6125
1517.13816	3417.9125
1520.51324	3330.1125
1523.88607	3241.5125
1527.25665	3196.1125
1530.62498	3175.6125
1533.99105	3209.0125
1537.35488	3229.5125
1540.71647	3258.5125
1544.07581	3279.7125
1547.4329	3327.8125
1550.78776	3354.3125
1554.14038	3367.6125
1557.49077	3377.1125
1560.83892	3388.8125
1564.18484	3394.8125
1567.52853	3400.9125
1570.86999	3391.9125
1574.20922	3402.2125
1577.54624	3394.6125
1580.88103	3354.8125
1584.2136	3311.9125
1587.54395	3273.2125
1590.87208	3250.3125
1594.19801	3230.9125
1597.52172	3268.2125
1600.84321	3277.7125
1604.16251	3273.2125
1607.47959	3249.1125
1610.79447	3234.1125
1614.10715	3206.1125
1617.41763	3209.4125
1620.7259	3182.0125
1624.03199	3197.5125
1627.33587	3230.5125
1630.63757	3267.4125
1633.93707	3325.8125
1637.23439	3409.8125
1640.52951	3517.6125
1643.82246	3628.6125
1647.11321	3762.6125
1650.40179	3856.9125
1653.68819	3871.9125
1656.97241	3824.0125
1660.25446	3715.7125
1663.53433	3627.1125
1666.81203	3567.6125
1670.08756	3517.8125
1673.36092	3488.2125
1676.63211	3489.1125
1679.90115	3460.3125
1683.16801	3445.6125
1686.43272	3395.0125
1689.69527	3354.9125
1692.95567	3291.4125
1696.2139	3232.0125
1699.46999	3164.9125
1702.72392	3102.5125
1705.97571	3018.2125
1709.22535	2905.5125
1712.47284	2804.7125
1715.71819	2697.9125
1718.96139	2605.7125
1722.20246	2535.2125
1725.44139	2463.9125
1728.67818	2411.7125
1731.91284	2351.2125
1735.14537	2317.2125
1738.37576	2276.3125
1741.60403	2251.5125
1744.83017	2246.3125
1748.05418	2222.4125
1751.27607	2199.2125
1754.49584	2214.6125
1757.71349	2209.1125
1760.92903	2199.1125
1764.14244	2184.4125
1767.35375	2181.1125
1770.56294	2165.2125
1773.77002	2150.3125
1776.97499	2133.3125
1780.17785	2107.3125
1783.37861	2091.2125
1786.57727	2097.4125
1789.77382	2082.6125
1792.96828	2062.5125
1796.16064	2046.6125
1799.3509	2038.4125
1802.53907	2015.4125
1805.72514	2025.1125
1808.90913	2005.9125
1812.09102	2004.2125
1815.27083	1994.0125
1818.44856	1982.1125
1821.6242	1974.7125
1824.79776	1967.4125
1827.96924	1967.1125
1831.13864	1956.9125
1834.30597	1964.1125
1837.47122	1963.1125
1840.6344	1947.9125
1843.7955	1946.3125
1846.95454	1933.5125
1850.11151	1938.5125
1853.26642	1935.8125
1856.41926	1932.1125
1859.57004	1917.0125
1862.71876	1920.7125
1865.86542	1922.7125
1869.01003	1902.1125
1872.15258	1897.8125
1875.29308	1897.4125
1878.43152	1889.5125
1881.56792	1890.4125
1884.70227	1880.6125
1887.83457	1877.8125
1890.96482	1888.7125
1894.09304	1873.5125
1897.21921	1865.8125
1900.34335	1857.8125
1903.46544	1855.9125
1906.58551	1861.5125
1909.70353	1845.6125
1912.81953	1842.0125
1915.93349	1843.9125
1919.04543	1836.6125
1922.15534	1831.0125
1925.26322	1833.0125
1928.36908	1820.3125
1931.47292	1818.3125
1934.57473	1805.3125
1937.67453	1799.5125
1940.77232	1796.4125
1943.86808	1788.8125
1946.96184	1780.0125
1950.05358	1772.3125
1953.14331	1776.3125
1956.23103	1762.0125
1959.31675	1760.4125
1962.40046	1749.8125
1965.48217	1757.0125
1968.56188	1740.9125
1971.63959	1732.4125
1974.7153	1716.8125
1977.78901	1718.8125
1980.86073	1715.8125
1983.93046	1701.3125
1986.99819	1697.5125
1990.06394	1686.8125
1993.1277	1690.1125
1996.18947	1681.1125
1999.24925	1684.9125
2002.30706	1674.4125
2005.36288	1664.5125
2008.41672	1662.4125
2011.46859	1654.7125
2014.51848	1648.2125
2017.56639	1632.1125
2020.61233	1631.6125
2023.6563	1626.5125
2026.6983	1620.6125
2029.73833	1612.4125
2032.7764	1614.7125
2035.8125	1609.7125
2038.84664	1595.7125
2041.87881	1602.1125
2044.90903	1589.8125
2047.93729	1594.8125
2050.96359	1576.2125
2053.98794	1587.7125
2057.01034	1587.0125
2060.03078	1579.2125
2063.04927	1572.8125
2066.06582	1572.1125
2069.08042	1574.3125
2072.09307	1557.5125
2075.10378	1563.3125
2078.11255	1562.0125
2081.11938	1553.3125
2084.12426	1560.1125
2087.12722	1562.1125
2090.12824	1565.9125
2093.12732	1558.1125
2096.12447	1555.5125
2099.11969	1552.0125
2102.11299	1554.3125
2105.10435	1546.7125
2108.09379	1547.6125
2111.08131	1556.4125
2114.0669	1551.4125
2117.05057	1544.9125
2120.03233	1546.9125
2123.01216	1546.7125
2125.99008	1549.3125
2128.96609	1549.3125
2131.94018	1543.3125
2134.91236	1547.8125
2137.88263	1546.2125
2140.851	1552.4125
2143.81746	1542.3125
2146.78201	1541.2125
2149.74466	1542.7125
2152.7054	1545.7125
2155.66425	1541.2125
2158.6212	1541.1125
2161.57625	1530.1125
2164.52941	1535.2125
2167.48067	1525.0125
2170.43004	1527.8125
2173.37752	1518.1125
2176.32311	1526.9125
2179.26681	1521.7125
2182.20863	1517.0125
2185.14856	1523.8125
2188.08661	1518.1125
2191.02278	1518.3125
2193.95707	1513.1125
2196.88948	1508.8125
2199.82001	1506.1125
2202.74867	1494.3125
2205.67545	1500.6125
2208.60037	1499.2125
2211.52341	1490.8125
2214.44458	1478.2125
2217.36388	1490.5125
2220.28132	1478.8125
2223.1969	1458.7125
2226.11061	1469.9125
2229.02246	1457.8125
2231.93245	1462.3125
2234.84058	1460.5125
2237.74686	1453.2125
2240.65128	1446.4125
2243.55385	1446.8125
2246.45456	1441.5125
2249.35343	1449.2125
2252.25044	1432.1125
2255.14561	1427.0125
2258.03893	1434.5125
2260.93041	1432.6125
2263.82004	1414.0125
2266.70783	1420.1125
2269.59378	1411.7125
2272.4779	1410.5125
2275.36017	1397.2125
2278.24061	1398.9125
2281.11922	1393.0125
2283.996	1388.0125
2286.87094	1390.0125
2289.74405	1382.0125
2292.61534	1379.9125
2295.4848	1381.1125
2298.35243	1370.5125
2301.21824	1363.3125
2304.08223	1374.9125
2306.94439	1364.0125
2309.80474	1369.3125
2312.66327	1363.8125
2315.51999	1351.4125
2318.37489	1356.1125
2321.22797	1351.1125
2324.07925	1351.7125
2326.92871	1350.9125
2329.77637	1342.5125
2332.62222	1337.7125
2335.46626	1339.8125
2338.3085	1326.5125
2341.14893	1330.2125
2343.98756	1330.5125
2346.8244	1323.1125
2349.65943	1317.0125
2352.49267	1321.6125
2355.32411	1321.4125
2358.15376	1308.5125
2360.98161	1311.1125
2363.80768	1300.0125
2366.63195	1306.8125
2369.45444	1305.7125
2372.27514	1306.3125
2375.09405	1304.5125
2377.91118	1291.5125
2380.72652	1299.4125
2383.54009	1290.2125
2386.35187	1299.0125
2389.16188	1279.0125
2391.97011	1288.9125
2394.77657	1280.5125
2397.58125	1281.2125
2400.38416	1277.6125
2403.18529	1265.4125
2405.98466	1265.9125
2408.78226	1271.6125
2411.57809	1258.0125
2414.37216	1251.4125
2417.16446	1261.2125
2419.955	1247.9125
2422.74378	1251.5125
2425.5308	1243.0125
2428.31606	1248.1125
2431.09956	1244.1125
2433.88131	1233.8125
2436.6613	1234.5125
2439.43954	1242.1125
2442.21603	1231.7125
2444.99077	1224.5125
2447.76377	1228.1125
2450.53501	1228.0125
2453.30451	1228.0125
2456.07226	1214.2125
2458.83827	1214.9125
2461.60254	1213.0125
2464.36507	1214.1125
2467.12586	1207.6125
2469.88492	1212.4125
2472.64224	1209.9125
2475.39782	1210.4125
2478.15167	1204.4125
2480.90379	1197.2125
2483.65417	1191.3125
2486.40283	1190.5125
2489.14976	1193.8125
2491.89497	1191.7125
2494.63845	1200.9125
2497.3802	1195.7125
2500.12024	1188.5125
2502.85855	1188.0125
2505.59514	1191.8125
2508.33002	1181.8125
2511.06318	1173.0125
2513.79462	1176.4125
2516.52435	1167.5125
2519.25237	1164.7125
2521.97867	1164.8125
2524.70327	1163.2125
2527.42616	1168.9125
2530.14734	1162.8125
2532.86681	1152.2125
2535.58458	1149.5125
2538.30065	1151.9125
2541.01501	1148.9125
2543.72768	1149.7125
2546.43864	1148.6125
2549.14791	1139.6125
2551.85548	1140.4125
2554.56136	1130.4125
2557.26554	1132.8125
2559.96803	1128.1125
2562.66883	1127.1125
2565.36794	1115.0125
2568.06536	1122.1125
2570.7611	1121.4125
2573.45514	1112.2125
2576.14751	1115.8125
2578.83819	1109.6125
2581.52719	1107.5125
2584.21451	1112.9125
2586.90015	1102.4125
2589.58411	1096.9125
2592.2664	1099.2125
2594.94701	1091.5125
2597.62594	1090.2125
2600.30321	1087.6125
2602.9788	1082.3125
2605.65273	1087.6125
2608.32498	1081.7125
2610.99557	1074.6125
2613.66449	1077.6125
2616.33175	1073.5125
2618.99734	1076.4125
2621.66128	1068.5125
2624.32355	1068.0125
2626.98416	1069.8125
2629.64311	1062.6125
2632.30041	1064.9125
2634.95605	1065.5125
2637.61004	1059.2125
2640.26238	1067.1125
2642.91306	1050.4125
2645.56209	1049.1125
2648.20948	1051.4125
2650.85521	1045.6125
2653.4993	1054.6125
2656.14175	1044.4125
2658.78255	1048.3125
2661.42171	1044.4125
2664.05923	1039.7125
2666.6951	1044.2125
2669.32934	1037.7125
2671.96194	1043.0125
2674.59291	1041.9125
2677.22224	1037.7125
2679.84993	1044.8125
2682.476	1043.9125
2685.10043	1040.9125
2687.72324	1038.1125
2690.34441	1036.8125
2692.96396	1034.2125
2695.58188	1044.5125
2698.19818	1041.7125
2700.81285	1043.5125
2703.4259	1050.8125
2706.03733	1068.3125
2708.64714	1053.9125
2711.25533	1049.8125
2713.86191	1045.3125
2716.46687	1042.9125
2719.07021	1039.4125
2721.67194	1038.0125
2724.27206	1038.3125
2726.87057	1037.3125
2729.46747	1034.9125
2732.06276	1027.1125
2734.65644	1032.8125
2737.24852	1027.2125
2739.83899	1030.5125
2742.42786	1037.8125
2745.01513	1029.0125
2747.60079	1028.9125
2750.18486	1024.4125
2752.76733	1013.6125
2755.3482	1019.2125
2757.92747	1018.1125
2760.50515	1017.1125
2763.08123	1011.5125
2765.65573	1008.0125
2768.22863	1005.0125
2770.79994	1006.2125
2773.36967	1013.1125
2775.9378	1002.6125
2778.50435	996.3125
2781.06932	992.2125
2783.6327	999.2125
2786.1945	996.6125
2788.75471	995.1125
2791.31335	993.0125
2793.87041	986.2125
2796.42589	985.2125
2798.97979	973.9125
2801.53212	983.5125
2804.08288	974.6125
2806.63206	977.9125
2809.17967	975.5125
2811.72571	968.2125
2814.27018	968.6125
2816.81308	968.8125
2819.35442	973.8125
2821.89419	966.0125
2824.43239	971.7125
2826.96904	965.8125
2829.50412	966.1125
2832.03763	965.7125
2834.56959	968.3125
2837.1	965.4125
2839.62884	967.1125
2842.15613	962.8125
2844.68186	960.9125
2847.20604	964.6125
2849.72867	966.7125
2852.24974	962.9125
2854.76927	973.4125
2857.28724	977.8125
2859.80367	965.0125
2862.31855	959.7125
2864.83189	960.2125
2867.34368	957.4125
2869.85393	960.6125
2872.36264	961.2125
2874.8698	966.2125
2877.37543	966.4125
2879.87952	957.6125
2882.38207	959.6125
2884.88308	964.5125
2887.38256	970.9125
2889.88051	968.0125
2892.37692	965.0125
2894.8718	966.9125
2897.36515	967.0125
2899.85698	969.2125
2902.34727	972.7125
2904.83604	974.2125
2907.32328	979.8125
2909.809	979.6125
2912.29319	973.9125
2914.77587	982.1125
2917.25702	983.6125
2919.73665	984.5125
2922.21476	978.6125
2924.69136	981.4125
2927.16644	987.4125
2929.64	992.3125
2932.11205	992.2125
2934.58258	1005.6125
2937.05161	993.8125
2939.51912	994.6125
2941.98513	993.4125
2944.44962	993.5125
2946.91261	983.9125
2949.37409	996.6125
2951.83407	996.3125
2954.29254	987.1125
2956.74951	989.4125
2959.20498	990.9125
2961.65895	982.9125
2964.11142	984.0125
2966.56239	974.0125
2969.01186	985.8125
2971.45984	974.9125
2973.90632	970.7125
2976.35131	965.1125
2978.7948	973.3125
2981.23681	961.4125
2983.67732	958.6125
2986.11635	965.0125
2988.55388	964.8125
2990.98993	960.4125
2993.4245	959.5125
2995.85758	956.5125
2998.28917	952.8125
3000.71928	957.0125
3003.14791	969.1125
3005.57506	960.6125
3008.00073	962.6125
3010.42493	959.3125
3012.84764	971.9125
3015.26888	961.7125
3017.68865	964.4125
3020.10694	966.7125
3022.52376	964.3125
3024.9391	962.9125
3027.35298	968.6125
3029.76539	969.2125
3032.17632	968.1125
3034.5858	972.5125
3036.9938	968.6125
3039.40034	977.7125
3041.80542	976.8125
3044.20903	971.2125
3046.61118	978.8125
3049.01187	981.5125
3051.4111	980.8125
3053.80888	991.3125
3056.20519	978.7125
3058.60005	985.6125
3060.99345	988.7125
3063.3854	987.3125
3065.7759	988.8125
3068.16494	990.5125
3070.55254	989.5125
3072.93868	1002.7125
3075.32338	994.7125
3077.70662	997.5125
3080.08842	1001.5125
3082.46878	1013.2125
3084.84769	1014.7125
3087.22515	1016.8125
3089.60118	1019.3125
3091.97576	1026.2125
3094.3489	1037.3125
3096.72061	1036.2125
3099.09087	1042.0125
3101.4597	1038.8125
3103.82709	1052.8125
3106.19305	1051.3125
3108.55757	1056.6125
3110.92066	1062.5125
3113.28232	1066.5125
3115.64255	1066.8125
3118.00134	1073.8125
3120.35871	1076.2125
3122.71466	1085.9125
3125.06917	1084.6125
3127.42226	1088.1125
3129.77393	1091.6125
3132.12417	1099.1125
3134.47299	1105.4125
3136.82039	1114.4125
3139.16636	1121.6125
