Data from AgNPs_FTO_APTES_UA_0.1mM_CRN_0uM_NaF_0.1M_Addition_RamanShift__28__10-35-17-483.txt Node

Date: Mon Dec 20 10:35:17 GMT 2021
User: TCL
Spectrometer: QEP01345
Trigger mode: 4
Integration Time (sec): 7.000000E0
Scans to average: 10
Electric dark correction enabled: true
Nonlinearity correction enabled: false
Boxcar width: 0
XAxis mode: Raman Shifts
Number of Pixels in Spectrum: 1044
>>>>>Begin Spectral Data<<<<<
46.04893	0.375
50.45542	0.175
54.85868	-0.525
59.25871	0.075
63.6555	25.475
68.04907	26.075
72.43941	28.775
76.82654	29.175
81.21044	29.875
85.59113	32.575
89.96862	29.775
94.34289	38.175
98.71396	33.375
103.08183	35.175
107.4465	38.175
111.80798	40.275
116.16626	35.275
120.52136	37.175
124.87327	41.075
129.222	41.175
133.56755	44.075
137.90993	45.275
142.24913	44.275
146.58517	47.675
150.91804	58.375
155.24774	66.975
159.57429	75.875
163.89768	94.975
168.21792	119.675
172.53501	148.775
176.84895	200.075
181.15975	272.475
185.46741	361.575
189.77193	499.675
194.07331	654.675
198.37157	845.975
202.6667	1028.875
206.9587	1225.575
211.24758	1405.375
215.53334	1582.875
219.81599	1755.075
224.09553	1960.375
228.37195	2161.075
232.64527	2373.575
236.91549	2606.575
241.18261	2806.875
245.44663	2969.075
249.70755	3109.775
253.96539	3203.475
258.22014	3264.575
262.4718	3318.475
266.72039	3347.375
270.96589	3333.975
275.20832	3323.675
279.44768	3269.975
283.68397	3222.075
287.91719	3186.775
292.14735	3180.275
296.37445	3219.175
300.59849	3286.275
304.81948	3370.475
309.03742	3455.475
313.25231	3429.475
317.46415	3278.575
321.67296	3051.375
325.87872	2825.875
330.08145	2695.775
334.28114	2660.375
338.47781	2671.875
342.67145	2723.175
346.86207	2816.075
351.04966	2973.475
355.23424	3153.675
359.4158	3312.875
363.59435	3393.975
367.76989	3456.575
371.94243	3496.875
376.11196	3515.975
380.27849	3562.875
384.44203	3555.675
388.60257	3528.875
392.76012	3536.075
396.91468	3542.975
401.06626	3616.475
405.21485	3654.075
409.36047	3574.375
413.50311	3389.275
417.64277	3197.375
421.77947	3074.675
425.9132	3030.975
430.04396	3004.475
434.17176	3021.375
438.2966	3076.375
442.41849	3171.175
446.53742	3288.375
450.6534	3411.775
454.76644	3453.275
458.87653	3478.675
462.98368	3434.475
467.08789	3375.575
471.18916	3334.075
475.2875	3283.375
479.38291	3292.475
483.4754	3362.375
487.56496	3502.475
491.6516	3667.775
495.73531	3719.875
499.81612	3645.175
503.89401	3496.175
507.96899	3386.575
512.04106	3390.275
516.11023	3489.275
520.1765	3634.775
524.23987	3745.375
528.30034	3761.875
532.35792	3676.075
536.41261	3536.675
540.46441	3345.875
544.51333	3190.675
548.55936	3099.775
552.60252	3074.675
556.64279	3088.975
560.6802	3095.275
564.71473	3097.375
568.7464	3188.775
572.7752	3272.275
576.80114	3235.375
580.82422	3231.775
584.84444	3305.175
588.86181	3467.075
592.87633	3574.275
596.888	3587.075
600.89682	3575.475
604.9028	3843.575
608.90594	4716.375
612.90624	6020.675
616.90371	6284.375
620.89834	5280.875
624.89015	5114.175
628.87913	5628.875
632.86528	6177.075
636.84862	6417.575
640.82913	6125.975
644.80683	5498.175
648.78172	4830.475
652.75379	4300.275
656.72306	3984.275
660.68952	3831.975
664.65319	3654.175
668.61405	3438.875
672.57211	3314.375
676.52738	3306.275
680.47986	3278.675
684.42955	3246.875
688.37646	3211.975
692.32058	3217.475
696.26192	3199.075
700.20048	3202.975
704.13626	3183.075
708.06928	3138.075
711.99952	3087.275
715.927	3096.975
719.85171	3193.375
723.77365	3279.675
727.69284	3248.775
731.60928	3175.075
735.52295	3086.675
739.43388	3052.875
743.34206	3070.075
747.24749	3085.175
751.15017	3081.375
755.05012	3113.675
758.94733	3218.175
762.8418	3490.875
766.73354	3944.075
770.62254	4461.475
774.50882	4765.175
778.39237	4662.675
782.27321	4172.675
786.15132	3609.075
790.02671	3308.275
793.89938	3235.775
797.76935	3303.375
801.6366	3531.175
805.50115	3925.275
809.36299	4343.175
813.22213	4462.575
817.07857	4249.275
820.93231	3858.175
824.78336	3485.675
828.63172	3179.175
832.47738	3024.475
836.32036	2940.575
840.16066	2882.775
843.99827	2828.775
847.8332	2809.275
851.66546	2795.575
855.49504	2804.275
859.32195	2817.775
863.1462	2860.775
866.96777	2978.575
870.78668	3151.975
874.60293	3421.775
878.41652	3721.175
882.22745	3993.575
886.03573	4133.375
889.84136	4089.375
893.64433	3844.475
897.44466	3519.075
901.24235	3209.675
905.0374	2971.575
908.8298	2805.275
912.61957	2731.975
916.40671	2683.875
920.19121	2659.775
923.97308	2641.575
927.75233	2652.475
931.52895	2672.375
935.30295	2650.575
939.07433	2593.675
942.84309	2528.475
946.60924	2498.275
950.37278	2468.475
954.13371	2460.275
957.89203	2445.875
961.64774	2423.075
965.40086	2420.375
969.15137	2411.575
972.89929	2395.375
976.64461	2405.075
980.38733	2419.175
984.12747	2422.575
987.86502	2463.175
991.59999	2522.475
995.33237	2614.975
999.06217	2765.275
1002.78939	2952.075
1006.51404	3122.275
1010.23611	3297.075
1013.95561	3419.075
1017.67255	3423.275
1021.38692	3321.075
1025.09872	3164.675
1028.80796	2966.375
1032.51465	2844.775
1036.21877	2745.075
1039.92035	2698.075
1043.61937	2687.875
1047.31584	2670.175
1051.00976	2683.675
1054.70114	2711.575
1058.38998	2762.875
1062.07627	2861.475
1065.76003	2950.675
1069.44126	3006.375
1073.11995	3031.375
1076.79611	3025.175
1080.46974	2985.875
1084.14085	2979.075
1087.80943	2937.675
1091.47549	2892.275
1095.13903	2790.075
1098.80005	2682.575
1102.45857	2609.175
1106.11456	2614.775
1109.76805	2709.975
1113.41903	2880.575
1117.06751	3129.875
1120.71348	3527.475
1124.35696	4072.675
1127.99793	4695.675
1131.63641	5203.975
1135.2724	5417.575
1138.90589	5347.975
1142.5369	5037.675
1146.16542	4570.575
1149.79145	4035.075
1153.415	3564.075
1157.03607	3213.375
1160.65467	3019.675
1164.27079	2960.875
1167.88443	3016.475
1171.49561	3203.675
1175.10432	3581.775
1178.71056	4136.175
1182.31434	4644.375
1185.91565	4973.175
1189.51451	5220.375
1193.11091	5455.975
1196.70485	5677.275
1200.29634	5805.775
1203.88538	5759.575
1207.47197	5444.975
1211.05612	4985.575
1214.63782	4503.175
1218.21708	4090.775
1221.79391	3735.775
1225.36829	3450.075
1228.94024	3244.975
1232.50976	3141.775
1236.07685	3101.775
1239.6415	3131.075
1243.20374	3185.875
1246.76355	3217.775
1250.32093	3244.275
1253.8759	3297.375
1257.42845	3374.975
1260.97859	3485.075
1264.52631	3581.875
1268.07163	3648.975
1271.61453	3701.375
1275.15503	3677.775
1278.69312	3638.075
1282.22882	3606.375
1285.76211	3669.975
1289.29301	3823.775
1292.82151	4011.875
1296.34761	4208.675
1299.87133	4427.075
1303.39266	4750.975
1306.9116	5265.675
1310.42815	5858.975
1313.94233	6211.075
1317.45412	6189.475
1320.96354	5854.275
1324.47058	5438.475
1327.97525	5098.175
1331.47754	4923.275
1334.97747	4963.975
1338.47502	5119.575
1341.97022	5358.175
1345.46305	5623.775
1348.95352	5980.275
1352.44163	6479.375
1355.92738	7155.975
1359.41078	7999.275
1362.89183	8621.175
1366.37053	8342.275
1369.84688	7376.375
1373.32088	6389.975
1376.79254	5664.275
1380.26186	5241.275
1383.72883	4968.275
1387.19347	4712.975
1390.65578	4434.675
1394.11575	4216.475
1397.57339	4080.375
1401.0287	3989.875
1404.48168	3881.675
1407.93234	3795.675
1411.38068	3705.975
1414.82669	3585.575
1418.27039	3471.075
1421.71177	3353.975
1425.15083	3273.375
1428.58758	3245.775
1432.02203	3281.075
1435.45416	3336.175
1438.88399	3358.375
1442.31151	3340.075
1445.73673	3338.075
1449.15965	3329.375
1452.58027	3274.875
1455.9986	3215.275
1459.41463	3168.475
1462.82837	3197.075
1466.23982	3283.875
1469.64898	3387.175
1473.05586	3515.875
1476.46045	3625.075
1479.86276	3764.475
1483.26279	3918.375
1486.66054	4082.475
1490.05602	4212.275
1493.44922	4382.075
1496.84016	4564.175
1500.22882	4882.975
1503.61521	5356.175
1506.99934	5891.175
1510.38121	6336.575
1513.76081	6480.675
1517.13816	6142.275
1520.51324	5408.875
1523.88607	4708.675
1527.25665	4296.475
1530.62498	4135.575
1533.99105	4125.175
1537.35488	4177.275
1540.71647	4266.775
1544.07581	4357.975
1547.4329	4447.875
1550.78776	4468.475
1554.14038	4444.575
1557.49077	4430.675
1560.83892	4424.375
1564.18484	4470.575
1567.52853	4563.575
1570.86999	4704.875
1574.20922	4795.875
1577.54624	4819.875
1580.88103	4667.275
1584.2136	4426.175
1587.54395	4305.175
1590.87208	4313.575
1594.19801	4494.475
1597.52172	4787.075
1600.84321	5054.575
1604.16251	5091.075
1607.47959	4910.075
1610.79447	4616.175
1614.10715	4326.775
1617.41763	4126.275
1620.7259	4033.575
1624.03199	4019.875
1627.33587	4060.975
1630.63757	4182.075
1633.93707	4392.375
1637.23439	4736.775
1640.52951	5228.175
1643.82246	5910.975
1647.11321	6608.775
1650.40179	7125.375
1653.68819	7077.275
1656.97241	6463.475
1660.25446	5689.075
1663.53433	4960.775
1666.81203	4405.775
1670.08756	3938.775
1673.36092	3597.275
1676.63211	3319.775
1679.90115	3141.275
1683.16801	2971.575
1686.43272	2837.475
1689.69527	2730.375
1692.95567	2642.375
1696.2139	2551.175
1699.46999	2471.575
1702.72392	2389.375
1705.97571	2308.875
1709.22535	2229.675
1712.47284	2191.275
1715.71819	2153.775
1718.96139	2101.875
1722.20246	2060.975
1725.44139	2030.275
1728.67818	1986.775
1731.91284	1925.375
1735.14537	1886.775
1738.37576	1872.275
1741.60403	1846.175
1744.83017	1824.975
1748.05418	1802.375
1751.27607	1787.475
1754.49584	1774.575
1757.71349	1758.675
1760.92903	1733.275
1764.14244	1732.175
1767.35375	1710.675
1770.56294	1698.475
1773.77002	1680.075
1776.97499	1662.275
1780.17785	1648.975
1783.37861	1631.275
1786.57727	1628.875
1789.77382	1608.775
1792.96828	1616.075
1796.16064	1590.675
1799.3509	1593.675
1802.53907	1584.375
1805.72514	1573.875
1808.90913	1562.475
1812.09102	1549.775
1815.27083	1553.375
1818.44856	1551.175
1821.6242	1524.175
1824.79776	1531.775
1827.96924	1525.675
1831.13864	1518.375
1834.30597	1520.575
1837.47122	1508.975
1840.6344	1500.975
1843.7955	1499.575
1846.95454	1498.475
1850.11151	1487.875
1853.26642	1493.075
1856.41926	1483.575
1859.57004	1474.475
1862.71876	1480.575
1865.86542	1473.475
1869.01003	1467.975
1872.15258	1460.575
1875.29308	1458.275
1878.43152	1453.575
1881.56792	1446.675
1884.70227	1452.475
1887.83457	1447.875
1890.96482	1432.875
1894.09304	1435.475
1897.21921	1436.575
1900.34335	1424.975
1903.46544	1430.475
1906.58551	1423.475
1909.70353	1419.475
1912.81953	1422.875
1915.93349	1417.575
1919.04543	1411.075
1922.15534	1408.675
1925.26322	1407.475
1928.36908	1399.175
1931.47292	1399.175
1934.57473	1394.375
1937.67453	1390.675
1940.77232	1376.675
1943.86808	1373.875
1946.96184	1376.675
1950.05358	1363.575
1953.14331	1369.375
1956.23103	1358.875
1959.31675	1346.775
1962.40046	1361.775
1965.48217	1342.475
1968.56188	1337.575
1971.63959	1330.775
1974.7153	1338.075
1977.78901	1329.975
1980.86073	1317.775
1983.93046	1312.275
1986.99819	1314.075
1990.06394	1306.275
1993.1277	1303.875
1996.18947	1294.075
1999.24925	1291.775
2002.30706	1289.175
2005.36288	1277.875
2008.41672	1279.075
2011.46859	1267.475
2014.51848	1270.575
2017.56639	1259.475
2020.61233	1267.375
2023.6563	1266.475
2026.6983	1257.075
2029.73833	1245.375
2032.7764	1246.175
2035.8125	1240.175
2038.84664	1239.675
2041.87881	1244.275
2044.90903	1236.475
2047.93729	1234.975
2050.96359	1230.875
2053.98794	1233.875
2057.01034	1235.875
2060.03078	1229.075
2063.04927	1228.075
2066.06582	1234.075
2069.08042	1225.475
2072.09307	1223.875
2075.10378	1218.875
2078.11255	1220.775
2081.11938	1224.575
2084.12426	1223.475
2087.12722	1214.475
2090.12824	1217.975
2093.12732	1219.675
2096.12447	1221.775
2099.11969	1214.875
2102.11299	1207.175
2105.10435	1214.175
2108.09379	1211.775
2111.08131	1209.975
2114.0669	1201.175
2117.05057	1212.875
2120.03233	1204.675
2123.01216	1208.975
2125.99008	1206.975
2128.96609	1206.075
2131.94018	1209.575
2134.91236	1213.875
2137.88263	1200.075
2140.851	1204.075
2143.81746	1199.575
2146.78201	1203.675
2149.74466	1195.775
2152.7054	1203.175
2155.66425	1193.975
2158.6212	1185.875
2161.57625	1189.875
2164.52941	1185.075
2167.48067	1188.175
2170.43004	1185.675
2173.37752	1186.975
2176.32311	1183.675
2179.26681	1188.175
2182.20863	1181.675
2185.14856	1186.475
2188.08661	1186.675
2191.02278	1171.575
2193.95707	1174.175
2196.88948	1169.875
2199.82001	1179.375
2202.74867	1160.675
2205.67545	1172.875
2208.60037	1168.475
2211.52341	1158.475
2214.44458	1164.075
2217.36388	1158.475
2220.28132	1155.875
2223.1969	1142.275
2226.11061	1150.575
2229.02246	1135.875
2231.93245	1143.675
2234.84058	1139.875
2237.74686	1139.675
2240.65128	1136.575
2243.55385	1134.175
2246.45456	1125.675
2249.35343	1127.575
2252.25044	1130.175
2255.14561	1122.175
2258.03893	1127.175
2260.93041	1140.275
2263.82004	1128.175
2266.70783	1124.475
2269.59378	1128.075
2272.4779	1120.875
2275.36017	1114.075
2278.24061	1116.875
2281.11922	1108.275
2283.996	1106.175
2286.87094	1105.175
2289.74405	1103.575
2292.61534	1093.075
2295.4848	1091.275
2298.35243	1085.975
2301.21824	1082.375
2304.08223	1079.675
2306.94439	1081.475
2309.80474	1085.975
2312.66327	1078.775
2315.51999	1071.675
2318.37489	1072.075
2321.22797	1067.675
2324.07925	1059.375
2326.92871	1072.475
2329.77637	1062.975
2332.62222	1057.375
2335.46626	1055.675
2338.3085	1050.575
2341.14893	1045.975
2343.98756	1052.375
2346.8244	1047.775
2349.65943	1053.175
2352.49267	1056.475
2355.32411	1052.375
2358.15376	1061.875
2360.98161	1057.575
2363.80768	1063.575
2366.63195	1064.675
2369.45444	1063.075
2372.27514	1061.175
2375.09405	1070.775
2377.91118	1068.175
2380.72652	1072.475
2383.54009	1064.275
2386.35187	1060.775
2389.16188	1055.175
2391.97011	1055.575
2394.77657	1051.775
2397.58125	1039.275
2400.38416	1045.975
2403.18529	1037.575
2405.98466	1038.175
2408.78226	1028.275
2411.57809	1022.675
2414.37216	1020.475
2417.16446	1025.875
2419.955	1022.875
2422.74378	1017.775
2425.5308	1005.275
2428.31606	1011.975
2431.09956	1002.575
2433.88131	999.075
2436.6613	1012.175
2439.43954	1002.475
2442.21603	1004.875
2444.99077	999.275
2447.76377	1004.775
2450.53501	1012.875
2453.30451	1006.175
2456.07226	1002.875
2458.83827	1012.875
2461.60254	1001.175
2464.36507	1000.375
2467.12586	996.975
2469.88492	993.775
2472.64224	997.875
2475.39782	995.875
2478.15167	998.475
2480.90379	999.675
2483.65417	1000.775
2486.40283	1003.375
2489.14976	1005.075
2491.89497	1008.475
2494.63845	1014.775
2497.3802	1003.375
2500.12024	996.475
2502.85855	996.175
2505.59514	988.075
2508.33002	981.075
2511.06318	985.575
2513.79462	989.675
2516.52435	978.475
2519.25237	977.375
2521.97867	970.975
2524.70327	970.575
2527.42616	968.075
2530.14734	962.975
2532.86681	967.975
2535.58458	955.675
2538.30065	961.775
2541.01501	955.175
2543.72768	954.875
2546.43864	955.275
2549.14791	954.175
2551.85548	951.775
2554.56136	953.875
2557.26554	958.575
2559.96803	953.075
2562.66883	950.675
2565.36794	941.775
2568.06536	950.575
2570.7611	944.675
2573.45514	949.175
2576.14751	945.875
2578.83819	937.775
2581.52719	938.975
2584.21451	939.675
2586.90015	935.275
2589.58411	930.175
2592.2664	929.575
2594.94701	931.475
2597.62594	936.575
2600.30321	928.375
2602.9788	929.475
2605.65273	929.475
2608.32498	926.975
2610.99557	925.575
2613.66449	924.375
2616.33175	921.675
2618.99734	926.275
2621.66128	916.775
2624.32355	924.975
2626.98416	924.975
2629.64311	915.775
2632.30041	920.375
2634.95605	922.975
2637.61004	910.675
2640.26238	914.375
2642.91306	907.275
2645.56209	916.775
2648.20948	911.075
2650.85521	910.875
2653.4993	913.475
2656.14175	915.275
2658.78255	916.075
2661.42171	918.375
2664.05923	918.775
2666.6951	914.675
2669.32934	914.375
2671.96194	925.575
2674.59291	925.475
2677.22224	929.775
2679.84993	930.375
2682.476	931.175
2685.10043	935.575
2687.72324	930.575
2690.34441	928.975
2692.96396	930.875
2695.58188	943.375
2698.19818	943.075
2700.81285	946.575
2703.4259	945.075
2706.03733	969.175
2708.64714	966.375
2711.25533	960.075
2713.86191	952.275
2716.46687	967.675
2719.07021	966.475
2721.67194	972.075
2724.27206	963.275
2726.87057	978.375
2729.46747	972.775
2732.06276	967.975
2734.65644	973.275
2737.24852	962.575
2739.83899	968.775
2742.42786	965.175
2745.01513	961.475
2747.60079	960.575
2750.18486	966.075
2752.76733	969.875
2755.3482	968.275
2757.92747	961.375
2760.50515	971.075
2763.08123	965.975
2765.65573	964.875
2768.22863	969.575
2770.79994	976.075
2773.36967	982.875
2775.9378	984.975
2778.50435	976.475
2781.06932	972.175
2783.6327	993.075
2786.1945	997.375
2788.75471	1004.775
2791.31335	1006.675
2793.87041	1009.675
2796.42589	1012.575
2798.97979	1016.075
2801.53212	1020.775
2804.08288	1017.675
2806.63206	1025.275
2809.17967	1029.975
2811.72571	1037.675
2814.27018	1037.675
2816.81308	1034.875
2819.35442	1037.475
2821.89419	1040.975
2824.43239	1053.475
2826.96904	1053.375
2829.50412	1057.675
2832.03763	1050.575
2834.56959	1062.275
2837.1	1060.875
2839.62884	1063.375
2842.15613	1075.375
2844.68186	1084.775
2847.20604	1108.075
2849.72867	1111.775
2852.24974	1112.075
2854.76927	1126.775
2857.28724	1129.075
2859.80367	1124.475
2862.31855	1120.775
2864.83189	1114.975
2867.34368	1120.575
2869.85393	1117.875
2872.36264	1113.375
2874.8698	1125.675
2877.37543	1117.575
2879.87952	1117.375
2882.38207	1114.575
2884.88308	1115.275
2887.38256	1114.475
2889.88051	1112.475
2892.37692	1109.175
2894.8718	1106.875
2897.36515	1122.075
2899.85698	1115.175
2902.34727	1122.875
2904.83604	1120.075
2907.32328	1125.575
2909.809	1120.075
2912.29319	1107.775
2914.77587	1108.275
2917.25702	1114.775
2919.73665	1106.475
2922.21476	1106.275
2924.69136	1100.975
2927.16644	1099.275
2929.64	1087.975
2932.11205	1093.375
2934.58258	1083.275
2937.05161	1072.675
2939.51912	1071.875
2941.98513	1056.475
2944.44962	1048.475
2946.91261	1042.575
2949.37409	1021.975
2951.83407	1017.675
2954.29254	1004.475
2956.74951	1002.075
2959.20498	1001.875
2961.65895	992.375
2964.11142	985.675
2966.56239	979.175
2969.01186	979.875
2971.45984	979.875
2973.90632	968.575
2976.35131	960.575
2978.7948	959.675
2981.23681	960.275
2983.67732	961.575
2986.11635	955.175
2988.55388	949.275
2990.98993	945.575
2993.4245	947.175
2995.85758	940.075
2998.28917	936.975
3000.71928	944.175
3003.14791	934.875
3005.57506	930.175
3008.00073	939.175
3010.42493	934.975
3012.84764	938.275
3015.26888	937.475
3017.68865	938.775
3020.10694	942.775
3022.52376	950.375
3024.9391	948.175
3027.35298	945.175
3029.76539	943.075
3032.17632	942.975
3034.5858	950.075
3036.9938	947.675
3039.40034	947.575
3041.80542	949.375
3044.20903	954.675
3046.61118	952.975
3049.01187	950.675
3051.4111	953.575
3053.80888	962.175
3056.20519	964.075
3058.60005	972.075
3060.99345	978.575
3063.3854	969.975
3065.7759	980.775
3068.16494	975.875
3070.55254	972.975
3072.93868	988.175
3075.32338	982.375
3077.70662	982.975
3080.08842	987.775
3082.46878	988.675
3084.84769	988.975
3087.22515	986.675
3089.60118	996.275
3091.97576	1001.575
3094.3489	1009.975
3096.72061	1004.075
3099.09087	1018.275
3101.4597	1017.975
3103.82709	1029.375
3106.19305	1034.375
3108.55757	1034.175
3110.92066	1040.175
3113.28232	1035.275
3115.64255	1051.475
3118.00134	1046.175
3120.35871	1059.775
3122.71466	1066.475
3125.06917	1063.775
3127.42226	1067.175
3129.77393	1075.175
3132.12417	1086.175
3134.47299	1095.575
3136.82039	1104.775
3139.16636	1109.375
3141.51092	1116.875
3143.85406	1121.275
3146.19579	1136.475
3148.53609	1136.475
3150.87499	1149.775
3153.21246	1154.875
3155.54853	1166.775
3157.88318	1165.875
3160.21642	1169.475
3162.54826	1183.575
3164.87868	1194.575
3167.2077	1197.975
3169.5353	1204.575
3171.86151	1205.675
3174.18631	1217.175
3176.5097	1225.775
3178.83169	1226.975
3181.15228	1234.875
3183.47147	1237.575
3185.78926	1255.975
3188.10565	1253.575
3190.42065	1259.175
3192.73424	1275.675
3195.04645	1279.375
3197.35725	1277.375
3199.66667	1287.575
3201.97469	1298.275
3204.28132	1305.875
3206.58656	1309.475
3208.8904	1312.675
3211.19287	1325.675
3213.49394	1330.675
3215.79363	1330.175
3218.09193	1335.875
3220.38884	1340.175
3222.68438	1349.775
3224.97853	1337.075
3227.2713	1352.975
3229.56269	1348.475
3231.8527	1350.175
3234.14133	1348.575
3236.42858	1347.175
3238.71446	1349.475
3240.99896	1353.575
3243.28209	1358.975
3245.56384	1361.275
3247.84423	1359.975
3250.12324	1362.575
3252.40088	1363.975
3254.67715	1362.375
3256.95205	1354.975
