Data from AgNPs_FTO_APTES_UA_0.1mM_CRN_500uM_NaF_0.1M_Addition_RamanShift__24__15-02-27-785.txt Node

Date: Mon Dec 20 15:02:27 GMT 2021
User: TCL
Spectrometer: QEP01345
Trigger mode: 4
Integration Time (sec): 7.000000E0
Scans to average: 10
Electric dark correction enabled: true
Nonlinearity correction enabled: false
Boxcar width: 0
XAxis mode: Raman Shifts
Number of Pixels in Spectrum: 1044
>>>>>Begin Spectral Data<<<<<
46.04893	1.225
50.45542	-0.275
54.85868	-0.875
59.25871	1.225
63.6555	25.525
68.04907	27.625
72.43941	30.325
76.82654	30.625
81.21044	32.025
85.59113	36.325
89.96862	32.625
94.34289	37.325
98.71396	35.525
103.08183	35.225
107.4465	37.625
111.80798	38.925
116.16626	40.225
120.52136	41.225
124.87327	43.025
129.222	41.425
133.56755	42.825
137.90993	45.325
142.24913	44.025
146.58517	47.525
150.91804	55.125
155.24774	61.825
159.57429	73.625
163.89768	90.025
168.21792	118.325
172.53501	140.625
176.84895	189.925
181.15975	261.025
185.46741	359.325
189.77193	488.725
194.07331	649.825
198.37157	851.625
202.6667	1064.425
206.9587	1272.025
211.24758	1474.725
215.53334	1660.025
219.81599	1870.425
224.09553	2063.725
228.37195	2289.725
232.64527	2508.125
236.91549	2734.825
241.18261	2953.325
245.44663	3166.325
249.70755	3355.725
253.96539	3524.925
258.22014	3647.225
262.4718	3728.625
266.72039	3758.525
270.96589	3752.325
275.20832	3730.325
279.44768	3682.425
283.68397	3634.625
287.91719	3588.525
292.14735	3523.225
296.37445	3481.125
300.59849	3463.625
304.81948	3455.125
309.03742	3441.525
313.25231	3401.325
317.46415	3353.225
321.67296	3308.025
325.87872	3256.025
330.08145	3229.425
334.28114	3218.825
338.47781	3221.025
342.67145	3247.825
346.86207	3277.125
351.04966	3317.725
355.23424	3367.625
359.4158	3431.625
363.59435	3461.325
367.76989	3505.425
371.94243	3554.425
376.11196	3598.225
380.27849	3638.025
384.44203	3698.125
388.60257	3741.325
392.76012	3765.725
396.91468	3820.125
401.06626	3837.525
405.21485	3862.625
409.36047	3866.325
413.50311	3854.825
417.64277	3816.625
421.77947	3810.925
425.9132	3792.525
430.04396	3793.025
434.17176	3819.425
438.2966	3830.625
442.41849	3864.525
446.53742	3917.225
450.6534	3962.225
454.76644	3972.225
458.87653	4004.125
462.98368	4009.425
467.08789	4004.425
471.18916	4021.425
475.2875	4034.125
479.38291	4077.725
483.4754	4156.025
487.56496	4256.325
491.6516	4342.425
495.73531	4397.325
499.81612	4354.025
503.89401	4268.825
507.96899	4204.625
512.04106	4149.625
516.11023	4161.725
520.1765	4199.325
524.23987	4227.525
528.30034	4283.325
532.35792	4299.525
536.41261	4253.625
540.46441	4165.625
544.51333	4079.025
548.55936	4006.325
552.60252	3980.525
556.64279	3986.725
560.6802	3988.725
564.71473	4003.125
568.7464	4057.725
572.7752	4086.325
576.80114	4102.725
580.82422	4121.725
584.84444	4185.225
588.86181	4263.425
592.87633	4310.125
596.888	4311.225
600.89682	4284.225
604.9028	4352.525
608.90594	4534.825
612.90624	4842.325
616.90371	4947.825
620.89834	4865.025
624.89015	5072.925
628.87913	5473.625
632.86528	5855.425
636.84862	6054.425
640.82913	5933.325
644.80683	5587.225
648.78172	5165.625
652.75379	4834.425
656.72306	4638.825
660.68952	4548.125
664.65319	4503.425
668.61405	4506.325
672.57211	4516.025
676.52738	4554.625
680.47986	4572.325
684.42955	4565.525
688.37646	4521.325
692.32058	4468.725
696.26192	4427.725
700.20048	4368.525
704.13626	4319.225
708.06928	4251.625
711.99952	4198.425
715.927	4154.125
719.85171	4165.025
723.77365	4186.125
727.69284	4215.925
731.60928	4157.225
735.52295	4088.025
739.43388	4036.225
743.34206	4028.525
747.24749	4045.725
751.15017	4062.025
755.05012	4065.325
758.94733	4107.725
762.8418	4151.225
766.73354	4256.125
770.62254	4375.225
774.50882	4411.325
778.39237	4357.225
782.27321	4209.525
786.15132	4136.425
790.02671	4107.325
793.89938	4140.425
797.76935	4183.625
801.6366	4305.125
805.50115	4492.325
809.36299	4717.325
813.22213	4799.725
817.07857	4671.725
820.93231	4447.825
824.78336	4182.925
828.63172	4015.525
832.47738	3895.725
836.32036	3845.725
840.16066	3816.025
843.99827	3788.225
847.8332	3787.025
851.66546	3771.525
855.49504	3740.425
859.32195	3769.825
863.1462	3795.825
866.96777	3854.025
870.78668	3935.425
874.60293	4054.625
878.41652	4183.325
882.22745	4333.625
886.03573	4421.325
889.84136	4419.625
893.64433	4294.225
897.44466	4116.925
901.24235	3920.025
905.0374	3760.525
908.8298	3660.025
912.61957	3611.525
916.40671	3575.325
920.19121	3564.325
923.97308	3552.325
927.75233	3561.925
931.52895	3564.225
935.30295	3557.325
939.07433	3534.325
942.84309	3521.125
946.60924	3515.425
950.37278	3513.725
954.13371	3525.025
957.89203	3498.125
961.64774	3465.525
965.40086	3449.025
969.15137	3434.225
972.89929	3395.625
976.64461	3396.125
980.38733	3376.425
984.12747	3370.725
987.86502	3382.025
991.59999	3396.925
995.33237	3434.325
999.06217	3488.825
1002.78939	3577.225
1006.51404	3667.225
1010.23611	3745.025
1013.95561	3802.225
1017.67255	3838.725
1021.38692	3794.625
1025.09872	3719.525
1028.80796	3625.225
1032.51465	3529.325
1036.21877	3482.725
1039.92035	3448.125
1043.61937	3428.125
1047.31584	3417.725
1051.00976	3422.625
1054.70114	3453.425
1058.38998	3474.925
1062.07627	3517.625
1065.76003	3566.325
1069.44126	3594.325
1073.11995	3588.725
1076.79611	3599.725
1080.46974	3546.025
1084.14085	3504.425
1087.80943	3445.425
1091.47549	3411.125
1095.13903	3383.525
1098.80005	3345.425
1102.45857	3327.125
1106.11456	3331.925
1109.76805	3358.825
1113.41903	3414.225
1117.06751	3537.325
1120.71348	3714.225
1124.35696	3971.225
1127.99793	4319.525
1131.63641	4668.325
1135.2724	4899.425
1138.90589	4975.725
1142.5369	4825.925
1146.16542	4528.725
1149.79145	4180.925
1153.415	3894.025
1157.03607	3683.325
1160.65467	3560.125
1164.27079	3485.425
1167.88443	3472.825
1171.49561	3528.025
1175.10432	3620.725
1178.71056	3750.625
1182.31434	3885.225
1185.91565	3977.625
1189.51451	4054.925
1193.11091	4146.925
1196.70485	4291.925
1200.29634	4435.425
1203.88538	4500.425
1207.47197	4460.625
1211.05612	4296.725
1214.63782	4106.425
1218.21708	3903.525
1221.79391	3729.425
1225.36829	3591.725
1228.94024	3506.325
1232.50976	3461.325
1236.07685	3437.325
1239.6415	3419.625
1243.20374	3437.125
1246.76355	3451.925
1250.32093	3458.425
1253.8759	3490.125
1257.42845	3514.125
1260.97859	3534.125
1264.52631	3542.125
1268.07163	3535.325
1271.61453	3534.325
1275.15503	3530.625
1278.69312	3524.425
1282.22882	3514.525
1285.76211	3526.725
1289.29301	3556.125
1292.82151	3601.825
1296.34761	3684.125
1299.87133	3774.225
1303.39266	3899.425
1306.9116	4062.725
1310.42815	4240.325
1313.94233	4374.925
1317.45412	4420.425
1320.96354	4416.825
1324.47058	4384.725
1327.97525	4350.125
1331.47754	4356.225
1334.97747	4390.325
1338.47502	4439.125
1341.97022	4503.625
1345.46305	4583.825
1348.95352	4653.125
1352.44163	4784.725
1355.92738	4915.025
1359.41078	5100.925
1362.89183	5284.925
1366.37053	5265.525
1369.84688	4996.825
1373.32088	4685.825
1376.79254	4469.225
1380.26186	4311.925
1383.72883	4207.225
1387.19347	4134.225
1390.65578	4054.425
1394.11575	3992.925
1397.57339	3961.225
1401.0287	3930.525
1404.48168	3907.525
1407.93234	3841.125
1411.38068	3761.825
1414.82669	3668.725
1418.27039	3558.125
1421.71177	3432.225
1425.15083	3319.825
1428.58758	3246.425
1432.02203	3190.725
1435.45416	3161.525
1438.88399	3139.225
1442.31151	3117.825
1445.73673	3133.325
1449.15965	3111.225
1452.58027	3117.325
1455.9986	3110.425
1459.41463	3110.525
1462.82837	3125.125
1466.23982	3147.825
1469.64898	3190.125
1473.05586	3181.325
1476.46045	3200.125
1479.86276	3196.625
1483.26279	3199.625
1486.66054	3239.925
1490.05602	3263.125
1493.44922	3300.525
1496.84016	3355.025
1500.22882	3437.425
1503.61521	3563.125
1506.99934	3714.325
1510.38121	3813.125
1513.76081	3873.425
1517.13816	3769.325
1520.51324	3621.825
1523.88607	3481.225
1527.25665	3406.425
1530.62498	3389.025
1533.99105	3392.225
1537.35488	3412.525
1540.71647	3445.625
1544.07581	3488.325
1547.4329	3526.325
1550.78776	3526.525
1554.14038	3551.325
1557.49077	3567.325
1560.83892	3566.425
1564.18484	3582.025
1567.52853	3595.025
1570.86999	3626.925
1574.20922	3655.525
1577.54624	3687.625
1580.88103	3680.925
1584.2136	3666.625
1587.54395	3644.525
1590.87208	3655.525
1594.19801	3710.025
1597.52172	3802.925
1600.84321	3845.225
1604.16251	3880.225
1607.47959	3815.525
1610.79447	3757.425
1614.10715	3707.625
1617.41763	3644.625
1620.7259	3617.525
1624.03199	3585.925
1627.33587	3582.625
1630.63757	3585.325
1633.93707	3631.025
1637.23439	3708.725
1640.52951	3815.825
1643.82246	3961.825
1647.11321	4137.525
1650.40179	4263.525
1653.68819	4262.525
1656.97241	4110.325
1660.25446	3925.525
1663.53433	3769.525
1666.81203	3655.925
1670.08756	3565.325
1673.36092	3503.725
1676.63211	3448.925
1679.90115	3398.525
1683.16801	3353.325
1686.43272	3300.025
1689.69527	3232.825
1692.95567	3179.025
1696.2139	3113.125
1699.46999	3024.225
1702.72392	2934.225
1705.97571	2818.025
1709.22535	2730.425
1712.47284	2670.525
1715.71819	2610.725
1718.96139	2553.625
1722.20246	2525.525
1725.44139	2490.125
1728.67818	2457.025
1731.91284	2431.925
1735.14537	2395.825
1738.37576	2384.925
1741.60403	2372.925
1744.83017	2367.625
1748.05418	2361.525
1751.27607	2357.625
1754.49584	2358.825
1757.71349	2352.725
1760.92903	2347.125
1764.14244	2321.325
1767.35375	2294.425
1770.56294	2266.425
1773.77002	2243.425
1776.97499	2204.525
1780.17785	2160.825
1783.37861	2137.725
1786.57727	2117.125
1789.77382	2090.125
1792.96828	2076.625
1796.16064	2043.125
1799.3509	2039.725
1802.53907	2025.825
1805.72514	2005.625
1808.90913	1989.625
1812.09102	1998.025
1815.27083	1992.125
1818.44856	1974.225
1821.6242	1976.125
1824.79776	1955.225
1827.96924	1954.625
1831.13864	1941.225
1834.30597	1951.125
1837.47122	1952.025
1840.6344	1940.325
1843.7955	1933.225
1846.95454	1933.025
1850.11151	1927.225
1853.26642	1918.525
1856.41926	1913.025
1859.57004	1915.825
1862.71876	1908.525
1865.86542	1909.225
1869.01003	1898.125
1872.15258	1889.425
1875.29308	1886.925
1878.43152	1877.925
1881.56792	1870.925
1884.70227	1865.625
1887.83457	1863.925
1890.96482	1863.125
1894.09304	1856.025
1897.21921	1847.125
1900.34335	1839.625
1903.46544	1837.625
1906.58551	1843.225
1909.70353	1839.125
1912.81953	1844.425
1915.93349	1825.625
1919.04543	1824.825
1922.15534	1805.325
1925.26322	1798.425
1928.36908	1800.025
1931.47292	1797.525
1934.57473	1791.125
1937.67453	1787.125
1940.77232	1769.125
1943.86808	1769.325
1946.96184	1760.725
1950.05358	1758.425
1953.14331	1754.425
1956.23103	1738.125
1959.31675	1754.025
1962.40046	1719.625
1965.48217	1721.625
1968.56188	1722.025
1971.63959	1714.825
1974.7153	1701.525
1977.78901	1703.725
1980.86073	1688.625
1983.93046	1681.625
1986.99819	1674.825
1990.06394	1664.925
1993.1277	1666.225
1996.18947	1662.825
1999.24925	1653.125
2002.30706	1654.925
2005.36288	1634.325
2008.41672	1636.625
2011.46859	1639.425
2014.51848	1630.625
2017.56639	1611.825
2020.61233	1612.725
2023.6563	1604.425
2026.6983	1599.425
2029.73833	1592.025
2032.7764	1591.125
2035.8125	1588.525
2038.84664	1586.125
2041.87881	1583.625
2044.90903	1570.625
2047.93729	1575.225
2050.96359	1574.725
2053.98794	1558.925
2057.01034	1560.825
2060.03078	1552.725
2063.04927	1549.725
2066.06582	1553.525
2069.08042	1545.825
2072.09307	1551.125
2075.10378	1544.725
2078.11255	1547.525
2081.11938	1540.425
2084.12426	1534.025
2087.12722	1538.525
2090.12824	1541.925
2093.12732	1529.525
2096.12447	1529.625
2099.11969	1525.825
2102.11299	1531.025
2105.10435	1523.625
2108.09379	1525.025
2111.08131	1519.125
2114.0669	1522.925
2117.05057	1528.125
2120.03233	1526.725
2123.01216	1520.225
2125.99008	1529.225
2128.96609	1515.225
2131.94018	1527.725
2134.91236	1524.025
2137.88263	1522.325
2140.851	1510.825
2143.81746	1520.425
2146.78201	1523.225
2149.74466	1525.725
2152.7054	1513.125
2155.66425	1514.125
2158.6212	1514.525
2161.57625	1512.625
2164.52941	1500.825
2167.48067	1510.525
2170.43004	1504.325
2173.37752	1505.125
2176.32311	1495.525
2179.26681	1501.025
2182.20863	1493.525
2185.14856	1492.025
2188.08661	1499.225
2191.02278	1495.325
2193.95707	1490.125
2196.88948	1484.125
2199.82001	1479.425
2202.74867	1473.625
2205.67545	1466.525
2208.60037	1473.625
2211.52341	1467.825
2214.44458	1461.725
2217.36388	1452.825
2220.28132	1455.125
2223.1969	1443.425
2226.11061	1442.425
2229.02246	1429.925
2231.93245	1435.125
2234.84058	1422.725
2237.74686	1421.125
2240.65128	1421.125
2243.55385	1419.125
2246.45456	1415.825
2249.35343	1412.025
2252.25044	1416.325
2255.14561	1409.525
2258.03893	1407.825
2260.93041	1402.925
2263.82004	1396.325
2266.70783	1394.625
2269.59378	1384.925
2272.4779	1382.825
2275.36017	1374.925
2278.24061	1374.025
2281.11922	1368.825
2283.996	1370.525
2286.87094	1364.925
2289.74405	1364.525
2292.61534	1358.825
2295.4848	1348.525
2298.35243	1349.125
2301.21824	1347.325
2304.08223	1342.425
2306.94439	1340.825
2309.80474	1335.825
2312.66327	1340.525
2315.51999	1337.825
2318.37489	1337.125
2321.22797	1325.725
2324.07925	1325.025
2326.92871	1330.125
2329.77637	1317.225
2332.62222	1314.225
2335.46626	1309.525
2338.3085	1309.725
2341.14893	1310.925
2343.98756	1301.125
2346.8244	1299.825
2349.65943	1295.325
2352.49267	1294.925
2355.32411	1296.825
2358.15376	1296.825
2360.98161	1296.925
2363.80768	1287.125
2366.63195	1289.925
2369.45444	1284.225
2372.27514	1286.825
2375.09405	1290.425
2377.91118	1276.225
2380.72652	1281.925
2383.54009	1268.425
2386.35187	1272.025
2389.16188	1262.125
2391.97011	1259.925
2394.77657	1262.125
2397.58125	1250.225
2400.38416	1247.225
2403.18529	1256.825
2405.98466	1258.225
2408.78226	1248.225
2411.57809	1238.525
2414.37216	1241.825
2417.16446	1235.525
2419.955	1238.525
2422.74378	1232.325
2425.5308	1230.825
2428.31606	1217.725
2431.09956	1211.125
2433.88131	1222.525
2436.6613	1209.125
2439.43954	1210.325
2442.21603	1197.525
2444.99077	1193.725
2447.76377	1200.225
2450.53501	1202.525
2453.30451	1199.725
2456.07226	1191.325
2458.83827	1193.125
2461.60254	1197.925
2464.36507	1194.225
2467.12586	1181.025
2469.88492	1183.925
2472.64224	1181.225
2475.39782	1183.525
2478.15167	1181.925
2480.90379	1179.825
2483.65417	1181.925
2486.40283	1166.025
2489.14976	1170.725
2491.89497	1177.325
2494.63845	1173.125
2497.3802	1161.125
2500.12024	1163.725
2502.85855	1163.925
2505.59514	1162.525
2508.33002	1161.325
2511.06318	1152.125
2513.79462	1146.925
2516.52435	1150.025
2519.25237	1140.325
2521.97867	1135.725
2524.70327	1145.225
2527.42616	1139.225
2530.14734	1136.025
2532.86681	1130.925
2535.58458	1125.625
2538.30065	1127.025
2541.01501	1129.325
2543.72768	1120.525
2546.43864	1120.125
2549.14791	1118.825
2551.85548	1106.025
2554.56136	1106.425
2557.26554	1100.525
2559.96803	1100.825
2562.66883	1097.025
2565.36794	1100.825
2568.06536	1088.225
2570.7611	1098.325
2573.45514	1088.825
2576.14751	1096.025
2578.83819	1091.025
2581.52719	1086.725
2584.21451	1073.325
2586.90015	1076.725
2589.58411	1075.225
2592.2664	1073.425
2594.94701	1064.525
2597.62594	1069.025
2600.30321	1057.925
2602.9788	1054.925
2605.65273	1061.525
2608.32498	1052.425
2610.99557	1051.325
2613.66449	1057.225
2616.33175	1050.125
2618.99734	1048.425
2621.66128	1041.225
2624.32355	1042.425
2626.98416	1038.625
2629.64311	1041.225
2632.30041	1032.325
2634.95605	1042.225
2637.61004	1039.425
2640.26238	1040.225
2642.91306	1027.625
2645.56209	1025.225
2648.20948	1025.425
2650.85521	1025.825
2653.4993	1032.425
2656.14175	1023.425
2658.78255	1021.825
2661.42171	1022.825
2664.05923	1018.225
2666.6951	1028.425
2669.32934	1020.425
2671.96194	1019.925
2674.59291	1023.725
2677.22224	1025.325
2679.84993	1025.825
2682.476	1020.125
2685.10043	1017.425
2687.72324	1019.625
2690.34441	1016.625
2692.96396	1021.525
2695.58188	1024.825
2698.19818	1016.625
2700.81285	1023.925
2703.4259	1028.625
2706.03733	1052.925
2708.64714	1038.225
2711.25533	1027.425
2713.86191	1024.925
2716.46687	1022.425
2719.07021	1026.925
2721.67194	1019.525
2724.27206	1014.925
2726.87057	1021.125
2729.46747	1016.325
2732.06276	1014.825
2734.65644	1010.925
2737.24852	1002.425
2739.83899	1014.425
2742.42786	1008.025
2745.01513	1007.225
2747.60079	1007.425
2750.18486	1004.625
2752.76733	999.925
2755.3482	996.725
2757.92747	1000.125
2760.50515	992.825
2763.08123	987.725
2765.65573	982.825
2768.22863	988.525
2770.79994	986.025
2773.36967	989.525
2775.9378	983.325
2778.50435	983.625
2781.06932	973.525
2783.6327	981.025
2786.1945	976.725
2788.75471	975.125
2791.31335	980.925
2793.87041	972.625
2796.42589	968.625
2798.97979	966.125
2801.53212	969.725
2804.08288	972.825
2806.63206	963.425
2809.17967	962.225
2811.72571	963.925
2814.27018	957.025
2816.81308	967.625
2819.35442	950.225
2821.89419	961.225
2824.43239	955.825
2826.96904	960.325
2829.50412	953.225
2832.03763	959.725
2834.56959	961.725
2837.1	953.725
2839.62884	961.725
2842.15613	955.625
2844.68186	956.925
2847.20604	962.125
2849.72867	955.525
2852.24974	955.825
2854.76927	963.725
2857.28724	966.725
2859.80367	956.525
2862.31855	962.125
2864.83189	950.825
2867.34368	947.525
2869.85393	955.225
2872.36264	961.425
2874.8698	968.125
2877.37543	968.725
2879.87952	964.125
2882.38207	970.325
2884.88308	965.925
2887.38256	976.625
2889.88051	974.225
2892.37692	975.025
2894.8718	974.325
2897.36515	976.225
2899.85698	978.925
2902.34727	993.825
2904.83604	996.725
2907.32328	993.125
2909.809	994.625
2912.29319	1004.925
2914.77587	1002.225
2917.25702	1004.825
2919.73665	1012.525
2922.21476	1021.325
2924.69136	1015.425
2927.16644	1018.525
2929.64	1014.625
2932.11205	1023.925
2934.58258	1018.425
2937.05161	1023.025
2939.51912	1019.725
2941.98513	1018.325
2944.44962	1021.825
2946.91261	1013.925
2949.37409	1020.825
2951.83407	1025.125
2954.29254	1009.525
2956.74951	1009.925
2959.20498	1008.925
2961.65895	1001.725
2964.11142	999.925
2966.56239	994.825
2969.01186	984.325
2971.45984	987.525
2973.90632	977.725
2976.35131	972.325
2978.7948	976.725
2981.23681	968.525
2983.67732	957.425
2986.11635	968.125
2988.55388	965.125
2990.98993	964.525
2993.4245	964.825
2995.85758	959.525
2998.28917	963.525
3000.71928	955.525
3003.14791	963.325
3005.57506	966.625
3008.00073	966.725
3010.42493	958.125
3012.84764	963.725
3015.26888	966.625
3017.68865	960.725
3020.10694	960.825
3022.52376	969.025
3024.9391	973.925
3027.35298	967.325
3029.76539	965.725
3032.17632	971.225
3034.5858	974.125
3036.9938	972.925
3039.40034	970.925
3041.80542	974.125
3044.20903	964.725
3046.61118	977.425
3049.01187	975.125
3051.4111	974.825
3053.80888	975.425
3056.20519	979.925
3058.60005	973.825
3060.99345	989.925
3063.3854	982.325
3065.7759	984.125
3068.16494	985.025
3070.55254	990.525
3072.93868	989.425
3075.32338	994.325
3077.70662	997.625
3080.08842	993.125
3082.46878	1001.825
3084.84769	996.925
3087.22515	1012.125
3089.60118	1008.525
3091.97576	1013.425
3094.3489	1023.225
3096.72061	1022.925
3099.09087	1037.125
3101.4597	1040.525
3103.82709	1047.425
3106.19305	1050.225
3108.55757	1059.225
3110.92066	1053.725
3113.28232	1053.425
3115.64255	1066.425
3118.00134	1065.925
3120.35871	1071.825
3122.71466	1071.125
3125.06917	1084.925
3127.42226	1081.225
3129.77393	1088.925
3132.12417	1102.525
3134.47299	1100.425
3136.82039	1108.725
3139.16636	1120.525
3141.51092	1122.625
3143.85406	1131.525
3146.19579	1142.725
3148.53609	1144.125
3150.87499	1157.525
3153.21246	1163.925
3155.54853	1175.925
3157.88318	1185.025
3160.21642	1186.225
3162.54826	1195.225
3164.87868	1195.125
3167.2077	1209.625
3169.5353	1208.425
3171.86151	1217.425
3174.18631	1222.625
3176.5097	1221.725
3178.83169	1233.325
3181.15228	1245.125
3183.47147	1249.825
3185.78926	1249.725
3188.10565	1249.425
3190.42065	1257.225
3192.73424	1264.325
3195.04645	1277.525
3197.35725	1287.425
3199.66667	1289.025
3201.97469	1295.925
3204.28132	1292.825
3206.58656	1297.125
3208.8904	1312.625
3211.19287	1315.625
3213.49394	1323.625
3215.79363	1314.225
3218.09193	1323.425
3220.38884	1337.425
3222.68438	1343.325
3224.97853	1343.725
3227.2713	1342.525
3229.56269	1347.125
3231.8527	1332.825
3234.14133	1336.525
3236.42858	1340.525
3238.71446	1340.025
3240.99896	1332.125
3243.28209	1341.025
3245.56384	1336.525
3247.84423	1346.325
3250.12324	1350.625
