Data from AgNPs_FTO_APTES_UA_0.1mM_CRN_100uM_NaF_0.1M_Addition_RamanShift__3__13-19-47-670.txt Node

Date: Mon Dec 20 13:19:47 GMT 2021
User: TCL
Spectrometer: QEP01345
Trigger mode: 4
Integration Time (sec): 7.000000E0
Scans to average: 10
Electric dark correction enabled: true
Nonlinearity correction enabled: false
Boxcar width: 0
XAxis mode: Raman Shifts
Number of Pixels in Spectrum: 1044
>>>>>Begin Spectral Data<<<<<
46.04893	1.5125
50.45542	-0.8875
54.85868	-1.3875
59.25871	0.4125
63.6555	33.4125
68.04907	32.0125
72.43941	35.0125
76.82654	38.6125
81.21044	37.1125
85.59113	42.2125
89.96862	40.0125
94.34289	43.4125
98.71396	45.8125
103.08183	45.4125
107.4465	44.3125
111.80798	49.2125
116.16626	49.8125
120.52136	51.3125
124.87327	52.5125
129.222	53.0125
133.56755	55.2125
137.90993	59.5125
142.24913	63.1125
146.58517	68.2125
150.91804	82.2125
155.24774	94.3125
159.57429	106.8125
163.89768	131.3125
168.21792	176.6125
172.53501	229.3125
176.84895	311.0125
181.15975	432.6125
185.46741	604.9125
189.77193	823.2125
194.07331	1094.2125
198.37157	1416.8125
202.6667	1762.3125
206.9587	2102.2125
211.24758	2458.7125
215.53334	2798.0125
219.81599	3153.3125
224.09553	3555.6125
228.37195	4014.7125
232.64527	4488.2125
236.91549	4993.8125
241.18261	5483.7125
245.44663	5932.3125
249.70755	6306.4125
253.96539	6624.2125
258.22014	6842.2125
262.4718	7009.3125
266.72039	7094.1125
270.96589	7114.5125
275.20832	7076.7125
279.44768	7019.9125
283.68397	6905.2125
287.91719	6807.5125
292.14735	6741.5125
296.37445	6674.0125
300.59849	6653.4125
304.81948	6627.6125
309.03742	6585.0125
313.25231	6553.7125
317.46415	6461.5125
321.67296	6357.8125
325.87872	6283.4125
330.08145	6235.1125
334.28114	6223.9125
338.47781	6233.5125
342.67145	6274.5125
346.86207	6329.5125
351.04966	6399.3125
355.23424	6475.4125
359.4158	6588.1125
363.59435	6675.8125
367.76989	6754.2125
371.94243	6809.5125
376.11196	6863.3125
380.27849	6933.4125
384.44203	6991.9125
388.60257	7070.5125
392.76012	7136.0125
396.91468	7192.6125
401.06626	7267.9125
405.21485	7326.9125
409.36047	7338.3125
413.50311	7276.8125
417.64277	7231.5125
421.77947	7219.7125
425.9132	7220.3125
430.04396	7230.5125
434.17176	7274.7125
438.2966	7308.0125
442.41849	7348.7125
446.53742	7438.3125
450.6534	7538.0125
454.76644	7608.0125
458.87653	7639.2125
462.98368	7664.9125
467.08789	7657.2125
471.18916	7701.3125
475.2875	7714.8125
479.38291	7762.8125
483.4754	7823.8125
487.56496	7951.8125
491.6516	8109.4125
495.73531	8219.9125
499.81612	8249.3125
503.89401	8186.0125
507.96899	8062.8125
512.04106	7987.4125
516.11023	7959.5125
520.1765	7952.3125
524.23987	7973.6125
528.30034	8014.1125
532.35792	8064.4125
536.41261	8031.4125
540.46441	7926.9125
544.51333	7848.5125
548.55936	7770.6125
552.60252	7747.0125
556.64279	7749.5125
560.6802	7766.1125
564.71473	7761.2125
568.7464	7802.0125
572.7752	7879.0125
576.80114	7941.3125
580.82422	8002.7125
584.84444	8148.4125
588.86181	8297.7125
592.87633	8396.9125
596.888	8404.1125
600.89682	8332.9125
604.9028	8386.4125
608.90594	8693.0125
612.90624	9147.1125
616.90371	9168.1125
620.89834	8801.4125
624.89015	8932.1125
628.87913	9462.1125
632.86528	10116.4125
636.84862	10540.0125
640.82913	10518.4125
644.80683	10100.3125
648.78172	9537.6125
652.75379	9060.2125
656.72306	8676.3125
660.68952	8469.1125
664.65319	8296.1125
668.61405	8152.4125
672.57211	8109.4125
676.52738	8117.2125
680.47986	8156.8125
684.42955	8170.5125
688.37646	8115.4125
692.32058	8056.6125
696.26192	7995.7125
700.20048	7991.0125
704.13626	7952.9125
708.06928	7932.3125
711.99952	7902.9125
715.927	7915.2125
719.85171	7986.3125
723.77365	8081.4125
727.69284	8132.2125
731.60928	8090.4125
735.52295	7999.6125
739.43388	7886.3125
743.34206	7877.0125
747.24749	7864.8125
751.15017	7879.6125
755.05012	7903.5125
758.94733	7964.2125
762.8418	8076.9125
766.73354	8302.8125
770.62254	8521.4125
774.50882	8588.3125
778.39237	8464.9125
782.27321	8195.1125
786.15132	7960.8125
790.02671	7843.6125
793.89938	7825.6125
797.76935	7794.6125
801.6366	7897.4125
805.50115	8066.5125
809.36299	8330.0125
813.22213	8543.4125
817.07857	8499.9125
820.93231	8327.9125
824.78336	8055.9125
828.63172	7821.4125
832.47738	7674.4125
836.32036	7599.6125
840.16066	7582.1125
843.99827	7585.7125
847.8332	7580.3125
851.66546	7559.3125
855.49504	7582.2125
859.32195	7587.5125
863.1462	7626.2125
866.96777	7680.0125
870.78668	7776.9125
874.60293	7919.9125
878.41652	8091.9125
882.22745	8280.6125
886.03573	8435.3125
889.84136	8515.8125
893.64433	8439.3125
897.44466	8211.7125
901.24235	7946.5125
905.0374	7735.1125
908.8298	7570.5125
912.61957	7506.7125
916.40671	7441.8125
920.19121	7433.1125
923.97308	7427.2125
927.75233	7426.5125
931.52895	7403.9125
935.30295	7378.9125
939.07433	7343.9125
942.84309	7266.7125
946.60924	7258.4125
950.37278	7227.2125
954.13371	7219.5125
957.89203	7222.7125
961.64774	7193.8125
965.40086	7179.6125
969.15137	7173.7125
972.89929	7133.7125
976.64461	7126.7125
980.38733	7155.8125
984.12747	7136.9125
987.86502	7152.5125
991.59999	7191.5125
995.33237	7237.8125
999.06217	7333.4125
1002.78939	7434.5125
1006.51404	7551.7125
1010.23611	7650.6125
1013.95561	7713.6125
1017.67255	7772.5125
1021.38692	7767.6125
1025.09872	7717.1125
1028.80796	7660.5125
1032.51465	7585.1125
1036.21877	7512.2125
1039.92035	7463.1125
1043.61937	7428.5125
1047.31584	7383.0125
1051.00976	7370.4125
1054.70114	7375.0125
1058.38998	7403.0125
1062.07627	7462.2125
1065.76003	7557.2125
1069.44126	7649.4125
1073.11995	7731.5125
1076.79611	7804.6125
1080.46974	7802.6125
1084.14085	7739.7125
1087.80943	7656.8125
1091.47549	7610.9125
1095.13903	7556.2125
1098.80005	7518.8125
1102.45857	7471.9125
1106.11456	7475.2125
1109.76805	7479.9125
1113.41903	7646.1125
1117.06751	7859.2125
1120.71348	8237.3125
1124.35696	8760.9125
1127.99793	9354.3125
1131.63641	9939.5125
1135.2724	10194.5125
1138.90589	10115.5125
1142.5369	9799.8125
1146.16542	9344.9125
1149.79145	8844.9125
1153.415	8373.5125
1157.03607	8008.6125
1160.65467	7817.7125
1164.27079	7745.7125
1167.88443	7764.3125
1171.49561	7885.6125
1175.10432	8067.8125
1178.71056	8316.9125
1182.31434	8568.0125
1185.91565	8739.2125
1189.51451	8828.3125
1193.11091	8840.4125
1196.70485	8910.9125
1200.29634	8992.3125
1203.88538	9049.0125
1207.47197	9047.2125
1211.05612	8907.9125
1214.63782	8700.5125
1218.21708	8508.0125
1221.79391	8280.2125
1225.36829	8101.0125
1228.94024	7960.9125
1232.50976	7838.9125
1236.07685	7793.4125
1239.6415	7784.3125
1243.20374	7828.7125
1246.76355	7861.6125
1250.32093	7965.3125
1253.8759	8028.1125
1257.42845	8122.6125
1260.97859	8231.6125
1264.52631	8283.0125
1268.07163	8352.6125
1271.61453	8409.7125
1275.15503	8430.4125
1278.69312	8430.2125
1282.22882	8454.1125
1285.76211	8522.1125
1289.29301	8561.3125
1292.82151	8662.6125
1296.34761	8818.1125
1299.87133	9014.9125
1303.39266	9225.5125
1306.9116	9449.8125
1310.42815	9694.7125
1313.94233	9872.7125
1317.45412	9900.1125
1320.96354	9840.7125
1324.47058	9762.9125
1327.97525	9637.9125
1331.47754	9583.8125
1334.97747	9575.7125
1338.47502	9615.7125
1341.97022	9719.7125
1345.46305	9830.4125
1348.95352	9973.0125
1352.44163	10150.6125
1355.92738	10382.3125
1359.41078	10723.2125
1362.89183	11063.9125
1366.37053	11004.5125
1369.84688	10595.1125
1373.32088	10015.9125
1376.79254	9600.2125
1380.26186	9361.2125
1383.72883	9189.8125
1387.19347	9031.3125
1390.65578	8885.0125
1394.11575	8735.5125
1397.57339	8622.7125
1401.0287	8567.6125
1404.48168	8487.2125
1407.93234	8372.7125
1411.38068	8234.0125
1414.82669	8070.5125
1418.27039	7897.9125
1421.71177	7736.7125
1425.15083	7581.8125
1428.58758	7515.9125
1432.02203	7473.5125
1435.45416	7476.5125
1438.88399	7516.9125
1442.31151	7527.5125
1445.73673	7554.7125
1449.15965	7568.3125
1452.58027	7574.7125
1455.9986	7581.7125
1459.41463	7587.1125
1462.82837	7634.0125
1466.23982	7676.6125
1469.64898	7744.4125
1473.05586	7799.0125
1476.46045	7834.6125
1479.86276	7829.2125
1483.26279	7859.0125
1486.66054	7876.1125
1490.05602	7962.9125
1493.44922	8074.3125
1496.84016	8213.7125
1500.22882	8432.3125
1503.61521	8707.3125
1506.99934	8980.3125
1510.38121	9206.3125
1513.76081	9279.9125
1517.13816	9119.8125
1520.51324	8845.9125
1523.88607	8591.1125
1527.25665	8461.6125
1530.62498	8426.2125
1533.99105	8456.0125
1537.35488	8471.3125
1540.71647	8464.9125
1544.07581	8493.2125
1547.4329	8487.7125
1550.78776	8452.6125
1554.14038	8441.8125
1557.49077	8453.5125
1560.83892	8475.3125
1564.18484	8488.7125
1567.52853	8508.7125
1570.86999	8550.1125
1574.20922	8590.2125
1577.54624	8648.0125
1580.88103	8607.4125
1584.2136	8540.4125
1587.54395	8482.8125
1590.87208	8501.9125
1594.19801	8576.6125
1597.52172	8741.3125
1600.84321	8791.5125
1604.16251	8702.3125
1607.47959	8555.9125
1610.79447	8385.0125
1614.10715	8202.2125
1617.41763	8087.7125
1620.7259	7994.2125
1624.03199	7948.2125
1627.33587	7994.8125
1630.63757	8062.8125
1633.93707	8219.7125
1637.23439	8474.9125
1640.52951	8805.1125
1643.82246	9240.3125
1647.11321	9656.5125
1650.40179	9836.8125
1653.68819	9683.1125
1656.97241	9296.8125
1660.25446	8851.2125
1663.53433	8506.7125
1666.81203	8281.7125
1670.08756	8148.8125
1673.36092	8066.6125
1676.63211	8025.8125
1679.90115	8014.2125
1683.16801	7967.0125
1686.43272	7908.9125
1689.69527	7813.5125
1692.95567	7708.1125
1696.2139	7609.7125
1699.46999	7507.8125
1702.72392	7376.0125
1705.97571	7213.7125
1709.22535	7019.0125
1712.47284	6827.0125
1715.71819	6696.9125
1718.96139	6582.0125
1722.20246	6487.8125
1725.44139	6396.5125
1728.67818	6329.9125
1731.91284	6271.8125
1735.14537	6213.1125
1738.37576	6158.8125
1741.60403	6117.9125
1744.83017	6079.8125
1748.05418	6073.2125
1751.27607	6061.1125
1754.49584	6045.8125
1757.71349	6070.5125
1760.92903	6031.9125
1764.14244	6015.6125
1767.35375	6017.3125
1770.56294	5989.8125
1773.77002	5962.4125
1776.97499	5962.6125
1780.17785	5943.5125
1783.37861	5915.0125
1786.57727	5910.9125
1789.77382	5891.1125
1792.96828	5876.2125
1796.16064	5847.2125
1799.3509	5849.5125
1802.53907	5829.4125
1805.72514	5827.3125
1808.90913	5794.1125
1812.09102	5793.0125
1815.27083	5774.9125
1818.44856	5763.4125
1821.6242	5738.9125
1824.79776	5736.5125
1827.96924	5734.1125
1831.13864	5719.2125
1834.30597	5717.1125
1837.47122	5726.0125
1840.6344	5718.9125
1843.7955	5724.5125
1846.95454	5719.5125
1850.11151	5711.2125
1853.26642	5696.9125
1856.41926	5694.2125
1859.57004	5694.9125
1862.71876	5678.4125
1865.86542	5670.4125
1869.01003	5665.6125
1872.15258	5652.8125
1875.29308	5668.0125
1878.43152	5643.6125
1881.56792	5643.8125
1884.70227	5621.5125
1887.83457	5619.9125
1890.96482	5602.5125
1894.09304	5589.9125
1897.21921	5614.8125
1900.34335	5607.0125
1903.46544	5584.4125
1906.58551	5594.0125
1909.70353	5584.3125
1912.81953	5563.2125
1915.93349	5561.3125
1919.04543	5525.2125
1922.15534	5529.9125
1925.26322	5527.2125
1928.36908	5512.8125
1931.47292	5512.9125
1934.57473	5491.7125
1937.67453	5488.2125
1940.77232	5478.1125
1943.86808	5447.7125
1946.96184	5453.8125
1950.05358	5415.9125
1953.14331	5411.3125
1956.23103	5384.4125
1959.31675	5376.8125
1962.40046	5376.2125
1965.48217	5343.8125
1968.56188	5332.0125
1971.63959	5314.3125
1974.7153	5304.0125
1977.78901	5286.3125
1980.86073	5272.8125
1983.93046	5249.5125
1986.99819	5248.3125
1990.06394	5231.9125
1993.1277	5213.9125
1996.18947	5188.7125
1999.24925	5181.0125
2002.30706	5169.2125
2005.36288	5161.4125
2008.41672	5148.8125
2011.46859	5129.3125
2014.51848	5114.4125
2017.56639	5098.9125
2020.61233	5094.7125
2023.6563	5069.0125
2026.6983	5057.5125
2029.73833	5053.2125
2032.7764	5047.6125
2035.8125	5032.0125
2038.84664	5007.9125
2041.87881	5032.5125
2044.90903	5010.3125
2047.93729	5002.3125
2050.96359	4978.4125
2053.98794	4968.7125
2057.01034	4989.7125
2060.03078	4968.9125
2063.04927	4964.5125
2066.06582	4965.3125
2069.08042	4966.3125
2072.09307	4961.2125
2075.10378	4955.7125
2078.11255	4957.6125
2081.11938	4941.2125
2084.12426	4957.0125
2087.12722	4956.2125
2090.12824	4968.6125
2093.12732	4953.2125
2096.12447	4974.1125
2099.11969	4967.9125
2102.11299	4966.7125
2105.10435	4968.0125
2108.09379	4956.0125
2111.08131	4959.2125
2114.0669	4956.5125
2117.05057	4966.1125
2120.03233	4953.3125
2123.01216	4977.2125
2125.99008	4989.5125
2128.96609	4963.0125
2131.94018	4986.3125
2134.91236	4979.3125
2137.88263	4991.7125
2140.851	4995.7125
2143.81746	5007.4125
2146.78201	5004.2125
2149.74466	4992.6125
2152.7054	5003.6125
2155.66425	5006.4125
2158.6212	5003.2125
2161.57625	4995.8125
2164.52941	5008.9125
2167.48067	4985.2125
2170.43004	4990.9125
2173.37752	4991.5125
2176.32311	4983.6125
2179.26681	4986.2125
2182.20863	4974.8125
2185.14856	4996.1125
2188.08661	4976.1125
2191.02278	4995.5125
2193.95707	4978.5125
2196.88948	4962.6125
2199.82001	4965.6125
2202.74867	4960.9125
2205.67545	4966.6125
2208.60037	4935.1125
2211.52341	4945.7125
2214.44458	4948.1125
2217.36388	4923.4125
2220.28132	4916.9125
2223.1969	4900.6125
2226.11061	4898.7125
2229.02246	4883.1125
2231.93245	4878.8125
2234.84058	4855.6125
2237.74686	4856.7125
2240.65128	4858.9125
2243.55385	4852.3125
2246.45456	4844.6125
2249.35343	4822.1125
2252.25044	4820.3125
2255.14561	4807.1125
2258.03893	4823.1125
2260.93041	4806.8125
2263.82004	4790.2125
2266.70783	4791.6125
2269.59378	4779.4125
2272.4779	4756.3125
2275.36017	4745.6125
2278.24061	4755.6125
2281.11922	4728.2125
2283.996	4737.5125
2286.87094	4728.0125
2289.74405	4721.7125
2292.61534	4718.1125
2295.4848	4695.0125
2298.35243	4689.6125
2301.21824	4686.3125
2304.08223	4699.5125
2306.94439	4676.1125
2309.80474	4683.0125
2312.66327	4676.4125
2315.51999	4658.7125
2318.37489	4672.7125
2321.22797	4660.0125
2324.07925	4655.5125
2326.92871	4652.4125
2329.77637	4654.7125
2332.62222	4620.0125
2335.46626	4628.2125
2338.3085	4603.7125
2341.14893	4607.4125
2343.98756	4607.4125
2346.8244	4591.7125
2349.65943	4589.5125
2352.49267	4601.8125
2355.32411	4599.0125
2358.15376	4581.7125
2360.98161	4580.5125
2363.80768	4577.1125
2366.63195	4567.3125
2369.45444	4565.9125
2372.27514	4568.5125
2375.09405	4574.7125
2377.91118	4544.0125
2380.72652	4551.5125
2383.54009	4544.8125
2386.35187	4544.0125
2389.16188	4519.0125
2391.97011	4516.4125
2394.77657	4518.4125
2397.58125	4495.5125
2400.38416	4496.3125
2403.18529	4479.6125
2405.98466	4486.3125
2408.78226	4476.5125
2411.57809	4470.6125
2414.37216	4453.2125
2417.16446	4455.4125
2419.955	4445.4125
2422.74378	4460.7125
2425.5308	4437.0125
2428.31606	4432.7125
2431.09956	4416.6125
2433.88131	4410.6125
2436.6613	4426.6125
2439.43954	4434.9125
2442.21603	4404.0125
2444.99077	4411.7125
2447.76377	4398.6125
2450.53501	4403.6125
2453.30451	4404.1125
2456.07226	4384.7125
2458.83827	4377.2125
2461.60254	4384.2125
2464.36507	4381.3125
2467.12586	4366.3125
2469.88492	4374.7125
2472.64224	4366.6125
2475.39782	4352.0125
2478.15167	4356.7125
2480.90379	4369.0125
2483.65417	4346.0125
2486.40283	4343.7125
2489.14976	4349.0125
2491.89497	4339.2125
2494.63845	4350.3125
2497.3802	4327.4125
2500.12024	4340.3125
2502.85855	4333.4125
2505.59514	4328.8125
2508.33002	4332.0125
2511.06318	4317.9125
2513.79462	4301.7125
2516.52435	4317.7125
2519.25237	4301.4125
2521.97867	4296.1125
2524.70327	4303.5125
2527.42616	4290.9125
2530.14734	4272.4125
2532.86681	4265.7125
2535.58458	4277.8125
2538.30065	4262.5125
2541.01501	4255.5125
2543.72768	4242.2125
2546.43864	4235.1125
2549.14791	4234.4125
2551.85548	4231.8125
2554.56136	4223.1125
2557.26554	4216.1125
2559.96803	4214.5125
2562.66883	4211.5125
2565.36794	4183.1125
2568.06536	4193.7125
2570.7611	4198.2125
2573.45514	4177.7125
2576.14751	4173.3125
2578.83819	4151.1125
2581.52719	4145.9125
2584.21451	4141.4125
2586.90015	4150.8125
2589.58411	4130.0125
2592.2664	4128.9125
2594.94701	4116.1125
2597.62594	4129.1125
2600.30321	4112.3125
2602.9788	4092.3125
2605.65273	4078.7125
2608.32498	4093.3125
2610.99557	4075.8125
2613.66449	4071.3125
2616.33175	4081.1125
2618.99734	4050.3125
2621.66128	4050.0125
2624.32355	4059.1125
2626.98416	4055.7125
2629.64311	4036.8125
2632.30041	4050.5125
2634.95605	4054.1125
2637.61004	4022.3125
2640.26238	4032.8125
2642.91306	4022.5125
2645.56209	4017.9125
2648.20948	4012.6125
2650.85521	4008.6125
2653.4993	4015.0125
2656.14175	4030.3125
2658.78255	4010.4125
2661.42171	4005.0125
2664.05923	4012.6125
2666.6951	4008.3125
2669.32934	4009.5125
2671.96194	4003.3125
2674.59291	4001.1125
2677.22224	3998.4125
2679.84993	4023.9125
2682.476	4015.0125
2685.10043	4006.7125
2687.72324	4001.2125
2690.34441	4003.6125
2692.96396	4015.1125
2695.58188	4004.6125
2698.19818	4018.2125
2700.81285	4020.8125
2703.4259	4026.0125
2706.03733	4039.1125
2708.64714	4027.4125
2711.25533	4026.4125
2713.86191	4017.6125
2716.46687	4014.9125
2719.07021	4017.1125
2721.67194	4013.6125
2724.27206	4005.7125
2726.87057	4002.5125
2729.46747	4018.2125
2732.06276	4008.9125
2734.65644	4006.5125
2737.24852	4025.2125
2739.83899	3997.0125
2742.42786	4009.5125
2745.01513	3998.3125
2747.60079	4001.0125
2750.18486	3976.2125
2752.76733	3972.5125
2755.3482	3974.2125
2757.92747	3986.9125
2760.50515	3971.5125
2763.08123	3961.5125
2765.65573	3962.6125
2768.22863	3954.7125
2770.79994	3940.9125
2773.36967	3947.7125
2775.9378	3944.3125
2778.50435	3942.6125
2781.06932	3924.6125
2783.6327	3925.1125
2786.1945	3924.7125
2788.75471	3921.1125
2791.31335	3898.5125
2793.87041	3903.7125
2796.42589	3883.9125
2798.97979	3895.4125
2801.53212	3866.8125
2804.08288	3875.4125
2806.63206	3859.7125
2809.17967	3859.6125
2811.72571	3846.3125
2814.27018	3833.4125
2816.81308	3826.3125
2819.35442	3835.9125
2821.89419	3821.8125
2824.43239	3829.1125
2826.96904	3825.1125
2829.50412	3828.9125
2832.03763	3804.9125
2834.56959	3829.8125
2837.1	3808.9125
2839.62884	3810.7125
2842.15613	3785.4125
2844.68186	3810.0125
2847.20604	3801.3125
2849.72867	3810.1125
2852.24974	3797.6125
2854.76927	3798.8125
2857.28724	3798.7125
2859.80367	3773.8125
2862.31855	3793.6125
2864.83189	3789.6125
2867.34368	3779.6125
2869.85393	3789.9125
2872.36264	3785.3125
2874.8698	3779.1125
2877.37543	3776.7125
2879.87952	3792.0125
2882.38207	3763.7125
2884.88308	3782.8125
2887.38256	3783.7125
2889.88051	3797.5125
2892.37692	3795.4125
2894.8718	3796.9125
2897.36515	3782.7125
2899.85698	3799.1125
2902.34727	3809.0125
2904.83604	3796.4125
2907.32328	3806.6125
2909.809	3788.6125
2912.29319	3804.8125
2914.77587	3812.1125
2917.25702	3810.0125
2919.73665	3798.8125
2922.21476	3805.6125
2924.69136	3812.2125
2927.16644	3808.7125
2929.64	3805.8125
2932.11205	3801.1125
2934.58258	3791.6125
2937.05161	3808.8125
2939.51912	3809.7125
2941.98513	3804.7125
2944.44962	3780.4125
2946.91261	3795.5125
2949.37409	3794.6125
2951.83407	3801.9125
2954.29254	3802.8125
2956.74951	3796.7125
2959.20498	3790.9125
2961.65895	3785.5125
2964.11142	3775.9125
2966.56239	3769.1125
2969.01186	3767.8125
2971.45984	3761.7125
2973.90632	3752.2125
2976.35131	3750.5125
2978.7948	3738.2125
2981.23681	3725.8125
2983.67732	3734.3125
2986.11635	3725.7125
2988.55388	3713.9125
2990.98993	3711.3125
2993.4245	3723.0125
2995.85758	3709.1125
2998.28917	3699.1125
3000.71928	3696.2125
3003.14791	3694.7125
3005.57506	3708.3125
3008.00073	3680.9125
3010.42493	3691.1125
3012.84764	3693.3125
3015.26888	3693.5125
3017.68865	3685.6125
3020.10694	3679.8125
3022.52376	3686.7125
3024.9391	3695.8125
3027.35298	3674.3125
3029.76539	3681.4125
3032.17632	3676.7125
3034.5858	3677.5125
3036.9938	3673.5125
3039.40034	3667.4125
3041.80542	3685.5125
3044.20903	3669.2125
3046.61118	3674.1125
3049.01187	3655.1125
3051.4111	3679.0125
3053.80888	3660.9125
3056.20519	3666.3125
3058.60005	3658.4125
3060.99345	3651.8125
3063.3854	3648.0125
3065.7759	3643.1125
3068.16494	3636.7125
3070.55254	3651.5125
3072.93868	3639.7125
3075.32338	3645.6125
3077.70662	3647.7125
3080.08842	3640.2125
3082.46878	3649.0125
3084.84769	3636.9125
3087.22515	3648.0125
3089.60118	3656.0125
3091.97576	3644.4125
3094.3489	3645.7125
3096.72061	3655.0125
3099.09087	3669.8125
3101.4597	3657.1125
3103.82709	3669.0125
3106.19305	3666.7125
3108.55757	3679.7125
3110.92066	3671.7125
3113.28232	3656.6125
3115.64255	3661.2125
3118.00134	3670.1125
3120.35871	3658.8125
3122.71466	3659.6125
3125.06917	3666.5125
