Data from AgNPs_FTO_APTES_UA_0.1mM_CRN_100uM_NaF_0.1M_Addition_RamanShift__29__13-50-07-703.txt Node

Date: Mon Dec 20 13:50:07 GMT 2021
User: TCL
Spectrometer: QEP01345
Trigger mode: 4
Integration Time (sec): 7.000000E0
Scans to average: 10
Electric dark correction enabled: true
Nonlinearity correction enabled: false
Boxcar width: 0
XAxis mode: Raman Shifts
Number of Pixels in Spectrum: 1044
>>>>>Begin Spectral Data<<<<<
46.04893	1.1
50.45542	-0.6
54.85868	-0.6
59.25871	1.1
63.6555	28.7
68.04907	28.6
72.43941	31.9
76.82654	34.1
81.21044	33.8
85.59113	39.3
89.96862	34.6
94.34289	38.9
98.71396	39.1
103.08183	42.2
107.4465	42.8
111.80798	42
116.16626	42.5
120.52136	43.6
124.87327	46.1
129.222	45.6
133.56755	51.4
137.90993	52.5
142.24913	55
146.58517	56.5
150.91804	70.3
155.24774	79.9
159.57429	93.6
163.89768	115.7
168.21792	155
172.53501	201.9
176.84895	271.1
181.15975	373.4
185.46741	508.9
189.77193	698.3
194.07331	941.1
198.37157	1217.1
202.6667	1513.8
206.9587	1807.8
211.24758	2086
215.53334	2387.4
219.81599	2680
224.09553	3016.6
228.37195	3376.7
232.64527	3755.8
236.91549	4165.7
241.18261	4508.8
245.44663	4810.9
249.70755	5063.1
253.96539	5267
258.22014	5421.4
262.4718	5497.8
266.72039	5538.6
270.96589	5519.9
275.20832	5444.6
279.44768	5336.9
283.68397	5212.8
287.91719	5163.4
292.14735	5148.8
296.37445	5230.9
300.59849	5412.5
304.81948	5636
309.03742	5808.4
313.25231	5803.3
317.46415	5550.1
321.67296	5125.9
325.87872	4757
330.08145	4549.1
334.28114	4508.2
338.47781	4566.9
342.67145	4678.7
346.86207	4852.7
351.04966	5142.8
355.23424	5459.8
359.4158	5725.8
363.59435	5872.4
367.76989	5927
371.94243	5983.2
376.11196	5978
380.27849	5967
384.44203	5944.5
388.60257	5878.4
392.76012	5849.5
396.91468	5882.6
401.06626	5984.5
405.21485	6056.1
409.36047	5932.1
413.50311	5607
417.64277	5292.1
421.77947	5065.6
425.9132	4973.3
430.04396	4930.7
434.17176	4939.6
438.2966	4986
442.41849	5086.6
446.53742	5182.1
450.6534	5302.7
454.76644	5357.5
458.87653	5348
462.98368	5332.4
467.08789	5261.8
471.18916	5233
475.2875	5168.9
479.38291	5138.2
483.4754	5210
487.56496	5342.5
491.6516	5489.9
495.73531	5554.7
499.81612	5500.8
503.89401	5418.4
507.96899	5358
512.04106	5433
516.11023	5566.3
520.1765	5732.1
524.23987	5869.9
528.30034	5877.6
532.35792	5808.1
536.41261	5610.5
540.46441	5375.8
544.51333	5148.3
548.55936	5050.2
552.60252	5035.2
556.64279	5098.9
560.6802	5147.2
564.71473	5235.1
568.7464	5457.9
572.7752	5586
576.80114	5429.9
580.82422	5246.7
584.84444	5243.5
588.86181	5322.8
592.87633	5389.7
596.888	5442.3
600.89682	5568.1
604.9028	6068.9
608.90594	7615.4
612.90624	9838.1
616.90371	10039.8
620.89834	8008.9
624.89015	7303.9
628.87913	7728.2
632.86528	8379.6
636.84862	8697.9
640.82913	8379.9
644.80683	7593.3
648.78172	6773.9
652.75379	6217.9
656.72306	5985.5
660.68952	5959.6
664.65319	5781.8
668.61405	5456.2
672.57211	5289.2
676.52738	5277.6
680.47986	5286.9
684.42955	5242
688.37646	5225.9
692.32058	5210.8
696.26192	5206.9
700.20048	5205.6
704.13626	5195.2
708.06928	5149.6
711.99952	5092.6
715.927	5112.9
719.85171	5178.2
723.77365	5266.5
727.69284	5286.6
731.60928	5182.8
735.52295	5054.9
739.43388	4989.8
743.34206	5009
747.24749	5020.3
751.15017	5076.9
755.05012	5127.7
758.94733	5334.8
762.8418	5794.6
766.73354	6615.2
770.62254	7451.9
774.50882	7902.2
778.39237	7748
782.27321	6873.8
786.15132	5960
790.02671	5438.7
793.89938	5276.4
797.76935	5310.7
801.6366	5509.5
805.50115	5929.3
809.36299	6417.1
813.22213	6593.6
817.07857	6402.7
820.93231	5981
824.78336	5507.1
828.63172	5188.2
832.47738	4997.8
836.32036	4907.4
840.16066	4836.4
843.99827	4790.9
847.8332	4763.3
851.66546	4765.9
855.49504	4769.1
859.32195	4794.6
863.1462	4852.2
866.96777	4941.8
870.78668	5126.8
874.60293	5413.3
878.41652	5746.8
882.22745	6088.7
886.03573	6298.4
889.84136	6278.5
893.64433	6002.4
897.44466	5623.5
901.24235	5245.7
905.0374	4958.9
908.8298	4769.8
912.61957	4660.8
916.40671	4604.9
920.19121	4582.9
923.97308	4567.2
927.75233	4582.3
931.52895	4640.1
935.30295	4623.1
939.07433	4538.5
942.84309	4416.4
946.60924	4385.7
950.37278	4353.3
954.13371	4352.3
957.89203	4334.5
961.64774	4314.9
965.40086	4301.2
969.15137	4282.1
972.89929	4265.4
976.64461	4255.4
980.38733	4272.6
984.12747	4280.4
987.86502	4319.5
991.59999	4373
995.33237	4455.1
999.06217	4595.4
1002.78939	4803.5
1006.51404	5037.6
1010.23611	5250.2
1013.95561	5416.4
1017.67255	5446.9
1021.38692	5365.5
1025.09872	5196.5
1028.80796	4960.1
1032.51465	4787.7
1036.21877	4668.4
1039.92035	4616.7
1043.61937	4595.2
1047.31584	4599.3
1051.00976	4610.1
1054.70114	4652.7
1058.38998	4709.2
1062.07627	4806.6
1065.76003	4908.5
1069.44126	4941.8
1073.11995	4992
1076.79611	5002.8
1080.46974	4983.7
1084.14085	5006.9
1087.80943	5023.7
1091.47549	4992.7
1095.13903	4884.7
1098.80005	4731.5
1102.45857	4650.7
1106.11456	4652.3
1109.76805	4745.3
1113.41903	4932.5
1117.06751	5233.7
1120.71348	5723.3
1124.35696	6324.4
1127.99793	7051.8
1131.63641	7562.7
1135.2724	7690
1138.90589	7594.3
1142.5369	7268.1
1146.16542	6739.6
1149.79145	6156.2
1153.415	5635.5
1157.03607	5282.1
1160.65467	5087.2
1164.27079	5066.4
1167.88443	5173.2
1171.49561	5446.6
1175.10432	5960
1178.71056	6692
1182.31434	7389.7
1185.91565	7672.3
1189.51451	7713.8
1193.11091	7687.6
1196.70485	7736
1200.29634	7871.8
1203.88538	7883.8
1207.47197	7587.8
1211.05612	7066.9
1214.63782	6537.5
1218.21708	6042.4
1221.79391	5641.2
1225.36829	5381.9
1228.94024	5168.7
1232.50976	5055.9
1236.07685	5015.6
1239.6415	5030.7
1243.20374	5063.2
1246.76355	5097.4
1250.32093	5130.1
1253.8759	5212.4
1257.42845	5297.1
1260.97859	5392
1264.52631	5467.7
1268.07163	5567.3
1271.61453	5625.1
1275.15503	5638.5
1278.69312	5607.9
1282.22882	5609.8
1285.76211	5700.6
1289.29301	5848.4
1292.82151	6054
1296.34761	6268.4
1299.87133	6607.5
1303.39266	7207.3
1306.9116	8070.2
1310.42815	8995.1
1313.94233	9328.7
1317.45412	8992
1320.96354	8324.8
1324.47058	7750.6
1327.97525	7299.9
1331.47754	7105.8
1334.97747	7097.8
1338.47502	7269.1
1341.97022	7576.4
1345.46305	8051
1348.95352	8642.2
1352.44163	9342.6
1355.92738	10319.9
1359.41078	11655.7
1362.89183	12696.6
1366.37053	12134.4
1369.84688	10436.1
1373.32088	8921.8
1376.79254	7909.5
1380.26186	7321.5
1383.72883	6961.5
1387.19347	6700.8
1390.65578	6435.1
1394.11575	6235.2
1397.57339	6121.2
1401.0287	6044.9
1404.48168	5956
1407.93234	5877.2
1411.38068	5792.8
1414.82669	5649.7
1418.27039	5503.6
1421.71177	5335.1
1425.15083	5174
1428.58758	5076.5
1432.02203	5055
1435.45416	5068.7
1438.88399	5053.3
1442.31151	5024.8
1445.73673	5024.5
1449.15965	5034.4
1452.58027	5020
1455.9986	5013.6
1459.41463	5000.8
1462.82837	5031.4
1466.23982	5115.4
1469.64898	5219.3
1473.05586	5278.7
1476.46045	5296.2
1479.86276	5368.3
1483.26279	5496.1
1486.66054	5692.9
1490.05602	5938
1493.44922	6267.7
1496.84016	6802.8
1500.22882	7580.6
1503.61521	8651.2
1506.99934	9804.7
1510.38121	10682.1
1513.76081	10706.1
1517.13816	9802.7
1520.51324	8442.8
1523.88607	7319.7
1527.25665	6637.4
1530.62498	6302.3
1533.99105	6185.2
1537.35488	6137.6
1540.71647	6177.7
1544.07581	6269.7
1547.4329	6364.7
1550.78776	6442
1554.14038	6494.7
1557.49077	6481.2
1560.83892	6537.4
1564.18484	6645.4
1567.52853	6849.1
1570.86999	7018.7
1574.20922	7140.5
1577.54624	7118.5
1580.88103	6838.6
1584.2136	6418.6
1587.54395	6195.8
1590.87208	6195.9
1594.19801	6394.3
1597.52172	6697.5
1600.84321	6893.6
1604.16251	6800.3
1607.47959	6617.9
1610.79447	6390.3
1614.10715	6142.2
1617.41763	5957.2
1620.7259	5846.4
1624.03199	5780.4
1627.33587	5783.8
1630.63757	5826.1
1633.93707	5997.6
1637.23439	6271
1640.52951	6738.4
1643.82246	7421.5
1647.11321	8299.9
1650.40179	8928.4
1653.68819	8831.3
1656.97241	7993.6
1660.25446	7064.8
1663.53433	6355.2
1666.81203	5851.2
1670.08756	5520.8
1673.36092	5289.7
1676.63211	5110.1
1679.90115	4980.8
1683.16801	4866.4
1686.43272	4744.9
1689.69527	4651.9
1692.95567	4577.4
1696.2139	4495.1
1699.46999	4406
1702.72392	4292
1705.97571	4200.5
1709.22535	4109
1712.47284	4054.3
1715.71819	4022.8
1718.96139	3991.8
1722.20246	3929.9
1725.44139	3882.9
1728.67818	3847.8
1731.91284	3792.9
1735.14537	3752.9
1738.37576	3714.9
1741.60403	3699.6
1744.83017	3672.3
1748.05418	3651.6
1751.27607	3633.6
1754.49584	3608.5
1757.71349	3595.8
1760.92903	3570.7
1764.14244	3552.1
1767.35375	3532.9
1770.56294	3508.1
1773.77002	3481.8
1776.97499	3466
1780.17785	3432.9
1783.37861	3420.7
1786.57727	3412.2
1789.77382	3381.1
1792.96828	3377.3
1796.16064	3367.6
1799.3509	3346.7
1802.53907	3349
1805.72514	3322.8
1808.90913	3315.1
1812.09102	3295.2
1815.27083	3289.9
1818.44856	3271.3
1821.6242	3268.4
1824.79776	3264.8
1827.96924	3246.8
1831.13864	3256.9
1834.30597	3242.3
1837.47122	3244.8
1840.6344	3243.6
1843.7955	3234.3
1846.95454	3220
1850.11151	3231
1853.26642	3219.8
1856.41926	3207
1859.57004	3211.6
1862.71876	3208.3
1865.86542	3204.5
1869.01003	3200.2
1872.15258	3199.4
1875.29308	3197.2
1878.43152	3177.9
1881.56792	3176.9
1884.70227	3175
1887.83457	3171.7
1890.96482	3163.8
1894.09304	3158.5
1897.21921	3153.3
1900.34335	3138.3
1903.46544	3145
1906.58551	3147.1
1909.70353	3138.2
1912.81953	3145
1915.93349	3113.7
1919.04543	3100.8
1922.15534	3117.6
1925.26322	3101.2
1928.36908	3093.9
1931.47292	3085.7
1934.57473	3076.6
1937.67453	3076.7
1940.77232	3052.8
1943.86808	3053.5
1946.96184	3055.5
1950.05358	3034.3
1953.14331	3020.8
1956.23103	3008.7
1959.31675	3010.1
1962.40046	3000.3
1965.48217	2987.2
1968.56188	2982
1971.63959	2975.2
1974.7153	2963.8
1977.78901	2946.9
1980.86073	2949
1983.93046	2933.1
1986.99819	2925.9
1990.06394	2917.7
1993.1277	2921.1
1996.18947	2892
1999.24925	2887.4
2002.30706	2881.2
2005.36288	2868.6
2008.41672	2864.6
2011.46859	2847.4
2014.51848	2850.1
2017.56639	2835.1
2020.61233	2826.8
2023.6563	2826.6
2026.6983	2813
2029.73833	2809.5
2032.7764	2792.8
2035.8125	2801.5
2038.84664	2790.1
2041.87881	2798.7
2044.90903	2786.9
2047.93729	2774.2
2050.96359	2759.8
2053.98794	2773
2057.01034	2763.2
2060.03078	2766.8
2063.04927	2747.2
2066.06582	2762.4
2069.08042	2744.5
2072.09307	2750.9
2075.10378	2746.7
2078.11255	2737.9
2081.11938	2734.4
2084.12426	2741
2087.12722	2746.7
2090.12824	2748.3
2093.12732	2744
2096.12447	2748.6
2099.11969	2742.8
2102.11299	2744.2
2105.10435	2740.4
2108.09379	2734.2
2111.08131	2736.3
2114.0669	2734.2
2117.05057	2735
2120.03233	2749.7
2123.01216	2749.7
2125.99008	2743
2128.96609	2754.3
2131.94018	2757.6
2134.91236	2771.3
2137.88263	2745.2
2140.851	2760.2
2143.81746	2762.9
2146.78201	2765.6
2149.74466	2749.3
2152.7054	2747.2
2155.66425	2744.7
2158.6212	2744.8
2161.57625	2738.4
2164.52941	2737.1
2167.48067	2745.4
2170.43004	2735.3
2173.37752	2733.9
2176.32311	2722.7
2179.26681	2732.6
2182.20863	2734.5
2185.14856	2725.6
2188.08661	2735.6
2191.02278	2717.5
2193.95707	2715
2196.88948	2713.2
2199.82001	2716.1
2202.74867	2692.9
2205.67545	2709
2208.60037	2701.7
2211.52341	2689.8
2214.44458	2689.6
2217.36388	2690.2
2220.28132	2677.2
2223.1969	2663.4
2226.11061	2658.4
2229.02246	2668.2
2231.93245	2651.3
2234.84058	2657
2237.74686	2633.6
2240.65128	2636.7
2243.55385	2642.6
2246.45456	2636
2249.35343	2629.2
2252.25044	2612.9
2255.14561	2625.7
2258.03893	2636.3
2260.93041	2634.1
2263.82004	2621.5
2266.70783	2608.8
2269.59378	2608.2
2272.4779	2601
2275.36017	2596.8
2278.24061	2592.2
2281.11922	2581.7
2283.996	2579.4
2286.87094	2574.5
2289.74405	2561.7
2292.61534	2558.9
2295.4848	2564.2
2298.35243	2562.3
2301.21824	2532.7
2304.08223	2529.4
2306.94439	2537.1
2309.80474	2538.3
2312.66327	2536.9
2315.51999	2541.4
2318.37489	2528.3
2321.22797	2520.4
2324.07925	2532.4
2326.92871	2515.7
2329.77637	2506.4
2332.62222	2497.4
2335.46626	2506.1
2338.3085	2481.3
2341.14893	2490.4
2343.98756	2487
2346.8244	2491.9
2349.65943	2481.5
2352.49267	2494.9
2355.32411	2492.2
2358.15376	2491.4
2360.98161	2502
2363.80768	2486.9
2366.63195	2484.2
2369.45444	2497.3
2372.27514	2499.8
2375.09405	2491.6
2377.91118	2492.8
2380.72652	2482.5
2383.54009	2474.2
2386.35187	2478.1
2389.16188	2453.8
2391.97011	2464.6
2394.77657	2451.6
2397.58125	2439.2
2400.38416	2432.5
2403.18529	2436.4
2405.98466	2425.7
2408.78226	2412.8
2411.57809	2412.8
2414.37216	2401.1
2417.16446	2413.8
2419.955	2398.1
2422.74378	2392
2425.5308	2379.2
2428.31606	2397.2
2431.09956	2377.4
2433.88131	2386.5
2436.6613	2391.3
2439.43954	2371.5
2442.21603	2369
2444.99077	2377
2447.76377	2371.2
2450.53501	2367.8
2453.30451	2372.2
2456.07226	2362.6
2458.83827	2349.4
2461.60254	2356.4
2464.36507	2341.7
2467.12586	2348.2
2469.88492	2342.6
2472.64224	2342
2475.39782	2340.3
2478.15167	2351
2480.90379	2356.1
2483.65417	2348.4
2486.40283	2349.2
2489.14976	2355.1
2491.89497	2357.8
2494.63845	2358.1
2497.3802	2356.6
2500.12024	2347.2
2502.85855	2342.6
2505.59514	2331
2508.33002	2328.8
2511.06318	2322.2
2513.79462	2317
2516.52435	2311.7
2519.25237	2290.3
2521.97867	2296.8
2524.70327	2283.8
2527.42616	2293.2
2530.14734	2280.3
2532.86681	2277.2
2535.58458	2273.8
2538.30065	2268.4
2541.01501	2264.4
2543.72768	2259.2
2546.43864	2256.5
2549.14791	2254.3
2551.85548	2254.5
2554.56136	2236.3
2557.26554	2239.3
2559.96803	2220
2562.66883	2228.3
2565.36794	2232.5
2568.06536	2228.6
2570.7611	2221.8
2573.45514	2218.3
2576.14751	2216.7
2578.83819	2214.1
2581.52719	2207.1
2584.21451	2193.4
2586.90015	2189.1
2589.58411	2198.5
2592.2664	2171.9
2594.94701	2172.6
2597.62594	2175.7
2600.30321	2179
2602.9788	2169.6
2605.65273	2164.2
2608.32498	2160.8
2610.99557	2157.6
2613.66449	2161.5
2616.33175	2145
2618.99734	2146.9
2621.66128	2156.3
2624.32355	2152
2626.98416	2144.8
2629.64311	2137
2632.30041	2134.3
2634.95605	2147.3
2637.61004	2131.2
2640.26238	2125.4
2642.91306	2108.2
2645.56209	2116.3
2648.20948	2118
2650.85521	2103.7
2653.4993	2114.9
2656.14175	2106.4
2658.78255	2108.5
2661.42171	2118.7
2664.05923	2109.8
2666.6951	2109.6
2669.32934	2114
2671.96194	2110.6
2674.59291	2115.6
2677.22224	2116.6
2679.84993	2119.4
2682.476	2121.1
2685.10043	2115.7
2687.72324	2116
2690.34441	2105
2692.96396	2115.4
2695.58188	2122.3
2698.19818	2113
2700.81285	2119.9
2703.4259	2134.4
2706.03733	2152
2708.64714	2141.2
2711.25533	2129.8
2713.86191	2135.7
2716.46687	2136.8
2719.07021	2133
2721.67194	2125.3
2724.27206	2120.6
2726.87057	2138.3
2729.46747	2129.8
2732.06276	2125.8
2734.65644	2124.3
2737.24852	2115.7
2739.83899	2119.2
2742.42786	2114.1
2745.01513	2112.2
2747.60079	2094.2
2750.18486	2102.8
2752.76733	2106.7
2755.3482	2091.1
2757.92747	2096.2
2760.50515	2087.6
2763.08123	2084.5
2765.65573	2072.6
2768.22863	2078
2770.79994	2073.3
2773.36967	2084
2775.9378	2070
2778.50435	2072.1
2781.06932	2074
2783.6327	2069.5
2786.1945	2078.8
2788.75471	2071
2791.31335	2076
2793.87041	2062.5
2796.42589	2054.1
2798.97979	2060
2801.53212	2049.7
2804.08288	2055.1
2806.63206	2050.6
2809.17967	2034.8
2811.72571	2050.8
2814.27018	2048.7
2816.81308	2047.9
2819.35442	2038.4
2821.89419	2051.9
2824.43239	2048.4
2826.96904	2044
2829.50412	2049.6
2832.03763	2044.9
2834.56959	2054.9
2837.1	2052.1
2839.62884	2048.6
2842.15613	2053.6
2844.68186	2061.9
2847.20604	2065.4
2849.72867	2075
2852.24974	2087.7
2854.76927	2082.1
2857.28724	2083.8
2859.80367	2081.2
2862.31855	2082.3
2864.83189	2076.6
2867.34368	2081.5
2869.85393	2072.9
2872.36264	2071.3
2874.8698	2078.8
2877.37543	2072.5
2879.87952	2082.4
2882.38207	2076.5
2884.88308	2090.8
2887.38256	2076.3
2889.88051	2080.1
2892.37692	2087.9
2894.8718	2085.6
2897.36515	2086.3
2899.85698	2082.1
2902.34727	2091.4
2904.83604	2082.7
2907.32328	2104.3
2909.809	2093
2912.29319	2103.7
2914.77587	2107.2
2917.25702	2099.7
2919.73665	2100.5
2922.21476	2092.7
2924.69136	2088
2927.16644	2098.3
2929.64	2085.8
2932.11205	2094.7
2934.58258	2083.8
2937.05161	2090.6
2939.51912	2072.4
2941.98513	2066.5
2944.44962	2073.7
2946.91261	2057
2949.37409	2063.1
2951.83407	2059.3
2954.29254	2063.8
2956.74951	2055.8
2959.20498	2052.1
2961.65895	2043.4
2964.11142	2041.4
2966.56239	2036.4
2969.01186	2029
2971.45984	2029.6
2973.90632	2009
2976.35131	2010.9
2978.7948	2005.7
2981.23681	1998
2983.67732	1999.3
2986.11635	2001.2
2988.55388	1993.8
2990.98993	1999.6
2993.4245	1993.6
2995.85758	1990.7
2998.28917	1989.8
3000.71928	1988.1
3003.14791	1982.8
3005.57506	1982
3008.00073	1982.6
3010.42493	1993.5
3012.84764	1993.9
3015.26888	1996.8
3017.68865	1997.2
3020.10694	1993.4
3022.52376	1987.1
3024.9391	2001.2
3027.35298	2007.8
3029.76539	1995
3032.17632	2002.7
3034.5858	2000.4
3036.9938	1990.9
3039.40034	2008
3041.80542	2000.1
3044.20903	1993.5
3046.61118	1992.6
3049.01187	1993
3051.4111	1990.8
3053.80888	1996.8
3056.20519	1999.8
3058.60005	1998
3060.99345	1998.1
3063.3854	2001.7
3065.7759	2003.6
3068.16494	1995.4
3070.55254	1996.8
3072.93868	2000.2
3075.32338	2012.6
3077.70662	2007.1
3080.08842	1993.8
3082.46878	1989.3
3084.84769	2016.2
3087.22515	2013
3089.60118	2019.6
3091.97576	2038
3094.3489	2025.5
3096.72061	2033
3099.09087	2041.1
3101.4597	2043.3
3103.82709	2043.7
3106.19305	2051.8
3108.55757	2055.3
3110.92066	2051.3
3113.28232	2056.7
3115.64255	2064.8
3118.00134	2064.4
3120.35871	2064.1
3122.71466	2071.9
3125.06917	2081.6
3127.42226	2083.4
3129.77393	2101.5
3132.12417	2094.4
3134.47299	2107.1
3136.82039	2115.6
3139.16636	2129.1
3141.51092	2137.8
3143.85406	2141.6
3146.19579	2146.1
3148.53609	2162.5
3150.87499	2178.7
3153.21246	2184.7
3155.54853	2199.2
3157.88318	2195.2
3160.21642	2212.8
3162.54826	2217.9
3164.87868	2213.4
3167.2077	2234.6
3169.5353	2235.6
3171.86151	2238.1
3174.18631	2251.3
3176.5097	2247.3
3178.83169	2250.4
3181.15228	2262.1
3183.47147	2258.8
3185.78926	2270.5
3188.10565	2272.8
3190.42065	2287.1
3192.73424	2294.4
3195.04645	2300.5
3197.35725	2308.1
3199.66667	2308.1
3201.97469	2325.3
3204.28132	2329.2
3206.58656	2331.3
3208.8904	2344.4
3211.19287	2343.8
3213.49394	2359
3215.79363	2366.1
3218.09193	2369.2
3220.38884	2371.6
3222.68438	2386.5
3224.97853	2371.8
3227.2713	2388.7
3229.56269	2389.5
3231.8527	2388.6
3234.14133	2377.8
3236.42858	2387.8
3238.71446	2376.5
3240.99896	2388.4
3243.28209	2384.7
3245.56384	2380.5
3247.84423	2385.8
3250.12324	2390.7
3252.40088	2378.5
3254.67715	2389.4
3256.95205	2382.1
3259.22558	2395.4
3261.49775	2377.4
3263.76855	2387.4
3266.03799	2376.6
3268.30606	2378.4
3270.57277	2371.9
3272.83812	2365
3275.10211	2381.9
3277.36474	2368.2
3279.62601	2388.9
3281.88593	2365.5
3284.14448	2377.9
3286.40168	2374.7
3288.65753	2374.3
3290.91202	2369.5
3293.16516	2357.8
3295.41695	2348.9
3297.66738	2350.1
3299.91647	2339.2
3302.16421	2326.5
3304.4106	2318
3306.65564	2310.3
3308.89933	2294
3311.14169	2293.9
3313.38269	2278.1
3315.62236	2257
3317.86068	2224.1
3320.09766	2205.2
3322.3333	2199.4
3324.5676	2209.7
3326.80056	2171.7
3329.03219	2163.3
3331.26248	-0.3
3333.49143	0.4
3335.71905	-0.8
