Data from AgNPs_FTO_APTES_UA_0.1mM_CRN_100uM_NaF_0.1M_Addition_RamanShift__13__13-31-27-683.txt Node

Date: Mon Dec 20 13:31:27 GMT 2021
User: TCL
Spectrometer: QEP01345
Trigger mode: 4
Integration Time (sec): 7.000000E0
Scans to average: 10
Electric dark correction enabled: true
Nonlinearity correction enabled: false
Boxcar width: 0
XAxis mode: Raman Shifts
Number of Pixels in Spectrum: 1044
>>>>>Begin Spectral Data<<<<<
46.04893	1.25
50.45542	0.85
54.85868	-1.45
59.25871	0.75
63.6555	30.45
68.04907	30.45
72.43941	34.05
76.82654	32.85
81.21044	34.25
85.59113	39.65
89.96862	39.45
94.34289	40.65
98.71396	40.95
103.08183	40.65
107.4465	38.25
111.80798	45.85
116.16626	43.45
120.52136	43.65
124.87327	49.05
129.222	48.05
133.56755	51.65
137.90993	55.55
142.24913	61.35
146.58517	64.45
150.91804	75.05
155.24774	91.25
159.57429	106.95
163.89768	135.45
168.21792	180.05
172.53501	233.35
176.84895	332.45
181.15975	466.75
185.46741	655.55
189.77193	916.75
194.07331	1235.65
198.37157	1596.35
202.6667	1994.75
206.9587	2373.25
211.24758	2774.25
215.53334	3154.05
219.81599	3560.65
224.09553	3997.15
228.37195	4489.45
232.64527	5044.15
236.91549	5615.15
241.18261	6216.05
245.44663	6781.25
249.70755	7269.85
253.96539	7687.15
258.22014	7927.85
262.4718	8044.15
266.72039	8017.85
270.96589	7865.95
275.20832	7646.45
279.44768	7355.55
283.68397	7093.55
287.91719	6824.15
292.14735	6597.45
296.37445	6419.45
300.59849	6275.05
304.81948	6172.35
309.03742	6116.95
313.25231	6048.15
317.46415	5984.85
321.67296	5916.45
325.87872	5862.05
330.08145	5829.15
334.28114	5817.15
338.47781	5818.65
342.67145	5866.35
346.86207	5906.85
351.04966	5947.45
355.23424	5982.95
359.4158	6081.55
363.59435	6098.85
367.76989	6165.75
371.94243	6229.65
376.11196	6260.55
380.27849	6295.35
384.44203	6374.05
388.60257	6438.45
392.76012	6518.55
396.91468	6665.05
401.06626	6821.35
405.21485	6939.15
409.36047	7027.15
413.50311	7021.35
417.64277	6979.55
421.77947	6918.75
425.9132	6881.65
430.04396	6864.55
434.17176	6846.55
438.2966	6865.35
442.41849	6870.65
446.53742	6898.25
450.6534	6923.25
454.76644	6940.05
458.87653	6985.75
462.98368	7028.55
467.08789	7039.75
471.18916	7042.15
475.2875	7068.95
479.38291	7110.95
483.4754	7173.65
487.56496	7246.45
491.6516	7329.75
495.73531	7393.15
499.81612	7435.65
503.89401	7488.65
507.96899	7516.45
512.04106	7512.85
516.11023	7459.85
520.1765	7386.15
524.23987	7304.45
528.30034	7209.15
532.35792	7153.15
536.41261	7114.15
540.46441	7090.65
544.51333	7046.35
548.55936	7066.75
552.60252	7100.45
556.64279	7129.95
560.6802	7180.15
564.71473	7182.45
568.7464	7226.85
572.7752	7233.25
576.80114	7235.85
580.82422	7255.25
584.84444	7283.65
588.86181	7321.45
592.87633	7353.95
596.888	7380.85
600.89682	7459.35
604.9028	7604.35
608.90594	7845.35
612.90624	8192.35
616.90371	8159.35
620.89834	7812.95
624.89015	7636.65
628.87913	7622.55
632.86528	7704.55
636.84862	7789.45
640.82913	7843.45
644.80683	7827.05
648.78172	7806.95
652.75379	7812.45
656.72306	7808.85
660.68952	7845.75
664.65319	7919.15
668.61405	7999.85
672.57211	8113.65
676.52738	8195.65
680.47986	8244.95
684.42955	8253.75
688.37646	8264.05
692.32058	8275.65
696.26192	8286.45
700.20048	8226.65
704.13626	8117.65
708.06928	7969.45
711.99952	7795.45
715.927	7670.15
719.85171	7556.05
723.77365	7472.85
727.69284	7451.65
731.60928	7426.95
735.52295	7399.95
739.43388	7439.35
743.34206	7490.45
747.24749	7523.45
751.15017	7608.95
755.05012	7691.65
758.94733	7750.95
762.8418	7826.25
766.73354	7915.35
770.62254	8032.75
774.50882	8077.95
778.39237	8004.85
782.27321	7843.85
786.15132	7637.05
790.02671	7530.45
793.89938	7473.05
797.76935	7457.85
801.6366	7508.15
805.50115	7558.85
809.36299	7610.65
813.22213	7624.35
817.07857	7592.65
820.93231	7492.25
824.78336	7404.55
828.63172	7296.65
832.47738	7233.55
836.32036	7223.15
840.16066	7185.65
843.99827	7193.65
847.8332	7161.05
851.66546	7197.65
855.49504	7199.75
859.32195	7187.35
863.1462	7203.45
866.96777	7213.35
870.78668	7212.45
874.60293	7230.25
878.41652	7270.75
882.22745	7326.95
886.03573	7350.35
889.84136	7362.85
893.64433	7377.35
897.44466	7388.15
901.24235	7391.95
905.0374	7352.05
908.8298	7328.75
912.61957	7307.35
916.40671	7288.95
920.19121	7267.45
923.97308	7249.85
927.75233	7228.45
931.52895	7186.15
935.30295	7173.85
939.07433	7131.45
942.84309	7086.15
946.60924	7088.05
950.37278	7076.45
954.13371	7091.75
957.89203	7075.35
961.64774	7074.35
965.40086	7067.25
969.15137	7074.15
972.89929	7046.85
976.64461	7026.55
980.38733	7032.45
984.12747	7046.45
987.86502	7042.35
991.59999	7063.35
995.33237	7071.65
999.06217	7088.65
1002.78939	7101.75
1006.51404	7141.75
1010.23611	7186.85
1013.95561	7184.95
1017.67255	7202.65
1021.38692	7218.35
1025.09872	7236.55
1028.80796	7194.75
1032.51465	7200.35
1036.21877	7175.75
1039.92035	7207.25
1043.61937	7207.65
1047.31584	7227.95
1051.00976	7253.75
1054.70114	7251.85
1058.38998	7271.25
1062.07627	7297.55
1065.76003	7297.05
1069.44126	7287.25
1073.11995	7297.35
1076.79611	7320.55
1080.46974	7313.95
1084.14085	7288.45
1087.80943	7282.85
1091.47549	7263.85
1095.13903	7256.55
1098.80005	7236.25
1102.45857	7242.35
1106.11456	7245.45
1109.76805	7236.55
1113.41903	7285.35
1117.06751	7348.95
1120.71348	7429.15
1124.35696	7542.05
1127.99793	7691.25
1131.63641	7789.85
1135.2724	7837.05
1138.90589	7847.75
1142.5369	7839.75
1146.16542	7787.55
1149.79145	7690.95
1153.415	7579.45
1157.03607	7490.55
1160.65467	7412.85
1164.27079	7363.85
1167.88443	7358.35
1171.49561	7420.75
1175.10432	7503.45
1178.71056	7613.85
1182.31434	7739.45
1185.91565	7818.25
1189.51451	7843.35
1193.11091	7844.85
1196.70485	7843.65
1200.29634	7823.95
1203.88538	7799.05
1207.47197	7789.15
1211.05612	7782.75
1214.63782	7808.45
1218.21708	7841.55
1221.79391	7827.55
1225.36829	7803.35
1228.94024	7771.85
1232.50976	7710.35
1236.07685	7674.75
1239.6415	7630.65
1243.20374	7642.25
1246.76355	7668.15
1250.32093	7687.15
1253.8759	7736.35
1257.42845	7781.35
1260.97859	7814.05
1264.52631	7842.85
1268.07163	7855.25
1271.61453	7857.85
1275.15503	7834.05
1278.69312	7822.45
1282.22882	7798.65
1285.76211	7806.05
1289.29301	7798.45
1292.82151	7865.25
1296.34761	7917.65
1299.87133	8023.55
1303.39266	8148.25
1306.9116	8301.15
1310.42815	8436.05
1313.94233	8554.35
1317.45412	8617.35
1320.96354	8590.05
1324.47058	8571.45
1327.97525	8526.65
1331.47754	8506.75
1334.97747	8516.75
1338.47502	8581.75
1341.97022	8664.55
1345.46305	8798.75
1348.95352	8900.65
1352.44163	9013.35
1355.92738	9115.35
1359.41078	9247.75
1362.89183	9365.95
1366.37053	9336.85
1369.84688	9074.55
1373.32088	8766.05
1376.79254	8538.75
1380.26186	8395.95
1383.72883	8304.35
1387.19347	8232.95
1390.65578	8146.35
1394.11575	8074.55
1397.57339	7991.35
1401.0287	7940.45
1404.48168	7884.45
1407.93234	7809.45
1411.38068	7746.35
1414.82669	7684.95
1418.27039	7583.95
1421.71177	7527.15
1425.15083	7443.55
1428.58758	7368.85
1432.02203	7318.25
1435.45416	7252.55
1438.88399	7225.55
1442.31151	7194.85
1445.73673	7196.25
1449.15965	7169.95
1452.58027	7185.55
1455.9986	7192.75
1459.41463	7209.55
1462.82837	7217.65
1466.23982	7284.25
1469.64898	7329.35
1473.05586	7390.95
1476.46045	7418.65
1479.86276	7436.95
1483.26279	7449.25
1486.66054	7487.35
1490.05602	7512.15
1493.44922	7554.65
1496.84016	7623.85
1500.22882	7769.75
1503.61521	7934.95
1506.99934	8134.15
1510.38121	8271.65
1513.76081	8322.55
1517.13816	8237.25
1520.51324	8102.55
1523.88607	7961.25
1527.25665	7892.85
1530.62498	7851.15
1533.99105	7864.25
1537.35488	7889.05
1540.71647	7930.85
1544.07581	7975.15
1547.4329	8052.75
1550.78776	8146.55
1554.14038	8181.35
1557.49077	8244.45
1560.83892	8312.65
1564.18484	8362.35
1567.52853	8418.55
1570.86999	8475.35
1574.20922	8492.95
1577.54624	8519.45
1580.88103	8515.45
1584.2136	8466.05
1587.54395	8430.85
1590.87208	8411.55
1594.19801	8394.05
1597.52172	8440.25
1600.84321	8427.15
1604.16251	8391.25
1607.47959	8296.85
1610.79447	8203.55
1614.10715	8064.85
1617.41763	7983.85
1620.7259	7852.75
1624.03199	7781.15
1627.33587	7720.25
1630.63757	7706.15
1633.93707	7721.65
1637.23439	7762.85
1640.52951	7855.95
1643.82246	7995.15
1647.11321	8108.35
1650.40179	8183.75
1653.68819	8153.55
1656.97241	8003.95
1660.25446	7784.75
1663.53433	7584.05
1666.81203	7454.35
1670.08756	7365.45
1673.36092	7267.25
1676.63211	7185.55
1679.90115	7122.05
1683.16801	7033.35
1686.43272	6968.05
1689.69527	6873.65
1692.95567	6805.25
1696.2139	6741.55
1699.46999	6675.45
1702.72392	6628.05
1705.97571	6599.25
1709.22535	6541.35
1712.47284	6502.55
1715.71819	6483.45
1718.96139	6451.15
1722.20246	6397.55
1725.44139	6371.85
1728.67818	6306.95
1731.91284	6224.05
1735.14537	6171.05
1738.37576	6125.95
1741.60403	6096.25
1744.83017	6059.15
1748.05418	6047.05
1751.27607	6030.25
1754.49584	5994.35
1757.71349	5993.95
1760.92903	5975.35
1764.14244	5968.05
1767.35375	5930.95
1770.56294	5914.45
1773.77002	5869.95
1776.97499	5819.35
1780.17785	5778.85
1783.37861	5753.15
1786.57727	5724.85
1789.77382	5698.65
1792.96828	5662.85
1796.16064	5623.25
1799.3509	5613.35
1802.53907	5561.25
1805.72514	5574.35
1808.90913	5533.15
1812.09102	5517.25
1815.27083	5501.15
1818.44856	5495.85
1821.6242	5466.05
1824.79776	5448.75
1827.96924	5433.55
1831.13864	5419.45
1834.30597	5418.45
1837.47122	5409.05
1840.6344	5391.65
1843.7955	5393.15
1846.95454	5389.15
1850.11151	5370.35
1853.26642	5362.15
1856.41926	5352.05
1859.57004	5340.55
1862.71876	5351.65
1865.86542	5334.35
1869.01003	5305.35
1872.15258	5305.25
1875.29308	5310.45
1878.43152	5285.95
1881.56792	5284.95
1884.70227	5269.05
1887.83457	5258.35
1890.96482	5237.75
1894.09304	5240.15
1897.21921	5217.55
1900.34335	5210.55
1903.46544	5206.25
1906.58551	5215.95
1909.70353	5198.95
1912.81953	5176.05
1915.93349	5176.45
1919.04543	5163.85
1922.15534	5150.15
1925.26322	5139.15
1928.36908	5128.55
1931.47292	5105.45
1934.57473	5101.15
1937.67453	5090.15
1940.77232	5066.05
1943.86808	5057.55
1946.96184	5048.75
1950.05358	5028.15
1953.14331	5010.25
1956.23103	4989.15
1959.31675	4988.25
1962.40046	4948.05
1965.48217	4954.75
1968.56188	4949.85
1971.63959	4896.85
1974.7153	4888.35
1977.78901	4861.85
1980.86073	4850.05
1983.93046	4851.75
1986.99819	4813.85
1990.06394	4806.05
1993.1277	4799.25
1996.18947	4790.15
1999.24925	4763.95
2002.30706	4758.25
2005.36288	4756.35
2008.41672	4709.45
2011.46859	4705.15
2014.51848	4690.55
2017.56639	4678.45
2020.61233	4669.55
2023.6563	4648.35
2026.6983	4632.25
2029.73833	4606.45
2032.7764	4593.35
2035.8125	4621.15
2038.84664	4577.65
2041.87881	4585.15
2044.90903	4565.15
2047.93729	4560.05
2050.96359	4553.05
2053.98794	4528.25
2057.01034	4521.75
2060.03078	4515.55
2063.04927	4507.15
2066.06582	4508.05
2069.08042	4497.55
2072.09307	4502.85
2075.10378	4495.75
2078.11255	4495.75
2081.11938	4488.45
2084.12426	4489.35
2087.12722	4492.65
2090.12824	4485.95
2093.12732	4481.95
2096.12447	4490.55
2099.11969	4483.85
2102.11299	4467.25
2105.10435	4477.75
2108.09379	4485.75
2111.08131	4506.65
2114.0669	4475.85
2117.05057	4490.05
2120.03233	4476.75
2123.01216	4484.65
2125.99008	4486.25
2128.96609	4488.05
2131.94018	4484.15
2134.91236	4489.75
2137.88263	4493.05
2140.851	4497.55
2143.81746	4508.75
2146.78201	4512.05
2149.74466	4502.65
2152.7054	4489.35
2155.66425	4495.65
2158.6212	4487.75
2161.57625	4482.75
2164.52941	4480.25
2167.48067	4494.65
2170.43004	4470.95
2173.37752	4483.95
2176.32311	4470.05
2179.26681	4466.45
2182.20863	4476.95
2185.14856	4450.95
2188.08661	4451.95
2191.02278	4467.75
2193.95707	4450.05
2196.88948	4440.35
2199.82001	4441.15
2202.74867	4431.45
2205.67545	4407.15
2208.60037	4412.05
2211.52341	4399.65
2214.44458	4398.75
2217.36388	4385.75
2220.28132	4367.05
2223.1969	4334.75
2226.11061	4338.45
2229.02246	4335.55
2231.93245	4314.55
2234.84058	4318.45
2237.74686	4289.85
2240.65128	4303.75
2243.55385	4297.85
2246.45456	4285.75
2249.35343	4282.05
2252.25044	4248.55
2255.14561	4253.25
2258.03893	4245.85
2260.93041	4247.95
2263.82004	4218.05
2266.70783	4205.35
2269.59378	4207.55
2272.4779	4187.55
2275.36017	4174.25
2278.24061	4173.05
2281.11922	4188.45
2283.996	4157.65
2286.87094	4159.45
2289.74405	4138.55
2292.61534	4113.45
2295.4848	4117.65
2298.35243	4124.45
2301.21824	4098.95
2304.08223	4096.05
2306.94439	4091.05
2309.80474	4093.65
2312.66327	4099.25
2315.51999	4082.25
2318.37489	4089.05
2321.22797	4060.15
2324.07925	4059.25
2326.92871	4058.65
2329.77637	4061.05
2332.62222	4031.55
2335.46626	4033.25
2338.3085	4010.55
2341.14893	4007.95
2343.98756	4013.65
2346.8244	4004.85
2349.65943	3987.95
2352.49267	3997.85
2355.32411	3973.75
2358.15376	3983.45
2360.98161	3971.35
2363.80768	3985.75
2366.63195	3951.95
2369.45444	3947.65
2372.27514	3957.65
2375.09405	3936.45
2377.91118	3927.45
2380.72652	3923.25
2383.54009	3911.75
2386.35187	3910.45
2389.16188	3894.95
2391.97011	3875.05
2394.77657	3877.25
2397.58125	3872.35
2400.38416	3859.95
2403.18529	3848.25
2405.98466	3839.85
2408.78226	3845.25
2411.57809	3834.35
2414.37216	3829.55
2417.16446	3817.15
2419.955	3810.75
2422.74378	3818.15
2425.5308	3802.45
2428.31606	3807.95
2431.09956	3778.15
2433.88131	3767.75
2436.6613	3784.35
2439.43954	3772.15
2442.21603	3772.05
2444.99077	3765.55
2447.76377	3756.75
2450.53501	3763.25
2453.30451	3754.05
2456.07226	3749.95
2458.83827	3743.85
2461.60254	3728.75
2464.36507	3720.35
2467.12586	3712.35
2469.88492	3711.45
2472.64224	3717.55
2475.39782	3707.65
2478.15167	3714.75
2480.90379	3706.35
2483.65417	3697.85
2486.40283	3678.95
2489.14976	3675.15
2491.89497	3675.65
2494.63845	3685.85
2497.3802	3671.85
2500.12024	3655.05
2502.85855	3660.05
2505.59514	3658.35
2508.33002	3651.45
2511.06318	3645.75
2513.79462	3636.75
2516.52435	3633.45
2519.25237	3615.65
2521.97867	3620.35
2524.70327	3614.25
2527.42616	3612.55
2530.14734	3607.45
2532.86681	3586.55
2535.58458	3584.15
2538.30065	3575.55
2541.01501	3571.65
2543.72768	3566.35
2546.43864	3548.15
2549.14791	3543.85
2551.85548	3539.85
2554.56136	3503.85
2557.26554	3506.35
2559.96803	3520.05
2562.66883	3508.15
2565.36794	3502.55
2568.06536	3495.75
2570.7611	3497.85
2573.45514	3479.35
2576.14751	3476.45
2578.83819	3454.35
2581.52719	3464.15
2584.21451	3454.85
2586.90015	3435.05
2589.58411	3437.45
2592.2664	3431.05
2594.94701	3409.25
2597.62594	3422.25
2600.30321	3410.45
2602.9788	3389.65
2605.65273	3379.85
2608.32498	3385.15
2610.99557	3372.55
2613.66449	3371.65
2616.33175	3362.25
2618.99734	3364.45
2621.66128	3336.65
2624.32355	3344.35
2626.98416	3342.75
2629.64311	3343.35
2632.30041	3328.95
2634.95605	3319.95
2637.61004	3314.15
2640.26238	3322.55
2642.91306	3294.05
2645.56209	3295.75
2648.20948	3289.05
2650.85521	3288.45
2653.4993	3300.55
2656.14175	3283.45
2658.78255	3299.15
2661.42171	3284.95
2664.05923	3290.75
2666.6951	3277.35
2669.32934	3262.65
2671.96194	3260.95
2674.59291	3283.75
2677.22224	3274.05
2679.84993	3280.55
2682.476	3265.55
2685.10043	3280.05
2687.72324	3263.95
2690.34441	3265.55
2692.96396	3252.55
2695.58188	3273.85
2698.19818	3260.65
2700.81285	3266.75
2703.4259	3253.05
2706.03733	3278.15
2708.64714	3267.35
2711.25533	3253.45
2713.86191	3247.75
2716.46687	3257.95
2719.07021	3245.75
2721.67194	3253.35
2724.27206	3237.35
2726.87057	3236.95
2729.46747	3236.05
2732.06276	3229.65
2734.65644	3231.25
2737.24852	3227.55
2739.83899	3218.95
2742.42786	3216.55
2745.01513	3204.85
2747.60079	3201.05
2750.18486	3182.15
2752.76733	3190.65
2755.3482	3190.75
2757.92747	3176.05
2760.50515	3180.85
2763.08123	3172.55
2765.65573	3155.15
2768.22863	3172.25
2770.79994	3173.75
2773.36967	3155.35
2775.9378	3149.15
2778.50435	3147.95
2781.06932	3124.25
2783.6327	3135.25
2786.1945	3126.55
2788.75471	3120.65
2791.31335	3116.15
2793.87041	3107.35
2796.42589	3104.15
2798.97979	3082.55
2801.53212	3074.65
2804.08288	3077.35
2806.63206	3060.55
2809.17967	3058.85
2811.72571	3052.85
2814.27018	3043.95
2816.81308	3019.45
2819.35442	3030.95
2821.89419	3023.15
2824.43239	3036.85
2826.96904	3025.55
2829.50412	3013.65
2832.03763	3008.75
2834.56959	3013.95
2837.1	3007.25
2839.62884	2999.05
2842.15613	2992.15
2844.68186	2996.65
2847.20604	2996.65
2849.72867	3003.85
2852.24974	2992.05
2854.76927	2989.85
2857.28724	2978.15
2859.80367	2975.35
2862.31855	2973.05
2864.83189	2963.05
2867.34368	2958.75
2869.85393	2961.45
2872.36264	2950.25
2874.8698	2947.55
2877.37543	2951.55
2879.87952	2951.35
2882.38207	2954.25
2884.88308	2945.35
2887.38256	2946.45
2889.88051	2945.75
2892.37692	2949.25
2894.8718	2949.25
2897.36515	2940.95
2899.85698	2944.95
2902.34727	2952.05
2904.83604	2954.05
2907.32328	2947.85
2909.809	2943.75
2912.29319	2958.15
2914.77587	2946.35
2917.25702	2953.95
2919.73665	2937.65
2922.21476	2952.35
2924.69136	2941.55
2927.16644	2947.55
2929.64	2944.45
2932.11205	2947.45
2934.58258	2946.85
2937.05161	2942.85
2939.51912	2946.95
2941.98513	2942.85
2944.44962	2950.25
2946.91261	2928.85
2949.37409	2946.95
2951.83407	2946.05
2954.29254	2950.05
2956.74951	2931.65
2959.20498	2930.65
2961.65895	2922.15
2964.11142	2920.45
2966.56239	2906.45
2969.01186	2902.65
2971.45984	2890.85
2973.90632	2896.05
2976.35131	2881.95
2978.7948	2885.45
2981.23681	2861.45
2983.67732	2866.25
2986.11635	2859.05
2988.55388	2847.55
2990.98993	2843.85
2993.4245	2841.25
2995.85758	2834.95
2998.28917	2826.35
3000.71928	2807.55
3003.14791	2821.75
3005.57506	2833.35
3008.00073	2811.45
3010.42493	2826.35
3012.84764	2809.85
3015.26888	2803.75
3017.68865	2809.15
3020.10694	2803.85
3022.52376	2796.65
3024.9391	2801.95
3027.35298	2787.95
3029.76539	2783.45
3032.17632	2786.45
3034.5858	2778.25
3036.9938	2777.15
3039.40034	2773.85
3041.80542	2773.65
3044.20903	2765.95
3046.61118	2758.35
3049.01187	2756.35
3051.4111	2751.15
3053.80888	2764.75
3056.20519	2753.15
3058.60005	2752.35
3060.99345	2746.25
3063.3854	2734.95
3065.7759	2743.05
3068.16494	2743.05
3070.55254	2738.25
3072.93868	2724.65
3075.32338	2731.35
3077.70662	2723.85
3080.08842	2731.45
3082.46878	2727.55
3084.84769	2730.65
3087.22515	2743.35
3089.60118	2738.25
3091.97576	2733.05
3094.3489	2734.45
3096.72061	2733.35
3099.09087	2740.85
3101.4597	2743.75
3103.82709	2748.65
3106.19305	2735.05
3108.55757	2752.05
3110.92066	2721.55
3113.28232	2739.85
3115.64255	2731.25
3118.00134	2730.95
3120.35871	2728.55
3122.71466	2724.85
3125.06917	2730.05
3127.42226	2724.85
3129.77393	2737.85
3132.12417	2734.85
3134.47299	2749.65
3136.82039	2743.85
3139.16636	2749.45
3141.51092	2752.45
3143.85406	2758.75
3146.19579	2770.05
3148.53609	2756.65
3150.87499	2760.25
3153.21246	2778.65
3155.54853	2791.65
3157.88318	2785.95
3160.21642	2796.75
3162.54826	2792.75
3164.87868	2801.85
3167.2077	2793.65
3169.5353	2810.45
3171.86151	2798.55
3174.18631	2796.85
3176.5097	2803.25
3178.83169	2801.15
3181.15228	2809.25
3183.47147	2808.55
3185.78926	2809.85
3188.10565	2803.55
3190.42065	2815.55
3192.73424	2798.35
3195.04645	2811.75
3197.35725	2813.05
3199.66667	2821.85
3201.97469	2826.55
3204.28132	2823.35
3206.58656	2836.75
3208.8904	2834.45
3211.19287	2825.25
3213.49394	2834.15
3215.79363	2836.65
3218.09193	2837.35
3220.38884	2853.55
3222.68438	2851.95
3224.97853	2836.05
3227.2713	2838.25
3229.56269	2831.65
3231.8527	2842.55
3234.14133	2819.35
3236.42858	2828.25
3238.71446	2821.25
3240.99896	2820.35
3243.28209	2823.05
3245.56384	2802.15
3247.84423	2816.15
3250.12324	2806.45
3252.40088	2815.05
3254.67715	2817.55
3256.95205	2808.65
3259.22558	2815.95
3261.49775	2802.75
3263.76855	2802.95
3266.03799	2789.65
3268.30606	2786.95
3270.57277	2790.55
3272.83812	2787.65
3275.10211	2778.05
3277.36474	2797.95
3279.62601	2785.25
3281.88593	2784.85
3284.14448	2783.55
3286.40168	2780.95
3288.65753	2764.35
3290.91202	2765.85
3293.16516	2751.05
3295.41695	2733.95
3297.66738	2734.35
3299.91647	2731.95
3302.16421	2700.95
3304.4106	2696.45
3306.65564	2690.45
3308.89933	2666.45
3311.14169	2659.75
3313.38269	2636.95
3315.62236	2632.55
3317.86068	2611.85
3320.09766	2583.25
3322.3333	2568.15
3324.5676	2575.55
3326.80056	2531.45
3329.03219	2513.15
3331.26248	-0.45
3333.49143	0.45
3335.71905	-0.45
