Data from AgNPs_FTO_APTES_UA_0.1mM_CRN_500uM_NaF_0.1M_Addition_RamanShift__10__14-46-07-766.txt Node

Date: Mon Dec 20 14:46:07 GMT 2021
User: TCL
Spectrometer: QEP01345
Trigger mode: 4
Integration Time (sec): 7.000000E0
Scans to average: 10
Electric dark correction enabled: true
Nonlinearity correction enabled: false
Boxcar width: 0
XAxis mode: Raman Shifts
Number of Pixels in Spectrum: 1044
>>>>>Begin Spectral Data<<<<<
46.04893	1.175
50.45542	0.175
54.85868	-1.525
59.25871	0.775
63.6555	23.675
68.04907	25.875
72.43941	27.775
76.82654	29.375
81.21044	28.275
85.59113	33.975
89.96862	29.875
94.34289	34.775
98.71396	32.375
103.08183	34.875
107.4465	35.275
111.80798	39.275
116.16626	36.475
120.52136	38.075
124.87327	39.475
129.222	37.575
133.56755	38.575
137.90993	43.575
142.24913	43.275
146.58517	46.775
150.91804	51.275
155.24774	58.275
159.57429	64.675
163.89768	85.975
168.21792	111.875
172.53501	141.875
176.84895	187.375
181.15975	266.375
185.46741	362.175
189.77193	498.775
194.07331	659.975
198.37157	857.675
202.6667	1056.975
206.9587	1268.775
211.24758	1472.875
215.53334	1673.275
219.81599	1894.075
224.09553	2122.675
228.37195	2394.775
232.64527	2694.675
236.91549	3026.375
241.18261	3358.575
245.44663	3645.475
249.70755	3903.175
253.96539	4067.975
258.22014	4172.475
262.4718	4180.275
266.72039	4119.075
270.96589	4002.575
275.20832	3863.775
279.44768	3694.575
283.68397	3538.675
287.91719	3378.075
292.14735	3264.275
296.37445	3156.775
300.59849	3104.875
304.81948	3043.975
309.03742	3002.575
313.25231	2960.575
317.46415	2923.875
321.67296	2901.675
325.87872	2862.075
330.08145	2833.675
334.28114	2826.275
338.47781	2826.075
342.67145	2814.975
346.86207	2825.775
351.04966	2829.575
355.23424	2849.275
359.4158	2864.575
363.59435	2882.175
367.76989	2893.375
371.94243	2924.875
376.11196	2941.975
380.27849	2986.075
384.44203	2998.175
388.60257	3045.275
392.76012	3093.775
396.91468	3182.375
401.06626	3271.575
405.21485	3344.875
409.36047	3386.875
413.50311	3400.775
417.64277	3352.275
421.77947	3326.375
425.9132	3288.275
430.04396	3273.375
434.17176	3254.275
438.2966	3240.675
442.41849	3214.175
446.53742	3225.375
450.6534	3229.875
454.76644	3238.175
458.87653	3237.875
462.98368	3238.775
467.08789	3232.675
471.18916	3257.575
475.2875	3283.975
479.38291	3322.375
483.4754	3366.675
487.56496	3435.375
491.6516	3515.775
495.73531	3590.375
499.81612	3623.375
503.89401	3654.575
507.96899	3636.875
512.04106	3592.475
516.11023	3523.375
520.1765	3462.475
524.23987	3402.875
528.30034	3323.875
532.35792	3318.575
536.41261	3285.575
540.46441	3263.475
544.51333	3252.075
548.55936	3241.775
552.60252	3236.875
556.64279	3240.475
560.6802	3234.275
564.71473	3257.475
568.7464	3262.875
572.7752	3283.775
576.80114	3282.575
580.82422	3306.775
584.84444	3361.875
588.86181	3432.475
592.87633	3473.075
596.888	3470.475
600.89682	3474.775
604.9028	3551.775
608.90594	3639.575
612.90624	3758.975
616.90371	3759.875
620.89834	3658.975
624.89015	3641.075
628.87913	3722.575
632.86528	3847.175
636.84862	3976.675
640.82913	4006.975
644.80683	3996.375
648.78172	3933.875
652.75379	3879.575
656.72306	3780.475
660.68952	3739.575
664.65319	3693.275
668.61405	3700.775
672.57211	3717.875
676.52738	3739.575
680.47986	3751.675
684.42955	3767.075
688.37646	3770.875
692.32058	3743.875
696.26192	3675.575
700.20048	3593.475
704.13626	3509.675
708.06928	3425.675
711.99952	3389.975
715.927	3329.275
719.85171	3293.375
723.77365	3303.475
727.69284	3290.575
731.60928	3289.175
735.52295	3286.975
739.43388	3297.775
743.34206	3331.975
747.24749	3378.375
751.15017	3418.575
755.05012	3451.075
758.94733	3479.075
762.8418	3518.175
766.73354	3544.375
770.62254	3532.675
774.50882	3505.175
778.39237	3451.475
782.27321	3377.375
786.15132	3297.375
790.02671	3254.175
793.89938	3247.575
797.76935	3262.575
801.6366	3307.175
805.50115	3387.175
809.36299	3461.475
813.22213	3510.575
817.07857	3457.975
820.93231	3362.975
824.78336	3249.475
828.63172	3170.775
832.47738	3104.875
836.32036	3074.975
840.16066	3072.075
843.99827	3069.475
847.8332	3068.075
851.66546	3074.575
855.49504	3083.275
859.32195	3098.175
863.1462	3080.875
866.96777	3089.975
870.78668	3104.875
874.60293	3129.975
878.41652	3155.575
882.22745	3192.775
886.03573	3219.375
889.84136	3249.375
893.64433	3235.775
897.44466	3207.475
901.24235	3179.375
905.0374	3122.775
908.8298	3096.575
912.61957	3082.475
916.40671	3038.675
920.19121	3030.975
923.97308	3007.075
927.75233	3007.175
931.52895	2988.975
935.30295	2985.475
939.07433	2969.775
942.84309	2950.375
946.60924	2931.275
950.37278	2919.975
954.13371	2926.375
957.89203	2928.675
961.64774	2913.475
965.40086	2909.875
969.15137	2912.475
972.89929	2902.975
976.64461	2901.475
980.38733	2902.375
984.12747	2900.075
987.86502	2899.575
991.59999	2889.475
995.33237	2905.875
999.06217	2910.975
1002.78939	2941.075
1006.51404	2932.175
1010.23611	2958.675
1013.95561	2971.775
1017.67255	2995.875
1021.38692	3002.675
1025.09872	2993.175
1028.80796	2996.175
1032.51465	2975.475
1036.21877	2973.475
1039.92035	2972.175
1043.61937	2956.075
1047.31584	2947.275
1051.00976	2952.675
1054.70114	2967.875
1058.38998	2964.275
1062.07627	2967.375
1065.76003	2981.475
1069.44126	2978.075
1073.11995	3002.075
1076.79611	3006.275
1080.46974	2990.475
1084.14085	2976.775
1087.80943	2949.975
1091.47549	2939.475
1095.13903	2934.175
1098.80005	2914.675
1102.45857	2908.575
1106.11456	2912.975
1109.76805	2935.175
1113.41903	2986.975
1117.06751	3046.975
1120.71348	3151.775
1124.35696	3282.075
1127.99793	3428.175
1131.63641	3571.875
1135.2724	3645.375
1138.90589	3659.675
1142.5369	3636.475
1146.16542	3542.675
1149.79145	3431.175
1153.415	3310.575
1157.03607	3177.575
1160.65467	3088.875
1164.27079	3020.275
1167.88443	2992.375
1171.49561	2972.375
1175.10432	3009.775
1178.71056	3059.375
1182.31434	3094.475
1185.91565	3149.675
1189.51451	3173.775
1193.11091	3182.775
1196.70485	3199.175
1200.29634	3227.275
1203.88538	3262.175
1207.47197	3249.375
1211.05612	3277.075
1214.63782	3271.475
1218.21708	3273.675
1221.79391	3270.875
1225.36829	3246.675
1228.94024	3217.775
1232.50976	3173.275
1236.07685	3137.875
1239.6415	3126.875
1243.20374	3123.775
1246.76355	3134.275
1250.32093	3161.475
1253.8759	3171.875
1257.42845	3215.175
1260.97859	3232.175
1264.52631	3226.975
1268.07163	3227.375
1271.61453	3217.975
1275.15503	3180.675
1278.69312	3149.375
1282.22882	3132.975
1285.76211	3118.075
1289.29301	3121.375
1292.82151	3123.175
1296.34761	3148.075
1299.87133	3184.575
1303.39266	3237.875
1306.9116	3303.375
1310.42815	3363.875
1313.94233	3435.075
1317.45412	3464.375
1320.96354	3474.875
1324.47058	3483.275
1327.97525	3486.775
1331.47754	3487.575
1334.97747	3491.575
1338.47502	3528.475
1341.97022	3546.975
1345.46305	3595.975
1348.95352	3639.975
1352.44163	3700.575
1355.92738	3740.175
1359.41078	3821.075
1362.89183	3890.375
1366.37053	3881.675
1369.84688	3803.675
1373.32088	3679.575
1376.79254	3593.075
1380.26186	3509.675
1383.72883	3453.875
1387.19347	3402.575
1390.65578	3358.775
1394.11575	3316.275
1397.57339	3276.975
1401.0287	3227.775
1404.48168	3203.275
1407.93234	3170.975
1411.38068	3136.775
1414.82669	3101.075
1418.27039	3047.275
1421.71177	3014.475
1425.15083	2984.275
1428.58758	2949.075
1432.02203	2924.975
1435.45416	2892.575
1438.88399	2865.975
1442.31151	2856.975
1445.73673	2838.575
1449.15965	2834.275
1452.58027	2832.675
1455.9986	2826.575
1459.41463	2827.875
1462.82837	2855.275
1466.23982	2870.675
1469.64898	2914.575
1473.05586	2916.775
1476.46045	2957.675
1479.86276	2932.075
1483.26279	2972.875
1486.66054	2983.975
1490.05602	2987.375
1493.44922	3007.675
1496.84016	3034.075
1500.22882	3086.675
1503.61521	3137.975
1506.99934	3219.475
1510.38121	3247.575
1513.76081	3266.775
1517.13816	3237.475
1520.51324	3183.675
1523.88607	3144.275
1527.25665	3100.175
1530.62498	3112.075
1533.99105	3134.675
1537.35488	3140.075
1540.71647	3171.575
1544.07581	3223.475
1547.4329	3259.275
1550.78776	3315.075
1554.14038	3336.175
1557.49077	3358.675
1560.83892	3402.375
1564.18484	3421.775
1567.52853	3436.175
1570.86999	3443.675
1574.20922	3453.575
1577.54624	3461.875
1580.88103	3448.275
1584.2136	3434.475
1587.54395	3414.775
1590.87208	3399.975
1594.19801	3388.275
1597.52172	3404.975
1600.84321	3415.775
1604.16251	3383.575
1607.47959	3364.175
1610.79447	3326.675
1614.10715	3292.175
1617.41763	3250.475
1620.7259	3239.775
1624.03199	3210.675
1627.33587	3209.575
1630.63757	3219.475
1633.93707	3240.175
1637.23439	3279.175
1640.52951	3332.175
1643.82246	3399.075
1647.11321	3467.975
1650.40179	3538.275
1653.68819	3556.775
1656.97241	3510.275
1660.25446	3460.775
1663.53433	3385.275
1666.81203	3335.775
1670.08756	3302.475
1673.36092	3271.575
1676.63211	3240.375
1679.90115	3207.375
1683.16801	3148.575
1686.43272	3092.975
1689.69527	3028.275
1692.95567	2955.675
1696.2139	2891.575
1699.46999	2805.275
1702.72392	2740.175
1705.97571	2658.875
1709.22535	2581.575
1712.47284	2522.075
1715.71819	2481.675
1718.96139	2440.775
1722.20246	2389.075
1725.44139	2351.975
1728.67818	2316.875
1731.91284	2278.675
1735.14537	2246.775
1738.37576	2228.975
1741.60403	2203.075
1744.83017	2194.075
1748.05418	2188.575
1751.27607	2169.975
1754.49584	2187.875
1757.71349	2188.875
1760.92903	2177.975
1764.14244	2169.975
1767.35375	2146.675
1770.56294	2134.875
1773.77002	2099.575
1776.97499	2088.975
1780.17785	2049.675
1783.37861	2042.075
1786.57727	2032.875
1789.77382	2009.075
1792.96828	2000.775
1796.16064	1975.675
1799.3509	1960.575
1802.53907	1948.875
1805.72514	1933.175
1808.90913	1922.175
1812.09102	1923.075
1815.27083	1913.675
1818.44856	1903.175
1821.6242	1894.075
1824.79776	1882.275
1827.96924	1887.875
1831.13864	1862.575
1834.30597	1875.075
1837.47122	1868.575
1840.6344	1850.375
1843.7955	1858.775
1846.95454	1847.275
1850.11151	1850.775
1853.26642	1839.875
1856.41926	1835.175
1859.57004	1826.375
1862.71876	1822.075
1865.86542	1831.875
1869.01003	1816.975
1872.15258	1807.075
1875.29308	1805.175
1878.43152	1796.675
1881.56792	1790.975
1884.70227	1788.075
1887.83457	1779.375
1890.96482	1778.675
1894.09304	1774.075
1897.21921	1776.775
1900.34335	1772.175
1903.46544	1767.975
1906.58551	1757.275
1909.70353	1755.875
1912.81953	1756.275
1915.93349	1742.775
1919.04543	1743.175
1922.15534	1736.375
1925.26322	1730.875
1928.36908	1715.375
1931.47292	1735.475
1934.57473	1719.975
1937.67453	1704.275
1940.77232	1698.175
1943.86808	1695.775
1946.96184	1697.975
1950.05358	1679.575
1953.14331	1684.375
1956.23103	1668.475
1959.31675	1664.375
1962.40046	1653.975
1965.48217	1655.475
1968.56188	1648.675
1971.63959	1634.875
1974.7153	1625.575
1977.78901	1633.875
1980.86073	1612.975
1983.93046	1616.075
1986.99819	1607.775
1990.06394	1597.175
1993.1277	1596.975
1996.18947	1590.775
1999.24925	1590.075
2002.30706	1581.775
2005.36288	1575.675
2008.41672	1566.875
2011.46859	1563.675
2014.51848	1559.875
2017.56639	1541.275
2020.61233	1545.675
2023.6563	1535.975
2026.6983	1531.675
2029.73833	1523.375
2032.7764	1526.975
2035.8125	1510.875
2038.84664	1513.875
2041.87881	1516.075
2044.90903	1507.775
2047.93729	1497.675
2050.96359	1499.275
2053.98794	1490.575
2057.01034	1490.975
2060.03078	1486.675
2063.04927	1486.575
2066.06582	1479.875
2069.08042	1479.875
2072.09307	1470.475
2075.10378	1480.875
2078.11255	1475.175
2081.11938	1475.375
2084.12426	1479.775
2087.12722	1472.475
2090.12824	1470.775
2093.12732	1462.375
2096.12447	1466.575
2099.11969	1465.775
2102.11299	1465.775
2105.10435	1465.275
2108.09379	1459.975
2111.08131	1454.575
2114.0669	1457.975
2117.05057	1463.775
2120.03233	1459.175
2123.01216	1462.275
2125.99008	1455.175
2128.96609	1459.375
2131.94018	1457.875
2134.91236	1468.875
2137.88263	1452.675
2140.851	1457.975
2143.81746	1456.075
2146.78201	1457.975
2149.74466	1451.975
2152.7054	1457.675
2155.66425	1458.675
2158.6212	1443.175
2161.57625	1446.575
2164.52941	1443.775
2167.48067	1446.875
2170.43004	1446.975
2173.37752	1441.275
2176.32311	1442.375
2179.26681	1426.575
2182.20863	1437.675
2185.14856	1438.275
2188.08661	1433.275
2191.02278	1417.275
2193.95707	1419.175
2196.88948	1422.075
2199.82001	1412.375
2202.74867	1415.675
2205.67545	1410.275
2208.60037	1412.475
2211.52341	1402.975
2214.44458	1405.375
2217.36388	1393.575
2220.28132	1394.875
2223.1969	1394.975
2226.11061	1391.775
2229.02246	1379.775
2231.93245	1382.175
2234.84058	1368.075
2237.74686	1369.175
2240.65128	1370.175
2243.55385	1369.375
2246.45456	1366.675
2249.35343	1361.075
2252.25044	1346.375
2255.14561	1338.075
2258.03893	1351.875
2260.93041	1347.175
2263.82004	1338.975
2266.70783	1327.675
2269.59378	1324.375
2272.4779	1327.275
2275.36017	1321.775
2278.24061	1309.175
2281.11922	1309.375
2283.996	1306.875
2286.87094	1301.375
2289.74405	1306.975
2292.61534	1301.375
2295.4848	1296.175
2298.35243	1289.475
2301.21824	1295.275
2304.08223	1293.275
2306.94439	1284.875
2309.80474	1280.175
2312.66327	1279.375
2315.51999	1274.275
2318.37489	1285.675
2321.22797	1281.075
2324.07925	1270.675
2326.92871	1275.475
2329.77637	1258.975
2332.62222	1268.875
2335.46626	1262.375
2338.3085	1254.175
2341.14893	1259.475
2343.98756	1239.975
2346.8244	1246.875
2349.65943	1242.475
2352.49267	1239.275
2355.32411	1238.475
2358.15376	1245.775
2360.98161	1236.175
2363.80768	1236.175
2366.63195	1229.775
2369.45444	1233.875
2372.27514	1224.475
2375.09405	1228.475
2377.91118	1220.475
2380.72652	1220.075
2383.54009	1213.775
2386.35187	1211.375
2389.16188	1214.775
2391.97011	1203.875
2394.77657	1195.975
2397.58125	1197.975
2400.38416	1194.675
2403.18529	1188.475
2405.98466	1192.475
2408.78226	1183.175
2411.57809	1185.175
2414.37216	1179.075
2417.16446	1180.775
2419.955	1181.175
2422.74378	1170.575
2425.5308	1173.175
2428.31606	1171.275
2431.09956	1169.975
2433.88131	1169.875
2436.6613	1172.575
2439.43954	1163.575
2442.21603	1152.575
2444.99077	1157.875
2447.76377	1154.975
2450.53501	1147.675
2453.30451	1151.875
2456.07226	1144.275
2458.83827	1152.875
2461.60254	1137.975
2464.36507	1142.075
2467.12586	1146.775
2469.88492	1150.375
2472.64224	1137.675
2475.39782	1145.175
2478.15167	1137.775
2480.90379	1136.075
2483.65417	1128.775
2486.40283	1127.075
2489.14976	1121.575
2491.89497	1119.475
2494.63845	1129.275
2497.3802	1118.875
2500.12024	1121.475
2502.85855	1123.875
2505.59514	1117.175
2508.33002	1108.575
2511.06318	1112.175
2513.79462	1108.175
2516.52435	1101.175
2519.25237	1107.675
2521.97867	1099.875
2524.70327	1090.475
2527.42616	1099.775
2530.14734	1087.075
2532.86681	1091.775
2535.58458	1087.575
2538.30065	1083.175
2541.01501	1081.575
2543.72768	1081.475
2546.43864	1079.875
2549.14791	1074.375
2551.85548	1074.275
2554.56136	1064.075
2557.26554	1066.975
2559.96803	1063.675
2562.66883	1066.175
2565.36794	1053.875
2568.06536	1050.875
2570.7611	1061.775
2573.45514	1058.175
2576.14751	1055.875
2578.83819	1043.975
2581.52719	1044.875
2584.21451	1037.575
2586.90015	1037.575
2589.58411	1040.175
2592.2664	1030.275
2594.94701	1037.175
2597.62594	1026.975
2600.30321	1015.075
2602.9788	1024.675
2605.65273	1019.275
2608.32498	1022.075
2610.99557	1020.575
2613.66449	1009.175
2616.33175	1012.575
2618.99734	1015.875
2621.66128	1006.575
2624.32355	1015.175
2626.98416	1005.675
2629.64311	999.575
2632.30041	1000.975
2634.95605	1005.875
2637.61004	998.875
2640.26238	994.075
2642.91306	1006.075
2645.56209	994.975
2648.20948	990.975
2650.85521	981.675
2653.4993	987.375
2656.14175	986.375
2658.78255	989.675
2661.42171	979.775
2664.05923	987.775
2666.6951	988.875
2669.32934	987.675
2671.96194	977.975
2674.59291	986.275
2677.22224	985.175
2679.84993	984.275
2682.476	989.575
2685.10043	981.175
2687.72324	979.075
2690.34441	982.975
2692.96396	973.575
2695.58188	984.975
2698.19818	982.975
2700.81285	975.875
2703.4259	994.575
2706.03733	1011.775
2708.64714	1001.875
2711.25533	979.375
2713.86191	984.975
2716.46687	978.975
2719.07021	978.375
2721.67194	972.975
2724.27206	969.675
2726.87057	980.775
2729.46747	973.875
2732.06276	973.075
2734.65644	970.475
2737.24852	967.175
2739.83899	971.875
2742.42786	970.175
2745.01513	960.875
2747.60079	967.475
2750.18486	957.675
2752.76733	947.775
2755.3482	954.475
2757.92747	954.575
2760.50515	954.075
2763.08123	954.775
2765.65573	946.075
2768.22863	948.275
2770.79994	943.975
2773.36967	947.775
2775.9378	943.975
2778.50435	938.175
2781.06932	938.975
2783.6327	934.475
2786.1945	936.575
2788.75471	932.975
2791.31335	931.175
2793.87041	931.075
2796.42589	914.775
2798.97979	922.675
2801.53212	922.175
2804.08288	922.275
2806.63206	920.275
2809.17967	917.675
2811.72571	909.475
2814.27018	911.775
2816.81308	915.175
2819.35442	913.475
2821.89419	911.675
2824.43239	915.375
2826.96904	906.875
2829.50412	908.175
2832.03763	914.875
2834.56959	913.475
2837.1	908.275
2839.62884	907.275
2842.15613	905.875
2844.68186	907.775
2847.20604	909.875
2849.72867	909.075
2852.24974	907.175
2854.76927	912.075
2857.28724	918.775
2859.80367	906.475
2862.31855	899.175
2864.83189	909.875
2867.34368	903.375
2869.85393	896.675
2872.36264	901.775
2874.8698	906.375
2877.37543	900.375
2879.87952	902.675
2882.38207	903.275
2884.88308	899.975
2887.38256	903.275
2889.88051	903.675
2892.37692	908.675
2894.8718	914.075
2897.36515	910.975
2899.85698	911.775
2902.34727	920.175
2904.83604	916.075
2907.32328	917.675
2909.809	922.175
2912.29319	933.375
2914.77587	923.175
2917.25702	926.075
2919.73665	931.575
2922.21476	934.375
2924.69136	938.675
2927.16644	939.275
2929.64	942.175
2932.11205	939.175
2934.58258	946.875
2937.05161	954.875
2939.51912	941.875
2941.98513	955.075
2944.44962	939.975
2946.91261	948.975
2949.37409	951.675
2951.83407	954.175
2954.29254	951.575
2956.74951	951.475
2959.20498	935.475
2961.65895	936.275
2964.11142	942.475
2966.56239	929.975
2969.01186	928.775
2971.45984	917.175
2973.90632	912.575
2976.35131	904.375
2978.7948	919.475
2981.23681	903.975
2983.67732	913.675
2986.11635	906.175
2988.55388	902.675
2990.98993	898.475
2993.4245	891.875
2995.85758	897.575
2998.28917	897.575
3000.71928	886.275
3003.14791	890.675
3005.57506	897.375
3008.00073	896.575
3010.42493	897.875
3012.84764	892.375
3015.26888	894.975
3017.68865	894.675
3020.10694	889.675
3022.52376	895.175
3024.9391	893.975
3027.35298	897.875
3029.76539	894.375
3032.17632	893.375
3034.5858	894.075
3036.9938	901.175
3039.40034	902.875
3041.80542	904.475
3044.20903	896.275
3046.61118	892.375
3049.01187	898.375
3051.4111	897.975
3053.80888	903.575
3056.20519	904.175
3058.60005	896.875
3060.99345	903.975
3063.3854	910.875
3065.7759	905.075
3068.16494	916.275
3070.55254	907.475
3072.93868	911.975
3075.32338	916.275
3077.70662	915.175
3080.08842	919.775
3082.46878	925.275
3084.84769	925.175
3087.22515	927.675
3089.60118	928.375
3091.97576	940.975
3094.3489	936.575
3096.72061	945.075
3099.09087	945.375
3101.4597	949.675
3103.82709	954.275
3106.19305	956.375
3108.55757	963.075
3110.92066	963.575
3113.28232	968.475
3115.64255	969.575
3118.00134	974.075
3120.35871	969.275
3122.71466	983.275
3125.06917	983.075
3127.42226	984.175
3129.77393	1002.875
3132.12417	1007.275
3134.47299	1009.675
3136.82039	1004.675
3139.16636	1017.075
3141.51092	1025.875
3143.85406	1032.175
3146.19579	1032.775
3148.53609	1040.475
3150.87499	1041.975
3153.21246	1058.575
3155.54853	1061.775
3157.88318	1063.675
3160.21642	1071.275
3162.54826	1075.375
3164.87868	1084.675
3167.2077	1083.975
3169.5353	1098.175
3171.86151	1096.075
3174.18631	1099.175
3176.5097	1107.475
3178.83169	1105.075
3181.15228	1114.675
3183.47147	1120.575
3185.78926	1119.275
3188.10565	1128.075
3190.42065	1135.575
3192.73424	1134.175
3195.04645	1141.575
3197.35725	1145.575
3199.66667	1144.375
3201.97469	1159.475
3204.28132	1157.775
3206.58656	1163.075
3208.8904	1170.075
3211.19287	1169.075
3213.49394	1174.975
3215.79363	1178.875
3218.09193	1177.475
3220.38884	1184.675
3222.68438	1189.075
3224.97853	1190.675
3227.2713	1195.575
3229.56269	1185.375
3231.8527	1188.075
3234.14133	1185.375
3236.42858	1183.175
3238.71446	1187.775
3240.99896	1180.375
3243.28209	1187.675
3245.56384	1185.175
3247.84423	1186.975
3250.12324	1186.175
3252.40088	1190.975
3254.67715	1198.775
3256.95205	1195.375
3259.22558	1189.975
