Data from AgNPs_FTO_APTES_UA_0.1mM_CRN_0uM_NaF_0.1M_Addition_RamanShift__33__10-41-07-490.txt Node

Date: Mon Dec 20 10:41:07 GMT 2021
User: TCL
Spectrometer: QEP01345
Trigger mode: 4
Integration Time (sec): 7.000000E0
Scans to average: 10
Electric dark correction enabled: true
Nonlinearity correction enabled: false
Boxcar width: 0
XAxis mode: Raman Shifts
Number of Pixels in Spectrum: 1044
>>>>>Begin Spectral Data<<<<<
46.04893	0.425
50.45542	0.225
54.85868	-0.775
59.25871	2.225
63.6555	27.925
68.04907	29.825
72.43941	27.625
76.82654	32.725
81.21044	34.725
85.59113	38.325
89.96862	33.725
94.34289	38.025
98.71396	37.625
103.08183	38.525
107.4465	39.625
111.80798	43.325
116.16626	42.825
120.52136	44.025
124.87327	43.725
129.222	43.525
133.56755	46.525
137.90993	49.325
142.24913	50.925
146.58517	53.125
150.91804	61.525
155.24774	70.025
159.57429	82.225
163.89768	99.925
168.21792	132.825
172.53501	160.525
176.84895	220.425
181.15975	300.225
185.46741	411.625
189.77193	558.825
194.07331	740.225
198.37157	951.025
202.6667	1172.425
206.9587	1388.525
211.24758	1601.525
215.53334	1823.925
219.81599	2071.425
224.09553	2322.725
228.37195	2614.825
232.64527	2928.325
236.91549	3245.225
241.18261	3568.525
245.44663	3828.625
249.70755	4067.525
253.96539	4237.225
258.22014	4377.025
262.4718	4468.225
266.72039	4510.425
270.96589	4513.425
275.20832	4468.525
279.44768	4399.325
283.68397	4319.925
287.91719	4238.225
292.14735	4198.625
296.37445	4162.925
300.59849	4166.925
304.81948	4197.925
309.03742	4199.225
313.25231	4176.025
317.46415	4152.925
321.67296	4077.425
325.87872	4033.225
330.08145	3991.725
334.28114	3965.325
338.47781	3965.325
342.67145	3966.125
346.86207	3988.325
351.04966	4019.225
355.23424	4053.025
359.4158	4095.825
363.59435	4150.725
367.76989	4164.025
371.94243	4205.225
376.11196	4247.025
380.27849	4276.325
384.44203	4317.725
388.60257	4377.025
392.76012	4407.525
396.91468	4447.825
401.06626	4476.825
405.21485	4508.425
409.36047	4516.725
413.50311	4501.525
417.64277	4488.125
421.77947	4519.125
425.9132	4536.325
430.04396	4559.625
434.17176	4574.925
438.2966	4605.925
442.41849	4693.425
446.53742	4824.325
450.6534	4932.725
454.76644	5007.025
458.87653	5018.325
462.98368	4920.525
467.08789	4877.725
471.18916	4795.325
475.2875	4743.825
479.38291	4728.725
483.4754	4793.825
487.56496	4896.425
491.6516	5016.825
495.73531	5136.825
499.81612	5201.525
503.89401	5207.925
507.96899	5140.025
512.04106	5033.925
516.11023	4954.125
520.1765	4910.225
524.23987	4907.025
528.30034	4913.225
532.35792	4922.425
536.41261	4874.425
540.46441	4767.825
544.51333	4682.525
548.55936	4625.425
552.60252	4651.425
556.64279	4711.725
560.6802	4762.025
564.71473	4746.925
568.7464	4742.325
572.7752	4786.325
576.80114	4854.125
580.82422	4978.125
584.84444	5242.625
588.86181	5606.525
592.87633	6006.725
596.888	6075.325
600.89682	5791.625
604.9028	5530.025
608.90594	5612.225
612.90624	5887.725
616.90371	5816.625
620.89834	5419.725
624.89015	5394.825
628.87913	5768.325
632.86528	6209.225
636.84862	6523.025
640.82913	6538.525
644.80683	6318.425
648.78172	5996.325
652.75379	5685.125
656.72306	5402.025
660.68952	5197.225
664.65319	5024.025
668.61405	4859.825
672.57211	4790.925
676.52738	4796.625
680.47986	4784.025
684.42955	4785.025
688.37646	4731.725
692.32058	4696.925
696.26192	4651.925
700.20048	4648.025
704.13626	4630.125
708.06928	4610.525
711.99952	4601.925
715.927	4623.625
719.85171	4689.525
723.77365	4732.925
727.69284	4742.525
731.60928	4701.625
735.52295	4631.125
739.43388	4599.025
743.34206	4612.225
747.24749	4642.025
751.15017	4675.025
755.05012	4695.125
758.94733	4766.325
762.8418	4907.525
766.73354	5132.625
770.62254	5330.625
774.50882	5391.525
778.39237	5242.025
782.27321	4950.525
786.15132	4714.225
790.02671	4579.825
793.89938	4561.825
797.76935	4582.425
801.6366	4657.725
805.50115	4803.425
809.36299	4958.025
813.22213	5052.725
817.07857	4986.025
820.93231	4830.625
824.78336	4644.025
828.63172	4481.325
832.47738	4392.925
836.32036	4360.725
840.16066	4355.725
843.99827	4331.925
847.8332	4344.225
851.66546	4337.125
855.49504	4324.625
859.32195	4341.525
863.1462	4341.325
866.96777	4379.325
870.78668	4428.125
874.60293	4528.525
878.41652	4644.925
882.22745	4789.125
886.03573	4878.525
889.84136	4935.425
893.64433	4872.525
897.44466	4723.625
901.24235	4572.125
905.0374	4429.425
908.8298	4325.825
912.61957	4286.125
916.40671	4271.225
920.19121	4271.325
923.97308	4289.625
927.75233	4288.325
931.52895	4260.725
935.30295	4222.125
939.07433	4153.425
942.84309	4099.925
946.60924	4083.025
950.37278	4055.425
954.13371	4060.425
957.89203	4050.125
961.64774	4045.925
965.40086	4023.425
969.15137	4025.725
972.89929	3992.625
976.64461	3997.325
980.38733	3991.225
984.12747	4000.425
987.86502	4003.325
991.59999	4036.525
995.33237	4097.125
999.06217	4178.725
1002.78939	4282.325
1006.51404	4360.425
1010.23611	4437.625
1013.95561	4529.225
1017.67255	4567.925
1021.38692	4546.525
1025.09872	4451.625
1028.80796	4383.125
1032.51465	4320.025
1036.21877	4295.725
1039.92035	4259.325
1043.61937	4251.025
1047.31584	4220.725
1051.00976	4195.325
1054.70114	4190.625
1058.38998	4184.325
1062.07627	4246.225
1065.76003	4297.225
1069.44126	4362.525
1073.11995	4433.325
1076.79611	4478.625
1080.46974	4508.025
1084.14085	4494.225
1087.80943	4475.825
1091.47549	4483.225
1095.13903	4444.925
1098.80005	4388.925
1102.45857	4306.025
1106.11456	4277.225
1109.76805	4312.725
1113.41903	4439.425
1117.06751	4620.225
1120.71348	4908.225
1124.35696	5280.225
1127.99793	5712.325
1131.63641	6096.625
1135.2724	6317.625
1138.90589	6317.725
1142.5369	6144.325
1146.16542	5862.725
1149.79145	5520.125
1153.415	5187.525
1157.03607	4939.125
1160.65467	4827.925
1164.27079	4818.125
1167.88443	4881.925
1171.49561	5024.425
1175.10432	5272.025
1178.71056	5604.025
1182.31434	5962.625
1185.91565	6112.125
1189.51451	6004.625
1193.11091	5887.225
1196.70485	5863.725
1200.29634	5861.025
1203.88538	5878.525
1207.47197	5850.725
1211.05612	5760.425
1214.63782	5660.725
1218.21708	5538.125
1221.79391	5401.025
1225.36829	5334.025
1228.94024	5240.425
1232.50976	5111.325
1236.07685	4950.125
1239.6415	4893.025
1243.20374	4875.725
1246.76355	4886.625
1250.32093	4942.025
1253.8759	5029.225
1257.42845	5126.125
1260.97859	5213.025
1264.52631	5294.225
1268.07163	5373.225
1271.61453	5417.025
1275.15503	5484.925
1278.69312	5577.325
1282.22882	5701.825
1285.76211	5869.825
1289.29301	6096.125
1292.82151	6359.225
1296.34761	6648.725
1299.87133	7011.825
1303.39266	7370.625
1306.9116	7715.925
1310.42815	8059.825
1313.94233	8257.425
1317.45412	8236.125
1320.96354	7976.825
1324.47058	7632.825
1327.97525	7342.825
1331.47754	7151.125
1334.97747	7047.125
1338.47502	6941.925
1341.97022	6854.625
1345.46305	6802.025
1348.95352	6927.925
1352.44163	7250.725
1355.92738	7762.425
1359.41078	8382.025
1362.89183	8901.625
1366.37053	8961.025
1369.84688	8442.525
1373.32088	7549.925
1376.79254	6909.525
1380.26186	6686.625
1383.72883	6616.125
1387.19347	6495.925
1390.65578	6333.125
1394.11575	6246.725
1397.57339	6201.725
1401.0287	6246.225
1404.48168	6247.725
1407.93234	6151.125
1411.38068	5967.425
1414.82669	5790.625
1418.27039	5556.125
1421.71177	5341.525
1425.15083	5196.225
1428.58758	5117.125
1432.02203	5136.225
1435.45416	5241.025
1438.88399	5320.125
1442.31151	5364.025
1445.73673	5403.125
1449.15965	5397.525
1452.58027	5384.425
1455.9986	5329.425
1459.41463	5311.125
1462.82837	5327.825
1466.23982	5443.925
1469.64898	5549.925
1473.05586	5616.425
1476.46045	5680.825
1479.86276	5701.625
1483.26279	5706.725
1486.66054	5707.925
1490.05602	5758.925
1493.44922	5805.725
1496.84016	5879.625
1500.22882	5943.125
1503.61521	6076.425
1506.99934	6225.225
1510.38121	6395.725
1513.76081	6413.725
1517.13816	6334.425
1520.51324	6141.825
1523.88607	6000.925
1527.25665	5979.225
1530.62498	6010.225
1533.99105	6033.925
1537.35488	6000.325
1540.71647	5970.025
1544.07581	5911.325
1547.4329	5847.125
1550.78776	5756.925
1554.14038	5711.825
1557.49077	5655.225
1560.83892	5626.125
1564.18484	5644.625
1567.52853	5669.725
1570.86999	5717.825
1574.20922	5777.025
1577.54624	5798.425
1580.88103	5767.025
1584.2136	5757.225
1587.54395	5815.225
1590.87208	6041.225
1594.19801	6350.425
1597.52172	6698.525
1600.84321	6872.325
1604.16251	6725.925
1607.47959	6330.125
1610.79447	5880.225
1614.10715	5528.025
1617.41763	5310.225
1620.7259	5197.825
1624.03199	5175.025
1627.33587	5223.125
1630.63757	5358.725
1633.93707	5580.025
1637.23439	5931.325
1640.52951	6508.525
1643.82246	7249.825
1647.11321	7854.625
1650.40179	7972.625
1653.68819	7475.825
1656.97241	6705.825
1660.25446	6015.125
1663.53433	5535.725
1666.81203	5229.225
1670.08756	5023.725
1673.36092	4906.925
1676.63211	4826.125
1679.90115	4776.125
1683.16801	4689.225
1686.43272	4613.425
1689.69527	4529.125
1692.95567	4430.525
1696.2139	4318.825
1699.46999	4238.725
1702.72392	4124.925
1705.97571	4025.725
1709.22535	3889.525
1712.47284	3780.125
1715.71819	3674.725
1718.96139	3586.725
1722.20246	3527.625
1725.44139	3474.725
1728.67818	3418.825
1731.91284	3369.625
1735.14537	3334.125
1738.37576	3319.525
1741.60403	3291.725
1744.83017	3256.325
1748.05418	3249.225
1751.27607	3233.825
1754.49584	3223.325
1757.71349	3220.725
1760.92903	3190.225
1764.14244	3214.625
1767.35375	3176.125
1770.56294	3182.725
1773.77002	3179.425
1776.97499	3154.925
1780.17785	3159.425
1783.37861	3155.225
1786.57727	3142.425
1789.77382	3127.125
1792.96828	3109.325
1796.16064	3116.725
1799.3509	3101.325
1802.53907	3079.625
1805.72514	3070.725
1808.90913	3061.025
1812.09102	3064.625
1815.27083	3051.625
1818.44856	3045.225
1821.6242	3037.125
1824.79776	3032.025
1827.96924	3040.425
1831.13864	3016.825
1834.30597	3017.225
1837.47122	3011.225
1840.6344	2996.925
1843.7955	3002.825
1846.95454	2996.525
1850.11151	3005.625
1853.26642	2996.525
1856.41926	2977.525
1859.57004	2980.225
1862.71876	2983.925
1865.86542	2981.825
1869.01003	2972.325
1872.15258	2980.025
1875.29308	2974.525
1878.43152	2965.525
1881.56792	2957.725
1884.70227	2959.025
1887.83457	2945.425
1890.96482	2959.325
1894.09304	2943.925
1897.21921	2934.025
1900.34335	2934.925
1903.46544	2937.525
1906.58551	2943.725
1909.70353	2934.625
1912.81953	2923.025
1915.93349	2910.825
1919.04543	2908.425
1922.15534	2901.425
1925.26322	2904.425
1928.36908	2891.125
1931.47292	2875.925
1934.57473	2873.025
1937.67453	2874.125
1940.77232	2863.325
1943.86808	2841.025
1946.96184	2843.825
1950.05358	2827.625
1953.14331	2840.425
1956.23103	2814.325
1959.31675	2811.725
1962.40046	2801.025
1965.48217	2803.525
1968.56188	2788.325
1971.63959	2789.125
1974.7153	2764.625
1977.78901	2756.725
1980.86073	2753.925
1983.93046	2748.025
1986.99819	2745.325
1990.06394	2722.825
1993.1277	2724.125
1996.18947	2718.925
1999.24925	2710.925
2002.30706	2697.525
2005.36288	2696.725
2008.41672	2688.725
2011.46859	2668.225
2014.51848	2658.225
2017.56639	2649.725
2020.61233	2652.125
2023.6563	2644.525
2026.6983	2645.425
2029.73833	2633.025
2032.7764	2620.925
2035.8125	2617.525
2038.84664	2605.825
2041.87881	2612.325
2044.90903	2596.125
2047.93729	2597.425
2050.96359	2591.325
2053.98794	2591.625
2057.01034	2595.625
2060.03078	2591.425
2063.04927	2587.725
2066.06582	2590.625
2069.08042	2584.025
2072.09307	2590.225
2075.10378	2571.525
2078.11255	2581.825
2081.11938	2579.025
2084.12426	2572.725
2087.12722	2576.625
2090.12824	2585.525
2093.12732	2579.625
2096.12447	2579.325
2099.11969	2573.225
2102.11299	2571.925
2105.10435	2566.325
2108.09379	2572.825
2111.08131	2563.125
2114.0669	2574.925
2117.05057	2576.125
2120.03233	2574.125
2123.01216	2569.425
2125.99008	2568.725
2128.96609	2569.025
2131.94018	2572.325
2134.91236	2574.325
2137.88263	2575.825
2140.851	2580.125
2143.81746	2582.725
2146.78201	2574.525
2149.74466	2569.625
2152.7054	2567.525
2155.66425	2570.025
2158.6212	2564.125
2161.57625	2561.925
2164.52941	2567.925
2167.48067	2563.225
2170.43004	2558.625
2173.37752	2569.025
2176.32311	2561.425
2179.26681	2554.725
2182.20863	2558.425
2185.14856	2559.325
2188.08661	2558.425
2191.02278	2556.725
2193.95707	2546.725
2196.88948	2536.325
2199.82001	2541.225
2202.74867	2535.925
2205.67545	2533.825
2208.60037	2543.825
2211.52341	2523.325
2214.44458	2516.025
2217.36388	2510.125
2220.28132	2512.625
2223.1969	2506.625
2226.11061	2491.825
2229.02246	2493.925
2231.93245	2488.425
2234.84058	2484.025
2237.74686	2484.925
2240.65128	2492.025
2243.55385	2474.525
2246.45456	2457.825
2249.35343	2461.125
2252.25044	2455.125
2255.14561	2458.325
2258.03893	2449.225
2260.93041	2450.825
2263.82004	2445.725
2266.70783	2441.725
2269.59378	2430.225
2272.4779	2424.325
2275.36017	2403.925
2278.24061	2403.425
2281.11922	2406.325
2283.996	2406.225
2286.87094	2390.525
2289.74405	2394.625
2292.61534	2382.525
2295.4848	2383.125
2298.35243	2370.125
2301.21824	2356.625
2304.08223	2381.325
2306.94439	2375.425
2309.80474	2364.625
2312.66327	2371.725
2315.51999	2355.425
2318.37489	2360.225
2321.22797	2359.725
2324.07925	2350.325
2326.92871	2347.125
2329.77637	2338.825
2332.62222	2343.425
2335.46626	2320.825
2338.3085	2331.325
2341.14893	2342.425
2343.98756	2317.325
2346.8244	2323.325
2349.65943	2316.725
2352.49267	2333.725
2355.32411	2327.525
2358.15376	2311.925
2360.98161	2320.625
2363.80768	2326.525
2366.63195	2313.125
2369.45444	2309.225
2372.27514	2302.925
2375.09405	2318.925
2377.91118	2297.525
2380.72652	2296.025
2383.54009	2287.025
2386.35187	2291.125
2389.16188	2276.925
2391.97011	2284.525
2394.77657	2279.925
2397.58125	2258.425
2400.38416	2275.125
2403.18529	2264.925
2405.98466	2258.125
2408.78226	2246.925
2411.57809	2260.125
2414.37216	2240.425
2417.16446	2244.125
2419.955	2234.025
2422.74378	2242.625
2425.5308	2237.625
2428.31606	2231.225
2431.09956	2213.825
2433.88131	2226.725
2436.6613	2224.325
2439.43954	2211.025
2442.21603	2204.225
2444.99077	2211.025
2447.76377	2215.325
2450.53501	2216.125
2453.30451	2207.725
2456.07226	2211.125
2458.83827	2194.425
2461.60254	2204.525
2464.36507	2201.925
2467.12586	2199.825
2469.88492	2200.725
2472.64224	2186.725
2475.39782	2193.025
2478.15167	2189.725
2480.90379	2201.525
2483.65417	2189.625
2486.40283	2192.425
2489.14976	2183.225
2491.89497	2178.325
2494.63845	2188.825
2497.3802	2183.825
2500.12024	2189.125
2502.85855	2174.025
2505.59514	2181.525
2508.33002	2174.225
2511.06318	2171.025
2513.79462	2168.225
2516.52435	2161.625
2519.25237	2165.125
2521.97867	2150.525
2524.70327	2152.325
2527.42616	2149.025
2530.14734	2148.325
2532.86681	2134.925
2535.58458	2134.925
2538.30065	2141.725
2541.01501	2135.025
2543.72768	2126.225
2546.43864	2128.325
2549.14791	2119.925
2551.85548	2129.325
2554.56136	2107.825
2557.26554	2118.025
2559.96803	2105.125
2562.66883	2106.125
2565.36794	2104.925
2568.06536	2098.825
2570.7611	2096.225
2573.45514	2097.325
2576.14751	2101.925
2578.83819	2099.725
2581.52719	2092.925
2584.21451	2079.825
2586.90015	2088.725
2589.58411	2080.525
2592.2664	2072.125
2594.94701	2074.125
2597.62594	2075.525
2600.30321	2065.725
2602.9788	2065.025
2605.65273	2071.225
2608.32498	2055.125
2610.99557	2049.525
2613.66449	2050.025
2616.33175	2055.825
2618.99734	2044.525
2621.66128	2049.825
2624.32355	2039.925
2626.98416	2053.425
2629.64311	2037.625
2632.30041	2049.125
2634.95605	2035.025
2637.61004	2033.225
2640.26238	2030.525
2642.91306	2031.625
2645.56209	2031.625
2648.20948	2023.825
2650.85521	2021.725
2653.4993	2024.325
2656.14175	2015.625
2658.78255	2024.525
2661.42171	2025.125
2664.05923	2013.525
2666.6951	2019.425
2669.32934	2027.625
2671.96194	2022.125
2674.59291	2029.025
2677.22224	2025.725
2679.84993	2029.725
2682.476	2013.525
2685.10043	2025.825
2687.72324	2015.525
2690.34441	2020.125
2692.96396	2019.325
2695.58188	2032.725
2698.19818	2026.225
2700.81285	2025.525
2703.4259	2032.425
2706.03733	2054.025
2708.64714	2045.225
2711.25533	2031.025
2713.86191	2042.825
2716.46687	2040.725
2719.07021	2032.925
2721.67194	2027.625
2724.27206	2030.425
2726.87057	2029.025
2729.46747	2039.925
2732.06276	2033.925
2734.65644	2031.625
2737.24852	2019.925
2739.83899	2034.625
2742.42786	2024.825
2745.01513	2028.825
2747.60079	2037.825
2750.18486	2022.925
2752.76733	2021.625
2755.3482	2011.325
2757.92747	2013.825
2760.50515	2020.825
2763.08123	2017.025
2765.65573	2012.825
2768.22863	2021.025
2770.79994	2007.325
2773.36967	2015.725
2775.9378	2008.225
2778.50435	1996.825
2781.06932	2002.625
2783.6327	2007.425
2786.1945	1999.125
2788.75471	1998.925
2791.31335	2011.625
2793.87041	1986.325
2796.42589	1973.125
2798.97979	1968.325
2801.53212	1977.725
2804.08288	1983.325
2806.63206	1965.325
2809.17967	1964.225
2811.72571	1966.625
2814.27018	1963.525
2816.81308	1965.325
2819.35442	1959.025
2821.89419	1954.025
2824.43239	1953.025
2826.96904	1949.625
2829.50412	1957.625
2832.03763	1958.425
2834.56959	1959.025
2837.1	1957.925
2839.62884	1955.025
2842.15613	1965.625
2844.68186	1961.925
2847.20604	1980.725
2849.72867	1969.925
2852.24974	1967.825
2854.76927	1970.125
2857.28724	1982.925
2859.80367	1983.225
2862.31855	1975.025
2864.83189	1975.525
2867.34368	1977.725
2869.85393	1981.625
2872.36264	1988.625
2874.8698	1984.425
2877.37543	1985.125
2879.87952	1990.325
2882.38207	1989.425
2884.88308	1989.025
2887.38256	1999.825
2889.88051	1992.625
2892.37692	1994.325
2894.8718	2001.625
2897.36515	2006.125
2899.85698	2004.525
2902.34727	2009.525
2904.83604	2009.025
2907.32328	2015.725
2909.809	2016.725
2912.29319	2014.925
2914.77587	2014.125
2917.25702	2007.625
2919.73665	2006.425
2922.21476	2009.625
2924.69136	2017.325
2927.16644	2004.625
2929.64	2007.825
2932.11205	2009.125
2934.58258	2009.025
2937.05161	1991.025
2939.51912	1995.325
2941.98513	1998.025
2944.44962	1994.925
2946.91261	1965.225
2949.37409	1987.025
2951.83407	1972.625
2954.29254	1973.125
2956.74951	1968.725
2959.20498	1968.625
2961.65895	1966.825
2964.11142	1962.025
2966.56239	1955.525
2969.01186	1944.625
2971.45984	1935.225
2973.90632	1923.325
2976.35131	1924.225
2978.7948	1932.125
2981.23681	1920.725
2983.67732	1913.825
2986.11635	1916.325
2988.55388	1912.325
2990.98993	1905.025
2993.4245	1898.625
2995.85758	1899.025
2998.28917	1904.025
3000.71928	1899.325
3003.14791	1904.925
3005.57506	1903.625
3008.00073	1894.125
3010.42493	1886.025
3012.84764	1882.025
3015.26888	1891.925
3017.68865	1897.025
3020.10694	1892.025
3022.52376	1895.125
3024.9391	1878.925
3027.35298	1890.325
3029.76539	1898.925
3032.17632	1896.525
3034.5858	1881.325
3036.9938	1888.825
3039.40034	1884.425
3041.80542	1890.625
3044.20903	1886.025
3046.61118	1903.325
3049.01187	1895.525
3051.4111	1893.125
3053.80888	1903.825
3056.20519	1902.325
3058.60005	1895.025
3060.99345	1901.625
3063.3854	1895.525
3065.7759	1889.625
3068.16494	1896.925
3070.55254	1893.625
3072.93868	1896.925
3075.32338	1893.625
3077.70662	1900.625
3080.08842	1899.725
3082.46878	1895.925
3084.84769	1897.625
3087.22515	1904.525
3089.60118	1902.125
3091.97576	1902.825
3094.3489	1916.425
3096.72061	1917.825
3099.09087	1920.725
3101.4597	1928.625
3103.82709	1917.125
3106.19305	1924.025
3108.55757	1931.725
3110.92066	1934.925
3113.28232	1926.125
3115.64255	1933.025
3118.00134	1934.825
3120.35871	1936.625
3122.71466	1944.025
3125.06917	1936.225
3127.42226	1937.825
3129.77393	1952.425
3132.12417	1960.025
3134.47299	1964.025
3136.82039	1968.825
3139.16636	1971.725
3141.51092	1987.925
3143.85406	1985.525
3146.19579	1993.225
3148.53609	2003.425
3150.87499	2004.525
3153.21246	2012.925
3155.54853	2016.625
3157.88318	2022.325
3160.21642	2022.825
3162.54826	2033.425
3164.87868	2030.925
3167.2077	2038.525
3169.5353	2046.825
3171.86151	2050.625
3174.18631	2060.125
3176.5097	2070.725
3178.83169	2059.925
3181.15228	2058.925
3183.47147	2071.825
3185.78926	2072.425
3188.10565	2080.225
3190.42065	2079.625
3192.73424	2082.125
3195.04645	2085.125
3197.35725	2091.525
3199.66667	2096.425
3201.97469	2102.625
3204.28132	2102.425
3206.58656	2114.625
3208.8904	2111.225
3211.19287	2110.425
3213.49394	2115.725
3215.79363	2125.325
3218.09193	2133.825
3220.38884	2129.525
3222.68438	2145.025
3224.97853	2132.325
3227.2713	2146.425
3229.56269	2133.825
3231.8527	2127.425
3234.14133	2128.325
3236.42858	2126.525
3238.71446	2129.025
