Data from AgNPs_FTO_APTES_UA_0.1mM_CRN_1000uM_NaF_0.1M_Addition_RamanShift__23__15-40-57-828.txt Node

Date: Mon Dec 20 15:40:57 GMT 2021
User: TCL
Spectrometer: QEP01345
Trigger mode: 4
Integration Time (sec): 7.000000E0
Scans to average: 10
Electric dark correction enabled: true
Nonlinearity correction enabled: false
Boxcar width: 0
XAxis mode: Raman Shifts
Number of Pixels in Spectrum: 1044
>>>>>Begin Spectral Data<<<<<
46.04893	0.9125
50.45542	-0.7875
54.85868	-2.3875
59.25871	1.5125
63.6555	22.3125
68.04907	22.2125
72.43941	27.4125
76.82654	28.5125
81.21044	27.1125
85.59113	30.8125
89.96862	26.4125
94.34289	32.0125
98.71396	35.3125
103.08183	31.8125
107.4465	32.7125
111.80798	33.5125
116.16626	34.7125
120.52136	37.5125
124.87327	35.8125
129.222	35.9125
133.56755	37.1125
137.90993	41.1125
142.24913	37.8125
146.58517	40.5125
150.91804	47.6125
155.24774	55.8125
159.57429	64.2125
163.89768	76.9125
168.21792	95.0125
172.53501	118.8125
176.84895	159.9125
181.15975	217.4125
185.46741	303.2125
189.77193	413.0125
194.07331	555.0125
198.37157	717.4125
202.6667	897.1125
206.9587	1089.3125
211.24758	1262.2125
215.53334	1449.7125
219.81599	1638.6125
224.09553	1825.6125
228.37195	2023.2125
232.64527	2242.0125
236.91549	2455.4125
241.18261	2641.9125
245.44663	2830.9125
249.70755	2994.7125
253.96539	3119.0125
258.22014	3212.0125
262.4718	3274.2125
266.72039	3297.5125
270.96589	3291.5125
275.20832	3273.4125
279.44768	3226.7125
283.68397	3163.3125
287.91719	3104.2125
292.14735	3071.1125
296.37445	3020.5125
300.59849	2992.4125
304.81948	2982.6125
309.03742	2960.3125
313.25231	2940.6125
317.46415	2906.9125
321.67296	2870.3125
325.87872	2845.9125
330.08145	2832.5125
334.28114	2822.9125
338.47781	2825.8125
342.67145	2842.5125
346.86207	2881.9125
351.04966	2909.8125
355.23424	2939.5125
359.4158	3004.7125
363.59435	3017.8125
367.76989	3055.1125
371.94243	3093.1125
376.11196	3126.3125
380.27849	3160.8125
384.44203	3188.8125
388.60257	3218.9125
392.76012	3256.9125
396.91468	3286.5125
401.06626	3321.7125
405.21485	3330.2125
409.36047	3334.8125
413.50311	3334.1125
417.64277	3324.3125
421.77947	3316.0125
425.9132	3316.2125
430.04396	3334.5125
434.17176	3338.2125
438.2966	3359.1125
442.41849	3378.9125
446.53742	3390.5125
450.6534	3425.5125
454.76644	3468.1125
458.87653	3477.3125
462.98368	3495.4125
467.08789	3496.2125
471.18916	3501.5125
475.2875	3520.8125
479.38291	3543.0125
483.4754	3579.8125
487.56496	3656.9125
491.6516	3721.6125
495.73531	3778.6125
499.81612	3764.5125
503.89401	3716.6125
507.96899	3667.4125
512.04106	3629.5125
516.11023	3636.6125
520.1765	3648.4125
524.23987	3671.1125
528.30034	3689.5125
532.35792	3718.7125
536.41261	3704.5125
540.46441	3646.6125
544.51333	3573.6125
548.55936	3523.5125
552.60252	3489.5125
556.64279	3497.6125
560.6802	3493.1125
564.71473	3495.0125
568.7464	3523.1125
572.7752	3550.3125
576.80114	3572.7125
580.82422	3600.9125
584.84444	3629.4125
588.86181	3681.2125
592.87633	3722.4125
596.888	3724.3125
600.89682	3710.3125
604.9028	3742.3125
608.90594	3886.2125
612.90624	4063.4125
616.90371	4155.7125
620.89834	4107.5125
624.89015	4261.7125
628.87913	4534.3125
632.86528	4845.5125
636.84862	5030.6125
640.82913	4966.9125
644.80683	4719.3125
648.78172	4421.7125
652.75379	4163.6125
656.72306	4014.9125
660.68952	3941.2125
664.65319	3923.2125
668.61405	3924.1125
672.57211	3978.8125
676.52738	4023.2125
680.47986	4046.1125
684.42955	4050.1125
688.37646	3988.9125
692.32058	3954.5125
696.26192	3895.1125
700.20048	3850.0125
704.13626	3818.2125
708.06928	3770.6125
711.99952	3717.5125
715.927	3677.2125
719.85171	3670.9125
723.77365	3694.4125
727.69284	3691.4125
731.60928	3680.8125
735.52295	3609.2125
739.43388	3589.9125
743.34206	3554.9125
747.24749	3567.0125
751.15017	3575.0125
755.05012	3586.8125
758.94733	3597.3125
762.8418	3642.3125
766.73354	3719.2125
770.62254	3752.8125
774.50882	3781.7125
778.39237	3726.3125
782.27321	3642.8125
786.15132	3571.4125
790.02671	3548.2125
793.89938	3558.4125
797.76935	3576.2125
801.6366	3629.8125
805.50115	3748.1125
809.36299	3888.1125
813.22213	3966.4125
817.07857	3916.5125
820.93231	3776.1125
824.78336	3605.9125
828.63172	3481.9125
832.47738	3395.7125
836.32036	3365.7125
840.16066	3344.3125
843.99827	3335.9125
847.8332	3332.2125
851.66546	3324.5125
855.49504	3318.6125
859.32195	3343.6125
863.1462	3381.8125
866.96777	3415.0125
870.78668	3457.0125
874.60293	3521.0125
878.41652	3603.9125
882.22745	3685.6125
886.03573	3755.5125
889.84136	3781.2125
893.64433	3712.4125
897.44466	3576.4125
901.24235	3454.4125
905.0374	3347.6125
908.8298	3263.7125
912.61957	3227.6125
916.40671	3201.6125
920.19121	3199.0125
923.97308	3186.8125
927.75233	3200.0125
931.52895	3193.7125
935.30295	3212.1125
939.07433	3198.2125
942.84309	3161.8125
946.60924	3148.1125
950.37278	3136.0125
954.13371	3127.0125
957.89203	3111.6125
961.64774	3090.7125
965.40086	3087.7125
969.15137	3071.9125
972.89929	3053.2125
976.64461	3035.4125
980.38733	3025.7125
984.12747	3031.1125
987.86502	3033.7125
991.59999	3048.5125
995.33237	3073.9125
999.06217	3097.3125
1002.78939	3148.7125
1006.51404	3182.2125
1010.23611	3254.9125
1013.95561	3294.5125
1017.67255	3309.9125
1021.38692	3304.3125
1025.09872	3243.2125
1028.80796	3199.5125
1032.51465	3135.7125
1036.21877	3105.9125
1039.92035	3073.9125
1043.61937	3073.0125
1047.31584	3056.0125
1051.00976	3055.8125
1054.70114	3096.6125
1058.38998	3099.0125
1062.07627	3124.4125
1065.76003	3161.2125
1069.44126	3179.0125
1073.11995	3209.7125
1076.79611	3234.1125
1080.46974	3194.4125
1084.14085	3151.2125
1087.80943	3097.0125
1091.47549	3047.4125
1095.13903	3034.0125
1098.80005	3019.4125
1102.45857	2989.6125
1106.11456	2997.7125
1109.76805	3005.2125
1113.41903	3068.9125
1117.06751	3150.0125
1120.71348	3284.5125
1124.35696	3492.9125
1127.99793	3742.6125
1131.63641	4008.1125
1135.2724	4186.6125
1138.90589	4223.6125
1142.5369	4107.9125
1146.16542	3896.8125
1149.79145	3654.1125
1153.415	3405.3125
1157.03607	3246.9125
1160.65467	3139.8125
1164.27079	3078.6125
1167.88443	3077.7125
1171.49561	3099.0125
1175.10432	3149.4125
1178.71056	3239.2125
1182.31434	3305.6125
1185.91565	3365.7125
1189.51451	3395.6125
1193.11091	3447.9125
1196.70485	3506.3125
1200.29634	3602.6125
1203.88538	3628.7125
1207.47197	3619.1125
1211.05612	3530.0125
1214.63782	3417.9125
1218.21708	3288.3125
1221.79391	3175.3125
1225.36829	3096.1125
1228.94024	3039.2125
1232.50976	3025.4125
1236.07685	3010.1125
1239.6415	3003.2125
1243.20374	3016.3125
1246.76355	3026.8125
1250.32093	3050.2125
1253.8759	3053.5125
1257.42845	3068.5125
1260.97859	3076.4125
1264.52631	3084.1125
1268.07163	3090.6125
1271.61453	3080.9125
1275.15503	3061.7125
1278.69312	3068.7125
1282.22882	3043.1125
1285.76211	3047.9125
1289.29301	3058.0125
1292.82151	3092.2125
1296.34761	3131.3125
1299.87133	3185.7125
1303.39266	3255.0125
1306.9116	3351.9125
1310.42815	3452.3125
1313.94233	3506.6125
1317.45412	3536.2125
1320.96354	3524.1125
1324.47058	3523.0125
1327.97525	3492.4125
1331.47754	3499.7125
1334.97747	3529.5125
1338.47502	3558.2125
1341.97022	3601.0125
1345.46305	3665.4125
1348.95352	3746.4125
1352.44163	3824.6125
1355.92738	3922.9125
1359.41078	4050.5125
1362.89183	4174.5125
1366.37053	4155.2125
1369.84688	4006.6125
1373.32088	3805.6125
1376.79254	3663.6125
1380.26186	3548.2125
1383.72883	3470.1125
1387.19347	3408.1125
1390.65578	3344.0125
1394.11575	3301.9125
1397.57339	3251.7125
1401.0287	3236.9125
1404.48168	3208.8125
1407.93234	3166.4125
1411.38068	3137.4125
1414.82669	3076.4125
1418.27039	3012.0125
1421.71177	2955.2125
1425.15083	2892.1125
1428.58758	2834.8125
1432.02203	2793.2125
1435.45416	2765.9125
1438.88399	2736.5125
1442.31151	2693.9125
1445.73673	2677.8125
1449.15965	2657.8125
1452.58027	2670.1125
1455.9986	2658.0125
1459.41463	2651.2125
1462.82837	2647.6125
1466.23982	2671.9125
1469.64898	2695.3125
1473.05586	2703.4125
1476.46045	2712.9125
1479.86276	2731.6125
1483.26279	2715.7125
1486.66054	2737.8125
1490.05602	2746.8125
1493.44922	2779.6125
1496.84016	2824.6125
1500.22882	2891.4125
1503.61521	2979.5125
1506.99934	3096.4125
1510.38121	3160.8125
1513.76081	3192.2125
1517.13816	3119.8125
1520.51324	3029.8125
1523.88607	2934.9125
1527.25665	2869.4125
1530.62498	2865.8125
1533.99105	2859.7125
1537.35488	2878.2125
1540.71647	2908.9125
1544.07581	2923.2125
1547.4329	2952.9125
1550.78776	2953.4125
1554.14038	2981.1125
1557.49077	3009.4125
1560.83892	3001.5125
1564.18484	3025.1125
1567.52853	3034.8125
1570.86999	3058.1125
1574.20922	3070.9125
1577.54624	3091.7125
1580.88103	3101.6125
1584.2136	3074.7125
1587.54395	3037.9125
1590.87208	3015.1125
1594.19801	3027.5125
1597.52172	3045.7125
1600.84321	3089.9125
1604.16251	3069.1125
1607.47959	3065.1125
1610.79447	3056.4125
1614.10715	3030.2125
1617.41763	3009.9125
1620.7259	2995.5125
1624.03199	2964.6125
1627.33587	2977.8125
1630.63757	2971.6125
1633.93707	2989.8125
1637.23439	3035.6125
1640.52951	3097.8125
1643.82246	3178.8125
1647.11321	3261.3125
1650.40179	3353.1125
1653.68819	3369.2125
1656.97241	3296.9125
1660.25446	3207.6125
1663.53433	3135.2125
1666.81203	3105.6125
1670.08756	3050.2125
1673.36092	3045.4125
1676.63211	3033.1125
1679.90115	3025.1125
1683.16801	2997.6125
1686.43272	2969.9125
1689.69527	2935.3125
1692.95567	2876.7125
1696.2139	2831.2125
1699.46999	2744.9125
1702.72392	2661.3125
1705.97571	2551.9125
1709.22535	2472.6125
1712.47284	2405.1125
1715.71819	2376.8125
1718.96139	2332.0125
1722.20246	2296.0125
1725.44139	2266.8125
1728.67818	2258.0125
1731.91284	2221.1125
1735.14537	2214.3125
1738.37576	2196.1125
1741.60403	2181.8125
1744.83017	2171.8125
1748.05418	2167.7125
1751.27607	2188.6125
1754.49584	2186.4125
1757.71349	2196.4125
1760.92903	2181.4125
1764.14244	2161.0125
1767.35375	2139.4125
1770.56294	2112.9125
1773.77002	2089.5125
1776.97499	2052.3125
1780.17785	2019.2125
1783.37861	1994.8125
1786.57727	1968.4125
1789.77382	1949.4125
1792.96828	1927.7125
1796.16064	1905.9125
1799.3509	1887.7125
1802.53907	1877.7125
1805.72514	1884.5125
1808.90913	1863.0125
1812.09102	1860.9125
1815.27083	1847.8125
1818.44856	1838.8125
1821.6242	1833.6125
1824.79776	1829.3125
1827.96924	1824.6125
1831.13864	1829.7125
1834.30597	1817.4125
1837.47122	1828.6125
1840.6344	1810.2125
1843.7955	1804.8125
1846.95454	1800.8125
1850.11151	1795.1125
1853.26642	1801.2125
1856.41926	1789.7125
1859.57004	1782.1125
1862.71876	1782.6125
1865.86542	1779.9125
1869.01003	1769.5125
1872.15258	1762.2125
1875.29308	1757.3125
1878.43152	1755.9125
1881.56792	1746.4125
1884.70227	1743.2125
1887.83457	1744.8125
1890.96482	1740.2125
1894.09304	1735.7125
1897.21921	1737.0125
1900.34335	1726.0125
1903.46544	1717.4125
1906.58551	1728.5125
1909.70353	1719.6125
1912.81953	1709.7125
1915.93349	1706.9125
1919.04543	1705.3125
1922.15534	1702.4125
1925.26322	1699.4125
1928.36908	1691.0125
1931.47292	1684.5125
1934.57473	1682.3125
1937.67453	1672.3125
1940.77232	1668.7125
1943.86808	1660.1125
1946.96184	1655.7125
1950.05358	1647.3125
1953.14331	1642.0125
1956.23103	1638.9125
1959.31675	1631.7125
1962.40046	1630.8125
1965.48217	1620.2125
1968.56188	1618.3125
1971.63959	1608.7125
1974.7153	1602.6125
1977.78901	1596.0125
1980.86073	1595.4125
1983.93046	1580.5125
1986.99819	1575.8125
1990.06394	1564.1125
1993.1277	1562.8125
1996.18947	1559.6125
1999.24925	1544.7125
2002.30706	1543.3125
2005.36288	1536.5125
2008.41672	1535.9125
2011.46859	1537.6125
2014.51848	1520.5125
2017.56639	1515.3125
2020.61233	1518.3125
2023.6563	1506.5125
2026.6983	1507.1125
2029.73833	1501.3125
2032.7764	1494.5125
2035.8125	1489.7125
2038.84664	1489.8125
2041.87881	1476.6125
2044.90903	1475.0125
2047.93729	1479.4125
2050.96359	1466.4125
2053.98794	1464.0125
2057.01034	1460.4125
2060.03078	1463.0125
2063.04927	1462.7125
2066.06582	1461.0125
2069.08042	1449.7125
2072.09307	1453.4125
2075.10378	1458.7125
2078.11255	1457.7125
2081.11938	1438.5125
2084.12426	1444.6125
2087.12722	1446.6125
2090.12824	1450.2125
2093.12732	1436.5125
2096.12447	1448.7125
2099.11969	1439.6125
2102.11299	1437.6125
2105.10435	1443.9125
2108.09379	1436.1125
2111.08131	1435.8125
2114.0669	1438.0125
2117.05057	1451.0125
2120.03233	1431.8125
2123.01216	1432.9125
2125.99008	1433.0125
2128.96609	1431.5125
2131.94018	1432.6125
2134.91236	1436.0125
2137.88263	1430.1125
2140.851	1430.1125
2143.81746	1434.7125
2146.78201	1432.3125
2149.74466	1426.7125
2152.7054	1426.8125
2155.66425	1430.1125
2158.6212	1421.7125
2161.57625	1424.7125
2164.52941	1427.4125
2167.48067	1429.7125
2170.43004	1413.0125
2173.37752	1409.4125
2176.32311	1419.6125
2179.26681	1410.7125
2182.20863	1412.5125
2185.14856	1407.7125
2188.08661	1413.5125
2191.02278	1403.9125
2193.95707	1406.7125
2196.88948	1404.4125
2199.82001	1394.3125
2202.74867	1389.8125
2205.67545	1390.3125
2208.60037	1389.2125
2211.52341	1379.9125
2214.44458	1389.8125
2217.36388	1370.9125
2220.28132	1371.5125
2223.1969	1358.1125
2226.11061	1366.9125
2229.02246	1358.7125
2231.93245	1365.1125
2234.84058	1352.8125
2237.74686	1344.0125
2240.65128	1345.3125
2243.55385	1343.9125
2246.45456	1342.8125
2249.35343	1339.7125
2252.25044	1337.5125
2255.14561	1324.8125
2258.03893	1332.5125
2260.93041	1334.8125
2263.82004	1322.0125
2266.70783	1316.0125
2269.59378	1310.3125
2272.4779	1311.8125
2275.36017	1304.9125
2278.24061	1295.0125
2281.11922	1298.3125
2283.996	1290.6125
2286.87094	1291.4125
2289.74405	1289.8125
2292.61534	1279.2125
2295.4848	1273.6125
2298.35243	1283.3125
2301.21824	1276.3125
2304.08223	1277.4125
2306.94439	1277.8125
2309.80474	1271.2125
2312.66327	1266.5125
2315.51999	1266.2125
2318.37489	1253.9125
2321.22797	1252.6125
2324.07925	1254.9125
2326.92871	1256.4125
2329.77637	1250.1125
2332.62222	1244.1125
2335.46626	1244.6125
2338.3085	1236.5125
2341.14893	1242.9125
2343.98756	1229.7125
2346.8244	1239.1125
2349.65943	1226.5125
2352.49267	1234.1125
2355.32411	1222.6125
2358.15376	1222.7125
2360.98161	1225.0125
2363.80768	1227.0125
2366.63195	1207.3125
2369.45444	1219.1125
2372.27514	1218.3125
2375.09405	1219.3125
2377.91118	1205.8125
2380.72652	1200.2125
2383.54009	1201.7125
2386.35187	1207.3125
2389.16188	1201.7125
2391.97011	1200.9125
2394.77657	1183.5125
2397.58125	1181.7125
2400.38416	1189.5125
2403.18529	1183.1125
2405.98466	1185.0125
2408.78226	1181.8125
2411.57809	1175.6125
2414.37216	1169.7125
2417.16446	1174.1125
2419.955	1165.4125
2422.74378	1162.1125
2425.5308	1155.2125
2428.31606	1159.5125
2431.09956	1158.0125
2433.88131	1159.6125
2436.6613	1153.2125
2439.43954	1153.7125
2442.21603	1136.2125
2444.99077	1144.6125
2447.76377	1141.6125
2450.53501	1134.4125
2453.30451	1145.4125
2456.07226	1124.9125
2458.83827	1133.7125
2461.60254	1134.8125
2464.36507	1125.8125
2467.12586	1127.4125
2469.88492	1128.1125
2472.64224	1125.1125
2475.39782	1125.9125
2478.15167	1136.6125
2480.90379	1121.6125
2483.65417	1122.3125
2486.40283	1117.2125
2489.14976	1110.4125
2491.89497	1109.1125
2494.63845	1117.7125
2497.3802	1116.0125
2500.12024	1106.9125
2502.85855	1107.3125
2505.59514	1095.8125
2508.33002	1101.0125
2511.06318	1101.2125
2513.79462	1097.5125
2516.52435	1086.6125
2519.25237	1089.5125
2521.97867	1083.3125
2524.70327	1086.6125
2527.42616	1085.5125
2530.14734	1087.4125
2532.86681	1078.6125
2535.58458	1073.6125
2538.30065	1076.8125
2541.01501	1077.5125
2543.72768	1075.9125
2546.43864	1062.9125
2549.14791	1058.9125
2551.85548	1058.8125
2554.56136	1057.7125
2557.26554	1054.8125
2559.96803	1055.1125
2562.66883	1055.2125
2565.36794	1048.2125
2568.06536	1040.0125
2570.7611	1053.3125
2573.45514	1039.1125
2576.14751	1036.1125
2578.83819	1030.2125
2581.52719	1031.3125
2584.21451	1030.0125
2586.90015	1022.9125
2589.58411	1018.6125
2592.2664	1025.3125
2594.94701	1020.3125
2597.62594	1025.5125
2600.30321	1018.8125
2602.9788	1016.7125
2605.65273	1004.2125
2608.32498	1003.5125
2610.99557	1010.3125
2613.66449	999.3125
2616.33175	997.3125
2618.99734	997.0125
2621.66128	998.2125
2624.32355	998.3125
2626.98416	998.6125
2629.64311	990.3125
2632.30041	993.4125
2634.95605	984.7125
2637.61004	993.1125
2640.26238	983.4125
2642.91306	981.4125
2645.56209	980.2125
2648.20948	987.1125
2650.85521	978.2125
2653.4993	983.2125
2656.14175	982.1125
2658.78255	983.0125
2661.42171	982.3125
2664.05923	974.0125
2666.6951	973.4125
2669.32934	975.0125
2671.96194	973.8125
2674.59291	967.1125
2677.22224	973.1125
2679.84993	972.7125
2682.476	969.4125
2685.10043	971.9125
2687.72324	969.7125
2690.34441	969.7125
2692.96396	967.2125
2695.58188	976.6125
2698.19818	967.1125
2700.81285	969.6125
2703.4259	994.9125
2706.03733	1014.1125
2708.64714	997.9125
2711.25533	983.4125
2713.86191	978.0125
2716.46687	981.7125
2719.07021	974.9125
2721.67194	958.1125
2724.27206	956.0125
2726.87057	966.0125
2729.46747	972.5125
2732.06276	960.9125
2734.65644	964.1125
2737.24852	965.5125
2739.83899	961.5125
2742.42786	959.5125
2745.01513	952.7125
2747.60079	961.3125
2750.18486	948.9125
2752.76733	946.8125
2755.3482	955.1125
2757.92747	948.5125
2760.50515	946.2125
2763.08123	942.5125
2765.65573	935.0125
2768.22863	944.8125
2770.79994	937.5125
2773.36967	943.5125
2775.9378	940.3125
2778.50435	930.7125
2781.06932	930.8125
2783.6327	937.3125
2786.1945	931.0125
2788.75471	926.2125
2791.31335	931.9125
2793.87041	917.7125
2796.42589	918.1125
2798.97979	923.3125
2801.53212	921.1125
2804.08288	922.7125
2806.63206	911.8125
2809.17967	914.1125
2811.72571	913.8125
2814.27018	919.5125
2816.81308	913.7125
2819.35442	912.9125
2821.89419	908.9125
2824.43239	916.7125
2826.96904	913.4125
2829.50412	909.9125
2832.03763	912.6125
2834.56959	919.5125
2837.1	906.5125
2839.62884	900.6125
2842.15613	905.2125
2844.68186	906.5125
2847.20604	907.2125
2849.72867	912.8125
2852.24974	913.4125
2854.76927	909.2125
2857.28724	919.2125
2859.80367	916.2125
2862.31855	907.4125
2864.83189	907.0125
2867.34368	896.3125
2869.85393	901.0125
2872.36264	909.0125
2874.8698	909.0125
2877.37543	908.8125
2879.87952	905.3125
2882.38207	911.7125
2884.88308	911.8125
2887.38256	915.6125
2889.88051	922.9125
2892.37692	921.9125
2894.8718	919.8125
2897.36515	933.1125
2899.85698	932.7125
2902.34727	935.8125
2904.83604	937.8125
2907.32328	942.0125
2909.809	951.8125
2912.29319	950.3125
2914.77587	967.7125
2917.25702	962.9125
2919.73665	961.5125
2922.21476	962.1125
2924.69136	972.4125
2927.16644	972.8125
2929.64	973.2125
2932.11205	968.1125
2934.58258	978.0125
2937.05161	975.9125
2939.51912	969.3125
2941.98513	970.2125
2944.44962	974.9125
2946.91261	977.2125
2949.37409	969.3125
2951.83407	972.4125
2954.29254	975.0125
2956.74951	966.1125
2959.20498	957.0125
2961.65895	948.6125
2964.11142	951.5125
2966.56239	949.0125
2969.01186	945.6125
2971.45984	932.7125
2973.90632	932.0125
2976.35131	927.3125
2978.7948	926.5125
2981.23681	917.9125
2983.67732	920.7125
2986.11635	915.5125
2988.55388	912.0125
2990.98993	915.2125
2993.4245	910.8125
2995.85758	905.0125
2998.28917	906.8125
3000.71928	909.8125
3003.14791	911.9125
3005.57506	912.3125
3008.00073	912.5125
3010.42493	912.5125
3012.84764	909.9125
3015.26888	916.6125
3017.68865	917.4125
3020.10694	918.3125
3022.52376	913.4125
3024.9391	912.1125
3027.35298	905.8125
3029.76539	915.6125
3032.17632	915.7125
3034.5858	908.9125
3036.9938	909.7125
3039.40034	917.8125
3041.80542	910.4125
3044.20903	915.0125
3046.61118	905.4125
3049.01187	906.3125
3051.4111	910.6125
3053.80888	918.1125
3056.20519	913.0125
3058.60005	917.3125
3060.99345	915.8125
3063.3854	916.8125
3065.7759	915.1125
3068.16494	916.6125
3070.55254	917.8125
3072.93868	920.4125
3075.32338	920.4125
3077.70662	927.1125
3080.08842	924.8125
3082.46878	938.7125
3084.84769	934.4125
3087.22515	945.2125
3089.60118	941.9125
3091.97576	953.5125
3094.3489	946.7125
3096.72061	956.1125
3099.09087	949.3125
3101.4597	965.1125
3103.82709	968.4125
3106.19305	966.6125
3108.55757	973.2125
3110.92066	972.7125
3113.28232	982.0125
3115.64255	977.8125
3118.00134	984.5125
3120.35871	985.8125
3122.71466	993.1125
3125.06917	982.3125
3127.42226	991.0125
3129.77393	1002.1125
3132.12417	1011.6125
3134.47299	1026.9125
3136.82039	1015.6125
3139.16636	1020.8125
3141.51092	1031.2125
3143.85406	1039.2125
3146.19579	1047.2125
3148.53609	1053.9125
