Data from AgNPs_FTO_APTES_UA_0.1mM_CRN_1000uM_NaF_0.1M_Addition_RamanShift__19__15-36-17-823.txt Node

Date: Mon Dec 20 15:36:17 GMT 2021
User: TCL
Spectrometer: QEP01345
Trigger mode: 4
Integration Time (sec): 7.000000E0
Scans to average: 10
Electric dark correction enabled: true
Nonlinearity correction enabled: false
Boxcar width: 0
XAxis mode: Raman Shifts
Number of Pixels in Spectrum: 1044
>>>>>Begin Spectral Data<<<<<
46.04893	0.5125
50.45542	-0.2875
54.85868	-0.4875
59.25871	0.8125
63.6555	19.6125
68.04907	21.7125
72.43941	22.7125
76.82654	26.7125
81.21044	27.7125
85.59113	33.5125
89.96862	28.6125
94.34289	30.8125
98.71396	29.8125
103.08183	31.5125
107.4465	31.8125
111.80798	36.3125
116.16626	33.4125
120.52136	33.7125
124.87327	33.9125
129.222	34.2125
133.56755	35.4125
137.90993	39.4125
142.24913	37.2125
146.58517	38.1125
150.91804	44.3125
155.24774	51.8125
159.57429	55.9125
163.89768	69.9125
168.21792	88.7125
172.53501	111.4125
176.84895	149.8125
181.15975	203.3125
185.46741	279.1125
189.77193	386.4125
194.07331	519.6125
198.37157	675.9125
202.6667	852.0125
206.9587	1020.4125
211.24758	1193.1125
215.53334	1385.1125
219.81599	1564.8125
224.09553	1758.6125
228.37195	1957.0125
232.64527	2158.9125
236.91549	2370.2125
241.18261	2555.9125
245.44663	2724.4125
249.70755	2870.8125
253.96539	2974.1125
258.22014	3055.1125
262.4718	3097.6125
266.72039	3107.5125
270.96589	3099.5125
275.20832	3050.0125
279.44768	2993.5125
283.68397	2932.9125
287.91719	2868.7125
292.14735	2812.8125
296.37445	2768.2125
300.59849	2745.6125
304.81948	2716.6125
309.03742	2697.5125
313.25231	2662.5125
317.46415	2645.7125
321.67296	2603.4125
325.87872	2592.6125
330.08145	2563.4125
334.28114	2573.4125
338.47781	2581.3125
342.67145	2587.8125
346.86207	2619.2125
351.04966	2657.6125
355.23424	2690.9125
359.4158	2707.5125
363.59435	2752.4125
367.76989	2767.6125
371.94243	2798.9125
376.11196	2832.4125
380.27849	2867.6125
384.44203	2894.8125
388.60257	2926.4125
392.76012	2941.7125
396.91468	2977.8125
401.06626	2991.4125
405.21485	3015.7125
409.36047	3025.5125
413.50311	3025.2125
417.64277	3005.5125
421.77947	3016.3125
425.9132	3015.9125
430.04396	3038.0125
434.17176	3030.6125
438.2966	3058.9125
442.41849	3066.4125
446.53742	3081.6125
450.6534	3104.5125
454.76644	3134.7125
458.87653	3149.6125
462.98368	3167.6125
467.08789	3168.8125
471.18916	3182.5125
475.2875	3189.6125
479.38291	3212.6125
483.4754	3247.3125
487.56496	3295.9125
491.6516	3348.3125
495.73531	3381.9125
499.81612	3386.5125
503.89401	3374.2125
507.96899	3328.5125
512.04106	3305.1125
516.11023	3297.7125
520.1765	3294.8125
524.23987	3316.4125
528.30034	3319.4125
532.35792	3324.8125
536.41261	3310.6125
540.46441	3265.8125
544.51333	3226.9125
548.55936	3177.4125
552.60252	3174.8125
556.64279	3171.0125
560.6802	3175.0125
564.71473	3189.1125
568.7464	3192.1125
572.7752	3233.5125
576.80114	3232.5125
580.82422	3248.6125
584.84444	3279.3125
588.86181	3326.2125
592.87633	3375.6125
596.888	3359.3125
600.89682	3360.0125
604.9028	3378.7125
608.90594	3474.5125
612.90624	3614.2125
616.90371	3678.1125
620.89834	3633.1125
624.89015	3723.7125
628.87913	3917.3125
632.86528	4160.2125
636.84862	4320.3125
640.82913	4307.8125
644.80683	4146.3125
648.78172	3937.8125
652.75379	3765.4125
656.72306	3657.1125
660.68952	3589.8125
664.65319	3574.9125
668.61405	3612.0125
672.57211	3653.0125
676.52738	3724.6125
680.47986	3769.3125
684.42955	3786.7125
688.37646	3734.2125
692.32058	3680.3125
696.26192	3605.3125
700.20048	3540.0125
704.13626	3513.1125
708.06928	3458.1125
711.99952	3396.3125
715.927	3365.9125
719.85171	3348.1125
723.77365	3349.6125
727.69284	3372.3125
731.60928	3350.3125
735.52295	3299.6125
739.43388	3271.5125
743.34206	3248.4125
747.24749	3251.9125
751.15017	3252.7125
755.05012	3258.5125
758.94733	3270.0125
762.8418	3311.9125
766.73354	3365.1125
770.62254	3422.5125
774.50882	3423.2125
778.39237	3377.9125
782.27321	3301.0125
786.15132	3239.6125
790.02671	3227.7125
793.89938	3212.9125
797.76935	3224.7125
801.6366	3262.1125
805.50115	3329.3125
809.36299	3414.9125
813.22213	3467.3125
817.07857	3439.0125
820.93231	3352.2125
824.78336	3222.3125
828.63172	3143.1125
832.47738	3073.5125
836.32036	3051.1125
840.16066	3037.1125
843.99827	3032.9125
847.8332	3016.5125
851.66546	3016.6125
855.49504	3010.0125
859.32195	3026.2125
863.1462	3054.6125
866.96777	3075.0125
870.78668	3099.3125
874.60293	3146.5125
878.41652	3212.2125
882.22745	3266.1125
886.03573	3298.9125
889.84136	3331.6125
893.64433	3279.8125
897.44466	3195.3125
901.24235	3098.7125
905.0374	3035.1125
908.8298	2982.0125
912.61957	2943.2125
916.40671	2925.4125
920.19121	2909.4125
923.97308	2909.1125
927.75233	2894.7125
931.52895	2909.8125
935.30295	2903.0125
939.07433	2907.9125
942.84309	2884.0125
946.60924	2868.9125
950.37278	2860.1125
954.13371	2837.9125
957.89203	2825.0125
961.64774	2829.7125
965.40086	2815.4125
969.15137	2813.6125
972.89929	2785.5125
976.64461	2778.3125
980.38733	2778.0125
984.12747	2767.7125
987.86502	2772.6125
991.59999	2790.6125
995.33237	2803.4125
999.06217	2827.0125
1002.78939	2847.8125
1006.51404	2890.8125
1010.23611	2917.0125
1013.95561	2949.8125
1017.67255	2952.5125
1021.38692	2929.5125
1025.09872	2917.7125
1028.80796	2878.1125
1032.51465	2844.4125
1036.21877	2818.1125
1039.92035	2795.1125
1043.61937	2789.7125
1047.31584	2801.5125
1051.00976	2805.0125
1054.70114	2812.5125
1058.38998	2826.7125
1062.07627	2857.7125
1065.76003	2872.3125
1069.44126	2894.5125
1073.11995	2920.4125
1076.79611	2930.7125
1080.46974	2910.6125
1084.14085	2866.9125
1087.80943	2834.6125
1091.47549	2801.9125
1095.13903	2765.0125
1098.80005	2760.0125
1102.45857	2752.7125
1106.11456	2755.3125
1109.76805	2773.1125
1113.41903	2817.2125
1117.06751	2884.2125
1120.71348	3016.1125
1124.35696	3172.4125
1127.99793	3377.6125
1131.63641	3596.9125
1135.2724	3709.1125
1138.90589	3736.9125
1142.5369	3608.6125
1146.16542	3461.0125
1149.79145	3270.9125
1153.415	3087.6125
1157.03607	2968.3125
1160.65467	2885.5125
1164.27079	2843.9125
1167.88443	2822.2125
1171.49561	2827.2125
1175.10432	2874.0125
1178.71056	2937.8125
1182.31434	3003.9125
1185.91565	3055.6125
1189.51451	3070.0125
1193.11091	3086.5125
1196.70485	3112.8125
1200.29634	3143.6125
1203.88538	3167.5125
1207.47197	3150.2125
1211.05612	3093.2125
1214.63782	3019.8125
1218.21708	2941.6125
1221.79391	2864.0125
1225.36829	2806.4125
1228.94024	2782.6125
1232.50976	2768.3125
1236.07685	2741.3125
1239.6415	2756.2125
1243.20374	2771.5125
1246.76355	2777.8125
1250.32093	2795.2125
1253.8759	2816.7125
1257.42845	2826.6125
1260.97859	2822.4125
1264.52631	2838.5125
1268.07163	2851.4125
1271.61453	2838.6125
1275.15503	2823.1125
1278.69312	2813.4125
1282.22882	2802.8125
1285.76211	2811.1125
1289.29301	2822.4125
1292.82151	2844.4125
1296.34761	2877.4125
1299.87133	2933.0125
1303.39266	2976.2125
1306.9116	3046.1125
1310.42815	3136.9125
1313.94233	3206.5125
1317.45412	3212.1125
1320.96354	3190.3125
1324.47058	3187.6125
1327.97525	3166.8125
1331.47754	3171.9125
1334.97747	3181.6125
1338.47502	3202.0125
1341.97022	3247.1125
1345.46305	3304.4125
1348.95352	3364.2125
1352.44163	3449.8125
1355.92738	3520.3125
1359.41078	3619.8125
1362.89183	3722.7125
1366.37053	3723.6125
1369.84688	3594.2125
1373.32088	3439.8125
1376.79254	3325.0125
1380.26186	3248.1125
1383.72883	3181.0125
1387.19347	3126.1125
1390.65578	3073.4125
1394.11575	3010.4125
1397.57339	2977.6125
1401.0287	2935.1125
1404.48168	2920.9125
1407.93234	2887.6125
1411.38068	2842.4125
1414.82669	2805.6125
1418.27039	2755.6125
1421.71177	2709.9125
1425.15083	2664.3125
1428.58758	2607.1125
1432.02203	2575.4125
1435.45416	2524.7125
1438.88399	2504.5125
1442.31151	2475.8125
1445.73673	2460.2125
1449.15965	2461.7125
1452.58027	2458.8125
1455.9986	2455.7125
1459.41463	2454.1125
1462.82837	2455.7125
1466.23982	2474.2125
1469.64898	2488.5125
1473.05586	2495.4125
1476.46045	2489.5125
1479.86276	2499.1125
1483.26279	2512.2125
1486.66054	2520.3125
1490.05602	2523.6125
1493.44922	2546.2125
1496.84016	2572.1125
1500.22882	2635.4125
1503.61521	2714.9125
1506.99934	2801.8125
1510.38121	2878.4125
1513.76081	2892.6125
1517.13816	2854.2125
1520.51324	2757.5125
1523.88607	2691.9125
1527.25665	2658.7125
1530.62498	2634.5125
1533.99105	2639.2125
1537.35488	2643.1125
1540.71647	2644.2125
1544.07581	2665.3125
1547.4329	2681.3125
1550.78776	2695.1125
1554.14038	2706.1125
1557.49077	2716.5125
1560.83892	2741.9125
1564.18484	2746.7125
1567.52853	2759.0125
1570.86999	2775.1125
1574.20922	2793.9125
1577.54624	2823.0125
1580.88103	2822.5125
1584.2136	2800.6125
1587.54395	2753.1125
1590.87208	2739.5125
1594.19801	2714.3125
1597.52172	2749.9125
1600.84321	2761.1125
1604.16251	2746.7125
1607.47959	2746.3125
1610.79447	2728.2125
1614.10715	2696.9125
1617.41763	2668.3125
1620.7259	2660.6125
1624.03199	2660.4125
1627.33587	2661.6125
1630.63757	2666.5125
1633.93707	2683.6125
1637.23439	2727.5125
1640.52951	2775.2125
1643.82246	2868.2125
1647.11321	2940.6125
1650.40179	3028.1125
1653.68819	3026.3125
1656.97241	3007.2125
1660.25446	2924.9125
1663.53433	2882.6125
1666.81203	2856.3125
1670.08756	2837.0125
1673.36092	2833.8125
1676.63211	2840.9125
1679.90115	2833.1125
1683.16801	2811.4125
1686.43272	2789.3125
1689.69527	2741.3125
1692.95567	2693.8125
1696.2139	2626.7125
1699.46999	2571.4125
1702.72392	2494.3125
1705.97571	2396.8125
1709.22535	2316.2125
1712.47284	2276.5125
1715.71819	2235.4125
1718.96139	2191.8125
1722.20246	2184.0125
1725.44139	2143.4125
1728.67818	2133.9125
1731.91284	2093.2125
1735.14537	2080.0125
1738.37576	2064.9125
1741.60403	2047.4125
1744.83017	2039.8125
1748.05418	2028.0125
1751.27607	2039.9125
1754.49584	2060.9125
1757.71349	2073.7125
1760.92903	2059.0125
1764.14244	2050.0125
1767.35375	2024.4125
1770.56294	1990.6125
1773.77002	1954.8125
1776.97499	1931.1125
1780.17785	1897.1125
1783.37861	1858.1125
1786.57727	1835.6125
1789.77382	1810.9125
1792.96828	1797.9125
1796.16064	1775.0125
1799.3509	1752.6125
1802.53907	1741.8125
1805.72514	1732.6125
1808.90913	1723.5125
1812.09102	1708.8125
1815.27083	1701.3125
1818.44856	1696.8125
1821.6242	1689.9125
1824.79776	1684.4125
1827.96924	1679.4125
1831.13864	1666.4125
1834.30597	1661.0125
1837.47122	1662.9125
1840.6344	1660.0125
1843.7955	1652.5125
1846.95454	1660.2125
1850.11151	1652.2125
1853.26642	1638.9125
1856.41926	1642.0125
1859.57004	1640.3125
1862.71876	1644.1125
1865.86542	1638.5125
1869.01003	1622.5125
1872.15258	1615.8125
1875.29308	1621.4125
1878.43152	1622.9125
1881.56792	1609.4125
1884.70227	1605.3125
1887.83457	1604.7125
1890.96482	1592.0125
1894.09304	1593.5125
1897.21921	1595.6125
1900.34335	1585.9125
1903.46544	1581.3125
1906.58551	1580.7125
1909.70353	1576.8125
1912.81953	1567.3125
1915.93349	1573.7125
1919.04543	1564.1125
1922.15534	1557.3125
1925.26322	1555.6125
1928.36908	1545.3125
1931.47292	1552.4125
1934.57473	1546.8125
1937.67453	1527.5125
1940.77232	1528.9125
1943.86808	1524.7125
1946.96184	1521.0125
1950.05358	1517.8125
1953.14331	1516.0125
1956.23103	1505.3125
1959.31675	1497.3125
1962.40046	1485.2125
1965.48217	1488.6125
1968.56188	1482.6125
1971.63959	1476.8125
1974.7153	1469.1125
1977.78901	1465.1125
1980.86073	1460.0125
1983.93046	1456.4125
1986.99819	1449.1125
1990.06394	1444.7125
1993.1277	1441.9125
1996.18947	1431.9125
1999.24925	1427.1125
2002.30706	1423.8125
2005.36288	1412.7125
2008.41672	1414.0125
2011.46859	1411.5125
2014.51848	1399.0125
2017.56639	1399.3125
2020.61233	1392.7125
2023.6563	1379.8125
2026.6983	1385.2125
2029.73833	1369.6125
2032.7764	1367.3125
2035.8125	1366.8125
2038.84664	1356.1125
2041.87881	1359.5125
2044.90903	1355.5125
2047.93729	1357.2125
2050.96359	1354.0125
2053.98794	1351.1125
2057.01034	1348.0125
2060.03078	1349.0125
2063.04927	1337.0125
2066.06582	1345.6125
2069.08042	1346.3125
2072.09307	1334.9125
2075.10378	1335.6125
2078.11255	1322.3125
2081.11938	1323.0125
2084.12426	1333.6125
2087.12722	1319.4125
2090.12824	1324.0125
2093.12732	1322.6125
2096.12447	1327.3125
2099.11969	1322.9125
2102.11299	1318.3125
2105.10435	1318.4125
2108.09379	1310.4125
2111.08131	1318.9125
2114.0669	1318.7125
2117.05057	1319.6125
2120.03233	1319.6125
2123.01216	1322.8125
2125.99008	1307.4125
2128.96609	1315.0125
2131.94018	1317.4125
2134.91236	1316.2125
2137.88263	1315.7125
2140.851	1312.5125
2143.81746	1321.0125
2146.78201	1313.9125
2149.74466	1306.3125
2152.7054	1302.7125
2155.66425	1315.7125
2158.6212	1315.2125
2161.57625	1310.1125
2164.52941	1306.0125
2167.48067	1305.2125
2170.43004	1301.2125
2173.37752	1294.2125
2176.32311	1303.5125
2179.26681	1297.5125
2182.20863	1296.3125
2185.14856	1295.2125
2188.08661	1287.4125
2191.02278	1291.8125
2193.95707	1283.4125
2196.88948	1288.4125
2199.82001	1287.2125
2202.74867	1284.4125
2205.67545	1275.8125
2208.60037	1273.1125
2211.52341	1263.5125
2214.44458	1269.6125
2217.36388	1261.2125
2220.28132	1260.2125
2223.1969	1249.3125
2226.11061	1257.8125
2229.02246	1248.7125
2231.93245	1243.7125
2234.84058	1236.0125
2237.74686	1234.8125
2240.65128	1241.4125
2243.55385	1235.6125
2246.45456	1231.9125
2249.35343	1225.7125
2252.25044	1220.1125
2255.14561	1214.7125
2258.03893	1221.7125
2260.93041	1228.7125
2263.82004	1207.4125
2266.70783	1212.9125
2269.59378	1205.7125
2272.4779	1209.5125
2275.36017	1188.3125
2278.24061	1186.5125
2281.11922	1191.9125
2283.996	1180.3125
2286.87094	1186.1125
2289.74405	1184.9125
2292.61534	1174.8125
2295.4848	1171.9125
2298.35243	1168.4125
2301.21824	1177.4125
2304.08223	1170.3125
2306.94439	1163.5125
2309.80474	1162.7125
2312.66327	1160.9125
2315.51999	1160.0125
2318.37489	1152.4125
2321.22797	1156.0125
2324.07925	1149.6125
2326.92871	1153.6125
2329.77637	1148.9125
2332.62222	1146.9125
2335.46626	1145.4125
2338.3085	1147.2125
2341.14893	1134.1125
2343.98756	1130.7125
2346.8244	1127.8125
2349.65943	1124.0125
2352.49267	1130.0125
2355.32411	1120.9125
2358.15376	1113.9125
2360.98161	1116.5125
2363.80768	1120.0125
2366.63195	1122.0125
2369.45444	1112.3125
2372.27514	1108.0125
2375.09405	1115.1125
2377.91118	1114.8125
2380.72652	1099.5125
2383.54009	1101.6125
2386.35187	1102.6125
2389.16188	1097.8125
2391.97011	1095.6125
2394.77657	1092.6125
2397.58125	1081.9125
2400.38416	1089.8125
2403.18529	1086.0125
2405.98466	1088.8125
2408.78226	1078.6125
2411.57809	1072.3125
2414.37216	1074.8125
2417.16446	1074.9125
2419.955	1067.1125
2422.74378	1077.0125
2425.5308	1063.4125
2428.31606	1066.8125
2431.09956	1052.2125
2433.88131	1058.9125
2436.6613	1057.3125
2439.43954	1052.9125
2442.21603	1049.1125
2444.99077	1045.3125
2447.76377	1043.4125
2450.53501	1044.9125
2453.30451	1049.4125
2456.07226	1042.8125
2458.83827	1037.4125
2461.60254	1040.1125
2464.36507	1032.9125
2467.12586	1032.4125
2469.88492	1031.8125
2472.64224	1030.2125
2475.39782	1037.3125
2478.15167	1038.9125
2480.90379	1021.9125
2483.65417	1023.0125
2486.40283	1026.1125
2489.14976	1027.2125
2491.89497	1023.6125
2494.63845	1025.8125
2497.3802	1021.9125
2500.12024	1020.4125
2502.85855	1020.3125
2505.59514	1012.9125
2508.33002	1009.6125
2511.06318	1015.8125
2513.79462	1005.4125
2516.52435	999.2125
2519.25237	1007.4125
2521.97867	996.9125
2524.70327	994.9125
2527.42616	994.1125
2530.14734	999.4125
2532.86681	989.4125
2535.58458	989.4125
2538.30065	982.7125
2541.01501	993.8125
2543.72768	991.6125
2546.43864	981.4125
2549.14791	973.4125
2551.85548	977.1125
2554.56136	970.2125
2557.26554	966.7125
2559.96803	964.4125
2562.66883	963.1125
2565.36794	958.5125
2568.06536	958.3125
2570.7611	964.2125
2573.45514	956.1125
2576.14751	956.8125
2578.83819	948.9125
2581.52719	952.3125
2584.21451	948.7125
2586.90015	944.2125
2589.58411	935.9125
2592.2664	942.2125
2594.94701	931.6125
2597.62594	933.9125
2600.30321	928.5125
2602.9788	927.4125
2605.65273	930.5125
2608.32498	931.6125
2610.99557	917.7125
2613.66449	915.8125
2616.33175	923.4125
2618.99734	918.1125
2621.66128	912.7125
2624.32355	913.8125
2626.98416	909.2125
2629.64311	907.7125
2632.30041	907.2125
2634.95605	913.9125
2637.61004	904.9125
2640.26238	905.7125
2642.91306	904.1125
2645.56209	903.0125
2648.20948	902.0125
2650.85521	902.3125
2653.4993	901.4125
2656.14175	897.2125
2658.78255	897.2125
2661.42171	890.0125
2664.05923	899.6125
2666.6951	893.1125
2669.32934	897.0125
2671.96194	885.2125
2674.59291	896.5125
2677.22224	893.8125
2679.84993	886.9125
2682.476	888.8125
2685.10043	889.4125
2687.72324	888.4125
2690.34441	896.2125
2692.96396	888.5125
2695.58188	895.5125
2698.19818	897.0125
2700.81285	891.0125
2703.4259	907.1125
2706.03733	931.8125
2708.64714	918.4125
2711.25533	898.5125
2713.86191	897.8125
2716.46687	894.9125
2719.07021	889.7125
2721.67194	892.2125
2724.27206	880.9125
2726.87057	883.7125
2729.46747	884.4125
2732.06276	881.6125
2734.65644	889.0125
2737.24852	878.4125
2739.83899	882.0125
2742.42786	883.7125
2745.01513	879.6125
2747.60079	882.3125
2750.18486	881.7125
2752.76733	876.8125
2755.3482	879.3125
2757.92747	869.6125
2760.50515	868.6125
2763.08123	864.8125
2765.65573	867.4125
2768.22863	866.0125
2770.79994	859.9125
2773.36967	862.5125
2775.9378	855.6125
2778.50435	855.8125
2781.06932	851.9125
2783.6327	863.4125
2786.1945	854.8125
2788.75471	852.7125
2791.31335	851.4125
2793.87041	847.5125
2796.42589	841.7125
2798.97979	841.1125
2801.53212	842.6125
2804.08288	841.2125
2806.63206	841.6125
2809.17967	843.3125
2811.72571	836.7125
2814.27018	838.2125
2816.81308	840.2125
2819.35442	835.5125
2821.89419	838.7125
2824.43239	835.1125
2826.96904	834.8125
2829.50412	837.1125
2832.03763	836.3125
2834.56959	835.8125
2837.1	833.0125
2839.62884	822.4125
2842.15613	837.2125
2844.68186	829.6125
2847.20604	837.6125
2849.72867	830.0125
2852.24974	835.7125
2854.76927	837.7125
2857.28724	841.5125
2859.80367	835.2125
2862.31855	827.1125
2864.83189	826.8125
2867.34368	828.4125
2869.85393	827.2125
2872.36264	824.1125
2874.8698	832.1125
2877.37543	837.2125
2879.87952	829.4125
2882.38207	834.0125
2884.88308	829.6125
2887.38256	837.7125
2889.88051	835.9125
2892.37692	839.5125
2894.8718	840.2125
2897.36515	850.9125
2899.85698	846.7125
2902.34727	856.2125
2904.83604	847.2125
2907.32328	864.7125
2909.809	868.2125
2912.29319	869.3125
2914.77587	876.5125
2917.25702	871.5125
2919.73665	870.3125
2922.21476	881.6125
2924.69136	880.5125
2927.16644	884.5125
2929.64	885.3125
2932.11205	890.9125
2934.58258	886.1125
2937.05161	891.3125
2939.51912	888.7125
2941.98513	888.1125
2944.44962	889.0125
2946.91261	886.0125
2949.37409	892.7125
2951.83407	889.5125
2954.29254	886.2125
2956.74951	894.4125
2959.20498	886.3125
2961.65895	878.6125
2964.11142	873.9125
2966.56239	878.9125
2969.01186	870.6125
2971.45984	863.3125
2973.90632	856.4125
2976.35131	850.1125
2978.7948	853.6125
2981.23681	843.5125
2983.67732	842.6125
2986.11635	843.3125
2988.55388	846.7125
2990.98993	849.6125
2993.4245	838.5125
2995.85758	839.7125
2998.28917	842.4125
3000.71928	836.2125
3003.14791	841.3125
3005.57506	837.0125
3008.00073	838.3125
3010.42493	835.6125
3012.84764	844.9125
3015.26888	840.2125
3017.68865	844.3125
3020.10694	844.8125
3022.52376	841.5125
3024.9391	845.5125
3027.35298	836.8125
3029.76539	834.9125
3032.17632	836.8125
3034.5858	833.3125
3036.9938	837.6125
3039.40034	843.7125
3041.80542	835.5125
3044.20903	831.3125
3046.61118	836.1125
3049.01187	837.9125
3051.4111	847.5125
3053.80888	836.7125
3056.20519	842.6125
3058.60005	842.7125
3060.99345	837.8125
3063.3854	851.5125
3065.7759	843.3125
3068.16494	843.7125
3070.55254	846.0125
3072.93868	841.8125
3075.32338	850.8125
3077.70662	852.7125
3080.08842	853.3125
3082.46878	858.5125
3084.84769	859.7125
3087.22515	866.2125
3089.60118	870.8125
3091.97576	872.0125
3094.3489	878.9125
3096.72061	883.6125
3099.09087	891.5125
3101.4597	887.2125
3103.82709	894.9125
3106.19305	892.0125
3108.55757	895.3125
3110.92066	903.1125
3113.28232	908.2125
3115.64255	909.7125
3118.00134	911.7125
3120.35871	904.2125
3122.71466	912.2125
3125.06917	913.8125
3127.42226	917.1125
3129.77393	926.1125
3132.12417	938.5125
3134.47299	943.5125
3136.82039	937.7125
3139.16636	946.7125
3141.51092	954.5125
3143.85406	962.2125
3146.19579	973.9125
3148.53609	970.5125
3150.87499	991.5125
3153.21246	992.6125
3155.54853	999.3125
