Data from AgNPs_FTO_APTES_UA_0.1mM_CRN_0uM_NaF_0.1M_Addition_RamanShift__57__11-09-07-521.txt Node

Date: Mon Dec 20 11:09:07 GMT 2021
User: TCL
Spectrometer: QEP01345
Trigger mode: 4
Integration Time (sec): 7.000000E0
Scans to average: 10
Electric dark correction enabled: true
Nonlinearity correction enabled: false
Boxcar width: 0
XAxis mode: Raman Shifts
Number of Pixels in Spectrum: 1044
>>>>>Begin Spectral Data<<<<<
46.04893	0.075
50.45542	-0.925
54.85868	-0.125
59.25871	0.775
63.6555	30.175
68.04907	34.075
72.43941	33.175
76.82654	36.875
81.21044	36.275
85.59113	41.175
89.96862	36.275
94.34289	43.075
98.71396	43.075
103.08183	41.675
107.4465	47.575
111.80798	46.475
116.16626	46.875
120.52136	53.375
124.87327	52.775
129.222	52.875
133.56755	54.675
137.90993	60.275
142.24913	60.975
146.58517	68.375
150.91804	79.075
155.24774	90.675
159.57429	108.975
163.89768	136.175
168.21792	180.075
172.53501	231.875
176.84895	319.375
181.15975	441.775
185.46741	606.575
189.77193	846.675
194.07331	1126.075
198.37157	1447.675
202.6667	1800.475
206.9587	2145.675
211.24758	2485.675
215.53334	2808.175
219.81599	3157.575
224.09553	3525.375
228.37195	3921.475
232.64527	4339.675
236.91549	4782.775
241.18261	5228.375
245.44663	5626.575
249.70755	5988.475
253.96539	6316.675
258.22014	6552.575
262.4718	6749.675
266.72039	6872.075
270.96589	6923.175
275.20832	6917.475
279.44768	6841.375
283.68397	6753.775
287.91719	6676.075
292.14735	6608.175
296.37445	6589.275
300.59849	6618.275
304.81948	6667.175
309.03742	6674.975
313.25231	6633.475
317.46415	6530.075
321.67296	6316.875
325.87872	6178.475
330.08145	6070.575
334.28114	6037.275
338.47781	6100.975
342.67145	6156.875
346.86207	6234.375
351.04966	6405.575
355.23424	6564.875
359.4158	6717.475
363.59435	6837.475
367.76989	6898.575
371.94243	6971.175
376.11196	7009.175
380.27849	7073.675
384.44203	7142.575
388.60257	7161.475
392.76012	7234.375
396.91468	7298.975
401.06626	7380.575
405.21485	7461.975
409.36047	7429.875
413.50311	7355.775
417.64277	7219.075
421.77947	7169.475
425.9132	7157.275
430.04396	7173.175
434.17176	7206.175
438.2966	7282.675
442.41849	7390.475
446.53742	7530.675
450.6534	7696.575
454.76644	7820.075
458.87653	7823.475
462.98368	7746.475
467.08789	7682.575
471.18916	7621.475
475.2875	7611.775
479.38291	7641.975
483.4754	7713.675
487.56496	7825.375
491.6516	7952.575
495.73531	7986.775
499.81612	7937.175
503.89401	7807.175
507.96899	7718.075
512.04106	7652.275
516.11023	7656.275
520.1765	7697.075
524.23987	7746.175
528.30034	7800.975
532.35792	7761.275
536.41261	7672.775
540.46441	7526.375
544.51333	7407.075
548.55936	7353.175
552.60252	7389.675
556.64279	7453.075
560.6802	7498.775
564.71473	7549.275
568.7464	7671.775
572.7752	7799.475
576.80114	7798.975
580.82422	7828.875
584.84444	7943.975
588.86181	8101.875
592.87633	8307.175
596.888	8353.575
600.89682	8289.075
604.9028	8398.875
608.90594	9073.375
612.90624	10084.475
616.90371	10090.875
620.89834	9101.375
624.89015	8899.775
628.87913	9321.575
632.86528	9846.975
636.84862	10112.375
640.82913	9886.875
644.80683	9388.075
648.78172	8777.575
652.75379	8338.275
656.72306	8116.175
660.68952	8029.475
664.65319	7942.275
668.61405	7820.275
672.57211	7783.875
676.52738	7747.975
680.47986	7731.075
684.42955	7722.375
688.37646	7716.175
692.32058	7714.375
696.26192	7679.375
700.20048	7646.675
704.13626	7625.975
708.06928	7537.675
711.99952	7455.575
715.927	7410.175
719.85171	7461.175
723.77365	7509.575
727.69284	7503.575
731.60928	7430.075
735.52295	7349.875
739.43388	7301.175
743.34206	7328.075
747.24749	7356.275
751.15017	7367.075
755.05012	7415.375
758.94733	7499.175
762.8418	7768.175
766.73354	8206.775
770.62254	8667.275
774.50882	8897.075
778.39237	8702.275
782.27321	8222.775
786.15132	7738.275
790.02671	7497.375
793.89938	7431.675
797.76935	7445.775
801.6366	7596.475
805.50115	7845.275
809.36299	8154.675
813.22213	8262.675
817.07857	8120.475
820.93231	7807.475
824.78336	7494.975
828.63172	7263.375
832.47738	7127.975
836.32036	7096.475
840.16066	7049.075
843.99827	7041.575
847.8332	7015.675
851.66546	6987.175
855.49504	6994.775
859.32195	6994.875
863.1462	7012.475
866.96777	7046.275
870.78668	7170.275
874.60293	7345.175
878.41652	7558.675
882.22745	7779.975
886.03573	7868.475
889.84136	7840.775
893.64433	7672.475
897.44466	7366.175
901.24235	7134.375
905.0374	6935.875
908.8298	6801.775
912.61957	6722.775
916.40671	6681.175
920.19121	6694.075
923.97308	6704.775
927.75233	6724.375
931.52895	6712.975
935.30295	6656.075
939.07433	6601.875
942.84309	6532.575
946.60924	6522.875
950.37278	6478.675
954.13371	6483.475
957.89203	6459.575
961.64774	6448.075
965.40086	6401.975
969.15137	6381.975
972.89929	6320.975
976.64461	6316.875
980.38733	6320.475
984.12747	6294.075
987.86502	6338.175
991.59999	6386.975
995.33237	6471.275
999.06217	6607.675
1002.78939	6793.475
1006.51404	6973.275
1010.23611	7112.075
1013.95561	7212.575
1017.67255	7218.875
1021.38692	7128.575
1025.09872	7006.075
1028.80796	6891.675
1032.51465	6815.975
1036.21877	6790.475
1039.92035	6732.075
1043.61937	6666.675
1047.31584	6596.475
1051.00976	6556.875
1054.70114	6535.375
1058.38998	6554.675
1062.07627	6636.575
1065.76003	6686.275
1069.44126	6769.275
1073.11995	6796.475
1076.79611	6813.875
1080.46974	6812.375
1084.14085	6787.475
1087.80943	6789.975
1091.47549	6765.475
1095.13903	6693.275
1098.80005	6588.275
1102.45857	6531.975
1106.11456	6481.875
1109.76805	6520.175
1113.41903	6651.975
1117.06751	6848.375
1120.71348	7168.575
1124.35696	7616.175
1127.99793	8132.075
1131.63641	8591.775
1135.2724	8818.075
1138.90589	8828.675
1142.5369	8587.475
1146.16542	8198.675
1149.79145	7729.975
1153.415	7330.075
1157.03607	7039.875
1160.65467	6893.675
1164.27079	6906.375
1167.88443	7049.075
1171.49561	7298.475
1175.10432	7696.975
1178.71056	8252.875
1182.31434	8758.675
1185.91565	9050.275
1189.51451	9099.775
1193.11091	9057.075
1196.70485	9077.175
1200.29634	9094.575
1203.88538	9049.975
1207.47197	8865.575
1211.05612	8528.075
1214.63782	8168.675
1218.21708	7865.975
1221.79391	7625.475
1225.36829	7453.475
1228.94024	7272.275
1232.50976	7097.575
1236.07685	6984.575
1239.6415	6956.475
1243.20374	6949.775
1246.76355	7006.875
1250.32093	7048.375
1253.8759	7146.375
1257.42845	7282.275
1260.97859	7387.975
1264.52631	7491.475
1268.07163	7596.975
1271.61453	7648.775
1275.15503	7750.675
1278.69312	7793.275
1282.22882	7883.375
1285.76211	8007.175
1289.29301	8204.075
1292.82151	8441.675
1296.34761	8739.975
1299.87133	9146.375
1303.39266	9631.075
1306.9116	10225.075
1310.42815	10895.075
1313.94233	11396.475
1317.45412	11452.475
1320.96354	11180.475
1324.47058	10819.175
1327.97525	10478.775
1331.47754	10259.975
1334.97747	10188.775
1338.47502	10276.075
1341.97022	10355.775
1345.46305	10401.875
1348.95352	10540.275
1352.44163	10830.675
1355.92738	11264.175
1359.41078	12011.275
1362.89183	12703.275
1366.37053	12664.875
1369.84688	11630.975
1373.32088	10454.475
1376.79254	9568.075
1380.26186	9163.275
1383.72883	9013.375
1387.19347	8889.475
1390.65578	8733.675
1394.11575	8623.975
1397.57339	8642.575
1401.0287	8708.075
1404.48168	8760.875
1407.93234	8750.775
1411.38068	8606.675
1414.82669	8343.475
1418.27039	8042.675
1421.71177	7696.575
1425.15083	7425.575
1428.58758	7232.675
1432.02203	7192.975
1435.45416	7238.675
1438.88399	7341.075
1442.31151	7418.075
1445.73673	7457.175
1449.15965	7526.375
1452.58027	7573.375
1455.9986	7531.475
1459.41463	7508.475
1462.82837	7554.375
1466.23982	7675.775
1469.64898	7791.275
1473.05586	7887.675
1476.46045	7890.475
1479.86276	7950.275
1483.26279	8003.175
1486.66054	8044.475
1490.05602	8125.475
1493.44922	8237.575
1496.84016	8354.575
1500.22882	8569.375
1503.61521	8867.875
1506.99934	9359.175
1510.38121	9782.075
1513.76081	9980.975
1517.13816	9750.375
1520.51324	9203.375
1523.88607	8617.475
1527.25665	8237.075
1530.62498	8088.675
1533.99105	8076.775
1537.35488	8080.275
1540.71647	8096.175
1544.07581	8129.375
1547.4329	8097.275
1550.78776	8056.775
1554.14038	8039.875
1557.49077	8037.175
1560.83892	8041.675
1564.18484	8078.775
1567.52853	8156.575
1570.86999	8226.275
1574.20922	8295.575
1577.54624	8334.175
1580.88103	8282.975
1584.2136	8159.975
1587.54395	8180.075
1590.87208	8379.975
1594.19801	8751.775
1597.52172	9235.475
1600.84321	9520.875
1604.16251	9399.975
1607.47959	9006.275
1610.79447	8479.275
1614.10715	7991.775
1617.41763	7637.475
1620.7259	7423.975
1624.03199	7344.175
1627.33587	7393.475
1630.63757	7528.275
1633.93707	7762.675
1637.23439	8190.575
1640.52951	8784.775
1643.82246	9543.775
1647.11321	10316.075
1650.40179	10738.575
1653.68819	10440.675
1656.97241	9590.475
1660.25446	8604.375
1663.53433	7830.475
1666.81203	7280.375
1670.08756	6911.975
1673.36092	6657.775
1676.63211	6486.975
1679.90115	6348.975
1683.16801	6235.375
1686.43272	6097.575
1689.69527	5994.175
1692.95567	5889.375
1696.2139	5812.875
1699.46999	5715.675
1702.72392	5617.475
1705.97571	5517.375
1709.22535	5412.475
1712.47284	5332.075
1715.71819	5275.675
1718.96139	5199.675
1722.20246	5151.975
1725.44139	5095.375
1728.67818	5041.275
1731.91284	4972.575
1735.14537	4902.475
1738.37576	4869.075
1741.60403	4829.275
1744.83017	4812.975
1748.05418	4790.975
1751.27607	4779.175
1754.49584	4765.375
1757.71349	4757.575
1760.92903	4743.875
1764.14244	4713.275
1767.35375	4698.975
1770.56294	4690.475
1773.77002	4663.975
1776.97499	4653.775
1780.17785	4625.975
1783.37861	4583.175
1786.57727	4574.875
1789.77382	4558.375
1792.96828	4543.075
1796.16064	4517.775
1799.3509	4490.575
1802.53907	4475.475
1805.72514	4465.375
1808.90913	4455.175
1812.09102	4432.975
1815.27083	4423.775
1818.44856	4421.475
1821.6242	4400.575
1824.79776	4394.175
1827.96924	4398.575
1831.13864	4376.575
1834.30597	4380.775
1837.47122	4365.275
1840.6344	4361.375
1843.7955	4338.375
1846.95454	4350.475
1850.11151	4337.175
1853.26642	4327.375
1856.41926	4331.875
1859.57004	4312.975
1862.71876	4316.575
1865.86542	4315.075
1869.01003	4303.475
1872.15258	4306.575
1875.29308	4298.175
1878.43152	4280.675
1881.56792	4271.475
1884.70227	4266.075
1887.83457	4280.875
1890.96482	4279.975
1894.09304	4255.475
1897.21921	4244.775
1900.34335	4244.875
1903.46544	4247.175
1906.58551	4237.575
1909.70353	4249.875
1912.81953	4213.775
1915.93349	4217.675
1919.04543	4190.175
1922.15534	4195.575
1925.26322	4185.175
1928.36908	4186.575
1931.47292	4165.775
1934.57473	4132.075
1937.67453	4139.075
1940.77232	4135.175
1943.86808	4122.775
1946.96184	4101.975
1950.05358	4084.875
1953.14331	4076.275
1956.23103	4051.275
1959.31675	4047.775
1962.40046	4041.475
1965.48217	4012.875
1968.56188	4012.575
1971.63959	4015.075
1974.7153	3976.075
1977.78901	3967.475
1980.86073	3958.075
1983.93046	3949.075
1986.99819	3941.875
1990.06394	3903.575
1993.1277	3907.075
1996.18947	3897.175
1999.24925	3883.175
2002.30706	3871.775
2005.36288	3863.475
2008.41672	3847.175
2011.46859	3835.175
2014.51848	3815.275
2017.56639	3785.675
2020.61233	3796.675
2023.6563	3792.975
2026.6983	3780.675
2029.73833	3762.975
2032.7764	3770.375
2035.8125	3751.475
2038.84664	3752.175
2041.87881	3747.375
2044.90903	3735.575
2047.93729	3734.475
2050.96359	3729.075
2053.98794	3725.375
2057.01034	3725.775
2060.03078	3706.375
2063.04927	3712.575
2066.06582	3716.675
2069.08042	3717.175
2072.09307	3691.675
2075.10378	3703.975
2078.11255	3690.575
2081.11938	3678.075
2084.12426	3669.575
2087.12722	3670.075
2090.12824	3692.475
2093.12732	3681.375
2096.12447	3664.075
2099.11969	3671.175
2102.11299	3667.175
2105.10435	3675.275
2108.09379	3669.975
2111.08131	3678.375
2114.0669	3664.775
2117.05057	3677.375
2120.03233	3673.775
2123.01216	3677.675
2125.99008	3692.475
2128.96609	3669.875
2131.94018	3679.975
2134.91236	3669.875
2137.88263	3676.875
2140.851	3683.575
2143.81746	3691.575
2146.78201	3687.475
2149.74466	3682.775
2152.7054	3675.175
2155.66425	3670.275
2158.6212	3664.875
2161.57625	3656.875
2164.52941	3666.475
2167.48067	3664.475
2170.43004	3666.175
2173.37752	3652.575
2176.32311	3665.275
2179.26681	3648.475
2182.20863	3658.675
2185.14856	3655.375
2188.08661	3655.375
2191.02278	3640.775
2193.95707	3644.175
2196.88948	3637.075
2199.82001	3636.975
2202.74867	3637.275
2205.67545	3643.475
2208.60037	3631.275
2211.52341	3621.575
2214.44458	3611.075
2217.36388	3591.675
2220.28132	3602.275
2223.1969	3597.175
2226.11061	3585.575
2229.02246	3571.175
2231.93245	3579.475
2234.84058	3561.975
2237.74686	3546.975
2240.65128	3557.075
2243.55385	3544.675
2246.45456	3526.175
2249.35343	3521.475
2252.25044	3528.675
2255.14561	3530.975
2258.03893	3513.775
2260.93041	3519.675
2263.82004	3500.675
2266.70783	3489.375
2269.59378	3490.675
2272.4779	3465.875
2275.36017	3473.075
2278.24061	3463.575
2281.11922	3429.975
2283.996	3443.675
2286.87094	3439.975
2289.74405	3432.275
2292.61534	3412.675
2295.4848	3411.675
2298.35243	3408.375
2301.21824	3403.375
2304.08223	3408.875
2306.94439	3399.075
2309.80474	3383.675
2312.66327	3399.575
2315.51999	3389.275
2318.37489	3381.475
2321.22797	3389.675
2324.07925	3362.875
2326.92871	3377.575
2329.77637	3366.375
2332.62222	3356.975
2335.46626	3361.475
2338.3085	3360.675
2341.14893	3366.175
2343.98756	3357.075
2346.8244	3354.575
2349.65943	3342.175
2352.49267	3343.875
2355.32411	3334.875
2358.15376	3343.675
2360.98161	3328.575
2363.80768	3336.675
2366.63195	3332.875
2369.45444	3336.575
2372.27514	3319.775
2375.09405	3320.075
2377.91118	3306.275
2380.72652	3306.175
2383.54009	3294.275
2386.35187	3309.375
2389.16188	3277.375
2391.97011	3278.475
2394.77657	3268.475
2397.58125	3267.675
2400.38416	3254.475
2403.18529	3256.875
2405.98466	3254.875
2408.78226	3245.075
2411.57809	3232.375
2414.37216	3211.275
2417.16446	3221.675
2419.955	3212.975
2422.74378	3211.075
2425.5308	3208.075
2428.31606	3197.875
2431.09956	3183.175
2433.88131	3188.775
2436.6613	3182.775
2439.43954	3185.275
2442.21603	3164.675
2444.99077	3158.075
2447.76377	3174.775
2450.53501	3174.775
2453.30451	3167.275
2456.07226	3167.775
2458.83827	3155.975
2461.60254	3156.375
2464.36507	3158.875
2467.12586	3142.175
2469.88492	3143.175
2472.64224	3143.175
2475.39782	3131.175
2478.15167	3147.075
2480.90379	3143.775
2483.65417	3126.475
2486.40283	3132.175
2489.14976	3143.375
2491.89497	3139.175
2494.63845	3132.075
2497.3802	3131.775
2500.12024	3139.275
2502.85855	3131.775
2505.59514	3128.875
2508.33002	3119.175
2511.06318	3115.075
2513.79462	3112.875
2516.52435	3101.775
2519.25237	3092.775
2521.97867	3088.275
2524.70327	3087.375
2527.42616	3093.975
2530.14734	3079.075
2532.86681	3072.975
2535.58458	3070.575
2538.30065	3053.675
2541.01501	3071.275
2543.72768	3053.875
2546.43864	3048.075
2549.14791	3041.775
2551.85548	3034.675
2554.56136	3032.875
2557.26554	3033.175
2559.96803	3028.475
2562.66883	3025.675
2565.36794	3021.575
2568.06536	3014.075
2570.7611	3008.775
2573.45514	3009.175
2576.14751	3002.075
2578.83819	2992.675
2581.52719	2979.775
2584.21451	2978.375
2586.90015	2982.475
2589.58411	2971.875
2592.2664	2967.775
2594.94701	2961.975
2597.62594	2958.675
2600.30321	2962.875
2602.9788	2948.075
2605.65273	2951.575
2608.32498	2943.075
2610.99557	2946.075
2613.66449	2942.975
2616.33175	2941.175
2618.99734	2932.875
2621.66128	2927.875
2624.32355	2933.575
2626.98416	2938.575
2629.64311	2931.875
2632.30041	2927.975
2634.95605	2925.875
2637.61004	2916.975
2640.26238	2910.075
2642.91306	2903.875
2645.56209	2910.075
2648.20948	2905.275
2650.85521	2900.075
2653.4993	2889.975
2656.14175	2895.975
2658.78255	2908.575
2661.42171	2910.475
2664.05923	2891.575
2666.6951	2896.375
2669.32934	2884.875
2671.96194	2900.775
2674.59291	2906.075
2677.22224	2908.275
2679.84993	2899.075
2682.476	2897.175
2685.10043	2899.375
2687.72324	2889.475
2690.34441	2897.075
2692.96396	2894.575
2695.58188	2911.575
2698.19818	2900.875
2700.81285	2902.175
2703.4259	2915.875
2706.03733	2914.275
2708.64714	2901.575
2711.25533	2913.375
2713.86191	2895.875
2716.46687	2908.775
2719.07021	2916.075
2721.67194	2914.075
2724.27206	2901.575
2726.87057	2914.575
2729.46747	2902.875
2732.06276	2895.375
2734.65644	2903.675
2737.24852	2899.575
2739.83899	2886.475
2742.42786	2886.975
2745.01513	2883.375
2747.60079	2885.275
2750.18486	2878.775
2752.76733	2889.275
2755.3482	2887.175
2757.92747	2872.275
2760.50515	2879.875
2763.08123	2870.675
2765.65573	2867.175
2768.22863	2864.575
2770.79994	2859.675
2773.36967	2880.475
2775.9378	2854.075
2778.50435	2867.875
2781.06932	2859.675
2783.6327	2861.075
2786.1945	2855.975
2788.75471	2841.975
2791.31335	2838.375
2793.87041	2844.975
2796.42589	2831.275
2798.97979	2827.675
2801.53212	2814.075
2804.08288	2814.475
2806.63206	2824.575
2809.17967	2810.375
2811.72571	2809.075
2814.27018	2808.375
2816.81308	2802.575
2819.35442	2795.475
2821.89419	2785.275
2824.43239	2807.575
2826.96904	2798.175
2829.50412	2790.075
2832.03763	2782.475
2834.56959	2792.975
2837.1	2768.675
2839.62884	2779.875
2842.15613	2782.275
2844.68186	2773.475
2847.20604	2792.275
2849.72867	2785.675
2852.24974	2793.975
2854.76927	2786.075
2857.28724	2807.675
2859.80367	2794.175
2862.31855	2773.875
2864.83189	2781.075
2867.34368	2789.875
2869.85393	2783.075
2872.36264	2779.175
2874.8698	2787.875
2877.37543	2798.975
2879.87952	2798.575
2882.38207	2787.475
2884.88308	2796.775
2887.38256	2783.675
2889.88051	2796.375
2892.37692	2789.375
2894.8718	2790.075
2897.36515	2803.575
2899.85698	2804.675
2902.34727	2806.775
2904.83604	2807.375
2907.32328	2813.175
2909.809	2807.175
2912.29319	2797.975
2914.77587	2812.675
2917.25702	2804.275
2919.73665	2807.975
2922.21476	2813.475
2924.69136	2800.575
2927.16644	2792.475
2929.64	2795.775
2932.11205	2797.975
2934.58258	2795.575
2937.05161	2797.575
2939.51912	2790.675
2941.98513	2795.075
2944.44962	2776.175
2946.91261	2779.575
2949.37409	2776.375
2951.83407	2768.975
2954.29254	2763.475
2956.74951	2761.375
2959.20498	2755.775
2961.65895	2746.675
2964.11142	2744.775
2966.56239	2752.375
2969.01186	2741.575
2971.45984	2749.575
2973.90632	2715.075
2976.35131	2726.875
2978.7948	2725.175
2981.23681	2710.675
2983.67732	2722.875
2986.11635	2710.875
2988.55388	2700.075
2990.98993	2701.075
2993.4245	2685.575
2995.85758	2686.175
2998.28917	2685.275
3000.71928	2684.675
3003.14791	2692.275
3005.57506	2694.575
3008.00073	2811.375
3010.42493	2689.775
3012.84764	2680.275
3015.26888	2682.575
3017.68865	2668.375
3020.10694	2672.175
3022.52376	2673.775
3024.9391	2668.475
3027.35298	2670.275
3029.76539	2668.975
3032.17632	2663.075
3034.5858	2667.875
3036.9938	2668.175
3039.40034	2668.975
3041.80542	2676.275
3044.20903	2660.375
3046.61118	2667.775
3049.01187	2666.975
3051.4111	2665.075
3053.80888	2664.775
3056.20519	2655.475
3058.60005	2662.275
3060.99345	2663.075
3063.3854	2658.075
3065.7759	2650.675
3068.16494	2657.175
3070.55254	2640.075
3072.93868	2645.575
3075.32338	2644.375
3077.70662	2648.675
3080.08842	2646.275
3082.46878	2645.675
3084.84769	2648.675
3087.22515	2650.275
3089.60118	2649.975
3091.97576	2651.575
3094.3489	2653.675
3096.72061	2656.475
3099.09087	2682.175
3101.4597	2670.875
3103.82709	2678.575
3106.19305	2675.275
3108.55757	2688.975
3110.92066	2672.675
3113.28232	2677.375
3115.64255	2661.775
3118.00134	2678.875
3120.35871	2674.775
3122.71466	2692.875
3125.06917	2680.275
3127.42226	2686.375
3129.77393	2689.075
3132.12417	2692.075
3134.47299	2700.375
3136.82039	2703.575
3139.16636	2718.775
3141.51092	2713.175
3143.85406	2712.675
3146.19579	2737.275
3148.53609	2722.975
3150.87499	2738.675
3153.21246	2752.475
3155.54853	2761.075
3157.88318	2769.975
3160.21642	2780.575
3162.54826	2781.275
3164.87868	2782.375
3167.2077	2792.975
3169.5353	2798.075
3171.86151	2790.375
3174.18631	2796.875
3176.5097	2796.975
3178.83169	2803.675
3181.15228	2806.475
3183.47147	2806.175
3185.78926	2800.275
3188.10565	2801.075
3190.42065	2822.475
3192.73424	2827.075
3195.04645	2833.875
3197.35725	2824.275
3199.66667	2835.575
3201.97469	2858.875
3204.28132	2859.675
3206.58656	2858.075
3208.8904	2867.575
3211.19287	2878.975
3213.49394	2878.175
3215.79363	2881.275
3218.09193	2876.875
3220.38884	2885.875
3222.68438	2894.575
3224.97853	2889.675
3227.2713	2884.375
3229.56269	2893.375
3231.8527	2890.075
3234.14133	2883.875
