Data from AgNPs_FTO_APTES_UA_0.1mM_CRN_200uM_NaF_0.1M_Addition_RamanShift__8__14-04-07-719.txt Node

Date: Mon Dec 20 14:04:07 GMT 2021
User: TCL
Spectrometer: QEP01345
Trigger mode: 4
Integration Time (sec): 7.000000E0
Scans to average: 10
Electric dark correction enabled: true
Nonlinearity correction enabled: false
Boxcar width: 0
XAxis mode: Raman Shifts
Number of Pixels in Spectrum: 1044
>>>>>Begin Spectral Data<<<<<
46.04893	1.025
50.45542	-0.575
54.85868	-1.175
59.25871	1.125
63.6555	26.925
68.04907	27.725
72.43941	31.025
76.82654	30.425
81.21044	33.825
85.59113	37.125
89.96862	32.725
94.34289	36.125
98.71396	39.125
103.08183	39.025
107.4465	39.525
111.80798	42.425
116.16626	40.125
120.52136	43.225
124.87327	44.725
129.222	44.125
133.56755	44.825
137.90993	47.425
142.24913	54.725
146.58517	56.025
150.91804	66.625
155.24774	75.925
159.57429	85.525
163.89768	108.125
168.21792	137.825
172.53501	179.825
176.84895	238.025
181.15975	330.925
185.46741	452.025
189.77193	627.425
194.07331	825.225
198.37157	1076.425
202.6667	1335.125
206.9587	1605.225
211.24758	1874.825
215.53334	2155.325
219.81599	2432.625
224.09553	2770.225
228.37195	3117.925
232.64527	3525.525
236.91549	3941.825
241.18261	4336.225
245.44663	4674.325
249.70755	4955.725
253.96539	5152.425
258.22014	5261.325
262.4718	5339.125
266.72039	5331.525
270.96589	5274.025
275.20832	5209.325
279.44768	5116.825
283.68397	5001.925
287.91719	4923.325
292.14735	4818.025
296.37445	4753.825
300.59849	4713.025
304.81948	4666.825
309.03742	4647.425
313.25231	4584.425
317.46415	4515.825
321.67296	4442.525
325.87872	4385.625
330.08145	4349.225
334.28114	4336.625
338.47781	4343.325
342.67145	4348.025
346.86207	4376.125
351.04966	4409.825
355.23424	4474.425
359.4158	4514.625
363.59435	4551.925
367.76989	4593.825
371.94243	4653.425
376.11196	4688.725
380.27849	4750.425
384.44203	4796.425
388.60257	4837.825
392.76012	4884.125
396.91468	4930.925
401.06626	4971.925
405.21485	5020.725
409.36047	5014.025
413.50311	5016.325
417.64277	4988.525
421.77947	4977.625
425.9132	4976.725
430.04396	4993.125
434.17176	5013.025
438.2966	5016.025
442.41849	5047.225
446.53742	5065.825
450.6534	5113.825
454.76644	5152.725
458.87653	5172.325
462.98368	5196.025
467.08789	5229.325
471.18916	5239.225
475.2875	5267.725
479.38291	5297.025
483.4754	5385.225
487.56496	5475.525
491.6516	5609.125
495.73531	5728.725
499.81612	5759.425
503.89401	5732.325
507.96899	5649.525
512.04106	5567.725
516.11023	5510.125
520.1765	5509.025
524.23987	5505.525
528.30034	5504.125
532.35792	5532.025
536.41261	5513.225
540.46441	5465.425
544.51333	5411.025
548.55936	5348.825
552.60252	5287.625
556.64279	5291.825
560.6802	5289.925
564.71473	5285.425
568.7464	5312.725
572.7752	5354.625
576.80114	5398.325
580.82422	5467.825
584.84444	5568.625
588.86181	5686.825
592.87633	5740.325
596.888	5709.125
600.89682	5661.225
604.9028	5653.125
608.90594	5819.825
612.90624	6079.025
616.90371	6113.625
620.89834	5957.325
624.89015	6123.625
628.87913	6531.525
632.86528	7012.925
636.84862	7408.225
640.82913	7476.325
644.80683	7230.325
648.78172	6829.925
652.75379	6425.725
656.72306	6133.025
660.68952	5976.625
664.65319	5823.025
668.61405	5733.125
672.57211	5697.625
676.52738	5759.225
680.47986	5814.925
684.42955	5829.325
688.37646	5784.225
692.32058	5708.725
696.26192	5595.825
700.20048	5529.425
704.13626	5478.425
708.06928	5438.425
711.99952	5420.425
715.927	5416.025
719.85171	5436.625
723.77365	5514.325
727.69284	5554.625
731.60928	5542.725
735.52295	5443.525
739.43388	5374.325
743.34206	5334.325
747.24749	5345.425
751.15017	5359.725
755.05012	5367.025
758.94733	5396.325
762.8418	5479.325
766.73354	5612.825
770.62254	5705.825
774.50882	5730.225
778.39237	5620.425
782.27321	5484.725
786.15132	5341.025
790.02671	5279.325
793.89938	5242.025
797.76935	5264.625
801.6366	5342.925
805.50115	5479.925
809.36299	5687.825
813.22213	5840.725
817.07857	5822.225
820.93231	5683.825
824.78336	5479.525
828.63172	5256.625
832.47738	5144.425
836.32036	5078.625
840.16066	5037.125
843.99827	5035.125
847.8332	5043.925
851.66546	5003.225
855.49504	5013.925
859.32195	5037.925
863.1462	5057.625
866.96777	5103.425
870.78668	5174.325
874.60293	5283.525
878.41652	5396.525
882.22745	5536.825
886.03573	5653.125
889.84136	5712.125
893.64433	5677.725
897.44466	5524.925
901.24235	5345.625
905.0374	5166.525
908.8298	5035.825
912.61957	4972.625
916.40671	4945.025
920.19121	4938.225
923.97308	4896.925
927.75233	4875.125
931.52895	4859.625
935.30295	4845.325
939.07433	4802.925
942.84309	4779.325
946.60924	4751.725
950.37278	4752.325
954.13371	4745.125
957.89203	4739.125
961.64774	4726.425
965.40086	4715.025
969.15137	4709.725
972.89929	4679.425
976.64461	4670.125
980.38733	4668.325
984.12747	4671.125
987.86502	4666.825
991.59999	4681.125
995.33237	4725.325
999.06217	4769.525
1002.78939	4816.525
1006.51404	4890.625
1010.23611	4968.825
1013.95561	5022.025
1017.67255	5058.125
1021.38692	5038.425
1025.09872	5021.625
1028.80796	4992.525
1032.51465	4924.025
1036.21877	4878.325
1039.92035	4830.525
1043.61937	4785.225
1047.31584	4779.325
1051.00976	4763.125
1054.70114	4785.725
1058.38998	4837.325
1062.07627	4886.225
1065.76003	4943.025
1069.44126	5013.725
1073.11995	5080.625
1076.79611	5103.225
1080.46974	5087.125
1084.14085	5027.125
1087.80943	4951.225
1091.47549	4931.325
1095.13903	4888.525
1098.80005	4838.925
1102.45857	4818.525
1106.11456	4820.025
1109.76805	4871.825
1113.41903	4979.425
1117.06751	5202.925
1120.71348	5530.225
1124.35696	5957.425
1127.99793	6471.625
1131.63641	6881.325
1135.2724	7077.225
1138.90589	7011.625
1142.5369	6781.225
1146.16542	6414.525
1149.79145	6018.125
1153.415	5630.625
1157.03607	5335.225
1160.65467	5142.825
1164.27079	5028.325
1167.88443	5005.625
1171.49561	5044.625
1175.10432	5149.825
1178.71056	5285.625
1182.31434	5435.025
1185.91565	5528.625
1189.51451	5601.925
1193.11091	5663.225
1196.70485	5713.525
1200.29634	5785.825
1203.88538	5864.425
1207.47197	5846.725
1211.05612	5786.325
1214.63782	5669.725
1218.21708	5517.225
1221.79391	5348.525
1225.36829	5218.325
1228.94024	5093.825
1232.50976	5052.725
1236.07685	5012.625
1239.6415	4993.825
1243.20374	5001.825
1246.76355	5059.225
1250.32093	5092.325
1253.8759	5142.525
1257.42845	5202.925
1260.97859	5245.025
1264.52631	5287.725
1268.07163	5330.425
1271.61453	5353.125
1275.15503	5361.525
1278.69312	5352.525
1282.22882	5339.825
1285.76211	5342.225
1289.29301	5343.225
1292.82151	5403.325
1296.34761	5468.125
1299.87133	5576.725
1303.39266	5649.725
1306.9116	5803.625
1310.42815	5940.825
1313.94233	6045.625
1317.45412	6122.325
1320.96354	6099.825
1324.47058	6088.625
1327.97525	6094.525
1331.47754	6079.525
1334.97747	6117.425
1338.47502	6178.025
1341.97022	6268.425
1345.46305	6347.825
1348.95352	6463.825
1352.44163	6564.525
1355.92738	6694.925
1359.41078	6876.825
1362.89183	7055.025
1366.37053	7084.825
1369.84688	6853.925
1373.32088	6574.225
1376.79254	6339.325
1380.26186	6188.625
1383.72883	6047.925
1387.19347	5965.725
1390.65578	5829.225
1394.11575	5723.425
1397.57339	5608.625
1401.0287	5520.825
1404.48168	5435.425
1407.93234	5332.425
1411.38068	5213.125
1414.82669	5088.425
1418.27039	4949.625
1421.71177	4842.625
1425.15083	4735.025
1428.58758	4662.625
1432.02203	4636.425
1435.45416	4640.025
1438.88399	4616.525
1442.31151	4630.625
1445.73673	4638.725
1449.15965	4647.125
1452.58027	4646.025
1455.9986	4681.825
1459.41463	4698.025
1462.82837	4689.825
1466.23982	4737.625
1469.64898	4780.225
1473.05586	4807.825
1476.46045	4829.525
1479.86276	4844.225
1483.26279	4847.825
1486.66054	4872.125
1490.05602	4912.425
1493.44922	4986.825
1496.84016	5089.625
1500.22882	5212.325
1503.61521	5402.125
1506.99934	5601.525
1510.38121	5762.125
1513.76081	5785.225
1517.13816	5693.325
1520.51324	5538.725
1523.88607	5365.825
1527.25665	5315.725
1530.62498	5293.525
1533.99105	5316.825
1537.35488	5329.625
1540.71647	5351.925
1544.07581	5358.925
1547.4329	5383.925
1550.78776	5414.625
1554.14038	5399.025
1557.49077	5396.025
1560.83892	5414.125
1564.18484	5419.325
1567.52853	5436.125
1570.86999	5443.425
1574.20922	5471.325
1577.54624	5494.025
1580.88103	5465.725
1584.2136	5391.325
1587.54395	5335.425
1590.87208	5268.825
1594.19801	5287.125
1597.52172	5324.825
1600.84321	5350.425
1604.16251	5332.225
1607.47959	5250.425
1610.79447	5186.925
1614.10715	5108.925
1617.41763	5049.325
1620.7259	5016.225
1624.03199	5009.025
1627.33587	5039.125
1630.63757	5101.525
1633.93707	5197.725
1637.23439	5332.625
1640.52951	5520.625
1643.82246	5766.525
1647.11321	5994.125
1650.40179	6145.025
1653.68819	6170.625
1656.97241	6002.625
1660.25446	5789.425
1663.53433	5621.825
1666.81203	5491.725
1670.08756	5438.825
1673.36092	5414.925
1676.63211	5389.925
1679.90115	5384.125
1683.16801	5361.725
1686.43272	5314.825
1689.69527	5242.225
1692.95567	5149.125
1696.2139	5066.525
1699.46999	4983.025
1702.72392	4883.325
1705.97571	4754.325
1709.22535	4605.325
1712.47284	4447.025
1715.71819	4303.725
1718.96139	4163.025
1722.20246	4064.125
1725.44139	3964.725
1728.67818	3881.425
1731.91284	3813.525
1735.14537	3754.625
1738.37576	3710.425
1741.60403	3665.525
1744.83017	3631.625
1748.05418	3616.225
1751.27607	3609.325
1754.49584	3595.925
1757.71349	3593.025
1760.92903	3576.225
1764.14244	3557.825
1767.35375	3550.625
1770.56294	3533.625
1773.77002	3498.525
1776.97499	3483.825
1780.17785	3460.125
1783.37861	3458.425
1786.57727	3427.925
1789.77382	3419.425
1792.96828	3401.225
1796.16064	3375.125
1799.3509	3368.825
1802.53907	3357.925
1805.72514	3337.725
1808.90913	3332.825
1812.09102	3328.725
1815.27083	3307.825
1818.44856	3307.525
1821.6242	3283.325
1824.79776	3283.025
1827.96924	3283.925
1831.13864	3263.625
1834.30597	3269.425
1837.47122	3270.425
1840.6344	3251.725
1843.7955	3239.625
1846.95454	3241.325
1850.11151	3256.325
1853.26642	3214.425
1856.41926	3220.425
1859.57004	3220.425
1862.71876	3227.725
1865.86542	3206.425
1869.01003	3206.525
1872.15258	3203.125
1875.29308	3203.325
1878.43152	3186.025
1881.56792	3178.225
1884.70227	3175.525
1887.83457	3169.625
1890.96482	3163.025
1894.09304	3152.125
1897.21921	3145.325
1900.34335	3141.925
1903.46544	3137.425
1906.58551	3139.125
1909.70353	3134.825
1912.81953	3125.725
1915.93349	3106.225
1919.04543	3103.825
1922.15534	3096.525
1925.26322	3095.325
1928.36908	3086.725
1931.47292	3064.125
1934.57473	3064.325
1937.67453	3060.725
1940.77232	3055.025
1943.86808	3029.625
1946.96184	3030.225
1950.05358	3009.725
1953.14331	3024.725
1956.23103	2999.125
1959.31675	2997.825
1962.40046	2973.525
1965.48217	2965.225
1968.56188	2976.325
1971.63959	2950.625
1974.7153	2938.725
1977.78901	2932.725
1980.86073	2919.325
1983.93046	2910.725
1986.99819	2905.925
1990.06394	2898.525
1993.1277	2878.025
1996.18947	2875.325
1999.24925	2864.925
2002.30706	2863.025
2005.36288	2844.325
2008.41672	2839.525
2011.46859	2825.225
2014.51848	2828.825
2017.56639	2811.525
2020.61233	2802.625
2023.6563	2792.725
2026.6983	2792.025
2029.73833	2764.725
2032.7764	2766.125
2035.8125	2767.625
2038.84664	2741.525
2041.87881	2754.725
2044.90903	2733.525
2047.93729	2737.725
2050.96359	2737.025
2053.98794	2729.925
2057.01034	2717.425
2060.03078	2705.625
2063.04927	2715.725
2066.06582	2705.225
2069.08042	2711.525
2072.09307	2709.125
2075.10378	2705.125
2078.11255	2702.625
2081.11938	2700.725
2084.12426	2698.925
2087.12722	2704.825
2090.12824	2689.525
2093.12732	2689.825
2096.12447	2690.425
2099.11969	2693.225
2102.11299	2695.925
2105.10435	2697.825
2108.09379	2693.825
2111.08131	2677.625
2114.0669	2687.825
2117.05057	2695.825
2120.03233	2682.725
2123.01216	2701.525
2125.99008	2698.725
2128.96609	2686.425
2131.94018	2696.525
2134.91236	2693.925
2137.88263	2685.125
2140.851	2679.725
2143.81746	2691.325
2146.78201	2697.025
2149.74466	2683.525
2152.7054	2685.125
2155.66425	2683.025
2158.6212	2690.625
2161.57625	2679.225
2164.52941	2688.425
2167.48067	2676.625
2170.43004	2675.925
2173.37752	2681.125
2176.32311	2672.825
2179.26681	2664.825
2182.20863	2661.125
2185.14856	2662.525
2188.08661	2663.325
2191.02278	2646.925
2193.95707	2643.725
2196.88948	2647.425
2199.82001	2648.325
2202.74867	2631.525
2205.67545	2634.925
2208.60037	2633.325
2211.52341	2621.325
2214.44458	2614.225
2217.36388	2603.025
2220.28132	2600.725
2223.1969	2590.825
2226.11061	2594.425
2229.02246	2576.925
2231.93245	2580.125
2234.84058	2578.025
2237.74686	2557.625
2240.65128	2557.825
2243.55385	2545.125
2246.45456	2545.425
2249.35343	2543.725
2252.25044	2539.725
2255.14561	2531.425
2258.03893	2531.025
2260.93041	2540.325
2263.82004	2512.125
2266.70783	2519.425
2269.59378	2498.625
2272.4779	2511.925
2275.36017	2492.225
2278.24061	2474.925
2281.11922	2475.225
2283.996	2476.325
2286.87094	2471.825
2289.74405	2463.925
2292.61534	2439.725
2295.4848	2455.425
2298.35243	2449.625
2301.21824	2446.025
2304.08223	2437.425
2306.94439	2435.925
2309.80474	2433.325
2312.66327	2422.525
2315.51999	2426.425
2318.37489	2413.525
2321.22797	2414.025
2324.07925	2418.025
2326.92871	2416.725
2329.77637	2405.825
2332.62222	2389.925
2335.46626	2386.225
2338.3085	2386.525
2341.14893	2390.425
2343.98756	2373.225
2346.8244	2376.125
2349.65943	2362.325
2352.49267	2371.925
2355.32411	2364.925
2358.15376	2364.225
2360.98161	2366.525
2363.80768	2358.725
2366.63195	2348.225
2369.45444	2352.025
2372.27514	2340.525
2375.09405	2347.425
2377.91118	2344.725
2380.72652	2335.225
2383.54009	2328.025
2386.35187	2324.825
2389.16188	2306.725
2391.97011	2310.025
2394.77657	2303.725
2397.58125	2298.625
2400.38416	2300.225
2403.18529	2298.125
2405.98466	2296.825
2408.78226	2290.625
2411.57809	2272.425
2414.37216	2268.125
2417.16446	2273.125
2419.955	2264.925
2422.74378	2269.125
2425.5308	2251.825
2428.31606	2245.125
2431.09956	2245.025
2433.88131	2240.325
2436.6613	2236.725
2439.43954	2238.425
2442.21603	2213.225
2444.99077	2230.525
2447.76377	2223.925
2450.53501	2225.925
2453.30451	2225.825
2456.07226	2207.425
2458.83827	2216.225
2461.60254	2204.525
2464.36507	2201.325
2467.12586	2190.125
2469.88492	2197.525
2472.64224	2192.625
2475.39782	2200.125
2478.15167	2197.325
2480.90379	2191.025
2483.65417	2188.025
2486.40283	2183.425
2489.14976	2180.725
2491.89497	2179.925
2494.63845	2185.925
2497.3802	2183.625
2500.12024	2175.425
2502.85855	2164.525
2505.59514	2172.125
2508.33002	2157.625
2511.06318	2152.225
2513.79462	2155.925
2516.52435	2144.325
2519.25237	2148.625
2521.97867	2145.525
2524.70327	2146.925
2527.42616	2132.125
2530.14734	2141.425
2532.86681	2120.725
2535.58458	2122.925
2538.30065	2115.325
2541.01501	2113.025
2543.72768	2119.025
2546.43864	2100.125
2549.14791	2100.625
2551.85548	2094.925
2554.56136	2089.725
2557.26554	2081.925
2559.96803	2083.525
2562.66883	2071.025
2565.36794	2070.125
2568.06536	2071.225
2570.7611	2066.625
2573.45514	2057.625
2576.14751	2060.725
2578.83819	2053.025
2581.52719	2045.825
2584.21451	2047.625
2586.90015	2044.425
2589.58411	2049.525
2592.2664	2026.825
2594.94701	2030.325
2597.62594	2024.225
2600.30321	2015.725
2602.9788	2005.925
2605.65273	2005.925
2608.32498	1994.625
2610.99557	1999.325
2613.66449	1992.925
2616.33175	1995.125
2618.99734	1989.525
2621.66128	1977.925
2624.32355	1983.425
2626.98416	1979.925
2629.64311	1967.325
2632.30041	1985.625
2634.95605	1969.825
2637.61004	1962.125
2640.26238	1973.025
2642.91306	1964.325
2645.56209	1952.425
2648.20948	1968.925
2650.85521	1956.825
2653.4993	1955.325
2656.14175	1961.325
2658.78255	1957.125
2661.42171	1948.125
2664.05923	1941.525
2666.6951	1952.225
2669.32934	1949.025
2671.96194	1943.625
2674.59291	1946.725
2677.22224	1944.125
2679.84993	1940.525
2682.476	1942.025
2685.10043	1946.625
2687.72324	1942.725
2690.34441	1938.425
2692.96396	1941.225
2695.58188	1947.425
2698.19818	1947.025
2700.81285	1943.425
2703.4259	1956.025
2706.03733	1971.025
2708.64714	1956.125
2711.25533	1954.625
2713.86191	1941.725
2716.46687	1938.925
2719.07021	1931.025
2721.67194	1929.225
2724.27206	1935.025
2726.87057	1942.325
2729.46747	1935.425
2732.06276	1936.125
2734.65644	1934.625
2737.24852	1927.425
2739.83899	1934.625
2742.42786	1931.825
2745.01513	1916.225
2747.60079	1924.125
2750.18486	1910.625
2752.76733	1914.225
2755.3482	1914.225
2757.92747	1906.125
2760.50515	1903.025
2763.08123	1890.925
2765.65573	1900.825
2768.22863	1892.425
2770.79994	1895.725
2773.36967	1890.925
2775.9378	1880.425
2778.50435	1880.425
2781.06932	1875.525
2783.6327	1872.625
2786.1945	1877.225
2788.75471	1866.125
2791.31335	1867.625
2793.87041	1858.325
2796.42589	1845.525
2798.97979	1850.325
2801.53212	1841.025
2804.08288	1847.225
2806.63206	1836.525
2809.17967	1833.725
2811.72571	1825.025
2814.27018	1828.625
2816.81308	1820.525
2819.35442	1822.125
2821.89419	1814.425
2824.43239	1818.425
2826.96904	1814.925
2829.50412	1806.825
2832.03763	1815.825
2834.56959	1806.525
2837.1	1810.525
2839.62884	1814.425
2842.15613	1808.525
2844.68186	1801.825
2847.20604	1814.525
2849.72867	1811.225
2852.24974	1812.425
2854.76927	1818.725
2857.28724	1809.025
2859.80367	1812.325
2862.31855	1803.925
2864.83189	1809.525
2867.34368	1803.325
2869.85393	1809.225
2872.36264	1797.225
2874.8698	1809.125
2877.37543	1804.825
2879.87952	1800.625
2882.38207	1799.125
2884.88308	1795.625
2887.38256	1787.925
2889.88051	1799.325
2892.37692	1800.125
2894.8718	1799.625
2897.36515	1802.125
2899.85698	1811.425
2902.34727	1811.025
2904.83604	1810.025
2907.32328	1825.325
2909.809	1814.725
2912.29319	1819.625
2914.77587	1812.125
2917.25702	1804.825
2919.73665	1812.925
2922.21476	1816.025
2924.69136	1820.325
2927.16644	1825.625
2929.64	1829.725
2932.11205	1825.425
2934.58258	1821.925
2937.05161	1820.825
2939.51912	1823.525
2941.98513	1829.325
2944.44962	1824.525
2946.91261	1804.125
2949.37409	1815.025
2951.83407	1825.625
2954.29254	1815.225
2956.74951	1821.025
2959.20498	1813.225
2961.65895	1813.025
2964.11142	1801.125
2966.56239	1803.725
2969.01186	1803.925
2971.45984	1802.325
2973.90632	1778.625
2976.35131	1782.925
2978.7948	1787.525
2981.23681	1769.925
2983.67732	1775.625
2986.11635	1770.225
2988.55388	1765.425
2990.98993	1766.525
2993.4245	1772.725
2995.85758	1768.525
2998.28917	1764.725
3000.71928	1753.425
3003.14791	1762.625
3005.57506	1767.425
3008.00073	1756.125
3010.42493	1759.725
3012.84764	1754.725
3015.26888	1765.225
3017.68865	1764.825
3020.10694	1757.825
3022.52376	1755.125
3024.9391	1755.025
3027.35298	1766.425
3029.76539	1754.325
3032.17632	1759.725
3034.5858	1762.325
3036.9938	1755.225
3039.40034	1761.525
3041.80542	1768.025
3044.20903	1758.825
3046.61118	1766.325
3049.01187	1762.425
3051.4111	1764.025
3053.80888	1773.625
3056.20519	1762.625
3058.60005	1771.925
3060.99345	1769.425
3063.3854	1761.125
3065.7759	1760.325
3068.16494	1764.925
3070.55254	1763.425
3072.93868	1765.025
3075.32338	1776.225
3077.70662	1767.525
3080.08842	1767.525
3082.46878	1767.025
3084.84769	1774.725
3087.22515	1782.525
3089.60118	1780.425
3091.97576	1793.625
3094.3489	1798.525
3096.72061	1806.225
3099.09087	1805.125
3101.4597	1805.125
3103.82709	1814.425
3106.19305	1824.625
3108.55757	1816.425
3110.92066	1817.725
3113.28232	1817.925
3115.64255	1823.525
3118.00134	1825.225
3120.35871	1818.425
3122.71466	1833.325
3125.06917	1837.225
3127.42226	1834.925
3129.77393	1844.925
3132.12417	1846.525
3134.47299	1855.825
3136.82039	1844.625
3139.16636	1867.525
3141.51092	1876.825
3143.85406	1875.525
3146.19579	1883.025
3148.53609	1891.825
3150.87499	1912.125
3153.21246	1919.125
3155.54853	1925.825
3157.88318	1931.825
3160.21642	1929.925
3162.54826	1939.125
3164.87868	1935.725
3167.2077	1948.425
3169.5353	1955.625
3171.86151	1966.825
3174.18631	1962.325
3176.5097	1963.625
3178.83169	1968.825
3181.15228	1970.825
3183.47147	1978.525
3185.78926	1979.625
3188.10565	1981.025
3190.42065	1994.925
3192.73424	1998.825
3195.04645	1999.925
3197.35725	2006.125
3199.66667	2003.125
3201.97469	2020.025
3204.28132	2024.125
3206.58656	2022.225
3208.8904	2026.825
3211.19287	2038.125
3213.49394	2031.925
3215.79363	2046.825
3218.09193	2042.525
3220.38884	2059.725
3222.68438	2055.025
3224.97853	2049.625
3227.2713	2060.425
3229.56269	2060.225
3231.8527	2045.925
3234.14133	2032.925
3236.42858	2043.625
