Data from AgNPs_FTO_APTES_UA_0.1mM_CRN_200uM_NaF_0.1M_Addition_RamanShift__6__14-01-47-717.txt Node

Date: Mon Dec 20 14:01:47 GMT 2021
User: TCL
Spectrometer: QEP01345
Trigger mode: 4
Integration Time (sec): 7.000000E0
Scans to average: 10
Electric dark correction enabled: true
Nonlinearity correction enabled: false
Boxcar width: 0
XAxis mode: Raman Shifts
Number of Pixels in Spectrum: 1044
>>>>>Begin Spectral Data<<<<<
46.04893	0.0125
50.45542	-0.1875
54.85868	-1.7875
59.25871	0.2125
63.6555	25.3125
68.04907	31.5125
72.43941	31.2125
76.82654	33.6125
81.21044	35.4125
85.59113	37.5125
89.96862	38.0125
94.34289	38.5125
98.71396	38.9125
103.08183	39.2125
107.4465	42.3125
111.80798	43.4125
116.16626	43.0125
120.52136	58.6125
124.87327	56.0125
129.222	44.7125
133.56755	47.7125
137.90993	53.2125
142.24913	53.0125
146.58517	55.1125
150.91804	65.4125
155.24774	76.2125
159.57429	87.4125
163.89768	107.4125
168.21792	143.3125
172.53501	183.4125
176.84895	245.9125
181.15975	336.4125
185.46741	470.5125
189.77193	646.8125
194.07331	854.7125
198.37157	1105.2125
202.6667	1375.5125
206.9587	1646.7125
211.24758	1927.6125
215.53334	2199.9125
219.81599	2507.8125
224.09553	2828.4125
228.37195	3203.7125
232.64527	3616.1125
236.91549	4025.4125
241.18261	4455.1125
245.44663	4796.5125
249.70755	5094.7125
253.96539	5287.9125
258.22014	5410.4125
262.4718	5510.5125
266.72039	5501.8125
270.96589	5451.5125
275.20832	5388.5125
279.44768	5289.4125
283.68397	5172.0125
287.91719	5099.0125
292.14735	5013.1125
296.37445	4932.2125
300.59849	4897.3125
304.81948	4889.1125
309.03742	4843.0125
313.25231	4774.9125
317.46415	4730.1125
321.67296	4647.4125
325.87872	4579.3125
330.08145	4546.4125
334.28114	4533.7125
338.47781	4557.6125
342.67145	4559.7125
346.86207	4582.5125
351.04966	4631.4125
355.23424	4670.2125
359.4158	4746.9125
363.59435	4788.4125
367.76989	4831.0125
371.94243	4873.6125
376.11196	4929.0125
380.27849	4981.9125
384.44203	5029.9125
388.60257	5078.6125
392.76012	5121.8125
396.91468	5172.4125
401.06626	5231.9125
405.21485	5269.0125
409.36047	5278.8125
413.50311	5253.5125
417.64277	5220.5125
421.77947	5225.8125
425.9132	5227.7125
430.04396	5237.1125
434.17176	5240.2125
438.2966	5278.6125
442.41849	5299.3125
446.53742	5339.2125
450.6534	5385.6125
454.76644	5400.0125
458.87653	5451.8125
462.98368	5483.2125
467.08789	5497.6125
471.18916	5505.4125
475.2875	5538.9125
479.38291	5586.9125
483.4754	5662.9125
487.56496	5770.2125
491.6516	5888.8125
495.73531	5976.8125
499.81612	6034.4125
503.89401	6007.5125
507.96899	5940.0125
512.04106	5847.1125
516.11023	5770.8125
520.1765	5751.4125
524.23987	5766.4125
528.30034	5782.8125
532.35792	5822.6125
536.41261	5800.4125
540.46441	5752.6125
544.51333	5658.4125
548.55936	5608.0125
552.60252	5567.7125
556.64279	5555.2125
560.6802	5554.3125
564.71473	5569.9125
568.7464	5588.4125
572.7752	5648.7125
576.80114	5695.9125
580.82422	5758.5125
584.84444	5874.7125
588.86181	6006.2125
592.87633	6047.0125
596.888	6022.3125
600.89682	5954.7125
604.9028	5975.3125
608.90594	6132.7125
612.90624	6406.4125
616.90371	6437.0125
620.89834	6302.6125
624.89015	6441.4125
628.87913	6876.0125
632.86528	7383.2125
636.84862	7776.6125
640.82913	7859.1125
644.80683	7577.0125
648.78172	7143.0125
652.75379	6756.3125
656.72306	6446.1125
660.68952	6267.7125
664.65319	6111.8125
668.61405	6009.6125
672.57211	5992.4125
676.52738	6030.4125
680.47986	6075.0125
684.42955	6098.0125
688.37646	6045.6125
692.32058	5958.5125
696.26192	5852.9125
700.20048	5780.6125
704.13626	5759.5125
708.06928	5716.7125
711.99952	5709.8125
715.927	5706.6125
719.85171	5752.2125
723.77365	5804.2125
727.69284	5860.6125
731.60928	5819.7125
735.52295	5756.6125
739.43388	5665.5125
743.34206	5622.4125
747.24749	5622.3125
751.15017	5641.9125
755.05012	5647.0125
758.94733	5688.8125
762.8418	5790.8125
766.73354	5888.1125
770.62254	6010.0125
774.50882	6039.3125
778.39237	5938.6125
782.27321	5773.2125
786.15132	5631.6125
790.02671	5557.0125
793.89938	5546.2125
797.76935	5553.9125
801.6366	5640.1125
805.50115	5775.0125
809.36299	6009.5125
813.22213	6151.7125
817.07857	6137.4125
820.93231	5995.6125
824.78336	5764.0125
828.63172	5558.2125
832.47738	5442.9125
836.32036	5351.4125
840.16066	5342.9125
843.99827	5322.1125
847.8332	5336.8125
851.66546	5304.6125
855.49504	5304.5125
859.32195	5344.9125
863.1462	5363.1125
866.96777	5405.5125
870.78668	5482.9125
874.60293	5594.8125
878.41652	5716.9125
882.22745	5859.3125
886.03573	5977.2125
889.84136	6022.8125
893.64433	5989.0125
897.44466	5843.5125
901.24235	5629.2125
905.0374	5454.0125
908.8298	5328.7125
912.61957	5265.5125
916.40671	5202.8125
920.19121	5210.9125
923.97308	5190.2125
927.75233	5172.9125
931.52895	5157.8125
935.30295	5145.2125
939.07433	5102.0125
942.84309	5064.9125
946.60924	5057.8125
950.37278	5021.2125
954.13371	5039.1125
957.89203	5028.7125
961.64774	5009.9125
965.40086	5002.3125
969.15137	5004.0125
972.89929	4968.5125
976.64461	4962.8125
980.38733	4962.1125
984.12747	4951.3125
987.86502	4948.8125
991.59999	4979.2125
995.33237	5012.3125
999.06217	5052.8125
1002.78939	5121.2125
1006.51404	5210.9125
1010.23611	5264.0125
1013.95561	5346.3125
1017.67255	5375.5125
1021.38692	5371.8125
1025.09872	5331.1125
1028.80796	5292.9125
1032.51465	5221.5125
1036.21877	5173.5125
1039.92035	5121.1125
1043.61937	5090.7125
1047.31584	5074.3125
1051.00976	5073.3125
1054.70114	5090.0125
1058.38998	5109.0125
1062.07627	5181.9125
1065.76003	5244.1125
1069.44126	5326.6125
1073.11995	5370.1125
1076.79611	5420.7125
1080.46974	5394.8125
1084.14085	5353.2125
1087.80943	5275.2125
1091.47549	5245.7125
1095.13903	5185.3125
1098.80005	5158.1125
1102.45857	5120.4125
1106.11456	5140.8125
1109.76805	5170.3125
1113.41903	5283.2125
1117.06751	5510.8125
1120.71348	5859.8125
1124.35696	6338.1125
1127.99793	6844.7125
1131.63641	7271.0125
1135.2724	7495.1125
1138.90589	7408.9125
1142.5369	7134.8125
1146.16542	6755.6125
1149.79145	6347.5125
1153.415	5940.4125
1157.03607	5639.5125
1160.65467	5451.1125
1164.27079	5344.1125
1167.88443	5339.1125
1171.49561	5382.3125
1175.10432	5494.5125
1178.71056	5640.3125
1182.31434	5796.4125
1185.91565	5904.3125
1189.51451	5982.0125
1193.11091	6035.5125
1196.70485	6109.7125
1200.29634	6159.5125
1203.88538	6225.9125
1207.47197	6222.9125
1211.05612	6160.8125
1214.63782	6033.8125
1218.21708	5876.0125
1221.79391	5697.1125
1225.36829	5563.8125
1228.94024	5453.1125
1232.50976	5392.3125
1236.07685	5362.0125
1239.6415	5332.0125
1243.20374	5346.6125
1246.76355	5383.9125
1250.32093	5435.2125
1253.8759	5487.3125
1257.42845	5538.1125
1260.97859	5612.7125
1264.52631	5652.1125
1268.07163	5687.8125
1271.61453	5711.1125
1275.15503	5724.2125
1278.69312	5720.1125
1282.22882	5709.6125
1285.76211	5708.9125
1289.29301	5731.3125
1292.82151	5809.3125
1296.34761	5879.4125
1299.87133	5977.1125
1303.39266	6108.2125
1306.9116	6253.0125
1310.42815	6398.7125
1313.94233	6524.0125
1317.45412	6558.4125
1320.96354	6545.6125
1324.47058	6543.8125
1327.97525	6541.2125
1331.47754	6515.9125
1334.97747	6560.4125
1338.47502	6572.5125
1341.97022	6663.0125
1345.46305	6747.9125
1348.95352	6873.4125
1352.44163	6988.8125
1355.92738	7124.1125
1359.41078	7334.1125
1362.89183	7516.0125
1366.37053	7532.7125
1369.84688	7311.1125
1373.32088	7000.8125
1376.79254	6742.5125
1380.26186	6580.2125
1383.72883	6454.2125
1387.19347	6335.8125
1390.65578	6217.2125
1394.11575	6095.7125
1397.57339	5973.7125
1401.0287	5879.1125
1404.48168	5818.3125
1407.93234	5702.9125
1411.38068	5579.1125
1414.82669	5450.0125
1418.27039	5331.0125
1421.71177	5207.8125
1425.15083	5089.2125
1428.58758	5021.3125
1432.02203	4976.2125
1435.45416	4958.7125
1438.88399	4972.7125
1442.31151	4974.3125
1445.73673	4995.9125
1449.15965	4991.0125
1452.58027	5002.8125
1455.9986	5024.4125
1459.41463	5037.8125
1462.82837	5070.3125
1466.23982	5107.3125
1469.64898	5123.1125
1473.05586	5163.4125
1476.46045	5172.2125
1479.86276	5180.0125
1483.26279	5190.9125
1486.66054	5230.4125
1490.05602	5266.2125
1493.44922	5343.7125
1496.84016	5447.7125
1500.22882	5587.7125
1503.61521	5777.3125
1506.99934	5964.4125
1510.38121	6105.7125
1513.76081	6149.6125
1517.13816	6050.8125
1520.51324	5898.6125
1523.88607	5751.2125
1527.25665	5685.3125
1530.62498	5660.5125
1533.99105	5688.8125
1537.35488	5707.9125
1540.71647	5710.5125
1544.07581	5733.0125
1547.4329	5748.4125
1550.78776	5781.9125
1554.14038	5760.4125
1557.49077	5755.4125
1560.83892	5763.1125
1564.18484	5793.8125
1567.52853	5781.9125
1570.86999	5825.0125
1574.20922	5848.3125
1577.54624	5866.3125
1580.88103	5846.4125
1584.2136	5791.0125
1587.54395	5695.9125
1590.87208	5683.3125
1594.19801	5700.2125
1597.52172	5737.2125
1600.84321	5759.2125
1604.16251	5718.9125
1607.47959	5619.8125
1610.79447	5553.0125
1614.10715	5464.4125
1617.41763	5412.2125
1620.7259	5366.1125
1624.03199	5359.9125
1627.33587	5380.5125
1630.63757	5432.2125
1633.93707	5570.3125
1637.23439	5731.6125
1640.52951	5949.9125
1643.82246	6217.8125
1647.11321	6474.6125
1650.40179	6635.6125
1653.68819	6629.4125
1656.97241	6425.7125
1660.25446	6188.8125
1663.53433	5992.9125
1666.81203	5867.9125
1670.08756	5784.4125
1673.36092	5749.3125
1676.63211	5734.6125
1679.90115	5742.7125
1683.16801	5716.1125
1686.43272	5632.2125
1689.69527	5573.2125
1692.95567	5480.2125
1696.2139	5385.6125
1699.46999	5294.9125
1702.72392	5205.5125
1705.97571	5071.7125
1709.22535	4916.4125
1712.47284	4761.7125
1715.71819	4612.3125
1718.96139	4460.5125
1722.20246	4360.4125
1725.44139	4258.2125
1728.67818	4177.1125
1731.91284	4093.0125
1735.14537	4024.1125
1738.37576	3978.0125
1741.60403	3940.0125
1744.83017	3916.7125
1748.05418	3883.3125
1751.27607	3868.1125
1754.49584	3867.0125
1757.71349	3865.9125
1760.92903	3869.2125
1764.14244	3836.5125
1767.35375	3817.2125
1770.56294	3801.3125
1773.77002	3777.0125
1776.97499	3761.1125
1780.17785	3740.6125
1783.37861	3735.3125
1786.57727	3711.9125
1789.77382	3704.7125
1792.96828	3674.9125
1796.16064	3661.7125
1799.3509	3653.8125
1802.53907	3628.0125
1805.72514	3622.4125
1808.90913	3616.3125
1812.09102	3596.5125
1815.27083	3585.0125
1818.44856	3574.0125
1821.6242	3582.2125
1824.79776	3569.5125
1827.96924	3548.9125
1831.13864	3545.9125
1834.30597	3544.9125
1837.47122	3540.7125
1840.6344	3532.1125
1843.7955	3514.3125
1846.95454	3516.7125
1850.11151	3519.5125
1853.26642	3502.5125
1856.41926	3508.8125
1859.57004	3493.9125
1862.71876	3492.2125
1865.86542	3490.4125
1869.01003	3488.2125
1872.15258	3477.4125
1875.29308	3482.3125
1878.43152	3452.6125
1881.56792	3456.8125
1884.70227	3450.8125
1887.83457	3440.4125
1890.96482	3435.4125
1894.09304	3422.0125
1897.21921	3413.5125
1900.34335	3409.5125
1903.46544	3403.3125
1906.58551	3397.7125
1909.70353	3394.4125
1912.81953	3390.0125
1915.93349	3391.3125
1919.04543	3376.5125
1922.15534	3365.4125
1925.26322	3350.6125
1928.36908	3369.7125
1931.47292	3349.1125
1934.57473	3326.8125
1937.67453	3337.7125
1940.77232	3307.4125
1943.86808	3327.8125
1946.96184	3292.3125
1950.05358	3270.8125
1953.14331	3274.3125
1956.23103	3271.6125
1959.31675	3258.0125
1962.40046	3238.4125
1965.48217	3231.7125
1968.56188	3220.3125
1971.63959	3199.5125
1974.7153	3198.2125
1977.78901	3190.2125
1980.86073	3193.2125
1983.93046	3155.9125
1986.99819	3162.6125
1990.06394	3143.1125
1993.1277	3135.6125
1996.18947	3135.7125
1999.24925	3113.0125
2002.30706	3115.6125
2005.36288	3097.0125
2008.41672	3087.2125
2011.46859	3071.3125
2014.51848	3073.3125
2017.56639	3063.6125
2020.61233	3044.9125
2023.6563	3038.0125
2026.6983	3030.6125
2029.73833	3018.8125
2032.7764	3022.2125
2035.8125	3006.8125
2038.84664	2985.8125
2041.87881	2996.0125
2044.90903	2983.3125
2047.93729	2969.5125
2050.96359	2977.0125
2053.98794	2971.6125
2057.01034	2960.6125
2060.03078	2947.7125
2063.04927	2953.7125
2066.06582	2947.3125
2069.08042	2956.4125
2072.09307	2955.2125
2075.10378	2949.0125
2078.11255	2949.0125
2081.11938	2945.1125
2084.12426	2937.0125
2087.12722	2939.2125
2090.12824	2945.2125
2093.12732	2940.7125
2096.12447	2932.4125
2099.11969	2930.9125
2102.11299	2936.0125
2105.10435	2932.7125
2108.09379	2932.9125
2111.08131	2931.2125
2114.0669	2925.7125
2117.05057	2937.1125
2120.03233	2934.0125
2123.01216	2931.8125
2125.99008	2928.4125
2128.96609	2942.0125
2131.94018	2937.9125
2134.91236	2945.7125
2137.88263	2942.9125
2140.851	2937.9125
2143.81746	2947.9125
2146.78201	2932.3125
2149.74466	2935.4125
2152.7054	2939.6125
2155.66425	2939.7125
2158.6212	2935.0125
2161.57625	2914.6125
2164.52941	2932.2125
2167.48067	2912.3125
2170.43004	2917.0125
2173.37752	2921.3125
2176.32311	2923.2125
2179.26681	2911.4125
2182.20863	2914.1125
2185.14856	2914.0125
2188.08661	2914.2125
2191.02278	2904.5125
2193.95707	2898.7125
2196.88948	2893.0125
2199.82001	2888.1125
2202.74867	2884.9125
2205.67545	2869.5125
2208.60037	2872.9125
2211.52341	2876.9125
2214.44458	2850.5125
2217.36388	2854.5125
2220.28132	2850.2125
2223.1969	2829.5125
2226.11061	2837.6125
2229.02246	2807.6125
2231.93245	2811.6125
2234.84058	2811.7125
2237.74686	2801.6125
2240.65128	2804.4125
2243.55385	2799.5125
2246.45456	2798.6125
2249.35343	2787.9125
2252.25044	2776.0125
2255.14561	2769.9125
2258.03893	2782.1125
2260.93041	2769.7125
2263.82004	2770.9125
2266.70783	2748.1125
2269.59378	2742.7125
2272.4779	2733.4125
2275.36017	2731.0125
2278.24061	2724.1125
2281.11922	2715.9125
2283.996	2714.2125
2286.87094	2707.1125
2289.74405	2686.3125
2292.61534	2688.7125
2295.4848	2691.1125
2298.35243	2685.1125
2301.21824	2677.4125
2304.08223	2671.1125
2306.94439	2678.6125
2309.80474	2666.7125
2312.66327	2664.7125
2315.51999	2647.2125
2318.37489	2645.3125
2321.22797	2657.3125
2324.07925	2644.0125
2326.92871	2647.5125
2329.77637	2650.6125
2332.62222	2619.4125
2335.46626	2612.6125
2338.3085	2615.7125
2341.14893	2611.4125
2343.98756	2604.8125
2346.8244	2601.2125
2349.65943	2592.2125
2352.49267	2587.3125
2355.32411	2591.6125
2358.15376	2579.0125
2360.98161	2587.7125
2363.80768	2581.9125
2366.63195	2578.6125
2369.45444	2572.4125
2372.27514	2573.5125
2375.09405	2574.9125
2377.91118	2560.6125
2380.72652	2545.9125
2383.54009	2553.5125
2386.35187	2550.8125
2389.16188	2552.6125
2391.97011	2537.4125
2394.77657	2535.1125
2397.58125	2528.1125
2400.38416	2523.4125
2403.18529	2519.9125
2405.98466	2515.0125
2408.78226	2505.8125
2411.57809	2495.7125
2414.37216	2495.3125
2417.16446	2494.3125
2419.955	2486.3125
2422.74378	2475.1125
2425.5308	2476.5125
2428.31606	2479.8125
2431.09956	2465.2125
2433.88131	2463.0125
2436.6613	2468.8125
2439.43954	2448.7125
2442.21603	2441.5125
2444.99077	2453.9125
2447.76377	2446.0125
2450.53501	2447.2125
2453.30451	2440.3125
2456.07226	2446.0125
2458.83827	2435.4125
2461.60254	2429.4125
2464.36507	2423.2125
2467.12586	2416.3125
2469.88492	2414.5125
2472.64224	2416.4125
2475.39782	2419.0125
2478.15167	2420.6125
2480.90379	2402.4125
2483.65417	2395.2125
2486.40283	2403.5125
2489.14976	2399.1125
2491.89497	2389.6125
2494.63845	2400.7125
2497.3802	2387.7125
2500.12024	2386.5125
2502.85855	2377.6125
2505.59514	2373.4125
2508.33002	2378.9125
2511.06318	2379.8125
2513.79462	2379.7125
2516.52435	2374.6125
2519.25237	2363.2125
2521.97867	2366.0125
2524.70327	2350.5125
2527.42616	2354.7125
2530.14734	2351.1125
2532.86681	2335.8125
2535.58458	2335.5125
2538.30065	2334.0125
2541.01501	2331.1125
2543.72768	2325.5125
2546.43864	2321.5125
2549.14791	2316.2125
2551.85548	2320.4125
2554.56136	2306.6125
2557.26554	2294.5125
2559.96803	2287.7125
2562.66883	2294.9125
2565.36794	2296.9125
2568.06536	2277.6125
2570.7611	2278.6125
2573.45514	2265.3125
2576.14751	2271.3125
2578.83819	2260.6125
2581.52719	2258.1125
2584.21451	2241.0125
2586.90015	2249.1125
2589.58411	2240.7125
2592.2664	2237.9125
2594.94701	2214.8125
2597.62594	2230.3125
2600.30321	2218.9125
2602.9788	2215.2125
2605.65273	2213.5125
2608.32498	2198.1125
2610.99557	2203.9125
2613.66449	2205.7125
2616.33175	2195.7125
2618.99734	2192.2125
2621.66128	2182.7125
2624.32355	2180.3125
2626.98416	2190.6125
2629.64311	2179.1125
2632.30041	2179.7125
2634.95605	2172.1125
2637.61004	2173.9125
2640.26238	2158.5125
2642.91306	2161.1125
2645.56209	2152.9125
2648.20948	2168.7125
2650.85521	2163.5125
2653.4993	2162.4125
2656.14175	2148.5125
2658.78255	2157.4125
2661.42171	2152.6125
2664.05923	2147.4125
2666.6951	2143.4125
2669.32934	2156.3125
2671.96194	2138.9125
2674.59291	2143.5125
2677.22224	2147.7125
2679.84993	2152.6125
2682.476	2157.8125
2685.10043	2146.5125
2687.72324	2146.4125
2690.34441	2143.4125
2692.96396	2140.1125
2695.58188	2150.8125
2698.19818	2153.0125
2700.81285	2155.8125
2703.4259	2155.2125
2706.03733	2177.0125
2708.64714	2150.3125
2711.25533	2159.8125
2713.86191	2147.7125
2716.46687	2143.9125
2719.07021	2139.9125
2721.67194	2141.3125
2724.27206	2134.4125
2726.87057	2136.6125
2729.46747	2134.4125
2732.06276	2127.4125
2734.65644	2143.8125
2737.24852	2132.2125
2739.83899	2132.9125
2742.42786	2135.1125
2745.01513	2125.8125
2747.60079	2116.9125
2750.18486	2121.4125
2752.76733	2114.2125
2755.3482	2107.2125
2757.92747	2106.6125
2760.50515	2097.7125
2763.08123	2095.8125
2765.65573	2088.5125
2768.22863	2096.3125
2770.79994	2080.2125
2773.36967	2091.4125
2775.9378	2100.4125
2778.50435	2096.0125
2781.06932	2071.1125
2783.6327	2076.2125
2786.1945	2067.6125
2788.75471	2071.4125
2791.31335	2062.2125
2793.87041	2060.6125
2796.42589	2052.6125
2798.97979	2042.9125
2801.53212	2038.2125
2804.08288	2038.4125
2806.63206	2035.3125
2809.17967	2030.6125
2811.72571	2025.3125
2814.27018	2021.9125
2816.81308	2011.1125
2819.35442	2017.5125
2821.89419	2012.5125
2824.43239	2015.1125
2826.96904	2005.8125
2829.50412	1999.9125
2832.03763	2004.1125
2834.56959	2003.8125
2837.1	1991.1125
2839.62884	2001.4125
2842.15613	1995.2125
2844.68186	1993.4125
2847.20604	1997.3125
2849.72867	2002.6125
2852.24974	2003.8125
2854.76927	2003.1125
2857.28724	1992.1125
2859.80367	1998.0125
2862.31855	1996.0125
2864.83189	1987.1125
2867.34368	1996.8125
2869.85393	1991.6125
2872.36264	1985.4125
2874.8698	1997.3125
2877.37543	1999.5125
2879.87952	1991.7125
2882.38207	1988.7125
2884.88308	1996.5125
2887.38256	1993.1125
2889.88051	2006.1125
2892.37692	1996.6125
2894.8718	1986.4125
2897.36515	1991.6125
2899.85698	1992.1125
2902.34727	2004.1125
2904.83604	2001.6125
2907.32328	2013.2125
2909.809	2005.5125
2912.29319	2010.4125
2914.77587	2005.9125
2917.25702	2012.4125
2919.73665	2005.5125
2922.21476	2010.3125
2924.69136	2006.6125
2927.16644	2011.7125
2929.64	2013.7125
2932.11205	2021.6125
2934.58258	2014.4125
2937.05161	2017.7125
2939.51912	2010.8125
2941.98513	2010.1125
2944.44962	2010.6125
2946.91261	2004.2125
2949.37409	2031.0125
2951.83407	2042.3125
2954.29254	2050.0125
2956.74951	1997.9125
2959.20498	2005.7125
2961.65895	1998.2125
2964.11142	2003.0125
2966.56239	1980.6125
2969.01186	1987.8125
2971.45984	1979.0125
2973.90632	1978.7125
2976.35131	1962.9125
2978.7948	1967.2125
2981.23681	1966.7125
2983.67732	1960.2125
2986.11635	1958.4125
2988.55388	1957.8125
2990.98993	1945.2125
2993.4245	1946.1125
2995.85758	1949.9125
2998.28917	1943.7125
3000.71928	1938.3125
3003.14791	1936.1125
3005.57506	1946.6125
3008.00073	1941.9125
3010.42493	1939.5125
3012.84764	1942.6125
3015.26888	1945.3125
3017.68865	1950.9125
3020.10694	1939.6125
3022.52376	1945.3125
3024.9391	1942.0125
3027.35298	1938.1125
3029.76539	1940.3125
3032.17632	1939.6125
3034.5858	1938.8125
3036.9938	1945.3125
3039.40034	1944.7125
3041.80542	1929.7125
3044.20903	1931.8125
3046.61118	1934.2125
3049.01187	1933.0125
3051.4111	1936.7125
3053.80888	1949.3125
3056.20519	1939.9125
3058.60005	1935.6125
3060.99345	1944.7125
3063.3854	1939.2125
3065.7759	1939.9125
3068.16494	1946.9125
3070.55254	1944.5125
3072.93868	1941.1125
3075.32338	1936.8125
3077.70662	1941.5125
3080.08842	1945.3125
3082.46878	1951.7125
3084.84769	1952.4125
3087.22515	1958.2125
3089.60118	1965.9125
3091.97576	1962.1125
3094.3489	1971.4125
3096.72061	1973.0125
3099.09087	1982.8125
3101.4597	1976.1125
3103.82709	1981.4125
3106.19305	1976.5125
3108.55757	1993.6125
3110.92066	2003.1125
3113.28232	2002.2125
3115.64255	1986.7125
3118.00134	1993.6125
3120.35871	2002.2125
3122.71466	1999.2125
3125.06917	2004.2125
