Data from AgNPs_FTO_APTES_UA_0.1mM_CRN_20uM_NaF_0.1M_Addition_RamanShift__14__12-13-17-595.txt Node

Date: Mon Dec 20 12:13:17 GMT 2021
User: TCL
Spectrometer: QEP01345
Trigger mode: 4
Integration Time (sec): 7.000000E0
Scans to average: 10
Electric dark correction enabled: true
Nonlinearity correction enabled: false
Boxcar width: 0
XAxis mode: Raman Shifts
Number of Pixels in Spectrum: 1044
>>>>>Begin Spectral Data<<<<<
46.04893	0.425
50.45542	-0.775
54.85868	-2.175
59.25871	1.025
63.6555	35.525
68.04907	34.025
72.43941	41.625
76.82654	39.825
81.21044	37.825
85.59113	45.425
89.96862	41.325
94.34289	44.325
98.71396	44.425
103.08183	45.425
107.4465	49.325
111.80798	52.825
116.16626	50.825
120.52136	55.825
124.87327	55.525
129.222	57.025
133.56755	59.825
137.90993	62.525
142.24913	71.125
146.58517	75.125
150.91804	88.125
155.24774	105.625
159.57429	127.725
163.89768	165.725
168.21792	214.925
172.53501	287.625
176.84895	399.425
181.15975	567.325
185.46741	784.725
189.77193	1092.825
194.07331	1457.325
198.37157	1898.525
202.6667	2358.325
206.9587	2825.525
211.24758	3276.925
215.53334	3733.025
219.81599	4214.625
224.09553	4736.025
228.37195	5302.325
232.64527	5961.825
236.91549	6657.025
241.18261	7395.125
245.44663	8076.125
249.70755	8715.225
253.96539	9226.725
258.22014	9598.425
262.4718	9821.925
266.72039	9881.325
270.96589	9785.125
275.20832	9600.325
279.44768	9365.625
283.68397	9070.225
287.91719	8798.625
292.14735	8575.425
296.37445	8389.925
300.59849	8266.525
304.81948	8158.425
309.03742	8088.225
313.25231	8021.225
317.46415	7945.125
321.67296	7855.125
325.87872	7782.625
330.08145	7754.925
334.28114	7769.425
338.47781	7808.625
342.67145	7861.725
346.86207	7925.025
351.04966	8012.425
355.23424	8107.025
359.4158	8202.525
363.59435	8282.725
367.76989	8353.425
371.94243	8451.125
376.11196	8493.525
380.27849	8579.325
384.44203	8634.925
388.60257	8700.425
392.76012	8782.125
396.91468	8931.225
401.06626	9084.725
405.21485	9228.825
409.36047	9261.925
413.50311	9271.825
417.64277	9205.725
421.77947	9203.825
425.9132	9181.425
430.04396	9185.525
434.17176	9192.125
438.2966	9225.325
442.41849	9242.725
446.53742	9311.725
450.6534	9361.025
454.76644	9466.825
458.87653	9486.725
462.98368	9511.925
467.08789	9536.025
471.18916	9557.325
475.2875	9589.025
479.38291	9617.025
483.4754	9634.725
487.56496	9728.225
491.6516	9797.025
495.73531	9891.325
499.81612	9927.225
503.89401	9996.225
507.96899	10031.025
512.04106	10042.325
516.11023	10017.125
520.1765	9939.825
524.23987	9828.225
528.30034	9752.325
532.35792	9699.725
536.41261	9665.325
540.46441	9613.025
544.51333	9617.825
548.55936	9617.525
552.60252	9671.925
556.64279	9718.625
560.6802	9805.525
564.71473	9809.125
568.7464	9849.425
572.7752	9884.625
576.80114	9877.925
580.82422	9901.025
584.84444	9955.625
588.86181	9987.125
592.87633	10029.425
596.888	10055.025
600.89682	10130.125
604.9028	10320.625
608.90594	10744.425
612.90624	11211.325
616.90371	11122.625
620.89834	10558.725
624.89015	10287.325
628.87913	10272.925
632.86528	10353.625
636.84862	10504.025
640.82913	10541.425
644.80683	10535.825
648.78172	10473.925
652.75379	10430.725
656.72306	10446.625
660.68952	10511.825
664.65319	10552.525
668.61405	10574.025
672.57211	10636.725
676.52738	10719.225
680.47986	10722.625
684.42955	10675.425
688.37646	10658.625
692.32058	10694.525
696.26192	10723.125
700.20048	10731.525
704.13626	10672.125
708.06928	10595.825
711.99952	10463.225
715.927	10319.925
719.85171	10230.825
723.77365	10189.025
727.69284	10155.425
731.60928	10101.525
735.52295	10085.725
739.43388	10103.425
743.34206	10142.525
747.24749	10217.825
751.15017	10254.625
755.05012	10334.225
758.94733	10447.025
762.8418	10538.625
766.73354	10737.825
770.62254	10940.325
774.50882	11051.925
778.39237	10943.125
782.27321	10717.625
786.15132	10464.325
790.02671	10278.525
793.89938	10213.925
797.76935	10198.825
801.6366	10224.825
805.50115	10276.425
809.36299	10337.025
813.22213	10365.225
817.07857	10304.825
820.93231	10212.225
824.78336	10113.925
828.63172	10013.925
832.47738	9993.625
836.32036	9972.225
840.16066	9935.225
843.99827	9957.025
847.8332	9955.525
851.66546	9952.525
855.49504	9956.525
859.32195	9978.725
863.1462	9958.325
866.96777	9963.325
870.78668	10008.025
874.60293	10028.925
878.41652	10061.925
882.22745	10080.125
886.03573	10122.625
889.84136	10144.425
893.64433	10147.725
897.44466	10139.025
901.24235	10103.025
905.0374	10100.725
908.8298	10069.725
912.61957	10042.525
916.40671	10029.325
920.19121	10035.425
923.97308	10030.025
927.75233	10006.325
931.52895	9994.525
935.30295	9958.325
939.07433	9891.225
942.84309	9820.025
946.60924	9812.325
950.37278	9782.125
954.13371	9788.825
957.89203	9787.825
961.64774	9789.725
965.40086	9764.425
969.15137	9760.825
972.89929	9744.925
976.64461	9743.625
980.38733	9715.525
984.12747	9725.425
987.86502	9742.825
991.59999	9742.325
995.33237	9754.825
999.06217	9779.125
1002.78939	9834.225
1006.51404	9867.425
1010.23611	9890.025
1013.95561	9931.225
1017.67255	9948.925
1021.38692	9981.325
1025.09872	9959.025
1028.80796	9943.525
1032.51465	9900.825
1036.21877	9909.125
1039.92035	9942.625
1043.61937	9948.125
1047.31584	9934.425
1051.00976	9978.425
1054.70114	9983.625
1058.38998	10009.325
1062.07627	10033.125
1065.76003	10064.425
1069.44126	10075.125
1073.11995	10121.325
1076.79611	10153.625
1080.46974	10144.725
1084.14085	10167.325
1087.80943	10134.225
1091.47549	10114.725
1095.13903	10134.225
1098.80005	10111.125
1102.45857	10107.525
1106.11456	10099.725
1109.76805	10071.425
1113.41903	10095.525
1117.06751	10151.725
1120.71348	10247.325
1124.35696	10378.725
1127.99793	10514.525
1131.63641	10660.025
1135.2724	10699.825
1138.90589	10718.425
1142.5369	10678.925
1146.16542	10611.425
1149.79145	10511.125
1153.415	10389.625
1157.03607	10249.525
1160.65467	10206.825
1164.27079	10173.825
1167.88443	10194.725
1171.49561	10283.925
1175.10432	10401.125
1178.71056	10630.025
1182.31434	10817.025
1185.91565	10951.125
1189.51451	11009.925
1193.11091	10980.625
1196.70485	10944.825
1200.29634	10888.325
1203.88538	10862.725
1207.47197	10778.025
1211.05612	10745.625
1214.63782	10755.225
1218.21708	10719.225
1221.79391	10674.925
1225.36829	10618.025
1228.94024	10591.825
1232.50976	10547.125
1236.07685	10490.025
1239.6415	10464.325
1243.20374	10434.125
1246.76355	10469.425
1250.32093	10480.325
1253.8759	10507.825
1257.42845	10587.025
1260.97859	10649.025
1264.52631	10708.125
1268.07163	10745.525
1271.61453	10773.325
1275.15503	10781.125
1278.69312	10789.825
1282.22882	10757.325
1285.76211	10821.725
1289.29301	10801.125
1292.82151	10911.225
1296.34761	11017.925
1299.87133	11176.225
1303.39266	11350.525
1306.9116	11560.125
1310.42815	11752.825
1313.94233	11888.725
1317.45412	11960.325
1320.96354	11922.725
1324.47058	11866.925
1327.97525	11802.025
1331.47754	11745.425
1334.97747	11726.525
1338.47502	11738.225
1341.97022	11861.725
1345.46305	12027.525
1348.95352	12221.925
1352.44163	12322.425
1355.92738	12443.025
1359.41078	12578.125
1362.89183	12760.625
1366.37053	12681.725
1369.84688	12295.125
1373.32088	11791.025
1376.79254	11395.725
1380.26186	11241.525
1383.72883	11095.725
1387.19347	11001.925
1390.65578	10934.625
1394.11575	10828.125
1397.57339	10734.025
1401.0287	10651.425
1404.48168	10586.025
1407.93234	10514.325
1411.38068	10448.425
1414.82669	10340.925
1418.27039	10239.525
1421.71177	10123.925
1425.15083	10023.125
1428.58758	9935.025
1432.02203	9891.825
1435.45416	9849.525
1438.88399	9827.625
1442.31151	9826.125
1445.73673	9782.525
1449.15965	9781.625
1452.58027	9800.925
1455.9986	9819.725
1459.41463	9849.725
1462.82837	9898.325
1466.23982	9987.325
1469.64898	10048.325
1473.05586	10123.925
1476.46045	10177.225
1479.86276	10201.625
1483.26279	10232.325
1486.66054	10264.725
1490.05602	10300.825
1493.44922	10387.825
1496.84016	10557.725
1500.22882	10772.925
1503.61521	11069.225
1506.99934	11320.925
1510.38121	11519.625
1513.76081	11538.725
1517.13816	11377.025
1520.51324	11135.425
1523.88607	10919.325
1527.25665	10795.125
1530.62498	10742.425
1533.99105	10746.825
1537.35488	10743.625
1540.71647	10779.125
1544.07581	10806.025
1547.4329	10824.625
1550.78776	10873.325
1554.14038	10907.125
1557.49077	10974.425
1560.83892	11023.525
1564.18484	11084.225
1567.52853	11140.425
1570.86999	11223.125
1574.20922	11258.025
1577.54624	11270.025
1580.88103	11254.225
1584.2136	11103.625
1587.54395	11070.225
1590.87208	11072.425
1594.19801	11080.525
1597.52172	11156.025
1600.84321	11181.825
1604.16251	11088.125
1607.47959	10980.925
1610.79447	10828.925
1614.10715	10673.325
1617.41763	10466.825
1620.7259	10356.125
1624.03199	10245.225
1627.33587	10192.425
1630.63757	10178.425
1633.93707	10235.925
1637.23439	10314.125
1640.52951	10500.025
1643.82246	10716.225
1647.11321	10977.925
1650.40179	11124.025
1653.68819	11064.325
1656.97241	10765.425
1660.25446	10428.625
1663.53433	10159.925
1666.81203	9922.025
1670.08756	9742.025
1673.36092	9620.925
1676.63211	9512.925
1679.90115	9444.525
1683.16801	9323.625
1686.43272	9207.025
1689.69527	9121.025
1692.95567	9027.725
1696.2139	8974.425
1699.46999	8935.225
1702.72392	8881.025
1705.97571	8849.925
1709.22535	8800.925
1712.47284	8807.725
1715.71819	8762.425
1718.96139	8751.325
1722.20246	8682.425
1725.44139	8639.425
1728.67818	8584.725
1731.91284	8499.725
1735.14537	8424.025
1738.37576	8372.025
1741.60403	8318.425
1744.83017	8290.925
1748.05418	8262.225
1751.27607	8241.125
1754.49584	8192.925
1757.71349	8178.125
1760.92903	8174.625
1764.14244	8134.325
1767.35375	8132.825
1770.56294	8114.625
1773.77002	8085.325
1776.97499	8059.825
1780.17785	8008.125
1783.37861	8017.925
1786.57727	8005.025
1789.77382	7956.825
1792.96828	7939.525
1796.16064	7912.725
1799.3509	7884.925
1802.53907	7872.525
1805.72514	7834.925
1808.90913	7836.325
1812.09102	7812.925
1815.27083	7811.525
1818.44856	7758.425
1821.6242	7753.625
1824.79776	7742.025
1827.96924	7728.925
1831.13864	7709.525
1834.30597	7693.025
1837.47122	7679.025
1840.6344	7660.425
1843.7955	7674.825
1846.95454	7667.325
1850.11151	7678.325
1853.26642	7619.325
1856.41926	7637.225
1859.57004	7626.025
1862.71876	7605.425
1865.86542	7607.325
1869.01003	7593.725
1872.15258	7587.025
1875.29308	7573.925
1878.43152	7569.625
1881.56792	7522.925
1884.70227	7500.925
1887.83457	7513.425
1890.96482	7511.325
1894.09304	7486.025
1897.21921	7476.025
1900.34335	7467.725
1903.46544	7459.725
1906.58551	7468.725
1909.70353	7428.925
1912.81953	7410.925
1915.93349	7389.625
1919.04543	7377.325
1922.15534	7346.525
1925.26322	7369.025
1928.36908	7320.925
1931.47292	7320.625
1934.57473	7293.925
1937.67453	7273.025
1940.77232	7254.825
1943.86808	7239.325
1946.96184	7206.625
1950.05358	7188.625
1953.14331	7174.125
1956.23103	7136.925
1959.31675	7153.325
1962.40046	7091.225
1965.48217	7099.125
1968.56188	7083.125
1971.63959	7047.825
1974.7153	7034.525
1977.78901	6995.425
1980.86073	6993.825
1983.93046	6949.725
1986.99819	6946.125
1990.06394	6911.125
1993.1277	6869.125
1996.18947	6856.025
1999.24925	6842.925
2002.30706	6823.625
2005.36288	6785.325
2008.41672	6768.525
2011.46859	6737.625
2014.51848	6730.825
2017.56639	6686.825
2020.61233	6690.325
2023.6563	6669.125
2026.6983	6651.225
2029.73833	6637.525
2032.7764	6608.125
2035.8125	6607.825
2038.84664	6592.125
2041.87881	6574.025
2044.90903	6563.625
2047.93729	6534.825
2050.96359	6531.125
2053.98794	6518.625
2057.01034	6512.825
2060.03078	6524.125
2063.04927	6557.325
2066.06582	6491.225
2069.08042	6483.725
2072.09307	6464.425
2075.10378	6457.825
2078.11255	6464.625
2081.11938	6460.225
2084.12426	6447.225
2087.12722	6472.625
2090.12824	6441.125
2093.12732	6441.225
2096.12447	6445.625
2099.11969	6437.525
2102.11299	6438.625
2105.10435	6448.725
2108.09379	6432.525
2111.08131	6437.325
2114.0669	6442.725
2117.05057	6449.725
2120.03233	6431.525
2123.01216	6442.925
2125.99008	6430.725
2128.96609	6447.325
2131.94018	6444.725
2134.91236	6460.025
2137.88263	6429.625
2140.851	6455.325
2143.81746	6461.625
2146.78201	6452.725
2149.74466	6444.725
2152.7054	6458.225
2155.66425	6463.625
2158.6212	6435.725
2161.57625	6460.325
2164.52941	6444.125
2167.48067	6431.125
2170.43004	6430.125
2173.37752	6427.625
2176.32311	6430.925
2179.26681	6407.025
2182.20863	6426.025
2185.14856	6396.225
2188.08661	6418.725
2191.02278	6398.125
2193.95707	6391.125
2196.88948	6376.725
2199.82001	6388.825
2202.74867	6347.025
2205.67545	6348.325
2208.60037	6347.425
2211.52341	6331.725
2214.44458	6302.325
2217.36388	6293.025
2220.28132	6283.625
2223.1969	6263.125
2226.11061	6236.225
2229.02246	6226.725
2231.93245	6214.025
2234.84058	6230.925
2237.74686	6205.625
2240.65128	6184.625
2243.55385	6168.925
2246.45456	6148.125
2249.35343	6157.625
2252.25044	6139.425
2255.14561	6139.725
2258.03893	6128.725
2260.93041	6112.125
2263.82004	6094.725
2266.70783	6088.025
2269.59378	6058.225
2272.4779	6043.325
2275.36017	6044.125
2278.24061	6030.425
2281.11922	6005.325
2283.996	6014.725
2286.87094	6006.325
2289.74405	5983.525
2292.61534	5950.525
2295.4848	5962.525
2298.35243	5942.625
2301.21824	5946.425
2304.08223	5929.125
2306.94439	5930.125
2309.80474	5908.725
2312.66327	5889.325
2315.51999	5884.025
2318.37489	5892.925
2321.22797	5867.325
2324.07925	5857.425
2326.92871	5834.325
2329.77637	5836.125
2332.62222	5816.525
2335.46626	5810.925
2338.3085	5794.625
2341.14893	5806.025
2343.98756	5791.225
2346.8244	5780.025
2349.65943	5766.425
2352.49267	5760.225
2355.32411	5746.425
2358.15376	5740.325
2360.98161	5722.225
2363.80768	5727.625
2366.63195	5708.025
2369.45444	5704.825
2372.27514	5686.525
2375.09405	5691.325
2377.91118	5693.725
2380.72652	5667.625
2383.54009	5670.925
2386.35187	5651.725
2389.16188	5651.725
2391.97011	5629.925
2394.77657	5609.925
2397.58125	5591.725
2400.38416	5585.425
2403.18529	5578.925
2405.98466	5575.225
2408.78226	5550.125
2411.57809	5552.525
2414.37216	5530.825
2417.16446	5517.625
2419.955	5509.225
2422.74378	5508.425
2425.5308	5493.725
2428.31606	5482.825
2431.09956	5479.725
2433.88131	5470.525
2436.6613	5467.225
2439.43954	5452.325
2442.21603	5452.625
2444.99077	5448.925
2447.76377	5428.125
2450.53501	5434.525
2453.30451	5425.925
2456.07226	5416.525
2458.83827	5415.925
2461.60254	5414.125
2464.36507	5384.525
2467.12586	5369.925
2469.88492	5376.525
2472.64224	5375.925
2475.39782	5351.625
2478.15167	5357.425
2480.90379	5330.825
2483.65417	5345.025
2486.40283	5326.525
2489.14976	5329.025
2491.89497	5324.725
2494.63845	5317.925
2497.3802	5311.325
2500.12024	5291.125
2502.85855	5286.525
2505.59514	5286.025
2508.33002	5268.425
2511.06318	5269.325
2513.79462	5263.325
2516.52435	5236.325
2519.25237	5234.525
2521.97867	5233.225
2524.70327	5229.025
2527.42616	5213.225
2530.14734	5209.625
2532.86681	5192.425
2535.58458	5188.725
2538.30065	5176.125
2541.01501	5168.425
2543.72768	5145.025
2546.43864	5130.525
2549.14791	5142.525
2551.85548	5125.625
2554.56136	5112.725
2557.26554	5099.725
2559.96803	5074.625
2562.66883	5079.825
2565.36794	5058.625
2568.06536	5073.325
2570.7611	5057.025
2573.45514	5024.925
2576.14751	5035.925
2578.83819	5002.625
2581.52719	5007.725
2584.21451	4995.825
2586.90015	4977.125
2589.58411	4974.725
2592.2664	4957.125
2594.94701	4939.425
2597.62594	4944.725
2600.30321	4913.225
2602.9788	4906.925
2605.65273	4918.425
2608.32498	4891.325
2610.99557	4879.625
2613.66449	4860.025
2616.33175	4858.425
2618.99734	4858.525
2621.66128	4852.825
2624.32355	4838.025
2626.98416	4819.725
2629.64311	4824.925
2632.30041	4821.025
2634.95605	4795.325
2637.61004	4810.025
2640.26238	4779.125
2642.91306	4769.125
2645.56209	4785.225
2648.20948	4790.925
2650.85521	4762.025
2653.4993	4764.425
2656.14175	4764.425
2658.78255	4752.625
2661.42171	4751.825
2664.05923	4749.825
2666.6951	4732.325
2669.32934	4727.825
2671.96194	4712.525
2674.59291	4735.725
2677.22224	4728.925
2679.84993	4716.525
2682.476	4721.625
2685.10043	4719.325
2687.72324	4719.325
2690.34441	4715.825
2692.96396	4707.525
2695.58188	4733.625
2698.19818	4718.925
2700.81285	4728.025
2703.4259	4718.125
2706.03733	4735.625
2708.64714	4728.725
2711.25533	4731.025
2713.86191	4716.525
2716.46687	4708.725
2719.07021	4723.925
2721.67194	4679.525
2724.27206	4700.925
2726.87057	4702.625
2729.46747	4698.825
2732.06276	4669.125
2734.65644	4662.225
2737.24852	4658.025
2739.83899	4662.325
2742.42786	4655.925
2745.01513	4652.225
2747.60079	4634.825
2750.18486	4623.125
2752.76733	4620.125
2755.3482	4609.925
2757.92747	4609.725
2760.50515	4603.125
2763.08123	4594.125
2765.65573	4593.725
2768.22863	4573.925
2770.79994	4554.725
2773.36967	4568.125
2775.9378	4561.725
2778.50435	4525.525
2781.06932	4531.025
2783.6327	4531.825
2786.1945	4517.925
2788.75471	4504.725
2791.31335	4502.025
2793.87041	4482.425
2796.42589	4462.425
2798.97979	4458.625
2801.53212	4437.225
2804.08288	4431.225
2806.63206	4421.625
2809.17967	4406.225
2811.72571	4403.425
2814.27018	4390.125
2816.81308	4373.725
2819.35442	4365.925
2821.89419	4357.325
2824.43239	4357.425
2826.96904	4356.825
2829.50412	4357.225
2832.03763	4332.425
2834.56959	4339.325
2837.1	4332.625
2839.62884	4326.625
2842.15613	4315.525
2844.68186	4327.225
2847.20604	4304.525
2849.72867	4311.725
2852.24974	4302.525
2854.76927	4302.925
2857.28724	4294.925
2859.80367	4283.425
2862.31855	4269.225
2864.83189	4278.725
2867.34368	4262.925
2869.85393	4271.525
2872.36264	4238.325
2874.8698	4261.825
2877.37543	4252.825
2879.87952	4246.325
2882.38207	4253.725
2884.88308	4234.825
2887.38256	4247.125
2889.88051	4222.225
2892.37692	4227.325
2894.8718	4216.125
2897.36515	4222.725
2899.85698	4217.025
2902.34727	4236.925
2904.83604	4219.525
2907.32328	4233.825
2909.809	4234.325
2912.29319	4221.225
2914.77587	4219.025
2917.25702	4225.425
2919.73665	4207.125
2922.21476	4216.525
2924.69136	4213.525
2927.16644	4218.925
2929.64	4205.025
2932.11205	4198.325
2934.58258	4184.225
2937.05161	4189.225
2939.51912	4200.925
2941.98513	4171.525
2944.44962	4179.325
2946.91261	4162.525
2949.37409	4177.025
2951.83407	4169.825
2954.29254	4174.225
2956.74951	4176.625
2959.20498	4163.825
2961.65895	4149.725
2964.11142	4166.325
2966.56239	4126.225
2969.01186	4139.825
2971.45984	4133.325
2973.90632	4127.425
2976.35131	4114.225
2978.7948	4110.225
2981.23681	4095.825
2983.67732	4104.025
2986.11635	4080.425
2988.55388	4071.825
2990.98993	4088.925
2993.4245	4062.525
2995.85758	4061.625
2998.28917	4033.825
3000.71928	4047.425
3003.14791	4043.525
3005.57506	4051.225
3008.00073	4029.425
3010.42493	4036.525
3012.84764	4023.025
3015.26888	4006.725
3017.68865	4001.325
3020.10694	4003.425
3022.52376	3989.525
3024.9391	3986.225
3027.35298	3974.625
3029.76539	3974.925
3032.17632	3955.125
3034.5858	3958.225
3036.9938	3949.125
3039.40034	3948.025
3041.80542	3956.925
3044.20903	3945.725
3046.61118	3941.825
3049.01187	3933.725
3051.4111	3942.625
3053.80888	3927.325
3056.20519	3917.625
3058.60005	3918.825
3060.99345	3916.025
3063.3854	3895.925
3065.7759	3896.625
3068.16494	3894.925
3070.55254	3888.625
3072.93868	3884.725
3075.32338	3877.225
3077.70662	3872.925
3080.08842	3863.325
3082.46878	3870.025
3084.84769	3877.025
3087.22515	3872.525
3089.60118	3881.625
3091.97576	3884.325
3094.3489	3876.125
3096.72061	3882.025
3099.09087	3881.425
3101.4597	3872.425
3103.82709	3873.225
3106.19305	3869.625
3108.55757	3872.125
3110.92066	3867.425
3113.28232	3859.225
3115.64255	3853.825
3118.00134	3850.025
3120.35871	3847.325
3122.71466	3838.125
3125.06917	3832.925
3127.42226	3817.825
3129.77393	3833.125
3132.12417	3822.325
3134.47299	3844.925
3136.82039	3850.525
3139.16636	3850.425
3141.51092	3848.225
3143.85406	3854.725
3146.19579	3858.625
3148.53609	3854.525
3150.87499	3870.925
3153.21246	3877.025
3155.54853	3876.225
3157.88318	3873.725
3160.21642	3878.725
3162.54826	3881.025
3164.87868	3882.625
3167.2077	3878.425
3169.5353	3888.525
3171.86151	3898.425
3174.18631	3885.925
3176.5097	3881.025
3178.83169	3878.525
3181.15228	3884.225
3183.47147	3870.525
3185.78926	3870.725
3188.10565	3872.325
3190.42065	3869.525
3192.73424	3877.025
3195.04645	3868.925
3197.35725	3879.925
3199.66667	3873.925
3201.97469	3891.025
3204.28132	3895.325
3206.58656	3891.325
3208.8904	3907.425
