Data from AgNPs_FTO_APTES_UA_0.1mM_CRN_10uM_NaF_0.1M_Addition_RamanShift__0__11-18-27-532.txt Node

Date: Mon Dec 20 11:18:27 GMT 2021
User: TCL
Spectrometer: QEP01345
Trigger mode: 4
Integration Time (sec): 7.000000E0
Scans to average: 10
Electric dark correction enabled: true
Nonlinearity correction enabled: false
Boxcar width: 0
XAxis mode: Raman Shifts
Number of Pixels in Spectrum: 1044
>>>>>Begin Spectral Data<<<<<
46.04893	0.4375
50.45542	0.9375
54.85868	-1.2625
59.25871	0.4375
63.6555	19.0375
68.04907	22.4375
72.43941	22.9375
76.82654	23.9375
81.21044	23.8375
85.59113	28.2375
89.96862	25.4375
94.34289	27.6375
98.71396	27.6375
103.08183	26.3375
107.4465	28.6375
111.80798	32.8375
116.16626	31.0375
120.52136	31.7375
124.87327	33.7375
129.222	32.5375
133.56755	35.2375
137.90993	37.4375
142.24913	36.7375
146.58517	41.4375
150.91804	49.1375
155.24774	58.9375
159.57429	65.3375
163.89768	82.4375
168.21792	106.8375
172.53501	133.9375
176.84895	186.8375
181.15975	252.0375
185.46741	344.9375
189.77193	476.6375
194.07331	634.5375
198.37157	816.9375
202.6667	1007.5375
206.9587	1209.6375
211.24758	1393.6375
215.53334	1602.4375
219.81599	1810.2375
224.09553	2041.2375
228.37195	2292.9375
232.64527	2582.2375
236.91549	2859.7375
241.18261	3135.3375
245.44663	3375.4375
249.70755	3575.5375
253.96539	3746.5375
258.22014	3854.7375
262.4718	3962.4375
266.72039	4018.0375
270.96589	4024.4375
275.20832	4001.5375
279.44768	3947.5375
283.68397	3873.5375
287.91719	3830.9375
292.14735	3780.1375
296.37445	3756.6375
300.59849	3776.2375
304.81948	3798.2375
309.03742	3800.2375
313.25231	3786.6375
317.46415	3718.0375
321.67296	3643.1375
325.87872	3561.3375
330.08145	3503.7375
334.28114	3498.9375
338.47781	3491.9375
342.67145	3520.7375
346.86207	3563.8375
351.04966	3618.2375
355.23424	3702.7375
359.4158	3770.5375
363.59435	3813.0375
367.76989	3845.0375
371.94243	3896.0375
376.11196	3911.3375
380.27849	3947.1375
384.44203	3965.4375
388.60257	3991.3375
392.76012	4015.9375
396.91468	4053.4375
401.06626	4125.9375
405.21485	4181.3375
409.36047	4177.8375
413.50311	4147.2375
417.64277	4136.0375
421.77947	4179.9375
425.9132	4228.2375
430.04396	4301.5375
434.17176	4303.1375
438.2966	4288.5375
442.41849	4268.4375
446.53742	4306.9375
450.6534	4351.8375
454.76644	4380.0375
458.87653	4386.2375
462.98368	4346.1375
467.08789	4309.3375
471.18916	4267.7375
475.2875	4281.6375
479.38291	4285.1375
483.4754	4335.2375
487.56496	4434.3375
491.6516	4531.7375
495.73531	4595.8375
499.81612	4600.2375
503.89401	4595.2375
507.96899	4501.3375
512.04106	4447.7375
516.11023	4410.5375
520.1765	4396.9375
524.23987	4397.2375
528.30034	4408.6375
532.35792	4389.8375
536.41261	4355.4375
540.46441	4302.1375
544.51333	4234.8375
548.55936	4214.3375
552.60252	4181.6375
556.64279	4224.0375
560.6802	4258.2375
564.71473	4271.8375
568.7464	4317.1375
572.7752	4360.5375
576.80114	4393.3375
580.82422	4403.8375
584.84444	4497.5375
588.86181	4664.2375
592.87633	4798.1375
596.888	4836.6375
600.89682	4766.9375
604.9028	4776.1375
608.90594	5079.9375
612.90624	5571.5375
616.90371	5503.4375
620.89834	4939.7375
624.89015	4779.2375
628.87913	5001.1375
632.86528	5333.6375
636.84862	5562.6375
640.82913	5560.2375
644.80683	5342.5375
648.78172	5066.8375
652.75379	4822.7375
656.72306	4634.1375
660.68952	4562.2375
664.65319	4457.4375
668.61405	4318.0375
672.57211	4265.3375
676.52738	4252.5375
680.47986	4286.2375
684.42955	4298.9375
688.37646	4309.0375
692.32058	4288.2375
696.26192	4305.4375
700.20048	4340.2375
704.13626	4375.1375
708.06928	4387.5375
711.99952	4349.9375
715.927	4310.9375
719.85171	4294.1375
723.77365	4301.3375
727.69284	4281.8375
731.60928	4262.4375
735.52295	4194.5375
739.43388	4161.2375
743.34206	4153.5375
747.24749	4150.7375
751.15017	4155.0375
755.05012	4184.4375
758.94733	4232.3375
762.8418	4387.7375
766.73354	4611.1375
770.62254	4872.0375
774.50882	4958.0375
778.39237	4833.6375
782.27321	4550.4375
786.15132	4300.9375
790.02671	4155.0375
793.89938	4088.1375
797.76935	4087.9375
801.6366	4141.5375
805.50115	4235.2375
809.36299	4369.1375
813.22213	4441.7375
817.07857	4410.9375
820.93231	4287.9375
824.78336	4171.1375
828.63172	4055.7375
832.47738	3987.4375
836.32036	3945.2375
840.16066	3936.3375
843.99827	3905.0375
847.8332	3929.3375
851.66546	3923.9375
855.49504	3917.2375
859.32195	3913.1375
863.1462	3922.1375
866.96777	3953.7375
870.78668	3992.0375
874.60293	4064.1375
878.41652	4139.2375
882.22745	4228.9375
886.03573	4312.5375
889.84136	4351.6375
893.64433	4284.1375
897.44466	4186.6375
901.24235	4060.7375
905.0374	3954.1375
908.8298	3890.3375
912.61957	3848.9375
916.40671	3826.1375
920.19121	3830.1375
923.97308	3840.1375
927.75233	3839.3375
931.52895	3830.1375
935.30295	3793.6375
939.07433	3760.3375
942.84309	3706.4375
946.60924	3682.4375
950.37278	3665.2375
954.13371	3657.8375
957.89203	3639.2375
961.64774	3638.5375
965.40086	3631.4375
969.15137	3620.7375
972.89929	3608.3375
976.64461	3598.2375
980.38733	3595.5375
984.12747	3596.1375
987.86502	3590.1375
991.59999	3619.5375
995.33237	3659.0375
999.06217	3708.6375
1002.78939	3774.8375
1006.51404	3847.6375
1010.23611	3902.0375
1013.95561	3971.4375
1017.67255	3974.3375
1021.38692	3954.1375
1025.09872	3909.6375
1028.80796	3843.5375
1032.51465	3814.9375
1036.21877	3778.5375
1039.92035	3756.1375
1043.61937	3738.6375
1047.31584	3744.3375
1051.00976	3725.4375
1054.70114	3723.8375
1058.38998	3748.0375
1062.07627	3769.4375
1065.76003	3813.8375
1069.44126	3859.3375
1073.11995	3915.0375
1076.79611	3956.7375
1080.46974	3970.8375
1084.14085	3961.0375
1087.80943	3979.7375
1091.47549	3973.2375
1095.13903	3951.6375
1098.80005	3900.5375
1102.45857	3834.6375
1106.11456	3830.0375
1109.76805	3850.7375
1113.41903	3927.3375
1117.06751	4080.1375
1120.71348	4300.9375
1124.35696	4616.2375
1127.99793	4952.6375
1131.63641	5213.2375
1135.2724	5309.3375
1138.90589	5239.3375
1142.5369	5062.8375
1146.16542	4817.5375
1149.79145	4573.8375
1153.415	4343.5375
1157.03607	4163.4375
1160.65467	4083.2375
1164.27079	4081.4375
1167.88443	4144.1375
1171.49561	4264.7375
1175.10432	4476.2375
1178.71056	4757.0375
1182.31434	4998.9375
1185.91565	5113.7375
1189.51451	5073.4375
1193.11091	4978.2375
1196.70485	4937.6375
1200.29634	4913.2375
1203.88538	4877.1375
1207.47197	4830.0375
1211.05612	4748.5375
1214.63782	4629.5375
1218.21708	4499.9375
1221.79391	4417.9375
1225.36829	4356.3375
1228.94024	4303.9375
1232.50976	4240.6375
1236.07685	4177.8375
1239.6415	4179.7375
1243.20374	4203.9375
1246.76355	4247.5375
1250.32093	4327.2375
1253.8759	4413.3375
1257.42845	4504.2375
1260.97859	4598.8375
1264.52631	4659.6375
1268.07163	4719.1375
1271.61453	4731.0375
1275.15503	4748.4375
1278.69312	4727.8375
1282.22882	4748.8375
1285.76211	4797.9375
1289.29301	4898.5375
1292.82151	5022.4375
1296.34761	5180.3375
1299.87133	5347.5375
1303.39266	5571.1375
1306.9116	5859.0375
1310.42815	6130.3375
1313.94233	6340.3375
1317.45412	6324.1375
1320.96354	6150.0375
1324.47058	5979.3375
1327.97525	5841.9375
1331.47754	5623.2375
1334.97747	5511.0375
1338.47502	5463.2375
1341.97022	5452.7375
1345.46305	5495.4375
1348.95352	5616.6375
1352.44163	5835.8375
1355.92738	6172.4375
1359.41078	6654.7375
1362.89183	7123.3375
1366.37053	7173.7375
1369.84688	6646.2375
1373.32088	6016.3375
1376.79254	5570.4375
1380.26186	5389.2375
1383.72883	5368.7375
1387.19347	5357.4375
1390.65578	5237.1375
1394.11575	5074.3375
1397.57339	4953.3375
1401.0287	4849.5375
1404.48168	4807.0375
1407.93234	4723.0375
1411.38068	4603.7375
1414.82669	4473.9375
1418.27039	4339.4375
1421.71177	4223.7375
1425.15083	4106.8375
1428.58758	4060.9375
1432.02203	4054.1375
1435.45416	4100.9375
1438.88399	4128.1375
1442.31151	4163.3375
1445.73673	4210.2375
1449.15965	4250.6375
1452.58027	4196.9375
1455.9986	4162.3375
1459.41463	4152.4375
1462.82837	4186.7375
1466.23982	4228.7375
1469.64898	4302.3375
1473.05586	4337.2375
1476.46045	4369.5375
1479.86276	4380.2375
1483.26279	4408.1375
1486.66054	4457.2375
1490.05602	4489.6375
1493.44922	4600.3375
1496.84016	4727.3375
1500.22882	4933.0375
1503.61521	5176.3375
1506.99934	5476.0375
1510.38121	5719.2375
1513.76081	5819.3375
1517.13816	5671.1375
1520.51324	5352.1375
1523.88607	5060.1375
1527.25665	4865.9375
1530.62498	4777.0375
1533.99105	4768.1375
1537.35488	4745.6375
1540.71647	4722.8375
1544.07581	4681.5375
1547.4329	4649.4375
1550.78776	4628.8375
1554.14038	4602.4375
1557.49077	4613.3375
1560.83892	4624.6375
1564.18484	4677.9375
1567.52853	4706.9375
1570.86999	4785.4375
1574.20922	4807.8375
1577.54624	4833.2375
1580.88103	4747.6375
1584.2136	4672.2375
1587.54395	4635.2375
1590.87208	4742.3375
1594.19801	4892.0375
1597.52172	5099.5375
1600.84321	5175.8375
1604.16251	5086.0375
1607.47959	4885.2375
1610.79447	4656.7375
1614.10715	4468.7375
1617.41763	4333.2375
1620.7259	4275.2375
1624.03199	4280.8375
1627.33587	4336.1375
1630.63757	4459.4375
1633.93707	4641.0375
1637.23439	4926.9375
1640.52951	5336.5375
1643.82246	5828.2375
1647.11321	6357.5375
1650.40179	6642.0375
1653.68819	6586.8375
1656.97241	6141.8375
1660.25446	5610.3375
1663.53433	5242.3375
1666.81203	4951.7375
1670.08756	4705.3375
1673.36092	4500.5375
1676.63211	4357.4375
1679.90115	4251.4375
1683.16801	4173.1375
1686.43272	4139.8375
1689.69527	4135.0375
1692.95567	4248.3375
1696.2139	4475.3375
1699.46999	4727.4375
1702.72392	4703.1375
1705.97571	4325.9375
1709.22535	3905.8375
1712.47284	3599.1375
1715.71819	3400.6375
1718.96139	3271.9375
1722.20246	3194.0375
1725.44139	3132.3375
1728.67818	3076.7375
1731.91284	3030.4375
1735.14537	3015.3375
1738.37576	2990.2375
1741.60403	3001.3375
1744.83017	3004.8375
1748.05418	3057.4375
1751.27607	3143.2375
1754.49584	3273.2375
1757.71349	3460.9375
1760.92903	3562.7375
1764.14244	3531.3375
1767.35375	3502.8375
1770.56294	3509.8375
1773.77002	3415.9375
1776.97499	3206.1375
1780.17785	3038.9375
1783.37861	2913.0375
1786.57727	2845.5375
1789.77382	2790.7375
1792.96828	2772.8375
1796.16064	2742.4375
1799.3509	2713.7375
1802.53907	2713.3375
1805.72514	2689.4375
1808.90913	2676.3375
1812.09102	2671.6375
1815.27083	2663.7375
1818.44856	2644.4375
1821.6242	2630.8375
1824.79776	2641.3375
1827.96924	2619.8375
1831.13864	2614.6375
1834.30597	2607.9375
1837.47122	2603.4375
1840.6344	2589.9375
1843.7955	2588.6375
1846.95454	2593.3375
1850.11151	2593.5375
1853.26642	2590.4375
1856.41926	2569.9375
1859.57004	2583.8375
1862.71876	2578.2375
1865.86542	2570.7375
1869.01003	2561.5375
1872.15258	2556.9375
1875.29308	2551.9375
1878.43152	2558.0375
1881.56792	2550.3375
1884.70227	2538.8375
1887.83457	2537.5375
1890.96482	2540.0375
1894.09304	2534.4375
1897.21921	2523.4375
1900.34335	2522.1375
1903.46544	2520.0375
1906.58551	2518.8375
1909.70353	2516.3375
1912.81953	2517.9375
1915.93349	2499.8375
1919.04543	2501.1375
1922.15534	2479.6375
1925.26322	2482.6375
1928.36908	2482.7375
1931.47292	2465.5375
1934.57473	2468.2375
1937.67453	2453.2375
1940.77232	2444.5375
1943.86808	2442.7375
1946.96184	2435.8375
1950.05358	2419.8375
1953.14331	2421.7375
1956.23103	2408.4375
1959.31675	2398.5375
1962.40046	2397.0375
1965.48217	2389.6375
1968.56188	2376.6375
1971.63959	2380.1375
1974.7153	2375.7375
1977.78901	2357.8375
1980.86073	2354.0375
1983.93046	2349.6375
1986.99819	2332.0375
1990.06394	2319.0375
1993.1277	2317.1375
1996.18947	2314.0375
1999.24925	2302.1375
2002.30706	2292.1375
2005.36288	2294.3375
2008.41672	2283.4375
2011.46859	2291.9375
2014.51848	2271.4375
2017.56639	2258.9375
2020.61233	2256.5375
2023.6563	2247.6375
2026.6983	2252.4375
2029.73833	2230.6375
2032.7764	2226.3375
2035.8125	2225.9375
2038.84664	2225.4375
2041.87881	2214.3375
2044.90903	2206.6375
2047.93729	2220.3375
2050.96359	2212.7375
2053.98794	2215.6375
2057.01034	2215.7375
2060.03078	2197.8375
2063.04927	2190.3375
2066.06582	2184.6375
2069.08042	2188.8375
2072.09307	2179.1375
2075.10378	2181.7375
2078.11255	2177.1375
2081.11938	2186.4375
2084.12426	2178.4375
2087.12722	2180.6375
2090.12824	2173.6375
2093.12732	2165.5375
2096.12447	2165.4375
2099.11969	2168.6375
2102.11299	2172.1375
2105.10435	2179.4375
2108.09379	2186.8375
2111.08131	2167.4375
2114.0669	2174.3375
2117.05057	2180.2375
2120.03233	2182.9375
2123.01216	2173.5375
2125.99008	2180.5375
2128.96609	2169.4375
2131.94018	2180.5375
2134.91236	2174.1375
2137.88263	2166.0375
2140.851	2176.3375
2143.81746	2178.7375
2146.78201	2160.4375
2149.74466	2174.8375
2152.7054	2172.1375
2155.66425	2168.6375
2158.6212	2173.1375
2161.57625	2163.5375
2164.52941	2163.9375
2167.48067	2157.6375
2170.43004	2152.6375
2173.37752	2153.5375
2176.32311	2147.8375
2179.26681	2155.8375
2182.20863	2148.8375
2185.14856	2155.0375
2188.08661	2153.4375
2191.02278	2158.6375
2193.95707	2137.1375
2196.88948	2144.3375
2199.82001	2137.8375
2202.74867	2128.5375
2205.67545	2123.7375
2208.60037	2132.7375
2211.52341	2109.0375
2214.44458	2113.3375
2217.36388	2110.2375
2220.28132	2106.7375
2223.1969	2098.0375
2226.11061	2093.9375
2229.02246	2098.4375
2231.93245	2094.4375
2234.84058	2073.0375
2237.74686	2081.9375
2240.65128	2075.2375
2243.55385	2076.1375
2246.45456	2062.4375
2249.35343	2064.1375
2252.25044	2056.9375
2255.14561	2066.3375
2258.03893	2094.1375
2260.93041	2164.4375
2263.82004	2098.9375
2266.70783	2063.4375
2269.59378	2053.1375
2272.4779	2042.3375
2275.36017	2030.6375
2278.24061	2019.5375
2281.11922	2019.7375
2283.996	2011.0375
2286.87094	2016.7375
2289.74405	2009.4375
2292.61534	2001.9375
2295.4848	1993.0375
2298.35243	1986.9375
2301.21824	1995.5375
2304.08223	1992.6375
2306.94439	1994.1375
2309.80474	1979.3375
2312.66327	1983.1375
2315.51999	1980.7375
2318.37489	1982.8375
2321.22797	1973.1375
2324.07925	1974.0375
2326.92871	1979.2375
2329.77637	1981.2375
2332.62222	1979.0375
2335.46626	1978.8375
2338.3085	1969.1375
2341.14893	1976.2375
2343.98756	1973.1375
2346.8244	1972.1375
2349.65943	1952.8375
2352.49267	1954.0375
2355.32411	1955.5375
2358.15376	1948.9375
2360.98161	1935.2375
2363.80768	1935.0375
2366.63195	1931.0375
2369.45444	1923.9375
2372.27514	1931.2375
2375.09405	1931.2375
2377.91118	1922.9375
2380.72652	1924.4375
2383.54009	1909.9375
2386.35187	1921.8375
2389.16188	1902.6375
2391.97011	1888.8375
2394.77657	1896.8375
2397.58125	1889.1375
2400.38416	1891.5375
2403.18529	1892.9375
2405.98466	1884.1375
2408.78226	1883.1375
2411.57809	1886.1375
2414.37216	1869.2375
2417.16446	1876.8375
2419.955	1862.9375
2422.74378	1859.4375
2425.5308	1854.4375
2428.31606	1853.2375
2431.09956	1846.2375
2433.88131	1841.8375
2436.6613	1838.4375
2439.43954	1844.2375
2442.21603	1838.0375
2444.99077	1838.5375
2447.76377	1831.2375
2450.53501	1845.1375
2453.30451	1835.6375
2456.07226	1829.7375
2458.83827	1809.9375
2461.60254	1813.5375
2464.36507	1812.2375
2467.12586	1808.1375
2469.88492	1822.9375
2472.64224	1817.7375
2475.39782	1881.8375
2478.15167	1900.8375
2480.90379	1850.8375
2483.65417	1830.0375
2486.40283	1821.3375
2489.14976	1811.1375
2491.89497	1823.7375
2494.63845	1879.9375
2497.3802	1893.3375
2500.12024	1843.6375
2502.85855	1817.5375
2505.59514	1806.8375
2508.33002	1801.1375
2511.06318	1790.3375
2513.79462	1788.9375
2516.52435	1783.2375
2519.25237	1780.1375
2521.97867	1786.5375
2524.70327	1773.6375
2527.42616	1770.5375
2530.14734	1769.1375
2532.86681	1751.5375
2535.58458	1753.4375
2538.30065	1746.1375
2541.01501	1757.9375
2543.72768	1743.6375
2546.43864	1742.3375
2549.14791	1739.7375
2551.85548	1735.9375
2554.56136	1731.1375
2557.26554	1732.3375
2559.96803	1727.9375
2562.66883	1726.9375
2565.36794	1721.5375
2568.06536	1725.2375
2570.7611	1717.4375
2573.45514	1708.5375
2576.14751	1708.4375
2578.83819	1706.8375
2581.52719	1711.0375
2584.21451	1698.8375
2586.90015	1707.8375
2589.58411	1700.6375
2592.2664	1687.8375
2594.94701	1685.5375
2597.62594	1679.1375
2600.30321	1677.5375
2602.9788	1671.9375
2605.65273	1671.6375
2608.32498	1664.7375
2610.99557	1664.4375
2613.66449	1667.3375
2616.33175	1677.1375
2618.99734	1664.9375
2621.66128	1664.2375
2624.32355	1667.3375
2626.98416	1663.0375
2629.64311	1651.0375
2632.30041	1656.2375
2634.95605	1653.9375
2637.61004	1644.4375
2640.26238	1635.6375
2642.91306	1648.3375
2645.56209	1655.8375
2648.20948	1663.0375
2650.85521	1648.8375
2653.4993	1640.4375
2656.14175	1643.0375
2658.78255	1630.1375
2661.42171	1638.3375
2664.05923	1638.8375
2666.6951	1639.4375
2669.32934	1640.0375
2671.96194	1634.2375
2674.59291	1620.1375
2677.22224	1631.9375
2679.84993	1636.9375
2682.476	1632.5375
2685.10043	1630.2375
2687.72324	1634.0375
2690.34441	1633.6375
2692.96396	1635.3375
2695.58188	1642.3375
2698.19818	1632.9375
2700.81285	1645.5375
2703.4259	1769.5375
2706.03733	2061.1375
2708.64714	1885.1375
2711.25533	1753.5375
2713.86191	1717.7375
2716.46687	1700.1375
2719.07021	1678.9375
2721.67194	1644.6375
2724.27206	1629.4375
2726.87057	1630.8375
2729.46747	1634.9375
2732.06276	1632.0375
2734.65644	1629.3375
2737.24852	1628.3375
2739.83899	1624.4375
2742.42786	1623.4375
2745.01513	1614.0375
2747.60079	1626.2375
2750.18486	1623.8375
2752.76733	1622.9375
2755.3482	1624.0375
2757.92747	1609.0375
2760.50515	1602.8375
2763.08123	1612.5375
2765.65573	1597.1375
2768.22863	1607.1375
2770.79994	1595.4375
2773.36967	1595.2375
2775.9378	1601.9375
2778.50435	1596.0375
2781.06932	1588.8375
2783.6327	1595.6375
2786.1945	1590.3375
2788.75471	1581.4375
2791.31335	1589.3375
2793.87041	1573.1375
2796.42589	1576.6375
2798.97979	1574.4375
2801.53212	1573.2375
2804.08288	1569.0375
2806.63206	1564.1375
2809.17967	1565.2375
2811.72571	1563.0375
2814.27018	1562.8375
2816.81308	1553.6375
2819.35442	1548.6375
2821.89419	1553.1375
2824.43239	1547.8375
2826.96904	1540.6375
2829.50412	1543.8375
2832.03763	1544.3375
2834.56959	1537.2375
2837.1	1546.9375
2839.62884	1544.8375
2842.15613	1543.2375
2844.68186	1546.8375
2847.20604	1554.9375
2849.72867	1555.4375
2852.24974	1568.2375
2854.76927	1612.2375
2857.28724	1688.0375
2859.80367	1618.7375
2862.31855	1593.9375
2864.83189	1597.6375
2867.34368	1571.5375
2869.85393	1571.3375
2872.36264	1559.4375
2874.8698	1556.5375
2877.37543	1559.9375
2879.87952	1555.9375
2882.38207	1557.5375
2884.88308	1565.3375
2887.38256	1556.7375
2889.88051	1569.2375
2892.37692	1557.3375
2894.8718	1565.3375
2897.36515	1554.7375
2899.85698	1557.9375
2902.34727	1560.1375
2904.83604	1561.6375
2907.32328	1567.0375
2909.809	1566.3375
2912.29319	1563.1375
2914.77587	1564.2375
2917.25702	1565.7375
2919.73665	1556.2375
2922.21476	1551.8375
2924.69136	1561.7375
2927.16644	1564.3375
2929.64	1559.1375
2932.11205	1561.6375
2934.58258	1558.0375
2937.05161	1547.2375
2939.51912	1543.8375
2941.98513	1549.2375
2944.44962	1548.5375
2946.91261	1543.6375
2949.37409	1546.6375
2951.83407	1545.6375
2954.29254	1545.9375
2956.74951	1539.7375
2959.20498	1532.5375
2961.65895	1521.8375
2964.11142	1527.6375
2966.56239	1522.1375
2969.01186	1526.2375
2971.45984	1516.1375
2973.90632	1515.1375
2976.35131	1511.8375
2978.7948	1516.9375
2981.23681	1505.1375
2983.67732	1500.0375
2986.11635	1502.6375
2988.55388	1496.9375
2990.98993	1485.6375
2993.4245	1487.7375
2995.85758	1483.5375
2998.28917	1480.6375
3000.71928	1483.9375
3003.14791	1486.9375
3005.57506	1476.2375
3008.00073	1484.2375
3010.42493	1485.1375
3012.84764	1484.7375
3015.26888	1487.4375
3017.68865	1485.8375
3020.10694	1474.6375
3022.52376	1481.8375
3024.9391	1480.6375
3027.35298	1476.6375
3029.76539	1469.3375
3032.17632	1481.7375
3034.5858	1472.6375
3036.9938	1477.4375
3039.40034	1483.0375
3041.80542	1466.1375
3044.20903	1472.8375
3046.61118	1476.3375
3049.01187	1461.9375
3051.4111	1473.9375
3053.80888	1474.6375
3056.20519	1475.6375
3058.60005	1471.1375
3060.99345	1474.5375
3063.3854	1471.7375
3065.7759	1467.4375
3068.16494	1472.4375
3070.55254	1471.0375
3072.93868	1472.8375
3075.32338	1471.9375
3077.70662	1473.3375
3080.08842	1469.6375
3082.46878	1471.1375
3084.84769	1474.8375
3087.22515	1479.2375
3089.60118	1482.0375
3091.97576	1481.7375
3094.3489	1471.3375
3096.72061	1488.2375
3099.09087	1482.4375
3101.4597	1501.2375
3103.82709	1478.4375
3106.19305	1492.5375
3108.55757	1503.2375
3110.92066	1491.4375
3113.28232	1497.7375
3115.64255	1495.7375
3118.00134	1499.2375
3120.35871	1507.0375
3122.71466	1502.9375
3125.06917	1499.0375
3127.42226	1501.2375
