Data from AgNPs_FTO_APTES_UA_0.1mM_CRN_20uM_NaF_0.1M_Addition_RamanShift__28__12-29-37-613.txt Node

Date: Mon Dec 20 12:29:37 GMT 2021
User: TCL
Spectrometer: QEP01345
Trigger mode: 4
Integration Time (sec): 7.000000E0
Scans to average: 10
Electric dark correction enabled: true
Nonlinearity correction enabled: false
Boxcar width: 0
XAxis mode: Raman Shifts
Number of Pixels in Spectrum: 1044
>>>>>Begin Spectral Data<<<<<
46.04893	0.0125
50.45542	-0.8875
54.85868	-1.9875
59.25871	1.5125
63.6555	31.2125
68.04907	32.6125
72.43941	38.0125
76.82654	40.6125
81.21044	43.1125
85.59113	46.0125
89.96862	44.0125
94.34289	45.3125
98.71396	46.7125
103.08183	47.1125
107.4465	51.1125
111.80798	53.6125
116.16626	54.3125
120.52136	54.0125
124.87327	58.7125
129.222	58.3125
133.56755	57.2125
137.90993	65.6125
142.24913	68.7125
146.58517	69.9125
150.91804	84.2125
155.24774	99.4125
159.57429	119.6125
163.89768	155.5125
168.21792	199.6125
172.53501	259.5125
176.84895	356.1125
181.15975	491.3125
185.46741	679.4125
189.77193	939.9125
194.07331	1263.7125
198.37157	1630.2125
202.6667	2026.7125
206.9587	2421.3125
211.24758	2807.8125
215.53334	3194.5125
219.81599	3599.8125
224.09553	4008.1125
228.37195	4474.0125
232.64527	4963.8125
236.91549	5469.9125
241.18261	5976.0125
245.44663	6412.6125
249.70755	6850.6125
253.96539	7202.8125
258.22014	7490.9125
262.4718	7729.0125
266.72039	7874.3125
270.96589	7909.0125
275.20832	7900.9125
279.44768	7812.1125
283.68397	7710.9125
287.91719	7603.6125
292.14735	7556.1125
296.37445	7528.2125
300.59849	7564.3125
304.81948	7605.7125
309.03742	7649.8125
313.25231	7595.4125
317.46415	7444.7125
321.67296	7207.4125
325.87872	7010.4125
330.08145	6901.9125
334.28114	6905.2125
338.47781	6931.1125
342.67145	6995.1125
346.86207	7135.7125
351.04966	7318.8125
355.23424	7510.9125
359.4158	7680.9125
363.59435	7810.0125
367.76989	7894.0125
371.94243	7956.8125
376.11196	8003.8125
380.27849	8081.7125
384.44203	8104.7125
388.60257	8155.3125
392.76012	8202.9125
396.91468	8243.9125
401.06626	8370.2125
405.21485	8444.0125
409.36047	8401.5125
413.50311	8271.5125
417.64277	8124.9125
421.77947	8051.2125
425.9132	8025.7125
430.04396	8038.5125
434.17176	8060.4125
438.2966	8151.5125
442.41849	8243.3125
446.53742	8363.1125
450.6534	8511.5125
454.76644	8616.2125
458.87653	8649.3125
462.98368	8637.1125
467.08789	8581.5125
471.18916	8554.6125
475.2875	8546.5125
479.38291	8568.6125
483.4754	8669.7125
487.56496	8766.1125
491.6516	8865.8125
495.73531	8885.0125
499.81612	8843.4125
503.89401	8742.3125
507.96899	8617.7125
512.04106	8579.9125
516.11023	8629.8125
520.1765	8651.5125
524.23987	8717.1125
528.30034	8780.8125
532.35792	8757.8125
536.41261	8633.9125
540.46441	8505.9125
544.51333	8377.2125
548.55936	8310.9125
552.60252	8311.8125
556.64279	8363.0125
560.6802	8427.8125
564.71473	8484.7125
568.7464	8621.1125
572.7752	8737.2125
576.80114	8723.7125
580.82422	8650.6125
584.84444	8745.4125
588.86181	8856.0125
592.87633	9026.8125
596.888	9046.2125
600.89682	9026.3125
604.9028	9212.0125
608.90594	10055.0125
612.90624	11256.3125
616.90371	11308.3125
620.89834	10197.0125
624.89015	9917.8125
628.87913	10372.2125
632.86528	10943.0125
636.84862	11210.6125
640.82913	11017.7125
644.80683	10427.0125
648.78172	9749.2125
652.75379	9260.6125
656.72306	9020.0125
660.68952	8959.8125
664.65319	8876.1125
668.61405	8697.6125
672.57211	8651.7125
676.52738	8644.7125
680.47986	8638.0125
684.42955	8614.1125
688.37646	8576.0125
692.32058	8601.8125
696.26192	8542.7125
700.20048	8525.7125
704.13626	8492.1125
708.06928	8400.9125
711.99952	8341.5125
715.927	8341.5125
719.85171	8357.0125
723.77365	8415.0125
727.69284	8419.8125
731.60928	8338.5125
735.52295	8231.5125
739.43388	8193.8125
743.34206	8187.5125
747.24749	8205.4125
751.15017	8214.8125
755.05012	8271.1125
758.94733	8374.8125
762.8418	8681.0125
766.73354	9165.1125
770.62254	9649.3125
774.50882	9914.4125
778.39237	9687.3125
782.27321	9142.4125
786.15132	8638.9125
790.02671	8356.3125
793.89938	8280.8125
797.76935	8320.5125
801.6366	8437.6125
805.50115	8713.1125
809.36299	9045.9125
813.22213	9202.7125
817.07857	9074.3125
820.93231	8745.6125
824.78336	8387.1125
828.63172	8133.9125
832.47738	7962.8125
836.32036	7901.5125
840.16066	7882.8125
843.99827	7856.9125
847.8332	7819.0125
851.66546	7805.5125
855.49504	7795.4125
859.32195	7773.3125
863.1462	7835.9125
866.96777	7887.5125
870.78668	8026.1125
874.60293	8204.3125
878.41652	8435.7125
882.22745	8643.5125
886.03573	8783.4125
889.84136	8752.0125
893.64433	8555.3125
897.44466	8263.2125
901.24235	7965.5125
905.0374	7743.4125
908.8298	7606.0125
912.61957	7507.7125
916.40671	7489.0125
920.19121	7459.2125
923.97308	7468.7125
927.75233	7483.8125
931.52895	7468.8125
935.30295	7426.8125
939.07433	7332.0125
942.84309	7300.1125
946.60924	7276.9125
950.37278	7240.9125
954.13371	7237.9125
957.89203	7200.8125
961.64774	7153.3125
965.40086	7145.0125
969.15137	7122.1125
972.89929	7075.9125
976.64461	7059.5125
980.38733	7042.8125
984.12747	7042.2125
987.86502	7059.1125
991.59999	7110.6125
995.33237	7167.8125
999.06217	7311.4125
1002.78939	7472.8125
1006.51404	7639.0125
1010.23611	7787.3125
1013.95561	7900.4125
1017.67255	7919.1125
1021.38692	7850.7125
1025.09872	7712.3125
1028.80796	7567.8125
1032.51465	7470.9125
1036.21877	7397.6125
1039.92035	7326.5125
1043.61937	7285.3125
1047.31584	7235.0125
1051.00976	7223.9125
1054.70114	7251.0125
1058.38998	7285.6125
1062.07627	7341.1125
1065.76003	7412.9125
1069.44126	7470.1125
1073.11995	7536.4125
1076.79611	7541.0125
1080.46974	7519.4125
1084.14085	7486.6125
1087.80943	7475.0125
1091.47549	7446.2125
1095.13903	7363.8125
1098.80005	7272.2125
1102.45857	7194.8125
1106.11456	7184.2125
1109.76805	7225.5125
1113.41903	7337.4125
1117.06751	7575.1125
1120.71348	7896.9125
1124.35696	8394.1125
1127.99793	8974.0125
1131.63641	9464.0125
1135.2724	9710.1125
1138.90589	9658.4125
1142.5369	9415.0125
1146.16542	8972.8125
1149.79145	8459.3125
1153.415	8040.3125
1157.03607	7728.2125
1160.65467	7572.5125
1164.27079	7569.9125
1167.88443	7676.8125
1171.49561	7891.1125
1175.10432	8292.0125
1178.71056	8856.0125
1182.31434	9366.1125
1185.91565	9646.9125
1189.51451	9682.6125
1193.11091	9658.9125
1196.70485	9658.4125
1200.29634	9716.2125
1203.88538	9698.8125
1207.47197	9519.3125
1211.05612	9168.0125
1214.63782	8797.9125
1218.21708	8453.1125
1221.79391	8165.1125
1225.36829	7937.4125
1228.94024	7791.8125
1232.50976	7638.7125
1236.07685	7568.0125
1239.6415	7569.2125
1243.20374	7572.7125
1246.76355	7616.9125
1250.32093	7657.3125
1253.8759	7739.2125
1257.42845	7868.2125
1260.97859	7956.7125
1264.52631	8021.6125
1268.07163	8118.5125
1271.61453	8185.7125
1275.15503	8237.4125
1278.69312	8273.4125
1282.22882	8318.6125
1285.76211	8406.7125
1289.29301	8588.3125
1292.82151	8818.1125
1296.34761	9069.3125
1299.87133	9457.0125
1303.39266	9927.8125
1306.9116	10521.9125
1310.42815	11214.4125
1313.94233	11617.5125
1317.45412	11626.2125
1320.96354	11351.3125
1324.47058	10993.4125
1327.97525	10714.3125
1331.47754	10567.7125
1334.97747	10498.5125
1338.47502	10583.1125
1341.97022	10702.1125
1345.46305	10865.5125
1348.95352	11080.0125
1352.44163	11357.6125
1355.92738	11808.3125
1359.41078	12575.5125
1362.89183	13318.5125
1366.37053	13182.9125
1369.84688	12060.0125
1373.32088	10856.9125
1376.79254	10053.1125
1380.26186	9620.2125
1383.72883	9468.2125
1387.19347	9328.8125
1390.65578	9176.6125
1394.11575	9074.3125
1397.57339	9044.6125
1401.0287	9069.3125
1404.48168	9089.9125
1407.93234	9047.3125
1411.38068	8928.5125
1414.82669	8702.6125
1418.27039	8393.2125
1421.71177	8075.4125
1425.15083	7786.0125
1428.58758	7615.5125
1432.02203	7565.1125
1435.45416	7576.7125
1438.88399	7629.6125
1442.31151	7673.5125
1445.73673	7728.6125
1449.15965	7791.7125
1452.58027	7830.1125
1455.9986	7813.9125
1459.41463	7822.7125
1462.82837	7893.2125
1466.23982	7975.8125
1469.64898	8078.8125
1473.05586	8137.7125
1476.46045	8147.9125
1479.86276	8170.4125
1483.26279	8188.5125
1486.66054	8234.8125
1490.05602	8349.1125
1493.44922	8449.1125
1496.84016	8633.8125
1500.22882	8956.6125
1503.61521	9446.6125
1506.99934	10064.3125
1510.38121	10601.6125
1513.76081	10751.9125
1517.13816	10385.9125
1520.51324	9675.2125
1523.88607	9026.8125
1527.25665	8628.0125
1530.62498	8460.3125
1533.99105	8419.2125
1537.35488	8431.1125
1540.71647	8465.3125
1544.07581	8477.5125
1547.4329	8492.7125
1550.78776	8501.7125
1554.14038	8466.8125
1557.49077	8461.1125
1560.83892	8505.9125
1564.18484	8566.3125
1567.52853	8642.4125
1570.86999	8727.3125
1574.20922	8822.8125
1577.54624	8851.0125
1580.88103	8789.5125
1584.2136	8621.0125
1587.54395	8609.4125
1590.87208	8737.3125
1594.19801	9017.7125
1597.52172	9391.7125
1600.84321	9595.5125
1604.16251	9488.5125
1607.47959	9178.8125
1610.79447	8766.2125
1614.10715	8374.7125
1617.41763	8087.7125
1620.7259	7874.1125
1624.03199	7814.4125
1627.33587	7814.9125
1630.63757	7924.7125
1633.93707	8144.7125
1637.23439	8520.6125
1640.52951	9041.6125
1643.82246	9725.2125
1647.11321	10465.3125
1650.40179	10928.4125
1653.68819	10681.7125
1656.97241	9877.4125
1660.25446	8941.9125
1663.53433	8207.8125
1666.81203	7718.9125
1670.08756	7392.1125
1673.36092	7177.5125
1676.63211	7003.6125
1679.90115	6891.4125
1683.16801	6767.6125
1686.43272	6660.4125
1689.69527	6550.6125
1692.95567	6414.6125
1696.2139	6350.8125
1699.46999	6244.2125
1702.72392	6151.1125
1705.97571	6033.4125
1709.22535	5919.5125
1712.47284	5838.9125
1715.71819	5775.9125
1718.96139	5695.0125
1722.20246	5633.9125
1725.44139	5567.1125
1728.67818	5513.2125
1731.91284	5443.4125
1735.14537	5407.1125
1738.37576	5372.8125
1741.60403	5320.0125
1744.83017	5303.0125
1748.05418	5286.6125
1751.27607	5266.5125
1754.49584	5276.9125
1757.71349	5266.2125
1760.92903	5239.2125
1764.14244	5218.2125
1767.35375	5193.3125
1770.56294	5180.9125
1773.77002	5152.6125
1776.97499	5108.3125
1780.17785	5094.9125
1783.37861	5067.9125
1786.57727	5028.6125
1789.77382	5024.7125
1792.96828	4997.3125
1796.16064	4960.7125
1799.3509	4959.1125
1802.53907	4928.8125
1805.72514	4910.1125
1808.90913	4899.5125
1812.09102	4892.6125
1815.27083	4870.1125
1818.44856	4872.6125
1821.6242	4849.8125
1824.79776	4834.7125
1827.96924	4835.3125
1831.13864	4816.1125
1834.30597	4827.2125
1837.47122	4801.1125
1840.6344	4782.1125
1843.7955	4808.1125
1846.95454	4783.8125
1850.11151	4788.5125
1853.26642	4781.7125
1856.41926	4767.5125
1859.57004	4759.2125
1862.71876	4757.3125
1865.86542	4753.0125
1869.01003	4742.9125
1872.15258	4740.2125
1875.29308	4728.2125
1878.43152	4717.6125
1881.56792	4711.3125
1884.70227	4707.0125
1887.83457	4701.8125
1890.96482	4683.5125
1894.09304	4674.3125
1897.21921	4682.9125
1900.34335	4674.2125
1903.46544	4670.7125
1906.58551	4642.7125
1909.70353	4632.1125
1912.81953	4643.2125
1915.93349	4621.3125
1919.04543	4621.2125
1922.15534	4609.1125
1925.26322	4577.0125
1928.36908	4592.1125
1931.47292	4585.6125
1934.57473	4555.1125
1937.67453	4554.4125
1940.77232	4536.7125
1943.86808	4523.0125
1946.96184	4501.3125
1950.05358	4475.8125
1953.14331	4474.0125
1956.23103	4482.1125
1959.31675	4450.1125
1962.40046	4441.4125
1965.48217	4430.5125
1968.56188	4412.8125
1971.63959	4402.0125
1974.7153	4376.4125
1977.78901	4358.5125
1980.86073	4344.6125
1983.93046	4335.3125
1986.99819	4309.4125
1990.06394	4295.9125
1993.1277	4294.4125
1996.18947	4259.3125
1999.24925	4265.4125
2002.30706	4252.8125
2005.36288	4230.3125
2008.41672	4218.8125
2011.46859	4206.0125
2014.51848	4194.9125
2017.56639	4172.7125
2020.61233	4157.5125
2023.6563	4161.5125
2026.6983	4151.5125
2029.73833	4143.2125
2032.7764	4129.5125
2035.8125	4116.7125
2038.84664	4111.7125
2041.87881	4109.9125
2044.90903	4086.3125
2047.93729	4074.5125
2050.96359	4078.1125
2053.98794	4074.4125
2057.01034	4077.2125
2060.03078	4066.5125
2063.04927	4057.3125
2066.06582	4052.5125
2069.08042	4053.6125
2072.09307	4052.4125
2075.10378	4029.5125
2078.11255	4040.1125
2081.11938	4030.0125
2084.12426	4029.3125
2087.12722	4023.4125
2090.12824	4013.0125
2093.12732	4019.2125
2096.12447	4025.3125
2099.11969	4018.3125
2102.11299	4006.5125
2105.10435	4004.3125
2108.09379	4016.4125
2111.08131	4019.5125
2114.0669	4000.8125
2117.05057	4008.3125
2120.03233	4008.5125
2123.01216	4011.0125
2125.99008	4023.0125
2128.96609	4021.3125
2131.94018	4013.1125
2134.91236	4027.6125
2137.88263	4003.4125
2140.851	4003.6125
2143.81746	4026.2125
2146.78201	4014.6125
2149.74466	4013.4125
2152.7054	4016.4125
2155.66425	4004.7125
2158.6212	4006.5125
2161.57625	4010.4125
2164.52941	3990.6125
2167.48067	3996.1125
2170.43004	3994.5125
2173.37752	3980.6125
2176.32311	3987.6125
2179.26681	3991.4125
2182.20863	3980.3125
2185.14856	3992.8125
2188.08661	3974.7125
2191.02278	3986.0125
2193.95707	3953.7125
2196.88948	3974.4125
2199.82001	3969.4125
2202.74867	3971.0125
2205.67545	3964.0125
2208.60037	3946.9125
2211.52341	3926.9125
2214.44458	3928.0125
2217.36388	3933.7125
2220.28132	3913.0125
2223.1969	3893.1125
2226.11061	3896.4125
2229.02246	3881.4125
2231.93245	3884.2125
2234.84058	3873.5125
2237.74686	3859.8125
2240.65128	3853.0125
2243.55385	3838.6125
2246.45456	3845.8125
2249.35343	3844.6125
2252.25044	3835.5125
2255.14561	3817.2125
2258.03893	3823.3125
2260.93041	3812.3125
2263.82004	3795.9125
2266.70783	3812.1125
2269.59378	3785.3125
2272.4779	3790.4125
2275.36017	3756.3125
2278.24061	3759.2125
2281.11922	3746.6125
2283.996	3737.5125
2286.87094	3747.0125
2289.74405	3713.7125
2292.61534	3728.5125
2295.4848	3703.3125
2298.35243	3694.3125
2301.21824	3697.5125
2304.08223	3702.9125
2306.94439	3707.2125
2309.80474	3689.7125
2312.66327	3688.3125
2315.51999	3672.1125
2318.37489	3674.8125
2321.22797	3666.0125
2324.07925	3652.9125
2326.92871	3657.9125
2329.77637	3640.9125
2332.62222	3640.5125
2335.46626	3633.1125
2338.3085	3633.0125
2341.14893	3626.0125
2343.98756	3631.3125
2346.8244	3621.4125
2349.65943	3605.0125
2352.49267	3607.8125
2355.32411	3620.4125
2358.15376	3620.5125
2360.98161	3602.8125
2363.80768	3598.7125
2366.63195	3614.8125
2369.45444	3602.2125
2372.27514	3592.5125
2375.09405	3599.7125
2377.91118	3598.6125
2380.72652	3577.9125
2383.54009	3575.0125
2386.35187	3563.6125
2389.16188	3552.5125
2391.97011	3561.1125
2394.77657	3532.3125
2397.58125	3524.6125
2400.38416	3523.9125
2403.18529	3518.9125
2405.98466	3508.5125
2408.78226	3500.5125
2411.57809	3480.5125
2414.37216	3471.5125
2417.16446	3467.8125
2419.955	3485.9125
2422.74378	3461.8125
2425.5308	3460.4125
2428.31606	3466.3125
2431.09956	3445.4125
2433.88131	3438.7125
2436.6613	3440.2125
2439.43954	3429.5125
2442.21603	3437.5125
2444.99077	3421.4125
2447.76377	3423.5125
2450.53501	3419.0125
2453.30451	3421.8125
2456.07226	3418.8125
2458.83827	3401.1125
2461.60254	3403.9125
2464.36507	3403.8125
2467.12586	3379.4125
2469.88492	3396.2125
2472.64224	3387.1125
2475.39782	3385.9125
2478.15167	3402.5125
2480.90379	3395.0125
2483.65417	3372.1125
2486.40283	3377.8125
2489.14976	3378.7125
2491.89497	3391.2125
2494.63845	3387.4125
2497.3802	3378.4125
2500.12024	3371.3125
2502.85855	3360.8125
2505.59514	3356.7125
2508.33002	3361.3125
2511.06318	3348.3125
2513.79462	3334.3125
2516.52435	3342.0125
2519.25237	3329.8125
2521.97867	3321.7125
2524.70327	3308.2125
2527.42616	3313.1125
2530.14734	3311.7125
2532.86681	3295.4125
2535.58458	3302.1125
2538.30065	3300.7125
2541.01501	3288.3125
2543.72768	3274.1125
2546.43864	3265.3125
2549.14791	3275.2125
2551.85548	3271.8125
2554.56136	3244.9125
2557.26554	3260.3125
2559.96803	3249.8125
2562.66883	3236.9125
2565.36794	3240.6125
2568.06536	3230.1125
2570.7611	3222.7125
2573.45514	3210.5125
2576.14751	3200.6125
2578.83819	3205.7125
2581.52719	3195.9125
2584.21451	3191.4125
2586.90015	3186.9125
2589.58411	3184.7125
2592.2664	3170.0125
2594.94701	3164.2125
2597.62594	3165.1125
2600.30321	3161.9125
2602.9788	3156.6125
2605.65273	3148.5125
2608.32498	3149.0125
2610.99557	3136.6125
2613.66449	3139.6125
2616.33175	3133.9125
2618.99734	3119.3125
2621.66128	3134.9125
2624.32355	3127.1125
2626.98416	3124.4125
2629.64311	3123.7125
2632.30041	3113.3125
2634.95605	3114.6125
2637.61004	3099.0125
2640.26238	3107.2125
2642.91306	3098.6125
2645.56209	3090.6125
2648.20948	3094.3125
2650.85521	3094.1125
2653.4993	3079.9125
2656.14175	3090.0125
2658.78255	3089.6125
2661.42171	3076.6125
2664.05923	3076.6125
2666.6951	3085.5125
2669.32934	3086.4125
2671.96194	3079.7125
2674.59291	3070.9125
2677.22224	3073.1125
2679.84993	3078.8125
2682.476	3086.2125
2685.10043	3078.4125
2687.72324	3077.0125
2690.34441	3085.3125
2692.96396	3085.1125
2695.58188	3083.4125
2698.19818	3083.1125
2700.81285	3083.7125
2703.4259	3103.8125
2706.03733	3108.5125
2708.64714	3100.0125
2711.25533	3093.8125
2713.86191	3091.1125
2716.46687	3102.0125
2719.07021	3088.5125
2721.67194	3089.2125
2724.27206	3092.2125
2726.87057	3089.5125
2729.46747	3081.5125
2732.06276	3089.7125
2734.65644	3067.1125
2737.24852	3073.3125
2739.83899	3068.5125
2742.42786	3071.9125
2745.01513	3060.0125
2747.60079	3073.0125
2750.18486	3049.4125
2752.76733	3053.1125
2755.3482	3047.7125
2757.92747	3040.3125
2760.50515	3044.1125
2763.08123	3037.0125
2765.65573	3027.7125
2768.22863	3046.5125
2770.79994	3022.9125
2773.36967	3022.8125
2775.9378	3016.2125
2778.50435	3020.8125
2781.06932	3025.7125
2783.6327	3018.4125
2786.1945	3012.6125
2788.75471	3008.6125
2791.31335	2997.6125
2793.87041	2979.7125
2796.42589	3002.6125
2798.97979	2972.6125
2801.53212	2967.2125
2804.08288	2975.1125
2806.63206	2971.9125
2809.17967	2948.6125
2811.72571	2948.6125
2814.27018	2947.9125
2816.81308	2942.6125
2819.35442	2943.9125
2821.89419	2934.8125
2824.43239	2936.4125
2826.96904	2932.4125
2829.50412	2934.9125
2832.03763	2930.9125
2834.56959	2918.0125
2837.1	2935.5125
2839.62884	2920.8125
2842.15613	2911.9125
2844.68186	2924.5125
2847.20604	2917.8125
2849.72867	2928.0125
2852.24974	2927.7125
2854.76927	2935.0125
2857.28724	2938.4125
2859.80367	2927.0125
2862.31855	2905.4125
2864.83189	2920.0125
2867.34368	2909.1125
2869.85393	2923.1125
2872.36264	2914.1125
2874.8698	2912.5125
2877.37543	2913.8125
2879.87952	2907.1125
2882.38207	2912.3125
2884.88308	2927.8125
2887.38256	2933.8125
2889.88051	2925.9125
2892.37692	2920.2125
2894.8718	2919.5125
2897.36515	2934.0125
2899.85698	2923.4125
2902.34727	2935.1125
2904.83604	2945.1125
2907.32328	2923.5125
2909.809	2934.4125
2912.29319	2932.0125
2914.77587	2942.9125
2917.25702	2936.9125
2919.73665	2928.7125
2922.21476	2926.6125
2924.69136	2926.5125
2927.16644	2929.7125
2929.64	2931.3125
2932.11205	2932.7125
2934.58258	2920.1125
2937.05161	2915.5125
2939.51912	2918.3125
2941.98513	2913.8125
2944.44962	2906.9125
2946.91261	2893.0125
2949.37409	2899.4125
2951.83407	2904.1125
2954.29254	2892.1125
2956.74951	2898.4125
2959.20498	2892.7125
2961.65895	2875.7125
2964.11142	2881.0125
2966.56239	2872.8125
2969.01186	2876.4125
2971.45984	2873.2125
2973.90632	2857.1125
2976.35131	2847.2125
2978.7948	2852.5125
2981.23681	2854.2125
2983.67732	2841.2125
2986.11635	2841.7125
2988.55388	2843.9125
2990.98993	2837.0125
2993.4245	2829.5125
2995.85758	2827.1125
2998.28917	2823.4125
3000.71928	2824.0125
3003.14791	2811.2125
3005.57506	2818.5125
3008.00073	2803.7125
3010.42493	2804.8125
3012.84764	2805.4125
3015.26888	2815.1125
3017.68865	2802.8125
3020.10694	2802.4125
3022.52376	2788.7125
3024.9391	2799.0125
3027.35298	2788.5125
3029.76539	2792.0125
3032.17632	2799.7125
3034.5858	2776.7125
3036.9938	2786.4125
3039.40034	2771.2125
3041.80542	2780.0125
3044.20903	2776.9125
3046.61118	2795.4125
3049.01187	2782.7125
3051.4111	2779.3125
3053.80888	2788.7125
3056.20519	2779.3125
3058.60005	2764.3125
3060.99345	2769.8125
3063.3854	2761.2125
3065.7759	2769.1125
3068.16494	2764.7125
3070.55254	2763.9125
3072.93868	2759.2125
3075.32338	2745.6125
3077.70662	2758.1125
3080.08842	2766.5125
3082.46878	2761.3125
3084.84769	2753.9125
3087.22515	2767.1125
3089.60118	2770.9125
3091.97576	2777.0125
3094.3489	2781.9125
3096.72061	2785.8125
3099.09087	2783.3125
3101.4597	2794.8125
3103.82709	2792.3125
3106.19305	2787.4125
3108.55757	2794.8125
3110.92066	2784.8125
3113.28232	2787.3125
3115.64255	2788.9125
3118.00134	2789.2125
3120.35871	2796.0125
3122.71466	2793.2125
