Data from AgNPs_FTO_APTES_UA_0.1mM_CRN_200uM_NaF_0.1M_Addition_RamanShift__10__14-06-27-722.txt Node

Date: Mon Dec 20 14:06:27 GMT 2021
User: TCL
Spectrometer: QEP01345
Trigger mode: 4
Integration Time (sec): 7.000000E0
Scans to average: 10
Electric dark correction enabled: true
Nonlinearity correction enabled: false
Boxcar width: 0
XAxis mode: Raman Shifts
Number of Pixels in Spectrum: 1044
>>>>>Begin Spectral Data<<<<<
46.04893	1.2875
50.45542	-1.2125
54.85868	-1.6125
59.25871	0.7875
63.6555	27.9875
68.04907	28.1875
72.43941	28.4875
76.82654	35.7875
81.21044	32.5875
85.59113	40.4875
89.96862	35.0875
94.34289	39.4875
98.71396	38.9875
103.08183	40.2875
107.4465	41.9875
111.80798	44.4875
116.16626	46.9875
120.52136	44.5875
124.87327	47.2875
129.222	47.4875
133.56755	50.3875
137.90993	54.7875
142.24913	54.1875
146.58517	59.5875
150.91804	71.0875
155.24774	76.9875
159.57429	99.6875
163.89768	124.2875
168.21792	157.5875
172.53501	211.8875
176.84895	294.3875
181.15975	407.0875
185.46741	572.6875
189.77193	790.7875
194.07331	1044.8875
198.37157	1358.1875
202.6667	1680.2875
206.9587	2005.6875
211.24758	2320.2875
215.53334	2655.5875
219.81599	3002.2875
224.09553	3367.2875
228.37195	3805.4875
232.64527	4306.1875
236.91549	4821.6875
241.18261	5327.6875
245.44663	5796.0875
249.70755	6196.3875
253.96539	6447.9875
258.22014	6577.8875
262.4718	6623.2875
266.72039	6522.8875
270.96589	6358.0875
275.20832	6122.3875
279.44768	5883.4875
283.68397	5646.4875
287.91719	5437.4875
292.14735	5267.6875
296.37445	5131.4875
300.59849	5060.4875
304.81948	4968.5875
309.03742	4917.0875
313.25231	4846.0875
317.46415	4770.7875
321.67296	4715.1875
325.87872	4643.6875
330.08145	4608.6875
334.28114	4581.2875
338.47781	4578.2875
342.67145	4575.5875
346.86207	4584.3875
351.04966	4607.5875
355.23424	4630.7875
359.4158	4674.5875
363.59435	4696.1875
367.76989	4708.1875
371.94243	4767.2875
376.11196	4799.0875
380.27849	4843.2875
384.44203	4899.1875
388.60257	4961.9875
392.76012	5043.8875
396.91468	5174.3875
401.06626	5307.4875
405.21485	5442.8875
409.36047	5498.9875
413.50311	5491.1875
417.64277	5429.7875
421.77947	5365.4875
425.9132	5311.4875
430.04396	5295.0875
434.17176	5267.6875
438.2966	5231.2875
442.41849	5229.8875
446.53742	5240.5875
450.6534	5252.1875
454.76644	5270.2875
458.87653	5294.3875
462.98368	5289.5875
467.08789	5295.5875
471.18916	5310.7875
475.2875	5340.8875
479.38291	5401.7875
483.4754	5489.5875
487.56496	5599.1875
491.6516	5704.5875
495.73531	5796.6875
499.81612	5856.6875
503.89401	5889.3875
507.96899	5870.5875
512.04106	5821.5875
516.11023	5727.4875
520.1765	5618.0875
524.23987	5546.7875
528.30034	5461.1875
532.35792	5433.7875
536.41261	5391.3875
540.46441	5346.9875
544.51333	5332.8875
548.55936	5292.6875
552.60252	5292.9875
556.64279	5312.9875
560.6802	5329.5875
564.71473	5338.3875
568.7464	5355.1875
572.7752	5383.7875
576.80114	5411.6875
580.82422	5471.2875
584.84444	5554.7875
588.86181	5629.3875
592.87633	5667.2875
596.888	5684.2875
600.89682	5708.4875
604.9028	5785.9875
608.90594	5954.7875
612.90624	6156.3875
616.90371	6151.8875
620.89834	5952.1875
624.89015	5918.2875
628.87913	6033.0875
632.86528	6265.0875
636.84862	6458.6875
640.82913	6545.7875
644.80683	6473.3875
648.78172	6359.4875
652.75379	6231.3875
656.72306	6105.9875
660.68952	6048.7875
664.65319	5992.0875
668.61405	5992.3875
672.57211	5990.2875
676.52738	6031.1875
680.47986	6048.4875
684.42955	6033.2875
688.37646	6007.2875
692.32058	5943.8875
696.26192	5858.4875
700.20048	5749.5875
704.13626	5651.1875
708.06928	5548.3875
711.99952	5482.0875
715.927	5424.2875
719.85171	5387.2875
723.77365	5373.9875
727.69284	5375.4875
731.60928	5370.7875
735.52295	5348.9875
739.43388	5382.1875
743.34206	5441.7875
747.24749	5512.5875
751.15017	5569.1875
755.05012	5636.1875
758.94733	5725.5875
762.8418	5749.7875
766.73354	5830.1875
770.62254	5856.6875
774.50882	5823.1875
778.39237	5705.7875
782.27321	5544.3875
786.15132	5425.7875
790.02671	5325.9875
793.89938	5297.3875
797.76935	5336.1875
801.6366	5420.9875
805.50115	5545.9875
809.36299	5659.5875
813.22213	5719.2875
817.07857	5682.2875
820.93231	5532.2875
824.78336	5354.2875
828.63172	5212.3875
832.47738	5114.8875
836.32036	5054.9875
840.16066	5038.3875
843.99827	5037.4875
847.8332	5034.7875
851.66546	5019.8875
855.49504	5035.8875
859.32195	5058.8875
863.1462	5061.8875
866.96777	5068.4875
870.78668	5095.3875
874.60293	5147.6875
878.41652	5212.1875
882.22745	5264.9875
886.03573	5327.8875
889.84136	5346.0875
893.64433	5345.0875
897.44466	5326.4875
901.24235	5261.0875
905.0374	5183.8875
908.8298	5116.0875
912.61957	5076.8875
916.40671	5049.7875
920.19121	5006.0875
923.97308	4995.7875
927.75233	4961.4875
931.52895	4931.1875
935.30295	4931.7875
939.07433	4897.6875
942.84309	4862.1875
946.60924	4849.0875
950.37278	4842.5875
954.13371	4819.3875
957.89203	4841.0875
961.64774	4832.8875
965.40086	4820.8875
969.15137	4816.3875
972.89929	4813.1875
976.64461	4797.0875
980.38733	4803.7875
984.12747	4804.3875
987.86502	4803.9875
991.59999	4823.6875
995.33237	4838.7875
999.06217	4854.3875
1002.78939	4910.6875
1006.51404	4929.0875
1010.23611	4947.1875
1013.95561	5007.1875
1017.67255	5016.0875
1021.38692	5021.4875
1025.09872	5030.3875
1028.80796	5017.4875
1032.51465	4989.8875
1036.21877	4961.7875
1039.92035	4957.4875
1043.61937	4940.7875
1047.31584	4922.9875
1051.00976	4945.4875
1054.70114	4945.3875
1058.38998	4949.8875
1062.07627	4971.3875
1065.76003	5014.9875
1069.44126	5031.1875
1073.11995	5066.2875
1076.79611	5079.5875
1080.46974	5073.4875
1084.14085	5044.3875
1087.80943	5021.2875
1091.47549	4982.9875
1095.13903	4971.1875
1098.80005	4943.8875
1102.45857	4910.6875
1106.11456	4931.7875
1109.76805	4959.6875
1113.41903	5051.5875
1117.06751	5157.4875
1120.71348	5338.3875
1124.35696	5551.1875
1127.99793	5823.5875
1131.63641	6070.3875
1135.2724	6187.1875
1138.90589	6214.4875
1142.5369	6141.7875
1146.16542	6009.6875
1149.79145	5811.1875
1153.415	5593.5875
1157.03607	5415.0875
1160.65467	5255.7875
1164.27079	5168.1875
1167.88443	5132.9875
1171.49561	5157.7875
1175.10432	5230.3875
1178.71056	5332.3875
1182.31434	5429.5875
1185.91565	5526.7875
1189.51451	5586.9875
1193.11091	5624.2875
1196.70485	5632.4875
1200.29634	5658.6875
1203.88538	5695.0875
1207.47197	5698.3875
1211.05612	5730.9875
1214.63782	5711.2875
1218.21708	5689.1875
1221.79391	5653.9875
1225.36829	5600.2875
1228.94024	5529.0875
1232.50976	5488.4875
1236.07685	5406.4875
1239.6415	5378.4875
1243.20374	5389.8875
1246.76355	5391.5875
1250.32093	5438.4875
1253.8759	5488.7875
1257.42845	5549.6875
1260.97859	5589.1875
1264.52631	5611.2875
1268.07163	5609.7875
1271.61453	5583.9875
1275.15503	5577.6875
1278.69312	5538.0875
1282.22882	5484.7875
1285.76211	5468.4875
1289.29301	5493.9875
1292.82151	5511.3875
1296.34761	5593.0875
1299.87133	5671.1875
1303.39266	5766.8875
1306.9116	5882.7875
1310.42815	6020.6875
1313.94233	6128.7875
1317.45412	6189.3875
1320.96354	6212.1875
1324.47058	6222.5875
1327.97525	6217.5875
1331.47754	6245.3875
1334.97747	6268.4875
1338.47502	6318.3875
1341.97022	6399.7875
1345.46305	6477.7875
1348.95352	6573.6875
1352.44163	6643.9875
1355.92738	6714.3875
1359.41078	6801.4875
1362.89183	6896.1875
1366.37053	6896.3875
1369.84688	6733.9875
1373.32088	6510.4875
1376.79254	6297.3875
1380.26186	6174.4875
1383.72883	6080.1875
1387.19347	6008.9875
1390.65578	5938.5875
1394.11575	5843.4875
1397.57339	5803.2875
1401.0287	5732.6875
1404.48168	5668.9875
1407.93234	5590.7875
1411.38068	5521.1875
1414.82669	5459.7875
1418.27039	5352.6875
1421.71177	5254.6875
1425.15083	5194.3875
1428.58758	5133.4875
1432.02203	5069.4875
1435.45416	5045.2875
1438.88399	5022.9875
1442.31151	5017.4875
1445.73673	4997.7875
1449.15965	4993.2875
1452.58027	4998.7875
1455.9986	5014.4875
1459.41463	5033.3875
1462.82837	5079.6875
1466.23982	5118.3875
1469.64898	5150.4875
1473.05586	5211.7875
1476.46045	5246.4875
1479.86276	5263.8875
1483.26279	5269.6875
1486.66054	5272.7875
1490.05602	5305.5875
1493.44922	5327.7875
1496.84016	5408.0875
1500.22882	5492.8875
1503.61521	5610.8875
1506.99934	5770.4875
1510.38121	5856.6875
1513.76081	5898.9875
1517.13816	5849.4875
1520.51324	5753.3875
1523.88607	5662.8875
1527.25665	5616.3875
1530.62498	5619.7875
1533.99105	5628.4875
1537.35488	5667.0875
1540.71647	5741.1875
1544.07581	5780.1875
1547.4329	5855.3875
1550.78776	5895.9875
1554.14038	5944.3875
1557.49077	5981.2875
1560.83892	6018.5875
1564.18484	6065.3875
1567.52853	6087.1875
1570.86999	6130.0875
1574.20922	6155.4875
1577.54624	6179.6875
1580.88103	6148.4875
1584.2136	6140.3875
1587.54395	6091.0875
1590.87208	6055.2875
1594.19801	6044.1875
1597.52172	6058.9875
1600.84321	6065.7875
1604.16251	5990.4875
1607.47959	5951.5875
1610.79447	5852.5875
1614.10715	5751.6875
1617.41763	5677.5875
1620.7259	5632.5875
1624.03199	5572.1875
1627.33587	5556.4875
1630.63757	5565.7875
1633.93707	5620.8875
1637.23439	5701.2875
1640.52951	5799.8875
1643.82246	5971.8875
1647.11321	6123.1875
1650.40179	6242.8875
1653.68819	6266.2875
1656.97241	6167.4875
1660.25446	6031.6875
1663.53433	5884.1875
1666.81203	5800.1875
1670.08756	5704.7875
1673.36092	5648.6875
1676.63211	5572.5875
1679.90115	5536.3875
1683.16801	5450.5875
1686.43272	5357.7875
1689.69527	5237.5875
1692.95567	5111.3875
1696.2139	5008.6875
1699.46999	4889.9875
1702.72392	4751.0875
1705.97571	4635.3875
1709.22535	4529.7875
1712.47284	4452.5875
1715.71819	4372.8875
1718.96139	4296.5875
1722.20246	4218.4875
1725.44139	4161.2875
1728.67818	4093.5875
1731.91284	4024.9875
1735.14537	3992.2875
1738.37576	3957.7875
1741.60403	3922.9875
1744.83017	3895.3875
1748.05418	3853.4875
1751.27607	3837.9875
1754.49584	3832.9875
1757.71349	3823.3875
1760.92903	3828.3875
1764.14244	3797.5875
1767.35375	3782.2875
1770.56294	3749.9875
1773.77002	3727.0875
1776.97499	3700.1875
1780.17785	3655.8875
1783.37861	3654.7875
1786.57727	3623.0875
1789.77382	3601.2875
1792.96828	3579.4875
1796.16064	3552.5875
1799.3509	3541.5875
1802.53907	3513.7875
1805.72514	3501.4875
1808.90913	3481.0875
1812.09102	3480.6875
1815.27083	3445.3875
1818.44856	3443.7875
1821.6242	3433.6875
1824.79776	3426.9875
1827.96924	3415.4875
1831.13864	3400.6875
1834.30597	3394.2875
1837.47122	3400.4875
1840.6344	3380.7875
1843.7955	3372.6875
1846.95454	3364.6875
1850.11151	3356.5875
1853.26642	3349.2875
1856.41926	3344.0875
1859.57004	3352.2875
1862.71876	3336.8875
1865.86542	3330.6875
1869.01003	3323.4875
1872.15258	3287.7875
1875.29308	3302.5875
1878.43152	3300.2875
1881.56792	3292.8875
1884.70227	3280.6875
1887.83457	3267.9875
1890.96482	3263.9875
1894.09304	3259.8875
1897.21921	3248.8875
1900.34335	3241.4875
1903.46544	3230.9875
1906.58551	3247.3875
1909.70353	3215.9875
1912.81953	3211.0875
1915.93349	3203.9875
1919.04543	3201.4875
1922.15534	3185.5875
1925.26322	3178.9875
1928.36908	3175.7875
1931.47292	3161.5875
1934.57473	3157.4875
1937.67453	3145.2875
1940.77232	3141.8875
1943.86808	3144.7875
1946.96184	3113.0875
1950.05358	3101.0875
1953.14331	3089.3875
1956.23103	3086.9875
1959.31675	3077.3875
1962.40046	3060.7875
1965.48217	3044.9875
1968.56188	3044.0875
1971.63959	3038.2875
1974.7153	3009.5875
1977.78901	3008.4875
1980.86073	2997.4875
1983.93046	2974.9875
1986.99819	2971.3875
1990.06394	2966.5875
1993.1277	2979.5875
1996.18947	2950.4875
1999.24925	2945.1875
2002.30706	2939.8875
2005.36288	2916.5875
2008.41672	2916.7875
2011.46859	2901.3875
2014.51848	2887.7875
2017.56639	2873.9875
2020.61233	2860.2875
2023.6563	2861.5875
2026.6983	2840.9875
2029.73833	2843.5875
2032.7764	2822.4875
2035.8125	2826.8875
2038.84664	2814.1875
2041.87881	2807.5875
2044.90903	2803.3875
2047.93729	2792.6875
2050.96359	2782.6875
2053.98794	2773.2875
2057.01034	2780.2875
2060.03078	2772.5875
2063.04927	2770.2875
2066.06582	2774.0875
2069.08042	2769.2875
2072.09307	2764.6875
2075.10378	2762.1875
2078.11255	2756.2875
2081.11938	2763.0875
2084.12426	2748.8875
2087.12722	2756.0875
2090.12824	2756.5875
2093.12732	2752.4875
2096.12447	2750.6875
2099.11969	2746.9875
2102.11299	2744.4875
2105.10435	2747.1875
2108.09379	2744.9875
2111.08131	2744.1875
2114.0669	2748.0875
2117.05057	2752.2875
2120.03233	2750.2875
2123.01216	2745.0875
2125.99008	2740.2875
2128.96609	2748.0875
2131.94018	2750.4875
2134.91236	2748.7875
2137.88263	2729.7875
2140.851	2748.2875
2143.81746	2743.8875
2146.78201	2735.4875
2149.74466	2740.9875
2152.7054	2752.6875
2155.66425	2736.0875
2158.6212	2735.1875
2161.57625	2732.3875
2164.52941	2742.0875
2167.48067	2727.9875
2170.43004	2737.2875
2173.37752	2728.0875
2176.32311	2728.9875
2179.26681	2714.7875
2182.20863	2716.5875
2185.14856	2717.8875
2188.08661	2713.2875
2191.02278	2711.3875
2193.95707	2687.7875
2196.88948	2712.5875
2199.82001	2691.8875
2202.74867	2694.1875
2205.67545	2677.8875
2208.60037	2681.8875
2211.52341	2659.4875
2214.44458	2670.5875
2217.36388	2654.8875
2220.28132	2653.0875
2223.1969	2636.8875
2226.11061	2628.5875
2229.02246	2626.8875
2231.93245	2628.1875
2234.84058	2617.3875
2237.74686	2597.9875
2240.65128	2603.0875
2243.55385	2604.1875
2246.45456	2597.2875
2249.35343	2594.4875
2252.25044	2587.5875
2255.14561	2573.5875
2258.03893	2572.0875
2260.93041	2576.9875
2263.82004	2555.9875
2266.70783	2544.4875
2269.59378	2546.5875
2272.4779	2542.5875
2275.36017	2537.4875
2278.24061	2526.8875
2281.11922	2509.0875
2283.996	2507.7875
2286.87094	2512.9875
2289.74405	2492.6875
2292.61534	2497.4875
2295.4848	2496.7875
2298.35243	2483.7875
2301.21824	2473.5875
2304.08223	2475.2875
2306.94439	2475.6875
2309.80474	2473.9875
2312.66327	2471.2875
2315.51999	2457.5875
2318.37489	2458.1875
2321.22797	2453.7875
2324.07925	2448.3875
2326.92871	2449.1875
2329.77637	2445.4875
2332.62222	2435.0875
2335.46626	2431.5875
2338.3085	2423.7875
2341.14893	2405.1875
2343.98756	2403.7875
2346.8244	2398.8875
2349.65943	2390.9875
2352.49267	2397.0875
2355.32411	2404.2875
2358.15376	2408.8875
2360.98161	2387.4875
2363.80768	2380.5875
2366.63195	2380.4875
2369.45444	2375.2875
2372.27514	2376.8875
2375.09405	2370.2875
2377.91118	2367.7875
2380.72652	2370.3875
2383.54009	2355.0875
2386.35187	2353.6875
2389.16188	2343.4875
2391.97011	2348.9875
2394.77657	2331.2875
2397.58125	2328.4875
2400.38416	2330.4875
2403.18529	2319.5875
2405.98466	2338.5875
2408.78226	2314.4875
2411.57809	2304.1875
2414.37216	2299.9875
2417.16446	2295.7875
2419.955	2293.6875
2422.74378	2293.4875
2425.5308	2288.5875
2428.31606	2288.2875
2431.09956	2272.3875
2433.88131	2266.5875
2436.6613	2275.0875
2439.43954	2255.9875
2442.21603	2258.7875
2444.99077	2241.7875
2447.76377	2261.8875
2450.53501	2249.2875
2453.30451	2253.9875
2456.07226	2248.6875
2458.83827	2243.0875
2461.60254	2239.7875
2464.36507	2227.3875
2467.12586	2228.7875
2469.88492	2240.5875
2472.64224	2226.1875
2475.39782	2219.5875
2478.15167	2223.1875
2480.90379	2219.8875
2483.65417	2217.3875
2486.40283	2212.3875
2489.14976	2203.4875
2491.89497	2213.5875
2494.63845	2216.4875
2497.3802	2195.7875
2500.12024	2194.7875
2502.85855	2192.6875
2505.59514	2179.1875
2508.33002	2179.1875
2511.06318	2177.6875
2513.79462	2182.3875
2516.52435	2169.1875
2519.25237	2174.7875
2521.97867	2174.1875
2524.70327	2159.0875
2527.42616	2155.1875
2530.14734	2153.0875
2532.86681	2149.2875
2535.58458	2139.9875
2538.30065	2140.1875
2541.01501	2142.7875
2543.72768	2127.5875
2546.43864	2115.6875
2549.14791	2117.4875
2551.85548	2110.9875
2554.56136	2108.2875
2557.26554	2106.1875
2559.96803	2094.0875
2562.66883	2098.8875
2565.36794	2087.7875
2568.06536	2083.5875
2570.7611	2086.8875
2573.45514	2083.1875
2576.14751	2086.5875
2578.83819	2075.3875
2581.52719	2068.9875
2584.21451	2057.2875
2586.90015	2057.3875
2589.58411	2056.1875
2592.2664	2044.6875
2594.94701	2041.8875
2597.62594	2039.9875
2600.30321	2021.8875
2602.9788	2037.5875
2605.65273	2027.8875
2608.32498	2024.7875
2610.99557	2027.1875
2613.66449	2013.7875
2616.33175	2007.2875
2618.99734	2012.1875
2621.66128	2010.8875
2624.32355	1988.9875
2626.98416	2004.0875
2629.64311	1996.0875
2632.30041	1994.5875
2634.95605	1986.4875
2637.61004	1982.8875
2640.26238	1985.4875
2642.91306	1974.9875
2645.56209	1969.9875
2648.20948	1972.5875
2650.85521	1978.2875
2653.4993	1966.7875
2656.14175	1974.0875
2658.78255	1966.3875
2661.42171	1963.8875
2664.05923	1960.4875
2666.6951	1962.2875
2669.32934	1960.4875
2671.96194	1964.5875
2674.59291	1960.1875
2677.22224	1966.3875
2679.84993	1960.6875
2682.476	1955.1875
2685.10043	1963.8875
2687.72324	1954.5875
2690.34441	1954.5875
2692.96396	1951.4875
2695.58188	1960.3875
2698.19818	1955.9875
2700.81285	1953.7875
2703.4259	1968.6875
2706.03733	1978.4875
2708.64714	1970.0875
2711.25533	1962.7875
2713.86191	1945.7875
2716.46687	1953.9875
2719.07021	1954.7875
2721.67194	1952.5875
2724.27206	1939.1875
2726.87057	1955.9875
2729.46747	1947.2875
2732.06276	1937.4875
2734.65644	1935.2875
2737.24852	1935.4875
2739.83899	1941.4875
2742.42786	1930.8875
2745.01513	1921.1875
2747.60079	1929.8875
2750.18486	1914.6875
2752.76733	1914.0875
2755.3482	1914.6875
2757.92747	1913.8875
2760.50515	1909.6875
2763.08123	1909.2875
2765.65573	1902.3875
2768.22863	1903.1875
2770.79994	1899.8875
2773.36967	1891.8875
2775.9378	1894.3875
2778.50435	1881.9875
2781.06932	1889.4875
2783.6327	1871.5875
2786.1945	1881.0875
2788.75471	1871.5875
2791.31335	1864.1875
2793.87041	1864.6875
2796.42589	1859.2875
2798.97979	1849.3875
2801.53212	1845.9875
2804.08288	1848.3875
2806.63206	1841.2875
2809.17967	1832.2875
2811.72571	1830.7875
2814.27018	1820.2875
2816.81308	1826.2875
2819.35442	1832.9875
2821.89419	1825.1875
2824.43239	1812.5875
2826.96904	1822.3875
2829.50412	1827.9875
2832.03763	1811.5875
2834.56959	1815.7875
2837.1	1815.3875
2839.62884	1821.9875
2842.15613	1809.7875
2844.68186	1813.3875
2847.20604	1815.5875
2849.72867	1807.4875
2852.24974	1810.0875
2854.76927	1809.2875
2857.28724	1797.5875
2859.80367	1798.3875
2862.31855	1806.7875
2864.83189	1791.8875
2867.34368	1794.1875
2869.85393	1792.0875
2872.36264	1786.4875
2874.8698	1787.9875
2877.37543	1793.5875
2879.87952	1790.1875
2882.38207	1787.6875
2884.88308	1793.5875
2887.38256	1789.8875
2889.88051	1795.9875
2892.37692	1797.0875
2894.8718	1797.8875
2897.36515	1786.8875
2899.85698	1799.2875
2902.34727	1806.3875
2904.83604	1797.6875
2907.32328	1807.7875
2909.809	1813.2875
2912.29319	1811.1875
2914.77587	1812.7875
2917.25702	1815.6875
2919.73665	1813.5875
2922.21476	1807.9875
2924.69136	1829.2875
2927.16644	1818.8875
2929.64	1825.9875
2932.11205	1830.6875
2934.58258	1824.0875
2937.05161	1824.1875
2939.51912	1825.3875
2941.98513	1829.6875
2944.44962	1826.0875
2946.91261	1819.0875
2949.37409	1826.1875
2951.83407	1825.1875
2954.29254	1820.8875
2956.74951	1827.5875
2959.20498	1818.0875
2961.65895	1809.1875
2964.11142	1801.6875
2966.56239	1798.7875
2969.01186	1801.9875
2971.45984	1799.9875
2973.90632	1782.9875
2976.35131	1775.6875
2978.7948	1777.0875
2981.23681	1766.0875
2983.67732	1758.2875
2986.11635	1763.0875
2988.55388	1748.9875
2990.98993	1755.8875
2993.4245	1743.7875
2995.85758	1748.8875
2998.28917	1748.1875
3000.71928	1742.2875
3003.14791	1742.0875
3005.57506	1733.7875
3008.00073	1739.0875
3010.42493	1732.3875
3012.84764	1728.1875
3015.26888	1752.5875
3017.68865	1722.4875
3020.10694	1737.2875
3022.52376	1730.8875
3024.9391	1748.0875
3027.35298	1731.4875
3029.76539	1726.6875
3032.17632	1724.2875
3034.5858	1730.7875
3036.9938	1729.5875
3039.40034	1735.6875
3041.80542	1723.5875
3044.20903	1726.4875
3046.61118	1722.7875
3049.01187	1731.6875
3051.4111	1724.6875
3053.80888	1726.3875
3056.20519	1722.7875
3058.60005	1726.0875
3060.99345	1724.7875
3063.3854	1714.9875
3065.7759	1724.8875
3068.16494	1719.8875
3070.55254	1722.5875
3072.93868	1719.9875
3075.32338	1721.1875
3077.70662	1727.7875
3080.08842	1722.6875
3082.46878	1732.2875
3084.84769	1737.6875
3087.22515	1734.3875
3089.60118	1741.5875
3091.97576	1748.2875
3094.3489	1736.1875
3096.72061	1758.1875
3099.09087	1759.6875
3101.4597	1752.7875
3103.82709	1752.4875
3106.19305	1758.3875
3108.55757	1770.6875
3110.92066	1758.1875
3113.28232	1751.2875
3115.64255	1751.0875
3118.00134	1767.8875
3120.35871	1764.3875
3122.71466	1777.3875
3125.06917	1775.2875
