Data from AgNPs_FTO_APTES_UA_0.1mM_CRN_10uM_NaF_0.1M_Addition_RamanShift__14__11-34-47-551.txt Node

Date: Mon Dec 20 11:34:47 GMT 2021
User: TCL
Spectrometer: QEP01345
Trigger mode: 4
Integration Time (sec): 7.000000E0
Scans to average: 10
Electric dark correction enabled: true
Nonlinearity correction enabled: false
Boxcar width: 0
XAxis mode: Raman Shifts
Number of Pixels in Spectrum: 1044
>>>>>Begin Spectral Data<<<<<
46.04893	-0.575
50.45542	-0.075
54.85868	-0.975
59.25871	0.325
63.6555	40.225
68.04907	38.625
72.43941	42.025
76.82654	40.725
81.21044	41.325
85.59113	49.225
89.96862	44.125
94.34289	48.325
98.71396	48.425
103.08183	49.625
107.4465	52.025
111.80798	55.825
116.16626	54.625
120.52136	58.525
124.87327	61.225
129.222	57.325
133.56755	63.925
137.90993	67.825
142.24913	76.525
146.58517	76.825
150.91804	95.425
155.24774	107.125
159.57429	132.125
163.89768	170.125
168.21792	221.125
172.53501	291.925
176.84895	406.225
181.15975	560.225
185.46741	787.725
189.77193	1089.825
194.07331	1465.925
198.37157	1896.425
202.6667	2372.025
206.9587	2838.425
211.24758	3286.425
215.53334	3755.825
219.81599	4239.025
224.09553	4765.825
228.37195	5336.325
232.64527	5987.325
236.91549	6677.425
241.18261	7374.825
245.44663	8029.225
249.70755	8639.525
253.96539	9100.325
258.22014	9464.825
262.4718	9692.925
266.72039	9799.325
270.96589	9753.825
275.20832	9605.225
279.44768	9399.025
283.68397	9145.025
287.91719	8937.525
292.14735	8722.025
296.37445	8580.825
300.59849	8502.025
304.81948	8445.925
309.03742	8393.425
313.25231	8312.725
317.46415	8230.425
321.67296	8107.925
325.87872	7984.725
330.08145	7964.925
334.28114	7951.625
338.47781	8002.125
342.67145	8067.625
346.86207	8133.425
351.04966	8237.225
355.23424	8331.725
359.4158	8465.925
363.59435	8597.225
367.76989	8662.625
371.94243	8753.425
376.11196	8802.925
380.27849	8878.625
384.44203	8941.425
388.60257	9031.625
392.76012	9106.425
396.91468	9200.525
401.06626	9351.925
405.21485	9455.625
409.36047	9476.125
413.50311	9458.625
417.64277	9389.125
421.77947	9341.125
425.9132	9344.025
430.04396	9351.725
434.17176	9370.525
438.2966	9432.225
442.41849	9464.225
446.53742	9522.725
450.6534	9622.625
454.76644	9711.225
458.87653	9758.625
462.98368	9782.025
467.08789	9802.425
471.18916	9818.925
475.2875	9825.925
479.38291	9859.125
483.4754	9914.925
487.56496	9943.125
491.6516	10025.725
495.73531	10095.925
499.81612	10131.825
503.89401	10211.125
507.96899	10228.325
512.04106	10228.825
516.11023	10170.925
520.1765	10133.825
524.23987	10067.525
528.30034	9999.025
532.35792	9913.825
536.41261	9902.225
540.46441	9855.925
544.51333	9826.325
548.55936	9836.725
552.60252	9860.125
556.64279	9935.425
560.6802	9987.025
564.71473	10004.025
568.7464	10073.725
572.7752	10106.925
576.80114	10141.125
580.82422	10138.625
584.84444	10204.025
588.86181	10262.925
592.87633	10295.825
596.888	10322.025
600.89682	10342.225
604.9028	10582.525
608.90594	11073.625
612.90624	11712.525
616.90371	11646.925
620.89834	10843.525
624.89015	10499.025
628.87913	10517.325
632.86528	10732.125
636.84862	10917.125
640.82913	10967.125
644.80683	10898.325
648.78172	10782.625
652.75379	10705.325
656.72306	10662.625
660.68952	10719.025
664.65319	10720.425
668.61405	10699.725
672.57211	10720.625
676.52738	10734.725
680.47986	10767.725
684.42955	10772.025
688.37646	10784.125
692.32058	10776.725
696.26192	10760.425
700.20048	10731.225
704.13626	10678.825
708.06928	10616.325
711.99952	10503.925
715.927	10375.825
719.85171	10289.725
723.77365	10281.725
727.69284	10246.625
731.60928	10202.725
735.52295	10164.025
739.43388	10155.025
743.34206	10193.925
747.24749	10227.925
751.15017	10265.225
755.05012	10356.725
758.94733	10443.125
762.8418	10593.925
766.73354	10875.025
770.62254	11210.125
774.50882	11376.125
778.39237	11230.425
782.27321	10879.525
786.15132	10579.025
790.02671	10379.725
793.89938	10251.325
797.76935	10239.225
801.6366	10288.225
805.50115	10323.225
809.36299	10405.025
813.22213	10439.825
817.07857	10345.125
820.93231	10261.725
824.78336	10119.125
828.63172	10063.825
832.47738	10010.425
836.32036	9986.725
840.16066	9965.425
843.99827	9940.625
847.8332	9954.525
851.66546	9952.025
855.49504	9964.125
859.32195	9941.325
863.1462	9959.825
866.96777	9976.125
870.78668	9994.025
874.60293	10044.925
878.41652	10093.925
882.22745	10120.825
886.03573	10160.425
889.84136	10206.325
893.64433	10156.825
897.44466	10142.225
901.24235	10053.625
905.0374	10037.625
908.8298	10009.525
912.61957	9977.325
916.40671	9974.125
920.19121	9950.225
923.97308	9928.025
927.75233	9946.125
931.52895	9913.525
935.30295	9892.825
939.07433	9819.825
942.84309	9742.325
946.60924	9719.925
950.37278	9683.625
954.13371	9714.825
957.89203	9689.425
961.64774	9672.425
965.40086	9663.525
969.15137	9665.725
972.89929	9635.125
976.64461	9621.025
980.38733	9596.625
984.12747	9595.825
987.86502	9611.025
991.59999	9603.425
995.33237	9639.625
999.06217	9683.525
1002.78939	9750.525
1006.51404	9792.525
1010.23611	9826.325
1013.95561	9884.125
1017.67255	9894.825
1021.38692	9891.825
1025.09872	9877.025
1028.80796	9817.825
1032.51465	9795.725
1036.21877	9769.825
1039.92035	9789.125
1043.61937	9809.325
1047.31584	9787.025
1051.00976	9826.325
1054.70114	9842.225
1058.38998	9843.625
1062.07627	9904.625
1065.76003	9960.025
1069.44126	9980.825
1073.11995	10042.625
1076.79611	10078.925
1080.46974	10127.425
1084.14085	10136.825
1087.80943	10098.925
1091.47549	10140.225
1095.13903	10095.425
1098.80005	10058.225
1102.45857	9997.725
1106.11456	9972.425
1109.76805	9981.225
1113.41903	9992.025
1117.06751	10084.025
1120.71348	10268.625
1124.35696	10437.725
1127.99793	10665.825
1131.63641	10823.625
1135.2724	10900.525
1138.90589	10920.025
1142.5369	10842.325
1146.16542	10725.725
1149.79145	10571.825
1153.415	10377.325
1157.03607	10245.525
1160.65467	10151.825
1164.27079	10131.125
1167.88443	10176.625
1171.49561	10308.525
1175.10432	10516.625
1178.71056	10789.625
1182.31434	11061.625
1185.91565	11208.325
1189.51451	11256.525
1193.11091	11216.725
1196.70485	11144.625
1200.29634	11084.125
1203.88538	10996.525
1207.47197	10896.825
1211.05612	10809.425
1214.63782	10731.925
1218.21708	10677.025
1221.79391	10589.125
1225.36829	10497.025
1228.94024	10414.325
1232.50976	10357.225
1236.07685	10319.625
1239.6415	10309.025
1243.20374	10306.525
1246.76355	10332.125
1250.32093	10371.025
1253.8759	10416.625
1257.42845	10479.225
1260.97859	10576.925
1264.52631	10666.425
1268.07163	10697.925
1271.61453	10782.925
1275.15503	10788.125
1278.69312	10833.125
1282.22882	10842.425
1285.76211	10860.025
1289.29301	10971.025
1292.82151	11082.825
1296.34761	11205.025
1299.87133	11405.125
1303.39266	11644.025
1306.9116	11925.425
1310.42815	12227.425
1313.94233	12410.425
1317.45412	12446.725
1320.96354	12354.925
1324.47058	12252.325
1327.97525	12100.325
1331.47754	12001.325
1334.97747	11954.525
1338.47502	11987.625
1341.97022	12114.125
1345.46305	12283.025
1348.95352	12467.425
1352.44163	12654.625
1355.92738	12863.825
1359.41078	13197.125
1362.89183	13535.625
1366.37053	13454.825
1369.84688	12849.125
1373.32088	12156.625
1376.79254	11661.925
1380.26186	11415.325
1383.72883	11265.225
1387.19347	11159.325
1390.65578	11018.725
1394.11575	10893.925
1397.57339	10751.925
1401.0287	10686.225
1404.48168	10581.325
1407.93234	10506.725
1411.38068	10445.925
1414.82669	10293.125
1418.27039	10152.325
1421.71177	10057.825
1425.15083	9942.825
1428.58758	9855.125
1432.02203	9798.525
1435.45416	9807.125
1438.88399	9787.925
1442.31151	9820.825
1445.73673	9816.225
1449.15965	9816.225
1452.58027	9838.325
1455.9986	9876.625
1459.41463	9902.225
1462.82837	9960.125
1466.23982	10048.225
1469.64898	10173.525
1473.05586	10230.525
1476.46045	10254.125
1479.86276	10287.625
1483.26279	10328.225
1486.66054	10368.225
1490.05602	10438.925
1493.44922	10548.925
1496.84016	10727.725
1500.22882	11009.425
1503.61521	11382.425
1506.99934	11769.225
1510.38121	12084.225
1513.76081	12145.125
1517.13816	11918.425
1520.51324	11537.725
1523.88607	11164.425
1527.25665	10971.125
1530.62498	10839.625
1533.99105	10792.925
1537.35488	10769.625
1540.71647	10777.125
1544.07581	10758.625
1547.4329	10778.825
1550.78776	10793.025
1554.14038	10824.925
1557.49077	10875.325
1560.83892	10923.925
1564.18484	10984.325
1567.52853	11041.625
1570.86999	11123.125
1574.20922	11170.225
1577.54624	11190.525
1580.88103	11118.125
1584.2136	10969.425
1587.54395	10887.725
1590.87208	10843.525
1594.19801	10936.425
1597.52172	11058.825
1600.84321	11133.525
1604.16251	11074.125
1607.47959	10938.525
1610.79447	10771.725
1614.10715	10567.025
1617.41763	10348.525
1620.7259	10170.925
1624.03199	10091.025
1627.33587	10060.625
1630.63757	10064.525
1633.93707	10150.425
1637.23439	10308.725
1640.52951	10582.525
1643.82246	10920.225
1647.11321	11295.325
1650.40179	11532.725
1653.68819	11452.525
1656.97241	11057.925
1660.25446	10595.925
1663.53433	10221.725
1666.81203	9944.625
1670.08756	9754.025
1673.36092	9607.825
1676.63211	9484.025
1679.90115	9384.025
1683.16801	9277.325
1686.43272	9191.825
1689.69527	9106.425
1692.95567	8992.125
1696.2139	8883.025
1699.46999	8825.825
1702.72392	8751.425
1705.97571	8691.825
1709.22535	8644.725
1712.47284	8606.725
1715.71819	8602.525
1718.96139	8563.225
1722.20246	8522.925
1725.44139	8456.625
1728.67818	8398.525
1731.91284	8328.325
1735.14537	8276.225
1738.37576	8205.825
1741.60403	8140.725
1744.83017	8101.025
1748.05418	8068.125
1751.27607	8062.225
1754.49584	8031.525
1757.71349	7998.925
1760.92903	7991.925
1764.14244	7987.825
1767.35375	7966.725
1770.56294	7947.325
1773.77002	7933.325
1776.97499	7887.825
1780.17785	7870.125
1783.37861	7836.225
1786.57727	7836.425
1789.77382	7772.725
1792.96828	7764.325
1796.16064	7751.725
1799.3509	7734.325
1802.53907	7720.025
1805.72514	7682.825
1808.90913	7667.425
1812.09102	7649.825
1815.27083	7617.125
1818.44856	7630.625
1821.6242	7601.625
1824.79776	7607.425
1827.96924	7567.825
1831.13864	7549.925
1834.30597	7548.325
1837.47122	7533.225
1840.6344	7528.425
1843.7955	7514.225
1846.95454	7516.025
1850.11151	7520.125
1853.26642	7506.925
1856.41926	7490.525
1859.57004	7501.825
1862.71876	7472.325
1865.86542	7463.925
1869.01003	7454.925
1872.15258	7448.725
1875.29308	7442.125
1878.43152	7434.525
1881.56792	7417.625
1884.70227	7393.025
1887.83457	7377.025
1890.96482	7365.725
1894.09304	7356.825
1897.21921	7349.125
1900.34335	7332.325
1903.46544	7335.325
1906.58551	7314.025
1909.70353	7298.925
1912.81953	7285.525
1915.93349	7284.925
1919.04543	7263.225
1922.15534	7236.825
1925.26322	7245.525
1928.36908	7226.225
1931.47292	7218.125
1934.57473	7167.925
1937.67453	7163.525
1940.77232	7157.725
1943.86808	7137.925
1946.96184	7097.425
1950.05358	7083.625
1953.14331	7063.325
1956.23103	7057.425
1959.31675	7018.325
1962.40046	7025.025
1965.48217	6996.225
1968.56188	6978.625
1971.63959	6942.425
1974.7153	6932.725
1977.78901	6896.525
1980.86073	6879.025
1983.93046	6877.725
1986.99819	6832.225
1990.06394	6810.525
1993.1277	6800.225
1996.18947	6780.925
1999.24925	6741.325
2002.30706	6730.925
2005.36288	6712.225
2008.41672	6700.025
2011.46859	6668.025
2014.51848	6643.925
2017.56639	6634.625
2020.61233	6621.425
2023.6563	6593.325
2026.6983	6566.825
2029.73833	6564.325
2032.7764	6545.925
2035.8125	6524.625
2038.84664	6502.125
2041.87881	6517.725
2044.90903	6458.725
2047.93729	6455.225
2050.96359	6448.025
2053.98794	6465.725
2057.01034	6444.725
2060.03078	6431.125
2063.04927	6427.925
2066.06582	6409.425
2069.08042	6404.325
2072.09307	6410.325
2075.10378	6395.325
2078.11255	6385.725
2081.11938	6395.625
2084.12426	6376.325
2087.12722	6400.325
2090.12824	6390.025
2093.12732	6371.325
2096.12447	6368.825
2099.11969	6359.525
2102.11299	6392.625
2105.10435	6381.425
2108.09379	6388.225
2111.08131	6403.925
2114.0669	6396.325
2117.05057	6409.725
2120.03233	6406.225
2123.01216	6396.825
2125.99008	6410.325
2128.96609	6395.325
2131.94018	6424.125
2134.91236	6429.325
2137.88263	6417.725
2140.851	6398.925
2143.81746	6406.425
2146.78201	6393.325
2149.74466	6408.525
2152.7054	6415.925
2155.66425	6419.625
2158.6212	6402.525
2161.57625	6397.125
2164.52941	6410.425
2167.48067	6397.625
2170.43004	6391.825
2173.37752	6373.125
2176.32311	6368.125
2179.26681	6373.425
2182.20863	6364.525
2185.14856	6371.625
2188.08661	6371.825
2191.02278	6369.725
2193.95707	6369.125
2196.88948	6357.925
2199.82001	6334.425
2202.74867	6340.525
2205.67545	6319.525
2208.60037	6310.925
2211.52341	6296.525
2214.44458	6296.825
2217.36388	6275.225
2220.28132	6253.725
2223.1969	6233.625
2226.11061	6236.925
2229.02246	6216.925
2231.93245	6204.625
2234.84058	6194.325
2237.74686	6179.725
2240.65128	6169.525
2243.55385	6153.425
2246.45456	6155.425
2249.35343	6138.025
2252.25044	6129.525
2255.14561	6129.625
2258.03893	6117.125
2260.93041	6107.625
2263.82004	6086.525
2266.70783	6075.425
2269.59378	6061.725
2272.4779	6057.225
2275.36017	6046.225
2278.24061	6024.725
2281.11922	6003.125
2283.996	5995.225
2286.87094	5989.925
2289.74405	5955.125
2292.61534	5931.725
2295.4848	5939.625
2298.35243	5929.225
2301.21824	5907.925
2304.08223	5920.325
2306.94439	5929.725
2309.80474	5926.425
2312.66327	5921.025
2315.51999	5886.825
2318.37489	5907.425
2321.22797	5880.325
2324.07925	5876.825
2326.92871	5879.925
2329.77637	5862.325
2332.62222	5832.625
2335.46626	5814.925
2338.3085	5829.525
2341.14893	5811.925
2343.98756	5796.225
2346.8244	5792.625
2349.65943	5779.225
2352.49267	5790.425
2355.32411	5790.025
2358.15376	5766.725
2360.98161	5752.825
2363.80768	5757.225
2366.63195	5741.825
2369.45444	5742.225
2372.27514	5738.725
2375.09405	5741.625
2377.91118	5704.725
2380.72652	5696.325
2383.54009	5694.025
2386.35187	5686.325
2389.16188	5663.525
2391.97011	5647.625
2394.77657	5628.225
2397.58125	5624.025
2400.38416	5602.625
2403.18529	5598.425
2405.98466	5581.125
2408.78226	5579.425
2411.57809	5551.425
2414.37216	5542.525
2417.16446	5564.625
2419.955	5543.325
2422.74378	5521.325
2425.5308	5524.525
2428.31606	5538.225
2431.09956	5510.525
2433.88131	5514.525
2436.6613	5498.925
2439.43954	5503.025
2442.21603	5479.425
2444.99077	5489.825
2447.76377	5469.025
2450.53501	5485.025
2453.30451	5480.425
2456.07226	5464.625
2458.83827	5461.225
2461.60254	5438.625
2464.36507	5426.125
2467.12586	5428.825
2469.88492	5425.025
2472.64224	5419.125
2475.39782	5412.425
2478.15167	5410.525
2480.90379	5390.225
2483.65417	5399.325
2486.40283	5395.125
2489.14976	5395.025
2491.89497	5398.325
2494.63845	5374.025
2497.3802	5375.525
2500.12024	5350.725
2502.85855	5363.125
2505.59514	5353.325
2508.33002	5330.025
2511.06318	5324.825
2513.79462	5296.425
2516.52435	5317.525
2519.25237	5315.425
2521.97867	5293.825
2524.70327	5298.525
2527.42616	5276.725
2530.14734	5274.025
2532.86681	5265.625
2535.58458	5247.825
2538.30065	5226.625
2541.01501	5230.725
2543.72768	5199.225
2546.43864	5205.625
2549.14791	5192.225
2551.85548	5177.725
2554.56136	5174.225
2557.26554	5166.325
2559.96803	5151.325
2562.66883	5149.925
2565.36794	5136.225
2568.06536	5125.225
2570.7611	5125.625
2573.45514	5108.425
2576.14751	5108.525
2578.83819	5111.625
2581.52719	5084.625
2584.21451	5068.425
2586.90015	5068.525
2589.58411	5060.125
2592.2664	5032.125
2594.94701	5037.025
2597.62594	5017.625
2600.30321	5003.925
2602.9788	4995.225
2605.65273	4992.625
2608.32498	4987.425
2610.99557	4970.825
2613.66449	4955.325
2616.33175	4951.425
2618.99734	4953.625
2621.66128	4951.425
2624.32355	4930.625
2626.98416	4930.125
2629.64311	4920.325
2632.30041	4926.325
2634.95605	4910.425
2637.61004	4904.225
2640.26238	4885.925
2642.91306	4880.625
2645.56209	4888.825
2648.20948	4868.225
2650.85521	4856.225
2653.4993	4860.825
2656.14175	4842.125
2658.78255	4850.825
2661.42171	4855.125
2664.05923	4848.125
2666.6951	4838.525
2669.32934	4839.725
2671.96194	4843.825
2674.59291	4845.825
2677.22224	4834.925
2679.84993	4837.425
2682.476	4831.825
2685.10043	4839.325
2687.72324	4818.025
2690.34441	4827.825
2692.96396	4811.925
2695.58188	4831.825
2698.19818	4829.225
2700.81285	4839.225
2703.4259	4818.025
2706.03733	4835.625
2708.64714	4830.625
2711.25533	4830.925
2713.86191	4813.625
2716.46687	4809.625
2719.07021	4825.025
2721.67194	4805.625
2724.27206	4799.125
2726.87057	4813.725
2729.46747	4799.025
2732.06276	4798.425
2734.65644	4793.925
2737.24852	4799.425
2739.83899	4787.625
2742.42786	4778.925
2745.01513	4749.825
2747.60079	4771.225
2750.18486	4775.125
2752.76733	4771.025
2755.3482	4745.525
2757.92747	4748.525
2760.50515	4742.025
2763.08123	4733.125
2765.65573	4736.125
2768.22863	4733.425
2770.79994	4698.125
2773.36967	4704.125
2775.9378	4685.425
2778.50435	4684.225
2781.06932	4680.125
2783.6327	4680.425
2786.1945	4659.225
2788.75471	4669.825
2791.31335	4635.525
2793.87041	4626.625
2796.42589	4613.725
2798.97979	4609.525
2801.53212	4595.925
2804.08288	4587.925
2806.63206	4571.425
2809.17967	4570.925
2811.72571	4542.725
2814.27018	4539.925
2816.81308	4537.825
2819.35442	4522.725
2821.89419	4507.825
2824.43239	4493.625
2826.96904	4504.325
2829.50412	4492.325
2832.03763	4494.125
2834.56959	4476.925
2837.1	4477.925
2839.62884	4483.325
2842.15613	4471.525
2844.68186	4474.525
2847.20604	4452.225
2849.72867	4459.725
2852.24974	4475.525
2854.76927	4440.725
2857.28724	4446.825
2859.80367	4444.225
2862.31855	4448.825
2864.83189	4437.525
2867.34368	4405.125
2869.85393	4418.725
2872.36264	4417.925
2874.8698	4417.125
2877.37543	4413.625
2879.87952	4417.625
2882.38207	4415.425
2884.88308	4429.225
2887.38256	4416.525
2889.88051	4405.525
2892.37692	4412.025
2894.8718	4412.125
2897.36515	4409.625
2899.85698	4401.225
2902.34727	4413.625
2904.83604	4401.925
2907.32328	4411.925
2909.809	4404.925
2912.29319	4406.625
2914.77587	4413.925
2917.25702	4415.925
2919.73665	4386.525
2922.21476	4401.425
2924.69136	4392.025
2927.16644	4410.525
2929.64	4390.025
2932.11205	4393.825
2934.58258	4383.825
2937.05161	4386.225
2939.51912	4388.325
2941.98513	4384.825
2944.44962	4382.325
2946.91261	4388.025
2949.37409	4382.425
2951.83407	4376.625
2954.29254	4384.125
2956.74951	4382.825
2959.20498	4369.425
2961.65895	4350.825
2964.11142	4362.025
2966.56239	4343.825
2969.01186	4350.625
2971.45984	4326.125
2973.90632	4330.325
2976.35131	4320.825
2978.7948	4311.625
2981.23681	4298.725
2983.67732	4309.525
2986.11635	4303.525
2988.55388	4279.525
2990.98993	4283.625
2993.4245	4270.525
2995.85758	4246.425
2998.28917	4249.625
3000.71928	4249.425
3003.14791	4245.525
3005.57506	4242.225
3008.00073	4229.725
3010.42493	4236.425
3012.84764	4236.525
3015.26888	4238.025
3017.68865	4229.025
3020.10694	4212.925
3022.52376	4198.525
3024.9391	4193.925
3027.35298	4190.225
3029.76539	4194.025
3032.17632	4180.625
3034.5858	4189.425
3036.9938	4167.325
3039.40034	4171.025
3041.80542	4162.225
3044.20903	4156.325
3046.61118	4165.925
3049.01187	4151.025
3051.4111	4140.325
3053.80888	4143.225
3056.20519	4138.425
3058.60005	4130.825
3060.99345	4127.625
3063.3854	4098.325
3065.7759	4101.225
3068.16494	4104.125
3070.55254	4104.125
3072.93868	4086.325
3075.32338	4085.025
3077.70662	4095.825
3080.08842	4101.025
3082.46878	4090.125
3084.84769	4086.625
3087.22515	4096.625
3089.60118	4095.725
3091.97576	4100.025
3094.3489	4087.825
3096.72061	4092.925
3099.09087	4097.725
3101.4597	4099.425
3103.82709	4106.725
3106.19305	4089.025
3108.55757	4096.825
3110.92066	4082.125
3113.28232	4093.225
3115.64255	4083.625
3118.00134	4060.225
3120.35871	4082.725
3122.71466	4073.325
3125.06917	4079.425
3127.42226	4066.025
3129.77393	4078.125
3132.12417	4076.325
3134.47299	4084.125
3136.82039	4085.625
3139.16636	4081.225
3141.51092	4081.725
3143.85406	4085.925
3146.19579	4106.725
3148.53609	4102.425
3150.87499	4100.525
3153.21246	4111.125
3155.54853	4106.725
3157.88318	4111.725
3160.21642	4121.925
3162.54826	4122.225
3164.87868	4127.125
3167.2077	4141.425
3169.5353	4131.525
3171.86151	4134.925
3174.18631	4115.325
3176.5097	4125.425
3178.83169	4119.025
3181.15228	4134.925
3183.47147	4121.125
3185.78926	4117.225
3188.10565	4122.725
3190.42065	4130.725
3192.73424	4124.925
3195.04645	4131.525
3197.35725	4130.125
3199.66667	4160.625
3201.97469	4162.025
3204.28132	4161.825
3206.58656	4167.825
3208.8904	4173.625
