Data from AgNPs_FTO_APTES_UA_0.1mM_CRN_10uM_NaF_0.1M_Addition_RamanShift__16__11-37-07-553.txt Node

Date: Mon Dec 20 11:37:07 GMT 2021
User: TCL
Spectrometer: QEP01345
Trigger mode: 4
Integration Time (sec): 7.000000E0
Scans to average: 10
Electric dark correction enabled: true
Nonlinearity correction enabled: false
Boxcar width: 0
XAxis mode: Raman Shifts
Number of Pixels in Spectrum: 1044
>>>>>Begin Spectral Data<<<<<
46.04893	0.5625
50.45542	-0.3375
54.85868	-0.8375
59.25871	1.3625
63.6555	33.4625
68.04907	33.0625
72.43941	34.8625
76.82654	38.4625
81.21044	39.7625
85.59113	45.2625
89.96862	40.4625
94.34289	44.4625
98.71396	48.5625
103.08183	46.7625
107.4465	51.7625
111.80798	54.4625
116.16626	51.4625
120.52136	52.7625
124.87327	55.9625
129.222	55.4625
133.56755	55.6625
137.90993	63.4625
142.24913	67.3625
146.58517	72.2625
150.91804	85.8625
155.24774	99.1625
159.57429	121.6625
163.89768	151.7625
168.21792	203.0625
172.53501	255.6625
176.84895	363.1625
181.15975	499.5625
185.46741	696.7625
189.77193	955.8625
194.07331	1283.5625
198.37157	1659.7625
202.6667	2077.5625
206.9587	2481.3625
211.24758	2888.3625
215.53334	3297.5625
219.81599	3713.9625
224.09553	4167.3625
228.37195	4660.5625
232.64527	5178.8625
236.91549	5736.9625
241.18261	6314.5625
245.44663	6822.8625
249.70755	7256.3625
253.96539	7627.2625
258.22014	7934.1625
262.4718	8159.9625
266.72039	8246.4625
270.96589	8293.7625
275.20832	8222.3625
279.44768	8104.0625
283.68397	7957.3625
287.91719	7829.7625
292.14735	7723.6625
296.37445	7658.4625
300.59849	7633.6625
304.81948	7614.6625
309.03742	7604.9625
313.25231	7527.2625
317.46415	7390.6625
321.67296	7248.1625
325.87872	7102.2625
330.08145	7060.1625
334.28114	7042.5625
338.47781	7078.1625
342.67145	7145.2625
346.86207	7227.2625
351.04966	7345.3625
355.23424	7467.3625
359.4158	7595.5625
363.59435	7689.4625
367.76989	7774.8625
371.94243	7875.3625
376.11196	7936.2625
380.27849	7989.3625
384.44203	8071.0625
388.60257	8122.0625
392.76012	8215.6625
396.91468	8273.6625
401.06626	8366.4625
405.21485	8440.1625
409.36047	8433.6625
413.50311	8354.3625
417.64277	8260.2625
421.77947	8211.5625
425.9132	8207.4625
430.04396	8210.2625
434.17176	8263.2625
438.2966	8290.0625
442.41849	8378.2625
446.53742	8461.2625
450.6534	8581.0625
454.76644	8703.0625
458.87653	8771.9625
462.98368	8774.8625
467.08789	8742.5625
471.18916	8774.9625
475.2875	8734.1625
479.38291	8776.5625
483.4754	8829.8625
487.56496	8899.9625
491.6516	8962.6625
495.73531	9023.1625
499.81612	9039.3625
503.89401	9048.6625
507.96899	8981.1625
512.04106	8952.3625
516.11023	8903.1625
520.1765	8878.8625
524.23987	8878.5625
528.30034	8860.2625
532.35792	8844.3625
536.41261	8818.8625
540.46441	8735.0625
544.51333	8679.2625
548.55936	8641.1625
552.60252	8649.7625
556.64279	8713.5625
560.6802	8755.8625
564.71473	8777.3625
568.7464	8833.6625
572.7752	8918.9625
576.80114	8917.4625
580.82422	8967.8625
584.84444	9034.5625
588.86181	9147.6625
592.87633	9212.6625
596.888	9248.8625
600.89682	9251.8625
604.9028	9400.8625
608.90594	10006.5625
612.90624	10824.0625
616.90371	10690.9625
620.89834	9725.0625
624.89015	9405.6625
628.87913	9640.7625
632.86528	10030.9625
636.84862	10307.6625
640.82913	10331.4625
644.80683	10091.3625
648.78172	9749.2625
652.75379	9481.7625
656.72306	9328.0625
660.68952	9318.1625
664.65319	9244.7625
668.61405	9173.1625
672.57211	9169.3625
676.52738	9259.5625
680.47986	9275.0625
684.42955	9297.1625
688.37646	9292.8625
692.32058	9210.1625
696.26192	9142.2625
700.20048	9043.1625
704.13626	8992.2625
708.06928	8905.9625
711.99952	8822.0625
715.927	8756.1625
719.85171	8724.2625
723.77365	8729.2625
727.69284	8719.4625
731.60928	8662.4625
735.52295	8604.8625
739.43388	8578.5625
743.34206	8579.9625
747.24749	8613.7625
751.15017	8625.7625
755.05012	8637.4625
758.94733	8746.9625
762.8418	9001.7625
766.73354	9371.8625
770.62254	9821.5625
774.50882	10065.6625
778.39237	9868.9625
782.27321	9375.8625
786.15132	8949.6625
790.02671	8692.7625
793.89938	8602.9625
797.76935	8564.6625
801.6366	8599.6625
805.50115	8711.3625
809.36299	8819.1625
813.22213	8857.4625
817.07857	8767.1625
820.93231	8609.1625
824.78336	8458.3625
828.63172	8313.8625
832.47738	8236.2625
836.32036	8215.8625
840.16066	8204.8625
843.99827	8180.2625
847.8332	8172.0625
851.66546	8169.0625
855.49504	8177.1625
859.32195	8165.2625
863.1462	8191.6625
866.96777	8242.9625
870.78668	8284.9625
874.60293	8386.0625
878.41652	8468.7625
882.22745	8546.5625
886.03573	8600.0625
889.84136	8601.8625
893.64433	8519.7625
897.44466	8403.3625
901.24235	8257.9625
905.0374	8132.6625
908.8298	8057.7625
912.61957	8016.3625
916.40671	7995.1625
920.19121	8001.6625
923.97308	8011.8625
927.75233	8001.6625
931.52895	8011.7625
935.30295	7937.2625
939.07433	7880.8625
942.84309	7815.0625
946.60924	7805.6625
950.37278	7777.5625
954.13371	7771.9625
957.89203	7732.4625
961.64774	7724.7625
965.40086	7701.0625
969.15137	7679.4625
972.89929	7627.0625
976.64461	7603.7625
980.38733	7583.6625
984.12747	7609.0625
987.86502	7620.5625
991.59999	7631.9625
995.33237	7699.1625
999.06217	7764.5625
1002.78939	7866.6625
1006.51404	7947.3625
1010.23611	8060.9625
1013.95561	8115.2625
1017.67255	8135.9625
1021.38692	8103.6625
1025.09872	8023.7625
1028.80796	7925.8625
1032.51465	7908.4625
1036.21877	7910.7625
1039.92035	7894.1625
1043.61937	7859.0625
1047.31584	7858.8625
1051.00976	7844.3625
1054.70114	7862.9625
1058.38998	7894.1625
1062.07627	7945.9625
1065.76003	7983.7625
1069.44126	8051.7625
1073.11995	8107.2625
1076.79611	8171.7625
1080.46974	8150.2625
1084.14085	8150.2625
1087.80943	8142.8625
1091.47549	8151.0625
1095.13903	8098.3625
1098.80005	8034.5625
1102.45857	7947.3625
1106.11456	7917.9625
1109.76805	7918.7625
1113.41903	8005.3625
1117.06751	8186.3625
1120.71348	8432.4625
1124.35696	8739.7625
1127.99793	9153.8625
1131.63641	9502.2625
1135.2724	9691.5625
1138.90589	9657.9625
1142.5369	9446.6625
1146.16542	9193.5625
1149.79145	8872.6625
1153.415	8573.3625
1157.03607	8387.7625
1160.65467	8280.0625
1164.27079	8307.7625
1167.88443	8413.2625
1171.49561	8623.9625
1175.10432	8918.8625
1178.71056	9345.1625
1182.31434	9754.0625
1185.91565	9954.6625
1189.51451	9985.7625
1193.11091	9913.6625
1196.70485	9789.2625
1200.29634	9691.3625
1203.88538	9562.8625
1207.47197	9425.2625
1211.05612	9247.9625
1214.63782	9054.3625
1218.21708	8887.4625
1221.79391	8713.0625
1225.36829	8610.5625
1228.94024	8532.2625
1232.50976	8429.4625
1236.07685	8381.1625
1239.6415	8352.9625
1243.20374	8340.7625
1246.76355	8401.9625
1250.32093	8472.3625
1253.8759	8524.6625
1257.42845	8647.5625
1260.97859	8766.2625
1264.52631	8890.1625
1268.07163	9013.4625
1271.61453	9114.6625
1275.15503	9217.5625
1278.69312	9295.1625
1282.22882	9363.0625
1285.76211	9475.3625
1289.29301	9616.1625
1292.82151	9819.3625
1296.34761	10052.6625
1299.87133	10364.6625
1303.39266	10729.3625
1306.9116	11143.6625
1310.42815	11588.1625
1313.94233	11890.1625
1317.45412	11902.8625
1320.96354	11736.0625
1324.47058	11521.2625
1327.97525	11306.7625
1331.47754	11139.0625
1334.97747	11044.9625
1338.47502	11050.3625
1341.97022	11145.6625
1345.46305	11253.8625
1348.95352	11423.6625
1352.44163	11673.8625
1355.92738	12076.3625
1359.41078	12566.3625
1362.89183	13056.8625
1366.37053	13015.4625
1369.84688	12168.7625
1373.32088	11189.1625
1376.79254	10517.2625
1380.26186	10175.5625
1383.72883	10034.3625
1387.19347	9910.5625
1390.65578	9764.3625
1394.11575	9640.8625
1397.57339	9531.4625
1401.0287	9488.7625
1404.48168	9454.3625
1407.93234	9348.8625
1411.38068	9221.3625
1414.82669	9033.0625
1418.27039	8812.6625
1421.71177	8615.0625
1425.15083	8437.9625
1428.58758	8308.6625
1432.02203	8277.0625
1435.45416	8302.2625
1438.88399	8381.1625
1442.31151	8451.1625
1445.73673	8522.5625
1449.15965	8581.0625
1452.58027	8628.0625
1455.9986	8682.5625
1459.41463	8735.3625
1462.82837	8802.1625
1466.23982	8931.3625
1469.64898	9052.0625
1473.05586	9092.9625
1476.46045	9126.6625
1479.86276	9115.5625
1483.26279	9063.5625
1486.66054	9077.9625
1490.05602	9123.1625
1493.44922	9216.8625
1496.84016	9375.1625
1500.22882	9676.5625
1503.61521	10028.9625
1506.99934	10511.6625
1510.38121	10903.5625
1513.76081	11027.8625
1517.13816	10786.2625
1520.51324	10268.7625
1523.88607	9796.4625
1527.25665	9484.4625
1530.62498	9343.0625
1533.99105	9279.1625
1537.35488	9240.4625
1540.71647	9223.8625
1544.07581	9194.9625
1547.4329	9189.2625
1550.78776	9177.6625
1554.14038	9186.7625
1557.49077	9222.6625
1560.83892	9281.0625
1564.18484	9332.0625
1567.52853	9409.9625
1570.86999	9503.9625
1574.20922	9556.0625
1577.54624	9571.7625
1580.88103	9477.9625
1584.2136	9353.7625
1587.54395	9307.7625
1590.87208	9379.8625
1594.19801	9591.7625
1597.52172	9860.4625
1600.84321	9987.6625
1604.16251	9879.3625
1607.47959	9588.7625
1610.79447	9296.8625
1614.10715	8962.9625
1617.41763	8730.8625
1620.7259	8503.2625
1624.03199	8419.3625
1627.33587	8424.3625
1630.63757	8520.6625
1633.93707	8728.0625
1637.23439	9080.3625
1640.52951	9565.4625
1643.82246	10174.7625
1647.11321	10738.3625
1650.40179	11037.8625
1653.68819	10831.5625
1656.97241	10166.5625
1660.25446	9424.4625
1663.53433	8851.6625
1666.81203	8479.2625
1670.08756	8238.2625
1673.36092	8078.3625
1676.63211	7951.3625
1679.90115	7836.6625
1683.16801	7733.2625
1686.43272	7578.0625
1689.69527	7435.8625
1692.95567	7280.7625
1696.2139	7168.4625
1699.46999	7060.7625
1702.72392	6957.6625
1705.97571	6876.8625
1709.22535	6783.0625
1712.47284	6732.4625
1715.71819	6685.6625
1718.96139	6623.8625
1722.20246	6570.2625
1725.44139	6505.1625
1728.67818	6441.0625
1731.91284	6361.5625
1735.14537	6304.4625
1738.37576	6248.5625
1741.60403	6218.2625
1744.83017	6156.2625
1748.05418	6119.4625
1751.27607	6133.5625
1754.49584	6089.8625
1757.71349	6096.6625
1760.92903	6095.7625
1764.14244	6062.9625
1767.35375	6042.0625
1770.56294	6040.0625
1773.77002	6018.9625
1776.97499	5981.7625
1780.17785	5953.1625
1783.37861	5935.7625
1786.57727	5922.6625
1789.77382	5887.5625
1792.96828	5867.1625
1796.16064	5860.9625
1799.3509	5828.3625
1802.53907	5817.7625
1805.72514	5793.5625
1808.90913	5769.4625
1812.09102	5747.9625
1815.27083	5749.0625
1818.44856	5725.7625
1821.6242	5726.0625
1824.79776	5705.5625
1827.96924	5694.8625
1831.13864	5681.1625
1834.30597	5683.4625
1837.47122	5682.0625
1840.6344	5658.5625
1843.7955	5646.1625
1846.95454	5656.7625
1850.11151	5671.0625
1853.26642	5643.4625
1856.41926	5638.7625
1859.57004	5644.8625
1862.71876	5631.0625
1865.86542	5616.0625
1869.01003	5613.1625
1872.15258	5602.6625
1875.29308	5601.7625
1878.43152	5596.0625
1881.56792	5594.9625
1884.70227	5577.1625
1887.83457	5557.8625
1890.96482	5559.0625
1894.09304	5561.8625
1897.21921	5538.8625
1900.34335	5536.8625
1903.46544	5518.6625
1906.58551	5518.5625
1909.70353	5522.1625
1912.81953	5485.8625
1915.93349	5501.4625
1919.04543	5484.5625
1922.15534	5482.9625
1925.26322	5459.2625
1928.36908	5445.5625
1931.47292	5441.0625
1934.57473	5425.7625
1937.67453	5412.1625
1940.77232	5403.0625
1943.86808	5401.0625
1946.96184	5366.3625
1950.05358	5339.2625
1953.14331	5337.2625
1956.23103	5322.3625
1959.31675	5307.2625
1962.40046	5294.4625
1965.48217	5287.4625
1968.56188	5270.7625
1971.63959	5237.0625
1974.7153	5243.5625
1977.78901	5219.1625
1980.86073	5211.5625
1983.93046	5181.3625
1986.99819	5167.6625
1990.06394	5151.4625
1993.1277	5130.8625
1996.18947	5128.6625
1999.24925	5101.8625
2002.30706	5094.5625
2005.36288	5074.6625
2008.41672	5065.3625
2011.46859	5044.6625
2014.51848	5050.9625
2017.56639	5032.7625
2020.61233	5013.9625
2023.6563	4991.1625
2026.6983	4984.0625
2029.73833	4987.5625
2032.7764	4960.4625
2035.8125	4949.1625
2038.84664	4935.0625
2041.87881	4937.9625
2044.90903	4927.0625
2047.93729	4913.2625
2050.96359	4915.2625
2053.98794	4911.3625
2057.01034	4893.9625
2060.03078	4890.1625
2063.04927	4877.5625
2066.06582	4880.4625
2069.08042	4873.6625
2072.09307	4866.2625
2075.10378	4863.7625
2078.11255	4857.5625
2081.11938	4876.6625
2084.12426	4850.3625
2087.12722	4856.1625
2090.12824	4863.2625
2093.12732	4867.0625
2096.12447	4865.4625
2099.11969	4864.0625
2102.11299	4859.6625
2105.10435	4842.7625
2108.09379	4859.5625
2111.08131	4869.3625
2114.0669	4857.2625
2117.05057	4870.9625
2120.03233	4883.1625
2123.01216	4890.2625
2125.99008	4877.8625
2128.96609	4878.1625
2131.94018	4885.7625
2134.91236	4902.5625
2137.88263	4889.6625
2140.851	4892.0625
2143.81746	4886.6625
2146.78201	4882.2625
2149.74466	4894.7625
2152.7054	4887.2625
2155.66425	4899.2625
2158.6212	4891.9625
2161.57625	4895.5625
2164.52941	4863.6625
2167.48067	4877.4625
2170.43004	4877.6625
2173.37752	4867.7625
2176.32311	4877.1625
2179.26681	4865.6625
2182.20863	4863.9625
2185.14856	4879.7625
2188.08661	4855.9625
2191.02278	4862.7625
2193.95707	4857.8625
2196.88948	4848.9625
2199.82001	4862.4625
2202.74867	4833.0625
2205.67545	4846.6625
2208.60037	4824.8625
2211.52341	4819.9625
2214.44458	4812.4625
2217.36388	4795.3625
2220.28132	4803.6625
2223.1969	4779.7625
2226.11061	4770.7625
2229.02246	4768.7625
2231.93245	4756.0625
2234.84058	4749.4625
2237.74686	4743.1625
2240.65128	4740.2625
2243.55385	4723.1625
2246.45456	4721.1625
2249.35343	4710.2625
2252.25044	4689.4625
2255.14561	4685.2625
2258.03893	4695.8625
2260.93041	4681.6625
2263.82004	4667.5625
2266.70783	4670.4625
2269.59378	4663.2625
2272.4779	4646.2625
2275.36017	4638.4625
2278.24061	4624.2625
2281.11922	4607.3625
2283.996	4614.1625
2286.87094	4616.6625
2289.74405	4590.6625
2292.61534	4569.7625
2295.4848	4570.5625
2298.35243	4558.2625
2301.21824	4566.0625
2304.08223	4556.2625
2306.94439	4566.8625
2309.80474	4574.8625
2312.66327	4548.9625
2315.51999	4549.1625
2318.37489	4549.6625
2321.22797	4536.7625
2324.07925	4547.3625
2326.92871	4528.8625
2329.77637	4520.8625
2332.62222	4512.4625
2335.46626	4502.8625
2338.3085	4504.8625
2341.14893	4503.6625
2343.98756	4485.8625
2346.8244	4476.0625
2349.65943	4484.5625
2352.49267	4488.9625
2355.32411	4482.3625
2358.15376	4468.9625
2360.98161	4464.8625
2363.80768	4471.9625
2366.63195	4460.1625
2369.45444	4466.1625
2372.27514	4453.6625
2375.09405	4452.0625
2377.91118	4449.8625
2380.72652	4425.3625
2383.54009	4422.1625
2386.35187	4425.8625
2389.16188	4408.8625
2391.97011	4397.2625
2394.77657	4400.0625
2397.58125	4380.3625
2400.38416	4370.2625
2403.18529	4374.0625
2405.98466	4354.4625
2408.78226	4365.5625
2411.57809	4351.2625
2414.37216	4325.7625
2417.16446	4325.2625
2419.955	4328.1625
2422.74378	4319.1625
2425.5308	4309.0625
2428.31606	4315.2625
2431.09956	4309.3625
2433.88131	4313.7625
2436.6613	4306.0625
2439.43954	4305.4625
2442.21603	4289.1625
2444.99077	4287.1625
2447.76377	4299.9625
2450.53501	4302.8625
2453.30451	4301.6625
2456.07226	4278.2625
2458.83827	4270.3625
2461.60254	4274.2625
2464.36507	4256.6625
2467.12586	4255.8625
2469.88492	4254.3625
2472.64224	4261.2625
2475.39782	4262.4625
2478.15167	4258.4625
2480.90379	4245.2625
2483.65417	4257.0625
2486.40283	4258.2625
2489.14976	4270.8625
2491.89497	4246.7625
2494.63845	4243.9625
2497.3802	4236.4625
2500.12024	4246.0625
2502.85855	4221.1625
2505.59514	4215.8625
2508.33002	4195.7625
2511.06318	4211.8625
2513.79462	4197.6625
2516.52435	4206.1625
2519.25237	4199.0625
2521.97867	4200.0625
2524.70327	4176.6625
2527.42616	4170.8625
2530.14734	4182.1625
2532.86681	4175.0625
2535.58458	4171.5625
2538.30065	4159.6625
2541.01501	4147.6625
2543.72768	4141.2625
2546.43864	4134.5625
2549.14791	4133.1625
2551.85548	4122.4625
2554.56136	4118.1625
2557.26554	4111.5625
2559.96803	4099.2625
2562.66883	4123.2625
2565.36794	4101.4625
2568.06536	4090.3625
2570.7611	4085.5625
2573.45514	4088.5625
2576.14751	4076.8625
2578.83819	4075.0625
2581.52719	4043.8625
2584.21451	4047.6625
2586.90015	4056.3625
2589.58411	4037.5625
2592.2664	4047.8625
2594.94701	4032.6625
2597.62594	4021.2625
2600.30321	4011.4625
2602.9788	4001.7625
2605.65273	4008.1625
2608.32498	3999.0625
2610.99557	3992.7625
2613.66449	3984.9625
2616.33175	3982.9625
2618.99734	3990.3625
2621.66128	3983.0625
2624.32355	3978.0625
2626.98416	3984.8625
2629.64311	3962.4625
2632.30041	3967.5625
2634.95605	3964.4625
2637.61004	3961.7625
2640.26238	3959.8625
2642.91306	3951.3625
2645.56209	3964.5625
2648.20948	3961.4625
2650.85521	3934.1625
2653.4993	3942.7625
2656.14175	3936.5625
2658.78255	3938.3625
2661.42171	3938.1625
2664.05923	3927.8625
2666.6951	3934.0625
2669.32934	3943.1625
2671.96194	3932.4625
2674.59291	3937.3625
2677.22224	3942.9625
2679.84993	3937.8625
2682.476	3949.0625
2685.10043	3940.8625
2687.72324	3929.8625
2690.34441	3937.6625
2692.96396	3930.9625
2695.58188	3937.0625
2698.19818	3932.0625
2700.81285	3942.4625
2703.4259	3950.1625
2706.03733	3963.3625
2708.64714	3949.8625
2711.25533	3934.3625
2713.86191	3948.0625
2716.46687	3951.2625
2719.07021	3961.7625
2721.67194	3953.1625
2724.27206	3940.5625
2726.87057	3944.0625
2729.46747	3943.8625
2732.06276	3956.9625
2734.65644	3942.4625
2737.24852	3933.0625
2739.83899	3943.3625
2742.42786	3935.5625
2745.01513	3932.6625
2747.60079	3933.3625
2750.18486	3931.4625
2752.76733	3914.4625
2755.3482	3913.6625
2757.92747	3913.6625
2760.50515	3902.6625
2763.08123	3901.1625
2765.65573	3907.2625
2768.22863	3900.4625
2770.79994	3897.4625
2773.36967	3903.1625
2775.9378	3881.9625
2778.50435	3873.2625
2781.06932	3875.1625
2783.6327	3871.4625
2786.1945	3872.0625
2788.75471	3873.6625
2791.31335	3860.1625
2793.87041	3858.5625
2796.42589	3829.6625
2798.97979	3826.8625
2801.53212	3832.5625
2804.08288	3825.7625
2806.63206	3808.0625
2809.17967	3812.9625
2811.72571	3792.8625
2814.27018	3797.7625
2816.81308	3788.5625
2819.35442	3791.3625
2821.89419	3771.5625
2824.43239	3784.7625
2826.96904	3784.6625
2829.50412	3773.5625
2832.03763	3761.7625
2834.56959	3755.4625
2837.1	3761.3625
2839.62884	3753.5625
2842.15613	3762.8625
2844.68186	3761.8625
2847.20604	3763.5625
2849.72867	3767.3625
2852.24974	3759.7625
2854.76927	3761.8625
2857.28724	3759.8625
2859.80367	3751.4625
2862.31855	3758.3625
2864.83189	3759.3625
2867.34368	3752.3625
2869.85393	3745.6625
2872.36264	3729.2625
2874.8698	3747.6625
2877.37543	3740.5625
2879.87952	3756.3625
2882.38207	3750.2625
2884.88308	3752.8625
2887.38256	3769.6625
2889.88051	3748.8625
2892.37692	3754.3625
2894.8718	3759.6625
2897.36515	3764.2625
2899.85698	3762.2625
2902.34727	3781.4625
2904.83604	3772.5625
2907.32328	3782.1625
2909.809	3775.6625
2912.29319	3763.6625
2914.77587	3784.2625
2917.25702	3787.7625
2919.73665	3775.6625
2922.21476	3787.7625
2924.69136	3784.1625
2927.16644	3799.3625
2929.64	3769.0625
2932.11205	3781.3625
2934.58258	3782.1625
2937.05161	3789.0625
2939.51912	3776.1625
2941.98513	3776.1625
2944.44962	3769.5625
2946.91261	3759.3625
2949.37409	3794.7625
2951.83407	3762.9625
2954.29254	3769.5625
2956.74951	3760.4625
2959.20498	3758.6625
2961.65895	3752.7625
2964.11142	3756.6625
2966.56239	3742.5625
2969.01186	3754.8625
2971.45984	3727.3625
2973.90632	3738.7625
2976.35131	3714.8625
2978.7948	3716.1625
2981.23681	3701.6625
2983.67732	3700.9625
2986.11635	3695.4625
2988.55388	3695.0625
2990.98993	3684.4625
2993.4245	3680.5625
2995.85758	3655.1625
2998.28917	3659.8625
3000.71928	3658.9625
3003.14791	3660.4625
3005.57506	3661.0625
3008.00073	3662.0625
3010.42493	3646.7625
3012.84764	3656.7625
3015.26888	3663.0625
3017.68865	3647.5625
3020.10694	3656.0625
3022.52376	3640.1625
3024.9391	3640.5625
3027.35298	3629.5625
3029.76539	3621.9625
3032.17632	3627.1625
3034.5858	3628.4625
3036.9938	3622.7625
3039.40034	3621.9625
3041.80542	3622.4625
3044.20903	3632.9625
3046.61118	3616.6625
3049.01187	3604.1625
3051.4111	3609.1625
3053.80888	3607.7625
3056.20519	3602.1625
3058.60005	3593.4625
3060.99345	3605.0625
3063.3854	3592.8625
3065.7759	3590.6625
3068.16494	3572.4625
3070.55254	3578.1625
3072.93868	3575.3625
3075.32338	3580.5625
3077.70662	3581.8625
3080.08842	3582.2625
3082.46878	3597.7625
3084.84769	3583.6625
3087.22515	3600.0625
3089.60118	3584.7625
3091.97576	3591.4625
3094.3489	3599.3625
3096.72061	3597.1625
3099.09087	3585.5625
3101.4597	3605.1625
3103.82709	3607.6625
3106.19305	3622.6625
3108.55757	3618.3625
3110.92066	3600.2625
3113.28232	3602.5625
3115.64255	3601.4625
3118.00134	3585.1625
3120.35871	3598.0625
