Data from AgNPs_FTO_APTES_UA_0.1mM_CRN_1000uM_NaF_0.1M_Addition_RamanShift__17__15-33-57-820.txt Node

Date: Mon Dec 20 15:33:57 GMT 2021
User: TCL
Spectrometer: QEP01345
Trigger mode: 4
Integration Time (sec): 7.000000E0
Scans to average: 10
Electric dark correction enabled: true
Nonlinearity correction enabled: false
Boxcar width: 0
XAxis mode: Raman Shifts
Number of Pixels in Spectrum: 1044
>>>>>Begin Spectral Data<<<<<
46.04893	1.1125
50.45542	0.6125
54.85868	-1.6875
59.25871	1.8125
63.6555	19.2125
68.04907	24.2125
72.43941	25.0125
76.82654	26.0125
81.21044	23.3125
85.59113	29.9125
89.96862	25.3125
94.34289	30.3125
98.71396	29.3125
103.08183	30.3125
107.4465	33.1125
111.80798	32.7125
116.16626	33.6125
120.52136	35.6125
124.87327	36.7125
129.222	36.2125
133.56755	36.6125
137.90993	38.1125
142.24913	38.6125
146.58517	36.8125
150.91804	43.3125
155.24774	52.7125
159.57429	56.4125
163.89768	73.6125
168.21792	91.2125
172.53501	111.0125
176.84895	155.2125
181.15975	212.2125
185.46741	287.1125
189.77193	402.8125
194.07331	542.3125
198.37157	704.5125
202.6667	878.2125
206.9587	1059.4125
211.24758	1245.6125
215.53334	1432.7125
219.81599	1624.4125
224.09553	1821.9125
228.37195	2023.4125
232.64527	2253.2125
236.91549	2459.4125
241.18261	2652.8125
245.44663	2843.9125
249.70755	2985.6125
253.96539	3101.0125
258.22014	3180.4125
262.4718	3224.5125
266.72039	3233.9125
270.96589	3214.5125
275.20832	3160.6125
279.44768	3118.7125
283.68397	3035.5125
287.91719	2969.4125
292.14735	2916.0125
296.37445	2861.3125
300.59849	2826.4125
304.81948	2795.6125
309.03742	2777.7125
313.25231	2756.7125
317.46415	2740.8125
321.67296	2691.5125
325.87872	2667.3125
330.08145	2650.0125
334.28114	2668.7125
338.47781	2667.3125
342.67145	2687.3125
346.86207	2719.2125
351.04966	2744.5125
355.23424	2778.2125
359.4158	2802.0125
363.59435	2838.8125
367.76989	2867.8125
371.94243	2899.1125
376.11196	2934.2125
380.27849	2955.9125
384.44203	2988.2125
388.60257	3026.7125
392.76012	3057.0125
396.91468	3072.5125
401.06626	3111.3125
405.21485	3127.6125
409.36047	3115.3125
413.50311	3134.0125
417.64277	3108.6125
421.77947	3117.2125
425.9132	3130.2125
430.04396	3121.1125
434.17176	3153.9125
438.2966	3151.2125
442.41849	3150.6125
446.53742	3189.8125
450.6534	3202.3125
454.76644	3239.7125
458.87653	3248.1125
462.98368	3259.6125
467.08789	3283.7125
471.18916	3296.4125
475.2875	3285.9125
479.38291	3304.4125
483.4754	3349.2125
487.56496	3405.3125
491.6516	3455.6125
495.73531	3500.0125
499.81612	3496.0125
503.89401	3472.9125
507.96899	3453.8125
512.04106	3423.9125
516.11023	3402.3125
520.1765	3412.3125
524.23987	3418.2125
528.30034	3402.0125
532.35792	3417.2125
536.41261	3402.1125
540.46441	3373.0125
544.51333	3336.9125
548.55936	3293.4125
552.60252	3273.0125
556.64279	3281.8125
560.6802	3286.4125
564.71473	3284.1125
568.7464	3320.4125
572.7752	3343.9125
576.80114	3349.2125
580.82422	3361.6125
584.84444	3400.2125
588.86181	3447.1125
592.87633	3472.1125
596.888	3482.8125
600.89682	3465.5125
604.9028	3500.9125
608.90594	3598.8125
612.90624	3745.5125
616.90371	3783.4125
620.89834	3735.3125
624.89015	3805.4125
628.87913	4024.3125
632.86528	4228.7125
636.84862	4382.1125
640.82913	4380.2125
644.80683	4233.8125
648.78172	4036.7125
652.75379	3877.6125
656.72306	3752.8125
660.68952	3719.5125
664.65319	3713.3125
668.61405	3735.7125
672.57211	3808.9125
676.52738	3852.9125
680.47986	3900.1125
684.42955	3916.2125
688.37646	3873.0125
692.32058	3812.3125
696.26192	3738.6125
700.20048	3692.8125
704.13626	3623.8125
708.06928	3576.9125
711.99952	3532.1125
715.927	3464.9125
719.85171	3465.6125
723.77365	3458.9125
727.69284	3469.8125
731.60928	3463.3125
735.52295	3427.4125
739.43388	3389.5125
743.34206	3383.3125
747.24749	3372.1125
751.15017	3372.1125
755.05012	3391.4125
758.94733	3405.9125
762.8418	3429.9125
766.73354	3493.1125
770.62254	3542.5125
774.50882	3560.2125
778.39237	3511.1125
782.27321	3429.0125
786.15132	3386.0125
790.02671	3331.5125
793.89938	3348.2125
797.76935	3362.5125
801.6366	3381.5125
805.50115	3438.6125
809.36299	3525.6125
813.22213	3581.9125
817.07857	3548.7125
820.93231	3459.1125
824.78336	3338.6125
828.63172	3252.6125
832.47738	3196.0125
836.32036	3153.6125
840.16066	3149.5125
843.99827	3144.9125
847.8332	3145.2125
851.66546	3124.8125
855.49504	3133.3125
859.32195	3150.3125
863.1462	3169.0125
866.96777	3203.6125
870.78668	3227.3125
874.60293	3268.1125
878.41652	3326.1125
882.22745	3368.9125
886.03573	3405.7125
889.84136	3440.7125
893.64433	3394.3125
897.44466	3308.4125
901.24235	3228.2125
905.0374	3146.6125
908.8298	3113.4125
912.61957	3078.6125
916.40671	3053.3125
920.19121	3036.2125
923.97308	3029.8125
927.75233	3032.4125
931.52895	3047.7125
935.30295	3026.3125
939.07433	3033.2125
942.84309	3007.9125
946.60924	2989.8125
950.37278	2966.8125
954.13371	2964.2125
957.89203	2945.9125
961.64774	2941.0125
965.40086	2943.3125
969.15137	2930.7125
972.89929	2895.2125
976.64461	2904.6125
980.38733	2896.9125
984.12747	2906.3125
987.86502	2910.5125
991.59999	2903.1125
995.33237	2924.5125
999.06217	2941.3125
1002.78939	2976.8125
1006.51404	3003.7125
1010.23611	3036.0125
1013.95561	3065.3125
1017.67255	3079.8125
1021.38692	3051.4125
1025.09872	3041.6125
1028.80796	3004.4125
1032.51465	2964.4125
1036.21877	2946.9125
1039.92035	2927.3125
1043.61937	2916.3125
1047.31584	2916.7125
1051.00976	2927.2125
1054.70114	2955.7125
1058.38998	2962.8125
1062.07627	2976.5125
1065.76003	2999.3125
1069.44126	3032.4125
1073.11995	3041.2125
1076.79611	3057.1125
1080.46974	3038.7125
1084.14085	3008.2125
1087.80943	2950.8125
1091.47549	2932.8125
1095.13903	2919.3125
1098.80005	2897.9125
1102.45857	2885.8125
1106.11456	2882.8125
1109.76805	2901.4125
1113.41903	2950.3125
1117.06751	3021.1125
1120.71348	3133.2125
1124.35696	3301.3125
1127.99793	3507.2125
1131.63641	3697.9125
1135.2724	3825.0125
1138.90589	3824.6125
1142.5369	3725.4125
1146.16542	3571.2125
1149.79145	3396.0125
1153.415	3219.6125
1157.03607	3092.3125
1160.65467	3007.6125
1164.27079	2973.9125
1167.88443	2946.9125
1171.49561	2966.3125
1175.10432	3015.7125
1178.71056	3079.1125
1182.31434	3141.2125
1185.91565	3175.5125
1189.51451	3188.6125
1193.11091	3210.4125
1196.70485	3246.8125
1200.29634	3254.0125
1203.88538	3289.8125
1207.47197	3261.7125
1211.05612	3213.1125
1214.63782	3140.8125
1218.21708	3061.2125
1221.79391	2989.6125
1225.36829	2939.1125
1228.94024	2910.5125
1232.50976	2903.2125
1236.07685	2895.4125
1239.6415	2890.1125
1243.20374	2903.6125
1246.76355	2927.2125
1250.32093	2937.2125
1253.8759	2939.8125
1257.42845	2952.3125
1260.97859	2964.4125
1264.52631	2975.5125
1268.07163	2989.2125
1271.61453	2978.1125
1275.15503	2965.7125
1278.69312	2947.3125
1282.22882	2942.5125
1285.76211	2951.1125
1289.29301	2960.2125
1292.82151	2986.1125
1296.34761	3025.3125
1299.87133	3059.7125
1303.39266	3124.6125
1306.9116	3180.0125
1310.42815	3278.5125
1313.94233	3340.6125
1317.45412	3365.1125
1320.96354	3343.0125
1324.47058	3326.3125
1327.97525	3316.5125
1331.47754	3315.1125
1334.97747	3313.0125
1338.47502	3337.8125
1341.97022	3398.7125
1345.46305	3443.2125
1348.95352	3511.1125
1352.44163	3589.2125
1355.92738	3688.4125
1359.41078	3781.3125
1362.89183	3882.1125
1366.37053	3876.7125
1369.84688	3742.8125
1373.32088	3592.2125
1376.79254	3473.3125
1380.26186	3374.1125
1383.72883	3314.0125
1387.19347	3258.7125
1390.65578	3205.1125
1394.11575	3154.1125
1397.57339	3116.5125
1401.0287	3085.6125
1404.48168	3041.7125
1407.93234	2999.7125
1411.38068	2998.3125
1414.82669	2944.2125
1418.27039	2891.6125
1421.71177	2837.6125
1425.15083	2792.6125
1428.58758	2746.8125
1432.02203	2687.6125
1435.45416	2667.8125
1438.88399	2634.1125
1442.31151	2607.9125
1445.73673	2591.4125
1449.15965	2580.9125
1452.58027	2586.2125
1455.9986	2577.1125
1459.41463	2577.5125
1462.82837	2575.1125
1466.23982	2594.6125
1469.64898	2617.4125
1473.05586	2625.9125
1476.46045	2635.9125
1479.86276	2625.9125
1483.26279	2632.9125
1486.66054	2654.0125
1490.05602	2659.2125
1493.44922	2693.1125
1496.84016	2723.0125
1500.22882	2763.9125
1503.61521	2854.9125
1506.99934	2936.5125
1510.38121	3012.1125
1513.76081	3039.7125
1517.13816	2988.0125
1520.51324	2905.7125
1523.88607	2826.4125
1527.25665	2774.5125
1530.62498	2757.5125
1533.99105	2781.8125
1537.35488	2757.8125
1540.71647	2781.0125
1544.07581	2795.9125
1547.4329	2809.9125
1550.78776	2825.4125
1554.14038	2841.8125
1557.49077	2855.0125
1560.83892	2871.1125
1564.18484	2887.3125
1567.52853	2884.6125
1570.86999	2922.6125
1574.20922	2933.8125
1577.54624	2947.4125
1580.88103	2948.1125
1584.2136	2928.9125
1587.54395	2894.6125
1590.87208	2857.7125
1594.19801	2860.0125
1597.52172	2875.1125
1600.84321	2901.3125
1604.16251	2871.8125
1607.47959	2867.8125
1610.79447	2847.7125
1614.10715	2838.4125
1617.41763	2810.0125
1620.7259	2798.3125
1624.03199	2792.0125
1627.33587	2780.1125
1630.63757	2798.9125
1633.93707	2811.1125
1637.23439	2849.2125
1640.52951	2909.4125
1643.82246	2993.9125
1647.11321	3071.0125
1650.40179	3157.1125
1653.68819	3153.2125
1656.97241	3122.0125
1660.25446	3050.4125
1663.53433	2994.9125
1666.81203	2986.3125
1670.08756	2979.6125
1673.36092	2966.7125
1676.63211	2965.6125
1679.90115	2967.1125
1683.16801	2934.7125
1686.43272	2907.5125
1689.69527	2874.4125
1692.95567	2812.6125
1696.2139	2757.6125
1699.46999	2694.7125
1702.72392	2614.4125
1705.97571	2534.9125
1709.22535	2464.6125
1712.47284	2418.1125
1715.71819	2378.0125
1718.96139	2333.5125
1722.20246	2318.1125
1725.44139	2288.6125
1728.67818	2259.6125
1731.91284	2224.1125
1735.14537	2202.4125
1738.37576	2197.3125
1741.60403	2176.6125
1744.83017	2170.3125
1748.05418	2163.7125
1751.27607	2179.1125
1754.49584	2193.3125
1757.71349	2195.2125
1760.92903	2192.2125
1764.14244	2171.6125
1767.35375	2142.1125
1770.56294	2119.1125
1773.77002	2092.5125
1776.97499	2056.0125
1780.17785	2016.0125
1783.37861	1981.4125
1786.57727	1968.8125
1789.77382	1927.8125
1792.96828	1910.3125
1796.16064	1895.1125
1799.3509	1881.2125
1802.53907	1858.5125
1805.72514	1858.4125
1808.90913	1836.6125
1812.09102	1840.6125
1815.27083	1832.5125
1818.44856	1816.2125
1821.6242	1808.2125
1824.79776	1790.6125
1827.96924	1790.3125
1831.13864	1791.9125
1834.30597	1790.2125
1837.47122	1790.4125
1840.6344	1774.1125
1843.7955	1771.1125
1846.95454	1777.6125
1850.11151	1772.7125
1853.26642	1755.6125
1856.41926	1756.3125
1859.57004	1757.5125
1862.71876	1760.6125
1865.86542	1751.7125
1869.01003	1748.7125
1872.15258	1735.5125
1875.29308	1740.5125
1878.43152	1733.3125
1881.56792	1716.7125
1884.70227	1714.6125
1887.83457	1717.6125
1890.96482	1713.2125
1894.09304	1711.0125
1897.21921	1707.9125
1900.34335	1705.6125
1903.46544	1699.4125
1906.58551	1702.2125
1909.70353	1689.8125
1912.81953	1693.7125
1915.93349	1682.2125
1919.04543	1674.0125
1922.15534	1676.7125
1925.26322	1676.4125
1928.36908	1659.3125
1931.47292	1662.7125
1934.57473	1657.2125
1937.67453	1650.1125
1940.77232	1646.1125
1943.86808	1645.4125
1946.96184	1634.2125
1950.05358	1620.0125
1953.14331	1630.2125
1956.23103	1609.3125
1959.31675	1606.5125
1962.40046	1606.1125
1965.48217	1591.5125
1968.56188	1599.4125
1971.63959	1590.0125
1974.7153	1571.1125
1977.78901	1575.4125
1980.86073	1573.5125
1983.93046	1561.8125
1986.99819	1557.4125
1990.06394	1548.4125
1993.1277	1543.1125
1996.18947	1537.6125
1999.24925	1529.2125
2002.30706	1529.9125
2005.36288	1527.1125
2008.41672	1522.3125
2011.46859	1507.8125
2014.51848	1506.2125
2017.56639	1494.2125
2020.61233	1496.1125
2023.6563	1490.5125
2026.6983	1490.7125
2029.73833	1485.5125
2032.7764	1476.5125
2035.8125	1473.6125
2038.84664	1469.9125
2041.87881	1471.6125
2044.90903	1464.3125
2047.93729	1451.3125
2050.96359	1466.0125
2053.98794	1454.6125
2057.01034	1448.5125
2060.03078	1446.0125
2063.04927	1446.6125
2066.06582	1455.1125
2069.08042	1442.3125
2072.09307	1438.9125
2075.10378	1428.6125
2078.11255	1424.2125
2081.11938	1419.7125
2084.12426	1434.1125
2087.12722	1420.6125
2090.12824	1428.6125
2093.12732	1426.8125
2096.12447	1432.8125
2099.11969	1424.8125
2102.11299	1420.6125
2105.10435	1422.1125
2108.09379	1424.6125
2111.08131	1420.7125
2114.0669	1418.9125
2117.05057	1421.6125
2120.03233	1421.3125
2123.01216	1414.5125
2125.99008	1429.8125
2128.96609	1415.9125
2131.94018	1425.5125
2134.91236	1423.2125
2137.88263	1422.7125
2140.851	1424.8125
2143.81746	1414.3125
2146.78201	1420.2125
2149.74466	1420.7125
2152.7054	1415.7125
2155.66425	1417.3125
2158.6212	1417.3125
2161.57625	1417.5125
2164.52941	1410.8125
2167.48067	1413.4125
2170.43004	1411.3125
2173.37752	1402.6125
2176.32311	1398.4125
2179.26681	1402.3125
2182.20863	1397.0125
2185.14856	1406.2125
2188.08661	1395.2125
2191.02278	1398.2125
2193.95707	1393.0125
2196.88948	1385.3125
2199.82001	1384.2125
2202.74867	1379.9125
2205.67545	1375.4125
2208.60037	1370.2125
2211.52341	1364.3125
2214.44458	1366.1125
2217.36388	1372.3125
2220.28132	1365.1125
2223.1969	1357.8125
2226.11061	1357.6125
2229.02246	1350.4125
2231.93245	1341.6125
2234.84058	1346.3125
2237.74686	1338.0125
2240.65128	1325.1125
2243.55385	1339.2125
2246.45456	1331.5125
2249.35343	1332.7125
2252.25044	1334.3125
2255.14561	1314.2125
2258.03893	1330.9125
2260.93041	1332.5125
2263.82004	1314.7125
2266.70783	1308.2125
2269.59378	1303.5125
2272.4779	1297.6125
2275.36017	1290.8125
2278.24061	1287.2125
2281.11922	1286.3125
2283.996	1291.8125
2286.87094	1286.0125
2289.74405	1275.8125
2292.61534	1279.0125
2295.4848	1273.9125
2298.35243	1264.4125
2301.21824	1266.6125
2304.08223	1263.2125
2306.94439	1266.6125
2309.80474	1266.9125
2312.66327	1256.5125
2315.51999	1262.5125
2318.37489	1251.3125
2321.22797	1252.6125
2324.07925	1240.4125
2326.92871	1245.8125
2329.77637	1243.8125
2332.62222	1245.5125
2335.46626	1245.6125
2338.3085	1230.7125
2341.14893	1232.3125
2343.98756	1225.3125
2346.8244	1223.3125
2349.65943	1221.1125
2352.49267	1220.9125
2355.32411	1220.7125
2358.15376	1216.4125
2360.98161	1221.6125
2363.80768	1210.7125
2366.63195	1205.7125
2369.45444	1210.7125
2372.27514	1204.7125
2375.09405	1209.6125
2377.91118	1201.1125
2380.72652	1202.6125
2383.54009	1196.2125
2386.35187	1200.2125
2389.16188	1193.1125
2391.97011	1185.2125
2394.77657	1180.2125
2397.58125	1184.6125
2400.38416	1189.4125
2403.18529	1185.9125
2405.98466	1188.8125
2408.78226	1178.5125
2411.57809	1162.0125
2414.37216	1166.8125
2417.16446	1172.7125
2419.955	1164.5125
2422.74378	1163.1125
2425.5308	1153.1125
2428.31606	1156.7125
2431.09956	1151.7125
2433.88131	1151.0125
2436.6613	1155.1125
2439.43954	1150.4125
2442.21603	1145.2125
2444.99077	1148.1125
2447.76377	1139.4125
2450.53501	1142.8125
2453.30451	1140.2125
2456.07226	1135.3125
2458.83827	1144.4125
2461.60254	1131.4125
2464.36507	1118.1125
2467.12586	1121.8125
2469.88492	1130.9125
2472.64224	1127.4125
2475.39782	1129.1125
2478.15167	1116.9125
2480.90379	1117.5125
2483.65417	1116.3125
2486.40283	1115.7125
2489.14976	1108.4125
2491.89497	1108.1125
2494.63845	1117.2125
2497.3802	1110.7125
2500.12024	1104.6125
2502.85855	1105.3125
2505.59514	1096.8125
2508.33002	1098.7125
2511.06318	1104.7125
2513.79462	1092.0125
2516.52435	1091.0125
2519.25237	1091.7125
2521.97867	1084.3125
2524.70327	1083.1125
2527.42616	1089.9125
2530.14734	1085.2125
2532.86681	1070.0125
2535.58458	1076.1125
2538.30065	1072.9125
2541.01501	1073.6125
2543.72768	1065.2125
2546.43864	1068.6125
2549.14791	1063.1125
2551.85548	1058.7125
2554.56136	1058.0125
2557.26554	1052.7125
2559.96803	1047.1125
2562.66883	1053.1125
2565.36794	1054.3125
2568.06536	1046.2125
2570.7611	1039.4125
2573.45514	1050.1125
2576.14751	1043.3125
2578.83819	1030.6125
2581.52719	1039.9125
2584.21451	1033.1125
2586.90015	1027.4125
2589.58411	1030.8125
2592.2664	1018.6125
2594.94701	1025.6125
2597.62594	1016.1125
2600.30321	1016.2125
2602.9788	1008.7125
2605.65273	1014.0125
2608.32498	1011.4125
2610.99557	1003.3125
2613.66449	1013.4125
2616.33175	1005.5125
2618.99734	996.6125
2621.66128	997.3125
2624.32355	1004.5125
2626.98416	999.1125
2629.64311	995.4125
2632.30041	1000.4125
2634.95605	995.2125
2637.61004	992.4125
2640.26238	991.6125
2642.91306	983.0125
2645.56209	995.8125
2648.20948	992.2125
2650.85521	983.1125
2653.4993	981.6125
2656.14175	981.4125
2658.78255	983.3125
2661.42171	977.4125
2664.05923	979.8125
2666.6951	975.3125
2669.32934	976.6125
2671.96194	971.5125
2674.59291	979.7125
2677.22224	975.7125
2679.84993	981.2125
2682.476	971.3125
2685.10043	981.6125
2687.72324	977.5125
2690.34441	973.6125
2692.96396	977.5125
2695.58188	985.7125
2698.19818	974.8125
2700.81285	976.2125
2703.4259	991.7125
2706.03733	1018.1125
2708.64714	1002.5125
2711.25533	979.2125
2713.86191	979.1125
2716.46687	980.1125
2719.07021	976.0125
2721.67194	969.1125
2724.27206	967.6125
2726.87057	963.8125
2729.46747	973.1125
2732.06276	964.6125
2734.65644	971.0125
2737.24852	960.7125
2739.83899	961.2125
2742.42786	966.3125
2745.01513	960.9125
2747.60079	962.9125
2750.18486	954.7125
2752.76733	953.9125
2755.3482	952.0125
2757.92747	948.0125
2760.50515	953.0125
2763.08123	949.8125
2765.65573	943.2125
2768.22863	948.9125
2770.79994	943.5125
2773.36967	945.6125
2775.9378	938.4125
2778.50435	942.6125
2781.06932	935.9125
2783.6327	939.5125
2786.1945	937.6125
2788.75471	934.0125
2791.31335	933.2125
2793.87041	928.3125
2796.42589	928.7125
2798.97979	925.1125
2801.53212	916.1125
2804.08288	925.8125
2806.63206	922.6125
2809.17967	923.6125
2811.72571	915.3125
2814.27018	920.4125
2816.81308	910.7125
2819.35442	913.1125
2821.89419	916.0125
2824.43239	914.1125
2826.96904	917.5125
2829.50412	912.8125
2832.03763	913.7125
2834.56959	906.5125
2837.1	904.2125
2839.62884	911.3125
2842.15613	904.8125
2844.68186	912.9125
2847.20604	906.4125
2849.72867	912.7125
2852.24974	903.1125
2854.76927	912.2125
2857.28724	920.1125
2859.80367	910.6125
2862.31855	900.9125
2864.83189	909.1125
2867.34368	902.8125
2869.85393	901.9125
2872.36264	897.1125
2874.8698	901.0125
2877.37543	904.4125
2879.87952	903.1125
2882.38207	907.2125
2884.88308	907.1125
2887.38256	915.6125
2889.88051	911.2125
2892.37692	908.2125
2894.8718	920.7125
2897.36515	915.8125
2899.85698	924.2125
2902.34727	931.7125
2904.83604	934.2125
2907.32328	938.0125
2909.809	935.7125
2912.29319	944.0125
2914.77587	940.2125
2917.25702	945.2125
2919.73665	951.3125
2922.21476	950.1125
2924.69136	949.2125
2927.16644	954.1125
2929.64	952.1125
2932.11205	954.6125
2934.58258	965.9125
2937.05161	963.6125
2939.51912	960.6125
2941.98513	966.2125
2944.44962	959.7125
2946.91261	959.6125
2949.37409	967.9125
2951.83407	965.1125
2954.29254	965.1125
2956.74951	967.2125
2959.20498	959.8125
2961.65895	952.9125
2964.11142	949.9125
2966.56239	953.3125
2969.01186	947.6125
2971.45984	941.9125
2973.90632	928.6125
2976.35131	928.3125
2978.7948	931.1125
2981.23681	924.2125
2983.67732	923.0125
2986.11635	913.7125
2988.55388	915.1125
2990.98993	912.1125
2993.4245	912.7125
2995.85758	910.3125
2998.28917	910.0125
3000.71928	908.6125
3003.14791	906.8125
3005.57506	909.1125
3008.00073	910.1125
3010.42493	913.8125
3012.84764	916.8125
3015.26888	912.3125
3017.68865	920.9125
3020.10694	916.1125
3022.52376	908.4125
3024.9391	921.9125
3027.35298	912.2125
3029.76539	916.7125
3032.17632	916.5125
3034.5858	908.0125
3036.9938	916.1125
3039.40034	910.6125
3041.80542	915.0125
3044.20903	914.5125
3046.61118	908.2125
3049.01187	906.5125
3051.4111	912.1125
3053.80888	914.9125
3056.20519	913.3125
3058.60005	913.3125
3060.99345	914.0125
3063.3854	907.7125
3065.7759	918.6125
3068.16494	918.3125
3070.55254	919.2125
3072.93868	913.3125
3075.32338	927.6125
3077.70662	929.2125
3080.08842	927.3125
3082.46878	933.3125
3084.84769	933.4125
3087.22515	934.6125
3089.60118	940.2125
3091.97576	946.5125
3094.3489	940.8125
3096.72061	948.0125
3099.09087	960.1125
3101.4597	962.0125
3103.82709	964.6125
3106.19305	960.9125
3108.55757	964.5125
3110.92066	966.1125
3113.28232	975.2125
3115.64255	979.5125
3118.00134	983.3125
3120.35871	993.6125
3122.71466	985.1125
3125.06917	994.5125
3127.42226	992.1125
3129.77393	995.3125
3132.12417	1004.6125
3134.47299	1005.4125
3136.82039	1012.1125
3139.16636	1017.9125
3141.51092	1026.8125
3143.85406	1035.6125
3146.19579	1042.5125
3148.53609	1037.6125
