Data from AgNPs_FTO_APTES_UA_0.1mM_CRN_500uM_NaF_0.1M_Addition_RamanShift__32__15-11-47-781.txt Node

Date: Mon Dec 20 15:11:47 GMT 2021
User: TCL
Spectrometer: QEP01345
Trigger mode: 4
Integration Time (sec): 7.000000E0
Scans to average: 10
Electric dark correction enabled: true
Nonlinearity correction enabled: false
Boxcar width: 0
XAxis mode: Raman Shifts
Number of Pixels in Spectrum: 1044
>>>>>Begin Spectral Data<<<<<
46.04893	0.375
50.45542	-0.225
54.85868	-2.725
59.25871	0.575
63.6555	24.575
68.04907	26.675
72.43941	28.675
76.82654	28.875
81.21044	30.575
85.59113	35.275
89.96862	31.375
94.34289	35.375
98.71396	34.375
103.08183	34.975
107.4465	39.175
111.80798	40.675
116.16626	40.575
120.52136	37.675
124.87327	41.075
129.222	37.275
133.56755	41.775
137.90993	43.775
142.24913	44.475
146.58517	44.775
150.91804	52.275
155.24774	59.575
159.57429	67.975
163.89768	87.975
168.21792	110.475
172.53501	136.775
176.84895	182.775
181.15975	247.775
185.46741	335.675
189.77193	456.275
194.07331	607.475
198.37157	788.375
202.6667	971.075
206.9587	1159.475
211.24758	1338.475
215.53334	1525.575
219.81599	1708.475
224.09553	1919.975
228.37195	2146.075
232.64527	2398.675
236.91549	2644.675
241.18261	2879.775
245.44663	3083.475
249.70755	3253.375
253.96539	3376.475
258.22014	3472.775
262.4718	3525.575
266.72039	3546.675
270.96589	3549.775
275.20832	3499.175
279.44768	3425.775
283.68397	3342.075
287.91719	3294.875
292.14735	3267.875
296.37445	3298.775
300.59849	3390.475
304.81948	3491.275
309.03742	3554.775
313.25231	3511.575
317.46415	3365.475
321.67296	3145.775
325.87872	2961.575
330.08145	2859.575
334.28114	2842.675
338.47781	2857.975
342.67145	2910.175
346.86207	2996.875
351.04966	3131.175
355.23424	3299.475
359.4158	3461.175
363.59435	3550.675
367.76989	3607.075
371.94243	3645.075
376.11196	3673.675
380.27849	3690.175
384.44203	3687.575
388.60257	3683.975
392.76012	3648.375
396.91468	3677.075
401.06626	3711.275
405.21485	3746.075
409.36047	3665.875
413.50311	3487.975
417.64277	3310.375
421.77947	3202.475
425.9132	3142.675
430.04396	3123.675
434.17176	3137.675
438.2966	3162.175
442.41849	3198.675
446.53742	3285.675
450.6534	3334.175
454.76644	3383.975
458.87653	3376.375
462.98368	3367.375
467.08789	3318.875
471.18916	3291.675
475.2875	3273.775
479.38291	3285.475
483.4754	3349.475
487.56496	3477.375
491.6516	3604.075
495.73531	3680.375
499.81612	3650.475
503.89401	3564.275
507.96899	3495.275
512.04106	3486.075
516.11023	3551.475
520.1765	3644.875
524.23987	3712.675
528.30034	3711.975
532.35792	3673.675
536.41261	3563.675
540.46441	3405.875
544.51333	3276.875
548.55936	3208.275
552.60252	3186.875
556.64279	3204.475
560.6802	3212.775
564.71473	3238.975
568.7464	3347.375
572.7752	3411.575
576.80114	3374.575
580.82422	3294.375
584.84444	3335.975
588.86181	3423.075
592.87633	3497.375
596.888	3508.375
600.89682	3542.975
604.9028	3814.375
608.90594	4621.375
612.90624	5792.075
616.90371	5920.175
620.89834	4890.075
624.89015	4611.975
628.87913	4975.775
632.86528	5426.475
636.84862	5687.675
640.82913	5537.075
644.80683	5058.675
648.78172	4520.675
652.75379	4099.575
656.72306	3892.775
660.68952	3822.975
664.65319	3675.375
668.61405	3475.575
672.57211	3378.575
676.52738	3385.875
680.47986	3423.275
684.42955	3426.875
688.37646	3372.375
692.32058	3334.575
696.26192	3297.275
700.20048	3285.475
704.13626	3232.275
708.06928	3213.975
711.99952	3178.075
715.927	3197.875
719.85171	3242.575
723.77365	3317.175
727.69284	3316.675
731.60928	3256.975
735.52295	3170.275
739.43388	3119.175
743.34206	3129.375
747.24749	3136.075
751.15017	3145.475
755.05012	3154.975
758.94733	3265.675
762.8418	3504.175
766.73354	3925.075
770.62254	4373.875
774.50882	4669.775
778.39237	4551.975
782.27321	4070.475
786.15132	3578.575
790.02671	3302.775
793.89938	3200.775
797.76935	3227.475
801.6366	3351.875
805.50115	3611.475
809.36299	3898.475
813.22213	3996.875
817.07857	3880.275
820.93231	3604.775
824.78336	3334.375
828.63172	3133.975
832.47738	3011.775
836.32036	2955.175
840.16066	2920.775
843.99827	2894.075
847.8332	2894.875
851.66546	2887.375
855.49504	2893.175
859.32195	2913.375
863.1462	2944.075
866.96777	3008.675
870.78668	3110.675
874.60293	3255.975
878.41652	3449.975
882.22745	3637.475
886.03573	3762.175
889.84136	3761.775
893.64433	3608.275
897.44466	3379.575
901.24235	3153.875
905.0374	2970.875
908.8298	2854.175
912.61957	2790.475
916.40671	2742.075
920.19121	2734.475
923.97308	2731.475
927.75233	2745.275
931.52895	2754.675
935.30295	2748.675
939.07433	2692.175
942.84309	2625.075
946.60924	2595.475
950.37278	2579.475
954.13371	2567.375
957.89203	2546.475
961.64774	2540.875
965.40086	2533.475
969.15137	2522.975
972.89929	2515.375
976.64461	2516.275
980.38733	2506.375
984.12747	2509.875
987.86502	2532.275
991.59999	2563.175
995.33237	2596.275
999.06217	2682.675
1002.78939	2805.875
1006.51404	2919.075
1010.23611	3043.275
1013.95561	3125.575
1017.67255	3133.375
1021.38692	3103.275
1025.09872	3005.675
1028.80796	2879.875
1032.51465	2789.775
1036.21877	2726.475
1039.92035	2687.675
1043.61937	2668.675
1047.31584	2665.775
1051.00976	2691.975
1054.70114	2726.675
1058.38998	2744.575
1062.07627	2793.275
1065.76003	2860.675
1069.44126	2895.275
1073.11995	2913.075
1076.79611	2938.875
1080.46974	2925.975
1084.14085	2908.575
1087.80943	2897.075
1091.47549	2859.875
1095.13903	2796.775
1098.80005	2721.275
1102.45857	2670.175
1106.11456	2675.575
1109.76805	2733.275
1113.41903	2856.075
1117.06751	3067.375
1120.71348	3371.075
1124.35696	3790.875
1127.99793	4274.475
1131.63641	4660.175
1135.2724	4806.475
1138.90589	4754.475
1142.5369	4475.875
1146.16542	4088.075
1149.79145	3676.275
1153.415	3320.375
1157.03607	3064.275
1160.65467	2928.675
1164.27079	2889.075
1167.88443	2917.775
1171.49561	3059.075
1175.10432	3325.775
1178.71056	3723.675
1182.31434	4128.975
1185.91565	4348.975
1189.51451	4384.075
1193.11091	4348.675
1196.70485	4371.275
1200.29634	4453.675
1203.88538	4487.575
1207.47197	4308.175
1211.05612	4023.275
1214.63782	3718.275
1218.21708	3434.775
1221.79391	3223.075
1225.36829	3059.775
1228.94024	2936.375
1232.50976	2863.475
1236.07685	2820.675
1239.6415	2821.775
1243.20374	2832.875
1246.76355	2880.775
1250.32093	2902.875
1253.8759	2930.875
1257.42845	2971.775
1260.97859	3020.875
1264.52631	3082.675
1268.07163	3129.375
1271.61453	3161.875
1275.15503	3171.375
1278.69312	3134.175
1282.22882	3113.775
1285.76211	3128.875
1289.29301	3199.975
1292.82151	3297.775
1296.34761	3426.975
1299.87133	3615.075
1303.39266	3927.175
1306.9116	4388.175
1310.42815	4840.775
1313.94233	5055.275
1317.45412	4899.775
1320.96354	4597.775
1324.47058	4259.675
1327.97525	4023.475
1331.47754	3898.675
1334.97747	3875.175
1338.47502	3963.075
1341.97022	4093.975
1345.46305	4339.775
1348.95352	4678.375
1352.44163	5099.475
1355.92738	5669.775
1359.41078	6395.075
1362.89183	6999.475
1366.37053	6859.875
1369.84688	6044.875
1373.32088	5179.775
1376.79254	4569.875
1380.26186	4191.875
1383.72883	3973.075
1387.19347	3787.175
1390.65578	3614.375
1394.11575	3475.175
1397.57339	3389.375
1401.0287	3303.675
1404.48168	3253.975
1407.93234	3173.075
1411.38068	3093.475
1414.82669	3020.975
1418.27039	2961.175
1421.71177	2884.375
1425.15083	2797.675
1428.58758	2751.075
1432.02203	2729.475
1435.45416	2718.875
1438.88399	2704.775
1442.31151	2679.775
1445.73673	2701.875
1449.15965	2694.775
1452.58027	2694.675
1455.9986	2669.475
1459.41463	2651.575
1462.82837	2670.275
1466.23982	2715.775
1469.64898	2772.175
1473.05586	2798.775
1476.46045	2838.075
1479.86276	2879.775
1483.26279	2965.175
1486.66054	3069.175
1490.05602	3196.075
1493.44922	3369.775
1496.84016	3633.475
1500.22882	4053.775
1503.61521	4617.975
1506.99934	5252.875
1510.38121	5702.175
1513.76081	5771.875
1517.13816	5301.775
1520.51324	4573.975
1523.88607	3983.875
1527.25665	3585.575
1530.62498	3431.675
1533.99105	3374.775
1537.35488	3381.675
1540.71647	3426.575
1544.07581	3481.075
1547.4329	3555.675
1550.78776	3610.875
1554.14038	3610.775
1557.49077	3647.475
1560.83892	3651.075
1564.18484	3717.575
1567.52853	3815.075
1570.86999	3916.875
1574.20922	3994.275
1577.54624	3988.875
1580.88103	3844.475
1584.2136	3599.775
1587.54395	3451.375
1590.87208	3411.575
1594.19801	3504.475
1597.52172	3632.775
1600.84321	3743.375
1604.16251	3686.775
1607.47959	3595.775
1610.79447	3485.775
1614.10715	3383.575
1617.41763	3305.075
1620.7259	3258.375
1624.03199	3250.575
1627.33587	3291.675
1630.63757	3351.475
1633.93707	3481.975
1637.23439	3677.275
1640.52951	3982.475
1643.82246	4396.975
1647.11321	4895.075
1650.40179	5314.075
1653.68819	5303.875
1656.97241	4858.675
1660.25446	4310.675
1663.53433	3864.475
1666.81203	3547.975
1670.08756	3297.975
1673.36092	3124.475
1676.63211	2983.675
1679.90115	2899.675
1683.16801	2811.475
1686.43272	2718.675
1689.69527	2657.475
1692.95567	2594.675
1696.2139	2522.375
1699.46999	2464.175
1702.72392	2362.575
1705.97571	2283.475
1709.22535	2206.375
1712.47284	2145.375
1715.71819	2096.175
1718.96139	2068.275
1722.20246	2018.675
1725.44139	1976.975
1728.67818	1948.275
1731.91284	1909.475
1735.14537	1884.875
1738.37576	1864.375
1741.60403	1833.975
1744.83017	1832.075
1748.05418	1819.075
1751.27607	1810.375
1754.49584	1800.175
1757.71349	1796.375
1760.92903	1773.675
1764.14244	1773.775
1767.35375	1748.775
1770.56294	1734.775
1773.77002	1705.675
1776.97499	1696.275
1780.17785	1679.175
1783.37861	1669.075
1786.57727	1647.275
1789.77382	1645.375
1792.96828	1637.175
1796.16064	1623.875
1799.3509	1621.275
1802.53907	1605.975
1805.72514	1598.075
1808.90913	1587.475
1812.09102	1585.475
1815.27083	1576.475
1818.44856	1569.975
1821.6242	1566.775
1824.79776	1548.775
1827.96924	1554.075
1831.13864	1542.375
1834.30597	1547.375
1837.47122	1536.675
1840.6344	1542.575
1843.7955	1532.875
1846.95454	1530.075
1850.11151	1524.875
1853.26642	1515.775
1856.41926	1516.375
1859.57004	1514.175
1862.71876	1506.575
1865.86542	1505.975
1869.01003	1496.975
1872.15258	1490.675
1875.29308	1496.875
1878.43152	1489.175
1881.56792	1488.075
1884.70227	1485.275
1887.83457	1477.375
1890.96482	1482.075
1894.09304	1478.675
1897.21921	1471.675
1900.34335	1460.475
1903.46544	1457.075
1906.58551	1461.975
1909.70353	1457.775
1912.81953	1459.875
1915.93349	1451.175
1919.04543	1441.575
1922.15534	1436.275
1925.26322	1438.075
1928.36908	1428.975
1931.47292	1432.575
1934.57473	1425.875
1937.67453	1416.175
1940.77232	1409.075
1943.86808	1409.275
1946.96184	1390.675
1950.05358	1390.675
1953.14331	1397.775
1956.23103	1379.075
1959.31675	1377.075
1962.40046	1376.775
1965.48217	1372.475
1968.56188	1372.575
1971.63959	1364.575
1974.7153	1356.675
1977.78901	1353.275
1980.86073	1352.275
1983.93046	1339.975
1986.99819	1331.175
1990.06394	1321.875
1993.1277	1326.275
1996.18947	1314.775
1999.24925	1313.975
2002.30706	1312.875
2005.36288	1301.975
2008.41672	1299.775
2011.46859	1289.775
2014.51848	1285.875
2017.56639	1276.875
2020.61233	1279.875
2023.6563	1280.775
2026.6983	1274.575
2029.73833	1268.275
2032.7764	1258.575
2035.8125	1267.075
2038.84664	1252.675
2041.87881	1261.675
2044.90903	1253.475
2047.93729	1251.975
2050.96359	1245.175
2053.98794	1247.975
2057.01034	1240.475
2060.03078	1238.775
2063.04927	1239.175
2066.06582	1243.375
2069.08042	1242.475
2072.09307	1228.675
2075.10378	1237.575
2078.11255	1226.475
2081.11938	1219.475
2084.12426	1221.075
2087.12722	1221.075
2090.12824	1223.175
2093.12732	1228.775
2096.12447	1219.475
2099.11969	1210.075
2102.11299	1207.075
2105.10435	1212.975
2108.09379	1216.275
2111.08131	1205.775
2114.0669	1211.675
2117.05057	1215.375
2120.03233	1218.975
2123.01216	1215.275
2125.99008	1215.175
2128.96609	1214.475
2131.94018	1221.375
2134.91236	1217.275
2137.88263	1225.775
2140.851	1212.875
2143.81746	1223.175
2146.78201	1215.775
2149.74466	1211.475
2152.7054	1211.875
2155.66425	1201.075
2158.6212	1203.075
2161.57625	1202.375
2164.52941	1204.575
2167.48067	1201.675
2170.43004	1192.975
2173.37752	1195.475
2176.32311	1197.675
2179.26681	1186.575
2182.20863	1195.075
2185.14856	1190.275
2188.08661	1192.475
2191.02278	1189.575
2193.95707	1175.875
2196.88948	1182.775
2199.82001	1177.475
2202.74867	1168.275
2205.67545	1171.775
2208.60037	1174.475
2211.52341	1165.975
2214.44458	1157.975
2217.36388	1156.075
2220.28132	1158.275
2223.1969	1153.475
2226.11061	1159.075
2229.02246	1150.775
2231.93245	1136.275
2234.84058	1144.975
2237.74686	1141.575
2240.65128	1129.975
2243.55385	1142.375
2246.45456	1138.775
2249.35343	1133.375
2252.25044	1133.575
2255.14561	1118.775
2258.03893	1132.475
2260.93041	1135.075
2263.82004	1121.875
2266.70783	1121.475
2269.59378	1115.875
2272.4779	1123.575
2275.36017	1111.875
2278.24061	1103.575
2281.11922	1096.975
2283.996	1104.275
2286.87094	1100.275
2289.74405	1098.175
2292.61534	1087.275
2295.4848	1088.175
2298.35243	1081.175
2301.21824	1084.275
2304.08223	1086.375
2306.94439	1075.575
2309.80474	1080.375
2312.66327	1069.075
2315.51999	1077.075
2318.37489	1070.575
2321.22797	1065.475
2324.07925	1062.175
2326.92871	1074.475
2329.77637	1064.175
2332.62222	1060.775
2335.46626	1054.275
2338.3085	1054.475
2341.14893	1048.875
2343.98756	1047.475
2346.8244	1048.175
2349.65943	1043.375
2352.49267	1053.275
2355.32411	1048.975
2358.15376	1056.075
2360.98161	1045.975
2363.80768	1047.775
2366.63195	1054.875
2369.45444	1049.875
2372.27514	1053.775
2375.09405	1054.975
2377.91118	1051.975
2380.72652	1046.975
2383.54009	1043.175
2386.35187	1048.375
2389.16188	1035.475
2391.97011	1024.675
2394.77657	1031.075
2397.58125	1023.975
2400.38416	1025.775
2403.18529	1026.175
2405.98466	1018.075
2408.78226	1019.675
2411.57809	1005.375
2414.37216	1006.075
2417.16446	1004.275
2419.955	999.475
2422.74378	991.475
2425.5308	992.175
2428.31606	995.575
2431.09956	984.475
2433.88131	984.975
2436.6613	992.975
2439.43954	985.075
2442.21603	975.675
2444.99077	986.375
2447.76377	985.875
2450.53501	982.175
2453.30451	978.175
2456.07226	979.175
2458.83827	973.575
2461.60254	977.975
2464.36507	970.775
2467.12586	974.075
2469.88492	971.275
2472.64224	961.675
2475.39782	977.375
2478.15167	970.975
2480.90379	980.175
2483.65417	978.375
2486.40283	977.375
2489.14976	977.375
2491.89497	981.375
2494.63845	982.875
2497.3802	977.575
2500.12024	973.875
2502.85855	969.875
2505.59514	962.075
2508.33002	957.375
2511.06318	957.875
2513.79462	948.275
2516.52435	937.475
2519.25237	946.275
2521.97867	942.975
2524.70327	939.475
2527.42616	932.275
2530.14734	934.175
2532.86681	923.575
2535.58458	932.875
2538.30065	925.575
2541.01501	927.675
2543.72768	924.475
2546.43864	923.075
2549.14791	921.475
2551.85548	914.675
2554.56136	911.275
2557.26554	912.375
2559.96803	911.675
2562.66883	907.075
2565.36794	904.175
2568.06536	907.175
2570.7611	907.875
2573.45514	895.075
2576.14751	900.175
2578.83819	891.375
2581.52719	890.475
2584.21451	889.775
2586.90015	889.775
2589.58411	878.575
2592.2664	885.975
2594.94701	879.675
2597.62594	884.675
2600.30321	875.475
2602.9788	885.175
2605.65273	874.475
2608.32498	865.875
2610.99557	862.175
2613.66449	865.675
2616.33175	871.575
2618.99734	871.475
2621.66128	867.775
2624.32355	863.675
2626.98416	865.875
2629.64311	863.775
2632.30041	857.875
2634.95605	861.175
2637.61004	858.275
2640.26238	853.675
2642.91306	852.575
2645.56209	848.975
2648.20948	851.175
2650.85521	846.875
2653.4993	851.875
2656.14175	847.975
2658.78255	853.575
2661.42171	845.675
2664.05923	843.975
2666.6951	847.875
2669.32934	850.575
2671.96194	851.275
2674.59291	855.075
2677.22224	852.175
2679.84993	847.475
2682.476	853.375
2685.10043	849.675
2687.72324	850.775
2690.34441	850.675
2692.96396	846.075
2695.58188	854.275
2698.19818	851.475
2700.81285	856.775
2703.4259	873.375
2706.03733	901.575
2708.64714	888.675
2711.25533	873.775
2713.86191	869.075
2716.46687	874.975
2719.07021	861.375
2721.67194	863.275
2724.27206	861.675
2726.87057	861.875
2729.46747	862.275
2732.06276	862.775
2734.65644	857.575
2737.24852	852.975
2739.83899	856.975
2742.42786	847.975
2745.01513	846.775
2747.60079	846.775
2750.18486	843.175
2752.76733	834.875
2755.3482	840.275
2757.92747	838.575
2760.50515	839.475
2763.08123	837.275
2765.65573	831.275
2768.22863	840.475
2770.79994	834.575
2773.36967	831.475
2775.9378	832.275
2778.50435	825.475
2781.06932	828.175
2783.6327	836.275
2786.1945	832.675
2788.75471	830.075
2791.31335	836.775
2793.87041	832.275
2796.42589	830.975
2798.97979	827.075
2801.53212	829.175
2804.08288	834.075
2806.63206	837.575
2809.17967	828.175
2811.72571	826.175
2814.27018	825.575
2816.81308	825.775
2819.35442	832.875
2821.89419	825.875
2824.43239	831.575
2826.96904	836.075
2829.50412	828.075
2832.03763	838.175
2834.56959	835.675
2837.1	827.575
2839.62884	839.275
2842.15613	845.575
2844.68186	842.775
2847.20604	850.875
2849.72867	848.675
2852.24974	858.075
2854.76927	866.675
2857.28724	870.275
2859.80367	860.275
2862.31855	868.275
2864.83189	862.075
2867.34368	867.575
2869.85393	862.175
2872.36264	859.675
2874.8698	870.375
2877.37543	870.075
2879.87952	867.675
2882.38207	876.975
2884.88308	866.675
2887.38256	879.575
2889.88051	874.175
2892.37692	873.775
2894.8718	873.275
2897.36515	879.375
2899.85698	885.075
2902.34727	892.675
2904.83604	894.775
2907.32328	892.575
2909.809	892.975
2912.29319	890.375
2914.77587	893.275
2917.25702	902.075
2919.73665	906.875
2922.21476	902.875
2924.69136	900.175
2927.16644	900.775
2929.64	903.375
2932.11205	895.575
2934.58258	901.275
2937.05161	903.275
2939.51912	900.075
2941.98513	886.875
2944.44962	897.875
2946.91261	880.175
2949.37409	885.175
2951.83407	885.375
2954.29254	880.275
2956.74951	879.175
2959.20498	869.775
2961.65895	865.775
2964.11142	865.275
2966.56239	858.675
2969.01186	857.375
2971.45984	853.275
2973.90632	847.275
2976.35131	845.375
2978.7948	842.975
2981.23681	840.975
2983.67732	844.775
2986.11635	840.175
2988.55388	832.475
2990.98993	838.175
2993.4245	841.475
2995.85758	837.775
2998.28917	838.075
3000.71928	841.075
3003.14791	843.175
3005.57506	840.675
3008.00073	843.875
3010.42493	845.375
3012.84764	845.675
3015.26888	850.475
3017.68865	850.675
3020.10694	844.275
3022.52376	848.875
3024.9391	855.275
3027.35298	849.375
3029.76539	848.875
3032.17632	854.675
3034.5858	855.175
3036.9938	855.775
3039.40034	858.175
3041.80542	862.075
3044.20903	861.775
3046.61118	864.175
3049.01187	857.875
3051.4111	866.975
3053.80888	883.475
3056.20519	873.975
3058.60005	863.575
3060.99345	874.975
3063.3854	878.975
3065.7759	882.475
3068.16494	879.575
3070.55254	887.075
3072.93868	888.775
3075.32338	891.275
3077.70662	888.575
3080.08842	895.775
3082.46878	908.175
3084.84769	905.175
3087.22515	915.975
3089.60118	913.375
3091.97576	914.975
3094.3489	919.675
3096.72061	926.975
3099.09087	927.475
3101.4597	942.075
3103.82709	944.075
3106.19305	940.975
3108.55757	955.675
3110.92066	952.875
3113.28232	951.875
3115.64255	964.575
3118.00134	974.275
3120.35871	973.075
3122.71466	972.375
3125.06917	975.375
3127.42226	978.375
3129.77393	1003.375
3132.12417	1004.875
3134.47299	1011.375
3136.82039	1014.075
3139.16636	1014.475
3141.51092	1038.075
3143.85406	1048.675
3146.19579	1050.175
3148.53609	1061.075
3150.87499	1062.375
3153.21246	1077.375
3155.54853	1084.875
3157.88318	1090.475
3160.21642	1096.775
3162.54826	1102.275
3164.87868	1116.175
3167.2077	1123.175
3169.5353	1126.975
3171.86151	1131.175
3174.18631	1143.075
3176.5097	1150.975
3178.83169	1140.275
3181.15228	1153.775
3183.47147	1164.075
3185.78926	1174.475
3188.10565	1168.975
3190.42065	1179.475
3192.73424	1187.075
3195.04645	1190.575
3197.35725	1196.575
3199.66667	1201.875
3201.97469	1213.875
3204.28132	1209.575
3206.58656	1223.075
3208.8904	1233.175
3211.19287	1233.675
3213.49394	1239.375
3215.79363	1244.275
3218.09193	1244.875
3220.38884	1264.675
3222.68438	1268.175
3224.97853	1268.075
3227.2713	1262.075
3229.56269	1269.275
3231.8527	1266.875
3234.14133	1268.375
3236.42858	1263.275
3238.71446	1268.675
3240.99896	1267.775
3243.28209	1273.375
3245.56384	1267.275
3247.84423	1267.375
3250.12324	1268.875
3252.40088	1277.175
3254.67715	1278.675
3256.95205	1283.475
3259.22558	1285.175
3261.49775	1272.275
3263.76855	1283.575
3266.03799	1269.375
3268.30606	1275.275
