Data from AgNPs_FTO_APTES_UA_0.1mM_CRN_500uM_NaF_0.1M_Addition_RamanShift__14__14-50-47-772.txt Node

Date: Mon Dec 20 14:50:47 GMT 2021
User: TCL
Spectrometer: QEP01345
Trigger mode: 4
Integration Time (sec): 7.000000E0
Scans to average: 10
Electric dark correction enabled: true
Nonlinearity correction enabled: false
Boxcar width: 0
XAxis mode: Raman Shifts
Number of Pixels in Spectrum: 1044
>>>>>Begin Spectral Data<<<<<
46.04893	0.125
50.45542	0.325
54.85868	-1.275
59.25871	1.725
63.6555	21.925
68.04907	24.725
72.43941	29.825
76.82654	28.525
81.21044	29.725
85.59113	35.125
89.96862	29.825
94.34289	33.025
98.71396	34.425
103.08183	33.725
107.4465	38.825
111.80798	39.525
116.16626	37.525
120.52136	40.025
124.87327	41.125
129.222	36.025
133.56755	41.925
137.90993	41.125
142.24913	44.625
146.58517	45.225
150.91804	55.425
155.24774	57.925
159.57429	67.525
163.89768	83.325
168.21792	110.725
172.53501	138.225
176.84895	186.025
181.15975	257.125
185.46741	354.225
189.77193	490.325
194.07331	654.625
198.37157	851.325
202.6667	1064.125
206.9587	1296.425
211.24758	1506.925
215.53334	1736.025
219.81599	1970.125
224.09553	2209.225
228.37195	2480.325
232.64527	2791.525
236.91549	3073.125
241.18261	3350.725
245.44663	3590.825
249.70755	3799.225
253.96539	3955.325
258.22014	4041.725
262.4718	4061.025
266.72039	4035.025
270.96589	3944.725
275.20832	3832.425
279.44768	3704.925
283.68397	3554.325
287.91719	3433.025
292.14735	3309.325
296.37445	3234.425
300.59849	3166.425
304.81948	3122.025
309.03742	3087.625
313.25231	3057.625
317.46415	3017.725
321.67296	2955.625
325.87872	2943.125
330.08145	2911.625
334.28114	2897.325
338.47781	2900.025
342.67145	2902.525
346.86207	2926.825
351.04966	2950.625
355.23424	2996.325
359.4158	3022.925
363.59435	3046.425
367.76989	3068.225
371.94243	3110.825
376.11196	3132.025
380.27849	3163.625
384.44203	3191.725
388.60257	3217.525
392.76012	3251.925
396.91468	3303.325
401.06626	3361.725
405.21485	3388.425
409.36047	3408.525
413.50311	3403.525
417.64277	3385.825
421.77947	3390.625
425.9132	3362.025
430.04396	3361.225
434.17176	3362.025
438.2966	3362.725
442.41849	3361.625
446.53742	3387.025
450.6534	3410.725
454.76644	3421.925
458.87653	3429.425
462.98368	3442.125
467.08789	3454.025
471.18916	3477.425
475.2875	3493.925
479.38291	3509.925
483.4754	3553.825
487.56496	3605.425
491.6516	3669.225
495.73531	3724.325
499.81612	3739.225
503.89401	3748.525
507.96899	3733.625
512.04106	3698.125
516.11023	3664.325
520.1765	3639.625
524.23987	3616.725
528.30034	3597.525
532.35792	3570.825
536.41261	3537.325
540.46441	3514.425
544.51333	3483.725
548.55936	3467.725
552.60252	3461.125
556.64279	3473.725
560.6802	3468.825
564.71473	3478.725
568.7464	3508.225
572.7752	3525.825
576.80114	3524.425
580.82422	3547.825
584.84444	3558.425
588.86181	3622.925
592.87633	3644.925
596.888	3646.925
600.89682	3652.325
604.9028	3705.325
608.90594	3852.325
612.90624	4055.925
616.90371	4077.725
620.89834	3926.925
624.89015	3900.725
628.87913	4013.325
632.86528	4144.925
636.84862	4278.425
640.82913	4312.525
644.80683	4235.425
648.78172	4154.425
652.75379	4077.925
656.72306	4025.725
660.68952	4017.125
664.65319	4039.225
668.61405	4095.325
672.57211	4163.025
676.52738	4232.725
680.47986	4291.325
684.42955	4307.925
688.37646	4288.625
692.32058	4265.625
696.26192	4186.325
700.20048	4117.725
704.13626	4040.825
708.06928	3922.625
711.99952	3818.025
715.927	3721.625
719.85171	3669.225
723.77365	3667.725
727.69284	3636.725
731.60928	3632.625
735.52295	3589.425
739.43388	3589.425
743.34206	3598.825
747.24749	3609.625
751.15017	3629.325
755.05012	3636.625
758.94733	3681.625
762.8418	3728.525
766.73354	3786.125
770.62254	3853.825
774.50882	3875.825
778.39237	3828.125
782.27321	3736.925
786.15132	3630.325
790.02671	3582.825
793.89938	3560.125
797.76935	3560.725
801.6366	3590.025
805.50115	3642.825
809.36299	3702.225
813.22213	3730.725
817.07857	3687.325
820.93231	3610.225
824.78336	3491.425
828.63172	3414.725
832.47738	3360.425
836.32036	3349.325
840.16066	3333.425
843.99827	3316.825
847.8332	3311.825
851.66546	3289.425
855.49504	3306.025
859.32195	3313.325
863.1462	3313.025
866.96777	3331.025
870.78668	3348.925
874.60293	3382.025
878.41652	3391.925
882.22745	3452.225
886.03573	3483.425
889.84136	3485.225
893.64433	3464.125
897.44466	3434.525
901.24235	3412.925
905.0374	3368.625
908.8298	3319.825
912.61957	3302.025
916.40671	3281.525
920.19121	3269.625
923.97308	3254.725
927.75233	3235.625
931.52895	3223.525
935.30295	3227.725
939.07433	3204.625
942.84309	3179.825
946.60924	3167.625
950.37278	3158.125
954.13371	3179.125
957.89203	3165.925
961.64774	3146.225
965.40086	3138.725
969.15137	3133.325
972.89929	3117.825
976.64461	3114.225
980.38733	3094.325
984.12747	3094.325
987.86502	3095.025
991.59999	3094.025
995.33237	3115.425
999.06217	3133.025
1002.78939	3153.425
1006.51404	3167.225
1010.23611	3190.325
1013.95561	3208.125
1017.67255	3201.825
1021.38692	3203.825
1025.09872	3199.325
1028.80796	3179.325
1032.51465	3160.525
1036.21877	3151.025
1039.92035	3143.025
1043.61937	3143.225
1047.31584	3146.325
1051.00976	3159.325
1054.70114	3177.925
1058.38998	3170.125
1062.07627	3194.625
1065.76003	3217.225
1069.44126	3221.725
1073.11995	3218.025
1076.79611	3234.625
1080.46974	3218.825
1084.14085	3212.025
1087.80943	3187.225
1091.47549	3175.125
1095.13903	3145.925
1098.80005	3137.225
1102.45857	3111.125
1106.11456	3114.725
1109.76805	3130.225
1113.41903	3168.025
1117.06751	3259.325
1120.71348	3367.625
1124.35696	3512.725
1127.99793	3665.125
1131.63641	3821.825
1135.2724	3894.225
1138.90589	3906.025
1142.5369	3835.425
1146.16542	3732.725
1149.79145	3595.325
1153.415	3467.925
1157.03607	3359.725
1160.65467	3282.825
1164.27079	3231.525
1167.88443	3215.125
1171.49561	3223.425
1175.10432	3263.425
1178.71056	3331.725
1182.31434	3401.025
1185.91565	3457.525
1189.51451	3465.625
1193.11091	3453.125
1196.70485	3464.425
1200.29634	3470.225
1203.88538	3463.525
1207.47197	3443.425
1211.05612	3412.125
1214.63782	3400.325
1218.21708	3340.625
1221.79391	3314.625
1225.36829	3291.025
1228.94024	3268.525
1232.50976	3246.125
1236.07685	3238.825
1239.6415	3229.525
1243.20374	3235.025
1246.76355	3248.425
1250.32093	3254.225
1253.8759	3273.025
1257.42845	3290.925
1260.97859	3297.525
1264.52631	3318.025
1268.07163	3316.225
1271.61453	3315.525
1275.15503	3304.725
1278.69312	3290.125
1282.22882	3282.525
1285.76211	3291.425
1289.29301	3299.825
1292.82151	3335.325
1296.34761	3379.725
1299.87133	3419.525
1303.39266	3490.625
1306.9116	3592.225
1310.42815	3695.225
1313.94233	3775.925
1317.45412	3791.625
1320.96354	3767.125
1324.47058	3752.425
1327.97525	3729.925
1331.47754	3728.025
1334.97747	3741.825
1338.47502	3762.725
1341.97022	3799.825
1345.46305	3866.625
1348.95352	3941.425
1352.44163	4036.325
1355.92738	4131.125
1359.41078	4260.825
1362.89183	4414.125
1366.37053	4413.025
1369.84688	4248.625
1373.32088	4069.225
1376.79254	3920.725
1380.26186	3834.025
1383.72883	3765.725
1387.19347	3718.025
1390.65578	3637.925
1394.11575	3584.725
1397.57339	3541.225
1401.0287	3500.625
1404.48168	3443.325
1407.93234	3392.225
1411.38068	3351.525
1414.82669	3316.525
1418.27039	3269.025
1421.71177	3210.225
1425.15083	3149.825
1428.58758	3090.225
1432.02203	3055.425
1435.45416	2995.625
1438.88399	2983.925
1442.31151	2951.125
1445.73673	2953.025
1449.15965	2932.325
1452.58027	2940.725
1455.9986	2941.625
1459.41463	2956.825
1462.82837	2967.725
1466.23982	2979.825
1469.64898	3004.125
1473.05586	3022.025
1476.46045	3039.125
1479.86276	3045.925
1483.26279	3053.625
1486.66054	3079.825
1490.05602	3086.725
1493.44922	3113.225
1496.84016	3161.325
1500.22882	3241.625
1503.61521	3344.925
1506.99934	3446.325
1510.38121	3560.525
1513.76081	3583.725
1517.13816	3531.525
1520.51324	3406.725
1523.88607	3318.225
1527.25665	3236.425
1530.62498	3196.025
1533.99105	3209.425
1537.35488	3221.025
1540.71647	3230.725
1544.07581	3264.125
1547.4329	3280.525
1550.78776	3311.325
1554.14038	3335.525
1557.49077	3362.225
1560.83892	3378.725
1564.18484	3396.325
1567.52853	3412.525
1570.86999	3449.025
1574.20922	3457.925
1577.54624	3456.825
1580.88103	3449.025
1584.2136	3414.425
1587.54395	3357.825
1590.87208	3329.025
1594.19801	3339.225
1597.52172	3352.625
1600.84321	3369.925
1604.16251	3354.825
1607.47959	3333.125
1610.79447	3312.625
1614.10715	3274.625
1617.41763	3242.525
1620.7259	3232.725
1624.03199	3208.225
1627.33587	3203.825
1630.63757	3216.525
1633.93707	3240.225
1637.23439	3272.325
1640.52951	3327.225
1643.82246	3402.525
1647.11321	3486.225
1650.40179	3582.525
1653.68819	3609.725
1656.97241	3539.625
1660.25446	3436.625
1663.53433	3356.925
1666.81203	3321.825
1670.08756	3287.125
1673.36092	3276.125
1676.63211	3254.425
1679.90115	3228.725
1683.16801	3198.425
1686.43272	3151.025
1689.69527	3105.725
1692.95567	3052.625
1696.2139	3008.425
1699.46999	2944.625
1702.72392	2873.125
1705.97571	2817.725
1709.22535	2767.725
1712.47284	2735.825
1715.71819	2693.925
1718.96139	2664.125
1722.20246	2631.125
1725.44139	2588.125
1728.67818	2553.825
1731.91284	2506.225
1735.14537	2484.125
1738.37576	2452.925
1741.60403	2433.025
1744.83017	2421.425
1748.05418	2409.025
1751.27607	2424.625
1754.49584	2427.625
1757.71349	2430.225
1760.92903	2426.425
1764.14244	2424.425
1767.35375	2386.125
1770.56294	2359.625
1773.77002	2322.325
1776.97499	2287.825
1780.17785	2249.925
1783.37861	2217.825
1786.57727	2188.225
1789.77382	2148.825
1792.96828	2125.525
1796.16064	2098.625
1799.3509	2076.925
1802.53907	2071.325
1805.72514	2049.925
1808.90913	2029.125
1812.09102	2026.425
1815.27083	2013.925
1818.44856	2002.325
1821.6242	1999.225
1824.79776	1989.825
1827.96924	1978.425
1831.13864	1978.725
1834.30597	1975.225
1837.47122	1966.625
1840.6344	1959.725
1843.7955	1950.525
1846.95454	1948.025
1850.11151	1950.225
1853.26642	1934.025
1856.41926	1927.325
1859.57004	1931.725
1862.71876	1937.125
1865.86542	1927.425
1869.01003	1921.625
1872.15258	1912.125
1875.29308	1908.725
1878.43152	1907.725
1881.56792	1895.925
1884.70227	1891.425
1887.83457	1900.525
1890.96482	1891.425
1894.09304	1878.525
1897.21921	1879.825
1900.34335	1868.925
1903.46544	1863.425
1906.58551	1860.125
1909.70353	1858.425
1912.81953	1856.225
1915.93349	1845.525
1919.04543	1837.525
1922.15534	1834.425
1925.26322	1834.725
1928.36908	1829.025
1931.47292	1820.025
1934.57473	1806.225
1937.67453	1803.825
1940.77232	1806.325
1943.86808	1802.425
1946.96184	1795.525
1950.05358	1777.225
1953.14331	1788.125
1956.23103	1756.225
1959.31675	1764.625
1962.40046	1762.625
1965.48217	1757.125
1968.56188	1744.025
1971.63959	1742.225
1974.7153	1736.025
1977.78901	1706.325
1980.86073	1724.725
1983.93046	1711.125
1986.99819	1707.525
1990.06394	1701.525
1993.1277	1692.725
1996.18947	1681.325
1999.24925	1686.525
2002.30706	1676.525
2005.36288	1670.725
2008.41672	1665.825
2011.46859	1663.325
2014.51848	1655.225
2017.56639	1636.725
2020.61233	1643.825
2023.6563	1634.525
2026.6983	1631.325
2029.73833	1618.725
2032.7764	1621.425
2035.8125	1614.425
2038.84664	1604.425
2041.87881	1601.325
2044.90903	1597.725
2047.93729	1602.625
2050.96359	1591.725
2053.98794	1590.625
2057.01034	1587.725
2060.03078	1578.825
2063.04927	1585.025
2066.06582	1582.025
2069.08042	1577.025
2072.09307	1570.525
2075.10378	1574.825
2078.11255	1565.225
2081.11938	1570.225
2084.12426	1574.725
2087.12722	1558.525
2090.12824	1571.725
2093.12732	1567.925
2096.12447	1571.725
2099.11969	1559.825
2102.11299	1570.225
2105.10435	1572.725
2108.09379	1564.125
2111.08131	1552.725
2114.0669	1554.525
2117.05057	1560.225
2120.03233	1556.925
2123.01216	1559.325
2125.99008	1556.225
2128.96609	1560.025
2131.94018	1564.125
2134.91236	1552.225
2137.88263	1568.025
2140.851	1558.325
2143.81746	1564.825
2146.78201	1564.025
2149.74466	1559.225
2152.7054	1552.925
2155.66425	1560.325
2158.6212	1554.125
2161.57625	1552.725
2164.52941	1552.225
2167.48067	1551.825
2170.43004	1556.325
2173.37752	1548.625
2176.32311	1536.525
2179.26681	1531.825
2182.20863	1540.525
2185.14856	1541.725
2188.08661	1536.025
2191.02278	1534.525
2193.95707	1535.525
2196.88948	1525.125
2199.82001	1526.825
2202.74867	1513.925
2205.67545	1508.325
2208.60037	1515.425
2211.52341	1506.525
2214.44458	1512.925
2217.36388	1499.225
2220.28132	1500.525
2223.1969	1490.125
2226.11061	1484.425
2229.02246	1476.125
2231.93245	1477.125
2234.84058	1469.425
2237.74686	1462.325
2240.65128	1467.625
2243.55385	1458.525
2246.45456	1466.025
2249.35343	1449.125
2252.25044	1456.125
2255.14561	1437.325
2258.03893	1445.925
2260.93041	1455.125
2263.82004	1441.925
2266.70783	1428.825
2269.59378	1422.625
2272.4779	1430.325
2275.36017	1421.125
2278.24061	1419.625
2281.11922	1410.825
2283.996	1407.225
2286.87094	1397.825
2289.74405	1398.425
2292.61534	1396.625
2295.4848	1396.225
2298.35243	1385.825
2301.21824	1385.525
2304.08223	1386.125
2306.94439	1384.425
2309.80474	1384.825
2312.66327	1380.925
2315.51999	1377.925
2318.37489	1372.825
2321.22797	1374.725
2324.07925	1370.525
2326.92871	1378.625
2329.77637	1368.325
2332.62222	1359.025
2335.46626	1349.625
2338.3085	1352.025
2341.14893	1347.925
2343.98756	1343.325
2346.8244	1342.225
2349.65943	1334.025
2352.49267	1344.825
2355.32411	1331.225
2358.15376	1327.325
2360.98161	1333.425
2363.80768	1321.125
2366.63195	1324.525
2369.45444	1318.825
2372.27514	1316.025
2375.09405	1322.825
2377.91118	1324.225
2380.72652	1317.025
2383.54009	1299.825
2386.35187	1314.125
2389.16188	1298.925
2391.97011	1303.725
2394.77657	1291.225
2397.58125	1284.525
2400.38416	1292.425
2403.18529	1277.825
2405.98466	1286.825
2408.78226	1279.125
2411.57809	1279.325
2414.37216	1268.725
2417.16446	1277.925
2419.955	1262.025
2422.74378	1260.125
2425.5308	1261.825
2428.31606	1267.225
2431.09956	1262.725
2433.88131	1258.325
2436.6613	1256.925
2439.43954	1257.825
2442.21603	1251.525
2444.99077	1243.925
2447.76377	1240.625
2450.53501	1254.125
2453.30451	1244.425
2456.07226	1236.825
2458.83827	1238.925
2461.60254	1234.325
2464.36507	1228.025
2467.12586	1223.225
2469.88492	1223.025
2472.64224	1222.425
2475.39782	1231.625
2478.15167	1234.625
2480.90379	1228.225
2483.65417	1222.725
2486.40283	1221.525
2489.14976	1214.725
2491.89497	1214.725
2494.63845	1220.925
2497.3802	1212.425
2500.12024	1204.625
2502.85855	1203.025
2505.59514	1197.825
2508.33002	1194.625
2511.06318	1193.125
2513.79462	1199.225
2516.52435	1203.125
2519.25237	1187.425
2521.97867	1179.525
2524.70327	1188.025
2527.42616	1171.225
2530.14734	1178.825
2532.86681	1174.725
2535.58458	1172.625
2538.30065	1165.725
2541.01501	1168.125
2543.72768	1167.625
2546.43864	1157.025
2549.14791	1160.825
2551.85548	1158.325
2554.56136	1150.425
2557.26554	1142.425
2559.96803	1145.925
2562.66883	1142.925
2565.36794	1142.125
2568.06536	1144.725
2570.7611	1134.425
2573.45514	1139.325
2576.14751	1132.625
2578.83819	1127.225
2581.52719	1132.325
2584.21451	1124.625
2586.90015	1129.425
2589.58411	1116.125
2592.2664	1114.825
2594.94701	1116.225
2597.62594	1103.525
2600.30321	1108.725
2602.9788	1105.125
2605.65273	1107.925
2608.32498	1097.225
2610.99557	1100.725
2613.66449	1092.725
2616.33175	1095.925
2618.99734	1091.025
2621.66128	1088.725
2624.32355	1080.725
2626.98416	1087.925
2629.64311	1079.225
2632.30041	1086.125
2634.95605	1084.725
2637.61004	1073.925
2640.26238	1070.925
2642.91306	1069.425
2645.56209	1077.725
2648.20948	1073.625
2650.85521	1070.525
2653.4993	1069.525
2656.14175	1075.125
2658.78255	1065.825
2661.42171	1060.625
2664.05923	1065.325
2666.6951	1071.225
2669.32934	1072.225
2671.96194	1066.725
2674.59291	1067.925
2677.22224	1061.725
2679.84993	1063.825
2682.476	1061.625
2685.10043	1063.625
2687.72324	1061.625
2690.34441	1056.425
2692.96396	1064.625
2695.58188	1062.825
2698.19818	1068.725
2700.81285	1064.725
2703.4259	1071.825
2706.03733	1082.825
2708.64714	1073.525
2711.25533	1070.225
2713.86191	1056.625
2716.46687	1055.025
2719.07021	1062.025
2721.67194	1055.225
2724.27206	1048.425
2726.87057	1057.425
2729.46747	1051.825
2732.06276	1050.725
2734.65644	1048.825
2737.24852	1044.625
2739.83899	1041.825
2742.42786	1044.325
2745.01513	1038.225
2747.60079	1038.425
2750.18486	1036.025
2752.76733	1036.425
2755.3482	1040.325
2757.92747	1037.725
2760.50515	1030.225
2763.08123	1021.225
2765.65573	1028.825
2768.22863	1022.525
2770.79994	1024.625
2773.36967	1023.125
2775.9378	1021.625
2778.50435	1021.025
2781.06932	1018.425
2783.6327	1016.625
2786.1945	1008.525
2788.75471	1014.325
2791.31335	1011.125
2793.87041	1005.025
2796.42589	1008.825
2798.97979	1000.025
2801.53212	1007.425
2804.08288	1001.425
2806.63206	997.025
2809.17967	997.225
2811.72571	993.425
2814.27018	991.525
2816.81308	984.825
2819.35442	986.125
2821.89419	988.125
2824.43239	989.725
2826.96904	989.725
2829.50412	980.625
2832.03763	989.025
2834.56959	986.225
2837.1	979.025
2839.62884	983.525
2842.15613	982.625
2844.68186	980.125
2847.20604	981.625
2849.72867	975.425
2852.24974	978.125
2854.76927	985.325
2857.28724	989.825
2859.80367	976.025
2862.31855	975.125
2864.83189	978.125
2867.34368	976.925
2869.85393	977.925
2872.36264	973.825
2874.8698	983.825
2877.37543	985.925
2879.87952	970.125
2882.38207	975.925
2884.88308	976.125
2887.38256	971.125
2889.88051	983.825
2892.37692	980.225
2894.8718	982.325
2897.36515	980.425
2899.85698	983.425
2902.34727	995.725
2904.83604	987.225
2907.32328	997.125
2909.809	993.825
2912.29319	1000.125
2914.77587	998.725
2917.25702	1007.225
2919.73665	1001.125
2922.21476	1008.325
2924.69136	1011.925
2927.16644	1009.025
2929.64	1017.225
2932.11205	1020.025
2934.58258	1018.625
2937.05161	1023.625
2939.51912	1016.825
2941.98513	1029.025
2944.44962	1020.725
2946.91261	1027.325
2949.37409	1014.725
2951.83407	1024.225
2954.29254	1028.025
2956.74951	1025.825
2959.20498	1019.925
2961.65895	1014.625
2964.11142	1012.025
2966.56239	1009.125
2969.01186	1000.625
2971.45984	997.125
2973.90632	989.725
2976.35131	985.725
2978.7948	993.425
2981.23681	980.425
2983.67732	982.125
2986.11635	980.425
2988.55388	973.125
2990.98993	972.425
2993.4245	976.025
2995.85758	974.125
2998.28917	969.525
3000.71928	967.325
3003.14791	961.825
3005.57506	968.725
3008.00073	980.825
3010.42493	972.625
3012.84764	972.325
3015.26888	969.125
3017.68865	969.925
3020.10694	974.725
3022.52376	968.725
3024.9391	974.125
3027.35298	970.825
3029.76539	962.825
3032.17632	977.025
3034.5858	969.625
3036.9938	965.225
3039.40034	966.325
3041.80542	978.825
3044.20903	965.225
3046.61118	971.425
3049.01187	963.725
3051.4111	967.225
3053.80888	978.525
3056.20519	974.525
3058.60005	974.025
3060.99345	978.525
3063.3854	969.225
3065.7759	973.325
3068.16494	979.425
3070.55254	978.325
3072.93868	983.125
3075.32338	984.825
3077.70662	982.725
3080.08842	989.025
3082.46878	994.025
3084.84769	991.325
3087.22515	1000.525
3089.60118	994.325
3091.97576	1008.125
3094.3489	1006.525
3096.72061	1012.725
3099.09087	1019.825
3101.4597	1015.125
3103.82709	1025.625
3106.19305	1030.825
3108.55757	1035.725
3110.92066	1030.625
3113.28232	1025.225
3115.64255	1036.525
3118.00134	1034.125
3120.35871	1051.525
3122.71466	1054.725
3125.06917	1050.325
3127.42226	1050.225
3129.77393	1057.025
3132.12417	1068.125
3134.47299	1072.625
3136.82039	1077.425
3139.16636	1080.225
3141.51092	1096.425
3143.85406	1102.525
3146.19579	1103.525
3148.53609	1115.525
3150.87499	1108.725
3153.21246	1124.225
3155.54853	1132.525
3157.88318	1141.525
3160.21642	1146.225
3162.54826	1148.525
3164.87868	1157.225
3167.2077	1155.325
3169.5353	1162.225
3171.86151	1169.325
3174.18631	1177.725
3176.5097	1176.425
3178.83169	1180.125
3181.15228	1182.725
3183.47147	1188.325
3185.78926	1201.425
3188.10565	1198.325
3190.42065	1200.325
3192.73424	1207.825
3195.04645	1211.925
3197.35725	1220.125
3199.66667	1214.125
3201.97469	1231.725
3204.28132	1232.925
3206.58656	1234.925
3208.8904	1247.225
3211.19287	1256.625
3213.49394	1253.725
3215.79363	1259.525
3218.09193	1258.625
3220.38884	1273.825
3222.68438	1270.125
3224.97853	1267.125
3227.2713	1271.125
3229.56269	1273.325
3231.8527	1275.225
3234.14133	1257.125
3236.42858	1265.225
3238.71446	1268.325
3240.99896	1272.625
3243.28209	1266.925
3245.56384	1266.525
3247.84423	1269.125
