Data from AgNPs_FTO_APTES_UA_0.1mM_CRN_500uM_NaF_0.1M_Addition_RamanShift__13__14-49-37-770.txt Node

Date: Mon Dec 20 14:49:37 GMT 2021
User: TCL
Spectrometer: QEP01345
Trigger mode: 4
Integration Time (sec): 7.000000E0
Scans to average: 10
Electric dark correction enabled: true
Nonlinearity correction enabled: false
Boxcar width: 0
XAxis mode: Raman Shifts
Number of Pixels in Spectrum: 1044
>>>>>Begin Spectral Data<<<<<
46.04893	1.125
50.45542	-0.475
54.85868	-0.875
59.25871	1.725
63.6555	23.525
68.04907	23.525
72.43941	26.325
76.82654	26.925
81.21044	26.925
85.59113	30.725
89.96862	28.825
94.34289	29.225
98.71396	32.925
103.08183	32.725
107.4465	35.825
111.80798	35.125
116.16626	37.325
120.52136	37.525
124.87327	36.025
129.222	36.125
133.56755	37.025
137.90993	40.525
142.24913	40.925
146.58517	40.225
150.91804	48.725
155.24774	57.125
159.57429	61.925
163.89768	77.125
168.21792	101.125
172.53501	129.325
176.84895	179.325
181.15975	250.425
185.46741	341.325
189.77193	482.625
194.07331	641.825
198.37157	826.825
202.6667	1026.325
206.9587	1233.825
211.24758	1425.925
215.53334	1630.225
219.81599	1836.725
224.09553	2066.725
228.37195	2329.125
232.64527	2619.525
236.91549	2914.425
241.18261	3224.025
245.44663	3516.325
249.70755	3743.725
253.96539	3926.125
258.22014	4019.225
262.4718	4017.225
266.72039	3963.025
270.96589	3838.725
275.20832	3683.525
279.44768	3497.825
283.68397	3310.725
287.91719	3161.125
292.14735	3023.525
296.37445	2913.025
300.59849	2837.025
304.81948	2782.725
309.03742	2729.925
313.25231	2689.725
317.46415	2664.125
321.67296	2620.625
325.87872	2588.525
330.08145	2583.525
334.28114	2552.525
338.47781	2560.125
342.67145	2571.825
346.86207	2566.225
351.04966	2570.425
355.23424	2592.725
359.4158	2606.725
363.59435	2610.725
367.76989	2634.425
371.94243	2651.625
376.11196	2675.625
380.27849	2694.625
384.44203	2730.625
388.60257	2779.025
392.76012	2818.125
396.91468	2913.025
401.06626	2994.725
405.21485	3074.225
409.36047	3119.325
413.50311	3123.025
417.64277	3085.925
421.77947	3053.625
425.9132	3036.925
430.04396	3001.425
434.17176	2976.025
438.2966	2978.025
442.41849	2962.325
446.53742	2960.025
450.6534	2970.425
454.76644	2965.925
458.87653	2975.425
462.98368	2990.225
467.08789	2984.125
471.18916	3005.225
475.2875	3024.725
479.38291	3053.925
483.4754	3091.325
487.56496	3151.925
491.6516	3197.125
495.73531	3234.725
499.81612	3280.825
503.89401	3304.025
507.96899	3307.025
512.04106	3281.625
516.11023	3242.725
520.1765	3170.525
524.23987	3119.325
528.30034	3058.925
532.35792	3045.825
536.41261	3004.025
540.46441	2995.125
544.51333	2976.325
548.55936	2963.925
552.60252	2977.825
556.64279	2968.425
560.6802	2983.925
564.71473	3008.625
568.7464	3003.825
572.7752	3004.125
576.80114	3030.225
580.82422	3043.525
584.84444	3064.725
588.86181	3092.925
592.87633	3119.625
596.888	3135.025
600.89682	3163.925
604.9028	3216.225
608.90594	3308.425
612.90624	3420.725
616.90371	3430.425
620.89834	3329.725
624.89015	3269.425
628.87913	3288.425
632.86528	3335.025
636.84862	3400.025
640.82913	3437.125
644.80683	3426.825
648.78172	3419.025
652.75379	3404.925
656.72306	3398.325
660.68952	3421.925
664.65319	3448.125
668.61405	3498.225
672.57211	3568.025
676.52738	3628.325
680.47986	3681.925
684.42955	3707.225
688.37646	3725.725
692.32058	3752.925
696.26192	3695.925
700.20048	3624.425
704.13626	3528.625
708.06928	3406.325
711.99952	3296.425
715.927	3199.925
719.85171	3144.225
723.77365	3105.425
727.69284	3085.325
731.60928	3074.425
735.52295	3074.425
739.43388	3084.325
743.34206	3121.425
747.24749	3154.425
751.15017	3186.825
755.05012	3239.625
758.94733	3274.625
762.8418	3281.725
766.73354	3313.825
770.62254	3302.425
774.50882	3290.725
778.39237	3258.225
782.27321	3209.825
786.15132	3127.225
790.02671	3074.925
793.89938	3048.725
797.76935	3077.725
801.6366	3093.825
805.50115	3136.525
809.36299	3172.225
813.22213	3175.825
817.07857	3143.425
820.93231	3073.825
824.78336	3012.125
828.63172	2942.225
832.47738	2906.325
836.32036	2880.225
840.16066	2866.525
843.99827	2870.425
847.8332	2874.025
851.66546	2890.725
855.49504	2875.125
859.32195	2886.625
863.1462	2865.125
866.96777	2865.425
870.78668	2870.925
874.60293	2897.425
878.41652	2891.825
882.22745	2915.025
886.03573	2931.125
889.84136	2962.825
893.64433	2954.025
897.44466	2964.725
901.24235	2964.825
905.0374	2947.625
908.8298	2920.025
912.61957	2897.825
916.40671	2877.125
920.19121	2879.425
923.97308	2856.325
927.75233	2841.225
931.52895	2827.325
935.30295	2815.625
939.07433	2803.825
942.84309	2783.825
946.60924	2780.925
950.37278	2768.125
954.13371	2777.925
957.89203	2786.525
961.64774	2773.525
965.40086	2762.825
969.15137	2768.325
972.89929	2750.825
976.64461	2760.725
980.38733	2748.025
984.12747	2745.125
987.86502	2743.525
991.59999	2753.825
995.33237	2746.925
999.06217	2756.025
1002.78939	2769.525
1006.51404	2783.925
1010.23611	2784.625
1013.95561	2786.925
1017.67255	2804.525
1021.38692	2815.525
1025.09872	2810.125
1028.80796	2824.825
1032.51465	2818.725
1036.21877	2812.525
1039.92035	2814.925
1043.61937	2816.425
1047.31584	2815.625
1051.00976	2822.525
1054.70114	2827.125
1058.38998	2838.225
1062.07627	2843.125
1065.76003	2853.425
1069.44126	2832.625
1073.11995	2822.125
1076.79611	2824.925
1080.46974	2805.225
1084.14085	2808.125
1087.80943	2778.925
1091.47549	2770.625
1095.13903	2759.425
1098.80005	2748.125
1102.45857	2752.825
1106.11456	2753.425
1109.76805	2763.425
1113.41903	2794.525
1117.06751	2844.825
1120.71348	2902.925
1124.35696	2970.825
1127.99793	3045.825
1131.63641	3119.425
1135.2724	3177.225
1138.90589	3190.525
1142.5369	3183.925
1146.16542	3149.825
1149.79145	3091.225
1153.415	3018.425
1157.03607	2932.825
1160.65467	2895.225
1164.27079	2858.025
1167.88443	2840.825
1171.49561	2839.525
1175.10432	2869.225
1178.71056	2894.225
1182.31434	2935.025
1185.91565	2953.825
1189.51451	2964.525
1193.11091	2951.625
1196.70485	2972.925
1200.29634	2978.525
1203.88538	2980.725
1207.47197	2992.925
1211.05612	3000.725
1214.63782	3021.925
1218.21708	3034.125
1221.79391	3050.725
1225.36829	3047.825
1228.94024	3041.625
1232.50976	3013.725
1236.07685	2978.525
1239.6415	2966.125
1243.20374	2958.425
1246.76355	2968.425
1250.32093	2980.125
1253.8759	2995.725
1257.42845	3033.425
1260.97859	3048.025
1264.52631	3051.625
1268.07163	3058.525
1271.61453	3042.025
1275.15503	3025.125
1278.69312	3018.125
1282.22882	2998.525
1285.76211	2978.825
1289.29301	2984.925
1292.82151	2984.625
1296.34761	3012.625
1299.87133	3053.325
1303.39266	3102.625
1306.9116	3166.325
1310.42815	3222.625
1313.94233	3267.825
1317.45412	3298.325
1320.96354	3312.825
1324.47058	3324.025
1327.97525	3335.725
1331.47754	3328.425
1334.97747	3340.425
1338.47502	3367.625
1341.97022	3396.425
1345.46305	3424.125
1348.95352	3496.725
1352.44163	3532.925
1355.92738	3578.925
1359.41078	3644.625
1362.89183	3709.625
1366.37053	3702.725
1369.84688	3622.625
1373.32088	3513.325
1376.79254	3431.625
1380.26186	3370.825
1383.72883	3326.425
1387.19347	3302.525
1390.65578	3257.025
1394.11575	3220.325
1397.57339	3184.725
1401.0287	3134.525
1404.48168	3105.725
1407.93234	3084.525
1411.38068	3068.825
1414.82669	3027.725
1418.27039	3001.825
1421.71177	2960.725
1425.15083	2921.225
1428.58758	2886.325
1432.02203	2843.725
1435.45416	2805.025
1438.88399	2791.825
1442.31151	2767.325
1445.73673	2747.525
1449.15965	2751.225
1452.58027	2724.625
1455.9986	2727.925
1459.41463	2725.425
1462.82837	2746.325
1466.23982	2766.525
1469.64898	2776.125
1473.05586	2803.725
1476.46045	2822.825
1479.86276	2810.125
1483.26279	2835.125
1486.66054	2844.625
1490.05602	2842.425
1493.44922	2877.125
1496.84016	2889.325
1500.22882	2925.125
1503.61521	2996.625
1506.99934	3031.425
1510.38121	3088.825
1513.76081	3106.625
1517.13816	3068.025
1520.51324	3042.425
1523.88607	2995.425
1527.25665	2979.925
1530.62498	2972.125
1533.99105	2999.325
1537.35488	3013.325
1540.71647	3043.425
1544.07581	3089.725
1547.4329	3134.925
1550.78776	3165.625
1554.14038	3215.025
1557.49077	3235.525
1560.83892	3268.525
1564.18484	3302.525
1567.52853	3329.425
1570.86999	3334.225
1574.20922	3367.025
1577.54624	3365.525
1580.88103	3368.425
1584.2136	3356.525
1587.54395	3366.325
1590.87208	3342.125
1594.19801	3344.825
1597.52172	3357.325
1600.84321	3345.525
1604.16251	3324.325
1607.47959	3298.225
1610.79447	3268.825
1614.10715	3226.225
1617.41763	3192.925
1620.7259	3174.025
1624.03199	3127.225
1627.33587	3118.625
1630.63757	3113.825
1633.93707	3126.725
1637.23439	3137.225
1640.52951	3156.425
1643.82246	3182.725
1647.11321	3238.725
1650.40179	3273.625
1653.68819	3254.325
1656.97241	3198.825
1660.25446	3147.325
1663.53433	3091.525
1666.81203	3044.125
1670.08756	3004.925
1673.36092	2959.525
1676.63211	2928.125
1679.90115	2880.025
1683.16801	2848.225
1686.43272	2795.425
1689.69527	2747.925
1692.95567	2702.225
1696.2139	2652.425
1699.46999	2606.725
1702.72392	2577.325
1705.97571	2531.425
1709.22535	2515.325
1712.47284	2489.325
1715.71819	2456.625
1718.96139	2424.825
1722.20246	2388.825
1725.44139	2367.625
1728.67818	2339.225
1731.91284	2304.825
1735.14537	2268.425
1738.37576	2248.925
1741.60403	2224.825
1744.83017	2217.625
1748.05418	2216.225
1751.27607	2205.925
1754.49584	2217.225
1757.71349	2222.925
1760.92903	2206.125
1764.14244	2199.525
1767.35375	2194.125
1770.56294	2151.025
1773.77002	2128.225
1776.97499	2085.625
1780.17785	2046.725
1783.37861	2022.025
1786.57727	2004.525
1789.77382	1973.825
1792.96828	1953.125
1796.16064	1935.625
1799.3509	1911.625
1802.53907	1889.625
1805.72514	1883.325
1808.90913	1865.025
1812.09102	1862.525
1815.27083	1849.925
1818.44856	1836.025
1821.6242	1829.525
1824.79776	1817.525
1827.96924	1812.125
1831.13864	1807.425
1834.30597	1800.825
1837.47122	1804.025
1840.6344	1788.925
1843.7955	1766.225
1846.95454	1780.325
1850.11151	1778.225
1853.26642	1765.825
1856.41926	1764.125
1859.57004	1750.825
1862.71876	1766.725
1865.86542	1755.225
1869.01003	1751.225
1872.15258	1744.225
1875.29308	1739.025
1878.43152	1733.225
1881.56792	1724.125
1884.70227	1716.525
1887.83457	1713.825
1890.96482	1715.525
1894.09304	1706.625
1897.21921	1701.725
1900.34335	1697.225
1903.46544	1692.525
1906.58551	1696.425
1909.70353	1685.825
1912.81953	1677.525
1915.93349	1687.425
1919.04543	1680.425
1922.15534	1667.125
1925.26322	1667.325
1928.36908	1664.925
1931.47292	1646.925
1934.57473	1641.425
1937.67453	1643.925
1940.77232	1627.825
1943.86808	1640.525
1946.96184	1628.425
1950.05358	1613.225
1953.14331	1607.425
1956.23103	1608.025
1959.31675	1608.625
1962.40046	1599.825
1965.48217	1590.925
1968.56188	1581.125
1971.63959	1577.525
1974.7153	1562.025
1977.78901	1564.125
1980.86073	1553.725
1983.93046	1551.425
1986.99819	1537.025
1990.06394	1535.725
1993.1277	1533.625
1996.18947	1532.425
1999.24925	1519.525
2002.30706	1523.125
2005.36288	1508.325
2008.41672	1504.725
2011.46859	1505.525
2014.51848	1492.325
2017.56639	1488.525
2020.61233	1492.625
2023.6563	1476.525
2026.6983	1473.725
2029.73833	1468.825
2032.7764	1465.125
2035.8125	1454.225
2038.84664	1445.325
2041.87881	1451.225
2044.90903	1435.225
2047.93729	1443.725
2050.96359	1444.525
2053.98794	1437.125
2057.01034	1431.825
2060.03078	1422.525
2063.04927	1419.225
2066.06582	1422.025
2069.08042	1427.725
2072.09307	1417.325
2075.10378	1417.725
2078.11255	1416.825
2081.11938	1417.425
2084.12426	1418.625
2087.12722	1419.425
2090.12824	1422.425
2093.12732	1415.825
2096.12447	1413.925
2099.11969	1397.825
2102.11299	1411.425
2105.10435	1408.625
2108.09379	1402.525
2111.08131	1403.125
2114.0669	1407.825
2117.05057	1402.625
2120.03233	1403.125
2123.01216	1415.225
2125.99008	1405.025
2128.96609	1412.125
2131.94018	1424.825
2134.91236	1425.125
2137.88263	1401.025
2140.851	1402.725
2143.81746	1411.625
2146.78201	1401.025
2149.74466	1394.525
2152.7054	1398.525
2155.66425	1396.425
2158.6212	1394.325
2161.57625	1398.025
2164.52941	1396.925
2167.48067	1386.225
2170.43004	1392.525
2173.37752	1384.725
2176.32311	1390.725
2179.26681	1379.925
2182.20863	1387.925
2185.14856	1385.325
2188.08661	1371.125
2191.02278	1382.225
2193.95707	1370.825
2196.88948	1366.025
2199.82001	1370.025
2202.74867	1366.225
2205.67545	1363.925
2208.60037	1352.525
2211.52341	1352.525
2214.44458	1352.925
2217.36388	1347.325
2220.28132	1358.725
2223.1969	1333.125
2226.11061	1334.125
2229.02246	1323.525
2231.93245	1329.925
2234.84058	1329.425
2237.74686	1317.925
2240.65128	1316.925
2243.55385	1305.925
2246.45456	1300.525
2249.35343	1307.125
2252.25044	1302.225
2255.14561	1293.725
2258.03893	1301.125
2260.93041	1311.325
2263.82004	1290.625
2266.70783	1293.125
2269.59378	1277.525
2272.4779	1281.925
2275.36017	1274.325
2278.24061	1270.425
2281.11922	1265.125
2283.996	1259.425
2286.87094	1264.925
2289.74405	1256.625
2292.61534	1257.425
2295.4848	1254.225
2298.35243	1252.025
2301.21824	1249.725
2304.08223	1248.925
2306.94439	1242.125
2309.80474	1235.125
2312.66327	1237.725
2315.51999	1238.625
2318.37489	1230.525
2321.22797	1223.425
2324.07925	1225.825
2326.92871	1231.325
2329.77637	1226.125
2332.62222	1222.425
2335.46626	1208.525
2338.3085	1212.125
2341.14893	1209.525
2343.98756	1199.225
2346.8244	1198.525
2349.65943	1192.125
2352.49267	1199.325
2355.32411	1205.425
2358.15376	1200.325
2360.98161	1191.725
2363.80768	1189.925
2366.63195	1180.425
2369.45444	1185.825
2372.27514	1188.825
2375.09405	1182.725
2377.91118	1178.425
2380.72652	1169.025
2383.54009	1165.625
2386.35187	1174.525
2389.16188	1166.225
2391.97011	1167.825
2394.77657	1158.925
2397.58125	1154.425
2400.38416	1146.925
2403.18529	1153.325
2405.98466	1157.125
2408.78226	1141.225
2411.57809	1144.825
2414.37216	1132.225
2417.16446	1137.025
2419.955	1137.825
2422.74378	1132.125
2425.5308	1132.725
2428.31606	1134.525
2431.09956	1122.425
2433.88131	1123.625
2436.6613	1131.125
2439.43954	1119.625
2442.21603	1117.825
2444.99077	1109.225
2447.76377	1110.225
2450.53501	1112.625
2453.30451	1118.525
2456.07226	1111.525
2458.83827	1103.225
2461.60254	1106.425
2464.36507	1099.925
2467.12586	1103.925
2469.88492	1100.225
2472.64224	1098.425
2475.39782	1102.225
2478.15167	1096.125
2480.90379	1097.625
2483.65417	1085.725
2486.40283	1092.025
2489.14976	1082.225
2491.89497	1092.725
2494.63845	1085.925
2497.3802	1084.625
2500.12024	1079.125
2502.85855	1076.025
2505.59514	1073.025
2508.33002	1072.625
2511.06318	1078.925
2513.79462	1068.325
2516.52435	1066.125
2519.25237	1066.125
2521.97867	1064.325
2524.70327	1065.325
2527.42616	1051.625
2530.14734	1054.625
2532.86681	1049.325
2535.58458	1049.225
2538.30065	1044.925
2541.01501	1047.125
2543.72768	1041.525
2546.43864	1039.525
2549.14791	1032.425
2551.85548	1035.925
2554.56136	1028.625
2557.26554	1028.825
2559.96803	1019.425
2562.66883	1016.425
2565.36794	1017.225
2568.06536	1019.525
2570.7611	1018.625
2573.45514	1016.425
2576.14751	1016.425
2578.83819	1004.625
2581.52719	1013.225
2584.21451	1001.825
2586.90015	1001.125
2589.58411	1003.025
2592.2664	997.525
2594.94701	997.225
2597.62594	997.925
2600.30321	988.125
2602.9788	990.525
2605.65273	984.625
2608.32498	985.825
2610.99557	980.625
2613.66449	976.925
2616.33175	981.225
2618.99734	974.925
2621.66128	973.425
2624.32355	973.225
2626.98416	969.125
2629.64311	966.925
2632.30041	964.125
2634.95605	963.325
2637.61004	959.125
2640.26238	962.725
2642.91306	967.825
2645.56209	960.925
2648.20948	962.525
2650.85521	959.325
2653.4993	960.025
2656.14175	956.625
2658.78255	957.725
2661.42171	953.425
2664.05923	949.025
2666.6951	947.725
2669.32934	945.925
2671.96194	948.625
2674.59291	942.325
2677.22224	951.725
2679.84993	947.325
2682.476	944.425
2685.10043	948.425
2687.72324	948.625
2690.34441	945.625
2692.96396	937.325
2695.58188	947.425
2698.19818	945.925
2700.81285	949.525
2703.4259	949.725
2706.03733	971.925
2708.64714	962.625
2711.25533	953.325
2713.86191	942.725
2716.46687	940.125
2719.07021	942.525
2721.67194	943.125
2724.27206	936.625
2726.87057	938.125
2729.46747	940.125
2732.06276	935.525
2734.65644	936.025
2737.24852	934.125
2739.83899	928.225
2742.42786	931.225
2745.01513	920.325
2747.60079	926.325
2750.18486	924.025
2752.76733	925.225
2755.3482	922.225
2757.92747	921.525
2760.50515	919.325
2763.08123	910.225
2765.65573	909.825
2768.22863	907.025
2770.79994	917.825
2773.36967	914.525
2775.9378	909.425
2778.50435	900.525
2781.06932	901.025
2783.6327	907.925
2786.1945	903.825
2788.75471	896.425
2791.31335	899.825
2793.87041	892.825
2796.42589	885.325
2798.97979	888.725
2801.53212	890.025
2804.08288	881.725
2806.63206	880.125
2809.17967	883.425
2811.72571	882.225
2814.27018	881.325
2816.81308	877.625
2819.35442	874.425
2821.89419	876.925
2824.43239	879.425
2826.96904	874.025
2829.50412	872.925
2832.03763	871.125
2834.56959	877.425
2837.1	876.025
2839.62884	870.625
2842.15613	867.125
2844.68186	869.025
2847.20604	867.125
2849.72867	868.525
2852.24974	869.625
2854.76927	869.725
2857.28724	879.425
2859.80367	869.725
2862.31855	869.425
2864.83189	866.625
2867.34368	861.325
2869.85393	861.525
2872.36264	856.525
2874.8698	857.925
2877.37543	862.625
2879.87952	854.625
2882.38207	864.325
2884.88308	859.125
2887.38256	865.925
2889.88051	867.825
2892.37692	866.025
2894.8718	867.125
2897.36515	867.625
2899.85698	866.525
2902.34727	875.525
2904.83604	872.425
2907.32328	877.925
2909.809	880.625
2912.29319	875.725
2914.77587	881.025
2917.25702	885.825
2919.73665	890.725
2922.21476	890.825
2924.69136	886.825
2927.16644	888.025
2929.64	896.225
2932.11205	901.725
2934.58258	903.625
2937.05161	901.925
2939.51912	907.225
2941.98513	906.325
2944.44962	905.925
2946.91261	903.825
2949.37409	909.425
2951.83407	909.225
2954.29254	909.625
2956.74951	906.425
2959.20498	897.325
2961.65895	900.525
2964.11142	888.725
2966.56239	892.625
2969.01186	882.625
2971.45984	876.525
2973.90632	878.925
2976.35131	870.925
2978.7948	865.325
2981.23681	863.625
2983.67732	868.325
2986.11635	862.925
2988.55388	860.425
2990.98993	859.525
2993.4245	856.125
2995.85758	850.225
2998.28917	850.125
3000.71928	851.625
3003.14791	855.925
3005.57506	848.225
3008.00073	849.725
3010.42493	842.925
3012.84764	852.325
3015.26888	845.025
3017.68865	851.225
3020.10694	851.025
3022.52376	854.025
3024.9391	853.025
3027.35298	847.725
3029.76539	852.825
3032.17632	854.825
3034.5858	854.725
3036.9938	848.625
3039.40034	864.125
3041.80542	850.325
3044.20903	848.825
3046.61118	856.125
3049.01187	844.325
3051.4111	846.425
3053.80888	854.725
3056.20519	854.325
3058.60005	859.325
3060.99345	861.325
3063.3854	860.425
3065.7759	853.725
3068.16494	856.125
3070.55254	857.725
3072.93868	861.125
3075.32338	861.325
3077.70662	870.925
3080.08842	867.425
3082.46878	871.725
3084.84769	877.625
3087.22515	880.725
3089.60118	873.925
3091.97576	879.925
3094.3489	878.125
3096.72061	891.525
3099.09087	893.725
3101.4597	893.325
3103.82709	901.125
3106.19305	903.625
3108.55757	905.625
3110.92066	909.625
3113.28232	906.525
3115.64255	913.825
3118.00134	911.225
3120.35871	915.125
3122.71466	918.125
3125.06917	933.025
3127.42226	925.525
3129.77393	938.625
3132.12417	941.425
3134.47299	946.525
3136.82039	945.825
3139.16636	944.725
3141.51092	961.525
3143.85406	965.825
3146.19579	970.825
3148.53609	981.925
3150.87499	987.825
3153.21246	990.625
3155.54853	998.225
3157.88318	1007.525
3160.21642	1004.925
3162.54826	1009.725
3164.87868	1013.025
3167.2077	1022.025
3169.5353	1021.225
3171.86151	1030.925
3174.18631	1035.225
3176.5097	1036.025
3178.83169	1042.025
3181.15228	1038.025
3183.47147	1040.125
3185.78926	1054.625
3188.10565	1051.825
3190.42065	1062.225
3192.73424	1063.425
3195.04645	1074.425
3197.35725	1073.725
3199.66667	1071.525
3201.97469	1083.125
3204.28132	1085.725
3206.58656	1088.825
3208.8904	1094.825
3211.19287	1099.325
3213.49394	1099.525
3215.79363	1099.425
3218.09193	1109.525
3220.38884	1111.225
3222.68438	1114.925
3224.97853	1109.125
3227.2713	1111.925
3229.56269	1115.325
3231.8527	1111.625
3234.14133	1113.525
3236.42858	1114.025
3238.71446	1111.425
3240.99896	1110.925
3243.28209	1111.625
3245.56384	1124.725
3247.84423	1105.925
3250.12324	1107.825
3252.40088	1110.425
3254.67715	1116.925
3256.95205	1111.525
3259.22558	1116.725
3261.49775	1113.825
3263.76855	1121.925
