Data from AgNPs_FTO_APTES_UA_0.1mM_CRN_500uM_NaF_0.1M_Addition_RamanShift__7__14-42-37-763.txt Node

Date: Mon Dec 20 14:42:37 GMT 2021
User: TCL
Spectrometer: QEP01345
Trigger mode: 4
Integration Time (sec): 7.000000E0
Scans to average: 10
Electric dark correction enabled: true
Nonlinearity correction enabled: false
Boxcar width: 0
XAxis mode: Raman Shifts
Number of Pixels in Spectrum: 1044
>>>>>Begin Spectral Data<<<<<
46.04893	1.1
50.45542	-0.1
54.85868	-1.4
59.25871	1.5
63.6555	24.7
68.04907	25.5
72.43941	31.2
76.82654	33.2
81.21044	30.2
85.59113	36.9
89.96862	32.3
94.34289	36
98.71396	36
103.08183	37.9
107.4465	39.7
111.80798	40.6
116.16626	38.6
120.52136	42
124.87327	41.8
129.222	39.8
133.56755	42
137.90993	47.7
142.24913	49
146.58517	47
150.91804	52.5
155.24774	60.3
159.57429	69.3
163.89768	81.5
168.21792	103.9
172.53501	130.2
176.84895	174.7
181.15975	232.9
185.46741	324.6
189.77193	446.5
194.07331	591.5
198.37157	760.4
202.6667	943.9
206.9587	1127.9
211.24758	1322.8
215.53334	1504.9
219.81599	1717.8
224.09553	1932.8
228.37195	2196.8
232.64527	2468.6
236.91549	2761.9
241.18261	3034.8
245.44663	3285.6
249.70755	3468.2
253.96539	3595.5
258.22014	3670.8
262.4718	3700.7
266.72039	3705
270.96589	3662.3
275.20832	3608.6
279.44768	3519.4
283.68397	3446.5
287.91719	3362.9
292.14735	3297.6
296.37445	3261
300.59849	3214.4
304.81948	3193.4
309.03742	3166.2
313.25231	3130.6
317.46415	3091.2
321.67296	3053.2
325.87872	3021.6
330.08145	2988
334.28114	2975.6
338.47781	2974.1
342.67145	2970.2
346.86207	3008.2
351.04966	3020.8
355.23424	3061.3
359.4158	3100.2
363.59435	3117.6
367.76989	3155.9
371.94243	3188.6
376.11196	3228.7
380.27849	3271.3
384.44203	3304.5
388.60257	3330.6
392.76012	3369.4
396.91468	3407.1
401.06626	3440.9
405.21485	3442.2
409.36047	3456.6
413.50311	3450.8
417.64277	3453.3
421.77947	3443.7
425.9132	3449.6
430.04396	3444.7
434.17176	3467
438.2966	3476.2
442.41849	3479.6
446.53742	3486.9
450.6534	3503.4
454.76644	3538.4
458.87653	3547.4
462.98368	3563.6
467.08789	3571.9
471.18916	3585.3
475.2875	3612.9
479.38291	3649.2
483.4754	3711.3
487.56496	3790.6
491.6516	3909.6
495.73531	4012.4
499.81612	4055.4
503.89401	4025
507.96899	3949.9
512.04106	3885.4
516.11023	3836.8
520.1765	3814.1
524.23987	3838.1
528.30034	3829
532.35792	3846.5
536.41261	3828.9
540.46441	3790
544.51333	3750.7
548.55936	3691.8
552.60252	3660.2
556.64279	3648.1
560.6802	3633
564.71473	3613
568.7464	3620
572.7752	3638
576.80114	3662.6
580.82422	3713.2
584.84444	3797.7
588.86181	3899
592.87633	3943.8
596.888	3949.1
600.89682	3890.9
604.9028	3887.7
608.90594	3968
612.90624	4129.4
616.90371	4197.4
620.89834	4155.4
624.89015	4313.6
628.87913	4657.4
632.86528	5017.7
636.84862	5303.3
640.82913	5343.4
644.80683	5168.4
648.78172	4851.4
652.75379	4584.4
656.72306	4341.5
660.68952	4202.6
664.65319	4087.3
668.61405	4032.6
672.57211	4030.8
676.52738	4039.2
680.47986	4087.8
684.42955	4105.9
688.37646	4038.9
692.32058	3985.3
696.26192	3902.2
700.20048	3831.5
704.13626	3799.4
708.06928	3754.9
711.99952	3760.4
715.927	3756.9
719.85171	3778.3
723.77365	3823.3
727.69284	3863.1
731.60928	3849.7
735.52295	3775.1
739.43388	3721.2
743.34206	3695.7
747.24749	3708.1
751.15017	3711.5
755.05012	3722.9
758.94733	3748.8
762.8418	3779.6
766.73354	3829.8
770.62254	3878.6
774.50882	3883.3
778.39237	3834.7
782.27321	3748
786.15132	3678.8
790.02671	3648.2
793.89938	3634.5
797.76935	3659.9
801.6366	3718.9
805.50115	3836.5
809.36299	3980.7
813.22213	4099.7
817.07857	4062
820.93231	3929.6
824.78336	3769.8
828.63172	3639.6
832.47738	3551.8
836.32036	3503.6
840.16066	3479.1
843.99827	3478.3
847.8332	3459.4
851.66546	3459.1
855.49504	3454.1
859.32195	3468.5
863.1462	3482.1
866.96777	3520
870.78668	3586.3
874.60293	3656
878.41652	3736.8
882.22745	3829.5
886.03573	3913.5
889.84136	3966.1
893.64433	3926.1
897.44466	3802.2
901.24235	3668.3
905.0374	3539
908.8298	3452.4
912.61957	3400.6
916.40671	3360
920.19121	3363.2
923.97308	3339.8
927.75233	3324.6
931.52895	3316.4
935.30295	3295.9
939.07433	3286.8
942.84309	3266.5
946.60924	3253.2
950.37278	3245.1
954.13371	3238.1
957.89203	3224.4
961.64774	3227.5
965.40086	3216.6
969.15137	3215.9
972.89929	3204.7
976.64461	3182.4
980.38733	3179.3
984.12747	3179.2
987.86502	3177.1
991.59999	3199.7
995.33237	3220.5
999.06217	3250.3
1002.78939	3291.1
1006.51404	3332
1010.23611	3374.1
1013.95561	3414.6
1017.67255	3432.2
1021.38692	3427
1025.09872	3412.9
1028.80796	3370.6
1032.51465	3332.9
1036.21877	3300.8
1039.92035	3248.9
1043.61937	3239.5
1047.31584	3219.2
1051.00976	3228.9
1054.70114	3226.6
1058.38998	3251.7
1062.07627	3276.8
1065.76003	3313.5
1069.44126	3348.6
1073.11995	3397.3
1076.79611	3415
1080.46974	3405.5
1084.14085	3366.4
1087.80943	3318
1091.47549	3289.2
1095.13903	3257.8
1098.80005	3220.5
1102.45857	3207.4
1106.11456	3220
1109.76805	3274.6
1113.41903	3346.2
1117.06751	3505.1
1120.71348	3752.9
1124.35696	4087.6
1127.99793	4440.6
1131.63641	4760.7
1135.2724	4903.4
1138.90589	4854.3
1142.5369	4670.9
1146.16542	4377.5
1149.79145	4068.5
1153.415	3769.7
1157.03607	3544.8
1160.65467	3400.9
1164.27079	3304.4
1167.88443	3269.6
1171.49561	3282
1175.10432	3314.3
1178.71056	3396.6
1182.31434	3458.3
1185.91565	3523.8
1189.51451	3580.7
1193.11091	3621.1
1196.70485	3695.3
1200.29634	3764.5
1203.88538	3829.6
1207.47197	3838.7
1211.05612	3788.2
1214.63782	3698.3
1218.21708	3590
1221.79391	3495.1
1225.36829	3418.6
1228.94024	3336.2
1232.50976	3305.3
1236.07685	3277.3
1239.6415	3270.4
1243.20374	3275.2
1246.76355	3309.3
1250.32093	3328.3
1253.8759	3352.5
1257.42845	3388.9
1260.97859	3392.3
1264.52631	3420.8
1268.07163	3444
1271.61453	3454.4
1275.15503	3438.1
1278.69312	3424.4
1282.22882	3392.7
1285.76211	3393.2
1289.29301	3375.5
1292.82151	3378.4
1296.34761	3410.9
1299.87133	3448.6
1303.39266	3513.1
1306.9116	3607
1310.42815	3688.6
1313.94233	3761.3
1317.45412	3776
1320.96354	3765.9
1324.47058	3779.8
1327.97525	3776.2
1331.47754	3784.2
1334.97747	3802.4
1338.47502	3820.4
1341.97022	3887.1
1345.46305	3944.4
1348.95352	4034.2
1352.44163	4112.3
1355.92738	4212.5
1359.41078	4347.4
1362.89183	4461.5
1366.37053	4498.7
1369.84688	4386.4
1373.32088	4227.9
1376.79254	4075.9
1380.26186	3964.9
1383.72883	3892.4
1387.19347	3806.2
1390.65578	3729.3
1394.11575	3646.5
1397.57339	3572.9
1401.0287	3480.8
1404.48168	3429
1407.93234	3363.2
1411.38068	3294.9
1414.82669	3215
1418.27039	3145.6
1421.71177	3095.3
1425.15083	3019.4
1428.58758	2994
1432.02203	2962.6
1435.45416	2928.6
1438.88399	2912.6
1442.31151	2906.5
1445.73673	2908.4
1449.15965	2907.3
1452.58027	2912.1
1455.9986	2913.3
1459.41463	2935
1462.82837	2945.2
1466.23982	2958.1
1469.64898	2989.3
1473.05586	2997.7
1476.46045	3016
1479.86276	3021.9
1483.26279	3027.8
1486.66054	3053.6
1490.05602	3069.3
1493.44922	3133.8
1496.84016	3204.1
1500.22882	3272.3
1503.61521	3365.5
1506.99934	3491.4
1510.38121	3562.5
1513.76081	3590.8
1517.13816	3522.8
1520.51324	3416.7
1523.88607	3330.9
1527.25665	3296.7
1530.62498	3266.8
1533.99105	3287.5
1537.35488	3300.7
1540.71647	3340.4
1544.07581	3365.9
1547.4329	3398.5
1550.78776	3409.8
1554.14038	3438.3
1557.49077	3461.1
1560.83892	3466.3
1564.18484	3479.1
1567.52853	3463.4
1570.86999	3470.3
1574.20922	3478.1
1577.54624	3456.1
1580.88103	3432.1
1584.2136	3375.8
1587.54395	3330
1590.87208	3302.6
1594.19801	3310.2
1597.52172	3319.8
1600.84321	3334.9
1604.16251	3340.2
1607.47959	3313
1610.79447	3300.3
1614.10715	3289.2
1617.41763	3263
1620.7259	3268.1
1624.03199	3274.8
1627.33587	3298
1630.63757	3339.6
1633.93707	3416.4
1637.23439	3499.6
1640.52951	3621.9
1643.82246	3752.4
1647.11321	3905.9
1650.40179	4012.6
1653.68819	4024.6
1656.97241	3950
1660.25446	3828.9
1663.53433	3727.6
1666.81203	3663
1670.08756	3621.3
1673.36092	3597.9
1676.63211	3575.3
1679.90115	3559.6
1683.16801	3540.1
1686.43272	3500.9
1689.69527	3451.6
1692.95567	3395.5
1696.2139	3341.5
1699.46999	3270.4
1702.72392	3219.3
1705.97571	3120.1
1709.22535	3010.1
1712.47284	2908.3
1715.71819	2783
1718.96139	2681.2
1722.20246	2602.6
1725.44139	2530.5
1728.67818	2473.4
1731.91284	2414
1735.14537	2377.2
1738.37576	2339.2
1741.60403	2316.1
1744.83017	2292.3
1748.05418	2281.4
1751.27607	2268.4
1754.49584	2258.7
1757.71349	2262.9
1760.92903	2262.5
1764.14244	2250.8
1767.35375	2248.7
1770.56294	2222.7
1773.77002	2215.9
1776.97499	2184.6
1780.17785	2178.9
1783.37861	2168.2
1786.57727	2152.7
1789.77382	2144
1792.96828	2134.4
1796.16064	2114.9
1799.3509	2102.2
1802.53907	2095.8
1805.72514	2086
1808.90913	2079.8
1812.09102	2074.7
1815.27083	2056.6
1818.44856	2051.7
1821.6242	2047.4
1824.79776	2045
1827.96924	2031.2
1831.13864	2036.6
1834.30597	2028.3
1837.47122	2020.6
1840.6344	2016.9
1843.7955	2018.9
1846.95454	2005.2
1850.11151	2011.1
1853.26642	2001.4
1856.41926	2005.1
1859.57004	1997.7
1862.71876	1992.1
1865.86542	1985.7
1869.01003	1986.3
1872.15258	1981.1
1875.29308	1969.6
1878.43152	1968.8
1881.56792	1956.4
1884.70227	1946.1
1887.83457	1959.5
1890.96482	1945.1
1894.09304	1945.9
1897.21921	1936.6
1900.34335	1934.7
1903.46544	1929.8
1906.58551	1920.5
1909.70353	1922.2
1912.81953	1922.4
1915.93349	1917
1919.04543	1905.3
1922.15534	1896.2
1925.26322	1899.3
1928.36908	1888.7
1931.47292	1886.2
1934.57473	1880
1937.67453	1871.7
1940.77232	1873.2
1943.86808	1859.2
1946.96184	1857.6
1950.05358	1843.7
1953.14331	1844.9
1956.23103	1832.6
1959.31675	1834.8
1962.40046	1820.7
1965.48217	1816.2
1968.56188	1804.8
1971.63959	1800
1974.7153	1790.9
1977.78901	1781.8
1980.86073	1775.1
1983.93046	1771.2
1986.99819	1770.5
1990.06394	1763.5
1993.1277	1758.1
1996.18947	1742.7
1999.24925	1748.8
2002.30706	1735.9
2005.36288	1735.9
2008.41672	1723.4
2011.46859	1728.7
2014.51848	1713.5
2017.56639	1709.2
2020.61233	1692.1
2023.6563	1691.2
2026.6983	1696.8
2029.73833	1675.9
2032.7764	1681.6
2035.8125	1667.3
2038.84664	1678.2
2041.87881	1664.4
2044.90903	1653.2
2047.93729	1645.9
2050.96359	1648.8
2053.98794	1644
2057.01034	1650.8
2060.03078	1641.1
2063.04927	1638.4
2066.06582	1640.3
2069.08042	1627
2072.09307	1632.7
2075.10378	1628.3
2078.11255	1634.1
2081.11938	1619.8
2084.12426	1624
2087.12722	1615.4
2090.12824	1611.5
2093.12732	1622.4
2096.12447	1612
2099.11969	1620.3
2102.11299	1619.5
2105.10435	1613
2108.09379	1614.9
2111.08131	1607.7
2114.0669	1614.3
2117.05057	1614
2120.03233	1606.7
2123.01216	1620.1
2125.99008	1613.4
2128.96609	1615.1
2131.94018	1612.2
2134.91236	1601.2
2137.88263	1616.9
2140.851	1619.1
2143.81746	1609
2146.78201	1612.8
2149.74466	1607.9
2152.7054	1597.4
2155.66425	1607.2
2158.6212	1604.8
2161.57625	1599.6
2164.52941	1594.1
2167.48067	1598.9
2170.43004	1587.4
2173.37752	1592.4
2176.32311	1574.6
2179.26681	1586.9
2182.20863	1579.5
2185.14856	1585.8
2188.08661	1571.9
2191.02278	1586.6
2193.95707	1579.4
2196.88948	1572.5
2199.82001	1579.7
2202.74867	1572.3
2205.67545	1560.2
2208.60037	1555
2211.52341	1549.8
2214.44458	1554.9
2217.36388	1541.9
2220.28132	1542.4
2223.1969	1534.9
2226.11061	1530
2229.02246	1527.4
2231.93245	1524.7
2234.84058	1508.7
2237.74686	1513.2
2240.65128	1511.1
2243.55385	1500.8
2246.45456	1503.6
2249.35343	1496
2252.25044	1492.6
2255.14561	1490.4
2258.03893	1496.1
2260.93041	1493.7
2263.82004	1477.6
2266.70783	1486.6
2269.59378	1475
2272.4779	1467.4
2275.36017	1457.5
2278.24061	1459.6
2281.11922	1460
2283.996	1454.8
2286.87094	1445.8
2289.74405	1444
2292.61534	1444.3
2295.4848	1429.6
2298.35243	1438.3
2301.21824	1429.2
2304.08223	1431.7
2306.94439	1430.3
2309.80474	1423.6
2312.66327	1428.2
2315.51999	1426.3
2318.37489	1410.2
2321.22797	1412.7
2324.07925	1403.6
2326.92871	1407.9
2329.77637	1403
2332.62222	1404.7
2335.46626	1393.9
2338.3085	1394.4
2341.14893	1380.4
2343.98756	1387.3
2346.8244	1387.4
2349.65943	1373.2
2352.49267	1385.6
2355.32411	1370.7
2358.15376	1379.3
2360.98161	1370.4
2363.80768	1364.7
2366.63195	1364.4
2369.45444	1359.5
2372.27514	1359.7
2375.09405	1368.6
2377.91118	1353
2380.72652	1360.3
2383.54009	1342.3
2386.35187	1349.2
2389.16188	1342.7
2391.97011	1339.1
2394.77657	1332.1
2397.58125	1328.2
2400.38416	1328
2403.18529	1330.6
2405.98466	1332
2408.78226	1321.5
2411.57809	1316.3
2414.37216	1311.1
2417.16446	1317.4
2419.955	1308.4
2422.74378	1301.2
2425.5308	1291.3
2428.31606	1305.2
2431.09956	1295.7
2433.88131	1292.6
2436.6613	1287.4
2439.43954	1283.5
2442.21603	1280.5
2444.99077	1284.2
2447.76377	1278.4
2450.53501	1281.3
2453.30451	1281.9
2456.07226	1266.5
2458.83827	1272.7
2461.60254	1268
2464.36507	1264.7
2467.12586	1256.1
2469.88492	1258.7
2472.64224	1256.8
2475.39782	1264
2478.15167	1269.4
2480.90379	1250.1
2483.65417	1259.1
2486.40283	1246.7
2489.14976	1256
2491.89497	1250.1
2494.63845	1255.4
2497.3802	1240.7
2500.12024	1240.2
2502.85855	1238.8
2505.59514	1235.7
2508.33002	1233.6
2511.06318	1231.6
2513.79462	1233.6
2516.52435	1223.7
2519.25237	1219.4
2521.97867	1223.8
2524.70327	1214.2
2527.42616	1207.4
2530.14734	1212.9
2532.86681	1203.5
2535.58458	1205.3
2538.30065	1201.4
2541.01501	1199.2
2543.72768	1201
2546.43864	1191.3
2549.14791	1196.1
2551.85548	1194.1
2554.56136	1184.9
2557.26554	1175.1
2559.96803	1175.3
2562.66883	1179.7
2565.36794	1171.8
2568.06536	1176.2
2570.7611	1180.1
2573.45514	1162
2576.14751	1164.8
2578.83819	1157.5
2581.52719	1165.5
2584.21451	1157.1
2586.90015	1154.8
2589.58411	1146.9
2592.2664	1153.6
2594.94701	1132.5
2597.62594	1143.6
2600.30321	1135.4
2602.9788	1135.7
2605.65273	1137.6
2608.32498	1141.9
2610.99557	1128.5
2613.66449	1125.1
2616.33175	1121.4
2618.99734	1119.9
2621.66128	1121.5
2624.32355	1118.2
2626.98416	1112.7
2629.64311	1116.2
2632.30041	1111.6
2634.95605	1116.1
2637.61004	1111
2640.26238	1112.8
2642.91306	1100.3
2645.56209	1102
2648.20948	1115
2650.85521	1101.8
2653.4993	1098.8
2656.14175	1093.5
2658.78255	1095.8
2661.42171	1097.2
2664.05923	1092.7
2666.6951	1088.6
2669.32934	1097.6
2671.96194	1088.2
2674.59291	1095.7
2677.22224	1092.6
2679.84993	1091.4
2682.476	1086.5
2685.10043	1094
2687.72324	1092.4
2690.34441	1084.8
2692.96396	1084.8
2695.58188	1085.6
2698.19818	1088.5
2700.81285	1086.4
2703.4259	1104.4
2706.03733	1119.4
2708.64714	1108.6
2711.25533	1100.2
2713.86191	1089
2716.46687	1095.6
2719.07021	1096.5
2721.67194	1083.6
2724.27206	1082.5
2726.87057	1093
2729.46747	1081.4
2732.06276	1078.6
2734.65644	1084.4
2737.24852	1080.5
2739.83899	1083.1
2742.42786	1077.8
2745.01513	1071.2
2747.60079	1084.9
2750.18486	1065.5
2752.76733	1073
2755.3482	1070.5
2757.92747	1067.7
2760.50515	1068
2763.08123	1063.7
2765.65573	1051.7
2768.22863	1059.1
2770.79994	1064.5
2773.36967	1055.1
2775.9378	1057.6
2778.50435	1039.1
2781.06932	1044.6
2783.6327	1049.3
2786.1945	1044.5
2788.75471	1035.5
2791.31335	1040.8
2793.87041	1041.4
2796.42589	1029.4
2798.97979	1029.3
2801.53212	1031.5
2804.08288	1022.5
2806.63206	1024
2809.17967	1023.7
2811.72571	1018.8
2814.27018	1023.5
2816.81308	1012.8
2819.35442	1008
2821.89419	1011.5
2824.43239	1019.5
2826.96904	1006.1
2829.50412	1011.8
2832.03763	1004.9
2834.56959	1010.9
2837.1	1014.5
2839.62884	1007.7
2842.15613	1007.7
2844.68186	1007.8
2847.20604	1006.1
2849.72867	1016
2852.24974	1007.3
2854.76927	1021.7
2857.28724	1018.5
2859.80367	1007.6
2862.31855	1006.1
2864.83189	1009.8
2867.34368	1000.6
2869.85393	1015.9
2872.36264	1002.4
2874.8698	1005.9
2877.37543	1006.2
2879.87952	1003.8
2882.38207	1010.6
2884.88308	1011.4
2887.38256	1012.5
2889.88051	1010.3
2892.37692	1019.4
2894.8718	1016.9
2897.36515	1015.8
2899.85698	1019.7
2902.34727	1015.8
2904.83604	1019.8
2907.32328	1024.6
2909.809	1029.4
2912.29319	1023
2914.77587	1025.8
2917.25702	1017
2919.73665	1029.3
2922.21476	1026.4
2924.69136	1026.7
2927.16644	1035
2929.64	1033.3
2932.11205	1039.2
2934.58258	1035
2937.05161	1034.2
2939.51912	1036.1
2941.98513	1037.7
2944.44962	1035.1
2946.91261	1023.8
2949.37409	1033.1
2951.83407	1028.1
2954.29254	1036.1
2956.74951	1030.6
2959.20498	1024.2
2961.65895	1027.9
2964.11142	1029.2
2966.56239	1017.6
2969.01186	1024.3
2971.45984	1023.3
2973.90632	1008.8
2976.35131	1013.4
2978.7948	1019.8
2981.23681	1002.6
2983.67732	1010.9
2986.11635	1001.5
2988.55388	998
2990.98993	1007.7
2993.4245	1000.6
2995.85758	998.5
2998.28917	1000.9
3000.71928	999.2
3003.14791	1003
3005.57506	1002.1
3008.00073	998.7
3010.42493	998
3012.84764	1012.8
3015.26888	1007.3
3017.68865	1009.2
3020.10694	1004.7
3022.52376	1005.9
3024.9391	1011.5
3027.35298	1018.3
3029.76539	1011.6
3032.17632	1011.3
3034.5858	1013.1
3036.9938	1017.6
3039.40034	1022.2
3041.80542	1019.4
3044.20903	1024.6
3046.61118	1018.8
3049.01187	1014
3051.4111	1025.9
3053.80888	1030.9
3056.20519	1036.3
3058.60005	1027.5
3060.99345	1031.3
3063.3854	1024.8
3065.7759	1033
3068.16494	1038.8
3070.55254	1040.1
3072.93868	1037.8
3075.32338	1049.5
3077.70662	1040.7
3080.08842	1052.8
3082.46878	1058.8
3084.84769	1060.4
3087.22515	1063.1
3089.60118	1072.9
3091.97576	1074.1
3094.3489	1081
3096.72061	1078.7
3099.09087	1086.9
3101.4597	1093.4
3103.82709	1090.9
3106.19305	1102.2
3108.55757	1111.8
3110.92066	1112.6
3113.28232	1102.7
3115.64255	1118.2
3118.00134	1126.8
3120.35871	1126.2
3122.71466	1126.6
3125.06917	1133.6
3127.42226	1139.2
3129.77393	1146.9
3132.12417	1152.9
3134.47299	1154.4
3136.82039	1159.8
3139.16636	1177.1
3141.51092	1183.5
3143.85406	1189.8
3146.19579	1193.5
3148.53609	1198.4
3150.87499	1212.2
3153.21246	1213.1
3155.54853	1224.3
3157.88318	1235.9
3160.21642	1241.5
3162.54826	1246.2
3164.87868	1249.3
3167.2077	1248.7
3169.5353	1261.2
3171.86151	1267.5
3174.18631	1281.7
3176.5097	1278.6
3178.83169	1284.9
3181.15228	1292.7
3183.47147	1295.1
3185.78926	1297.8
3188.10565	1302.2
3190.42065	1313.5
3192.73424	1311.3
3195.04645	1326.9
3197.35725	1326
3199.66667	1331
3201.97469	1338.7
3204.28132	1338.1
3206.58656	1344.3
3208.8904	1353.3
3211.19287	1353.7
3213.49394	1355.7
3215.79363	1369.6
3218.09193	1371
3220.38884	1379.9
3222.68438	1381.4
3224.97853	1369.1
3227.2713	1381.1
3229.56269	1375.9
3231.8527	1383.1
3234.14133	1374.2
3236.42858	1378.2
3238.71446	1379.9
3240.99896	1372.6
3243.28209	1386.6
3245.56384	1385.5
3247.84423	1372.6
3250.12324	1377.4
3252.40088	1379.3
3254.67715	1378.1
3256.95205	1373.4
3259.22558	1384.5
3261.49775	1382.8
3263.76855	1375.2
3266.03799	1373.1
3268.30606	1368.3
3270.57277	1370.7
3272.83812	1366.3
3275.10211	1375.5
3277.36474	1375.8
3279.62601	1377
3281.88593	1369.6
3284.14448	1372.7
3286.40168	1366.3
3288.65753	1369.8
3290.91202	1365.9
3293.16516	1355.9
3295.41695	1356.2
3297.66738	1349.3
3299.91647	1351.6
3302.16421	1339
3304.4106	1342.6
3306.65564	1330.8
3308.89933	1324.5
3311.14169	1322.3
3313.38269	1314.7
3315.62236	1301.5
3317.86068	1296.9
3320.09766	1287.8
3322.3333	1278
3324.5676	1288.9
3326.80056	1272.6
3329.03219	1262.2
3331.26248	0.1
3333.49143	0.5
3335.71905	-1.1
