Data from AgNPs_FTO_APTES_UA_0.1mM_CRN_20uM_NaF_0.1M_Addition_RamanShift__17__12-16-47-592.txt Node

Date: Mon Dec 20 12:16:47 GMT 2021
User: TCL
Spectrometer: QEP01345
Trigger mode: 4
Integration Time (sec): 7.000000E0
Scans to average: 10
Electric dark correction enabled: true
Nonlinearity correction enabled: false
Boxcar width: 0
XAxis mode: Raman Shifts
Number of Pixels in Spectrum: 1044
>>>>>Begin Spectral Data<<<<<
46.04893	-0.2875
50.45542	-0.4875
54.85868	-1.0875
59.25871	1.5125
63.6555	31.1125
68.04907	34.0125
72.43941	39.5125
76.82654	37.9125
81.21044	38.9125
85.59113	45.7125
89.96862	40.0125
94.34289	46.6125
98.71396	45.3125
103.08183	47.4125
107.4465	51.9125
111.80798	53.3125
116.16626	54.2125
120.52136	52.6125
124.87327	56.5125
129.222	55.8125
133.56755	61.2125
137.90993	65.3125
142.24913	68.5125
146.58517	71.9125
150.91804	85.0125
155.24774	100.3125
159.57429	117.3125
163.89768	149.2125
168.21792	194.2125
172.53501	255.9125
176.84895	349.0125
181.15975	484.0125
185.46741	674.4125
189.77193	935.6125
194.07331	1248.9125
198.37157	1618.0125
202.6667	2013.4125
206.9587	2416.6125
211.24758	2805.9125
215.53334	3216.3125
219.81599	3622.9125
224.09553	4066.6125
228.37195	4544.4125
232.64527	5076.9125
236.91549	5604.9125
241.18261	6134.9125
245.44663	6630.0125
249.70755	7063.3125
253.96539	7434.2125
258.22014	7705.5125
262.4718	7922.9125
266.72039	8033.8125
270.96589	8069.4125
275.20832	8001.0125
279.44768	7895.8125
283.68397	7749.6125
287.91719	7606.5125
292.14735	7489.4125
296.37445	7419.8125
300.59849	7388.3125
304.81948	7381.0125
309.03742	7360.9125
313.25231	7317.3125
317.46415	7198.1125
321.67296	7041.0125
325.87872	6916.0125
330.08145	6858.7125
334.28114	6871.6125
338.47781	6905.3125
342.67145	6972.0125
346.86207	7027.5125
351.04966	7152.2125
355.23424	7302.6125
359.4158	7410.6125
363.59435	7493.1125
367.76989	7581.4125
371.94243	7667.5125
376.11196	7725.2125
380.27849	7805.8125
384.44203	7860.0125
388.60257	7907.4125
392.76012	7987.4125
396.91468	8059.0125
401.06626	8145.7125
405.21485	8197.1125
409.36047	8189.3125
413.50311	8104.9125
417.64277	8039.4125
421.77947	7999.9125
425.9132	7983.4125
430.04396	8004.5125
434.17176	8044.3125
438.2966	8091.8125
442.41849	8136.3125
446.53742	8242.5125
450.6534	8355.5125
454.76644	8434.9125
458.87653	8520.0125
462.98368	8530.9125
467.08789	8523.2125
471.18916	8500.2125
475.2875	8517.3125
479.38291	8527.2125
483.4754	8590.8125
487.56496	8652.1125
491.6516	8723.0125
495.73531	8780.1125
499.81612	8799.8125
503.89401	8792.0125
507.96899	8740.9125
512.04106	8694.6125
516.11023	8672.7125
520.1765	8670.6125
524.23987	8635.2125
528.30034	8656.4125
532.35792	8622.1125
536.41261	8579.5125
540.46441	8522.5125
544.51333	8425.2125
548.55936	8418.5125
552.60252	8416.6125
556.64279	8491.2125
560.6802	8535.2125
564.71473	8547.8125
568.7464	8582.3125
572.7752	8658.8125
576.80114	8679.7125
580.82422	8694.6125
584.84444	8773.8125
588.86181	8889.6125
592.87633	8948.4125
596.888	8946.7125
600.89682	8948.7125
604.9028	9124.9125
608.90594	9662.1125
612.90624	10443.6125
616.90371	10398.4125
620.89834	9494.9125
624.89015	9227.5125
628.87913	9493.3125
632.86528	9864.3125
636.84862	10183.7125
640.82913	10180.4125
644.80683	9911.6125
648.78172	9575.8125
652.75379	9290.5125
656.72306	9134.1125
660.68952	9120.9125
664.65319	9071.9125
668.61405	9008.4125
672.57211	9013.4125
676.52738	9083.3125
680.47986	9136.4125
684.42955	9124.7125
688.37646	9082.3125
692.32058	9057.1125
696.26192	8979.2125
700.20048	8881.1125
704.13626	8778.5125
708.06928	8736.2125
711.99952	8638.7125
715.927	8577.1125
719.85171	8572.0125
723.77365	8570.2125
727.69284	8555.9125
731.60928	8509.4125
735.52295	8459.6125
739.43388	8433.8125
743.34206	8437.2125
747.24749	8444.4125
751.15017	8437.9125
755.05012	8480.2125
758.94733	8600.2125
762.8418	8771.3125
766.73354	9120.0125
770.62254	9524.7125
774.50882	9717.1125
778.39237	9559.9125
782.27321	9117.0125
786.15132	8711.9125
790.02671	8524.7125
793.89938	8432.0125
797.76935	8400.2125
801.6366	8442.9125
805.50115	8554.0125
809.36299	8690.9125
813.22213	8730.3125
817.07857	8672.3125
820.93231	8497.9125
824.78336	8332.8125
828.63172	8183.7125
832.47738	8125.8125
836.32036	8071.3125
840.16066	8045.9125
843.99827	8037.8125
847.8332	8015.6125
851.66546	8033.6125
855.49504	8033.0125
859.32195	8023.9125
863.1462	8074.2125
866.96777	8097.6125
870.78668	8180.2125
874.60293	8256.2125
878.41652	8337.8125
882.22745	8406.8125
886.03573	8489.2125
889.84136	8501.6125
893.64433	8419.2125
897.44466	8272.3125
901.24235	8123.8125
905.0374	8013.9125
908.8298	7944.8125
912.61957	7895.6125
916.40671	7865.8125
920.19121	7888.0125
923.97308	7869.0125
927.75233	7869.1125
931.52895	7844.2125
935.30295	7826.1125
939.07433	7760.9125
942.84309	7693.9125
946.60924	7682.8125
950.37278	7645.4125
954.13371	7636.0125
957.89203	7632.9125
961.64774	7579.3125
965.40086	7563.4125
969.15137	7542.5125
972.89929	7493.3125
976.64461	7479.8125
980.38733	7471.3125
984.12747	7463.1125
987.86502	7481.2125
991.59999	7535.3125
995.33237	7562.7125
999.06217	7655.5125
1002.78939	7742.5125
1006.51404	7803.4125
1010.23611	7901.3125
1013.95561	7954.1125
1017.67255	7977.4125
1021.38692	7954.0125
1025.09872	7862.5125
1028.80796	7790.5125
1032.51465	7749.7125
1036.21877	7747.3125
1039.92035	7723.7125
1043.61937	7739.6125
1047.31584	7701.3125
1051.00976	7692.8125
1054.70114	7707.8125
1058.38998	7743.0125
1062.07627	7774.6125
1065.76003	7849.0125
1069.44126	7900.5125
1073.11995	7965.7125
1076.79611	8002.2125
1080.46974	7995.6125
1084.14085	7961.3125
1087.80943	7957.9125
1091.47549	7935.9125
1095.13903	7899.5125
1098.80005	7847.9125
1102.45857	7783.7125
1106.11456	7760.4125
1109.76805	7778.0125
1113.41903	7849.6125
1117.06751	8030.5125
1120.71348	8264.9125
1124.35696	8602.4125
1127.99793	8992.7125
1131.63641	9353.1125
1135.2724	9520.6125
1138.90589	9477.4125
1142.5369	9312.0125
1146.16542	9014.4125
1149.79145	8678.6125
1153.415	8425.9125
1157.03607	8199.6125
1160.65467	8089.9125
1164.27079	8097.3125
1167.88443	8184.4125
1171.49561	8350.2125
1175.10432	8629.9125
1178.71056	9017.2125
1182.31434	9407.7125
1185.91565	9582.4125
1189.51451	9606.2125
1193.11091	9517.5125
1196.70485	9409.7125
1200.29634	9336.7125
1203.88538	9246.5125
1207.47197	9125.8125
1211.05612	8983.3125
1214.63782	8779.4125
1218.21708	8618.0125
1221.79391	8450.1125
1225.36829	8374.3125
1228.94024	8279.4125
1232.50976	8193.9125
1236.07685	8144.4125
1239.6415	8154.9125
1243.20374	8173.6125
1246.76355	8185.5125
1250.32093	8237.6125
1253.8759	8306.1125
1257.42845	8420.1125
1260.97859	8462.7125
1264.52631	8574.9125
1268.07163	8683.3125
1271.61453	8755.9125
1275.15503	8834.7125
1278.69312	8911.3125
1282.22882	8952.4125
1285.76211	9032.7125
1289.29301	9130.8125
1292.82151	9322.8125
1296.34761	9519.8125
1299.87133	9810.7125
1303.39266	10146.6125
1306.9116	10523.3125
1310.42815	10922.1125
1313.94233	11220.5125
1317.45412	11223.8125
1320.96354	11088.6125
1324.47058	10890.1125
1327.97525	10666.7125
1331.47754	10539.2125
1334.97747	10468.6125
1338.47502	10505.8125
1341.97022	10575.7125
1345.46305	10706.8125
1348.95352	10882.8125
1352.44163	11109.8125
1355.92738	11422.1125
1359.41078	11920.8125
1362.89183	12380.7125
1366.37053	12309.1125
1369.84688	11547.2125
1373.32088	10677.3125
1376.79254	10070.8125
1380.26186	9806.3125
1383.72883	9618.6125
1387.19347	9545.3125
1390.65578	9391.0125
1394.11575	9268.9125
1397.57339	9177.4125
1401.0287	9118.5125
1404.48168	9055.6125
1407.93234	8978.4125
1411.38068	8838.8125
1414.82669	8662.6125
1418.27039	8468.9125
1421.71177	8267.2125
1425.15083	8116.0125
1428.58758	8025.8125
1432.02203	7984.0125
1435.45416	7986.5125
1438.88399	8029.4125
1442.31151	8051.1125
1445.73673	8130.0125
1449.15965	8165.6125
1452.58027	8218.9125
1455.9986	8232.0125
1459.41463	8307.1125
1462.82837	8383.3125
1466.23982	8449.6125
1469.64898	8555.9125
1473.05586	8603.0125
1476.46045	8639.4125
1479.86276	8641.4125
1483.26279	8622.2125
1486.66054	8632.7125
1490.05602	8660.9125
1493.44922	8735.2125
1496.84016	8897.3125
1500.22882	9178.2125
1503.61521	9563.7125
1506.99934	10004.3125
1510.38121	10338.4125
1513.76081	10466.5125
1517.13816	10210.0125
1520.51324	9771.8125
1523.88607	9321.9125
1527.25665	9040.9125
1530.62498	8915.5125
1533.99105	8837.0125
1537.35488	8811.2125
1540.71647	8807.6125
1544.07581	8807.6125
1547.4329	8793.7125
1550.78776	8785.7125
1554.14038	8807.5125
1557.49077	8844.6125
1560.83892	8898.1125
1564.18484	8943.9125
1567.52853	9026.6125
1570.86999	9095.3125
1574.20922	9186.6125
1577.54624	9197.4125
1580.88103	9132.4125
1584.2136	8989.2125
1587.54395	8933.1125
1590.87208	8953.9125
1594.19801	9137.0125
1597.52172	9320.8125
1600.84321	9454.1125
1604.16251	9334.6125
1607.47959	9100.0125
1610.79447	8871.3125
1614.10715	8628.1125
1617.41763	8398.3125
1620.7259	8247.6125
1624.03199	8139.6125
1627.33587	8155.2125
1630.63757	8227.4125
1633.93707	8423.8125
1637.23439	8701.3125
1640.52951	9147.2125
1643.82246	9679.3125
1647.11321	10172.7125
1650.40179	10456.1125
1653.68819	10281.1125
1656.97241	9735.7125
1660.25446	9088.7125
1663.53433	8595.4125
1666.81203	8274.2125
1670.08756	8060.0125
1673.36092	7937.2125
1676.63211	7846.1125
1679.90115	7751.1125
1683.16801	7644.9125
1686.43272	7514.3125
1689.69527	7366.4125
1692.95567	7214.3125
1696.2139	7090.0125
1699.46999	6974.3125
1702.72392	6878.7125
1705.97571	6771.4125
1709.22535	6689.7125
1712.47284	6626.9125
1715.71819	6589.9125
1718.96139	6521.4125
1722.20246	6488.0125
1725.44139	6422.8125
1728.67818	6355.5125
1731.91284	6270.1125
1735.14537	6242.7125
1738.37576	6191.8125
1741.60403	6144.8125
1744.83017	6111.5125
1748.05418	6081.9125
1751.27607	6049.2125
1754.49584	6050.6125
1757.71349	6067.9125
1760.92903	6042.9125
1764.14244	6021.4125
1767.35375	5986.8125
1770.56294	5951.1125
1773.77002	5944.5125
1776.97499	5926.4125
1780.17785	5891.7125
1783.37861	5872.7125
1786.57727	5842.3125
1789.77382	5817.7125
1792.96828	5799.6125
1796.16064	5768.3125
1799.3509	5752.6125
1802.53907	5733.8125
1805.72514	5724.3125
1808.90913	5702.7125
1812.09102	5707.6125
1815.27083	5685.7125
1818.44856	5665.5125
1821.6242	5654.2125
1824.79776	5634.2125
1827.96924	5633.4125
1831.13864	5625.6125
1834.30597	5620.1125
1837.47122	5613.9125
1840.6344	5588.4125
1843.7955	5591.2125
1846.95454	5589.4125
1850.11151	5576.4125
1853.26642	5562.4125
1856.41926	5589.9125
1859.57004	5581.0125
1862.71876	5556.3125
1865.86542	5567.7125
1869.01003	5547.1125
1872.15258	5539.0125
1875.29308	5536.2125
1878.43152	5520.8125
1881.56792	5508.4125
1884.70227	5499.5125
1887.83457	5487.6125
1890.96482	5495.5125
1894.09304	5473.7125
1897.21921	5473.3125
1900.34335	5473.5125
1903.46544	5462.8125
1906.58551	5461.7125
1909.70353	5448.0125
1912.81953	5444.2125
1915.93349	5434.3125
1919.04543	5414.7125
1922.15534	5416.2125
1925.26322	5391.2125
1928.36908	5388.6125
1931.47292	5364.1125
1934.57473	5348.5125
1937.67453	5336.1125
1940.77232	5337.0125
1943.86808	5301.9125
1946.96184	5296.1125
1950.05358	5296.5125
1953.14331	5284.6125
1956.23103	5251.6125
1959.31675	5247.1125
1962.40046	5227.4125
1965.48217	5246.4125
1968.56188	5211.3125
1971.63959	5201.8125
1974.7153	5181.4125
1977.78901	5156.5125
1980.86073	5148.9125
1983.93046	5121.5125
1986.99819	5106.6125
1990.06394	5095.7125
1993.1277	5081.2125
1996.18947	5057.1125
1999.24925	5059.7125
2002.30706	5034.6125
2005.36288	5025.0125
2008.41672	5008.4125
2011.46859	4981.5125
2014.51848	4967.9125
2017.56639	4961.8125
2020.61233	4966.8125
2023.6563	4929.0125
2026.6983	4944.9125
2029.73833	4914.1125
2032.7764	4900.2125
2035.8125	4892.5125
2038.84664	4903.6125
2041.87881	4894.8125
2044.90903	4861.7125
2047.93729	4853.8125
2050.96359	4862.5125
2053.98794	4849.6125
2057.01034	4854.9125
2060.03078	4823.9125
2063.04927	4839.8125
2066.06582	4825.2125
2069.08042	4836.2125
2072.09307	4814.5125
2075.10378	4812.9125
2078.11255	4819.0125
2081.11938	4822.2125
2084.12426	4812.6125
2087.12722	4808.3125
2090.12824	4812.5125
2093.12732	4835.4125
2096.12447	4819.1125
2099.11969	4793.9125
2102.11299	4812.2125
2105.10435	4811.0125
2108.09379	4802.9125
2111.08131	4817.2125
2114.0669	4810.0125
2117.05057	4830.3125
2120.03233	4828.6125
2123.01216	4821.0125
2125.99008	4824.4125
2128.96609	4830.2125
2131.94018	4826.7125
2134.91236	4826.4125
2137.88263	4832.7125
2140.851	4833.0125
2143.81746	4834.5125
2146.78201	4836.4125
2149.74466	4847.8125
2152.7054	4857.5125
2155.66425	4838.6125
2158.6212	4847.4125
2161.57625	4824.7125
2164.52941	4839.1125
2167.48067	4840.0125
2170.43004	4847.8125
2173.37752	4827.5125
2176.32311	4823.9125
2179.26681	4820.1125
2182.20863	4836.8125
2185.14856	4841.2125
2188.08661	4834.7125
2191.02278	4834.3125
2193.95707	4815.2125
2196.88948	4812.4125
2199.82001	4812.6125
2202.74867	4797.9125
2205.67545	4791.7125
2208.60037	4802.5125
2211.52341	4784.6125
2214.44458	4770.8125
2217.36388	4757.2125
2220.28132	4754.8125
2223.1969	4732.1125
2226.11061	4741.8125
2229.02246	4725.1125
2231.93245	4708.3125
2234.84058	4710.0125
2237.74686	4694.9125
2240.65128	4707.5125
2243.55385	4682.5125
2246.45456	4672.6125
2249.35343	4672.4125
2252.25044	4669.0125
2255.14561	4653.6125
2258.03893	4664.4125
2260.93041	4651.9125
2263.82004	4635.0125
2266.70783	4622.6125
2269.59378	4602.5125
2272.4779	4610.7125
2275.36017	4606.9125
2278.24061	4576.1125
2281.11922	4573.2125
2283.996	4577.0125
2286.87094	4589.5125
2289.74405	4571.5125
2292.61534	4554.4125
2295.4848	4542.5125
2298.35243	4537.0125
2301.21824	4535.0125
2304.08223	4535.1125
2306.94439	4537.8125
2309.80474	4521.6125
2312.66327	4523.5125
2315.51999	4514.9125
2318.37489	4511.7125
2321.22797	4512.6125
2324.07925	4498.9125
2326.92871	4492.3125
2329.77637	4489.1125
2332.62222	4475.2125
2335.46626	4482.5125
2338.3085	4476.9125
2341.14893	4477.8125
2343.98756	4465.2125
2346.8244	4452.8125
2349.65943	4447.6125
2352.49267	4457.5125
2355.32411	4449.8125
2358.15376	4458.0125
2360.98161	4450.4125
2363.80768	4454.0125
2366.63195	4448.6125
2369.45444	4450.9125
2372.27514	4424.2125
2375.09405	4424.9125
2377.91118	4413.6125
2380.72652	4408.5125
2383.54009	4404.0125
2386.35187	4391.5125
2389.16188	4378.8125
2391.97011	4366.1125
2394.77657	4378.7125
2397.58125	4348.0125
2400.38416	4364.2125
2403.18529	4352.1125
2405.98466	4343.7125
2408.78226	4333.3125
2411.57809	4323.2125
2414.37216	4319.1125
2417.16446	4324.1125
2419.955	4307.2125
2422.74378	4304.7125
2425.5308	4291.1125
2428.31606	4304.4125
2431.09956	4295.7125
2433.88131	4279.6125
2436.6613	4277.3125
2439.43954	4277.8125
2442.21603	4266.1125
2444.99077	4266.3125
2447.76377	4265.2125
2450.53501	4267.7125
2453.30451	4274.7125
2456.07226	4264.1125
2458.83827	4273.0125
2461.60254	4252.8125
2464.36507	4242.7125
2467.12586	4234.0125
2469.88492	4235.9125
2472.64224	4241.2125
2475.39782	4225.0125
2478.15167	4238.7125
2480.90379	4223.0125
2483.65417	4218.2125
2486.40283	4214.3125
2489.14976	4220.0125
2491.89497	4215.5125
2494.63845	4215.5125
2497.3802	4209.0125
2500.12024	4218.4125
2502.85855	4201.7125
2505.59514	4213.2125
2508.33002	4178.5125
2511.06318	4181.0125
2513.79462	4187.3125
2516.52435	4174.7125
2519.25237	4174.9125
2521.97867	4173.3125
2524.70327	4152.9125
2527.42616	4168.6125
2530.14734	4150.2125
2532.86681	4146.0125
2535.58458	4149.5125
2538.30065	4143.0125
2541.01501	4146.3125
2543.72768	4123.6125
2546.43864	4103.4125
2549.14791	4105.1125
2551.85548	4100.5125
2554.56136	4117.4125
2557.26554	4094.9125
2559.96803	4079.3125
2562.66883	4079.0125
2565.36794	4093.0125
2568.06536	4080.2125
2570.7611	4074.8125
2573.45514	4064.5125
2576.14751	4066.2125
2578.83819	4039.8125
2581.52719	4044.4125
2584.21451	4037.1125
2586.90015	4043.5125
2589.58411	4018.4125
2592.2664	4028.9125
2594.94701	4027.4125
2597.62594	3995.2125
2600.30321	4001.6125
2602.9788	3988.6125
2605.65273	3996.9125
2608.32498	3979.5125
2610.99557	3971.0125
2613.66449	3971.4125
2616.33175	3972.5125
2618.99734	3957.0125
2621.66128	3967.0125
2624.32355	3954.3125
2626.98416	3952.6125
2629.64311	3942.6125
2632.30041	3944.7125
2634.95605	3939.8125
2637.61004	3940.2125
2640.26238	3941.7125
2642.91306	3943.3125
2645.56209	3950.5125
2648.20948	3926.7125
2650.85521	3928.3125
2653.4993	3928.9125
2656.14175	3917.1125
2658.78255	3931.5125
2661.42171	3913.4125
2664.05923	3924.0125
2666.6951	3910.9125
2669.32934	3914.5125
2671.96194	3906.2125
2674.59291	3896.8125
2677.22224	3917.8125
2679.84993	3921.2125
2682.476	3909.0125
2685.10043	3915.6125
2687.72324	3922.4125
2690.34441	3905.8125
2692.96396	3925.2125
2695.58188	3909.4125
2698.19818	3922.7125
2700.81285	3933.4125
2703.4259	3943.9125
2706.03733	3942.7125
2708.64714	3933.8125
2711.25533	3942.8125
2713.86191	3926.7125
2716.46687	3948.4125
2719.07021	3927.5125
2721.67194	3931.8125
2724.27206	3943.2125
2726.87057	3938.0125
2729.46747	3920.8125
2732.06276	3929.0125
2734.65644	3927.0125
2737.24852	3937.1125
2739.83899	3916.6125
2742.42786	3922.7125
2745.01513	3909.1125
2747.60079	3908.5125
2750.18486	3895.5125
2752.76733	3883.0125
2755.3482	3906.6125
2757.92747	3897.2125
2760.50515	3887.3125
2763.08123	3887.4125
2765.65573	3870.6125
2768.22863	3890.5125
2770.79994	3883.5125
2773.36967	3865.2125
2775.9378	3863.7125
2778.50435	3842.4125
2781.06932	3857.7125
2783.6327	3851.1125
2786.1945	3855.2125
2788.75471	3842.1125
2791.31335	3831.3125
2793.87041	3828.2125
2796.42589	3816.9125
2798.97979	3813.8125
2801.53212	3814.4125
2804.08288	3786.1125
2806.63206	3802.8125
2809.17967	3786.2125
2811.72571	3789.8125
2814.27018	3759.7125
2816.81308	3769.5125
2819.35442	3763.7125
2821.89419	3742.5125
2824.43239	3760.4125
2826.96904	3751.1125
2829.50412	3755.3125
2832.03763	3737.0125
2834.56959	3751.6125
2837.1	3735.6125
2839.62884	3750.6125
2842.15613	3735.1125
2844.68186	3730.7125
2847.20604	3741.2125
2849.72867	3745.3125
2852.24974	3745.4125
2854.76927	3743.6125
2857.28724	3746.1125
2859.80367	3735.7125
2862.31855	3730.5125
2864.83189	3731.5125
2867.34368	3723.2125
2869.85393	3723.9125
2872.36264	3733.8125
2874.8698	3732.6125
2877.37543	3730.1125
2879.87952	3715.5125
2882.38207	3720.4125
2884.88308	3730.3125
2887.38256	3732.0125
2889.88051	3732.3125
2892.37692	3732.0125
2894.8718	3737.1125
2897.36515	3735.0125
2899.85698	3743.4125
2902.34727	3748.6125
2904.83604	3740.4125
2907.32328	3757.2125
2909.809	3769.1125
2912.29319	3775.7125
2914.77587	3768.4125
2917.25702	3769.8125
2919.73665	3757.8125
2922.21476	3754.1125
2924.69136	3767.6125
2927.16644	3756.4125
2929.64	3752.5125
2932.11205	3751.8125
2934.58258	3775.1125
2937.05161	3757.9125
2939.51912	3765.6125
2941.98513	3754.6125
2944.44962	3761.3125
2946.91261	3745.0125
2949.37409	3744.7125
2951.83407	3755.0125
2954.29254	3734.5125
2956.74951	3741.4125
2959.20498	3733.0125
2961.65895	3722.8125
2964.11142	3733.2125
2966.56239	3725.4125
2969.01186	3729.9125
2971.45984	3707.6125
2973.90632	3713.5125
2976.35131	3682.2125
2978.7948	3685.4125
2981.23681	3684.8125
2983.67732	3694.9125
2986.11635	3678.0125
2988.55388	3667.1125
2990.98993	3658.6125
2993.4245	3660.3125
2995.85758	3656.1125
2998.28917	3650.0125
3000.71928	3643.4125
3003.14791	3650.3125
3005.57506	3647.3125
3008.00073	3646.3125
3010.42493	3641.8125
3012.84764	3642.4125
3015.26888	3638.1125
3017.68865	3619.9125
3020.10694	3627.8125
3022.52376	3626.8125
3024.9391	3617.1125
3027.35298	3607.8125
3029.76539	3601.7125
3032.17632	3617.1125
3034.5858	3604.7125
3036.9938	3607.8125
3039.40034	3590.9125
3041.80542	3599.0125
3044.20903	3598.4125
3046.61118	3606.5125
3049.01187	3594.1125
3051.4111	3607.7125
3053.80888	3605.3125
3056.20519	3588.4125
3058.60005	3581.4125
3060.99345	3575.2125
3063.3854	3574.6125
3065.7759	3558.4125
3068.16494	3569.8125
3070.55254	3562.8125
3072.93868	3567.9125
3075.32338	3565.9125
3077.70662	3557.5125
3080.08842	3561.3125
3082.46878	3573.6125
3084.84769	3564.1125
3087.22515	3562.9125
3089.60118	3572.6125
3091.97576	3579.9125
3094.3489	3578.2125
3096.72061	3589.1125
3099.09087	3577.3125
3101.4597	3576.7125
3103.82709	3591.7125
3106.19305	3598.8125
3108.55757	3585.4125
3110.92066	3590.1125
3113.28232	3578.8125
3115.64255	3587.5125
3118.00134	3576.6125
3120.35871	3558.2125
3122.71466	3578.1125
