Data from AgNPs_FTO_APTES_UA_0.1mM_CRN_100uM_NaF_0.1M_Addition_RamanShift__9__13-26-47-678.txt Node

Date: Mon Dec 20 13:26:47 GMT 2021
User: TCL
Spectrometer: QEP01345
Trigger mode: 4
Integration Time (sec): 7.000000E0
Scans to average: 10
Electric dark correction enabled: true
Nonlinearity correction enabled: false
Boxcar width: 0
XAxis mode: Raman Shifts
Number of Pixels in Spectrum: 1044
>>>>>Begin Spectral Data<<<<<
46.04893	2.075
50.45542	-0.425
54.85868	-2.525
59.25871	0.375
63.6555	29.675
68.04907	26.575
72.43941	32.175
76.82654	33.775
81.21044	34.875
85.59113	38.275
89.96862	37.175
94.34289	38.975
98.71396	36.975
103.08183	38.575
107.4465	39.575
111.80798	46.375
116.16626	46.975
120.52136	47.475
124.87327	44.275
129.222	45.775
133.56755	48.575
137.90993	53.175
142.24913	57.975
146.58517	60.175
150.91804	71.475
155.24774	82.575
159.57429	101.875
163.89768	127.175
168.21792	165.875
172.53501	220.375
176.84895	298.775
181.15975	416.975
185.46741	578.575
189.77193	794.675
194.07331	1067.375
198.37157	1374.975
202.6667	1708.675
206.9587	2041.075
211.24758	2376.875
215.53334	2720.075
219.81599	3077.675
224.09553	3470.175
228.37195	3919.175
232.64527	4435.275
236.91549	4949.775
241.18261	5461.475
245.44663	5923.675
249.70755	6315.275
253.96539	6601.775
258.22014	6778.275
262.4718	6854.575
266.72039	6851.875
270.96589	6766.775
275.20832	6650.575
279.44768	6499.475
283.68397	6339.075
287.91719	6195.275
292.14735	6079.675
296.37445	5967.475
300.59849	5915.175
304.81948	5877.275
309.03742	5837.275
313.25231	5743.675
317.46415	5695.375
321.67296	5600.875
325.87872	5536.475
330.08145	5481.075
334.28114	5450.475
338.47781	5456.975
342.67145	5477.075
346.86207	5527.175
351.04966	5561.975
355.23424	5628.975
359.4158	5660.775
363.59435	5735.375
367.76989	5779.575
371.94243	5843.975
376.11196	5878.175
380.27849	5950.575
384.44203	6009.075
388.60257	6084.075
392.76012	6144.075
396.91468	6238.075
401.06626	6310.275
405.21485	6393.775
409.36047	6419.275
413.50311	6401.275
417.64277	6363.875
421.77947	6320.975
425.9132	6305.275
430.04396	6326.075
434.17176	6332.775
438.2966	6312.375
442.41849	6336.675
446.53742	6382.875
450.6534	6425.375
454.76644	6458.975
458.87653	6479.375
462.98368	6506.175
467.08789	6518.775
471.18916	6535.575
475.2875	6568.975
479.38291	6626.375
483.4754	6712.075
487.56496	6795.275
491.6516	6909.275
495.73531	7019.675
499.81612	7081.275
503.89401	7069.675
507.96899	7014.375
512.04106	6932.275
516.11023	6892.375
520.1765	6826.875
524.23987	6811.475
528.30034	6781.975
532.35792	6799.575
536.41261	6763.375
540.46441	6722.275
544.51333	6634.975
548.55936	6590.975
552.60252	6583.275
556.64279	6591.675
560.6802	6595.975
564.71473	6605.975
568.7464	6648.275
572.7752	6673.975
576.80114	6744.275
580.82422	6780.475
584.84444	6918.275
588.86181	7006.075
592.87633	7071.575
596.888	7061.275
600.89682	7020.975
604.9028	7070.475
608.90594	7299.775
612.90624	7599.475
616.90371	7577.675
620.89834	7319.375
624.89015	7369.075
628.87913	7714.475
632.86528	8162.475
636.84862	8523.475
640.82913	8589.875
644.80683	8380.375
648.78172	8033.975
652.75379	7702.775
656.72306	7444.575
660.68952	7286.275
664.65319	7157.175
668.61405	7040.275
672.57211	7025.575
676.52738	7030.575
680.47986	7076.475
684.42955	7092.075
688.37646	7031.075
692.32058	6952.875
696.26192	6873.775
700.20048	6810.575
704.13626	6754.675
708.06928	6700.775
711.99952	6673.375
715.927	6650.175
719.85171	6668.875
723.77365	6744.575
727.69284	6784.275
731.60928	6768.475
735.52295	6708.375
739.43388	6645.375
743.34206	6661.575
747.24749	6680.175
751.15017	6703.775
755.05012	6743.675
758.94733	6799.175
762.8418	6919.275
766.73354	7038.875
770.62254	7146.275
774.50882	7159.575
778.39237	7029.375
782.27321	6850.475
786.15132	6656.575
790.02671	6549.575
793.89938	6517.375
797.76935	6544.675
801.6366	6621.175
805.50115	6784.875
809.36299	6999.275
813.22213	7131.475
817.07857	7118.575
820.93231	6945.475
824.78336	6730.275
828.63172	6524.875
832.47738	6394.775
836.32036	6317.475
840.16066	6307.975
843.99827	6280.375
847.8332	6260.075
851.66546	6278.575
855.49504	6281.575
859.32195	6287.175
863.1462	6304.175
866.96777	6355.475
870.78668	6397.675
874.60293	6480.875
878.41652	6620.275
882.22745	6726.675
886.03573	6855.175
889.84136	6902.775
893.64433	6867.075
897.44466	6771.575
901.24235	6598.875
905.0374	6443.575
908.8298	6326.075
912.61957	6258.475
916.40671	6212.675
920.19121	6215.975
923.97308	6193.475
927.75233	6158.575
931.52895	6119.775
935.30295	6098.975
939.07433	6067.775
942.84309	6025.075
946.60924	5999.375
950.37278	5987.975
954.13371	5984.675
957.89203	5966.275
961.64774	5969.575
965.40086	5954.375
969.15137	5938.075
972.89929	5943.475
976.64461	5924.475
980.38733	5917.575
984.12747	5911.875
987.86502	5944.575
991.59999	5955.775
995.33237	5957.275
999.06217	6010.975
1002.78939	6074.875
1006.51404	6151.675
1010.23611	6224.775
1013.95561	6273.275
1017.67255	6296.075
1021.38692	6320.675
1025.09872	6293.675
1028.80796	6260.675
1032.51465	6190.875
1036.21877	6143.975
1039.92035	6109.875
1043.61937	6063.875
1047.31584	6054.775
1051.00976	6062.275
1054.70114	6071.475
1058.38998	6101.175
1062.07627	6151.175
1065.76003	6198.775
1069.44126	6242.775
1073.11995	6323.075
1076.79611	6350.975
1080.46974	6357.675
1084.14085	6309.375
1087.80943	6277.075
1091.47549	6230.975
1095.13903	6195.075
1098.80005	6151.775
1102.45857	6136.775
1106.11456	6132.175
1109.76805	6152.275
1113.41903	6262.975
1117.06751	6478.775
1120.71348	6799.175
1124.35696	7213.075
1127.99793	7666.575
1131.63641	8065.075
1135.2724	8246.075
1138.90589	8236.575
1142.5369	8022.375
1146.16542	7689.275
1149.79145	7332.075
1153.415	6963.475
1157.03607	6647.675
1160.65467	6473.375
1164.27079	6368.675
1167.88443	6332.475
1171.49561	6389.375
1175.10432	6497.475
1178.71056	6663.975
1182.31434	6848.275
1185.91565	6956.175
1189.51451	7036.875
1193.11091	7103.275
1196.70485	7132.275
1200.29634	7210.275
1203.88538	7260.875
1207.47197	7255.775
1211.05612	7188.275
1214.63782	7109.375
1218.21708	6969.375
1221.79391	6809.575
1225.36829	6674.975
1228.94024	6591.675
1232.50976	6499.975
1236.07685	6452.875
1239.6415	6433.475
1243.20374	6440.575
1246.76355	6488.875
1250.32093	6521.675
1253.8759	6588.775
1257.42845	6675.675
1260.97859	6739.975
1264.52631	6775.375
1268.07163	6815.375
1271.61453	6821.675
1275.15503	6822.275
1278.69312	6825.675
1282.22882	6796.375
1285.76211	6799.875
1289.29301	6821.075
1292.82151	6874.575
1296.34761	6979.675
1299.87133	7093.375
1303.39266	7225.675
1306.9116	7394.075
1310.42815	7549.675
1313.94233	7676.375
1317.45412	7710.275
1320.96354	7708.175
1324.47058	7701.475
1327.97525	7676.575
1331.47754	7673.775
1334.97747	7689.175
1338.47502	7728.475
1341.97022	7825.475
1345.46305	7934.575
1348.95352	8063.775
1352.44163	8168.675
1355.92738	8327.275
1359.41078	8502.075
1362.89183	8699.075
1366.37053	8704.275
1369.84688	8420.775
1373.32088	8060.375
1376.79254	7776.375
1380.26186	7618.875
1383.72883	7455.775
1387.19347	7357.275
1390.65578	7241.275
1394.11575	7121.575
1397.57339	7027.275
1401.0287	6938.775
1404.48168	6823.375
1407.93234	6741.475
1411.38068	6620.075
1414.82669	6489.475
1418.27039	6345.975
1421.71177	6231.175
1425.15083	6131.175
1428.58758	6058.175
1432.02203	5993.175
1435.45416	5995.175
1438.88399	6004.775
1442.31151	6007.075
1445.73673	6024.175
1449.15965	6030.775
1452.58027	6039.475
1455.9986	6057.475
1459.41463	6084.175
1462.82837	6113.975
1466.23982	6147.975
1469.64898	6204.775
1473.05586	6266.875
1476.46045	6274.475
1479.86276	6273.075
1483.26279	6295.275
1486.66054	6334.375
1490.05602	6354.475
1493.44922	6426.475
1496.84016	6532.775
1500.22882	6701.575
1503.61521	6916.775
1506.99934	7128.975
1510.38121	7311.475
1513.76081	7341.475
1517.13816	7254.675
1520.51324	7077.975
1523.88607	6903.575
1527.25665	6827.775
1530.62498	6801.275
1533.99105	6815.675
1537.35488	6829.475
1540.71647	6831.475
1544.07581	6876.675
1547.4329	6914.375
1550.78776	6926.375
1554.14038	6923.675
1557.49077	6959.975
1560.83892	6931.575
1564.18484	6982.575
1567.52853	6991.275
1570.86999	7024.075
1574.20922	7049.175
1577.54624	7054.175
1580.88103	7048.675
1584.2136	6979.675
1587.54395	6919.275
1590.87208	6888.175
1594.19801	6898.275
1597.52172	6946.875
1600.84321	6965.775
1604.16251	6908.275
1607.47959	6828.475
1610.79447	6699.275
1614.10715	6601.075
1617.41763	6496.675
1620.7259	6437.075
1624.03199	6382.475
1627.33587	6389.675
1630.63757	6421.775
1633.93707	6525.875
1637.23439	6682.475
1640.52951	6888.275
1643.82246	7161.675
1647.11321	7407.875
1650.40179	7620.375
1653.68819	7600.975
1656.97241	7396.675
1660.25446	7146.475
1663.53433	6930.675
1666.81203	6779.175
1670.08756	6714.475
1673.36092	6665.175
1676.63211	6613.175
1679.90115	6612.175
1683.16801	6578.475
1686.43272	6521.375
1689.69527	6419.075
1692.95567	6312.375
1696.2139	6227.375
1699.46999	6109.175
1702.72392	6002.175
1705.97571	5878.775
1709.22535	5721.075
1712.47284	5548.075
1715.71819	5411.175
1718.96139	5280.275
1722.20246	5177.575
1725.44139	5087.775
1728.67818	5002.075
1731.91284	4931.775
1735.14537	4855.975
1738.37576	4827.675
1741.60403	4776.175
1744.83017	4755.875
1748.05418	4712.975
1751.27607	4713.575
1754.49584	4678.575
1757.71349	4680.675
1760.92903	4672.075
1764.14244	4660.275
1767.35375	4630.875
1770.56294	4620.875
1773.77002	4600.075
1776.97499	4574.075
1780.17785	4565.475
1783.37861	4545.475
1786.57727	4518.375
1789.77382	4506.675
1792.96828	4496.075
1796.16064	4476.975
1799.3509	4448.975
1802.53907	4425.975
1805.72514	4424.575
1808.90913	4407.275
1812.09102	4388.975
1815.27083	4383.175
1818.44856	4365.475
1821.6242	4348.175
1824.79776	4328.175
1827.96924	4342.875
1831.13864	4325.075
1834.30597	4316.875
1837.47122	4325.375
1840.6344	4292.675
1843.7955	4301.975
1846.95454	4297.475
1850.11151	4294.875
1853.26642	4285.275
1856.41926	4281.675
1859.57004	4274.275
1862.71876	4275.675
1865.86542	4265.575
1869.01003	4229.875
1872.15258	4239.475
1875.29308	4235.475
1878.43152	4219.775
1881.56792	4210.775
1884.70227	4201.375
1887.83457	4204.475
1890.96482	4195.375
1894.09304	4195.675
1897.21921	4169.375
1900.34335	4156.375
1903.46544	4164.675
1906.58551	4157.075
1909.70353	4135.275
1912.81953	4140.975
1915.93349	4142.675
1919.04543	4115.975
1922.15534	4100.675
1925.26322	4095.975
1928.36908	4083.175
1931.47292	4081.075
1934.57473	4066.975
1937.67453	4055.175
1940.77232	4048.275
1943.86808	4024.175
1946.96184	4020.475
1950.05358	3988.075
1953.14331	3996.775
1956.23103	3982.075
1959.31675	3958.775
1962.40046	3956.975
1965.48217	3942.275
1968.56188	3934.275
1971.63959	3911.275
1974.7153	3890.375
1977.78901	3891.075
1980.86073	3875.775
1983.93046	3853.475
1986.99819	3858.575
1990.06394	3844.675
1993.1277	3832.975
1996.18947	3816.875
1999.24925	3802.175
2002.30706	3792.875
2005.36288	3771.475
2008.41672	3763.975
2011.46859	3758.375
2014.51848	3742.575
2017.56639	3731.175
2020.61233	3724.775
2023.6563	3703.275
2026.6983	3693.575
2029.73833	3686.175
2032.7764	3695.975
2035.8125	3673.175
2038.84664	3659.075
2041.87881	3650.275
2044.90903	3644.375
2047.93729	3627.375
2050.96359	3631.375
2053.98794	3611.375
2057.01034	3615.675
2060.03078	3615.475
2063.04927	3594.575
2066.06582	3619.675
2069.08042	3607.175
2072.09307	3600.375
2075.10378	3602.975
2078.11255	3597.675
2081.11938	3588.775
2084.12426	3593.075
2087.12722	3581.675
2090.12824	3585.875
2093.12732	3594.275
2096.12447	3592.575
2099.11969	3593.875
2102.11299	3582.275
2105.10435	3576.775
2108.09379	3573.075
2111.08131	3585.375
2114.0669	3563.375
2117.05057	3580.075
2120.03233	3586.475
2123.01216	3588.075
2125.99008	3594.275
2128.96609	3586.575
2131.94018	3585.075
2134.91236	3588.675
2137.88263	3587.975
2140.851	3589.975
2143.81746	3597.475
2146.78201	3586.075
2149.74466	3582.275
2152.7054	3593.275
2155.66425	3580.075
2158.6212	3580.475
2161.57625	3573.075
2164.52941	3566.375
2167.48067	3579.075
2170.43004	3557.775
2173.37752	3571.375
2176.32311	3569.975
2179.26681	3550.275
2182.20863	3555.875
2185.14856	3551.775
2188.08661	3544.475
2191.02278	3547.875
2193.95707	3537.575
2196.88948	3530.175
2199.82001	3531.075
2202.74867	3520.375
2205.67545	3513.375
2208.60037	3505.375
2211.52341	3501.575
2214.44458	3506.675
2217.36388	3498.275
2220.28132	3485.275
2223.1969	3467.975
2226.11061	3472.575
2229.02246	3435.475
2231.93245	3454.375
2234.84058	3426.075
2237.74686	3432.575
2240.65128	3422.575
2243.55385	3428.275
2246.45456	3420.675
2249.35343	3406.875
2252.25044	3397.075
2255.14561	3384.975
2258.03893	3395.075
2260.93041	3387.975
2263.82004	3362.375
2266.70783	3357.275
2269.59378	3352.375
2272.4779	3349.975
2275.36017	3331.875
2278.24061	3323.575
2281.11922	3324.275
2283.996	3310.975
2286.87094	3300.275
2289.74405	3302.875
2292.61534	3292.675
2295.4848	3287.475
2298.35243	3295.775
2301.21824	3277.675
2304.08223	3279.275
2306.94439	3269.075
2309.80474	3272.575
2312.66327	3263.575
2315.51999	3257.675
2318.37489	3243.075
2321.22797	3238.475
2324.07925	3252.075
2326.92871	3227.375
2329.77637	3229.675
2332.62222	3236.875
2335.46626	3204.375
2338.3085	3196.675
2341.14893	3200.775
2343.98756	3185.575
2346.8244	3199.875
2349.65943	3182.775
2352.49267	3183.275
2355.32411	3181.375
2358.15376	3177.375
2360.98161	3169.475
2363.80768	3172.675
2366.63195	3161.475
2369.45444	3163.675
2372.27514	3160.275
2375.09405	3155.475
2377.91118	3152.675
2380.72652	3138.875
2383.54009	3133.175
2386.35187	3125.675
2389.16188	3123.675
2391.97011	3104.675
2394.77657	3096.075
2397.58125	3096.075
2400.38416	3077.475
2403.18529	3074.075
2405.98466	3077.775
2408.78226	3062.975
2411.57809	3053.975
2414.37216	3052.575
2417.16446	3061.375
2419.955	3040.375
2422.74378	3044.675
2425.5308	3043.375
2428.31606	3037.175
2431.09956	3027.575
2433.88131	3019.175
2436.6613	3014.075
2439.43954	3008.375
2442.21603	3010.275
2444.99077	3016.875
2447.76377	3012.675
2450.53501	3000.275
2453.30451	3001.675
2456.07226	3004.175
2458.83827	2987.175
2461.60254	2972.975
2464.36507	2969.575
2467.12586	2963.975
2469.88492	2966.775
2472.64224	2958.775
2475.39782	2962.775
2478.15167	2968.675
2480.90379	2954.075
2483.65417	2953.975
2486.40283	2936.675
2489.14976	2938.475
2491.89497	2934.575
2494.63845	2928.175
2497.3802	2928.075
2500.12024	2921.975
2502.85855	2938.175
2505.59514	2924.775
2508.33002	2921.475
2511.06318	2910.975
2513.79462	2908.275
2516.52435	2917.475
2519.25237	2896.075
2521.97867	2896.775
2524.70327	2888.575
2527.42616	2888.375
2530.14734	2887.775
2532.86681	2871.075
2535.58458	2873.475
2538.30065	2863.475
2541.01501	2858.275
2543.72768	2863.075
2546.43864	2846.675
2549.14791	2829.775
2551.85548	2839.475
2554.56136	2829.275
2557.26554	2817.175
2559.96803	2804.475
2562.66883	2818.675
2565.36794	2793.975
2568.06536	2798.475
2570.7611	2803.375
2573.45514	2785.575
2576.14751	2786.475
2578.83819	2772.975
2581.52719	2764.675
2584.21451	2756.275
2586.90015	2768.075
2589.58411	2749.375
2592.2664	2749.875
2594.94701	2740.475
2597.62594	2737.875
2600.30321	2732.075
2602.9788	2731.475
2605.65273	2729.675
2608.32498	2708.775
2610.99557	2705.175
2613.66449	2699.775
2616.33175	2706.175
2618.99734	2711.075
2621.66128	2700.875
2624.32355	2690.075
2626.98416	2686.475
2629.64311	2674.775
2632.30041	2686.475
2634.95605	2672.575
2637.61004	2662.975
2640.26238	2665.775
2642.91306	2658.375
2645.56209	2657.575
2648.20948	2655.875
2650.85521	2656.975
2653.4993	2654.875
2656.14175	2646.375
2658.78255	2648.775
2661.42171	2640.975
2664.05923	2629.975
2666.6951	2641.775
2669.32934	2642.475
2671.96194	2642.975
2674.59291	2633.175
2677.22224	2648.875
2679.84993	2641.175
2682.476	2628.775
2685.10043	2641.775
2687.72324	2626.875
2690.34441	2640.475
2692.96396	2631.975
2695.58188	2634.175
2698.19818	2629.475
2700.81285	2623.775
2703.4259	2643.875
2706.03733	2655.475
2708.64714	2645.575
2711.25533	2634.975
2713.86191	2635.275
2716.46687	2644.775
2719.07021	2637.575
2721.67194	2641.575
2724.27206	2620.075
2726.87057	2626.075
2729.46747	2624.175
2732.06276	2621.175
2734.65644	2617.775
2737.24852	2620.675
2739.83899	2608.975
2742.42786	2614.775
2745.01513	2589.875
2747.60079	2610.975
2750.18486	2591.675
2752.76733	2584.975
2755.3482	2584.075
2757.92747	2590.175
2760.50515	2579.875
2763.08123	2580.575
2765.65573	2567.875
2768.22863	2570.975
2770.79994	2563.175
2773.36967	2562.975
2775.9378	2566.775
2778.50435	2549.375
2781.06932	2554.875
2783.6327	2543.175
2786.1945	2545.975
2788.75471	2532.975
2791.31335	2524.775
2793.87041	2523.575
2796.42589	2510.275
2798.97979	2511.275
2801.53212	2504.275
2804.08288	2498.075
2806.63206	2489.375
2809.17967	2480.875
2811.72571	2483.675
2814.27018	2478.975
2816.81308	2470.275
2819.35442	2468.875
2821.89419	2463.275
2824.43239	2475.575
2826.96904	2452.775
2829.50412	2456.375
2832.03763	2461.275
2834.56959	2456.075
2837.1	2455.775
2839.62884	2443.775
2842.15613	2448.375
2844.68186	2453.775
2847.20604	2449.375
2849.72867	2449.375
2852.24974	2444.275
2854.76927	2453.775
2857.28724	2440.275
2859.80367	2436.675
2862.31855	2434.475
2864.83189	2425.575
2867.34368	2428.375
2869.85393	2436.575
2872.36264	2428.375
2874.8698	2430.975
2877.37543	2433.575
2879.87952	2427.675
2882.38207	2430.975
2884.88308	2419.975
2887.38256	2423.675
2889.88051	2428.075
2892.37692	2434.575
2894.8718	2418.875
2897.36515	2429.875
2899.85698	2436.775
2902.34727	2438.975
2904.83604	2423.775
2907.32328	2419.875
2909.809	2427.175
2912.29319	2436.975
2914.77587	2420.275
2917.25702	2429.075
2919.73665	2437.475
2922.21476	2431.175
2924.69136	2429.375
2927.16644	2434.775
2929.64	2433.875
2932.11205	2431.675
2934.58258	2427.475
2937.05161	2433.275
2939.51912	2439.475
2941.98513	2436.075
2944.44962	2434.475
2946.91261	2413.075
2949.37409	2432.175
2951.83407	2429.175
2954.29254	2417.075
2956.74951	2427.075
2959.20498	2419.675
2961.65895	2410.475
2964.11142	2409.975
2966.56239	2403.675
2969.01186	2408.575
2971.45984	2394.075
2973.90632	2389.275
2976.35131	2382.175
2978.7948	2387.275
2981.23681	2369.275
2983.67732	2372.275
2986.11635	2373.575
2988.55388	2370.075
2990.98993	2363.975
2993.4245	2366.275
2995.85758	2352.475
2998.28917	2346.275
3000.71928	2347.875
3003.14791	2352.575
3005.57506	2348.375
3008.00073	2351.275
3010.42493	2341.575
3012.84764	2347.975
3015.26888	2344.075
3017.68865	2343.075
3020.10694	2329.375
3022.52376	2342.175
3024.9391	2349.275
3027.35298	2336.175
3029.76539	2324.975
3032.17632	2335.275
3034.5858	2334.175
3036.9938	2341.275
3039.40034	2333.275
3041.80542	2333.075
3044.20903	2330.375
3046.61118	2336.375
3049.01187	2324.475
3051.4111	2327.775
3053.80888	2333.875
3056.20519	2329.675
3058.60005	2322.775
3060.99345	2329.675
3063.3854	2320.275
3065.7759	2313.975
3068.16494	2329.275
3070.55254	2328.475
3072.93868	2333.175
3075.32338	2316.075
3077.70662	2314.275
3080.08842	2310.775
3082.46878	2331.875
3084.84769	2321.875
3087.22515	2333.075
3089.60118	2323.875
3091.97576	2345.175
3094.3489	2351.875
3096.72061	2347.775
3099.09087	2358.075
3101.4597	2346.475
3103.82709	2355.175
3106.19305	2344.675
3108.55757	2357.775
3110.92066	2351.575
3113.28232	2357.875
3115.64255	2354.475
3118.00134	2347.075
3120.35871	2363.375
3122.71466	2360.875
3125.06917	2355.875
3127.42226	2374.075
3129.77393	2372.475
3132.12417	2372.475
3134.47299	2387.775
3136.82039	2382.475
3139.16636	2386.575
3141.51092	2389.375
3143.85406	2406.775
3146.19579	2420.075
3148.53609	2405.175
3150.87499	2420.975
3153.21246	2427.275
3155.54853	2440.975
3157.88318	2457.975
3160.21642	2462.475
3162.54826	2467.675
3164.87868	2471.875
3167.2077	2467.875
3169.5353	2480.475
3171.86151	2469.475
3174.18631	2469.375
3176.5097	2475.175
3178.83169	2478.875
3181.15228	2487.275
3183.47147	2492.675
3185.78926	2498.275
3188.10565	2483.175
3190.42065	2495.775
3192.73424	2491.675
3195.04645	2504.375
3197.35725	2509.575
3199.66667	2491.275
3201.97469	2518.275
3204.28132	2509.175
3206.58656	2509.475
3208.8904	2526.475
3211.19287	2534.475
3213.49394	2533.475
3215.79363	2544.675
3218.09193	2537.675
3220.38884	2534.075
3222.68438	2550.675
3224.97853	2539.775
3227.2713	2540.075
3229.56269	2542.775
3231.8527	2537.575
3234.14133	2523.975
3236.42858	2524.575
