Data from AgNPs_FTO_APTES_UA_0.1mM_CRN_10uM_NaF_0.1M_Addition_RamanShift__6__11-25-27-540.txt Node

Date: Mon Dec 20 11:25:27 GMT 2021
User: TCL
Spectrometer: QEP01345
Trigger mode: 4
Integration Time (sec): 7.000000E0
Scans to average: 10
Electric dark correction enabled: true
Nonlinearity correction enabled: false
Boxcar width: 0
XAxis mode: Raman Shifts
Number of Pixels in Spectrum: 1044
>>>>>Begin Spectral Data<<<<<
46.04893	-0.45
50.45542	-0.05
54.85868	-0.85
59.25871	0.75
63.6555	28.45
68.04907	29.15
72.43941	33.05
76.82654	34.45
81.21044	35.45
85.59113	39.65
89.96862	39.65
94.34289	38.15
98.71396	39.15
103.08183	40.65
107.4465	43.35
111.80798	46.15
116.16626	42.05
120.52136	45.75
124.87327	50.55
129.222	49.15
133.56755	50.85
137.90993	50.65
142.24913	53.75
146.58517	54.95
150.91804	66.15
155.24774	78.65
159.57429	86.95
163.89768	112.15
168.21792	144.15
172.53501	189.45
176.84895	252.75
181.15975	354.45
185.46741	484.45
189.77193	662.95
194.07331	880.85
198.37157	1135.65
202.6667	1420.55
206.9587	1685.15
211.24758	1961.05
215.53334	2233.75
219.81599	2525.45
224.09553	2845.75
228.37195	3222.95
232.64527	3610.15
236.91549	4049.45
241.18261	4434.35
245.44663	4793.15
249.70755	5118.85
253.96539	5330.25
258.22014	5491.15
262.4718	5604.95
266.72039	5665.45
270.96589	5666.25
275.20832	5607.25
279.44768	5539.05
283.68397	5447.25
287.91719	5339.25
292.14735	5292.25
296.37445	5217.65
300.59849	5208.45
304.81948	5197.65
309.03742	5205.75
313.25231	5149.45
317.46415	5090.15
321.67296	4978.95
325.87872	4895.35
330.08145	4854.15
334.28114	4823.85
338.47781	4817.45
342.67145	4851.15
346.86207	4909.75
351.04966	4965.75
355.23424	5022.35
359.4158	5096.15
363.59435	5133.05
367.76989	5191.55
371.94243	5236.45
376.11196	5278.65
380.27849	5311.75
384.44203	5359.45
388.60257	5425.65
392.76012	5468.25
396.91468	5542.25
401.06626	5588.65
405.21485	5623.65
409.36047	5634.65
413.50311	5590.05
417.64277	5554.25
421.77947	5548.55
425.9132	5556.15
430.04396	5588.95
434.17176	5623.85
438.2966	5625.05
442.41849	5673.15
446.53742	5750.95
450.6534	5807.65
454.76644	5878.25
458.87653	5890.95
462.98368	5915.95
467.08789	5903.45
471.18916	5890.65
475.2875	5885.85
479.38291	5926.15
483.4754	5993.65
487.56496	6071.45
491.6516	6162.45
495.73531	6234.15
499.81612	6268.35
503.89401	6268.45
507.96899	6203.65
512.04106	6134.25
516.11023	6052.15
520.1765	6004.75
524.23987	6020.25
528.30034	6022.35
532.35792	6003.05
536.41261	5974.75
540.46441	5907.85
544.51333	5848.55
548.55936	5805.95
552.60252	5815.15
556.64279	5836.05
560.6802	5879.75
564.71473	5895.25
568.7464	5928.15
572.7752	6028.55
576.80114	6083.15
580.82422	6179.35
584.84444	6326.45
588.86181	6527.65
592.87633	6672.15
596.888	6647.15
600.89682	6522.75
604.9028	6483.35
608.90594	6704.45
612.90624	7095.85
616.90371	6990.65
620.89834	6511.45
624.89015	6459.35
628.87913	6778.75
632.86528	7213.15
636.84862	7544.45
640.82913	7575.95
644.80683	7343.35
648.78172	7003.05
652.75379	6679.75
656.72306	6452.55
660.68952	6305.25
664.65319	6148.55
668.61405	6015.35
672.57211	5959.05
676.52738	5988.95
680.47986	6007.65
684.42955	6018.95
688.37646	5989.15
692.32058	5950.55
696.26192	5890.45
700.20048	5860.55
704.13626	5855.75
708.06928	5794.95
711.99952	5802.25
715.927	5794.85
719.85171	5824.25
723.77365	5879.65
727.69284	5892.05
731.60928	5869.55
735.52295	5782.95
739.43388	5739.85
743.34206	5724.35
747.24749	5742.85
751.15017	5758.95
755.05012	5799.55
758.94733	5860.65
762.8418	6011.45
766.73354	6263.75
770.62254	6481.85
774.50882	6567.65
778.39237	6386.85
782.27321	6098.05
786.15132	5834.95
790.02671	5702.55
793.89938	5665.55
797.76935	5670.75
801.6366	5723.55
805.50115	5831.15
809.36299	6028.25
813.22213	6125.35
817.07857	6089.05
820.93231	5936.95
824.78336	5768.75
828.63172	5606.05
832.47738	5513.35
836.32036	5474.45
840.16066	5440.75
843.99827	5437.75
847.8332	5426.55
851.66546	5420.75
855.49504	5412.35
859.32195	5429.95
863.1462	5440.45
866.96777	5485.15
870.78668	5536.45
874.60293	5626.25
878.41652	5735.85
882.22745	5826.05
886.03573	5925.95
889.84136	5984.75
893.64433	5922.95
897.44466	5797.05
901.24235	5655.95
905.0374	5510.85
908.8298	5407.25
912.61957	5385.45
916.40671	5332.95
920.19121	5357.35
923.97308	5358.75
927.75233	5351.85
931.52895	5305.75
935.30295	5266.75
939.07433	5202.05
942.84309	5144.35
946.60924	5148.15
950.37278	5110.75
954.13371	5106.55
957.89203	5100.95
961.64774	5080.25
965.40086	5074.35
969.15137	5072.55
972.89929	5062.65
976.64461	5034.95
980.38733	5004.15
984.12747	5018.45
987.86502	5023.85
991.59999	5037.15
995.33237	5079.35
999.06217	5129.75
1002.78939	5231.35
1006.51404	5301.05
1010.23611	5374.25
1013.95561	5432.85
1017.67255	5465.35
1021.38692	5471.65
1025.09872	5414.45
1028.80796	5330.55
1032.51465	5271.45
1036.21877	5220.45
1039.92035	5183.85
1043.61937	5166.65
1047.31584	5161.75
1051.00976	5169.15
1054.70114	5200.25
1058.38998	5208.85
1062.07627	5257.35
1065.76003	5312.25
1069.44126	5384.15
1073.11995	5441.35
1076.79611	5508.35
1080.46974	5532.45
1084.14085	5513.85
1087.80943	5486.05
1091.47549	5472.75
1095.13903	5448.45
1098.80005	5407.65
1102.45857	5320.15
1106.11456	5285.25
1109.76805	5338.85
1113.41903	5413.35
1117.06751	5619.95
1120.71348	5911.45
1124.35696	6300.95
1127.99793	6744.45
1131.63641	7073.25
1135.2724	7221.85
1138.90589	7170.25
1142.5369	6941.75
1146.16542	6665.25
1149.79145	6347.45
1153.415	6042.95
1157.03607	5801.15
1160.65467	5690.05
1164.27079	5675.85
1167.88443	5747.05
1171.49561	5889.45
1175.10432	6100.85
1178.71056	6371.75
1182.31434	6633.75
1185.91565	6783.45
1189.51451	6805.95
1193.11091	6765.35
1196.70485	6753.35
1200.29634	6753.55
1203.88538	6757.15
1207.47197	6695.95
1211.05612	6634.15
1214.63782	6474.45
1218.21708	6302.65
1221.79391	6122.15
1225.36829	5976.35
1228.94024	5884.45
1232.50976	5797.85
1236.07685	5741.65
1239.6415	5710.75
1243.20374	5706.55
1246.76355	5744.25
1250.32093	5766.35
1253.8759	5867.75
1257.42845	5951.85
1260.97859	6063.65
1264.52631	6155.35
1268.07163	6219.85
1271.61453	6271.95
1275.15503	6319.85
1278.69312	6411.45
1282.22882	6447.35
1285.76211	6553.65
1289.29301	6699.65
1292.82151	6870.65
1296.34761	7068.65
1299.87133	7323.15
1303.39266	7580.25
1306.9116	7835.75
1310.42815	8086.05
1313.94233	8257.25
1317.45412	8253.35
1320.96354	8149.65
1324.47058	8062.75
1327.97525	7945.35
1331.47754	7854.85
1334.97747	7812.85
1338.47502	7762.45
1341.97022	7776.65
1345.46305	7811.85
1348.95352	7910.35
1352.44163	8070.05
1355.92738	8320.35
1359.41078	8700.25
1362.89183	9045.95
1366.37053	9056.65
1369.84688	8595.05
1373.32088	7960.65
1376.79254	7498.95
1380.26186	7278.35
1383.72883	7142.45
1387.19347	7065.95
1390.65578	6935.05
1394.11575	6839.85
1397.57339	6758.65
1401.0287	6733.65
1404.48168	6674.55
1407.93234	6579.75
1411.38068	6427.85
1414.82669	6227.45
1418.27039	6027.85
1421.71177	5856.85
1425.15083	5699.05
1428.58758	5615.75
1432.02203	5597.15
1435.45416	5644.05
1438.88399	5704.95
1442.31151	5748.45
1445.73673	5795.35
1449.15965	5830.35
1452.58027	5831.75
1455.9986	5853.55
1459.41463	5883.45
1462.82837	5920.15
1466.23982	5992.65
1469.64898	6057.95
1473.05586	6116.05
1476.46045	6135.95
1479.86276	6131.95
1483.26279	6138.15
1486.66054	6169.05
1490.05602	6235.55
1493.44922	6330.55
1496.84016	6474.25
1500.22882	6663.85
1503.61521	6916.75
1506.99934	7191.75
1510.38121	7400.65
1513.76081	7446.15
1517.13816	7282.05
1520.51324	7027.45
1523.88607	6796.55
1527.25665	6678.85
1530.62498	6669.55
1533.99105	6646.25
1537.35488	6613.65
1540.71647	6586.65
1544.07581	6523.55
1547.4329	6484.85
1550.78776	6417.35
1554.14038	6404.05
1557.49077	6407.25
1560.83892	6402.45
1564.18484	6409.15
1567.52853	6446.25
1570.86999	6505.85
1574.20922	6554.75
1577.54624	6565.45
1580.88103	6542.45
1584.2136	6470.95
1587.54395	6468.35
1590.87208	6531.85
1594.19801	6695.75
1597.52172	6877.35
1600.84321	6944.45
1604.16251	6812.15
1607.47959	6598.55
1610.79447	6319.25
1614.10715	6073.05
1617.41763	5903.05
1620.7259	5778.15
1624.03199	5726.75
1627.33587	5776.25
1630.63757	5864.55
1633.93707	6071.65
1637.23439	6360.65
1640.52951	6844.35
1643.82246	7376.85
1647.11321	7871.95
1650.40179	8077.15
1653.68819	7851.85
1656.97241	7306.65
1660.25446	6742.45
1663.53433	6308.35
1666.81203	6024.25
1670.08756	5836.05
1673.36092	5727.25
1676.63211	5646.25
1679.90115	5585.55
1683.16801	5526.85
1686.43272	5449.15
1689.69527	5364.95
1692.95567	5276.95
1696.2139	5194.75
1699.46999	5088.85
1702.72392	5030.85
1705.97571	4919.85
1709.22535	4808.25
1712.47284	4697.95
1715.71819	4561.65
1718.96139	4461.95
1722.20246	4362.05
1725.44139	4278.25
1728.67818	4199.75
1731.91284	4143.45
1735.14537	4089.35
1738.37576	4047.95
1741.60403	4035.35
1744.83017	3982.85
1748.05418	3963.25
1751.27607	3959.65
1754.49584	3949.35
1757.71349	3942.65
1760.92903	3933.05
1764.14244	3914.95
1767.35375	3903.15
1770.56294	3894.15
1773.77002	3880.35
1776.97499	3863.85
1780.17785	3853.35
1783.37861	3817.85
1786.57727	3831.35
1789.77382	3815.45
1792.96828	3800.85
1796.16064	3791.55
1799.3509	3774.25
1802.53907	3758.85
1805.72514	3751.05
1808.90913	3738.95
1812.09102	3732.15
1815.27083	3722.25
1818.44856	3714.05
1821.6242	3693.25
1824.79776	3701.15
1827.96924	3701.85
1831.13864	3674.85
1834.30597	3696.75
1837.47122	3670.05
1840.6344	3676.65
1843.7955	3668.15
1846.95454	3664.95
1850.11151	3650.75
1853.26642	3647.35
1856.41926	3647.05
1859.57004	3636.55
1862.71876	3640.55
1865.86542	3630.95
1869.01003	3624.95
1872.15258	3608.35
1875.29308	3630.65
1878.43152	3610.05
1881.56792	3592.75
1884.70227	3593.85
1887.83457	3577.95
1890.96482	3580.55
1894.09304	3575.25
1897.21921	3558.75
1900.34335	3559.25
1903.46544	3551.25
1906.58551	3554.35
1909.70353	3543.15
1912.81953	3539.85
1915.93349	3539.75
1919.04543	3517.35
1922.15534	3510.05
1925.26322	3493.15
1928.36908	3486.55
1931.47292	3476.95
1934.57473	3481.55
1937.67453	3455.05
1940.77232	3450.25
1943.86808	3439.05
1946.96184	3435.15
1950.05358	3416.75
1953.14331	3418.05
1956.23103	3386.05
1959.31675	3399.35
1962.40046	3382.65
1965.48217	3372.75
1968.56188	3368.35
1971.63959	3339.85
1974.7153	3331.95
1977.78901	3328.95
1980.86073	3322.25
1983.93046	3314.75
1986.99819	3297.25
1990.06394	3275.55
1993.1277	3277.65
1996.18947	3250.35
1999.24925	3245.65
2002.30706	3235.85
2005.36288	3223.25
2008.41672	3206.35
2011.46859	3202.45
2014.51848	3193.35
2017.56639	3187.75
2020.61233	3194.45
2023.6563	3173.85
2026.6983	3163.45
2029.73833	3154.05
2032.7764	3149.85
2035.8125	3141.05
2038.84664	3130.45
2041.87881	3123.65
2044.90903	3119.05
2047.93729	3104.05
2050.96359	3098.45
2053.98794	3113.25
2057.01034	3098.75
2060.03078	3087.45
2063.04927	3078.75
2066.06582	3069.05
2069.08042	3087.35
2072.09307	3082.35
2075.10378	3071.05
2078.11255	3076.15
2081.11938	3064.05
2084.12426	3068.65
2087.12722	3068.85
2090.12824	3053.35
2093.12732	3058.95
2096.12447	3053.55
2099.11969	3062.15
2102.11299	3051.95
2105.10435	3062.85
2108.09379	3061.15
2111.08131	3053.15
2114.0669	3063.25
2117.05057	3068.45
2120.03233	3066.45
2123.01216	3072.55
2125.99008	3068.85
2128.96609	3064.55
2131.94018	3069.65
2134.91236	3072.65
2137.88263	3064.45
2140.851	3058.85
2143.81746	3058.45
2146.78201	3060.65
2149.74466	3054.95
2152.7054	3050.75
2155.66425	3052.35
2158.6212	3059.75
2161.57625	3047.15
2164.52941	3043.55
2167.48067	3051.35
2170.43004	3047.55
2173.37752	3039.35
2176.32311	3035.45
2179.26681	3036.65
2182.20863	3032.35
2185.14856	3034.65
2188.08661	3029.95
2191.02278	3026.25
2193.95707	3023.65
2196.88948	3016.45
2199.82001	3015.35
2202.74867	3002.45
2205.67545	3001.75
2208.60037	2995.65
2211.52341	2992.45
2214.44458	2975.55
2217.36388	2972.05
2220.28132	2963.65
2223.1969	2956.45
2226.11061	2949.05
2229.02246	2944.05
2231.93245	2944.65
2234.84058	2933.65
2237.74686	2917.65
2240.65128	2932.85
2243.55385	2920.55
2246.45456	2906.25
2249.35343	2904.25
2252.25044	2906.65
2255.14561	2892.65
2258.03893	2902.95
2260.93041	2888.85
2263.82004	2870.25
2266.70783	2886.35
2269.59378	2857.25
2272.4779	2851.25
2275.36017	2852.25
2278.24061	2837.75
2281.11922	2829.65
2283.996	2827.25
2286.87094	2827.05
2289.74405	2814.15
2292.61534	2816.15
2295.4848	2801.85
2298.35243	2784.05
2301.21824	2790.55
2304.08223	2790.15
2306.94439	2787.45
2309.80474	2788.95
2312.66327	2783.75
2315.51999	2786.25
2318.37489	2776.35
2321.22797	2762.85
2324.07925	2766.55
2326.92871	2767.55
2329.77637	2760.35
2332.62222	2744.65
2335.46626	2744.45
2338.3085	2739.95
2341.14893	2729.35
2343.98756	2738.45
2346.8244	2722.55
2349.65943	2721.15
2352.49267	2721.45
2355.32411	2715.15
2358.15376	2722.55
2360.98161	2715.15
2363.80768	2699.45
2366.63195	2704.95
2369.45444	2700.75
2372.27514	2703.55
2375.09405	2709.25
2377.91118	2693.35
2380.72652	2689.85
2383.54009	2679.25
2386.35187	2677.55
2389.16188	2659.25
2391.97011	2661.85
2394.77657	2657.85
2397.58125	2650.65
2400.38416	2639.65
2403.18529	2634.85
2405.98466	2636.45
2408.78226	2618.65
2411.57809	2627.15
2414.37216	2615.15
2417.16446	2611.85
2419.955	2603.35
2422.74378	2604.95
2425.5308	2595.55
2428.31606	2596.85
2431.09956	2582.95
2433.88131	2583.05
2436.6613	2595.45
2439.43954	2590.75
2442.21603	2569.15
2444.99077	2565.05
2447.76377	2581.35
2450.53501	2563.95
2453.30451	2563.55
2456.07226	2556.95
2458.83827	2564.45
2461.60254	2551.45
2464.36507	2557.15
2467.12586	2555.25
2469.88492	2541.25
2472.64224	2544.55
2475.39782	2548.35
2478.15167	2534.95
2480.90379	2528.95
2483.65417	2528.25
2486.40283	2525.15
2489.14976	2535.75
2491.89497	2533.35
2494.63845	2536.25
2497.3802	2530.55
2500.12024	2530.65
2502.85855	2523.05
2505.59514	2508.15
2508.33002	2504.35
2511.06318	2513.85
2513.79462	2506.05
2516.52435	2492.35
2519.25237	2487.25
2521.97867	2483.75
2524.70327	2487.75
2527.42616	2473.95
2530.14734	2470.15
2532.86681	2466.65
2535.58458	2464.15
2538.30065	2458.15
2541.01501	2467.75
2543.72768	2438.55
2546.43864	2441.05
2549.14791	2429.75
2551.85548	2444.15
2554.56136	2428.15
2557.26554	2429.05
2559.96803	2420.65
2562.66883	2422.75
2565.36794	2423.35
2568.06536	2405.75
2570.7611	2409.65
2573.45514	2404.85
2576.14751	2404.05
2578.83819	2398.55
2581.52719	2393.75
2584.21451	2385.65
2586.90015	2383.45
2589.58411	2378.25
2592.2664	2367.35
2594.94701	2363.95
2597.62594	2357.35
2600.30321	2364.25
2602.9788	2358.05
2605.65273	2356.15
2608.32498	2353.25
2610.99557	2345.05
2613.66449	2339.95
2616.33175	2339.35
2618.99734	2331.45
2621.66128	2334.25
2624.32355	2327.85
2626.98416	2328.75
2629.64311	2332.05
2632.30041	2312.65
2634.95605	2325.55
2637.61004	2308.45
2640.26238	2302.35
2642.91306	2296.05
2645.56209	2300.95
2648.20948	2298.15
2650.85521	2301.55
2653.4993	2305.95
2656.14175	2298.45
2658.78255	2296.15
2661.42171	2300.75
2664.05923	2300.65
2666.6951	2296.55
2669.32934	2281.95
2671.96194	2294.25
2674.59291	2297.75
2677.22224	2289.85
2679.84993	2287.85
2682.476	2289.85
2685.10043	2291.15
2687.72324	2286.85
2690.34441	2284.05
2692.96396	2285.55
2695.58188	2289.85
2698.19818	2289.05
2700.81285	2279.35
2703.4259	2300.55
2706.03733	2309.55
2708.64714	2304.45
2711.25533	2292.45
2713.86191	2283.25
2716.46687	2285.35
2719.07021	2292.15
2721.67194	2292.45
2724.27206	2288.25
2726.87057	2304.75
2729.46747	2284.95
2732.06276	2275.45
2734.65644	2284.65
2737.24852	2285.35
2739.83899	2275.75
2742.42786	2273.85
2745.01513	2277.85
2747.60079	2277.85
2750.18486	2257.95
2752.76733	2262.55
2755.3482	2264.75
2757.92747	2263.05
2760.50515	2255.45
2763.08123	2241.45
2765.65573	2249.55
2768.22863	2246.55
2770.79994	2237.35
2773.36967	2241.55
2775.9378	2237.05
2778.50435	2230.35
2781.06932	2226.65
2783.6327	2222.15
2786.1945	2212.25
2788.75471	2218.85
2791.31335	2210.45
2793.87041	2211.35
2796.42589	2205.25
2798.97979	2180.85
2801.53212	2191.95
2804.08288	2199.55
2806.63206	2191.45
2809.17967	2172.65
2811.72571	2175.75
2814.27018	2174.85
2816.81308	2167.65
2819.35442	2158.75
2821.89419	2160.25
2824.43239	2160.45
2826.96904	2154.65
2829.50412	2162.35
2832.03763	2155.85
2834.56959	2157.95
2837.1	2153.15
2839.62884	2151.35
2842.15613	2142.45
2844.68186	2150.65
2847.20604	2161.45
2849.72867	2155.95
2852.24974	2149.55
2854.76927	2155.25
2857.28724	2157.25
2859.80367	2152.05
2862.31855	2152.65
2864.83189	2145.55
2867.34368	2147.25
2869.85393	2137.85
2872.36264	2150.55
2874.8698	2152.75
2877.37543	2156.45
2879.87952	2158.15
2882.38207	2154.95
2884.88308	2149.05
2887.38256	2156.05
2889.88051	2155.45
2892.37692	2151.05
2894.8718	2160.85
2897.36515	2157.25
2899.85698	2153.55
2902.34727	2161.65
2904.83604	2165.05
2907.32328	2159.55
2909.809	2164.95
2912.29319	2161.55
2914.77587	2162.05
2917.25702	2164.45
2919.73665	2152.65
2922.21476	2164.05
2924.69136	2154.75
2927.16644	2161.15
2929.64	2154.55
2932.11205	2150.35
2934.58258	2159.85
2937.05161	2157.65
2939.51912	2152.25
2941.98513	2147.05
2944.44962	2148.25
2946.91261	2147.55
2949.37409	2144.35
2951.83407	2138.95
2954.29254	2135.85
2956.74951	2131.85
2959.20498	2129.35
2961.65895	2127.05
2964.11142	2124.25
2966.56239	2114.05
2969.01186	2123.85
2971.45984	2115.05
2973.90632	2107.15
2976.35131	2109.65
2978.7948	2102.05
2981.23681	2100.35
2983.67732	2091.55
2986.11635	2097.35
2988.55388	2089.05
2990.98993	2094.05
2993.4245	2073.75
2995.85758	2062.65
2998.28917	2065.75
3000.71928	2074.45
3003.14791	2066.55
3005.57506	2071.75
3008.00073	2070.85
3010.42493	2060.95
3012.84764	2062.05
3015.26888	2059.05
3017.68865	2068.75
3020.10694	2046.05
3022.52376	2068.05
3024.9391	2055.25
3027.35298	2057.25
3029.76539	2038.65
3032.17632	2050.35
3034.5858	2049.35
3036.9938	2044.25
3039.40034	2049.85
3041.80542	2044.75
3044.20903	2040.75
3046.61118	2049.85
3049.01187	2053.75
3051.4111	2044.25
3053.80888	2051.55
3056.20519	2054.05
3058.60005	2041.05
3060.99345	2046.85
3063.3854	2049.05
3065.7759	2051.15
3068.16494	2049.85
3070.55254	2050.35
3072.93868	2032.05
3075.32338	2042.15
3077.70662	2045.65
3080.08842	2038.05
3082.46878	2055.25
3084.84769	2050.85
3087.22515	2054.35
3089.60118	2063.35
3091.97576	2049.15
3094.3489	2067.75
3096.72061	2068.75
3099.09087	2068.35
3101.4597	2077.95
3103.82709	2082.55
3106.19305	2077.75
3108.55757	2093.15
3110.92066	2081.85
3113.28232	2073.75
3115.64255	2082.05
3118.00134	2080.95
3120.35871	2097.25
3122.71466	2092.65
3125.06917	2089.75
3127.42226	2102.95
3129.77393	2103.05
3132.12417	2116.75
3134.47299	2118.75
3136.82039	2108.65
3139.16636	2109.25
3141.51092	2118.85
3143.85406	2131.75
3146.19579	2130.25
3148.53609	2139.65
3150.87499	2159.15
3153.21246	2153.45
3155.54853	2158.95
3157.88318	2158.85
3160.21642	2171.25
3162.54826	2176.55
3164.87868	2173.85
3167.2077	2183.55
3169.5353	2185.15
3171.86151	2198.95
3174.18631	2195.15
3176.5097	2196.95
3178.83169	2204.45
3181.15228	2196.35
3183.47147	2208.05
3185.78926	2215.55
3188.10565	2206.35
3190.42065	2224.15
3192.73424	2224.35
3195.04645	2226.95
3197.35725	2231.85
3199.66667	2237.45
3201.97469	2239.05
3204.28132	2240.95
3206.58656	2256.25
3208.8904	2255.85
3211.19287	2254.55
3213.49394	2262.15
3215.79363	2256.75
3218.09193	2275.05
3220.38884	2279.75
3222.68438	2268.85
3224.97853	2272.15
3227.2713	2273.25
3229.56269	2266.75
3231.8527	2268.55
3234.14133	2271.15
3236.42858	2255.05
3238.71446	2264.15
3240.99896	2254.65
3243.28209	2264.65
3245.56384	2250.55
3247.84423	2254.15
3250.12324	2251.85
3252.40088	2239.55
3254.67715	2261.95
3256.95205	2243.65
3259.22558	2253.45
3261.49775	2251.75
3263.76855	2244.95
3266.03799	2245.15
3268.30606	2229.65
3270.57277	2219.95
3272.83812	2215.15
3275.10211	2230.95
3277.36474	2225.95
3279.62601	2215.85
3281.88593	2217.95
3284.14448	2230.25
3286.40168	2225.55
3288.65753	2211.65
3290.91202	2208.55
3293.16516	2210.55
3295.41695	2201.55
3297.66738	2192.15
3299.91647	2169.55
3302.16421	2172.35
3304.4106	2162.75
3306.65564	2140.55
3308.89933	2133.45
3311.14169	2126.05
3313.38269	2112.65
3315.62236	2101.75
3317.86068	2083.55
3320.09766	2057.75
3322.3333	2053.05
3324.5676	2048.25
3326.80056	2023.85
3329.03219	2006.05
3331.26248	0.15
3333.49143	0.75
3335.71905	-1.15
