Data from AgNPs_FTO_APTES_UA_0.1mM_CRN_500uM_NaF_0.1M_Addition_RamanShift__16__14-53-07-774.txt Node

Date: Mon Dec 20 14:53:07 GMT 2021
User: TCL
Spectrometer: QEP01345
Trigger mode: 4
Integration Time (sec): 7.000000E0
Scans to average: 10
Electric dark correction enabled: true
Nonlinearity correction enabled: false
Boxcar width: 0
XAxis mode: Raman Shifts
Number of Pixels in Spectrum: 1044
>>>>>Begin Spectral Data<<<<<
46.04893	0.1125
50.45542	-0.2875
54.85868	-1.3875
59.25871	0.8125
63.6555	22.2125
68.04907	24.9125
72.43941	28.8125
76.82654	30.0125
81.21044	28.7125
85.59113	34.8125
89.96862	30.8125
94.34289	36.1125
98.71396	37.1125
103.08183	30.3125
107.4465	37.6125
111.80798	39.8125
116.16626	38.0125
120.52136	38.5125
124.87327	38.7125
129.222	39.3125
133.56755	40.8125
137.90993	44.3125
142.24913	44.1125
146.58517	45.0125
150.91804	55.2125
155.24774	59.3125
159.57429	64.8125
163.89768	84.5125
168.21792	105.8125
172.53501	134.4125
176.84895	180.4125
181.15975	242.3125
185.46741	337.1125
189.77193	464.1125
194.07331	617.9125
198.37157	804.7125
202.6667	1015.1125
206.9587	1220.2125
211.24758	1435.5125
215.53334	1641.5125
219.81599	1877.9125
224.09553	2098.2125
228.37195	2342.7125
232.64527	2592.3125
236.91549	2825.8125
241.18261	3051.7125
245.44663	3255.6125
249.70755	3422.5125
253.96539	3539.1125
258.22014	3614.4125
262.4718	3668.9125
266.72039	3662.4125
270.96589	3629.3125
275.20832	3552.6125
279.44768	3472.5125
283.68397	3391.0125
287.91719	3289.0125
292.14735	3222.9125
296.37445	3154.3125
300.59849	3124.6125
304.81948	3097.5125
309.03742	3069.3125
313.25231	3033.0125
317.46415	3011.1125
321.67296	2962.5125
325.87872	2920.6125
330.08145	2897.5125
334.28114	2886.8125
338.47781	2911.5125
342.67145	2913.4125
346.86207	2943.9125
351.04966	2969.1125
355.23424	3002.3125
359.4158	3058.9125
363.59435	3095.7125
367.76989	3122.3125
371.94243	3155.8125
376.11196	3172.3125
380.27849	3208.8125
384.44203	3244.6125
388.60257	3278.7125
392.76012	3308.6125
396.91468	3343.2125
401.06626	3371.3125
405.21485	3393.8125
409.36047	3415.2125
413.50311	3406.3125
417.64277	3378.8125
421.77947	3371.9125
425.9132	3393.6125
430.04396	3390.7125
434.17176	3409.0125
438.2966	3420.2125
442.41849	3432.7125
446.53742	3452.0125
450.6534	3485.3125
454.76644	3510.2125
458.87653	3541.1125
462.98368	3548.5125
467.08789	3540.7125
471.18916	3555.3125
475.2875	3576.3125
479.38291	3596.0125
483.4754	3656.7125
487.56496	3717.4125
491.6516	3761.5125
495.73531	3824.7125
499.81612	3829.1125
503.89401	3806.5125
507.96899	3754.6125
512.04106	3722.9125
516.11023	3691.6125
520.1765	3699.9125
524.23987	3694.7125
528.30034	3703.0125
532.35792	3703.5125
536.41261	3683.7125
540.46441	3631.0125
544.51333	3598.0125
548.55936	3556.3125
552.60252	3545.8125
556.64279	3548.4125
560.6802	3558.1125
564.71473	3559.3125
568.7464	3578.3125
572.7752	3609.9125
576.80114	3628.2125
580.82422	3652.9125
584.84444	3688.2125
588.86181	3760.3125
592.87633	3804.5125
596.888	3796.2125
600.89682	3784.5125
604.9028	3808.1125
608.90594	3943.3125
612.90624	4127.5125
616.90371	4195.0125
620.89834	4083.6125
624.89015	4161.7125
628.87913	4375.2125
632.86528	4625.9125
636.84862	4821.4125
640.82913	4804.2125
644.80683	4656.6125
648.78172	4440.5125
652.75379	4257.0125
656.72306	4144.7125
660.68952	4107.9125
664.65319	4103.3125
668.61405	4138.7125
672.57211	4193.0125
676.52738	4281.4125
680.47986	4340.9125
684.42955	4372.1125
688.37646	4309.9125
692.32058	4224.8125
696.26192	4138.7125
700.20048	4042.1125
704.13626	3987.4125
708.06928	3913.0125
711.99952	3826.7125
715.927	3755.4125
719.85171	3731.0125
723.77365	3745.1125
727.69284	3732.0125
731.60928	3701.7125
735.52295	3667.0125
739.43388	3639.3125
743.34206	3625.2125
747.24749	3631.6125
751.15017	3650.7125
755.05012	3645.9125
758.94733	3697.5125
762.8418	3735.0125
766.73354	3811.5125
770.62254	3855.6125
774.50882	3887.8125
778.39237	3853.0125
782.27321	3743.8125
786.15132	3667.7125
790.02671	3624.2125
793.89938	3623.5125
797.76935	3647.2125
801.6366	3669.8125
805.50115	3742.8125
809.36299	3834.9125
813.22213	3883.4125
817.07857	3831.8125
820.93231	3713.2125
824.78336	3600.1125
828.63172	3487.2125
832.47738	3412.5125
836.32036	3380.4125
840.16066	3375.7125
843.99827	3347.7125
847.8332	3350.5125
851.66546	3331.6125
855.49504	3328.3125
859.32195	3349.0125
863.1462	3362.4125
866.96777	3405.7125
870.78668	3435.9125
874.60293	3490.0125
878.41652	3541.8125
882.22745	3606.3125
886.03573	3658.5125
889.84136	3654.9125
893.64433	3627.9125
897.44466	3538.6125
901.24235	3441.6125
905.0374	3364.9125
908.8298	3309.4125
912.61957	3259.8125
916.40671	3234.1125
920.19121	3227.2125
923.97308	3228.3125
927.75233	3236.8125
931.52895	3214.6125
935.30295	3210.0125
939.07433	3200.4125
942.84309	3186.7125
946.60924	3165.8125
950.37278	3160.8125
954.13371	3151.3125
957.89203	3138.1125
961.64774	3118.8125
965.40086	3117.7125
969.15137	3097.5125
972.89929	3092.1125
976.64461	3063.3125
980.38733	3061.3125
984.12747	3066.3125
987.86502	3071.8125
991.59999	3064.1125
995.33237	3079.7125
999.06217	3118.7125
1002.78939	3149.9125
1006.51404	3190.2125
1010.23611	3227.8125
1013.95561	3260.8125
1017.67255	3247.8125
1021.38692	3240.1125
1025.09872	3216.7125
1028.80796	3184.8125
1032.51465	3145.9125
1036.21877	3114.8125
1039.92035	3097.1125
1043.61937	3097.0125
1047.31584	3100.9125
1051.00976	3103.6125
1054.70114	3132.8125
1058.38998	3136.0125
1062.07627	3161.8125
1065.76003	3179.9125
1069.44126	3196.5125
1073.11995	3214.5125
1076.79611	3228.5125
1080.46974	3219.0125
1084.14085	3186.6125
1087.80943	3152.3125
1091.47549	3117.5125
1095.13903	3096.3125
1098.80005	3090.4125
1102.45857	3057.0125
1106.11456	3066.2125
1109.76805	3082.1125
1113.41903	3140.3125
1117.06751	3237.1125
1120.71348	3356.7125
1124.35696	3585.0125
1127.99793	3817.8125
1131.63641	4050.8125
1135.2724	4178.7125
1138.90589	4192.1125
1142.5369	4068.7125
1146.16542	3881.9125
1149.79145	3674.9125
1153.415	3493.8125
1157.03607	3339.2125
1160.65467	3251.6125
1164.27079	3203.6125
1167.88443	3182.9125
1171.49561	3204.0125
1175.10432	3279.3125
1178.71056	3370.0125
1182.31434	3448.7125
1185.91565	3495.2125
1189.51451	3522.9125
1193.11091	3542.3125
1196.70485	3558.0125
1200.29634	3593.6125
1203.88538	3602.4125
1207.47197	3586.9125
1211.05612	3513.2125
1214.63782	3421.1125
1218.21708	3344.2125
1221.79391	3272.8125
1225.36829	3202.9125
1228.94024	3178.6125
1232.50976	3148.9125
1236.07685	3134.2125
1239.6415	3129.6125
1243.20374	3139.2125
1246.76355	3167.3125
1250.32093	3171.9125
1253.8759	3184.7125
1257.42845	3204.2125
1260.97859	3213.8125
1264.52631	3237.9125
1268.07163	3250.6125
1271.61453	3251.6125
1275.15503	3250.0125
1278.69312	3245.7125
1282.22882	3240.6125
1285.76211	3259.6125
1289.29301	3282.0125
1292.82151	3331.8125
1296.34761	3382.6125
1299.87133	3461.1125
1303.39266	3560.8125
1306.9116	3664.1125
1310.42815	3776.9125
1313.94233	3858.6125
1317.45412	3887.0125
1320.96354	3875.5125
1324.47058	3842.1125
1327.97525	3811.2125
1331.47754	3822.8125
1334.97747	3823.0125
1338.47502	3863.3125
1341.97022	3883.6125
1345.46305	3963.1125
1348.95352	4041.5125
1352.44163	4126.3125
1355.92738	4248.1125
1359.41078	4391.3125
1362.89183	4519.0125
1366.37053	4535.0125
1369.84688	4353.1125
1373.32088	4138.1125
1376.79254	3965.1125
1380.26186	3847.7125
1383.72883	3772.6125
1387.19347	3709.2125
1390.65578	3643.5125
1394.11575	3582.4125
1397.57339	3530.9125
1401.0287	3493.3125
1404.48168	3468.8125
1407.93234	3412.2125
1411.38068	3360.0125
1414.82669	3302.0125
1418.27039	3247.1125
1421.71177	3181.8125
1425.15083	3102.3125
1428.58758	3045.5125
1432.02203	2991.5125
1435.45416	2957.9125
1438.88399	2934.5125
1442.31151	2909.6125
1445.73673	2896.2125
1449.15965	2893.9125
1452.58027	2889.6125
1455.9986	2901.9125
1459.41463	2905.4125
1462.82837	2913.5125
1466.23982	2938.6125
1469.64898	2948.5125
1473.05586	2976.1125
1476.46045	2967.3125
1479.86276	2986.4125
1483.26279	2984.3125
1486.66054	2989.7125
1490.05602	3011.9125
1493.44922	3032.9125
1496.84016	3073.4125
1500.22882	3152.0125
1503.61521	3242.8125
1506.99934	3362.2125
1510.38121	3460.3125
1513.76081	3510.9125
1517.13816	3438.7125
1520.51324	3320.5125
1523.88607	3210.5125
1527.25665	3146.0125
1530.62498	3115.5125
1533.99105	3116.9125
1537.35488	3124.4125
1540.71647	3132.8125
1544.07581	3153.8125
1547.4329	3175.0125
1550.78776	3189.8125
1554.14038	3196.3125
1557.49077	3214.8125
1560.83892	3238.3125
1564.18484	3241.5125
1567.52853	3259.3125
1570.86999	3283.5125
1574.20922	3308.0125
1577.54624	3318.6125
1580.88103	3321.4125
1584.2136	3287.3125
1587.54395	3237.8125
1590.87208	3238.6125
1594.19801	3249.5125
1597.52172	3288.7125
1600.84321	3309.9125
1604.16251	3303.6125
1607.47959	3265.4125
1610.79447	3214.4125
1614.10715	3179.3125
1617.41763	3158.0125
1620.7259	3112.1125
1624.03199	3112.4125
1627.33587	3120.7125
1630.63757	3126.4125
1633.93707	3176.1125
1637.23439	3246.9125
1640.52951	3347.5125
1643.82246	3445.3125
1647.11321	3588.5125
1650.40179	3682.2125
1653.68819	3692.1125
1656.97241	3594.5125
1660.25446	3482.8125
1663.53433	3387.2125
1666.81203	3341.2125
1670.08756	3306.4125
1673.36092	3309.3125
1676.63211	3289.4125
1679.90115	3268.4125
1683.16801	3249.8125
1686.43272	3201.1125
1689.69527	3139.7125
1692.95567	3053.6125
1696.2139	2981.8125
1699.46999	2890.8125
1702.72392	2811.6125
1705.97571	2720.9125
1709.22535	2652.7125
1712.47284	2589.6125
1715.71819	2545.2125
1718.96139	2513.6125
1722.20246	2481.4125
1725.44139	2431.6125
1728.67818	2412.8125
1731.91284	2363.5125
1735.14537	2338.5125
1738.37576	2319.8125
1741.60403	2295.2125
1744.83017	2275.7125
1748.05418	2291.0125
1751.27607	2285.4125
1754.49584	2301.2125
1757.71349	2311.3125
1760.92903	2286.1125
1764.14244	2272.6125
1767.35375	2247.4125
1770.56294	2221.2125
1773.77002	2176.9125
1776.97499	2141.2125
1780.17785	2109.3125
1783.37861	2067.2125
1786.57727	2050.0125
1789.77382	2021.4125
1792.96828	1990.7125
1796.16064	1967.5125
1799.3509	1944.5125
1802.53907	1937.4125
1805.72514	1922.0125
1808.90913	1912.2125
1812.09102	1900.5125
1815.27083	1893.7125
1818.44856	1887.6125
1821.6242	1865.0125
1824.79776	1852.1125
1827.96924	1860.2125
1831.13864	1844.6125
1834.30597	1842.8125
1837.47122	1839.8125
1840.6344	1828.3125
1843.7955	1831.0125
1846.95454	1835.0125
1850.11151	1823.7125
1853.26642	1816.3125
1856.41926	1813.5125
1859.57004	1808.1125
1862.71876	1817.1125
1865.86542	1800.2125
1869.01003	1801.0125
1872.15258	1801.5125
1875.29308	1781.9125
1878.43152	1774.4125
1881.56792	1779.3125
1884.70227	1771.8125
1887.83457	1764.7125
1890.96482	1771.8125
1894.09304	1766.0125
1897.21921	1745.7125
1900.34335	1756.4125
1903.46544	1747.6125
1906.58551	1741.6125
1909.70353	1738.6125
1912.81953	1736.5125
1915.93349	1732.9125
1919.04543	1720.4125
1922.15534	1715.8125
1925.26322	1725.5125
1928.36908	1718.8125
1931.47292	1713.1125
1934.57473	1698.7125
1937.67453	1690.1125
1940.77232	1690.8125
1943.86808	1680.5125
1946.96184	1677.6125
1950.05358	1664.4125
1953.14331	1661.7125
1956.23103	1656.0125
1959.31675	1650.2125
1962.40046	1645.0125
1965.48217	1632.1125
1968.56188	1628.9125
1971.63959	1620.0125
1974.7153	1630.4125
1977.78901	1614.3125
1980.86073	1612.9125
1983.93046	1602.9125
1986.99819	1589.0125
1990.06394	1588.1125
1993.1277	1584.6125
1996.18947	1579.7125
1999.24925	1576.1125
2002.30706	1562.7125
2005.36288	1561.5125
2008.41672	1552.0125
2011.46859	1556.3125
2014.51848	1538.2125
2017.56639	1534.9125
2020.61233	1533.2125
2023.6563	1526.0125
2026.6983	1519.3125
2029.73833	1514.5125
2032.7764	1517.3125
2035.8125	1512.5125
2038.84664	1499.3125
2041.87881	1509.4125
2044.90903	1494.3125
2047.93729	1495.7125
2050.96359	1484.7125
2053.98794	1489.3125
2057.01034	1474.5125
2060.03078	1479.2125
2063.04927	1474.6125
2066.06582	1475.1125
2069.08042	1482.2125
2072.09307	1463.2125
2075.10378	1463.1125
2078.11255	1463.4125
2081.11938	1466.0125
2084.12426	1465.3125
2087.12722	1461.7125
2090.12824	1459.9125
2093.12732	1459.4125
2096.12447	1468.6125
2099.11969	1456.6125
2102.11299	1455.8125
2105.10435	1452.0125
2108.09379	1451.9125
2111.08131	1452.0125
2114.0669	1456.8125
2117.05057	1461.6125
2120.03233	1451.7125
2123.01216	1445.6125
2125.99008	1449.0125
2128.96609	1450.2125
2131.94018	1452.2125
2134.91236	1461.6125
2137.88263	1450.4125
2140.851	1449.1125
2143.81746	1453.5125
2146.78201	1441.2125
2149.74466	1454.7125
2152.7054	1447.3125
2155.66425	1446.4125
2158.6212	1446.1125
2161.57625	1444.3125
2164.52941	1438.1125
2167.48067	1439.5125
2170.43004	1435.7125
2173.37752	1432.9125
2176.32311	1427.9125
2179.26681	1433.9125
2182.20863	1423.0125
2185.14856	1431.6125
2188.08661	1423.0125
2191.02278	1422.7125
2193.95707	1419.7125
2196.88948	1412.9125
2199.82001	1412.1125
2202.74867	1403.5125
2205.67545	1399.5125
2208.60037	1399.5125
2211.52341	1406.0125
2214.44458	1393.7125
2217.36388	1393.4125
2220.28132	1380.7125
2223.1969	1372.0125
2226.11061	1376.2125
2229.02246	1376.3125
2231.93245	1371.9125
2234.84058	1366.7125
2237.74686	1363.1125
2240.65128	1357.5125
2243.55385	1350.5125
2246.45456	1351.2125
2249.35343	1353.7125
2252.25044	1348.2125
2255.14561	1341.4125
2258.03893	1333.8125
2260.93041	1343.5125
2263.82004	1327.6125
2266.70783	1324.6125
2269.59378	1320.5125
2272.4779	1317.7125
2275.36017	1310.0125
2278.24061	1306.5125
2281.11922	1294.6125
2283.996	1305.3125
2286.87094	1303.5125
2289.74405	1301.3125
2292.61534	1295.2125
2295.4848	1289.2125
2298.35243	1280.7125
2301.21824	1287.2125
2304.08223	1275.3125
2306.94439	1275.7125
2309.80474	1277.5125
2312.66327	1276.4125
2315.51999	1277.1125
2318.37489	1267.2125
2321.22797	1269.0125
2324.07925	1265.7125
2326.92871	1265.4125
2329.77637	1256.3125
2332.62222	1256.4125
2335.46626	1246.1125
2338.3085	1247.9125
2341.14893	1239.8125
2343.98756	1238.8125
2346.8244	1239.3125
2349.65943	1231.3125
2352.49267	1242.2125
2355.32411	1230.1125
2358.15376	1240.0125
2360.98161	1231.2125
2363.80768	1232.1125
2366.63195	1226.9125
2369.45444	1228.1125
2372.27514	1209.2125
2375.09405	1230.3125
2377.91118	1202.3125
2380.72652	1204.7125
2383.54009	1205.4125
2386.35187	1206.0125
2389.16188	1200.8125
2391.97011	1197.5125
2394.77657	1188.7125
2397.58125	1187.0125
2400.38416	1190.8125
2403.18529	1183.4125
2405.98466	1190.6125
2408.78226	1183.6125
2411.57809	1180.8125
2414.37216	1168.9125
2417.16446	1177.6125
2419.955	1166.8125
2422.74378	1169.0125
2425.5308	1165.0125
2428.31606	1165.7125
2431.09956	1154.8125
2433.88131	1162.6125
2436.6613	1153.9125
2439.43954	1150.4125
2442.21603	1151.0125
2444.99077	1139.1125
2447.76377	1140.2125
2450.53501	1143.0125
2453.30451	1142.7125
2456.07226	1139.5125
2458.83827	1133.5125
2461.60254	1144.3125
2464.36507	1130.7125
2467.12586	1119.6125
2469.88492	1128.5125
2472.64224	1124.5125
2475.39782	1133.1125
2478.15167	1126.3125
2480.90379	1117.9125
2483.65417	1123.3125
2486.40283	1114.9125
2489.14976	1114.0125
2491.89497	1113.6125
2494.63845	1114.8125
2497.3802	1111.3125
2500.12024	1107.7125
2502.85855	1110.6125
2505.59514	1107.5125
2508.33002	1106.8125
2511.06318	1102.3125
2513.79462	1095.4125
2516.52435	1101.6125
2519.25237	1084.6125
2521.97867	1088.9125
2524.70327	1087.7125
2527.42616	1093.5125
2530.14734	1082.5125
2532.86681	1079.6125
2535.58458	1076.5125
2538.30065	1072.1125
2541.01501	1075.3125
2543.72768	1066.7125
2546.43864	1070.5125
2549.14791	1072.3125
2551.85548	1065.9125
2554.56136	1056.4125
2557.26554	1059.9125
2559.96803	1056.2125
2562.66883	1051.7125
2565.36794	1049.7125
2568.06536	1048.4125
2570.7611	1050.6125
2573.45514	1041.2125
2576.14751	1045.0125
2578.83819	1041.5125
2581.52719	1035.1125
2584.21451	1031.8125
2586.90015	1033.3125
2589.58411	1027.7125
2592.2664	1026.3125
2594.94701	1020.0125
2597.62594	1021.5125
2600.30321	1010.0125
2602.9788	1019.2125
2605.65273	1009.4125
2608.32498	1010.1125
2610.99557	1007.1125
2613.66449	1005.1125
2616.33175	999.7125
2618.99734	993.6125
2621.66128	998.8125
2624.32355	996.1125
2626.98416	995.0125
2629.64311	993.8125
2632.30041	989.4125
2634.95605	992.4125
2637.61004	989.2125
2640.26238	991.4125
2642.91306	984.9125
2645.56209	988.8125
2648.20948	988.5125
2650.85521	980.5125
2653.4993	984.4125
2656.14175	979.8125
2658.78255	979.5125
2661.42171	976.2125
2664.05923	971.5125
2666.6951	979.1125
2669.32934	977.7125
2671.96194	970.0125
2674.59291	979.2125
2677.22224	979.3125
2679.84993	977.9125
2682.476	973.5125
2685.10043	971.3125
2687.72324	973.8125
2690.34441	968.7125
2692.96396	967.4125
2695.58188	969.1125
2698.19818	977.3125
2700.81285	975.7125
2703.4259	985.0125
2706.03733	1004.8125
2708.64714	992.8125
2711.25533	987.1125
2713.86191	972.4125
2716.46687	986.0125
2719.07021	1037.3125
2721.67194	994.8125
2724.27206	963.0125
2726.87057	970.6125
2729.46747	968.5125
2732.06276	960.6125
2734.65644	967.3125
2737.24852	963.7125
2739.83899	965.2125
2742.42786	964.4125
2745.01513	954.3125
2747.60079	957.6125
2750.18486	960.0125
2752.76733	955.2125
2755.3482	957.4125
2757.92747	950.5125
2760.50515	944.0125
2763.08123	945.1125
2765.65573	943.8125
2768.22863	950.0125
2770.79994	941.7125
2773.36967	935.7125
2775.9378	936.6125
2778.50435	932.7125
2781.06932	931.0125
2783.6327	935.9125
2786.1945	930.5125
2788.75471	930.8125
2791.31335	933.9125
2793.87041	933.6125
2796.42589	930.3125
2798.97979	924.7125
2801.53212	924.1125
2804.08288	925.7125
2806.63206	925.8125
2809.17967	918.2125
2811.72571	914.5125
2814.27018	923.1125
2816.81308	915.8125
2819.35442	919.5125
2821.89419	916.0125
2824.43239	912.6125
2826.96904	912.1125
2829.50412	905.0125
2832.03763	913.2125
2834.56959	912.9125
2837.1	904.0125
2839.62884	910.9125
2842.15613	906.4125
2844.68186	909.3125
2847.20604	911.0125
2849.72867	914.3125
2852.24974	923.5125
2854.76927	919.7125
2857.28724	922.3125
2859.80367	911.7125
2862.31855	911.5125
2864.83189	905.4125
2867.34368	902.7125
2869.85393	904.9125
2872.36264	911.1125
2874.8698	912.3125
2877.37543	910.8125
2879.87952	916.4125
2882.38207	924.8125
2884.88308	914.4125
2887.38256	926.5125
2889.88051	922.3125
2892.37692	924.4125
2894.8718	922.6125
2897.36515	932.5125
2899.85698	933.8125
2902.34727	943.6125
2904.83604	938.5125
2907.32328	951.6125
2909.809	953.0125
2912.29319	947.4125
2914.77587	955.1125
2917.25702	958.9125
2919.73665	961.8125
2922.21476	963.4125
2924.69136	969.3125
2927.16644	974.1125
2929.64	981.2125
2932.11205	979.0125
2934.58258	974.9125
2937.05161	979.5125
2939.51912	981.0125
2941.98513	986.2125
2944.44962	983.7125
2946.91261	983.5125
2949.37409	982.7125
2951.83407	983.7125
2954.29254	982.9125
2956.74951	977.4125
2959.20498	972.7125
2961.65895	970.9125
2964.11142	972.5125
2966.56239	956.1125
2969.01186	951.1125
2971.45984	946.0125
2973.90632	942.7125
2976.35131	931.2125
2978.7948	938.6125
2981.23681	922.3125
2983.67732	929.1125
2986.11635	926.5125
2988.55388	920.6125
2990.98993	922.8125
2993.4245	918.3125
2995.85758	922.4125
2998.28917	916.1125
3000.71928	921.0125
3003.14791	919.5125
3005.57506	919.2125
3008.00073	919.5125
3010.42493	917.4125
3012.84764	919.8125
3015.26888	922.4125
3017.68865	926.4125
3020.10694	923.6125
3022.52376	922.8125
3024.9391	930.8125
3027.35298	921.8125
3029.76539	922.3125
3032.17632	923.6125
3034.5858	923.7125
3036.9938	927.9125
3039.40034	921.6125
3041.80542	925.0125
3044.20903	918.8125
3046.61118	921.4125
3049.01187	921.8125
3051.4111	925.6125
3053.80888	927.2125
3056.20519	928.2125
3058.60005	922.2125
3060.99345	925.0125
3063.3854	932.6125
3065.7759	923.7125
3068.16494	931.3125
3070.55254	932.6125
3072.93868	932.9125
3075.32338	941.4125
3077.70662	935.1125
3080.08842	947.6125
3082.46878	947.3125
3084.84769	949.0125
3087.22515	949.5125
3089.60118	951.0125
3091.97576	960.8125
3094.3489	960.0125
3096.72061	967.0125
3099.09087	978.3125
3101.4597	980.1125
3103.82709	975.0125
3106.19305	982.4125
3108.55757	988.3125
3110.92066	989.1125
3113.28232	990.3125
3115.64255	992.7125
3118.00134	996.7125
3120.35871	1012.5125
3122.71466	1015.6125
3125.06917	1010.0125
3127.42226	1022.3125
3129.77393	1027.7125
3132.12417	1032.5125
3134.47299	1044.4125
3136.82039	1041.7125
3139.16636	1048.5125
3141.51092	1057.1125
3143.85406	1069.8125
3146.19579	1075.5125
3148.53609	1082.0125
