Data from AgNPs_FTO_APTES_UA_0.1mM_CRN_500uM_NaF_0.1M_Addition_RamanShift__19__14-56-37-778.txt Node

Date: Mon Dec 20 14:56:37 GMT 2021
User: TCL
Spectrometer: QEP01345
Trigger mode: 4
Integration Time (sec): 7.000000E0
Scans to average: 10
Electric dark correction enabled: true
Nonlinearity correction enabled: false
Boxcar width: 0
XAxis mode: Raman Shifts
Number of Pixels in Spectrum: 1044
>>>>>Begin Spectral Data<<<<<
46.04893	1.35
50.45542	1.05
54.85868	-3.25
59.25871	1.15
63.6555	25.05
68.04907	24.75
72.43941	27.45
76.82654	30.35
81.21044	30.85
85.59113	33.95
89.96862	32.15
94.34289	33.35
98.71396	34.55
103.08183	35.15
107.4465	37.95
111.80798	42.05
116.16626	37.95
120.52136	41.55
124.87327	38.75
129.222	36.85
133.56755	43.85
137.90993	44.45
142.24913	44.45
146.58517	45.25
150.91804	54.15
155.24774	60.55
159.57429	69.05
163.89768	83.25
168.21792	106.25
172.53501	135.05
176.84895	179.65
181.15975	251.15
185.46741	342.85
189.77193	470.05
194.07331	622.65
198.37157	813.25
202.6667	1024.95
206.9587	1237.25
211.24758	1442.25
215.53334	1654.35
219.81599	1867.55
224.09553	2085.65
228.37195	2325.35
232.64527	2563.75
236.91549	2807.65
241.18261	3012.55
245.44663	3215.75
249.70755	3380.85
253.96539	3529.85
258.22014	3604.85
262.4718	3671.75
266.72039	3676.05
270.96589	3676.75
275.20832	3609.05
279.44768	3544.75
283.68397	3474.25
287.91719	3387.95
292.14735	3332.95
296.37445	3278.15
300.59849	3261.85
304.81948	3217.05
309.03742	3196.15
313.25231	3173.25
317.46415	3136.45
321.67296	3094.35
325.87872	3056.55
330.08145	3044.85
334.28114	3030.15
338.47781	3026.95
342.67145	3065.95
346.86207	3078.15
351.04966	3111.55
355.23424	3158.85
359.4158	3196.55
363.59435	3233.75
367.76989	3266.55
371.94243	3323.65
376.11196	3342.25
380.27849	3379.15
384.44203	3412.75
388.60257	3436.95
392.76012	3492.65
396.91468	3498.65
401.06626	3542.95
405.21485	3572.95
409.36047	3581.45
413.50311	3567.95
417.64277	3552.75
421.77947	3549.75
425.9132	3560.65
430.04396	3552.85
434.17176	3590.85
438.2966	3589.25
442.41849	3614.85
446.53742	3653.05
450.6534	3683.05
454.76644	3700.35
458.87653	3717.45
462.98368	3728.35
467.08789	3749.85
471.18916	3759.45
475.2875	3785.25
479.38291	3810.25
483.4754	3843.35
487.56496	3914.05
491.6516	3993.85
495.73531	4035.35
499.81612	4032.05
503.89401	3993.95
507.96899	3938.25
512.04106	3909.55
516.11023	3883.85
520.1765	3880.45
524.23987	3884.35
528.30034	3906.05
532.35792	3905.75
536.41261	3867.95
540.46441	3841.05
544.51333	3786.95
548.55936	3757.25
552.60252	3739.05
556.64279	3711.05
560.6802	3732.35
564.71473	3748.95
568.7464	3765.25
572.7752	3803.95
576.80114	3816.05
580.82422	3847.75
584.84444	3900.15
588.86181	3980.85
592.87633	4006.05
596.888	4013.55
600.89682	3977.95
604.9028	4014.45
608.90594	4129.05
612.90624	4359.85
616.90371	4404.45
620.89834	4316.15
624.89015	4426.55
628.87913	4684.95
632.86528	4979.75
636.84862	5166.75
640.82913	5133.55
644.80683	4942.65
648.78172	4683.65
652.75379	4466.55
656.72306	4315.85
660.68952	4278.75
664.65319	4259.95
668.61405	4295.55
672.57211	4345.25
676.52738	4419.55
680.47986	4484.05
684.42955	4486.35
688.37646	4422.85
692.32058	4356.65
696.26192	4263.25
700.20048	4202.35
704.13626	4133.75
708.06928	4065.45
711.99952	3990.85
715.927	3932.25
719.85171	3905.25
723.77365	3922.55
727.69284	3902.05
731.60928	3890.25
735.52295	3838.55
739.43388	3797.35
743.34206	3793.15
747.24749	3797.95
751.15017	3827.85
755.05012	3832.75
758.94733	3854.75
762.8418	3900.15
766.73354	3970.55
770.62254	4036.95
774.50882	4072.25
778.39237	4014.45
782.27321	3899.25
786.15132	3838.85
790.02671	3790.55
793.89938	3795.95
797.76935	3819.65
801.6366	3859.35
805.50115	3953.65
809.36299	4078.05
813.22213	4124.25
817.07857	4060.85
820.93231	3929.25
824.78336	3749.55
828.63172	3652.55
832.47738	3587.25
836.32036	3557.75
840.16066	3527.15
843.99827	3510.75
847.8332	3504.55
851.66546	3487.05
855.49504	3495.55
859.32195	3490.55
863.1462	3544.35
866.96777	3574.85
870.78668	3606.75
874.60293	3684.35
878.41652	3750.15
882.22745	3813.35
886.03573	3874.45
889.84136	3874.45
893.64433	3817.85
897.44466	3713.45
901.24235	3596.95
905.0374	3506.35
908.8298	3444.45
912.61957	3410.35
916.40671	3367.05
920.19121	3359.05
923.97308	3364.85
927.75233	3369.85
931.52895	3350.75
935.30295	3357.95
939.07433	3339.05
942.84309	3308.65
946.60924	3301.25
950.37278	3286.35
954.13371	3271.85
957.89203	3264.95
961.64774	3262.15
965.40086	3247.05
969.15137	3231.25
972.89929	3206.05
976.64461	3196.25
980.38733	3184.15
984.12747	3173.35
987.86502	3180.85
991.59999	3193.65
995.33237	3209.55
999.06217	3251.95
1002.78939	3287.75
1006.51404	3319.85
1010.23611	3367.65
1013.95561	3409.75
1017.67255	3396.65
1021.38692	3399.65
1025.09872	3364.65
1028.80796	3326.45
1032.51465	3267.95
1036.21877	3237.35
1039.92035	3199.15
1043.61937	3199.35
1047.31584	3222.55
1051.00976	3215.05
1054.70114	3239.15
1058.38998	3235.55
1062.07627	3277.45
1065.76003	3292.55
1069.44126	3312.15
1073.11995	3332.15
1076.79611	3342.15
1080.46974	3320.45
1084.14085	3288.05
1087.80943	3252.65
1091.47549	3225.85
1095.13903	3185.85
1098.80005	3175.35
1102.45857	3153.85
1106.11456	3150.35
1109.76805	3160.45
1113.41903	3220.55
1117.06751	3318.45
1120.71348	3472.95
1124.35696	3665.25
1127.99793	3938.15
1131.63641	4202.55
1135.2724	4342.65
1138.90589	4377.95
1142.5369	4236.65
1146.16542	4038.45
1149.79145	3808.85
1153.415	3592.25
1157.03607	3442.05
1160.65467	3336.45
1164.27079	3299.75
1167.88443	3282.55
1171.49561	3302.45
1175.10432	3375.45
1178.71056	3465.55
1182.31434	3568.25
1185.91565	3623.55
1189.51451	3659.65
1193.11091	3677.55
1196.70485	3720.75
1200.29634	3766.75
1203.88538	3775.35
1207.47197	3759.45
1211.05612	3688.65
1214.63782	3586.55
1218.21708	3472.55
1221.79391	3373.55
1225.36829	3300.15
1228.94024	3266.85
1232.50976	3231.25
1236.07685	3214.55
1239.6415	3213.35
1243.20374	3219.05
1246.76355	3243.95
1250.32093	3255.95
1253.8759	3281.35
1257.42845	3287.65
1260.97859	3305.15
1264.52631	3312.45
1268.07163	3319.65
1271.61453	3312.15
1275.15503	3326.95
1278.69312	3322.55
1282.22882	3319.45
1285.76211	3330.25
1289.29301	3354.75
1292.82151	3393.35
1296.34761	3466.35
1299.87133	3547.35
1303.39266	3635.75
1306.9116	3755.15
1310.42815	3880.25
1313.94233	3967.05
1317.45412	4012.25
1320.96354	3987.85
1324.47058	3963.55
1327.97525	3936.45
1331.47754	3929.35
1334.97747	3943.95
1338.47502	3991.05
1341.97022	4035.95
1345.46305	4084.85
1348.95352	4158.35
1352.44163	4251.25
1355.92738	4359.75
1359.41078	4512.45
1362.89183	4651.15
1366.37053	4667.75
1369.84688	4458.55
1373.32088	4220.35
1376.79254	4056.35
1380.26186	3920.75
1383.72883	3845.35
1387.19347	3774.65
1390.65578	3718.15
1394.11575	3652.35
1397.57339	3605.85
1401.0287	3577.15
1404.48168	3558.65
1407.93234	3516.75
1411.38068	3457.85
1414.82669	3390.05
1418.27039	3318.85
1421.71177	3243.05
1425.15083	3161.55
1428.58758	3075.75
1432.02203	3031.15
1435.45416	3000.15
1438.88399	2976.15
1442.31151	2972.85
1445.73673	2958.35
1449.15965	2953.05
1452.58027	2951.45
1455.9986	2941.55
1459.41463	2950.05
1462.82837	2973.95
1466.23982	2992.15
1469.64898	3019.35
1473.05586	3033.85
1476.46045	3032.45
1479.86276	3040.35
1483.26279	3024.65
1486.66054	3043.55
1490.05602	3051.65
1493.44922	3091.05
1496.84016	3140.05
1500.22882	3194.25
1503.61521	3281.55
1506.99934	3391.15
1510.38121	3496.55
1513.76081	3539.45
1517.13816	3466.25
1520.51324	3370.35
1523.88607	3252.75
1527.25665	3185.55
1530.62498	3162.05
1533.99105	3153.35
1537.35488	3162.95
1540.71647	3184.15
1544.07581	3214.35
1547.4329	3238.35
1550.78776	3249.05
1554.14038	3252.95
1557.49077	3274.55
1560.83892	3288.75
1564.18484	3297.15
1567.52853	3317.15
1570.86999	3341.25
1574.20922	3363.55
1577.54624	3384.45
1580.88103	3372.15
1584.2136	3340.95
1587.54395	3322.35
1590.87208	3314.65
1594.19801	3340.35
1597.52172	3394.25
1600.84321	3402.15
1604.16251	3392.15
1607.47959	3366.65
1610.79447	3312.45
1614.10715	3267.95
1617.41763	3234.45
1620.7259	3193.95
1624.03199	3187.55
1627.33587	3180.65
1630.63757	3210.15
1633.93707	3256.65
1637.23439	3325.05
1640.52951	3423.65
1643.82246	3548.45
1647.11321	3693.35
1650.40179	3784.95
1653.68819	3784.45
1656.97241	3684.45
1660.25446	3559.75
1663.53433	3445.65
1666.81203	3388.65
1670.08756	3360.25
1673.36092	3326.45
1676.63211	3307.45
1679.90115	3287.05
1683.16801	3264.95
1686.43272	3193.65
1689.69527	3144.75
1692.95567	3066.05
1696.2139	2990.05
1699.46999	2881.65
1702.72392	2808.45
1705.97571	2715.05
1709.22535	2632.65
1712.47284	2578.85
1715.71819	2521.95
1718.96139	2489.65
1722.20246	2447.95
1725.44139	2433.35
1728.67818	2395.45
1731.91284	2366.35
1735.14537	2337.05
1738.37576	2315.05
1741.60403	2289.45
1744.83017	2283.45
1748.05418	2287.95
1751.27607	2291.75
1754.49584	2297.55
1757.71349	2301.85
1760.92903	2296.05
1764.14244	2264.25
1767.35375	2241.45
1770.56294	2212.55
1773.77002	2178.75
1776.97499	2139.75
1780.17785	2110.65
1783.37861	2075.75
1786.57727	2048.35
1789.77382	2016.55
1792.96828	1999.25
1796.16064	1972.35
1799.3509	1954.95
1802.53907	1937.95
1805.72514	1927.45
1808.90913	1919.85
1812.09102	1910.35
1815.27083	1897.05
1818.44856	1889.85
1821.6242	1879.65
1824.79776	1876.75
1827.96924	1872.55
1831.13864	1861.05
1834.30597	1864.25
1837.47122	1850.65
1840.6344	1838.95
1843.7955	1840.55
1846.95454	1837.35
1850.11151	1832.75
1853.26642	1820.95
1856.41926	1824.35
1859.57004	1825.05
1862.71876	1813.65
1865.86542	1813.55
1869.01003	1799.55
1872.15258	1797.95
1875.29308	1812.95
1878.43152	1802.75
1881.56792	1790.25
1884.70227	1781.35
1887.83457	1779.15
1890.96482	1772.85
1894.09304	1778.05
1897.21921	1766.55
1900.34335	1757.15
1903.46544	1753.95
1906.58551	1744.95
1909.70353	1747.55
1912.81953	1742.05
1915.93349	1745.05
1919.04543	1732.75
1922.15534	1724.25
1925.26322	1718.25
1928.36908	1709.45
1931.47292	1708.25
1934.57473	1708.15
1937.67453	1702.75
1940.77232	1696.35
1943.86808	1688.55
1946.96184	1694.65
1950.05358	1676.65
1953.14331	1670.75
1956.23103	1661.35
1959.31675	1646.25
1962.40046	1645.55
1965.48217	1646.25
1968.56188	1637.35
1971.63959	1633.35
1974.7153	1619.75
1977.78901	1603.95
1980.86073	1616.95
1983.93046	1603.15
1986.99819	1596.05
1990.06394	1589.85
1993.1277	1582.15
1996.18947	1580.15
1999.24925	1569.65
2002.30706	1574.45
2005.36288	1565.85
2008.41672	1555.15
2011.46859	1551.15
2014.51848	1540.55
2017.56639	1533.05
2020.61233	1537.05
2023.6563	1532.65
2026.6983	1521.25
2029.73833	1506.95
2032.7764	1513.25
2035.8125	1504.85
2038.84664	1509.95
2041.87881	1508.05
2044.90903	1497.15
2047.93729	1499.15
2050.96359	1482.85
2053.98794	1491.75
2057.01034	1481.65
2060.03078	1486.45
2063.04927	1473.15
2066.06582	1475.55
2069.08042	1473.35
2072.09307	1474.75
2075.10378	1471.95
2078.11255	1464.55
2081.11938	1458.55
2084.12426	1455.15
2087.12722	1459.15
2090.12824	1471.75
2093.12732	1459.35
2096.12447	1455.35
2099.11969	1448.35
2102.11299	1458.95
2105.10435	1455.95
2108.09379	1446.65
2111.08131	1449.15
2114.0669	1452.85
2117.05057	1447.85
2120.03233	1449.35
2123.01216	1447.75
2125.99008	1448.55
2128.96609	1454.65
2131.94018	1452.65
2134.91236	1452.25
2137.88263	1449.95
2140.851	1452.45
2143.81746	1445.45
2146.78201	1451.15
2149.74466	1440.95
2152.7054	1440.25
2155.66425	1442.05
2158.6212	1441.45
2161.57625	1450.65
2164.52941	1441.35
2167.48067	1434.25
2170.43004	1431.05
2173.37752	1432.05
2176.32311	1429.15
2179.26681	1421.95
2182.20863	1427.55
2185.14856	1419.95
2188.08661	1427.65
2191.02278	1419.65
2193.95707	1416.35
2196.88948	1409.25
2199.82001	1408.85
2202.74867	1397.35
2205.67545	1394.85
2208.60037	1388.95
2211.52341	1386.15
2214.44458	1386.85
2217.36388	1385.95
2220.28132	1382.25
2223.1969	1372.45
2226.11061	1375.45
2229.02246	1368.65
2231.93245	1368.95
2234.84058	1353.55
2237.74686	1354.75
2240.65128	1355.75
2243.55385	1350.85
2246.45456	1350.45
2249.35343	1344.55
2252.25044	1341.95
2255.14561	1332.35
2258.03893	1332.75
2260.93041	1341.75
2263.82004	1335.15
2266.70783	1322.35
2269.59378	1318.55
2272.4779	1313.85
2275.36017	1313.55
2278.24061	1302.75
2281.11922	1294.55
2283.996	1290.95
2286.87094	1297.95
2289.74405	1293.65
2292.61534	1280.55
2295.4848	1289.45
2298.35243	1276.55
2301.21824	1281.95
2304.08223	1274.05
2306.94439	1269.25
2309.80474	1268.75
2312.66327	1264.75
2315.51999	1263.45
2318.37489	1264.85
2321.22797	1263.55
2324.07925	1255.35
2326.92871	1263.45
2329.77637	1256.65
2332.62222	1250.15
2335.46626	1252.35
2338.3085	1234.85
2341.14893	1228.55
2343.98756	1241.75
2346.8244	1231.85
2349.65943	1227.25
2352.49267	1229.45
2355.32411	1223.75
2358.15376	1229.05
2360.98161	1214.25
2363.80768	1218.95
2366.63195	1215.85
2369.45444	1217.35
2372.27514	1216.55
2375.09405	1210.05
2377.91118	1196.05
2380.72652	1199.35
2383.54009	1197.95
2386.35187	1197.45
2389.16188	1186.35
2391.97011	1187.95
2394.77657	1187.15
2397.58125	1183.65
2400.38416	1174.95
2403.18529	1180.45
2405.98466	1185.15
2408.78226	1172.35
2411.57809	1175.85
2414.37216	1162.05
2417.16446	1172.05
2419.955	1163.75
2422.74378	1167.65
2425.5308	1157.95
2428.31606	1155.65
2431.09956	1155.85
2433.88131	1148.35
2436.6613	1155.85
2439.43954	1140.15
2442.21603	1147.45
2444.99077	1139.55
2447.76377	1132.45
2450.53501	1134.45
2453.30451	1135.45
2456.07226	1123.15
2458.83827	1120.35
2461.60254	1122.15
2464.36507	1121.75
2467.12586	1110.15
2469.88492	1118.95
2472.64224	1113.15
2475.39782	1120.65
2478.15167	1130.95
2480.90379	1113.25
2483.65417	1107.05
2486.40283	1106.35
2489.14976	1110.85
2491.89497	1112.05
2494.63845	1106.35
2497.3802	1098.95
2500.12024	1093.55
2502.85855	1089.25
2505.59514	1088.35
2508.33002	1093.55
2511.06318	1092.25
2513.79462	1088.45
2516.52435	1083.15
2519.25237	1077.15
2521.97867	1075.65
2524.70327	1079.05
2527.42616	1076.75
2530.14734	1068.95
2532.86681	1072.95
2535.58458	1066.05
2538.30065	1060.75
2541.01501	1062.55
2543.72768	1058.25
2546.43864	1053.95
2549.14791	1046.85
2551.85548	1049.95
2554.56136	1049.25
2557.26554	1046.45
2559.96803	1038.85
2562.66883	1038.15
2565.36794	1033.85
2568.06536	1039.65
2570.7611	1038.05
2573.45514	1032.85
2576.14751	1027.35
2578.83819	1027.75
2581.52719	1024.35
2584.21451	1017.25
2586.90015	1016.65
2589.58411	1013.25
2592.2664	1009.95
2594.94701	1006.05
2597.62594	1001.75
2600.30321	999.05
2602.9788	1001.95
2605.65273	998.95
2608.32498	999.85
2610.99557	991.85
2613.66449	994.55
2616.33175	988.45
2618.99734	988.55
2621.66128	980.95
2624.32355	981.15
2626.98416	988.35
2629.64311	984.85
2632.30041	983.65
2634.95605	979.65
2637.61004	970.85
2640.26238	972.45
2642.91306	965.45
2645.56209	970.35
2648.20948	970.25
2650.85521	970.05
2653.4993	972.35
2656.14175	969.25
2658.78255	962.25
2661.42171	960.55
2664.05923	960.65
2666.6951	963.25
2669.32934	957.85
2671.96194	967.05
2674.59291	961.55
2677.22224	958.95
2679.84993	959.85
2682.476	964.55
2685.10043	960.25
2687.72324	953.45
2690.34441	957.05
2692.96396	958.95
2695.58188	957.85
2698.19818	956.45
2700.81285	966.75
2703.4259	967.35
2706.03733	987.55
2708.64714	976.25
2711.25533	961.65
2713.86191	961.85
2716.46687	963.25
2719.07021	961.45
2721.67194	957.55
2724.27206	952.05
2726.87057	961.05
2729.46747	955.45
2732.06276	954.85
2734.65644	952.35
2737.24852	952.25
2739.83899	954.75
2742.42786	949.05
2745.01513	944.15
2747.60079	942.45
2750.18486	943.25
2752.76733	934.95
2755.3482	934.95
2757.92747	939.55
2760.50515	942.65
2763.08123	929.35
2765.65573	930.85
2768.22863	930.95
2770.79994	927.75
2773.36967	922.25
2775.9378	924.65
2778.50435	926.25
2781.06932	914.55
2783.6327	917.65
2786.1945	914.65
2788.75471	921.65
2791.31335	920.35
2793.87041	918.75
2796.42589	910.35
2798.97979	906.55
2801.53212	911.55
2804.08288	906.45
2806.63206	906.25
2809.17967	902.45
2811.72571	904.65
2814.27018	902.75
2816.81308	904.95
2819.35442	900.75
2821.89419	901.55
2824.43239	902.85
2826.96904	902.05
2829.50412	894.45
2832.03763	900.25
2834.56959	900.75
2837.1	897.85
2839.62884	899.45
2842.15613	900.55
2844.68186	897.05
2847.20604	905.55
2849.72867	898.15
2852.24974	905.85
2854.76927	895.85
2857.28724	905.55
2859.80367	904.45
2862.31855	894.85
2864.83189	898.25
2867.34368	895.55
2869.85393	893.35
2872.36264	892.55
2874.8698	903.55
2877.37543	901.55
2879.87952	902.55
2882.38207	909.15
2884.88308	906.85
2887.38256	910.15
2889.88051	911.75
2892.37692	911.75
2894.8718	914.65
2897.36515	912.85
2899.85698	926.75
2902.34727	929.85
2904.83604	925.05
2907.32328	936.85
2909.809	936.55
2912.29319	938.45
2914.77587	941.55
2917.25702	946.35
2919.73665	948.05
2922.21476	951.15
2924.69136	957.75
2927.16644	952.25
2929.64	958.15
2932.11205	964.15
2934.58258	961.15
2937.05161	969.95
2939.51912	960.65
2941.98513	967.85
2944.44962	972.35
2946.91261	963.55
2949.37409	976.05
2951.83407	969.55
2954.29254	975.25
2956.74951	963.85
2959.20498	963.95
2961.65895	956.55
2964.11142	950.25
2966.56239	939.25
2969.01186	941.65
2971.45984	937.55
2973.90632	927.55
2976.35131	918.45
2978.7948	923.25
2981.23681	920.15
2983.67732	911.35
2986.11635	912.05
2988.55388	906.05
2990.98993	909.15
2993.4245	906.15
2995.85758	907.15
2998.28917	908.15
3000.71928	913.25
3003.14791	907.65
3005.57506	908.15
3008.00073	899.75
3010.42493	910.55
3012.84764	908.45
3015.26888	908.05
3017.68865	916.25
3020.10694	908.35
3022.52376	905.25
3024.9391	911.65
3027.35298	907.85
3029.76539	907.35
3032.17632	916.85
3034.5858	903.25
3036.9938	903.15
3039.40034	907.15
3041.80542	907.75
3044.20903	910.95
3046.61118	903.95
3049.01187	903.15
3051.4111	904.25
3053.80888	908.85
3056.20519	913.45
3058.60005	915.55
3060.99345	911.75
3063.3854	919.25
3065.7759	912.75
3068.16494	916.35
3070.55254	919.75
3072.93868	913.35
3075.32338	922.25
3077.70662	921.45
3080.08842	923.85
3082.46878	935.05
3084.84769	939.95
3087.22515	947.85
3089.60118	939.55
3091.97576	948.25
3094.3489	946.85
3096.72061	957.45
3099.09087	958.85
3101.4597	963.15
3103.82709	963.15
3106.19305	964.95
3108.55757	973.35
3110.92066	985.05
3113.28232	981.65
3115.64255	984.75
3118.00134	989.75
3120.35871	991.65
3122.71466	1001.65
3125.06917	1004.25
3127.42226	1003.75
3129.77393	1015.85
3132.12417	1018.25
3134.47299	1028.05
3136.82039	1026.85
3139.16636	1028.75
3141.51092	1044.65
3143.85406	1044.85
3146.19579	1061.85
3148.53609	1068.65
3150.87499	1074.25
3153.21246	1078.05
3155.54853	1091.65
3157.88318	1094.45
3160.21642	1100.45
3162.54826	1099.65
3164.87868	1106.35
3167.2077	1121.95
3169.5353	1127.85
3171.86151	1133.05
3174.18631	1129.35
3176.5097	1139.25
3178.83169	1148.15
3181.15228	1144.25
3183.47147	1159.95
3185.78926	1165.45
3188.10565	1171.45
3190.42065	1170.95
3192.73424	1178.85
3195.04645	1183.25
3197.35725	1178.55
3199.66667	1191.85
3201.97469	1194.35
3204.28132	1208.75
3206.58656	1214.15
3208.8904	1210.55
3211.19287	1218.15
3213.49394	1221.45
3215.79363	1235.75
3218.09193	1233.45
3220.38884	1228.75
3222.68438	1240.15
3224.97853	1239.35
3227.2713	1236.25
3229.56269	1245.05
3231.8527	1239.05
3234.14133	1238.05
3236.42858	1241.05
3238.71446	1236.95
3240.99896	1229.15
3243.28209	1244.05
3245.56384	1243.55
3247.84423	1244.55
3250.12324	1248.95
3252.40088	1247.35
3254.67715	1247.85
3256.95205	1243.55
3259.22558	1246.85
3261.49775	1238.35
3263.76855	1244.75
3266.03799	1258.15
3268.30606	1240.45
3270.57277	1244.85
3272.83812	1247.45
3275.10211	1234.15
3277.36474	1252.15
3279.62601	1246.25
3281.88593	1242.35
3284.14448	1252.05
3286.40168	1239.45
3288.65753	1245.55
3290.91202	1241.25
3293.16516	1236.85
3295.41695	1233.25
3297.66738	1234.25
3299.91647	1219.45
3302.16421	1220.25
3304.4106	1220.15
3306.65564	1215.75
3308.89933	1213.35
3311.14169	1199.55
3313.38269	1200.85
3315.62236	1192.55
3317.86068	1182.45
3320.09766	1176.25
3322.3333	1169.65
3324.5676	1172.95
3326.80056	1161.25
3329.03219	1142.05
3331.26248	-0.45
3333.49143	0.35
3335.71905	0.05
