Data from AgNPs_FTO_APTES_UA_0.1mM_CRN_20uM_NaF_0.1M_Addition_RamanShift__0__11-56-57-576.txt Node

Date: Mon Dec 20 11:56:57 GMT 2021
User: TCL
Spectrometer: QEP01345
Trigger mode: 4
Integration Time (sec): 7.000000E0
Scans to average: 10
Electric dark correction enabled: true
Nonlinearity correction enabled: false
Boxcar width: 0
XAxis mode: Raman Shifts
Number of Pixels in Spectrum: 1044
>>>>>Begin Spectral Data<<<<<
46.04893	-0.05
50.45542	0.75
54.85868	-1.25
59.25871	1.65
63.6555	12.85
68.04907	14.65
72.43941	16.25
76.82654	15.25
81.21044	13.45
85.59113	16.35
89.96862	15.75
94.34289	19.35
98.71396	16.55
103.08183	16.15
107.4465	18.55
111.80798	21.15
116.16626	18.75
120.52136	20.05
124.87327	22.85
129.222	19.25
133.56755	22.35
137.90993	25.95
142.24913	24.35
146.58517	22.75
150.91804	28.95
155.24774	36.95
159.57429	41.75
163.89768	56.55
168.21792	74.25
172.53501	93.35
176.84895	131.85
181.15975	176.25
185.46741	248.35
189.77193	339.15
194.07331	456.25
198.37157	584.95
202.6667	730.75
206.9587	864.75
211.24758	999.55
215.53334	1139.05
219.81599	1289.95
224.09553	1455.95
228.37195	1642.85
232.64527	1842.55
236.91549	2052.55
241.18261	2237.75
245.44663	2422.65
249.70755	2563.55
253.96539	2699.85
258.22014	2805.85
262.4718	2873.05
266.72039	2916.25
270.96589	2939.85
275.20832	2928.95
279.44768	2894.05
283.68397	2854.35
287.91719	2805.55
292.14735	2774.35
296.37445	2746.25
300.59849	2755.05
304.81948	2765.05
309.03742	2782.85
313.25231	2754.45
317.46415	2728.05
321.67296	2656.75
325.87872	2611.95
330.08145	2574.65
334.28114	2574.45
338.47781	2563.65
342.67145	2582.35
346.86207	2622.65
351.04966	2664.25
355.23424	2720.65
359.4158	2776.95
363.59435	2804.85
367.76989	2841.85
371.94243	2876.25
376.11196	2890.35
380.27849	2912.75
384.44203	2944.85
388.60257	2956.95
392.76012	2993.25
396.91468	3017.85
401.06626	3053.15
405.21485	3110.95
409.36047	3144.25
413.50311	3156.95
417.64277	3191.95
421.77947	3310.85
425.9132	3448.95
430.04396	3558.25
434.17176	3572.05
438.2966	3494.55
442.41849	3383.25
446.53742	3337.25
450.6534	3350.65
454.76644	3344.05
458.87653	3321.15
462.98368	3275.45
467.08789	3229.05
471.18916	3194.75
475.2875	3192.65
479.38291	3221.15
483.4754	3289.45
487.56496	3381.25
491.6516	3466.85
495.73531	3493.85
499.81612	3489.05
503.89401	3431.95
507.96899	3365.95
512.04106	3303.35
516.11023	3276.45
520.1765	3265.55
524.23987	3273.65
528.30034	3261.75
532.35792	3282.45
536.41261	3255.85
540.46441	3197.65
544.51333	3166.25
548.55936	3124.35
552.60252	3133.75
556.64279	3155.05
560.6802	3154.45
564.71473	3161.45
568.7464	3193.85
572.7752	3218.15
576.80114	3223.75
580.82422	3257.45
584.84444	3313.55
588.86181	3411.15
592.87633	3489.65
596.888	3541.65
600.89682	3515.95
604.9028	3539.15
608.90594	3755.45
612.90624	4054.95
616.90371	4004.75
620.89834	3621.05
624.89015	3513.85
628.87913	3664.65
632.86528	3867.55
636.84862	4028.65
640.82913	4011.25
644.80683	3861.05
648.78172	3662.75
652.75379	3486.25
656.72306	3387.45
660.68952	3308.45
664.65319	3241.65
668.61405	3160.05
672.57211	3145.45
676.52738	3149.65
680.47986	3168.65
684.42955	3189.85
688.37646	3205.55
692.32058	3239.25
696.26192	3296.85
700.20048	3407.55
704.13626	3515.55
708.06928	3581.65
711.99952	3504.15
715.927	3400.75
719.85171	3330.45
723.77365	3302.95
727.69284	3263.15
731.60928	3220.25
735.52295	3176.35
739.43388	3146.45
743.34206	3112.55
747.24749	3117.35
751.15017	3101.65
755.05012	3090.95
758.94733	3137.15
762.8418	3228.75
766.73354	3361.45
770.62254	3514.05
774.50882	3584.45
778.39237	3497.95
782.27321	3325.35
786.15132	3172.35
790.02671	3069.65
793.89938	3028.95
797.76935	3047.25
801.6366	3067.55
805.50115	3143.15
809.36299	3229.35
813.22213	3282.15
817.07857	3263.85
820.93231	3183.35
824.78336	3092.25
828.63172	3002.05
832.47738	2967.45
836.32036	2949.55
840.16066	2941.55
843.99827	2927.95
847.8332	2922.55
851.66546	2919.45
855.49504	2916.95
859.32195	2927.45
863.1462	2923.65
866.96777	2946.75
870.78668	2974.15
874.60293	3033.15
878.41652	3072.15
882.22745	3145.05
886.03573	3194.45
889.84136	3212.45
893.64433	3171.75
897.44466	3104.65
901.24235	3006.95
905.0374	2928.95
908.8298	2888.45
912.61957	2870.05
916.40671	2851.65
920.19121	2856.75
923.97308	2846.85
927.75233	2836.85
931.52895	2828.75
935.30295	2809.55
939.07433	2779.45
942.84309	2756.25
946.60924	2730.75
950.37278	2716.65
954.13371	2712.55
957.89203	2712.75
961.64774	2700.75
965.40086	2690.65
969.15137	2694.75
972.89929	2674.45
976.64461	2673.05
980.38733	2663.75
984.12747	2649.75
987.86502	2674.75
991.59999	2689.95
995.33237	2712.85
999.06217	2742.45
1002.78939	2783.25
1006.51404	2814.35
1010.23611	2863.85
1013.95561	2892.35
1017.67255	2900.75
1021.38692	2894.75
1025.09872	2863.95
1028.80796	2836.35
1032.51465	2806.05
1036.21877	2785.85
1039.92035	2768.15
1043.61937	2761.25
1047.31584	2741.25
1051.00976	2745.95
1054.70114	2752.35
1058.38998	2758.35
1062.07627	2760.65
1065.76003	2812.25
1069.44126	2827.05
1073.11995	2870.75
1076.79611	2914.85
1080.46974	2917.65
1084.14085	2923.05
1087.80943	2920.65
1091.47549	2908.95
1095.13903	2894.75
1098.80005	2880.75
1102.45857	2844.05
1106.11456	2842.55
1109.76805	2861.25
1113.41903	2914.65
1117.06751	3016.45
1120.71348	3160.85
1124.35696	3358.95
1127.99793	3557.05
1131.63641	3747.35
1135.2724	3817.05
1138.90589	3765.45
1142.5369	3647.55
1146.16542	3468.55
1149.79145	3291.25
1153.415	3128.05
1157.03607	3021.15
1160.65467	2954.35
1164.27079	2958.75
1167.88443	2983.85
1171.49561	3077.15
1175.10432	3186.45
1178.71056	3367.25
1182.31434	3527.65
1185.91565	3593.35
1189.51451	3572.85
1193.11091	3528.15
1196.70485	3493.55
1200.29634	3484.25
1203.88538	3486.85
1207.47197	3449.05
1211.05612	3395.25
1214.63782	3334.65
1218.21708	3260.45
1221.79391	3208.25
1225.36829	3168.55
1228.94024	3142.45
1232.50976	3108.35
1236.07685	3096.85
1239.6415	3128.45
1243.20374	3179.85
1246.76355	3243.45
1250.32093	3334.45
1253.8759	3437.65
1257.42845	3525.35
1260.97859	3608.25
1264.52631	3652.55
1268.07163	3661.35
1271.61453	3644.75
1275.15503	3600.25
1278.69312	3539.85
1282.22882	3476.15
1285.76211	3473.55
1289.29301	3499.45
1292.82151	3527.75
1296.34761	3605.65
1299.87133	3713.85
1303.39266	3833.55
1306.9116	3971.05
1310.42815	4166.15
1313.94233	4278.55
1317.45412	4258.05
1320.96354	4160.55
1324.47058	4147.75
1327.97525	4106.65
1331.47754	3868.75
1334.97747	3798.85
1338.47502	3750.45
1341.97022	3766.95
1345.46305	3784.05
1348.95352	3876.15
1352.44163	4000.95
1355.92738	4206.55
1359.41078	4499.55
1362.89183	4767.65
1366.37053	4813.45
1369.84688	4505.15
1373.32088	4102.05
1376.79254	3903.35
1380.26186	3862.75
1383.72883	3971.65
1387.19347	4101.95
1390.65578	4012.65
1394.11575	3788.85
1397.57339	3584.15
1401.0287	3455.35
1404.48168	3361.15
1407.93234	3285.25
1411.38068	3197.85
1414.82669	3113.75
1418.27039	3014.35
1421.71177	2934.45
1425.15083	2864.55
1428.58758	2838.85
1432.02203	2829.15
1435.45416	2861.05
1438.88399	2872.95
1442.31151	2894.55
1445.73673	3003.05
1449.15965	3037.45
1452.58027	2915.55
1455.9986	2875.85
1459.41463	2872.85
1462.82837	2892.25
1466.23982	2922.15
1469.64898	2946.15
1473.05586	2978.05
1476.46045	2994.25
1479.86276	3008.25
1483.26279	3028.35
1486.66054	3055.25
1490.05602	3088.05
1493.44922	3138.35
1496.84016	3213.55
1500.22882	3328.95
1503.61521	3501.65
1506.99934	3671.15
1510.38121	3843.95
1513.76081	3899.15
1517.13816	3802.05
1520.51324	3605.55
1523.88607	3416.65
1527.25665	3298.85
1530.62498	3259.05
1533.99105	3243.75
1537.35488	3248.75
1540.71647	3232.55
1544.07581	3226.65
1547.4329	3198.55
1550.78776	3189.25
1554.14038	3169.15
1557.49077	3181.05
1560.83892	3189.45
1564.18484	3226.55
1567.52853	3249.85
1570.86999	3300.15
1574.20922	3321.35
1577.54624	3331.95
1580.88103	3304.35
1584.2136	3263.95
1587.54395	3254.25
1590.87208	3315.85
1594.19801	3421.35
1597.52172	3588.45
1600.84321	3654.55
1604.16251	3580.55
1607.47959	3437.95
1610.79447	3302.75
1614.10715	3203.85
1617.41763	3147.95
1620.7259	3136.15
1624.03199	3166.25
1627.33587	3233.25
1630.63757	3363.15
1633.93707	3543.85
1637.23439	3772.75
1640.52951	4116.45
1643.82246	4503.25
1647.11321	4910.55
1650.40179	5229.25
1653.68819	5377.75
1656.97241	5160.75
1660.25446	4853.55
1663.53433	4602.35
1666.81203	4336.95
1670.08756	4054.45
1673.36092	3793.05
1676.63211	3550.65
1679.90115	3402.45
1683.16801	3356.05
1686.43272	3329.75
1689.69527	3432.65
1692.95567	3772.85
1696.2139	4348.55
1699.46999	4955.65
1702.72392	4985.45
1705.97571	4364.55
1709.22535	3604.75
1712.47284	3070.75
1715.71819	2748.05
1718.96139	2567.75
1722.20246	2456.45
1725.44139	2391.25
1728.67818	2349.05
1731.91284	2328.15
1735.14537	2315.35
1738.37576	2322.15
1741.60403	2361.15
1744.83017	2435.05
1748.05418	2528.55
1751.27607	2708.35
1754.49584	3036.45
1757.71349	3444.75
1760.92903	3659.75
1764.14244	3621.55
1767.35375	3569.65
1770.56294	3552.45
1773.77002	3386.55
1776.97499	2983.85
1780.17785	2610.55
1783.37861	2375.65
1786.57727	2235.25
1789.77382	2134.25
1792.96828	2096.15
1796.16064	2066.75
1799.3509	2025.75
1802.53907	2012.75
1805.72514	1985.85
1808.90913	1960.95
1812.09102	1968.75
1815.27083	1956.05
1818.44856	1934.85
1821.6242	1915.25
1824.79776	1907.25
1827.96924	1920.15
1831.13864	1897.45
1834.30597	1894.15
1837.47122	1892.55
1840.6344	1890.35
1843.7955	1881.15
1846.95454	1878.95
1850.11151	1877.35
1853.26642	1879.65
1856.41926	1876.05
1859.57004	1861.55
1862.71876	1858.45
1865.86542	1859.05
1869.01003	1853.25
1872.15258	1847.75
1875.29308	1853.95
1878.43152	1830.35
1881.56792	1834.75
1884.70227	1831.55
1887.83457	1828.65
1890.96482	1829.65
1894.09304	1832.45
1897.21921	1825.35
1900.34335	1827.35
1903.46544	1805.35
1906.58551	1827.95
1909.70353	1812.95
1912.81953	1802.45
1915.93349	1797.25
1919.04543	1803.45
1922.15534	1791.45
1925.26322	1793.85
1928.36908	1778.05
1931.47292	1783.25
1934.57473	1774.35
1937.67453	1762.05
1940.77232	1769.45
1943.86808	1771.85
1946.96184	1771.55
1950.05358	1753.85
1953.14331	1739.75
1956.23103	1731.65
1959.31675	1749.35
1962.40046	1734.35
1965.48217	1719.15
1968.56188	1720.55
1971.63959	1714.55
1974.7153	1693.25
1977.78901	1697.55
1980.86073	1693.05
1983.93046	1689.65
1986.99819	1677.15
1990.06394	1675.55
1993.1277	1673.35
1996.18947	1660.65
1999.24925	1663.35
2002.30706	1657.45
2005.36288	1649.65
2008.41672	1647.15
2011.46859	1651.35
2014.51848	1631.85
2017.56639	1620.25
2020.61233	1630.65
2023.6563	1612.05
2026.6983	1618.85
2029.73833	1611.95
2032.7764	1615.95
2035.8125	1599.25
2038.84664	1598.25
2041.87881	1601.55
2044.90903	1600.25
2047.93729	1585.95
2050.96359	1589.75
2053.98794	1621.45
2057.01034	1603.55
2060.03078	1586.55
2063.04927	1583.95
2066.06582	1572.15
2069.08042	1573.95
2072.09307	1577.65
2075.10378	1579.35
2078.11255	1572.75
2081.11938	1563.95
2084.12426	1569.45
2087.12722	1567.55
2090.12824	1568.35
2093.12732	1562.25
2096.12447	1569.55
2099.11969	1560.55
2102.11299	1566.75
2105.10435	1554.75
2108.09379	1558.75
2111.08131	1556.15
2114.0669	1564.45
2117.05057	1564.75
2120.03233	1564.35
2123.01216	1555.05
2125.99008	1558.65
2128.96609	1560.15
2131.94018	1562.25
2134.91236	1565.45
2137.88263	1564.55
2140.851	1564.55
2143.81746	1560.85
2146.78201	1564.75
2149.74466	1555.25
2152.7054	1562.55
2155.66425	1559.85
2158.6212	1556.35
2161.57625	1550.15
2164.52941	1553.65
2167.48067	1555.55
2170.43004	1551.15
2173.37752	1543.25
2176.32311	1545.85
2179.26681	1542.75
2182.20863	1549.15
2185.14856	1541.05
2188.08661	1543.85
2191.02278	1545.45
2193.95707	1540.55
2196.88948	1536.15
2199.82001	1536.15
2202.74867	1527.35
2205.67545	1526.95
2208.60037	1529.05
2211.52341	1523.55
2214.44458	1524.85
2217.36388	1509.45
2220.28132	1503.15
2223.1969	1504.95
2226.11061	1500.65
2229.02246	1496.45
2231.93245	1499.25
2234.84058	1491.75
2237.74686	1496.05
2240.65128	1495.55
2243.55385	1487.25
2246.45456	1486.25
2249.35343	1476.35
2252.25044	1482.65
2255.14561	1481.05
2258.03893	1560.05
2260.93041	1713.05
2263.82004	1586.45
2266.70783	1519.35
2269.59378	1494.55
2272.4779	1466.85
2275.36017	1459.85
2278.24061	1453.65
2281.11922	1452.05
2283.996	1444.85
2286.87094	1440.45
2289.74405	1439.65
2292.61534	1431.55
2295.4848	1441.75
2298.35243	1431.35
2301.21824	1432.25
2304.08223	1429.05
2306.94439	1437.55
2309.80474	1432.95
2312.66327	1436.75
2315.51999	1435.95
2318.37489	1437.45
2321.22797	1440.55
2324.07925	1437.05
2326.92871	1445.15
2329.77637	1451.65
2332.62222	1444.75
2335.46626	1449.65
2338.3085	1448.75
2341.14893	1445.65
2343.98756	1453.45
2346.8244	1437.35
2349.65943	1432.35
2352.49267	1421.45
2355.32411	1419.25
2358.15376	1401.45
2360.98161	1402.15
2363.80768	1396.95
2366.63195	1389.65
2369.45444	1392.35
2372.27514	1376.25
2375.09405	1383.45
2377.91118	1377.95
2380.72652	1370.25
2383.54009	1373.55
2386.35187	1374.85
2389.16188	1367.95
2391.97011	1361.95
2394.77657	1361.65
2397.58125	1349.85
2400.38416	1357.05
2403.18529	1367.25
2405.98466	1365.05
2408.78226	1368.45
2411.57809	1356.65
2414.37216	1355.65
2417.16446	1367.75
2419.955	1350.75
2422.74378	1339.55
2425.5308	1340.95
2428.31606	1340.85
2431.09956	1319.45
2433.88131	1332.25
2436.6613	1320.25
2439.43954	1324.25
2442.21603	1322.45
2444.99077	1314.15
2447.76377	1313.85
2450.53501	1312.95
2453.30451	1313.85
2456.07226	1310.15
2458.83827	1305.85
2461.60254	1302.85
2464.36507	1296.75
2467.12586	1296.05
2469.88492	1300.05
2472.64224	1311.35
2475.39782	1419.85
2478.15167	1478.15
2480.90379	1370.45
2483.65417	1340.25
2486.40283	1326.75
2489.14976	1315.55
2491.89497	1315.25
2494.63845	1448.45
2497.3802	1501.65
2500.12024	1374.25
2502.85855	1337.45
2505.59514	1324.05
2508.33002	1298.15
2511.06318	1286.15
2513.79462	1277.45
2516.52435	1276.85
2519.25237	1270.55
2521.97867	1269.55
2524.70327	1258.05
2527.42616	1258.05
2530.14734	1264.95
2532.86681	1258.05
2535.58458	1262.65
2538.30065	1262.65
2541.01501	1248.55
2543.72768	1252.85
2546.43864	1252.95
2549.14791	1247.95
2551.85548	1243.95
2554.56136	1238.55
2557.26554	1231.15
2559.96803	1235.35
2562.66883	1228.65
2565.36794	1228.35
2568.06536	1222.85
2570.7611	1228.35
2573.45514	1210.45
2576.14751	1229.95
2578.83819	1217.15
2581.52719	1224.05
2584.21451	1215.75
2586.90015	1213.95
2589.58411	1214.95
2592.2664	1206.95
2594.94701	1205.25
2597.62594	1205.85
2600.30321	1199.85
2602.9788	1198.15
2605.65273	1198.35
2608.32498	1190.35
2610.99557	1185.15
2613.66449	1180.15
2616.33175	1185.85
2618.99734	1183.05
2621.66128	1190.45
2624.32355	1197.65
2626.98416	1189.15
2629.64311	1181.25
2632.30041	1183.05
2634.95605	1174.35
2637.61004	1176.95
2640.26238	1164.75
2642.91306	1166.15
2645.56209	1183.45
2648.20948	1223.85
2650.85521	1189.55
2653.4993	1163.85
2656.14175	1168.25
2658.78255	1164.45
2661.42171	1164.65
2664.05923	1152.35
2666.6951	1155.55
2669.32934	1153.85
2671.96194	1146.55
2674.59291	1157.95
2677.22224	1166.45
2679.84993	1158.35
2682.476	1156.45
2685.10043	1157.25
2687.72324	1150.05
2690.34441	1154.45
2692.96396	1158.25
2695.58188	1159.55
2698.19818	1166.25
2700.81285	1199.35
2703.4259	1477.75
2706.03733	2111.25
2708.64714	1709.35
2711.25533	1427.75
2713.86191	1339.65
2716.46687	1305.25
2719.07021	1251.35
2721.67194	1197.25
2724.27206	1166.85
2726.87057	1169.85
2729.46747	1157.95
2732.06276	1163.35
2734.65644	1153.65
2737.24852	1149.15
2739.83899	1147.25
2742.42786	1146.45
2745.01513	1152.85
2747.60079	1146.95
2750.18486	1149.55
2752.76733	1146.55
2755.3482	1142.85
2757.92747	1141.95
2760.50515	1142.15
2763.08123	1138.65
2765.65573	1130.25
2768.22863	1133.95
2770.79994	1135.15
2773.36967	1140.65
2775.9378	1131.65
2778.50435	1128.25
2781.06932	1122.35
2783.6327	1132.25
2786.1945	1121.75
2788.75471	1121.25
2791.31335	1130.35
2793.87041	1126.55
2796.42589	1121.15
2798.97979	1109.75
2801.53212	1112.05
2804.08288	1115.05
2806.63206	1116.45
2809.17967	1104.85
2811.72571	1105.25
2814.27018	1104.65
2816.81308	1102.25
2819.35442	1099.45
2821.89419	1096.75
2824.43239	1096.55
2826.96904	1099.55
2829.50412	1093.05
2832.03763	1101.15
2834.56959	1098.05
2837.1	1097.65
2839.62884	1097.05
2842.15613	1092.85
2844.68186	1098.05
2847.20604	1096.05
2849.72867	1101.85
2852.24974	1117.55
2854.76927	1246.25
2857.28724	1409.85
2859.80367	1259.55
2862.31855	1191.55
2864.83189	1175.45
2867.34368	1149.55
2869.85393	1132.65
2872.36264	1111.65
2874.8698	1111.55
2877.37543	1101.95
2879.87952	1102.05
2882.38207	1095.75
2884.88308	1094.65
2887.38256	1093.95
2889.88051	1096.35
2892.37692	1094.65
2894.8718	1099.75
2897.36515	1097.55
2899.85698	1094.45
2902.34727	1095.35
2904.83604	1093.15
2907.32328	1096.45
2909.809	1094.45
2912.29319	1089.15
2914.77587	1088.85
2917.25702	1091.95
2919.73665	1100.45
2922.21476	1094.35
2924.69136	1091.35
2927.16644	1090.55
2929.64	1092.65
2932.11205	1094.35
2934.58258	1086.95
2937.05161	1092.15
2939.51912	1086.65
2941.98513	1080.55
2944.44962	1086.05
2946.91261	1078.55
2949.37409	1082.15
2951.83407	1083.35
2954.29254	1079.15
2956.74951	1071.85
2959.20498	1075.15
2961.65895	1076.05
2964.11142	1072.15
2966.56239	1068.35
2969.01186	1075.35
2971.45984	1067.05
2973.90632	1057.75
2976.35131	1055.85
2978.7948	1063.55
2981.23681	1057.55
2983.67732	1061.15
2986.11635	1053.35
2988.55388	1057.85
2990.98993	1050.95
2993.4245	1057.25
2995.85758	1053.25
2998.28917	1046.45
3000.71928	1045.05
3003.14791	1041.05
3005.57506	1048.15
3008.00073	1041.65
3010.42493	1047.55
3012.84764	1039.35
3015.26888	1042.45
3017.68865	1039.25
3020.10694	1041.75
3022.52376	1034.95
3024.9391	1040.15
3027.35298	1042.75
3029.76539	1037.35
3032.17632	1035.95
3034.5858	1035.45
3036.9938	1038.65
3039.40034	1037.95
3041.80542	1039.85
3044.20903	1037.55
3046.61118	1036.35
3049.01187	1029.15
3051.4111	1032.55
3053.80888	1043.15
3056.20519	1033.15
3058.60005	1030.45
3060.99345	1038.65
3063.3854	1025.75
3065.7759	1029.75
3068.16494	1030.55
3070.55254	1036.45
3072.93868	1036.45
3075.32338	1036.85
3077.70662	1029.85
3080.08842	1036.45
3082.46878	1037.45
3084.84769	1036.95
3087.22515	1029.45
3089.60118	1034.45
3091.97576	1036.15
3094.3489	1041.55
3096.72061	1039.95
3099.09087	1041.95
3101.4597	1033.55
3103.82709	1034.55
3106.19305	1039.65
3108.55757	1040.15
3110.92066	1046.15
3113.28232	1034.05
3115.64255	1034.95
3118.00134	1043.05
3120.35871	1034.75
3122.71466	1041.45
3125.06917	1042.25
3127.42226	1037.15
3129.77393	1047.55
3132.12417	1042.65
3134.47299	1049.85
3136.82039	1053.05
3139.16636	1056.25
3141.51092	1051.85
3143.85406	1063.95
3146.19579	1069.05
3148.53609	1074.65
3150.87499	1071.95
3153.21246	1078.05
3155.54853	1073.45
3157.88318	1080.55
3160.21642	1083.25
3162.54826	1078.25
3164.87868	1083.45
3167.2077	1085.75
3169.5353	1091.45
3171.86151	1087.55
3174.18631	1091.65
3176.5097	1087.35
3178.83169	1091.45
3181.15228	1090.15
3183.47147	1091.35
3185.78926	1098.35
3188.10565	1097.05
3190.42065	1093.55
3192.73424	1101.65
3195.04645	1099.35
3197.35725	1101.75
3199.66667	1101.15
3201.97469	1111.85
3204.28132	1113.15
3206.58656	1106.45
3208.8904	1119.05
3211.19287	1111.05
3213.49394	1124.15
3215.79363	1114.55
3218.09193	1132.45
3220.38884	1266.25
3222.68438	1414.45
3224.97853	1268.85
3227.2713	1202.45
3229.56269	1181.85
3231.8527	1164.35
3234.14133	1158.85
3236.42858	1146.15
3238.71446	1133.65
3240.99896	1120.25
3243.28209	1114.65
3245.56384	1114.75
3247.84423	1116.35
3250.12324	1114.15
3252.40088	1113.95
3254.67715	1111.35
3256.95205	1110.65
3259.22558	1108.25
3261.49775	1106.05
3263.76855	1101.75
3266.03799	1101.15
3268.30606	1103.15
3270.57277	1098.35
3272.83812	1098.05
3275.10211	1097.65
3277.36474	1097.05
3279.62601	1092.25
3281.88593	1101.05
3284.14448	1101.75
3286.40168	1096.15
3288.65753	1092.15
3290.91202	1095.85
3293.16516	1092.85
3295.41695	1082.45
3297.66738	1082.95
3299.91647	1076.55
3302.16421	1066.35
3304.4106	1067.75
3306.65564	1068.55
3308.89933	1064.65
3311.14169	1107.55
3313.38269	1185.05
3315.62236	1129.95
3317.86068	1077.65
3320.09766	1056.75
3322.3333	1049.75
3324.5676	1149.35
3326.80056	1311.75
3329.03219	1193.45
3331.26248	-1.25
3333.49143	1.25
3335.71905	-0.55
