Data from AgNPs_FTO_APTES_UA_0.1mM_CRN_500uM_NaF_0.1M_Addition_RamanShift__8__14-43-47-764.txt Node

Date: Mon Dec 20 14:43:47 GMT 2021
User: TCL
Spectrometer: QEP01345
Trigger mode: 4
Integration Time (sec): 7.000000E0
Scans to average: 10
Electric dark correction enabled: true
Nonlinearity correction enabled: false
Boxcar width: 0
XAxis mode: Raman Shifts
Number of Pixels in Spectrum: 1044
>>>>>Begin Spectral Data<<<<<
46.04893	0.125
50.45542	0.725
54.85868	-1.275
59.25871	-0.175
63.6555	22.225
68.04907	25.825
72.43941	29.225
76.82654	30.625
81.21044	32.625
85.59113	33.625
89.96862	32.925
94.34289	34.825
98.71396	35.425
103.08183	38.325
107.4465	39.525
111.80798	39.025
116.16626	38.025
120.52136	39.025
124.87327	43.425
129.222	37.925
133.56755	40.125
137.90993	43.225
142.24913	45.425
146.58517	46.925
150.91804	51.725
155.24774	61.325
159.57429	65.625
163.89768	84.925
168.21792	100.725
172.53501	126.925
176.84895	173.325
181.15975	235.225
185.46741	319.125
189.77193	434.325
194.07331	579.525
198.37157	742.225
202.6667	933.925
206.9587	1110.125
211.24758	1295.325
215.53334	1481.925
219.81599	1691.325
224.09553	1912.925
228.37195	2169.525
232.64527	2435.325
236.91549	2720.525
241.18261	2991.625
245.44663	3241.525
249.70755	3422.925
253.96539	3557.525
258.22014	3623.625
262.4718	3652.325
266.72039	3652.525
270.96589	3592.925
275.20832	3557.225
279.44768	3473.125
283.68397	3392.425
287.91719	3306.325
292.14735	3262.225
296.37445	3196.625
300.59849	3164.225
304.81948	3139.625
309.03742	3109.025
313.25231	3069.525
317.46415	3027.125
321.67296	2991.025
325.87872	2959.225
330.08145	2937.325
334.28114	2934.425
338.47781	2923.725
342.67145	2932.025
346.86207	2958.125
351.04966	2972.525
355.23424	3000.125
359.4158	3034.325
363.59435	3080.425
367.76989	3092.825
371.94243	3132.625
376.11196	3161.825
380.27849	3216.925
384.44203	3250.025
388.60257	3268.125
392.76012	3311.425
396.91468	3342.925
401.06626	3363.425
405.21485	3382.325
409.36047	3400.325
413.50311	3398.225
417.64277	3386.925
421.77947	3386.425
425.9132	3392.125
430.04396	3390.925
434.17176	3407.925
438.2966	3398.725
442.41849	3417.825
446.53742	3422.525
450.6534	3453.825
454.76644	3447.425
458.87653	3485.725
462.98368	3484.425
467.08789	3508.025
471.18916	3531.625
475.2875	3546.625
479.38291	3579.225
483.4754	3651.625
487.56496	3719.025
491.6516	3840.625
495.73531	3960.225
499.81612	3976.825
503.89401	3949.325
507.96899	3874.825
512.04106	3810.225
516.11023	3767.525
520.1765	3743.825
524.23987	3750.125
528.30034	3754.225
532.35792	3766.425
536.41261	3765.325
540.46441	3713.225
544.51333	3684.225
548.55936	3621.725
552.60252	3585.425
556.64279	3577.125
560.6802	3555.525
564.71473	3548.825
568.7464	3553.425
572.7752	3579.025
576.80114	3581.825
580.82422	3637.325
584.84444	3720.625
588.86181	3817.725
592.87633	3877.325
596.888	3850.025
600.89682	3823.825
604.9028	3802.125
608.90594	3887.225
612.90624	4051.525
616.90371	4108.925
620.89834	4091.725
624.89015	4212.225
628.87913	4540.525
632.86528	4928.425
636.84862	5190.325
640.82913	5264.825
644.80683	5083.525
648.78172	4765.625
652.75379	4506.025
656.72306	4273.625
660.68952	4126.725
664.65319	4030.625
668.61405	3970.925
672.57211	3949.525
676.52738	3977.325
680.47986	3992.725
684.42955	4023.925
688.37646	3976.425
692.32058	3912.025
696.26192	3835.025
700.20048	3766.125
704.13626	3721.125
708.06928	3709.325
711.99952	3682.225
715.927	3685.825
719.85171	3705.325
723.77365	3749.925
727.69284	3781.425
731.60928	3760.625
735.52295	3701.125
739.43388	3656.625
743.34206	3627.025
747.24749	3647.325
751.15017	3633.225
755.05012	3636.625
758.94733	3656.025
762.8418	3702.125
766.73354	3758.525
770.62254	3806.025
774.50882	3818.025
778.39237	3777.125
782.27321	3673.825
786.15132	3600.525
790.02671	3571.725
793.89938	3575.025
797.76935	3592.225
801.6366	3645.925
805.50115	3740.425
809.36299	3899.925
813.22213	4008.225
817.07857	3983.525
820.93231	3846.925
824.78336	3683.925
828.63172	3563.925
832.47738	3469.025
836.32036	3427.125
840.16066	3412.825
843.99827	3400.325
847.8332	3391.125
851.66546	3393.025
855.49504	3394.225
859.32195	3401.925
863.1462	3421.725
866.96777	3442.825
870.78668	3492.525
874.60293	3576.925
878.41652	3664.125
882.22745	3760.025
886.03573	3846.225
889.84136	3866.425
893.64433	3824.425
897.44466	3727.525
901.24235	3594.025
905.0374	3471.625
908.8298	3367.725
912.61957	3333.925
916.40671	3278.225
920.19121	3277.625
923.97308	3272.325
927.75233	3242.225
931.52895	3235.825
935.30295	3238.625
939.07433	3225.825
942.84309	3198.625
946.60924	3183.425
950.37278	3181.725
954.13371	3164.825
957.89203	3165.425
961.64774	3161.325
965.40086	3149.925
969.15137	3146.625
972.89929	3134.725
976.64461	3118.025
980.38733	3121.525
984.12747	3097.625
987.86502	3103.925
991.59999	3125.525
995.33237	3134.325
999.06217	3168.125
1002.78939	3213.025
1006.51404	3243.825
1010.23611	3290.725
1013.95561	3338.025
1017.67255	3343.725
1021.38692	3366.425
1025.09872	3333.525
1028.80796	3293.325
1032.51465	3259.925
1036.21877	3223.225
1039.92035	3184.325
1043.61937	3160.625
1047.31584	3136.125
1051.00976	3148.725
1054.70114	3161.525
1058.38998	3172.325
1062.07627	3216.425
1065.76003	3250.925
1069.44126	3271.225
1073.11995	3309.025
1076.79611	3336.125
1080.46974	3324.425
1084.14085	3297.025
1087.80943	3250.925
1091.47549	3214.025
1095.13903	3176.725
1098.80005	3166.825
1102.45857	3136.425
1106.11456	3158.925
1109.76805	3190.925
1113.41903	3273.325
1117.06751	3418.025
1120.71348	3677.425
1124.35696	3999.225
1127.99793	4343.225
1131.63641	4656.025
1135.2724	4781.625
1138.90589	4754.225
1142.5369	4561.325
1146.16542	4287.425
1149.79145	3976.725
1153.415	3698.025
1157.03607	3467.025
1160.65467	3319.925
1164.27079	3233.625
1167.88443	3195.625
1171.49561	3203.425
1175.10432	3249.825
1178.71056	3300.625
1182.31434	3381.225
1185.91565	3428.725
1189.51451	3485.525
1193.11091	3523.725
1196.70485	3584.625
1200.29634	3678.725
1203.88538	3721.525
1207.47197	3729.425
1211.05612	3702.225
1214.63782	3627.725
1218.21708	3521.825
1221.79391	3416.325
1225.36829	3312.325
1228.94024	3263.225
1232.50976	3217.425
1236.07685	3195.425
1239.6415	3186.625
1243.20374	3200.825
1246.76355	3221.725
1250.32093	3248.425
1253.8759	3269.425
1257.42845	3314.525
1260.97859	3317.225
1264.52631	3349.125
1268.07163	3356.925
1271.61453	3361.225
1275.15503	3357.425
1278.69312	3340.125
1282.22882	3309.425
1285.76211	3291.725
1289.29301	3293.725
1292.82151	3291.425
1296.34761	3329.825
1299.87133	3366.325
1303.39266	3431.225
1306.9116	3498.325
1310.42815	3592.825
1313.94233	3655.725
1317.45412	3682.725
1320.96354	3683.825
1324.47058	3682.625
1327.97525	3692.825
1331.47754	3685.925
1334.97747	3706.125
1338.47502	3743.025
1341.97022	3794.925
1345.46305	3859.125
1348.95352	3945.425
1352.44163	4020.225
1355.92738	4119.725
1359.41078	4231.025
1362.89183	4371.925
1366.37053	4385.125
1369.84688	4289.425
1373.32088	4123.425
1376.79254	3997.325
1380.26186	3880.625
1383.72883	3808.525
1387.19347	3716.625
1390.65578	3656.325
1394.11575	3550.925
1397.57339	3477.425
1401.0287	3416.025
1404.48168	3358.525
1407.93234	3284.625
1411.38068	3203.925
1414.82669	3139.025
1418.27039	3074.125
1421.71177	3011.025
1425.15083	2940.525
1428.58758	2908.725
1432.02203	2865.025
1435.45416	2849.625
1438.88399	2840.125
1442.31151	2839.625
1445.73673	2842.925
1449.15965	2844.825
1452.58027	2843.325
1455.9986	2836.225
1459.41463	2870.725
1462.82837	2863.425
1466.23982	2884.225
1469.64898	2914.325
1473.05586	2922.425
1476.46045	2922.425
1479.86276	2942.925
1483.26279	2952.625
1486.66054	2975.225
1490.05602	2998.025
1493.44922	3051.425
1496.84016	3112.425
1500.22882	3194.625
1503.61521	3291.225
1506.99934	3409.625
1510.38121	3464.225
1513.76081	3491.425
1517.13816	3422.425
1520.51324	3345.325
1523.88607	3250.625
1527.25665	3204.625
1530.62498	3175.325
1533.99105	3200.125
1537.35488	3225.025
1540.71647	3271.125
1544.07581	3291.625
1547.4329	3323.625
1550.78776	3329.125
1554.14038	3350.025
1557.49077	3371.025
1560.83892	3385.525
1564.18484	3388.125
1567.52853	3382.525
1570.86999	3386.125
1574.20922	3392.725
1577.54624	3378.825
1580.88103	3353.625
1584.2136	3307.925
1587.54395	3242.025
1590.87208	3230.125
1594.19801	3212.225
1597.52172	3225.025
1600.84321	3250.125
1604.16251	3245.625
1607.47959	3222.325
1610.79447	3221.425
1614.10715	3194.325
1617.41763	3185.025
1620.7259	3193.725
1624.03199	3188.825
1627.33587	3221.725
1630.63757	3258.225
1633.93707	3326.925
1637.23439	3419.225
1640.52951	3527.425
1643.82246	3644.025
1647.11321	3784.925
1650.40179	3891.925
1653.68819	3911.525
1656.97241	3841.825
1660.25446	3728.525
1663.53433	3625.325
1666.81203	3565.225
1670.08756	3512.425
1673.36092	3510.525
1676.63211	3485.925
1679.90115	3462.725
1683.16801	3455.725
1686.43272	3418.125
1689.69527	3365.725
1692.95567	3311.925
1696.2139	3244.825
1699.46999	3193.225
1702.72392	3144.625
1705.97571	3034.825
1709.22535	2932.925
1712.47284	2823.625
1715.71819	2725.725
1718.96139	2606.925
1722.20246	2528.925
1725.44139	2458.125
1728.67818	2401.125
1731.91284	2358.625
1735.14537	2304.925
1738.37576	2274.925
1741.60403	2250.925
1744.83017	2226.925
1748.05418	2215.325
1751.27607	2203.425
1754.49584	2203.425
1757.71349	2207.325
1760.92903	2202.625
1764.14244	2188.825
1767.35375	2177.025
1770.56294	2168.825
1773.77002	2147.525
1776.97499	2134.925
1780.17785	2107.025
1783.37861	2096.225
1786.57727	2096.125
1789.77382	2076.825
1792.96828	2064.425
1796.16064	2053.025
1799.3509	2032.325
1802.53907	2043.525
1805.72514	2026.025
1808.90913	2017.825
1812.09102	2021.625
1815.27083	2003.225
1818.44856	1993.125
1821.6242	1977.325
1824.79776	1983.425
1827.96924	1982.825
1831.13864	1970.925
1834.30597	1972.225
1837.47122	1962.525
1840.6344	1944.625
1843.7955	1956.925
1846.95454	1956.525
1850.11151	1953.025
1853.26642	1938.025
1856.41926	1939.325
1859.57004	1930.925
1862.71876	1943.525
1865.86542	1933.625
1869.01003	1918.525
1872.15258	1915.725
1875.29308	1913.625
1878.43152	1900.725
1881.56792	1907.625
1884.70227	1899.525
1887.83457	1888.325
1890.96482	1889.425
1894.09304	1884.825
1897.21921	1876.025
1900.34335	1874.425
1903.46544	1868.625
1906.58551	1873.325
1909.70353	1859.525
1912.81953	1866.325
1915.93349	1848.025
1919.04543	1845.225
1922.15534	1845.825
1925.26322	1839.325
1928.36908	1825.625
1931.47292	1826.325
1934.57473	1823.725
1937.67453	1820.925
1940.77232	1802.925
1943.86808	1810.825
1946.96184	1809.025
1950.05358	1782.625
1953.14331	1789.825
1956.23103	1774.125
1959.31675	1763.225
1962.40046	1770.725
1965.48217	1766.225
1968.56188	1753.325
1971.63959	1738.225
1974.7153	1732.425
1977.78901	1728.025
1980.86073	1731.225
1983.93046	1710.125
1986.99819	1715.025
1990.06394	1702.725
1993.1277	1700.525
1996.18947	1693.325
1999.24925	1690.425
2002.30706	1689.125
2005.36288	1681.225
2008.41672	1668.225
2011.46859	1669.825
2014.51848	1653.325
2017.56639	1653.125
2020.61233	1647.525
2023.6563	1648.225
2026.6983	1635.425
2029.73833	1637.925
2032.7764	1624.325
2035.8125	1629.425
2038.84664	1605.725
2041.87881	1615.525
2044.90903	1604.125
2047.93729	1606.325
2050.96359	1599.025
2053.98794	1588.625
2057.01034	1598.425
2060.03078	1594.425
2063.04927	1592.225
2066.06582	1590.825
2069.08042	1580.325
2072.09307	1578.725
2075.10378	1581.925
2078.11255	1577.225
2081.11938	1581.725
2084.12426	1572.325
2087.12722	1575.225
2090.12824	1576.125
2093.12732	1566.225
2096.12447	1573.525
2099.11969	1568.125
2102.11299	1567.325
2105.10435	1563.225
2108.09379	1564.425
2111.08131	1555.225
2114.0669	1564.625
2117.05057	1566.325
2120.03233	1565.625
2123.01216	1555.025
2125.99008	1565.725
2128.96609	1559.225
2131.94018	1568.125
2134.91236	1568.025
2137.88263	1555.825
2140.851	1554.425
2143.81746	1559.425
2146.78201	1560.625
2149.74466	1560.025
2152.7054	1568.625
2155.66425	1551.425
2158.6212	1551.825
2161.57625	1550.625
2164.52941	1554.825
2167.48067	1542.825
2170.43004	1549.425
2173.37752	1543.625
2176.32311	1542.325
2179.26681	1534.025
2182.20863	1530.725
2185.14856	1537.125
2188.08661	1531.525
2191.02278	1527.725
2193.95707	1527.625
2196.88948	1518.725
2199.82001	1523.025
2202.74867	1518.125
2205.67545	1511.625
2208.60037	1511.225
2211.52341	1493.825
2214.44458	1498.525
2217.36388	1500.025
2220.28132	1484.525
2223.1969	1479.625
2226.11061	1486.225
2229.02246	1476.725
2231.93245	1478.825
2234.84058	1463.025
2237.74686	1462.225
2240.65128	1458.125
2243.55385	1454.725
2246.45456	1447.725
2249.35343	1458.125
2252.25044	1441.325
2255.14561	1452.925
2258.03893	1442.725
2260.93041	1459.525
2263.82004	1434.525
2266.70783	1438.725
2269.59378	1440.025
2272.4779	1420.725
2275.36017	1414.525
2278.24061	1419.425
2281.11922	1407.725
2283.996	1401.725
2286.87094	1405.925
2289.74405	1401.725
2292.61534	1394.425
2295.4848	1391.625
2298.35243	1392.925
2301.21824	1385.725
2304.08223	1382.025
2306.94439	1381.125
2309.80474	1375.525
2312.66327	1372.625
2315.51999	1377.325
2318.37489	1376.625
2321.22797	1360.325
2324.07925	1366.125
2326.92871	1365.425
2329.77637	1360.325
2332.62222	1358.925
2335.46626	1351.425
2338.3085	1344.725
2341.14893	1347.625
2343.98756	1346.025
2346.8244	1337.625
2349.65943	1327.525
2352.49267	1339.725
2355.32411	1335.325
2358.15376	1322.525
2360.98161	1322.425
2363.80768	1318.725
2366.63195	1323.825
2369.45444	1327.225
2372.27514	1321.025
2375.09405	1321.525
2377.91118	1322.325
2380.72652	1314.525
2383.54009	1305.825
2386.35187	1303.025
2389.16188	1299.225
2391.97011	1300.825
2394.77657	1291.625
2397.58125	1284.525
2400.38416	1283.125
2403.18529	1283.925
2405.98466	1283.225
2408.78226	1278.325
2411.57809	1275.825
2414.37216	1270.425
2417.16446	1265.725
2419.955	1260.025
2422.74378	1257.325
2425.5308	1259.825
2428.31606	1255.225
2431.09956	1256.925
2433.88131	1264.625
2436.6613	1258.725
2439.43954	1247.925
2442.21603	1247.625
2444.99077	1243.425
2447.76377	1242.825
2450.53501	1237.025
2453.30451	1240.025
2456.07226	1240.525
2458.83827	1232.025
2461.60254	1230.525
2464.36507	1226.425
2467.12586	1215.425
2469.88492	1225.325
2472.64224	1216.325
2475.39782	1223.225
2478.15167	1221.725
2480.90379	1216.125
2483.65417	1216.725
2486.40283	1211.925
2489.14976	1206.925
2491.89497	1202.825
2494.63845	1215.025
2497.3802	1214.125
2500.12024	1206.525
2502.85855	1196.125
2505.59514	1195.725
2508.33002	1198.325
2511.06318	1192.525
2513.79462	1187.725
2516.52435	1185.825
2519.25237	1175.625
2521.97867	1187.425
2524.70327	1179.625
2527.42616	1173.625
2530.14734	1169.525
2532.86681	1164.525
2535.58458	1170.925
2538.30065	1160.125
2541.01501	1164.225
2543.72768	1162.725
2546.43864	1160.225
2549.14791	1155.225
2551.85548	1141.925
2554.56136	1147.025
2557.26554	1139.825
2559.96803	1139.825
2562.66883	1138.025
2565.36794	1135.525
2568.06536	1132.125
2570.7611	1133.725
2573.45514	1129.425
2576.14751	1125.625
2578.83819	1121.025
2581.52719	1119.825
2584.21451	1114.325
2586.90015	1115.325
2589.58411	1122.325
2592.2664	1110.325
2594.94701	1103.825
2597.62594	1102.025
2600.30321	1103.225
2602.9788	1094.625
2605.65273	1101.325
2608.32498	1095.525
2610.99557	1091.225
2613.66449	1086.725
2616.33175	1079.925
2618.99734	1078.325
2621.66128	1082.525
2624.32355	1082.325
2626.98416	1080.625
2629.64311	1074.625
2632.30041	1075.825
2634.95605	1071.725
2637.61004	1066.025
2640.26238	1068.825
2642.91306	1068.025
2645.56209	1064.325
2648.20948	1071.425
2650.85521	1062.825
2653.4993	1062.825
2656.14175	1060.525
2658.78255	1060.625
2661.42171	1056.525
2664.05923	1052.325
2666.6951	1053.625
2669.32934	1051.925
2671.96194	1057.525
2674.59291	1050.825
2677.22224	1051.225
2679.84993	1045.825
2682.476	1048.725
2685.10043	1050.325
2687.72324	1052.825
2690.34441	1050.025
2692.96396	1050.825
2695.58188	1059.725
2698.19818	1050.925
2700.81285	1057.225
2703.4259	1064.525
2706.03733	1083.425
2708.64714	1070.925
2711.25533	1057.625
2713.86191	1058.325
2716.46687	1051.225
2719.07021	1050.725
2721.67194	1046.425
2724.27206	1045.525
2726.87057	1057.425
2729.46747	1054.925
2732.06276	1042.325
2734.65644	1045.725
2737.24852	1035.425
2739.83899	1049.725
2742.42786	1037.025
2745.01513	1034.525
2747.60079	1048.325
2750.18486	1036.525
2752.76733	1025.425
2755.3482	1034.325
2757.92747	1030.825
2760.50515	1029.125
2763.08123	1017.525
2765.65573	1024.125
2768.22863	1021.825
2770.79994	1020.525
2773.36967	1016.025
2775.9378	1013.225
2778.50435	1007.925
2781.06932	1013.825
2783.6327	1010.225
2786.1945	1013.925
2788.75471	1001.725
2791.31335	1003.825
2793.87041	991.425
2796.42589	998.625
2798.97979	993.225
2801.53212	990.225
2804.08288	992.425
2806.63206	989.325
2809.17967	985.225
2811.72571	984.725
2814.27018	982.925
2816.81308	979.825
2819.35442	990.125
2821.89419	978.325
2824.43239	971.125
2826.96904	981.825
2829.50412	975.625
2832.03763	977.125
2834.56959	965.925
2837.1	976.525
2839.62884	975.925
2842.15613	974.325
2844.68186	974.525
2847.20604	972.125
2849.72867	979.125
2852.24974	979.425
2854.76927	981.125
2857.28724	983.525
2859.80367	977.225
2862.31855	971.825
2864.83189	974.525
2867.34368	970.625
2869.85393	969.725
2872.36264	976.825
2874.8698	980.325
2877.37543	974.525
2879.87952	980.025
2882.38207	980.125
2884.88308	979.625
2887.38256	977.425
2889.88051	978.925
2892.37692	982.225
2894.8718	978.125
2897.36515	989.425
2899.85698	976.125
2902.34727	982.425
2904.83604	989.825
2907.32328	994.725
2909.809	988.825
2912.29319	991.225
2914.77587	989.925
2917.25702	992.425
2919.73665	984.925
2922.21476	995.725
2924.69136	994.925
2927.16644	992.625
2929.64	998.225
2932.11205	995.425
2934.58258	1001.325
2937.05161	993.025
2939.51912	995.725
2941.98513	996.225
2944.44962	1001.725
2946.91261	993.125
2949.37409	1002.325
2951.83407	995.725
2954.29254	1003.625
2956.74951	994.825
2959.20498	993.725
2961.65895	987.725
2964.11142	991.525
2966.56239	990.525
2969.01186	983.425
2971.45984	985.525
2973.90632	979.325
2976.35131	971.025
2978.7948	981.625
2981.23681	977.425
2983.67732	974.625
2986.11635	979.525
2988.55388	972.225
2990.98993	966.825
2993.4245	967.725
2995.85758	969.125
2998.28917	980.725
3000.71928	968.525
3003.14791	969.625
3005.57506	979.125
3008.00073	970.925
3010.42493	970.625
3012.84764	972.925
3015.26888	976.125
3017.68865	977.325
3020.10694	980.925
3022.52376	978.725
3024.9391	984.925
3027.35298	981.925
3029.76539	976.125
3032.17632	989.925
3034.5858	975.025
3036.9938	986.225
3039.40034	990.325
3041.80542	986.225
3044.20903	984.925
3046.61118	989.725
3049.01187	992.025
3051.4111	992.725
3053.80888	996.025
3056.20519	1003.125
3058.60005	989.525
3060.99345	1005.225
3063.3854	1002.225
3065.7759	1005.325
3068.16494	1010.225
3070.55254	1007.325
3072.93868	1011.725
3075.32338	1007.325
3077.70662	1016.225
3080.08842	1016.825
3082.46878	1026.025
3084.84769	1025.125
3087.22515	1027.425
3089.60118	1036.025
3091.97576	1044.325
3094.3489	1040.425
3096.72061	1058.825
3099.09087	1054.225
3101.4597	1065.025
3103.82709	1064.725
3106.19305	1072.325
3108.55757	1074.525
3110.92066	1075.425
3113.28232	1087.925
3115.64255	1076.525
3118.00134	1086.625
3120.35871	1084.225
3122.71466	1097.925
3125.06917	1104.025
3127.42226	1093.025
3129.77393	1111.125
3132.12417	1118.225
3134.47299	1125.325
3136.82039	1129.425
3139.16636	1138.525
3141.51092	1147.525
3143.85406	1149.725
3146.19579	1167.125
3148.53609	1164.525
3150.87499	1177.525
3153.21246	1187.825
3155.54853	1188.625
3157.88318	1197.525
3160.21642	1199.825
3162.54826	1202.525
3164.87868	1214.525
3167.2077	1219.025
3169.5353	1231.925
3171.86151	1225.525
3174.18631	1240.225
3176.5097	1242.725
3178.83169	1236.325
3181.15228	1252.825
3183.47147	1254.325
3185.78926	1271.225
3188.10565	1266.425
3190.42065	1281.125
3192.73424	1278.125
3195.04645	1284.925
3197.35725	1291.025
3199.66667	1288.625
3201.97469	1291.525
3204.28132	1304.225
3206.58656	1318.025
3208.8904	1315.225
3211.19287	1321.725
3213.49394	1330.825
3215.79363	1330.225
3218.09193	1334.225
3220.38884	1343.425
3222.68438	1338.825
3224.97853	1336.325
3227.2713	1344.925
3229.56269	1345.225
3231.8527	1339.325
3234.14133	1330.725
3236.42858	1345.125
3238.71446	1342.025
3240.99896	1339.125
3243.28209	1347.525
3245.56384	1337.625
3247.84423	1341.825
3250.12324	1344.525
