Data from AgNPs_FTO_APTES_UA_0.1mM_CRN_0uM_NaF_0.1M_Addition_RamanShift__40__10-49-17-499.txt Node

Date: Mon Dec 20 10:49:17 GMT 2021
User: TCL
Spectrometer: QEP01345
Trigger mode: 4
Integration Time (sec): 7.000000E0
Scans to average: 10
Electric dark correction enabled: true
Nonlinearity correction enabled: false
Boxcar width: 0
XAxis mode: Raman Shifts
Number of Pixels in Spectrum: 1044
>>>>>Begin Spectral Data<<<<<
46.04893	-0.675
50.45542	0.025
54.85868	-1.575
59.25871	1.325
63.6555	23.125
68.04907	24.125
72.43941	27.925
76.82654	29.325
81.21044	30.125
85.59113	34.725
89.96862	30.125
94.34289	34.325
98.71396	32.025
103.08183	32.625
107.4465	35.425
111.80798	36.825
116.16626	38.625
120.52136	36.625
124.87327	43.825
129.222	41.325
133.56755	40.625
137.90993	42.825
142.24913	45.425
146.58517	47.825
150.91804	55.125
155.24774	62.125
159.57429	74.625
163.89768	92.925
168.21792	120.525
172.53501	153.025
176.84895	209.325
181.15975	289.825
185.46741	396.025
189.77193	543.625
194.07331	722.925
198.37157	919.025
202.6667	1145.525
206.9587	1356.925
211.24758	1568.625
215.53334	1793.625
219.81599	2032.625
224.09553	2290.025
228.37195	2573.925
232.64527	2891.625
236.91549	3248.225
241.18261	3588.525
245.44663	3866.625
249.70755	4119.225
253.96539	4311.525
258.22014	4428.525
262.4718	4489.125
266.72039	4501.125
270.96589	4463.325
275.20832	4384.725
279.44768	4289.425
283.68397	4191.225
287.91719	4095.325
292.14735	4025.725
296.37445	3981.525
300.59849	3967.625
304.81948	3956.625
309.03742	3946.325
313.25231	3941.225
317.46415	3887.925
321.67296	3826.425
325.87872	3755.825
330.08145	3691.225
334.28114	3665.925
338.47781	3668.925
342.67145	3666.725
346.86207	3702.325
351.04966	3730.525
355.23424	3753.025
359.4158	3807.825
363.59435	3842.725
367.76989	3868.425
371.94243	3890.625
376.11196	3913.925
380.27849	3945.825
384.44203	3970.025
388.60257	4007.125
392.76012	4060.625
396.91468	4129.125
401.06626	4188.625
405.21485	4233.125
409.36047	4250.125
413.50311	4300.025
417.64277	4375.525
421.77947	4419.925
425.9132	4306.525
430.04396	4224.125
434.17176	4233.225
438.2966	4238.425
442.41849	4273.725
446.53742	4307.225
450.6534	4357.525
454.76644	4413.825
458.87653	4427.325
462.98368	4386.825
467.08789	4395.625
471.18916	4372.225
475.2875	4387.325
479.38291	4402.225
483.4754	4442.725
487.56496	4525.225
491.6516	4608.225
495.73531	4700.525
499.81612	4743.825
503.89401	4770.125
507.96899	4751.025
512.04106	4688.925
516.11023	4601.125
520.1765	4513.425
524.23987	4470.025
528.30034	4443.625
532.35792	4418.825
536.41261	4366.425
540.46441	4318.925
544.51333	4272.325
548.55936	4258.125
552.60252	4280.125
556.64279	4327.825
560.6802	4361.225
564.71473	4347.925
568.7464	4383.325
572.7752	4449.525
576.80114	4530.525
580.82422	4631.825
584.84444	4811.725
588.86181	5043.025
592.87633	5197.725
596.888	5177.625
600.89682	4996.725
604.9028	4904.025
608.90594	5034.725
612.90624	5279.925
616.90371	5185.025
620.89834	4819.525
624.89015	4741.425
628.87913	4970.325
632.86528	5276.725
636.84862	5504.625
640.82913	5562.025
644.80683	5458.525
648.78172	5251.625
652.75379	5055.925
656.72306	4898.325
660.68952	4761.125
664.65319	4630.625
668.61405	4526.325
672.57211	4477.625
676.52738	4482.325
680.47986	4477.825
684.42955	4465.725
688.37646	4432.625
692.32058	4377.325
696.26192	4324.525
700.20048	4315.425
704.13626	4298.025
708.06928	4306.525
711.99952	4271.525
715.927	4286.525
719.85171	4288.925
723.77365	4322.625
727.69284	4310.925
731.60928	4287.325
735.52295	4244.625
739.43388	4222.125
743.34206	4259.525
747.24749	4292.525
751.15017	4312.925
755.05012	4353.025
758.94733	4432.825
762.8418	4567.125
766.73354	4721.025
770.62254	4892.625
774.50882	4910.125
778.39237	4746.525
782.27321	4521.125
786.15132	4326.525
790.02671	4229.025
793.89938	4198.025
797.76935	4215.225
801.6366	4269.225
805.50115	4377.325
809.36299	4494.825
813.22213	4555.825
817.07857	4541.625
820.93231	4400.625
824.78336	4240.025
828.63172	4114.925
832.47738	4038.625
836.32036	4008.325
840.16066	3990.725
843.99827	3972.525
847.8332	3978.525
851.66546	3987.225
855.49504	3979.025
859.32195	3995.325
863.1462	3998.225
866.96777	4031.425
870.78668	4057.525
874.60293	4098.325
878.41652	4169.525
882.22745	4270.025
886.03573	4317.325
889.84136	4373.025
893.64433	4340.125
897.44466	4268.525
901.24235	4188.425
905.0374	4091.825
908.8298	4036.025
912.61957	3992.125
916.40671	3981.425
920.19121	4007.925
923.97308	3998.125
927.75233	3986.625
931.52895	3959.125
935.30295	3918.525
939.07433	3848.825
942.84309	3816.425
946.60924	3789.125
950.37278	3793.225
954.13371	3786.325
957.89203	3767.025
961.64774	3788.125
965.40086	3782.125
969.15137	3751.025
972.89929	3747.325
976.64461	3725.825
980.38733	3720.825
984.12747	3731.125
987.86502	3727.225
991.59999	3756.425
995.33237	3771.425
999.06217	3816.725
1002.78939	3864.425
1006.51404	3931.225
1010.23611	3986.925
1013.95561	4061.125
1017.67255	4081.125
1021.38692	4073.825
1025.09872	4044.225
1028.80796	3978.625
1032.51465	3940.825
1036.21877	3910.025
1039.92035	3890.025
1043.61937	3893.925
1047.31584	3871.225
1051.00976	3888.125
1054.70114	3892.525
1058.38998	3907.725
1062.07627	3941.425
1065.76003	3998.625
1069.44126	4042.125
1073.11995	4109.825
1076.79611	4169.225
1080.46974	4187.625
1084.14085	4180.825
1087.80943	4176.125
1091.47549	4176.725
1095.13903	4162.825
1098.80005	4120.225
1102.45857	4039.925
1106.11456	4006.125
1109.76805	4015.725
1113.41903	4076.025
1117.06751	4227.625
1120.71348	4444.225
1124.35696	4708.825
1127.99793	5024.725
1131.63641	5290.325
1135.2724	5414.125
1138.90589	5411.525
1142.5369	5306.725
1146.16542	5146.425
1149.79145	4938.425
1153.415	4700.725
1157.03607	4522.125
1160.65467	4404.625
1164.27079	4399.025
1167.88443	4450.725
1171.49561	4543.525
1175.10432	4682.525
1178.71056	4917.125
1182.31434	5111.025
1185.91565	5222.725
1189.51451	5226.525
1193.11091	5214.325
1196.70485	5209.525
1200.29634	5184.025
1203.88538	5225.725
1207.47197	5213.625
1211.05612	5197.825
1214.63782	5103.425
1218.21708	4968.125
1221.79391	4836.925
1225.36829	4725.325
1228.94024	4654.525
1232.50976	4575.725
1236.07685	4506.525
1239.6415	4474.625
1243.20374	4470.025
1246.76355	4489.025
1250.32093	4532.725
1253.8759	4605.025
1257.42845	4683.725
1260.97859	4753.225
1264.52631	4835.025
1268.07163	4872.125
1271.61453	4901.825
1275.15503	4962.425
1278.69312	5009.325
1282.22882	5097.925
1285.76211	5197.625
1289.29301	5327.025
1292.82151	5512.725
1296.34761	5713.825
1299.87133	5940.125
1303.39266	6181.825
1306.9116	6428.125
1310.42815	6589.125
1313.94233	6692.925
1317.45412	6655.925
1320.96354	6569.625
1324.47058	6464.525
1327.97525	6389.725
1331.47754	6328.425
1334.97747	6297.525
1338.47502	6223.325
1341.97022	6212.825
1345.46305	6199.325
1348.95352	6268.125
1352.44163	6383.725
1355.92738	6640.425
1359.41078	6971.225
1362.89183	7254.825
1366.37053	7294.225
1369.84688	6936.125
1373.32088	6433.325
1376.79254	5998.525
1380.26186	5810.725
1383.72883	5751.925
1387.19347	5684.025
1390.65578	5571.625
1394.11575	5488.125
1397.57339	5454.425
1401.0287	5443.925
1404.48168	5426.225
1407.93234	5336.825
1411.38068	5189.725
1414.82669	5012.725
1418.27039	4853.325
1421.71177	4706.225
1425.15083	4565.525
1428.58758	4487.225
1432.02203	4484.325
1435.45416	4518.825
1438.88399	4586.925
1442.31151	4633.025
1445.73673	4662.125
1449.15965	4668.625
1452.58027	4683.925
1455.9986	4678.425
1459.41463	4702.425
1462.82837	4749.825
1466.23982	4825.725
1469.64898	4920.625
1473.05586	4969.125
1476.46045	4992.325
1479.86276	5000.625
1483.26279	5011.025
1486.66054	5025.725
1490.05602	5060.225
1493.44922	5140.925
1496.84016	5235.925
1500.22882	5357.625
1503.61521	5552.925
1506.99934	5736.525
1510.38121	5856.425
1513.76081	5871.025
1517.13816	5780.025
1520.51324	5618.725
1523.88607	5478.025
1527.25665	5429.125
1530.62498	5429.125
1533.99105	5431.925
1537.35488	5395.925
1540.71647	5360.225
1544.07581	5322.725
1547.4329	5260.425
1550.78776	5214.525
1554.14038	5157.725
1557.49077	5155.825
1560.83892	5152.825
1564.18484	5184.025
1567.52853	5193.025
1570.86999	5237.325
1574.20922	5286.525
1577.54624	5301.825
1580.88103	5292.825
1584.2136	5260.025
1587.54395	5283.325
1590.87208	5377.125
1594.19801	5532.025
1597.52172	5733.925
1600.84321	5798.225
1604.16251	5655.925
1607.47959	5416.925
1610.79447	5150.125
1614.10715	4920.525
1617.41763	4784.525
1620.7259	4661.225
1624.03199	4614.725
1627.33587	4647.025
1630.63757	4710.525
1633.93707	4843.325
1637.23439	5090.125
1640.52951	5466.625
1643.82246	5937.925
1647.11321	6397.125
1650.40179	6570.725
1653.68819	6380.125
1656.97241	5889.125
1660.25446	5404.925
1663.53433	5032.025
1666.81203	4778.825
1670.08756	4626.225
1673.36092	4514.525
1676.63211	4448.225
1679.90115	4380.125
1683.16801	4309.325
1686.43272	4243.425
1689.69527	4179.625
1692.95567	4088.725
1696.2139	4004.625
1699.46999	3911.925
1702.72392	3831.025
1705.97571	3748.325
1709.22535	3647.025
1712.47284	3562.525
1715.71819	3483.025
1718.96139	3405.125
1722.20246	3346.025
1725.44139	3284.425
1728.67818	3229.425
1731.91284	3189.925
1735.14537	3153.325
1738.37576	3122.025
1741.60403	3090.925
1744.83017	3073.825
1748.05418	3063.025
1751.27607	3038.625
1754.49584	3027.225
1757.71349	3014.225
1760.92903	3008.225
1764.14244	2998.225
1767.35375	2991.525
1770.56294	2986.425
1773.77002	2976.825
1776.97499	2970.825
1780.17785	2950.725
1783.37861	2961.125
1786.57727	2954.525
1789.77382	2928.625
1792.96828	2922.425
1796.16064	2896.725
1799.3509	2894.125
1802.53907	2882.925
1805.72514	2870.125
1808.90913	2876.325
1812.09102	2856.025
1815.27083	2844.825
1818.44856	2850.425
1821.6242	2844.025
1824.79776	2820.925
1827.96924	2826.525
1831.13864	2810.225
1834.30597	2819.625
1837.47122	2804.025
1840.6344	2801.925
1843.7955	2789.825
1846.95454	2803.225
1850.11151	2789.825
1853.26642	2794.925
1856.41926	2790.225
1859.57004	2786.525
1862.71876	2785.525
1865.86542	2781.225
1869.01003	2767.225
1872.15258	2763.225
1875.29308	2755.025
1878.43152	2767.625
1881.56792	2754.425
1884.70227	2752.425
1887.83457	2744.125
1890.96482	2734.025
1894.09304	2743.025
1897.21921	2736.625
1900.34335	2719.225
1903.46544	2724.525
1906.58551	2710.325
1909.70353	2717.025
1912.81953	2709.225
1915.93349	2704.025
1919.04543	2691.025
1922.15534	2682.325
1925.26322	2681.325
1928.36908	2674.725
1931.47292	2668.425
1934.57473	2662.325
1937.67453	2658.525
1940.77232	2647.525
1943.86808	2644.925
1946.96184	2627.325
1950.05358	2613.525
1953.14331	2615.325
1956.23103	2607.525
1959.31675	2600.625
1962.40046	2595.325
1965.48217	2582.325
1968.56188	2588.025
1971.63959	2560.525
1974.7153	2560.525
1977.78901	2563.025
1980.86073	2540.825
1983.93046	2543.325
1986.99819	2535.025
1990.06394	2524.625
1993.1277	2515.325
1996.18947	2502.925
1999.24925	2514.325
2002.30706	2483.525
2005.36288	2486.025
2008.41672	2466.625
2011.46859	2468.225
2014.51848	2463.525
2017.56639	2450.025
2020.61233	2443.825
2023.6563	2426.825
2026.6983	2439.125
2029.73833	2424.525
2032.7764	2428.825
2035.8125	2413.425
2038.84664	2414.125
2041.87881	2402.725
2044.90903	2395.525
2047.93729	2394.325
2050.96359	2390.225
2053.98794	2399.625
2057.01034	2390.025
2060.03078	2386.025
2063.04927	2380.625
2066.06582	2383.925
2069.08042	2380.125
2072.09307	2380.025
2075.10378	2374.825
2078.11255	2376.025
2081.11938	2371.825
2084.12426	2369.625
2087.12722	2380.425
2090.12824	2378.625
2093.12732	2370.525
2096.12447	2363.825
2099.11969	2373.925
2102.11299	2360.025
2105.10435	2376.025
2108.09379	2362.425
2111.08131	2371.625
2114.0669	2357.325
2117.05057	2371.925
2120.03233	2368.525
2123.01216	2369.625
2125.99008	2364.625
2128.96609	2373.825
2131.94018	2375.225
2134.91236	2372.025
2137.88263	2366.525
2140.851	2382.225
2143.81746	2367.525
2146.78201	2371.125
2149.74466	2363.825
2152.7054	2373.025
2155.66425	2368.125
2158.6212	2364.025
2161.57625	2361.325
2164.52941	2347.625
2167.48067	2351.925
2170.43004	2357.825
2173.37752	2355.225
2176.32311	2351.825
2179.26681	2353.625
2182.20863	2354.025
2185.14856	2348.625
2188.08661	2339.625
2191.02278	2344.525
2193.95707	2352.025
2196.88948	2329.925
2199.82001	2332.725
2202.74867	2332.525
2205.67545	2329.625
2208.60037	2325.525
2211.52341	2323.025
2214.44458	2315.725
2217.36388	2304.025
2220.28132	2296.625
2223.1969	2281.425
2226.11061	2292.125
2229.02246	2289.025
2231.93245	2280.425
2234.84058	2275.125
2237.74686	2280.925
2240.65128	2268.425
2243.55385	2262.525
2246.45456	2256.225
2249.35343	2247.125
2252.25044	2255.125
2255.14561	2242.125
2258.03893	2235.325
2260.93041	2240.725
2263.82004	2239.625
2266.70783	2221.425
2269.59378	2227.025
2272.4779	2227.725
2275.36017	2215.125
2278.24061	2212.425
2281.11922	2203.625
2283.996	2194.025
2286.87094	2203.325
2289.74405	2197.625
2292.61534	2185.725
2295.4848	2178.525
2298.35243	2175.725
2301.21824	2172.325
2304.08223	2178.825
2306.94439	2161.625
2309.80474	2165.825
2312.66327	2166.325
2315.51999	2158.025
2318.37489	2158.525
2321.22797	2153.525
2324.07925	2143.025
2326.92871	2149.125
2329.77637	2145.125
2332.62222	2133.125
2335.46626	2126.025
2338.3085	2131.725
2341.14893	2128.025
2343.98756	2122.725
2346.8244	2107.825
2349.65943	2123.625
2352.49267	2131.325
2355.32411	2117.825
2358.15376	2128.625
2360.98161	2106.125
2363.80768	2107.025
2366.63195	2114.825
2369.45444	2106.725
2372.27514	2100.125
2375.09405	2097.525
2377.91118	2092.025
2380.72652	2101.525
2383.54009	2090.225
2386.35187	2085.925
2389.16188	2067.225
2391.97011	2082.325
2394.77657	2067.925
2397.58125	2076.925
2400.38416	2064.325
2403.18529	2068.625
2405.98466	2063.525
2408.78226	2050.525
2411.57809	2053.725
2414.37216	2041.725
2417.16446	2048.725
2419.955	2029.725
2422.74378	2043.625
2425.5308	2025.725
2428.31606	2032.525
2431.09956	2024.325
2433.88131	2027.325
2436.6613	2025.725
2439.43954	2025.825
2442.21603	2016.525
2444.99077	2005.325
2447.76377	2011.625
2450.53501	2014.025
2453.30451	2020.225
2456.07226	2008.825
2458.83827	1999.825
2461.60254	1996.625
2464.36507	1991.825
2467.12586	2003.625
2469.88492	1992.925
2472.64224	1994.225
2475.39782	1989.525
2478.15167	1997.125
2480.90379	1984.625
2483.65417	1993.325
2486.40283	1978.125
2489.14976	1990.325
2491.89497	1998.725
2494.63845	1976.325
2497.3802	1970.125
2500.12024	1990.025
2502.85855	1979.525
2505.59514	1984.025
2508.33002	1970.725
2511.06318	1965.225
2513.79462	1972.825
2516.52435	1963.025
2519.25237	1968.025
2521.97867	1947.025
2524.70327	1952.125
2527.42616	1950.125
2530.14734	1947.225
2532.86681	1943.925
2535.58458	1931.025
2538.30065	1934.825
2541.01501	1932.525
2543.72768	1919.225
2546.43864	1925.225
2549.14791	1924.325
2551.85548	1909.525
2554.56136	1906.225
2557.26554	1914.325
2559.96803	1894.725
2562.66883	1907.925
2565.36794	1889.625
2568.06536	1893.725
2570.7611	1893.425
2573.45514	1891.725
2576.14751	1892.225
2578.83819	1891.125
2581.52719	1882.025
2584.21451	1880.225
2586.90015	1870.025
2589.58411	1874.725
2592.2664	1873.725
2594.94701	1875.725
2597.62594	1857.725
2600.30321	1865.025
2602.9788	1857.325
2605.65273	1851.625
2608.32498	1846.825
2610.99557	1843.425
2613.66449	1847.425
2616.33175	1847.525
2618.99734	1843.925
2621.66128	1845.325
2624.32355	1834.925
2626.98416	1829.025
2629.64311	1832.925
2632.30041	1829.025
2634.95605	1832.425
2637.61004	1816.525
2640.26238	1820.925
2642.91306	1812.625
2645.56209	1821.425
2648.20948	1818.725
2650.85521	1819.725
2653.4993	1822.625
2656.14175	1815.225
2658.78255	1818.925
2661.42171	1810.125
2664.05923	1799.225
2666.6951	1813.225
2669.32934	1819.125
2671.96194	1812.825
2674.59291	1809.025
2677.22224	1809.925
2679.84993	1818.325
2682.476	1813.125
2685.10043	1806.325
2687.72324	1807.925
2690.34441	1808.925
2692.96396	1807.925
2695.58188	1809.925
2698.19818	1813.025
2700.81285	1805.525
2703.4259	1815.025
2706.03733	1825.625
2708.64714	1820.025
2711.25533	1813.725
2713.86191	1821.125
2716.46687	1816.825
2719.07021	1811.825
2721.67194	1818.625
2724.27206	1813.825
2726.87057	1809.625
2729.46747	1808.725
2732.06276	1810.425
2734.65644	1817.525
2737.24852	1804.425
2739.83899	1798.025
2742.42786	1797.725
2745.01513	1796.525
2747.60079	1801.725
2750.18486	1797.425
2752.76733	1787.825
2755.3482	1792.425
2757.92747	1791.125
2760.50515	1789.525
2763.08123	1792.625
2765.65573	1786.325
2768.22863	1794.925
2770.79994	1788.225
2773.36967	1783.425
2775.9378	1779.025
2778.50435	1775.325
2781.06932	1769.525
2783.6327	1766.225
2786.1945	1771.325
2788.75471	1766.525
2791.31335	1755.825
2793.87041	1749.025
2796.42589	1748.225
2798.97979	1744.825
2801.53212	1749.725
2804.08288	1747.225
2806.63206	1735.625
2809.17967	1728.725
2811.72571	1734.625
2814.27018	1737.725
2816.81308	1723.925
2819.35442	1724.825
2821.89419	1718.425
2824.43239	1720.925
2826.96904	1719.925
2829.50412	1718.425
2832.03763	1721.925
2834.56959	1715.125
2837.1	1713.925
2839.62884	1715.725
2842.15613	1717.025
2844.68186	1713.925
2847.20604	1719.825
2849.72867	1722.425
2852.24974	1715.525
2854.76927	1736.125
2857.28724	1728.125
2859.80367	1726.825
2862.31855	1726.725
2864.83189	1719.525
2867.34368	1725.325
2869.85393	1717.725
2872.36264	1722.825
2874.8698	1725.625
2877.37543	1724.425
2879.87952	1723.325
2882.38207	1724.125
2884.88308	1727.725
2887.38256	1730.025
2889.88051	1732.425
2892.37692	1731.225
2894.8718	1731.425
2897.36515	1735.325
2899.85698	1730.025
2902.34727	1751.625
2904.83604	1743.525
2907.32328	1734.125
2909.809	1745.525
2912.29319	1730.425
2914.77587	1738.125
2917.25702	1738.125
2919.73665	1732.725
2922.21476	1738.825
2924.69136	1738.025
2927.16644	1745.525
2929.64	1741.225
2932.11205	1737.025
2934.58258	1733.525
2937.05161	1740.225
2939.51912	1730.625
2941.98513	1730.925
2944.44962	1726.125
2946.91261	1721.125
2949.37409	1721.625
2951.83407	1722.625
2954.29254	1718.525
2956.74951	1708.925
2959.20498	1704.525
2961.65895	1703.025
2964.11142	1705.025
2966.56239	1692.025
2969.01186	1696.525
2971.45984	1692.025
2973.90632	1682.625
2976.35131	1683.425
2978.7948	1679.325
2981.23681	1681.725
2983.67732	1678.725
2986.11635	1672.525
2988.55388	1670.225
2990.98993	1657.725
2993.4245	1660.325
2995.85758	1657.925
2998.28917	1660.825
3000.71928	1663.425
3003.14791	1650.625
3005.57506	1652.925
3008.00073	1652.425
3010.42493	1647.825
3012.84764	1644.625
3015.26888	1650.925
3017.68865	1643.525
3020.10694	1642.425
3022.52376	1646.125
3024.9391	1661.325
3027.35298	1647.525
3029.76539	1649.725
3032.17632	1649.525
3034.5858	1651.025
3036.9938	1650.125
3039.40034	1651.525
3041.80542	1655.125
3044.20903	1636.625
3046.61118	1647.525
3049.01187	1650.925
3051.4111	1651.725
3053.80888	1650.725
3056.20519	1646.925
3058.60005	1653.625
3060.99345	1659.625
3063.3854	1644.925
3065.7759	1644.725
3068.16494	1638.925
3070.55254	1644.525
3072.93868	1644.425
3075.32338	1641.225
3077.70662	1640.225
3080.08842	1648.625
3082.46878	1649.425
3084.84769	1634.525
3087.22515	1655.325
3089.60118	1656.725
3091.97576	1656.325
3094.3489	1661.225
3096.72061	1664.625
3099.09087	1670.425
3101.4597	1665.925
3103.82709	1666.825
3106.19305	1666.725
3108.55757	1679.325
3110.92066	1673.625
3113.28232	1682.725
3115.64255	1674.325
3118.00134	1680.925
3120.35871	1680.425
3122.71466	1684.925
3125.06917	1682.725
3127.42226	1669.525
3129.77393	1681.225
3132.12417	1703.525
3134.47299	1704.125
3136.82039	1699.025
3139.16636	1707.425
3141.51092	1708.125
3143.85406	1709.925
3146.19579	1724.225
3148.53609	1726.425
3150.87499	1735.725
3153.21246	1738.025
3155.54853	1753.125
3157.88318	1757.225
3160.21642	1759.025
3162.54826	1773.325
3164.87868	1757.825
3167.2077	1772.425
3169.5353	1778.125
3171.86151	1772.925
3174.18631	1783.825
3176.5097	1782.825
3178.83169	1771.225
3181.15228	1778.325
3183.47147	1787.925
3185.78926	1788.825
3188.10565	1781.425
3190.42065	1796.925
3192.73424	1801.125
3195.04645	1805.825
3197.35725	1800.825
3199.66667	1797.725
3201.97469	1814.425
3204.28132	1822.625
3206.58656	1807.325
3208.8904	1828.625
3211.19287	1828.925
3213.49394	1830.325
3215.79363	1835.025
3218.09193	1829.025
3220.38884	1843.425
3222.68438	1840.825
3224.97853	1838.025
3227.2713	1837.625
3229.56269	1833.725
3231.8527	1837.525
3234.14133	1824.825
3236.42858	1828.025
