Data from AgNPs_FTO_APTES_UA_0.1mM_CRN_50uM_NaF_0.1M_Addition_RamanShift__15__12-54-07-641.txt Node

Date: Mon Dec 20 12:54:07 GMT 2021
User: TCL
Spectrometer: QEP01345
Trigger mode: 4
Integration Time (sec): 7.000000E0
Scans to average: 10
Electric dark correction enabled: true
Nonlinearity correction enabled: false
Boxcar width: 0
XAxis mode: Raman Shifts
Number of Pixels in Spectrum: 1044
>>>>>Begin Spectral Data<<<<<
46.04893	-0.325
50.45542	-0.825
54.85868	-1.825
59.25871	1.875
63.6555	34.675
68.04907	34.375
72.43941	38.575
76.82654	38.675
81.21044	38.275
85.59113	47.575
89.96862	41.275
94.34289	43.875
98.71396	49.075
103.08183	46.875
107.4465	49.875
111.80798	49.575
116.16626	48.275
120.52136	55.475
124.87327	55.975
129.222	57.175
133.56755	56.775
137.90993	63.875
142.24913	66.375
146.58517	72.675
150.91804	86.775
155.24774	102.875
159.57429	119.675
163.89768	151.075
168.21792	204.175
172.53501	259.475
176.84895	359.375
181.15975	503.275
185.46741	705.175
189.77193	975.075
194.07331	1293.275
198.37157	1687.175
202.6667	2125.075
206.9587	2546.475
211.24758	2967.475
215.53334	3390.675
219.81599	3850.875
224.09553	4302.275
228.37195	4834.075
232.64527	5392.475
236.91549	5974.875
241.18261	6555.675
245.44663	7083.975
249.70755	7565.475
253.96539	7941.875
258.22014	8230.275
262.4718	8434.475
266.72039	8539.075
270.96589	8521.275
275.20832	8430.175
279.44768	8299.375
283.68397	8100.775
287.91719	7923.475
292.14735	7781.575
296.37445	7686.175
300.59849	7633.475
304.81948	7596.575
309.03742	7531.775
313.25231	7492.175
317.46415	7406.375
321.67296	7271.375
325.87872	7167.175
330.08145	7127.075
334.28114	7126.575
338.47781	7148.175
342.67145	7211.275
346.86207	7287.275
351.04966	7399.275
355.23424	7518.375
359.4158	7629.975
363.59435	7716.975
367.76989	7810.475
371.94243	7863.675
376.11196	7954.575
380.27849	8031.575
384.44203	8090.075
388.60257	8151.275
392.76012	8201.175
396.91468	8287.975
401.06626	8368.875
405.21485	8453.475
409.36047	8464.275
413.50311	8401.875
417.64277	8336.075
421.77947	8314.375
425.9132	8312.375
430.04396	8332.875
434.17176	8370.575
438.2966	8396.575
442.41849	8431.375
446.53742	8528.275
450.6534	8588.775
454.76644	8649.575
458.87653	8707.975
462.98368	8735.975
467.08789	8748.875
471.18916	8773.975
475.2875	8774.275
479.38291	8789.075
483.4754	8842.675
487.56496	8900.275
491.6516	8983.575
495.73531	9039.675
499.81612	9063.575
503.89401	9067.675
507.96899	9079.975
512.04106	9045.975
516.11023	9035.375
520.1765	9022.775
524.23987	9000.275
528.30034	8984.575
532.35792	8963.075
536.41261	8915.575
540.46441	8851.475
544.51333	8807.275
548.55936	8763.175
552.60252	8805.075
556.64279	8822.175
560.6802	8874.575
564.71473	8881.675
568.7464	8953.375
572.7752	8975.175
576.80114	9002.675
580.82422	8996.175
584.84444	9037.075
588.86181	9082.975
592.87633	9114.275
596.888	9111.275
600.89682	9170.575
604.9028	9342.775
608.90594	9846.175
612.90624	10532.575
616.90371	10501.675
620.89834	9777.175
624.89015	9531.475
628.87913	9700.975
632.86528	10016.275
636.84862	10271.775
640.82913	10312.075
644.80683	10153.075
648.78172	9893.775
652.75379	9743.075
656.72306	9632.675
660.68952	9615.875
664.65319	9606.275
668.61405	9558.775
672.57211	9607.375
676.52738	9662.975
680.47986	9690.575
684.42955	9678.275
688.37646	9649.275
692.32058	9600.075
696.26192	9528.875
700.20048	9474.175
704.13626	9412.375
708.06928	9328.075
711.99952	9215.375
715.927	9152.975
719.85171	9104.775
723.77365	9063.075
727.69284	9088.575
731.60928	9041.075
735.52295	8996.775
739.43388	8976.775
743.34206	8977.675
747.24749	9011.875
751.15017	9006.475
755.05012	9050.275
758.94733	9129.475
762.8418	9307.275
766.73354	9574.375
770.62254	9852.475
774.50882	10035.875
778.39237	9909.575
782.27321	9558.375
786.15132	9235.575
790.02671	9069.475
793.89938	8978.175
797.76935	8955.675
801.6366	8989.575
805.50115	9096.775
809.36299	9283.675
813.22213	9235.475
817.07857	9174.075
820.93231	9042.575
824.78336	8874.375
828.63172	8775.075
832.47738	8724.275
836.32036	8676.575
840.16066	8640.275
843.99827	8639.975
847.8332	8639.375
851.66546	8635.175
855.49504	8627.875
859.32195	8640.075
863.1462	8655.175
866.96777	8679.075
870.78668	8732.675
874.60293	8807.475
878.41652	8858.875
882.22745	8925.275
886.03573	8967.475
889.84136	8993.475
893.64433	8929.375
897.44466	8841.575
901.24235	8736.675
905.0374	8659.775
908.8298	8590.675
912.61957	8551.775
916.40671	8520.775
920.19121	8539.475
923.97308	8529.275
927.75233	8510.875
931.52895	8496.475
935.30295	8477.075
939.07433	8413.975
942.84309	8380.875
946.60924	8355.175
950.37278	8321.175
954.13371	8311.475
957.89203	8287.075
961.64774	8272.075
965.40086	8235.675
969.15137	8226.975
972.89929	8195.575
976.64461	8171.475
980.38733	8165.375
984.12747	8189.875
987.86502	8198.575
991.59999	8239.875
995.33237	8254.375
999.06217	8289.375
1002.78939	8347.375
1006.51404	8415.275
1010.23611	8482.375
1013.95561	8508.875
1017.67255	8550.475
1021.38692	8533.275
1025.09872	8463.975
1028.80796	8425.075
1032.51465	8369.375
1036.21877	8368.575
1039.92035	8344.175
1043.61937	8335.975
1047.31584	8364.875
1051.00976	8350.775
1054.70114	8365.775
1058.38998	8397.675
1062.07627	8415.075
1065.76003	8497.975
1069.44126	8540.475
1073.11995	8583.675
1076.79611	8621.275
1080.46974	8640.075
1084.14085	8615.375
1087.80943	8588.775
1091.47549	8581.175
1095.13903	8554.875
1098.80005	8507.675
1102.45857	8463.475
1106.11456	8414.975
1109.76805	8450.675
1113.41903	8509.575
1117.06751	8637.275
1120.71348	8861.175
1124.35696	9131.475
1127.99793	9439.775
1131.63641	9747.175
1135.2724	9863.275
1138.90589	9835.175
1142.5369	9690.175
1146.16542	9466.875
1149.79145	9218.275
1153.415	8956.275
1157.03607	8753.575
1160.65467	8634.075
1164.27079	8592.975
1167.88443	8610.275
1171.49561	8721.275
1175.10432	8922.075
1178.71056	9229.775
1182.31434	9520.775
1185.91565	9658.375
1189.51451	9669.875
1193.11091	9639.975
1196.70485	9567.575
1200.29634	9500.075
1203.88538	9432.775
1207.47197	9314.575
1211.05612	9182.275
1214.63782	9065.975
1218.21708	8964.675
1221.79391	8836.775
1225.36829	8758.075
1228.94024	8716.475
1232.50976	8681.575
1236.07685	8640.575
1239.6415	8657.075
1243.20374	8668.175
1246.76355	8674.875
1250.32093	8749.875
1253.8759	8765.575
1257.42845	8831.275
1260.97859	8904.875
1264.52631	8969.375
1268.07163	9018.875
1271.61453	9062.575
1275.15503	9100.575
1278.69312	9116.875
1282.22882	9098.575
1285.76211	9138.775
1289.29301	9196.275
1292.82151	9284.975
1296.34761	9425.775
1299.87133	9599.975
1303.39266	9822.575
1306.9116	10089.375
1310.42815	10439.875
1313.94233	10638.875
1317.45412	10656.775
1320.96354	10569.375
1324.47058	10433.175
1327.97525	10232.575
1331.47754	10135.975
1334.97747	10095.675
1338.47502	10137.275
1341.97022	10244.875
1345.46305	10411.375
1348.95352	10621.375
1352.44163	10850.975
1355.92738	11119.675
1359.41078	11478.375
1362.89183	11906.475
1366.37053	11843.675
1369.84688	11278.475
1373.32088	10588.675
1376.79254	10099.975
1380.26186	9840.975
1383.72883	9668.075
1387.19347	9521.075
1390.65578	9416.675
1394.11575	9290.075
1397.57339	9161.475
1401.0287	9031.875
1404.48168	8969.875
1407.93234	8864.175
1411.38068	8779.575
1414.82669	8682.375
1418.27039	8562.875
1421.71177	8467.675
1425.15083	8373.575
1428.58758	8264.275
1432.02203	8214.775
1435.45416	8196.375
1438.88399	8185.175
1442.31151	8178.275
1445.73673	8178.975
1449.15965	8192.075
1452.58027	8223.775
1455.9986	8234.375
1459.41463	8274.475
1462.82837	8304.775
1466.23982	8395.875
1469.64898	8464.975
1473.05586	8534.675
1476.46045	8565.275
1479.86276	8572.075
1483.26279	8607.675
1486.66054	8632.075
1490.05602	8653.775
1493.44922	8775.675
1496.84016	8915.475
1500.22882	9178.375
1503.61521	9516.575
1506.99934	9938.075
1510.38121	10296.975
1513.76081	10412.875
1517.13816	10174.275
1520.51324	9784.175
1523.88607	9413.275
1527.25665	9108.475
1530.62498	8962.375
1533.99105	8918.175
1537.35488	8899.475
1540.71647	8885.175
1544.07581	8914.575
1547.4329	8919.675
1550.78776	8953.575
1554.14038	8981.775
1557.49077	9014.575
1560.83892	9045.775
1564.18484	9128.075
1567.52853	9175.175
1570.86999	9247.975
1574.20922	9297.475
1577.54624	9334.175
1580.88103	9258.575
1584.2136	9092.975
1587.54395	8987.475
1590.87208	8955.375
1594.19801	9028.075
1597.52172	9135.275
1600.84321	9240.175
1604.16251	9184.175
1607.47959	9073.375
1610.79447	8937.975
1614.10715	8805.975
1617.41763	8664.275
1620.7259	8525.675
1624.03199	8437.975
1627.33587	8447.175
1630.63757	8501.575
1633.93707	8564.575
1637.23439	8752.575
1640.52951	9005.375
1643.82246	9317.775
1647.11321	9654.675
1650.40179	9913.875
1653.68819	9842.275
1656.97241	9510.475
1660.25446	9113.975
1663.53433	8798.875
1666.81203	8586.975
1670.08756	8420.275
1673.36092	8338.875
1676.63211	8277.075
1679.90115	8227.875
1683.16801	8116.175
1686.43272	8020.575
1689.69527	7915.575
1692.95567	7773.975
1696.2139	7681.375
1699.46999	7588.875
1702.72392	7475.775
1705.97571	7388.175
1709.22535	7330.775
1712.47284	7270.975
1715.71819	7239.375
1718.96139	7187.175
1722.20246	7150.375
1725.44139	7100.075
1728.67818	7039.175
1731.91284	7005.375
1735.14537	6927.575
1738.37576	6883.075
1741.60403	6826.775
1744.83017	6775.375
1748.05418	6780.575
1751.27607	6762.475
1754.49584	6734.475
1757.71349	6738.075
1760.92903	6728.575
1764.14244	6704.175
1767.35375	6691.775
1770.56294	6662.275
1773.77002	6623.275
1776.97499	6605.875
1780.17785	6586.675
1783.37861	6544.675
1786.57727	6518.575
1789.77382	6472.775
1792.96828	6466.675
1796.16064	6411.575
1799.3509	6402.875
1802.53907	6375.975
1805.72514	6353.575
1808.90913	6305.475
1812.09102	6302.975
1815.27083	6298.375
1818.44856	6276.775
1821.6242	6258.575
1824.79776	6218.575
1827.96924	6231.275
1831.13864	6204.775
1834.30597	6230.575
1837.47122	6210.975
1840.6344	6201.675
1843.7955	6191.675
1846.95454	6189.475
1850.11151	6177.675
1853.26642	6172.075
1856.41926	6169.975
1859.57004	6148.175
1862.71876	6162.375
1865.86542	6137.075
1869.01003	6136.975
1872.15258	6109.375
1875.29308	6121.175
1878.43152	6113.875
1881.56792	6098.075
1884.70227	6071.075
1887.83457	6084.975
1890.96482	6058.075
1894.09304	6045.175
1897.21921	6035.675
1900.34335	6020.175
1903.46544	6030.775
1906.58551	6005.575
1909.70353	6032.275
1912.81953	6009.975
1915.93349	5986.575
1919.04543	5971.875
1922.15534	5981.675
1925.26322	5984.775
1928.36908	5945.075
1931.47292	5921.075
1934.57473	5923.275
1937.67453	5912.175
1940.77232	5886.575
1943.86808	5880.975
1946.96184	5848.275
1950.05358	5832.575
1953.14331	5820.775
1956.23103	5792.775
1959.31675	5800.075
1962.40046	5774.875
1965.48217	5778.275
1968.56188	5738.575
1971.63959	5709.975
1974.7153	5706.575
1977.78901	5673.175
1980.86073	5665.575
1983.93046	5641.575
1986.99819	5639.775
1990.06394	5613.275
1993.1277	5577.975
1996.18947	5582.775
1999.24925	5571.875
2002.30706	5555.475
2005.36288	5526.475
2008.41672	5521.775
2011.46859	5479.975
2014.51848	5494.975
2017.56639	5455.175
2020.61233	5465.375
2023.6563	5438.975
2026.6983	5414.075
2029.73833	5396.875
2032.7764	5398.075
2035.8125	5365.275
2038.84664	5369.575
2041.87881	5358.975
2044.90903	5367.375
2047.93729	5352.075
2050.96359	5328.875
2053.98794	5331.175
2057.01034	5317.975
2060.03078	5307.375
2063.04927	5306.575
2066.06582	5284.475
2069.08042	5286.775
2072.09307	5288.475
2075.10378	5275.975
2078.11255	5291.675
2081.11938	5283.875
2084.12426	5284.375
2087.12722	5283.975
2090.12824	5263.975
2093.12732	5273.575
2096.12447	5269.575
2099.11969	5286.875
2102.11299	5273.675
2105.10435	5272.175
2108.09379	5269.175
2111.08131	5281.775
2114.0669	5280.875
2117.05057	5285.375
2120.03233	5287.875
2123.01216	5300.475
2125.99008	5291.975
2128.96609	5303.175
2131.94018	5295.775
2134.91236	5294.175
2137.88263	5306.075
2140.851	5312.275
2143.81746	5297.775
2146.78201	5299.675
2149.74466	5294.475
2152.7054	5308.375
2155.66425	5300.575
2158.6212	5307.175
2161.57625	5309.175
2164.52941	5289.275
2167.48067	5303.675
2170.43004	5285.275
2173.37752	5280.775
2176.32311	5291.575
2179.26681	5287.675
2182.20863	5296.775
2185.14856	5285.775
2188.08661	5281.575
2191.02278	5288.975
2193.95707	5271.975
2196.88948	5254.475
2199.82001	5248.875
2202.74867	5243.475
2205.67545	5253.075
2208.60037	5238.875
2211.52341	5208.675
2214.44458	5224.575
2217.36388	5197.775
2220.28132	5196.975
2223.1969	5171.575
2226.11061	5163.875
2229.02246	5157.975
2231.93245	5140.375
2234.84058	5157.475
2237.74686	5125.275
2240.65128	5123.675
2243.55385	5114.375
2246.45456	5100.975
2249.35343	5086.375
2252.25044	5097.975
2255.14561	5069.275
2258.03893	5085.775
2260.93041	5079.275
2263.82004	5052.775
2266.70783	5030.875
2269.59378	5026.175
2272.4779	5012.675
2275.36017	4995.275
2278.24061	5005.475
2281.11922	4992.075
2283.996	4980.175
2286.87094	4983.875
2289.74405	4959.075
2292.61534	4947.475
2295.4848	4945.875
2298.35243	4939.575
2301.21824	4914.275
2304.08223	4924.475
2306.94439	4931.675
2309.80474	4915.275
2312.66327	4892.875
2315.51999	4902.675
2318.37489	4891.075
2321.22797	4902.075
2324.07925	4895.275
2326.92871	4866.075
2329.77637	4872.675
2332.62222	4874.575
2335.46626	4850.275
2338.3085	4835.175
2341.14893	4827.175
2343.98756	4820.275
2346.8244	4813.675
2349.65943	4811.475
2352.49267	4821.675
2355.32411	4815.275
2358.15376	4804.375
2360.98161	4799.475
2363.80768	4791.675
2366.63195	4779.475
2369.45444	4776.875
2372.27514	4800.175
2375.09405	4766.375
2377.91118	4749.775
2380.72652	4755.675
2383.54009	4732.175
2386.35187	4738.075
2389.16188	4732.975
2391.97011	4727.375
2394.77657	4706.375
2397.58125	4710.075
2400.38416	4688.475
2403.18529	4679.675
2405.98466	4666.675
2408.78226	4666.675
2411.57809	4659.475
2414.37216	4650.175
2417.16446	4648.975
2419.955	4635.975
2422.74378	4631.175
2425.5308	4641.875
2428.31606	4622.375
2431.09956	4611.075
2433.88131	4602.675
2436.6613	4624.975
2439.43954	4603.475
2442.21603	4613.775
2444.99077	4588.175
2447.76377	4578.275
2450.53501	4590.475
2453.30451	4576.375
2456.07226	4578.775
2458.83827	4573.475
2461.60254	4562.875
2464.36507	4548.975
2467.12586	4547.775
2469.88492	4558.175
2472.64224	4551.675
2475.39782	4558.575
2478.15167	4540.175
2480.90379	4532.575
2483.65417	4530.975
2486.40283	4535.275
2489.14976	4518.175
2491.89497	4511.675
2494.63845	4516.575
2497.3802	4508.075
2500.12024	4505.975
2502.85855	4501.475
2505.59514	4488.175
2508.33002	4487.575
2511.06318	4493.975
2513.79462	4469.975
2516.52435	4472.375
2519.25237	4466.075
2521.97867	4465.475
2524.70327	4450.775
2527.42616	4445.575
2530.14734	4435.075
2532.86681	4426.475
2535.58458	4429.775
2538.30065	4410.975
2541.01501	4430.075
2543.72768	4417.875
2546.43864	4383.775
2549.14791	4386.175
2551.85548	4377.675
2554.56136	4368.975
2557.26554	4361.975
2559.96803	4357.075
2562.66883	4336.975
2565.36794	4330.875
2568.06536	4341.975
2570.7611	4336.475
2573.45514	4311.875
2576.14751	4318.775
2578.83819	4302.775
2581.52719	4298.075
2584.21451	4289.375
2586.90015	4282.575
2589.58411	4279.375
2592.2664	4262.775
2594.94701	4252.775
2597.62594	4243.975
2600.30321	4231.275
2602.9788	4232.675
2605.65273	4216.375
2608.32498	4209.675
2610.99557	4207.875
2613.66449	4199.975
2616.33175	4195.175
2618.99734	4201.975
2621.66128	4185.775
2624.32355	4182.375
2626.98416	4170.975
2629.64311	4160.775
2632.30041	4167.575
2634.95605	4159.875
2637.61004	4152.075
2640.26238	4147.375
2642.91306	4146.475
2645.56209	4147.175
2648.20948	4140.375
2650.85521	4119.475
2653.4993	4131.175
2656.14175	4124.975
2658.78255	4122.575
2661.42171	4129.675
2664.05923	4100.775
2666.6951	4109.075
2669.32934	4123.175
2671.96194	4115.375
2674.59291	4111.875
2677.22224	4118.175
2679.84993	4122.575
2682.476	4106.875
2685.10043	4119.875
2687.72324	4110.475
2690.34441	4117.475
2692.96396	4109.175
2695.58188	4118.775
2698.19818	4108.775
2700.81285	4100.175
2703.4259	4113.075
2706.03733	4143.475
2708.64714	4127.375
2711.25533	4106.675
2713.86191	4132.775
2716.46687	4111.175
2719.07021	4108.975
2721.67194	4104.975
2724.27206	4104.575
2726.87057	4121.575
2729.46747	4106.875
2732.06276	4131.675
2734.65644	4088.275
2737.24852	4101.075
2739.83899	4098.475
2742.42786	4088.775
2745.01513	4064.275
2747.60079	4080.975
2750.18486	4071.675
2752.76733	4056.775
2755.3482	4078.375
2757.92747	4064.275
2760.50515	4051.075
2763.08123	4050.475
2765.65573	4054.975
2768.22863	4054.475
2770.79994	4057.975
2773.36967	4041.475
2775.9378	4032.075
2778.50435	4021.975
2781.06932	4009.875
2783.6327	4010.775
2786.1945	4006.875
2788.75471	4003.775
2791.31335	3990.975
2793.87041	3991.275
2796.42589	3962.775
2798.97979	3974.475
2801.53212	3945.775
2804.08288	3939.875
2806.63206	3929.675
2809.17967	3928.975
2811.72571	3934.575
2814.27018	3923.575
2816.81308	3933.375
2819.35442	3905.175
2821.89419	3901.175
2824.43239	3905.675
2826.96904	3901.475
2829.50412	3870.975
2832.03763	3889.675
2834.56959	3888.675
2837.1	3866.975
2839.62884	3871.275
2842.15613	3878.475
2844.68186	3880.475
2847.20604	3883.075
2849.72867	3889.575
2852.24974	3869.075
2854.76927	3876.675
2857.28724	3859.375
2859.80367	3865.875
2862.31855	3854.675
2864.83189	3859.275
2867.34368	3843.675
2869.85393	3845.275
2872.36264	3843.475
2874.8698	3851.175
2877.37543	3842.275
2879.87952	3845.375
2882.38207	3847.475
2884.88308	3843.375
2887.38256	3858.775
2889.88051	3860.275
2892.37692	3851.675
2894.8718	3837.475
2897.36515	3848.875
2899.85698	3857.275
2902.34727	3851.475
2904.83604	3851.875
2907.32328	3861.875
2909.809	3857.275
2912.29319	3875.275
2914.77587	3856.775
2917.25702	3878.875
2919.73665	3860.975
2922.21476	3877.275
2924.69136	3860.275
2927.16644	3866.075
2929.64	3871.875
2932.11205	3869.375
2934.58258	3863.875
2937.05161	3862.775
2939.51912	3857.375
2941.98513	3866.375
2944.44962	3856.575
2946.91261	3855.975
2949.37409	3863.475
2951.83407	3851.175
2954.29254	3856.875
2956.74951	3858.175
2959.20498	3856.875
2961.65895	3846.275
2964.11142	3834.775
2966.56239	3838.275
2969.01186	3842.275
2971.45984	3835.275
2973.90632	3806.375
2976.35131	3814.675
2978.7948	3796.175
2981.23681	3791.175
2983.67732	3783.275
2986.11635	3790.575
2988.55388	3765.975
2990.98993	3773.575
2993.4245	3760.675
2995.85758	3745.675
2998.28917	3753.775
3000.71928	3761.775
3003.14791	3745.975
3005.57506	3747.775
3008.00073	3741.075
3010.42493	3749.275
3012.84764	3743.075
3015.26888	3740.275
3017.68865	3719.575
3020.10694	3718.575
3022.52376	3720.075
3024.9391	3717.175
3027.35298	3719.275
3029.76539	3725.875
3032.17632	3710.275
3034.5858	3704.675
3036.9938	3715.175
3039.40034	3701.275
3041.80542	3700.275
3044.20903	3688.775
3046.61118	3699.375
3049.01187	3683.775
3051.4111	3685.375
3053.80888	3668.975
3056.20519	3686.475
3058.60005	3673.875
3060.99345	3669.975
3063.3854	3678.975
3065.7759	3666.375
3068.16494	3665.075
3070.55254	3666.975
3072.93868	3648.575
3075.32338	3659.975
3077.70662	3662.175
3080.08842	3657.175
3082.46878	3658.375
3084.84769	3651.175
3087.22515	3655.975
3089.60118	3659.275
3091.97576	3680.275
3094.3489	3667.275
3096.72061	3671.075
3099.09087	3683.675
3101.4597	3683.175
3103.82709	3689.975
3106.19305	3677.475
3108.55757	3671.775
3110.92066	3672.875
3113.28232	3679.375
3115.64255	3663.775
3118.00134	3661.975
3120.35871	3660.875
3122.71466	3657.775
3125.06917	3676.475
3127.42226	3655.675
3129.77393	3666.575
3132.12417	3674.275
3134.47299	3685.175
3136.82039	3680.975
3139.16636	3682.775
3141.51092	3701.375
3143.85406	3711.075
3146.19579	3702.075
3148.53609	3716.375
3150.87499	3725.075
3153.21246	3734.575
3155.54853	3754.775
3157.88318	3753.275
3160.21642	3768.575
3162.54826	3754.975
3164.87868	3752.375
3167.2077	3768.075
3169.5353	3772.775
3171.86151	3768.775
3174.18631	3771.675
3176.5097	3757.275
3178.83169	3777.575
3181.15228	3774.075
3183.47147	3779.275
3185.78926	3772.975
3188.10565	3780.175
3190.42065	3797.175
3192.73424	3790.175
3195.04645	3783.175
3197.35725	3794.275
3199.66667	3796.075
3201.97469	3816.575
3204.28132	3819.075
3206.58656	3831.075
3208.8904	3833.775
3211.19287	3834.675
3213.49394	3845.875
3215.79363	3849.075
3218.09193	3856.375
3220.38884	3841.475
3222.68438	3859.775
3224.97853	3844.875
3227.2713	3842.275
3229.56269	3845.975
3231.8527	3848.175
3234.14133	3827.175
