Data from AgNPs_FTO_APTES_UA_0.1mM_CRN_0uM_NaF_0.1M_Addition_RamanShift__9__10-13-07-458.txt Node

Date: Mon Dec 20 10:13:07 GMT 2021
User: TCL
Spectrometer: QEP01345
Trigger mode: 4
Integration Time (sec): 7.000000E0
Scans to average: 10
Electric dark correction enabled: true
Nonlinearity correction enabled: false
Boxcar width: 0
XAxis mode: Raman Shifts
Number of Pixels in Spectrum: 1044
>>>>>Begin Spectral Data<<<<<
46.04893	0.65
50.45542	-0.85
54.85868	-1.45
59.25871	1.55
63.6555	22.45
68.04907	24.25
72.43941	25.55
76.82654	27.95
81.21044	29.55
85.59113	34.75
89.96862	29.45
94.34289	32.65
98.71396	30.95
103.08183	29.45
107.4465	35.75
111.80798	37.75
116.16626	35.65
120.52136	37.15
124.87327	36.65
129.222	33.45
133.56755	39.15
137.90993	41.05
142.24913	41.45
146.58517	40.05
150.91804	44.25
155.24774	51.45
159.57429	51.15
163.89768	66.05
168.21792	82.05
172.53501	97.55
176.84895	134.15
181.15975	182.15
185.46741	247.85
189.77193	338.55
194.07331	451.45
198.37157	586.05
202.6667	733.25
206.9587	890.95
211.24758	1040.25
215.53334	1206.85
219.81599	1379.35
224.09553	1572.95
228.37195	1792.15
232.64527	2028.75
236.91549	2278.45
241.18261	2514.85
245.44663	2759.65
249.70755	2931.25
253.96539	3057.15
258.22014	3136.25
262.4718	3145.05
266.72039	3126.35
270.96589	3041.55
275.20832	2937.35
279.44768	2823.85
283.68397	2680.35
287.91719	2561.85
292.14735	2445.15
296.37445	2345.65
300.59849	2256.95
304.81948	2202.65
309.03742	2123.85
313.25231	2080.75
317.46415	2030.25
321.67296	1996.25
325.87872	1956.25
330.08145	1937.25
334.28114	1922.75
338.47781	1914.95
342.67145	1918.35
346.86207	1919.35
351.04966	1919.45
355.23424	1927.25
359.4158	1933.85
363.59435	1940.45
367.76989	1941.95
371.94243	1947.75
376.11196	1943.45
380.27849	1948.85
384.44203	1947.45
388.60257	1954.85
392.76012	1970.85
396.91468	1994.75
401.06626	2028.45
405.21485	2049.95
409.36047	2065.75
413.50311	2060.05
417.64277	2060.45
421.77947	2046.25
425.9132	2027.25
430.04396	2012.15
434.17176	2010.85
438.2966	2017.95
442.41849	2023.85
446.53742	2040.05
450.6534	2064.55
454.76644	2058.85
458.87653	2077.95
462.98368	2077.95
467.08789	2079.15
471.18916	2084.35
475.2875	2084.55
479.38291	2107.95
483.4754	2110.55
487.56496	2128.85
491.6516	2149.45
495.73531	2179.05
499.81612	2183.75
503.89401	2194.85
507.96899	2202.25
512.04106	2183.35
516.11023	2158.95
520.1765	2122.95
524.23987	2117.45
528.30034	2092.95
532.35792	2066.75
536.41261	2070.15
540.46441	2048.25
544.51333	2041.15
548.55936	2043.05
552.60252	2033.25
556.64279	2052.65
560.6802	2062.05
564.71473	2055.65
568.7464	2054.75
572.7752	2064.65
576.80114	2057.05
580.82422	2049.95
584.84444	2061.45
588.86181	2082.75
592.87633	2093.05
596.888	2096.75
600.89682	2122.25
604.9028	2150.55
608.90594	2247.75
612.90624	2395.05
616.90371	2403.35
620.89834	2287.85
624.89015	2230.75
628.87913	2249.95
632.86528	2283.35
636.84862	2312.85
640.82913	2329.15
644.80683	2303.95
648.78172	2272.95
652.75379	2251.45
656.72306	2251.45
660.68952	2254.05
664.65319	2288.85
668.61405	2327.45
672.57211	2367.35
676.52738	2406.35
680.47986	2430.75
684.42955	2450.65
688.37646	2473.35
692.32058	2453.65
696.26192	2409.55
700.20048	2367.35
704.13626	2342.65
708.06928	2304.75
711.99952	2273.15
715.927	2221.45
719.85171	2197.65
723.77365	2157.35
727.69284	2136.95
731.60928	2137.05
735.52295	2112.75
739.43388	2122.05
743.34206	2129.65
747.24749	2125.25
751.15017	2133.95
755.05012	2157.65
758.94733	2187.55
762.8418	2207.85
766.73354	2254.85
770.62254	2298.25
774.50882	2322.15
778.39237	2319.45
782.27321	2264.45
786.15132	2201.95
790.02671	2154.55
793.89938	2165.45
797.76935	2175.25
801.6366	2204.35
805.50115	2226.55
809.36299	2258.35
813.22213	2277.65
817.07857	2253.55
820.93231	2202.65
824.78336	2147.15
828.63172	2104.05
832.47738	2068.25
836.32036	2065.85
840.16066	2053.15
843.99827	2062.45
847.8332	2058.35
851.66546	2037.45
855.49504	2021.95
859.32195	2020.15
863.1462	2022.85
866.96777	2021.15
870.78668	2009.75
874.60293	2022.25
878.41652	2041.95
882.22745	2065.95
886.03573	2071.55
889.84136	2108.45
893.64433	2132.85
897.44466	2158.75
901.24235	2153.95
905.0374	2160.15
908.8298	2178.65
912.61957	2203.75
916.40671	2244.55
920.19121	2301.65
923.97308	2349.55
927.75233	2380.25
931.52895	2388.35
935.30295	2382.35
939.07433	2332.65
942.84309	2284.35
946.60924	2261.75
950.37278	2239.75
954.13371	2232.85
957.89203	2208.35
961.64774	2178.65
965.40086	2155.55
969.15137	2126.25
972.89929	2116.75
976.64461	2096.85
980.38733	2096.45
984.12747	2089.75
987.86502	2079.65
991.59999	2076.65
995.33237	2080.95
999.06217	2080.45
1002.78939	2093.65
1006.51404	2103.55
1010.23611	2111.15
1013.95561	2146.05
1017.67255	2155.95
1021.38692	2184.85
1025.09872	2182.05
1028.80796	2175.85
1032.51465	2161.05
1036.21877	2168.45
1039.92035	2143.25
1043.61937	2130.55
1047.31584	2128.35
1051.00976	2111.75
1054.70114	2115.75
1058.38998	2092.35
1062.07627	2076.75
1065.76003	2073.15
1069.44126	2050.25
1073.11995	2033.15
1076.79611	2026.75
1080.46974	2018.75
1084.14085	2013.95
1087.80943	1993.85
1091.47549	1978.15
1095.13903	1965.45
1098.80005	1953.45
1102.45857	1958.45
1106.11456	1946.55
1109.76805	1945.55
1113.41903	1969.95
1117.06751	2012.25
1120.71348	2066.65
1124.35696	2128.85
1127.99793	2182.45
1131.63641	2265.05
1135.2724	2285.85
1138.90589	2275.35
1142.5369	2246.95
1146.16542	2199.05
1149.79145	2151.95
1153.415	2104.25
1157.03607	2048.65
1160.65467	2026.75
1164.27079	2004.95
1167.88443	1992.25
1171.49561	2012.55
1175.10432	2026.55
1178.71056	2076.45
1182.31434	2114.75
1185.91565	2121.45
1189.51451	2120.35
1193.11091	2111.15
1196.70485	2091.45
1200.29634	2096.45
1203.88538	2095.35
1207.47197	2099.35
1211.05612	2088.75
1214.63782	2097.95
1218.21708	2109.75
1221.79391	2107.15
1225.36829	2108.45
1228.94024	2104.25
1232.50976	2093.45
1236.07685	2086.45
1239.6415	2093.95
1243.20374	2092.45
1246.76355	2108.25
1250.32093	2124.15
1253.8759	2141.45
1257.42845	2156.75
1260.97859	2174.75
1264.52631	2189.45
1268.07163	2189.25
1271.61453	2200.85
1275.15503	2192.55
1278.69312	2204.75
1282.22882	2202.95
1285.76211	2222.25
1289.29301	2248.65
1292.82151	2266.45
1296.34761	2311.85
1299.87133	2354.25
1303.39266	2404.95
1306.9116	2480.15
1310.42815	2546.05
1313.94233	2598.05
1317.45412	2588.95
1320.96354	2567.15
1324.47058	2534.35
1327.97525	2522.65
1331.47754	2516.75
1334.97747	2531.45
1338.47502	2555.45
1341.97022	2601.25
1345.46305	2669.95
1348.95352	2755.25
1352.44163	2877.15
1355.92738	2986.05
1359.41078	3140.05
1362.89183	3272.45
1366.37053	3300.75
1369.84688	3208.55
1373.32088	3077.85
1376.79254	2984.85
1380.26186	2912.75
1383.72883	2885.65
1387.19347	2840.45
1390.65578	2834.85
1394.11575	2796.85
1397.57339	2769.25
1401.0287	2741.15
1404.48168	2713.65
1407.93234	2677.95
1411.38068	2658.15
1414.82669	2613.85
1418.27039	2592.85
1421.71177	2554.95
1425.15083	2500.65
1428.58758	2455.95
1432.02203	2402.25
1435.45416	2377.95
1438.88399	2324.55
1442.31151	2292.45
1445.73673	2270.55
1449.15965	2239.45
1452.58027	2218.45
1455.9986	2194.15
1459.41463	2195.15
1462.82837	2199.25
1466.23982	2200.05
1469.64898	2206.75
1473.05586	2237.25
1476.46045	2237.25
1479.86276	2254.45
1483.26279	2263.55
1486.66054	2288.75
1490.05602	2295.55
1493.44922	2307.65
1496.84016	2332.05
1500.22882	2370.65
1503.61521	2445.15
1506.99934	2516.85
1510.38121	2572.05
1513.76081	2588.85
1517.13816	2539.95
1520.51324	2461.15
1523.88607	2381.95
1527.25665	2322.95
1530.62498	2309.55
1533.99105	2309.35
1537.35488	2304.45
1540.71647	2322.55
1544.07581	2339.15
1547.4329	2364.35
1550.78776	2386.05
1554.14038	2406.25
1557.49077	2429.05
1560.83892	2429.15
1564.18484	2424.35
1567.52853	2427.75
1570.86999	2419.55
1574.20922	2420.25
1577.54624	2401.85
1580.88103	2386.05
1584.2136	2325.05
1587.54395	2300.05
1590.87208	2281.65
1594.19801	2264.95
1597.52172	2278.95
1600.84321	2260.95
1604.16251	2257.65
1607.47959	2235.05
1610.79447	2216.45
1614.10715	2203.45
1617.41763	2201.15
1620.7259	2185.85
1624.03199	2172.85
1627.33587	2171.85
1630.63757	2178.05
1633.93707	2176.55
1637.23439	2178.85
1640.52951	2191.15
1643.82246	2204.75
1647.11321	2235.45
1650.40179	2277.25
1653.68819	2269.95
1656.97241	2239.05
1660.25446	2176.85
1663.53433	2130.75
1666.81203	2086.95
1670.08756	2072.75
1673.36092	2038.35
1676.63211	2026.65
1679.90115	2009.65
1683.16801	1984.75
1686.43272	1943.65
1689.69527	1909.45
1692.95567	1877.65
1696.2139	1837.85
1699.46999	1802.65
1702.72392	1751.05
1705.97571	1735.65
1709.22535	1697.15
1712.47284	1678.45
1715.71819	1656.05
1718.96139	1616.35
1722.20246	1595.25
1725.44139	1565.15
1728.67818	1539.25
1731.91284	1510.85
1735.14537	1486.15
1738.37576	1463.65
1741.60403	1433.75
1744.83017	1414.25
1748.05418	1408.55
1751.27607	1387.05
1754.49584	1375.25
1757.71349	1364.75
1760.92903	1358.35
1764.14244	1354.15
1767.35375	1336.05
1770.56294	1331.05
1773.77002	1324.25
1776.97499	1329.15
1780.17785	1316.15
1783.37861	1314.05
1786.57727	1305.35
1789.77382	1297.45
1792.96828	1297.65
1796.16064	1287.75
1799.3509	1285.05
1802.53907	1275.05
1805.72514	1269.75
1808.90913	1266.75
1812.09102	1256.15
1815.27083	1253.55
1818.44856	1252.25
1821.6242	1244.05
1824.79776	1239.35
1827.96924	1232.75
1831.13864	1231.45
1834.30597	1234.75
1837.47122	1228.75
1840.6344	1218.95
1843.7955	1216.35
1846.95454	1226.15
1850.11151	1215.75
1853.26642	1215.65
1856.41926	1216.55
1859.57004	1205.85
1862.71876	1202.85
1865.86542	1206.95
1869.01003	1195.65
1872.15258	1198.65
1875.29308	1203.35
1878.43152	1191.75
1881.56792	1193.05
1884.70227	1186.75
1887.83457	1190.05
1890.96482	1186.95
1894.09304	1182.95
1897.21921	1177.15
1900.34335	1171.25
1903.46544	1170.55
1906.58551	1166.05
1909.70353	1171.25
1912.81953	1180.45
1915.93349	1157.25
1919.04543	1154.35
1922.15534	1153.85
1925.26322	1153.15
1928.36908	1158.95
1931.47292	1144.65
1934.57473	1145.55
1937.67453	1141.65
1940.77232	1143.55
1943.86808	1131.05
1946.96184	1130.85
1950.05358	1123.65
1953.14331	1129.85
1956.23103	1129.45
1959.31675	1116.65
1962.40046	1121.15
1965.48217	1114.35
1968.56188	1102.25
1971.63959	1099.45
1974.7153	1101.95
1977.78901	1096.25
1980.86073	1092.85
1983.93046	1091.75
1986.99819	1085.05
1990.06394	1086.65
1993.1277	1077.15
1996.18947	1068.25
1999.24925	1076.15
2002.30706	1060.05
2005.36288	1064.75
2008.41672	1053.75
2011.46859	1057.45
2014.51848	1048.35
2017.56639	1048.35
2020.61233	1050.35
2023.6563	1043.15
2026.6983	1034.05
2029.73833	1032.15
2032.7764	1035.75
2035.8125	1033.65
2038.84664	1033.45
2041.87881	1031.55
2044.90903	1035.85
2047.93729	1022.45
2050.96359	1028.25
2053.98794	1025.65
2057.01034	1028.45
2060.03078	1031.95
2063.04927	1026.55
2066.06582	1033.75
2069.08042	1027.85
2072.09307	1038.85
2075.10378	1044.35
2078.11255	1043.05
2081.11938	1037.25
2084.12426	1050.35
2087.12722	1050.05
2090.12824	1053.05
2093.12732	1059.75
2096.12447	1059.55
2099.11969	1045.85
2102.11299	1057.05
2105.10435	1057.35
2108.09379	1055.45
2111.08131	1057.35
2114.0669	1057.65
2117.05057	1061.25
2120.03233	1057.05
2123.01216	1050.85
2125.99008	1051.05
2128.96609	1052.75
2131.94018	1054.35
2134.91236	1045.05
2137.88263	1044.15
2140.851	1046.75
2143.81746	1043.35
2146.78201	1031.65
2149.74466	1033.25
2152.7054	1025.05
2155.66425	1024.65
2158.6212	1019.25
2161.57625	1018.35
2164.52941	1007.35
2167.48067	1010.75
2170.43004	1009.45
2173.37752	1004.85
2176.32311	993.75
2179.26681	999.65
2182.20863	1007.15
2185.14856	993.75
2188.08661	995.95
2191.02278	998.45
2193.95707	993.95
2196.88948	985.45
2199.82001	988.75
2202.74867	986.15
2205.67545	979.35
2208.60037	982.95
2211.52341	975.85
2214.44458	972.55
2217.36388	972.75
2220.28132	965.75
2223.1969	962.35
2226.11061	970.15
2229.02246	961.75
2231.93245	954.95
2234.84058	956.95
2237.74686	948.85
2240.65128	946.35
2243.55385	957.25
2246.45456	943.85
2249.35343	941.75
2252.25044	942.75
2255.14561	936.15
2258.03893	944.45
2260.93041	933.75
2263.82004	933.15
2266.70783	928.75
2269.59378	931.35
2272.4779	921.75
2275.36017	920.45
2278.24061	915.45
2281.11922	911.55
2283.996	922.15
2286.87094	908.95
2289.74405	914.65
2292.61534	909.65
2295.4848	908.55
2298.35243	910.05
2301.21824	910.65
2304.08223	903.95
2306.94439	906.95
2309.80474	895.65
2312.66327	901.05
2315.51999	892.25
2318.37489	900.05
2321.22797	896.75
2324.07925	893.35
2326.92871	892.95
2329.77637	896.15
2332.62222	890.15
2335.46626	893.85
2338.3085	882.15
2341.14893	880.15
2343.98756	885.05
2346.8244	871.95
2349.65943	871.95
2352.49267	878.35
2355.32411	874.05
2358.15376	870.15
2360.98161	874.75
2363.80768	872.95
2366.63195	872.35
2369.45444	867.45
2372.27514	867.25
2375.09405	869.05
2377.91118	865.75
2380.72652	863.25
2383.54009	863.75
2386.35187	865.85
2389.16188	857.15
2391.97011	861.75
2394.77657	855.45
2397.58125	849.15
2400.38416	843.25
2403.18529	845.95
2405.98466	846.15
2408.78226	842.15
2411.57809	835.35
2414.37216	842.95
2417.16446	838.85
2419.955	835.25
2422.74378	835.35
2425.5308	837.85
2428.31606	831.75
2431.09956	832.65
2433.88131	824.65
2436.6613	830.95
2439.43954	833.05
2442.21603	831.25
2444.99077	828.55
2447.76377	826.95
2450.53501	824.75
2453.30451	825.45
2456.07226	824.25
2458.83827	822.45
2461.60254	824.75
2464.36507	815.75
2467.12586	818.05
2469.88492	824.25
2472.64224	814.45
2475.39782	804.45
2478.15167	822.25
2480.90379	808.15
2483.65417	811.95
2486.40283	808.95
2489.14976	809.15
2491.89497	805.85
2494.63845	803.95
2497.3802	801.65
2500.12024	797.65
2502.85855	802.55
2505.59514	792.05
2508.33002	799.65
2511.06318	802.95
2513.79462	797.45
2516.52435	791.55
2519.25237	793.15
2521.97867	791.25
2524.70327	786.35
2527.42616	788.45
2530.14734	793.05
2532.86681	782.15
2535.58458	779.55
2538.30065	788.15
2541.01501	782.65
2543.72768	783.45
2546.43864	771.15
2549.14791	776.25
2551.85548	771.95
2554.56136	770.65
2557.26554	766.95
2559.96803	770.05
2562.66883	766.75
2565.36794	759.45
2568.06536	762.95
2570.7611	770.25
2573.45514	759.95
2576.14751	764.35
2578.83819	759.35
2581.52719	761.25
2584.21451	752.45
2586.90015	755.25
2589.58411	754.15
2592.2664	754.35
2594.94701	754.15
2597.62594	747.95
2600.30321	749.25
2602.9788	745.55
2605.65273	747.95
2608.32498	739.15
2610.99557	743.25
2613.66449	740.25
2616.33175	742.95
2618.99734	731.75
2621.66128	735.25
2624.32355	739.75
2626.98416	734.95
2629.64311	742.35
2632.30041	737.05
2634.95605	739.55
2637.61004	727.65
2640.26238	730.55
2642.91306	734.25
2645.56209	730.35
2648.20948	733.85
2650.85521	725.55
2653.4993	729.55
2656.14175	730.45
2658.78255	727.05
2661.42171	725.95
2664.05923	724.35
2666.6951	727.55
2669.32934	729.55
2671.96194	728.25
2674.59291	734.45
2677.22224	729.55
2679.84993	738.25
2682.476	733.45
2685.10043	729.15
2687.72324	730.55
2690.34441	730.95
2692.96396	731.75
2695.58188	737.25
2698.19818	727.35
2700.81285	731.35
2703.4259	725.05
2706.03733	728.95
2708.64714	735.75
2711.25533	731.15
2713.86191	732.15
2716.46687	732.25
2719.07021	729.65
2721.67194	728.55
2724.27206	724.05
2726.87057	735.05
2729.46747	728.35
2732.06276	730.15
2734.65644	730.95
2737.24852	729.45
2739.83899	731.75
2742.42786	723.45
2745.01513	720.55
2747.60079	729.85
2750.18486	727.15
2752.76733	718.35
2755.3482	721.85
2757.92747	722.65
2760.50515	716.35
2763.08123	717.05
2765.65573	717.15
2768.22863	717.05
2770.79994	712.25
2773.36967	712.25
2775.9378	710.65
2778.50435	709.45
2781.06932	705.75
2783.6327	713.35
2786.1945	704.35
2788.75471	705.25
2791.31335	703.25
2793.87041	698.95
2796.42589	701.45
2798.97979	691.45
2801.53212	692.75
2804.08288	692.05
2806.63206	697.45
2809.17967	695.35
2811.72571	692.95
2814.27018	691.35
2816.81308	684.05
2819.35442	683.55
2821.89419	682.25
2824.43239	689.85
2826.96904	684.85
2829.50412	679.55
2832.03763	684.35
2834.56959	685.85
2837.1	681.65
2839.62884	685.55
2842.15613	677.35
2844.68186	680.05
2847.20604	681.05
2849.72867	681.25
2852.24974	679.75
2854.76927	680.55
2857.28724	681.15
2859.80367	679.45
2862.31855	684.15
2864.83189	686.25
2867.34368	683.35
2869.85393	691.35
2872.36264	691.75
2874.8698	693.75
2877.37543	692.35
2879.87952	695.05
2882.38207	696.35
2884.88308	694.85
2887.38256	701.85
2889.88051	701.25
2892.37692	702.55
2894.8718	710.25
2897.36515	714.25
2899.85698	720.15
2902.34727	717.45
2904.83604	725.65
2907.32328	733.25
2909.809	733.45
2912.29319	737.95
2914.77587	737.35
2917.25702	745.45
2919.73665	755.95
2922.21476	754.55
2924.69136	760.75
2927.16644	759.65
2929.64	761.75
2932.11205	769.35
2934.58258	767.15
2937.05161	765.35
2939.51912	770.65
2941.98513	763.15
2944.44962	763.25
2946.91261	750.55
2949.37409	743.15
2951.83407	742.15
2954.29254	741.25
2956.74951	735.05
2959.20498	727.75
2961.65895	715.35
2964.11142	715.25
2966.56239	714.35
2969.01186	714.25
2971.45984	702.85
2973.90632	704.15
2976.35131	700.45
2978.7948	699.15
2981.23681	693.65
2983.67732	697.75
2986.11635	697.65
2988.55388	689.35
2990.98993	690.75
2993.4245	689.55
2995.85758	689.95
2998.28917	692.55
3000.71928	687.65
3003.14791	688.05
3005.57506	685.15
3008.00073	686.95
3010.42493	682.45
3012.84764	688.45
3015.26888	684.05
3017.68865	690.05
3020.10694	694.65
3022.52376	688.35
3024.9391	688.75
3027.35298	690.15
3029.76539	690.75
3032.17632	692.35
3034.5858	686.75
3036.9938	694.95
3039.40034	690.85
3041.80542	693.45
3044.20903	688.95
3046.61118	701.15
3049.01187	694.85
3051.4111	696.45
3053.80888	703.65
3056.20519	701.45
3058.60005	700.25
3060.99345	703.25
3063.3854	700.55
3065.7759	711.75
3068.16494	705.95
3070.55254	712.45
3072.93868	713.75
3075.32338	712.35
3077.70662	713.45
3080.08842	718.75
3082.46878	726.25
3084.84769	724.95
3087.22515	722.75
3089.60118	733.15
3091.97576	735.05
3094.3489	742.15
3096.72061	742.95
3099.09087	750.85
3101.4597	749.15
3103.82709	752.85
3106.19305	759.05
3108.55757	759.55
3110.92066	761.05
3113.28232	766.45
3115.64255	767.65
3118.00134	775.65
3120.35871	770.65
3122.71466	779.75
3125.06917	776.35
3127.42226	781.05
3129.77393	789.65
3132.12417	793.25
3134.47299	803.65
3136.82039	811.05
3139.16636	811.55
3141.51092	809.85
3143.85406	816.65
3146.19579	827.05
3148.53609	831.25
3150.87499	838.65
3153.21246	839.75
3155.54853	852.45
3157.88318	859.75
3160.21642	855.15
3162.54826	865.45
3164.87868	863.45
3167.2077	873.85
3169.5353	879.05
3171.86151	878.95
3174.18631	890.05
3176.5097	899.55
3178.83169	894.15
3181.15228	898.75
3183.47147	906.25
3185.78926	910.05
3188.10565	914.45
3190.42065	916.25
3192.73424	921.15
3195.04645	929.25
3197.35725	928.85
3199.66667	933.55
3201.97469	934.55
3204.28132	945.55
3206.58656	954.35
3208.8904	950.75
3211.19287	950.35
3213.49394	961.65
3215.79363	960.85
3218.09193	964.35
3220.38884	968.85
3222.68438	962.15
3224.97853	959.25
3227.2713	964.55
3229.56269	970.55
3231.8527	968.65
3234.14133	966.15
3236.42858	967.85
3238.71446	971.45
3240.99896	961.75
3243.28209	979.55
3245.56384	971.55
3247.84423	972.75
3250.12324	964.15
3252.40088	973.65
3254.67715	973.75
3256.95205	969.85
3259.22558	974.95
3261.49775	975.15
3263.76855	978.35
3266.03799	976.15
3268.30606	969.75
3270.57277	965.05
3272.83812	966.45
3275.10211	966.55
3277.36474	978.45
3279.62601	971.05
3281.88593	966.75
3284.14448	972.85
3286.40168	971.35
3288.65753	963.65
3290.91202	959.15
3293.16516	966.55
3295.41695	959.25
3297.66738	955.85
3299.91647	954.85
3302.16421	950.95
3304.4106	944.55
3306.65564	942.45
3308.89933	941.75
3311.14169	942.35
3313.38269	926.95
3315.62236	924.15
3317.86068	913.05
3320.09766	914.85
3322.3333	909.05
3324.5676	906.95
3326.80056	894.95
3329.03219	887.25
3331.26248	-0.25
3333.49143	1.15
3335.71905	-0.65
