Data from AgNPs_FTO_APTES_UA_0.1mM_CRN_0uM_NaF_0.1M_Addition_RamanShift__8__10-11-57-457.txt Node

Date: Mon Dec 20 10:11:57 GMT 2021
User: TCL
Spectrometer: QEP01345
Trigger mode: 4
Integration Time (sec): 7.000000E0
Scans to average: 10
Electric dark correction enabled: true
Nonlinearity correction enabled: false
Boxcar width: 0
XAxis mode: Raman Shifts
Number of Pixels in Spectrum: 1044
>>>>>Begin Spectral Data<<<<<
46.04893	-0.4375
50.45542	-1.1375
54.85868	-0.9375
59.25871	2.3625
63.6555	22.3625
68.04907	22.9625
72.43941	24.2625
76.82654	28.9625
81.21044	27.5625
85.59113	35.1625
89.96862	33.1625
94.34289	33.2625
98.71396	34.5625
103.08183	31.9625
107.4465	35.1625
111.80798	37.4625
116.16626	36.1625
120.52136	39.1625
124.87327	34.8625
129.222	37.8625
133.56755	35.5625
137.90993	37.2625
142.24913	38.6625
146.58517	37.7625
150.91804	43.5625
155.24774	50.2625
159.57429	51.4625
163.89768	66.5625
168.21792	80.6625
172.53501	94.6625
176.84895	128.6625
181.15975	170.7625
185.46741	236.2625
189.77193	319.3625
194.07331	426.4625
198.37157	556.0625
202.6667	684.7625
206.9587	828.0625
211.24758	972.4625
215.53334	1126.1625
219.81599	1289.9625
224.09553	1465.0625
228.37195	1660.6625
232.64527	1884.7625
236.91549	2114.6625
241.18261	2337.1625
245.44663	2528.4625
249.70755	2682.7625
253.96539	2815.3625
258.22014	2881.0625
262.4718	2890.2625
266.72039	2858.9625
270.96589	2814.4625
275.20832	2727.9625
279.44768	2637.3625
283.68397	2528.5625
287.91719	2414.8625
292.14735	2318.4625
296.37445	2234.3625
300.59849	2154.5625
304.81948	2104.0625
309.03742	2048.2625
313.25231	1995.9625
317.46415	1967.7625
321.67296	1925.1625
325.87872	1890.9625
330.08145	1869.0625
334.28114	1859.1625
338.47781	1852.3625
342.67145	1853.5625
346.86207	1850.4625
351.04966	1850.9625
355.23424	1874.3625
359.4158	1873.4625
363.59435	1879.1625
367.76989	1886.3625
371.94243	1888.7625
376.11196	1886.3625
380.27849	1881.8625
384.44203	1899.3625
388.60257	1906.6625
392.76012	1920.3625
396.91468	1932.9625
401.06626	1963.8625
405.21485	1978.0625
409.36047	1978.0625
413.50311	1966.2625
417.64277	1952.8625
421.77947	1952.1625
425.9132	1940.9625
430.04396	1939.6625
434.17176	1949.8625
438.2966	1964.2625
442.41849	1962.4625
446.53742	1981.6625
450.6534	1995.1625
454.76644	2007.3625
458.87653	2017.6625
462.98368	2021.4625
467.08789	2015.5625
471.18916	2027.1625
475.2875	2024.1625
479.38291	2030.7625
483.4754	2043.4625
487.56496	2067.5625
491.6516	2093.7625
495.73531	2105.4625
499.81612	2104.7625
503.89401	2115.4625
507.96899	2111.9625
512.04106	2102.1625
516.11023	2075.7625
520.1765	2056.4625
524.23987	2047.2625
528.30034	2027.1625
532.35792	2006.8625
536.41261	2001.4625
540.46441	1979.2625
544.51333	1975.2625
548.55936	1978.2625
552.60252	1971.4625
556.64279	1981.9625
560.6802	1978.9625
564.71473	1984.6625
568.7464	1982.7625
572.7752	1992.2625
576.80114	1989.8625
580.82422	1990.2625
584.84444	2010.0625
588.86181	2038.7625
592.87633	2044.6625
596.888	2043.9625
600.89682	2056.6625
604.9028	2081.1625
608.90594	2164.8625
612.90624	2299.9625
616.90371	2320.4625
620.89834	2231.0625
624.89015	2191.0625
628.87913	2235.6625
632.86528	2285.7625
636.84862	2333.2625
640.82913	2334.9625
644.80683	2307.0625
648.78172	2249.4625
652.75379	2202.1625
656.72306	2180.1625
660.68952	2188.0625
664.65319	2181.0625
668.61405	2206.6625
672.57211	2233.7625
676.52738	2260.6625
680.47986	2284.6625
684.42955	2296.5625
688.37646	2324.7625
692.32058	2312.2625
696.26192	2269.9625
700.20048	2223.5625
704.13626	2201.8625
708.06928	2183.1625
711.99952	2158.5625
715.927	2129.9625
719.85171	2116.7625
723.77365	2105.7625
727.69284	2093.2625
731.60928	2070.9625
735.52295	2068.8625
739.43388	2050.9625
743.34206	2061.0625
747.24749	2068.2625
751.15017	2074.0625
755.05012	2084.8625
758.94733	2103.5625
762.8418	2137.1625
766.73354	2178.3625
770.62254	2221.3625
774.50882	2243.1625
778.39237	2227.1625
782.27321	2174.3625
786.15132	2124.7625
790.02671	2083.0625
793.89938	2100.2625
797.76935	2116.5625
801.6366	2142.2625
805.50115	2177.3625
809.36299	2215.0625
813.22213	2233.8625
817.07857	2227.8625
820.93231	2165.9625
824.78336	2104.8625
828.63172	2049.2625
832.47738	2029.3625
836.32036	2015.8625
840.16066	2010.0625
843.99827	2000.4625
847.8332	1998.6625
851.66546	1981.9625
855.49504	1972.7625
859.32195	1975.9625
863.1462	1967.9625
866.96777	1974.7625
870.78668	1969.9625
874.60293	1993.1625
878.41652	1999.5625
882.22745	2028.5625
886.03573	2065.5625
889.84136	2088.0625
893.64433	2111.9625
897.44466	2125.6625
901.24235	2121.0625
905.0374	2115.3625
908.8298	2118.8625
912.61957	2144.8625
916.40671	2194.2625
920.19121	2255.7625
923.97308	2299.5625
927.75233	2350.4625
931.52895	2360.8625
935.30295	2334.8625
939.07433	2296.4625
942.84309	2246.2625
946.60924	2208.7625
950.37278	2206.1625
954.13371	2183.5625
957.89203	2152.0625
961.64774	2128.6625
965.40086	2091.8625
969.15137	2068.3625
972.89929	2038.3625
976.64461	2037.2625
980.38733	2013.3625
984.12747	2009.4625
987.86502	2015.5625
991.59999	2007.6625
995.33237	1999.5625
999.06217	2009.5625
1002.78939	2032.0625
1006.51404	2046.8625
1010.23611	2078.0625
1013.95561	2106.9625
1017.67255	2119.8625
1021.38692	2154.0625
1025.09872	2149.5625
1028.80796	2137.3625
1032.51465	2120.7625
1036.21877	2104.0625
1039.92035	2083.2625
1043.61937	2063.9625
1047.31584	2035.1625
1051.00976	2014.7625
1054.70114	2009.9625
1058.38998	2004.1625
1062.07627	1995.9625
1065.76003	1985.7625
1069.44126	1977.5625
1073.11995	1960.8625
1076.79611	1956.2625
1080.46974	1964.2625
1084.14085	1951.3625
1087.80943	1934.5625
1091.47549	1921.6625
1095.13903	1903.8625
1098.80005	1900.5625
1102.45857	1891.8625
1106.11456	1884.0625
1109.76805	1905.5625
1113.41903	1923.1625
1117.06751	1970.9625
1120.71348	2044.7625
1124.35696	2129.7625
1127.99793	2216.2625
1131.63641	2299.3625
1135.2724	2331.0625
1138.90589	2298.5625
1142.5369	2249.3625
1146.16542	2181.8625
1149.79145	2102.4625
1153.415	2039.5625
1157.03607	1987.0625
1160.65467	1945.4625
1164.27079	1942.4625
1167.88443	1934.6625
1171.49561	1934.1625
1175.10432	1959.9625
1178.71056	2007.1625
1182.31434	2058.7625
1185.91565	2066.4625
1189.51451	2078.7625
1193.11091	2060.4625
1196.70485	2057.5625
1200.29634	2066.7625
1203.88538	2075.8625
1207.47197	2056.8625
1211.05612	2040.9625
1214.63782	2020.5625
1218.21708	2016.7625
1221.79391	2020.5625
1225.36829	2011.1625
1228.94024	2008.5625
1232.50976	2000.4625
1236.07685	1999.8625
1239.6415	2003.2625
1243.20374	2021.0625
1246.76355	2028.9625
1250.32093	2060.4625
1253.8759	2074.6625
1257.42845	2090.3625
1260.97859	2106.7625
1264.52631	2115.3625
1268.07163	2136.0625
1271.61453	2135.8625
1275.15503	2145.2625
1278.69312	2136.7625
1282.22882	2144.4625
1285.76211	2166.7625
1289.29301	2167.5625
1292.82151	2204.7625
1296.34761	2252.5625
1299.87133	2288.3625
1303.39266	2339.7625
1306.9116	2401.1625
1310.42815	2464.8625
1313.94233	2502.2625
1317.45412	2508.2625
1320.96354	2483.2625
1324.47058	2452.4625
1327.97525	2435.8625
1331.47754	2418.2625
1334.97747	2442.6625
1338.47502	2472.0625
1341.97022	2528.7625
1345.46305	2596.2625
1348.95352	2695.4625
1352.44163	2792.7625
1355.92738	2908.6625
1359.41078	3068.9625
1362.89183	3210.6625
1366.37053	3251.2625
1369.84688	3162.4625
1373.32088	3066.0625
1376.79254	2970.6625
1380.26186	2914.6625
1383.72883	2864.8625
1387.19347	2849.1625
1390.65578	2812.6625
1394.11575	2794.2625
1397.57339	2767.2625
1401.0287	2744.9625
1404.48168	2716.3625
1407.93234	2673.7625
1411.38068	2644.8625
1414.82669	2608.9625
1418.27039	2569.3625
1421.71177	2531.7625
1425.15083	2479.9625
1428.58758	2430.6625
1432.02203	2362.8625
1435.45416	2304.3625
1438.88399	2266.7625
1442.31151	2234.5625
1445.73673	2212.1625
1449.15965	2186.7625
1452.58027	2154.5625
1455.9986	2134.7625
1459.41463	2122.1625
1462.82837	2120.1625
1466.23982	2139.6625
1469.64898	2145.7625
1473.05586	2162.4625
1476.46045	2161.5625
1479.86276	2187.2625
1483.26279	2197.0625
1486.66054	2208.0625
1490.05602	2200.0625
1493.44922	2236.3625
1496.84016	2255.1625
1500.22882	2299.6625
1503.61521	2358.7625
1506.99934	2431.6625
1510.38121	2497.5625
1513.76081	2507.3625
1517.13816	2462.2625
1520.51324	2373.1625
1523.88607	2292.7625
1527.25665	2244.6625
1530.62498	2224.8625
1533.99105	2225.5625
1537.35488	2208.5625
1540.71647	2218.1625
1544.07581	2242.6625
1547.4329	2257.4625
1550.78776	2261.9625
1554.14038	2292.7625
1557.49077	2290.2625
1560.83892	2307.7625
1564.18484	2305.6625
1567.52853	2286.4625
1570.86999	2275.2625
1574.20922	2279.0625
1577.54624	2261.3625
1580.88103	2227.1625
1584.2136	2180.6625
1587.54395	2153.3625
1590.87208	2132.7625
1594.19801	2123.6625
1597.52172	2127.4625
1600.84321	2122.3625
1604.16251	2110.4625
1607.47959	2097.0625
1610.79447	2096.3625
1614.10715	2077.7625
1617.41763	2050.1625
1620.7259	2059.0625
1624.03199	2055.2625
1627.33587	2053.8625
1630.63757	2049.3625
1633.93707	2052.2625
1637.23439	2064.0625
1640.52951	2071.8625
1643.82246	2088.5625
1647.11321	2140.1625
1650.40179	2173.7625
1653.68819	2184.4625
1656.97241	2136.6625
1660.25446	2085.8625
1663.53433	2030.3625
1666.81203	2022.7625
1670.08756	1991.0625
1673.36092	1971.4625
1676.63211	1970.6625
1679.90115	1959.4625
1683.16801	1944.4625
1686.43272	1921.3625
1689.69527	1897.6625
1692.95567	1871.2625
1696.2139	1828.8625
1699.46999	1804.6625
1702.72392	1750.6625
1705.97571	1712.5625
1709.22535	1667.8625
1712.47284	1635.8625
1715.71819	1593.0625
1718.96139	1555.4625
1722.20246	1518.3625
1725.44139	1491.1625
1728.67818	1460.6625
1731.91284	1429.0625
1735.14537	1411.7625
1738.37576	1381.6625
1741.60403	1371.5625
1744.83017	1350.7625
1748.05418	1339.1625
1751.27607	1327.4625
1754.49584	1309.4625
1757.71349	1312.5625
1760.92903	1289.4625
1764.14244	1283.4625
1767.35375	1273.6625
1770.56294	1276.2625
1773.77002	1265.1625
1776.97499	1253.7625
1780.17785	1256.8625
1783.37861	1248.3625
1786.57727	1242.4625
1789.77382	1236.8625
1792.96828	1228.8625
1796.16064	1218.6625
1799.3509	1213.4625
1802.53907	1214.7625
1805.72514	1205.9625
1808.90913	1197.2625
1812.09102	1187.6625
1815.27083	1210.2625
1818.44856	1194.2625
1821.6242	1183.1625
1824.79776	1170.4625
1827.96924	1170.4625
1831.13864	1164.3625
1834.30597	1164.7625
1837.47122	1170.1625
1840.6344	1155.4625
1843.7955	1166.3625
1846.95454	1152.5625
1850.11151	1153.1625
1853.26642	1147.3625
1856.41926	1145.7625
1859.57004	1159.0625
1862.71876	1151.0625
1865.86542	1143.3625
1869.01003	1138.1625
1872.15258	1132.1625
1875.29308	1136.1625
1878.43152	1133.3625
1881.56792	1129.3625
1884.70227	1124.2625
1887.83457	1121.3625
1890.96482	1119.4625
1894.09304	1122.3625
1897.21921	1112.1625
1900.34335	1112.8625
1903.46544	1111.2625
1906.58551	1114.5625
1909.70353	1111.6625
1912.81953	1104.2625
1915.93349	1103.2625
1919.04543	1103.2625
1922.15534	1096.7625
1925.26322	1092.5625
1928.36908	1091.3625
1931.47292	1087.0625
1934.57473	1086.7625
1937.67453	1084.3625
1940.77232	1074.4625
1943.86808	1079.3625
1946.96184	1080.7625
1950.05358	1069.3625
1953.14331	1067.4625
1956.23103	1063.9625
1959.31675	1063.7625
1962.40046	1058.5625
1965.48217	1053.2625
1968.56188	1050.7625
1971.63959	1052.4625
1974.7153	1036.3625
1977.78901	1038.4625
1980.86073	1039.7625
1983.93046	1032.4625
1986.99819	1028.5625
1990.06394	1024.6625
1993.1277	1027.2625
1996.18947	1012.3625
1999.24925	1017.2625
2002.30706	1013.0625
2005.36288	1009.6625
2008.41672	997.1625
2011.46859	1002.4625
2014.51848	1000.0625
2017.56639	989.2625
2020.61233	991.2625
2023.6563	978.7625
2026.6983	986.4625
2029.73833	983.2625
2032.7764	980.2625
2035.8125	979.3625
2038.84664	968.8625
2041.87881	981.5625
2044.90903	981.1625
2047.93729	975.9625
2050.96359	978.0625
2053.98794	977.4625
2057.01034	975.5625
2060.03078	974.4625
2063.04927	980.3625
2066.06582	982.3625
2069.08042	981.4625
2072.09307	976.3625
2075.10378	985.4625
2078.11255	987.2625
2081.11938	993.9625
2084.12426	997.3625
2087.12722	1002.2625
2090.12824	1006.3625
2093.12732	1009.3625
2096.12447	1020.0625
2099.11969	1004.6625
2102.11299	1016.3625
2105.10435	1012.0625
2108.09379	1019.2625
2111.08131	1019.4625
2114.0669	1016.6625
2117.05057	1016.8625
2120.03233	1007.9625
2123.01216	1011.3625
2125.99008	1013.4625
2128.96609	1010.4625
2131.94018	996.7625
2134.91236	1004.0625
2137.88263	997.7625
2140.851	996.3625
2143.81746	989.5625
2146.78201	983.8625
2149.74466	982.5625
2152.7054	971.6625
2155.66425	968.2625
2158.6212	965.1625
2161.57625	968.3625
2164.52941	963.4625
2167.48067	959.2625
2170.43004	953.0625
2173.37752	947.6625
2176.32311	949.3625
2179.26681	948.3625
2182.20863	952.1625
2185.14856	945.4625
2188.08661	936.7625
2191.02278	939.5625
2193.95707	939.4625
2196.88948	934.1625
2199.82001	935.5625
2202.74867	931.0625
2205.67545	924.8625
2208.60037	930.5625
2211.52341	920.8625
2214.44458	924.0625
2217.36388	917.8625
2220.28132	919.9625
2223.1969	910.1625
2226.11061	914.7625
2229.02246	911.9625
2231.93245	899.4625
2234.84058	903.6625
2237.74686	896.8625
2240.65128	899.5625
2243.55385	898.8625
2246.45456	892.4625
2249.35343	893.8625
2252.25044	885.8625
2255.14561	889.4625
2258.03893	891.4625
2260.93041	889.6625
2263.82004	885.2625
2266.70783	879.2625
2269.59378	883.7625
2272.4779	878.1625
2275.36017	868.3625
2278.24061	873.5625
2281.11922	867.0625
2283.996	870.1625
2286.87094	866.1625
2289.74405	860.2625
2292.61534	861.8625
2295.4848	857.5625
2298.35243	860.7625
2301.21824	855.9625
2304.08223	855.8625
2306.94439	848.9625
2309.80474	854.9625
2312.66327	846.5625
2315.51999	845.7625
2318.37489	849.1625
2321.22797	847.1625
2324.07925	851.9625
2326.92871	842.2625
2329.77637	847.0625
2332.62222	843.9625
2335.46626	838.2625
2338.3085	828.6625
2341.14893	828.4625
2343.98756	830.2625
2346.8244	824.1625
2349.65943	825.6625
2352.49267	825.3625
2355.32411	828.5625
2358.15376	821.4625
2360.98161	823.3625
2363.80768	821.8625
2366.63195	817.7625
2369.45444	816.3625
2372.27514	819.9625
2375.09405	820.0625
2377.91118	823.4625
2380.72652	819.7625
2383.54009	810.2625
2386.35187	814.5625
2389.16188	811.6625
2391.97011	808.1625
2394.77657	805.8625
2397.58125	796.6625
2400.38416	799.8625
2403.18529	800.0625
2405.98466	802.6625
2408.78226	797.2625
2411.57809	791.7625
2414.37216	786.5625
2417.16446	793.7625
2419.955	792.0625
2422.74378	787.5625
2425.5308	792.3625
2428.31606	788.6625
2431.09956	779.0625
2433.88131	788.0625
2436.6613	788.0625
2439.43954	784.4625
2442.21603	782.9625
2444.99077	780.3625
2447.76377	782.8625
2450.53501	780.0625
2453.30451	786.1625
2456.07226	779.0625
2458.83827	782.5625
2461.60254	774.0625
2464.36507	769.7625
2467.12586	768.8625
2469.88492	775.5625
2472.64224	765.2625
2475.39782	765.5625
2478.15167	766.0625
2480.90379	756.8625
2483.65417	763.2625
2486.40283	758.8625
2489.14976	761.4625
2491.89497	760.1625
2494.63845	751.8625
2497.3802	752.0625
2500.12024	755.8625
2502.85855	758.9625
2505.59514	757.4625
2508.33002	753.4625
2511.06318	758.0625
2513.79462	751.6625
2516.52435	755.4625
2519.25237	744.2625
2521.97867	742.7625
2524.70327	744.9625
2527.42616	741.1625
2530.14734	738.4625
2532.86681	740.8625
2535.58458	733.5625
2538.30065	736.3625
2541.01501	734.4625
2543.72768	731.9625
2546.43864	735.6625
2549.14791	729.3625
2551.85548	727.2625
2554.56136	734.3625
2557.26554	725.0625
2559.96803	727.4625
2562.66883	729.4625
2565.36794	723.7625
2568.06536	718.4625
2570.7611	724.8625
2573.45514	723.0625
2576.14751	718.6625
2578.83819	716.1625
2581.52719	710.7625
2584.21451	711.4625
2586.90015	712.7625
2589.58411	709.8625
2592.2664	712.2625
2594.94701	707.4625
2597.62594	705.5625
2600.30321	695.5625
2602.9788	702.7625
2605.65273	700.5625
2608.32498	700.8625
2610.99557	703.4625
2613.66449	695.4625
2616.33175	696.6625
2618.99734	694.8625
2621.66128	696.0625
2624.32355	691.3625
2626.98416	698.0625
2629.64311	693.0625
2632.30041	695.5625
2634.95605	697.5625
2637.61004	690.2625
2640.26238	689.9625
2642.91306	687.0625
2645.56209	687.7625
2648.20948	685.3625
2650.85521	684.0625
2653.4993	686.8625
2656.14175	686.4625
2658.78255	686.4625
2661.42171	691.4625
2664.05923	685.3625
2666.6951	691.3625
2669.32934	687.2625
2671.96194	686.9625
2674.59291	689.8625
2677.22224	693.0625
2679.84993	686.9625
2682.476	693.1625
2685.10043	692.1625
2687.72324	693.1625
2690.34441	691.9625
2692.96396	694.9625
2695.58188	687.6625
2698.19818	696.1625
2700.81285	697.4625
2703.4259	692.9625
2706.03733	694.1625
2708.64714	692.2625
2711.25533	694.8625
2713.86191	692.9625
2716.46687	694.5625
2719.07021	698.1625
2721.67194	696.1625
2724.27206	695.4625
2726.87057	699.6625
2729.46747	698.9625
2732.06276	688.4625
2734.65644	693.6625
2737.24852	693.5625
2739.83899	693.9625
2742.42786	695.4625
2745.01513	683.4625
2747.60079	686.6625
2750.18486	683.1625
2752.76733	689.8625
2755.3482	681.9625
2757.92747	677.9625
2760.50515	683.0625
2763.08123	675.2625
2765.65573	675.7625
2768.22863	680.1625
2770.79994	667.7625
2773.36967	681.6625
2775.9378	677.6625
2778.50435	669.0625
2781.06932	666.8625
2783.6327	679.2625
2786.1945	664.5625
2788.75471	665.7625
2791.31335	665.8625
2793.87041	665.4625
2796.42589	661.3625
2798.97979	658.7625
2801.53212	660.9625
2804.08288	660.2625
2806.63206	657.1625
2809.17967	655.2625
2811.72571	653.3625
2814.27018	652.4625
2816.81308	653.5625
2819.35442	653.5625
2821.89419	646.6625
2824.43239	651.3625
2826.96904	649.7625
2829.50412	649.7625
2832.03763	653.3625
2834.56959	650.4625
2837.1	648.6625
2839.62884	644.9625
2842.15613	645.1625
2844.68186	645.4625
2847.20604	649.4625
2849.72867	650.9625
2852.24974	647.7625
2854.76927	647.9625
2857.28724	652.8625
2859.80367	646.0625
2862.31855	650.3625
2864.83189	649.0625
2867.34368	649.6625
2869.85393	651.6625
2872.36264	650.4625
2874.8698	664.3625
2877.37543	657.5625
2879.87952	654.6625
2882.38207	666.9625
2884.88308	668.3625
2887.38256	662.6625
2889.88051	667.2625
2892.37692	672.3625
2894.8718	675.2625
2897.36515	677.2625
2899.85698	686.5625
2902.34727	691.3625
2904.83604	693.7625
2907.32328	703.1625
2909.809	709.6625
2912.29319	712.9625
2914.77587	721.2625
2917.25702	719.4625
2919.73665	728.0625
2922.21476	730.9625
2924.69136	729.8625
2927.16644	740.4625
2929.64	744.2625
2932.11205	745.4625
2934.58258	744.0625
2937.05161	745.9625
2939.51912	742.7625
2941.98513	740.8625
2944.44962	735.4625
2946.91261	735.3625
2949.37409	712.0625
2951.83407	716.2625
2954.29254	709.2625
2956.74951	709.7625
2959.20498	702.4625
2961.65895	693.3625
2964.11142	692.3625
2966.56239	687.3625
2969.01186	685.3625
2971.45984	671.6625
2973.90632	673.3625
2976.35131	668.4625
2978.7948	675.4625
2981.23681	667.3625
2983.67732	671.5625
2986.11635	664.1625
2988.55388	664.0625
2990.98993	663.2625
2993.4245	660.7625
2995.85758	658.6625
2998.28917	658.1625
3000.71928	657.6625
3003.14791	667.1625
3005.57506	660.7625
3008.00073	658.6625
3010.42493	659.7625
3012.84764	655.3625
3015.26888	656.4625
3017.68865	657.2625
3020.10694	663.1625
3022.52376	662.3625
3024.9391	662.7625
3027.35298	656.3625
3029.76539	656.1625
3032.17632	663.3625
3034.5858	657.7625
3036.9938	663.6625
3039.40034	665.6625
3041.80542	672.6625
3044.20903	660.5625
3046.61118	667.3625
3049.01187	666.0625
3051.4111	664.9625
3053.80888	673.3625
3056.20519	679.3625
3058.60005	671.7625
3060.99345	678.5625
3063.3854	680.5625
3065.7759	677.1625
3068.16494	684.8625
3070.55254	686.2625
3072.93868	680.7625
3075.32338	696.1625
3077.70662	686.8625
3080.08842	695.4625
3082.46878	696.7625
3084.84769	701.2625
3087.22515	700.6625
3089.60118	708.2625
3091.97576	711.0625
3094.3489	715.5625
3096.72061	720.2625
3099.09087	724.2625
3101.4597	730.2625
3103.82709	735.4625
3106.19305	729.3625
3108.55757	736.7625
3110.92066	740.8625
3113.28232	740.1625
3115.64255	749.0625
3118.00134	753.0625
3120.35871	756.1625
3122.71466	760.3625
3125.06917	755.7625
3127.42226	760.9625
3129.77393	775.8625
3132.12417	776.2625
3134.47299	782.0625
3136.82039	778.9625
3139.16636	788.1625
3141.51092	795.4625
3143.85406	801.5625
3146.19579	807.6625
3148.53609	809.2625
3150.87499	815.4625
3153.21246	825.6625
3155.54853	828.6625
3157.88318	836.4625
3160.21642	844.7625
3162.54826	848.9625
3164.87868	850.0625
3167.2077	854.5625
3169.5353	860.9625
3171.86151	872.5625
3174.18631	873.5625
