Data from AgNPs_FTO_APTES_UA_0.1mM_CRN_200uM_NaF_0.1M_Addition_RamanShift__9__14-05-17-720.txt Node

Date: Mon Dec 20 14:05:17 GMT 2021
User: TCL
Spectrometer: QEP01345
Trigger mode: 4
Integration Time (sec): 7.000000E0
Scans to average: 10
Electric dark correction enabled: true
Nonlinearity correction enabled: false
Boxcar width: 0
XAxis mode: Raman Shifts
Number of Pixels in Spectrum: 1044
>>>>>Begin Spectral Data<<<<<
46.04893	0.9625
50.45542	-0.1375
54.85868	-1.4375
59.25871	0.3625
63.6555	28.9625
68.04907	31.0625
72.43941	30.2625
76.82654	30.1625
81.21044	34.6625
85.59113	37.5625
89.96862	37.0625
94.34289	38.0625
98.71396	37.4625
103.08183	38.1625
107.4465	43.1625
111.80798	45.1625
116.16626	42.8625
120.52136	45.1625
124.87327	46.8625
129.222	46.6625
133.56755	49.4625
137.90993	48.3625
142.24913	53.9625
146.58517	56.0625
150.91804	68.5625
155.24774	76.1625
159.57429	84.9625
163.89768	110.8625
168.21792	139.6625
172.53501	174.2625
176.84895	237.6625
181.15975	330.7625
185.46741	449.9625
189.77193	627.9625
194.07331	827.0625
198.37157	1066.2625
202.6667	1332.0625
206.9587	1602.9625
211.24758	1866.7625
215.53334	2124.4625
219.81599	2422.3625
224.09553	2751.0625
228.37195	3108.6625
232.64527	3517.8625
236.91549	3922.1625
241.18261	4326.2625
245.44663	4654.7625
249.70755	4940.9625
253.96539	5130.2625
258.22014	5248.7625
262.4718	5286.8625
266.72039	5296.7625
270.96589	5264.6625
275.20832	5177.0625
279.44768	5072.1625
283.68397	4948.3625
287.91719	4863.8625
292.14735	4774.2625
296.37445	4712.6625
300.59849	4680.2625
304.81948	4637.2625
309.03742	4607.6625
313.25231	4539.9625
317.46415	4475.0625
321.67296	4414.0625
325.87872	4351.0625
330.08145	4307.2625
334.28114	4295.8625
338.47781	4280.0625
342.67145	4312.9625
346.86207	4334.7625
351.04966	4358.4625
355.23424	4423.7625
359.4158	4464.5625
363.59435	4514.8625
367.76989	4556.1625
371.94243	4585.0625
376.11196	4646.0625
380.27849	4671.5625
384.44203	4728.2625
388.60257	4775.9625
392.76012	4828.5625
396.91468	4862.6625
401.06626	4928.8625
405.21485	4944.7625
409.36047	4948.2625
413.50311	4945.5625
417.64277	4926.7625
421.77947	4916.4625
425.9132	4911.6625
430.04396	4933.3625
434.17176	4927.4625
438.2966	4949.5625
442.41849	4993.5625
446.53742	5009.7625
450.6534	5056.5625
454.76644	5081.3625
458.87653	5091.4625
462.98368	5114.4625
467.08789	5133.9625
471.18916	5145.3625
475.2875	5182.8625
479.38291	5222.9625
483.4754	5283.8625
487.56496	5402.3625
491.6516	5520.1625
495.73531	5632.0625
499.81612	5687.9625
503.89401	5671.9625
507.96899	5590.1625
512.04106	5514.9625
516.11023	5445.5625
520.1765	5429.6625
524.23987	5430.2625
528.30034	5435.5625
532.35792	5455.7625
536.41261	5426.7625
540.46441	5374.4625
544.51333	5316.7625
548.55936	5260.6625
552.60252	5236.5625
556.64279	5202.4625
560.6802	5197.7625
564.71473	5203.2625
568.7464	5226.7625
572.7752	5294.7625
576.80114	5323.7625
580.82422	5385.5625
584.84444	5473.1625
588.86181	5582.9625
592.87633	5637.4625
596.888	5626.6625
600.89682	5565.8625
604.9028	5577.9625
608.90594	5735.3625
612.90624	5962.5625
616.90371	6011.0625
620.89834	5863.1625
624.89015	6019.6625
628.87913	6418.7625
632.86528	6912.0625
636.84862	7286.1625
640.82913	7366.2625
644.80683	7114.0625
648.78172	6741.7625
652.75379	6358.6625
656.72306	6067.8625
660.68952	5896.7625
664.65319	5755.5625
668.61405	5668.8625
672.57211	5653.3625
676.52738	5677.3625
680.47986	5731.7625
684.42955	5748.9625
688.37646	5714.1625
692.32058	5638.1625
696.26192	5514.5625
700.20048	5445.3625
704.13626	5385.7625
708.06928	5348.5625
711.99952	5333.2625
715.927	5338.8625
719.85171	5350.0625
723.77365	5432.0625
727.69284	5482.2625
731.60928	5429.5625
735.52295	5357.0625
739.43388	5286.2625
743.34206	5263.8625
747.24749	5248.4625
751.15017	5251.9625
755.05012	5281.2625
758.94733	5337.1625
762.8418	5399.6625
766.73354	5525.8625
770.62254	5624.1625
774.50882	5645.8625
778.39237	5553.0625
782.27321	5377.8625
786.15132	5240.8625
790.02671	5177.0625
793.89938	5159.3625
797.76935	5180.8625
801.6366	5233.3625
805.50115	5388.2625
809.36299	5597.8625
813.22213	5745.8625
817.07857	5736.2625
820.93231	5581.7625
824.78336	5369.0625
828.63172	5178.6625
832.47738	5047.6625
836.32036	4990.4625
840.16066	4964.8625
843.99827	4948.8625
847.8332	4931.9625
851.66546	4938.9625
855.49504	4936.9625
859.32195	4946.5625
863.1462	4971.5625
866.96777	5017.5625
870.78668	5080.2625
874.60293	5190.1625
878.41652	5302.5625
882.22745	5432.0625
886.03573	5533.8625
889.84136	5608.3625
893.64433	5563.1625
897.44466	5418.1625
901.24235	5243.4625
905.0374	5084.3625
908.8298	4956.2625
912.61957	4888.3625
916.40671	4875.9625
920.19121	4823.2625
923.97308	4814.0625
927.75233	4792.1625
931.52895	4785.2625
935.30295	4737.0625
939.07433	4724.7625
942.84309	4704.8625
946.60924	4683.4625
950.37278	4666.3625
954.13371	4661.2625
957.89203	4652.0625
961.64774	4644.6625
965.40086	4643.5625
969.15137	4619.6625
972.89929	4597.1625
976.64461	4579.8625
980.38733	4588.3625
984.12747	4565.1625
987.86502	4573.1625
991.59999	4591.2625
995.33237	4613.3625
999.06217	4690.1625
1002.78939	4738.9625
1006.51404	4811.1625
1010.23611	4868.9625
1013.95561	4927.6625
1017.67255	4951.4625
1021.38692	4965.8625
1025.09872	4941.7625
1028.80796	4895.5625
1032.51465	4830.2625
1036.21877	4780.6625
1039.92035	4737.2625
1043.61937	4694.5625
1047.31584	4690.7625
1051.00976	4693.9625
1054.70114	4701.6625
1058.38998	4735.7625
1062.07627	4789.1625
1065.76003	4844.9625
1069.44126	4911.0625
1073.11995	4974.4625
1076.79611	5023.9625
1080.46974	5006.8625
1084.14085	4935.2625
1087.80943	4889.8625
1091.47549	4844.6625
1095.13903	4807.1625
1098.80005	4759.5625
1102.45857	4734.8625
1106.11456	4734.4625
1109.76805	4770.1625
1113.41903	4866.4625
1117.06751	5092.4625
1120.71348	5416.2625
1124.35696	5863.1625
1127.99793	6356.2625
1131.63641	6765.3625
1135.2724	6955.6625
1138.90589	6923.8625
1142.5369	6674.5625
1146.16542	6305.6625
1149.79145	5897.8625
1153.415	5535.6625
1157.03607	5246.7625
1160.65467	5063.7625
1164.27079	4941.4625
1167.88443	4921.6625
1171.49561	4949.0625
1175.10432	5048.0625
1178.71056	5170.7625
1182.31434	5313.0625
1185.91565	5431.0625
1189.51451	5508.2625
1193.11091	5558.3625
1196.70485	5625.3625
1200.29634	5683.3625
1203.88538	5748.3625
1207.47197	5755.0625
1211.05612	5671.1625
1214.63782	5573.9625
1218.21708	5401.6625
1221.79391	5233.5625
1225.36829	5118.3625
1228.94024	5007.2625
1232.50976	4954.8625
1236.07685	4913.4625
1239.6415	4923.3625
1243.20374	4913.2625
1246.76355	4949.9625
1250.32093	5006.5625
1253.8759	5042.5625
1257.42845	5095.6625
1260.97859	5160.1625
1264.52631	5191.2625
1268.07163	5246.4625
1271.61453	5238.4625
1275.15503	5253.0625
1278.69312	5230.1625
1282.22882	5214.0625
1285.76211	5226.7625
1289.29301	5238.7625
1292.82151	5261.6625
1296.34761	5352.3625
1299.87133	5432.6625
1303.39266	5543.0625
1306.9116	5665.8625
1310.42815	5826.3625
1313.94233	5912.6625
1317.45412	5962.1625
1320.96354	5963.0625
1324.47058	5958.5625
1327.97525	5972.8625
1331.47754	5966.6625
1334.97747	6021.0625
1338.47502	6052.6625
1341.97022	6134.8625
1345.46305	6221.5625
1348.95352	6359.8625
1352.44163	6465.3625
1355.92738	6587.4625
1359.41078	6760.4625
1362.89183	6914.9625
1366.37053	6937.0625
1369.84688	6732.8625
1373.32088	6459.2625
1376.79254	6230.0625
1380.26186	6070.5625
1383.72883	5970.1625
1387.19347	5857.9625
1390.65578	5733.0625
1394.11575	5630.6625
1397.57339	5503.0625
1401.0287	5408.4625
1404.48168	5323.5625
1407.93234	5209.8625
1411.38068	5125.1625
1414.82669	4980.0625
1418.27039	4843.8625
1421.71177	4761.6625
1425.15083	4652.5625
1428.58758	4583.0625
1432.02203	4539.6625
1435.45416	4506.6625
1438.88399	4517.7625
1442.31151	4519.8625
1445.73673	4528.5625
1449.15965	4536.1625
1452.58027	4537.0625
1455.9986	4559.6625
1459.41463	4582.3625
1462.82837	4589.6625
1466.23982	4638.5625
1469.64898	4677.6625
1473.05586	4705.2625
1476.46045	4745.7625
1479.86276	4733.9625
1483.26279	4746.1625
1486.66054	4775.8625
1490.05602	4817.1625
1493.44922	4891.0625
1496.84016	4993.5625
1500.22882	5120.0625
1503.61521	5311.0625
1506.99934	5498.9625
1510.38121	5639.8625
1513.76081	5670.4625
1517.13816	5581.0625
1520.51324	5429.8625
1523.88607	5283.4625
1527.25665	5212.7625
1530.62498	5202.7625
1533.99105	5201.9625
1537.35488	5216.7625
1540.71647	5237.0625
1544.07581	5252.8625
1547.4329	5274.2625
1550.78776	5286.6625
1554.14038	5297.6625
1557.49077	5309.6625
1560.83892	5311.4625
1564.18484	5332.5625
1567.52853	5326.3625
1570.86999	5356.3625
1574.20922	5362.3625
1577.54624	5389.9625
1580.88103	5359.0625
1584.2136	5295.1625
1587.54395	5217.1625
1590.87208	5174.6625
1594.19801	5176.9625
1597.52172	5213.4625
1600.84321	5232.5625
1604.16251	5209.4625
1607.47959	5136.2625
1610.79447	5089.1625
1614.10715	5007.6625
1617.41763	4950.8625
1620.7259	4930.0625
1624.03199	4922.0625
1627.33587	4943.6625
1630.63757	4974.1625
1633.93707	5074.8625
1637.23439	5216.4625
1640.52951	5405.4625
1643.82246	5625.2625
1647.11321	5879.6625
1650.40179	6014.1625
1653.68819	6040.0625
1656.97241	5885.7625
1660.25446	5671.0625
1663.53433	5515.7625
1666.81203	5408.3625
1670.08756	5331.9625
1673.36092	5315.4625
1676.63211	5309.3625
1679.90115	5296.3625
1683.16801	5268.1625
1686.43272	5210.8625
1689.69527	5140.0625
1692.95567	5056.5625
1696.2139	4975.3625
1699.46999	4878.7625
1702.72392	4783.8625
1705.97571	4671.6625
1709.22535	4500.8625
1712.47284	4359.5625
1715.71819	4239.0625
1718.96139	4104.6625
1722.20246	3972.2625
1725.44139	3882.9625
1728.67818	3805.3625
1731.91284	3732.1625
1735.14537	3669.7625
1738.37576	3623.9625
1741.60403	3591.0625
1744.83017	3554.9625
1748.05418	3525.9625
1751.27607	3513.1625
1754.49584	3506.6625
1757.71349	3508.4625
1760.92903	3496.9625
1764.14244	3481.6625
1767.35375	3459.1625
1770.56294	3442.5625
1773.77002	3414.5625
1776.97499	3399.0625
1780.17785	3385.2625
1783.37861	3370.5625
1786.57727	3347.7625
1789.77382	3326.9625
1792.96828	3311.2625
1796.16064	3293.8625
1799.3509	3281.5625
1802.53907	3261.3625
1805.72514	3259.0625
1808.90913	3245.0625
1812.09102	3236.8625
1815.27083	3221.4625
1818.44856	3217.3625
1821.6242	3203.3625
1824.79776	3198.5625
1827.96924	3197.3625
1831.13864	3188.1625
1834.30597	3186.1625
1837.47122	3183.2625
1840.6344	3166.5625
1843.7955	3150.7625
1846.95454	3152.0625
1850.11151	3155.5625
1853.26642	3153.0625
1856.41926	3145.8625
1859.57004	3132.5625
1862.71876	3134.7625
1865.86542	3119.0625
1869.01003	3125.3625
1872.15258	3124.6625
1875.29308	3113.9625
1878.43152	3108.6625
1881.56792	3079.2625
1884.70227	3085.3625
1887.83457	3085.6625
1890.96482	3077.0625
1894.09304	3078.2625
1897.21921	3049.9625
1900.34335	3048.4625
1903.46544	3051.9625
1906.58551	3047.8625
1909.70353	3042.9625
1912.81953	3037.3625
1915.93349	3029.7625
1919.04543	3007.8625
1922.15534	3008.9625
1925.26322	3008.9625
1928.36908	2998.2625
1931.47292	2994.9625
1934.57473	2975.7625
1937.67453	2969.1625
1940.77232	2968.7625
1943.86808	2956.9625
1946.96184	2946.1625
1950.05358	2939.9625
1953.14331	2928.4625
1956.23103	2902.5625
1959.31675	2896.5625
1962.40046	2896.8625
1965.48217	2883.0625
1968.56188	2876.0625
1971.63959	2871.6625
1974.7153	2846.4625
1977.78901	2853.8625
1980.86073	2845.9625
1983.93046	2829.8625
1986.99819	2829.2625
1990.06394	2810.4625
1993.1277	2815.2625
1996.18947	2796.6625
1999.24925	2794.4625
2002.30706	2778.9625
2005.36288	2777.2625
2008.41672	2747.5625
2011.46859	2743.3625
2014.51848	2732.7625
2017.56639	2728.2625
2020.61233	2720.8625
2023.6563	2703.4625
2026.6983	2700.4625
2029.73833	2692.4625
2032.7764	2684.1625
2035.8125	2681.0625
2038.84664	2672.8625
2041.87881	2666.7625
2044.90903	2651.2625
2047.93729	2658.5625
2050.96359	2648.3625
2053.98794	2644.5625
2057.01034	2623.7625
2060.03078	2638.6625
2063.04927	2637.5625
2066.06582	2635.6625
2069.08042	2630.4625
2072.09307	2626.2625
2075.10378	2634.6625
2078.11255	2619.6625
2081.11938	2626.7625
2084.12426	2624.4625
2087.12722	2620.3625
2090.12824	2630.5625
2093.12732	2613.6625
2096.12447	2613.6625
2099.11969	2614.9625
2102.11299	2620.3625
2105.10435	2604.4625
2108.09379	2593.2625
2111.08131	2605.1625
2114.0669	2600.6625
2117.05057	2604.7625
2120.03233	2611.8625
2123.01216	2612.1625
2125.99008	2606.5625
2128.96609	2609.5625
2131.94018	2611.7625
2134.91236	2614.6625
2137.88263	2597.8625
2140.851	2606.8625
2143.81746	2607.7625
2146.78201	2610.7625
2149.74466	2614.6625
2152.7054	2600.4625
2155.66425	2612.0625
2158.6212	2610.2625
2161.57625	2604.4625
2164.52941	2592.5625
2167.48067	2594.4625
2170.43004	2600.7625
2173.37752	2603.0625
2176.32311	2595.6625
2179.26681	2585.6625
2182.20863	2577.8625
2185.14856	2575.3625
2188.08661	2580.8625
2191.02278	2586.3625
2193.95707	2579.2625
2196.88948	2577.5625
2199.82001	2562.9625
2202.74867	2555.4625
2205.67545	2558.8625
2208.60037	2551.8625
2211.52341	2545.3625
2214.44458	2536.1625
2217.36388	2524.1625
2220.28132	2518.7625
2223.1969	2502.6625
2226.11061	2509.1625
2229.02246	2499.9625
2231.93245	2501.4625
2234.84058	2490.4625
2237.74686	2484.5625
2240.65128	2478.8625
2243.55385	2475.1625
2246.45456	2472.9625
2249.35343	2466.8625
2252.25044	2470.1625
2255.14561	2450.0625
2258.03893	2446.9625
2260.93041	2456.1625
2263.82004	2433.3625
2266.70783	2433.0625
2269.59378	2415.4625
2272.4779	2418.7625
2275.36017	2406.0625
2278.24061	2410.2625
2281.11922	2402.3625
2283.996	2390.6625
2286.87094	2379.9625
2289.74405	2381.3625
2292.61534	2381.8625
2295.4848	2380.9625
2298.35243	2371.3625
2301.21824	2366.0625
2304.08223	2363.8625
2306.94439	2365.8625
2309.80474	2349.8625
2312.66327	2351.0625
2315.51999	2347.7625
2318.37489	2337.3625
2321.22797	2341.7625
2324.07925	2339.8625
2326.92871	2343.3625
2329.77637	2317.6625
2332.62222	2318.6625
2335.46626	2306.7625
2338.3085	2315.3625
2341.14893	2310.6625
2343.98756	2299.9625
2346.8244	2295.0625
2349.65943	2297.6625
2352.49267	2276.3625
2355.32411	2277.2625
2358.15376	2290.8625
2360.98161	2277.3625
2363.80768	2279.4625
2366.63195	2272.4625
2369.45444	2277.3625
2372.27514	2277.7625
2375.09405	2272.2625
2377.91118	2260.5625
2380.72652	2254.6625
2383.54009	2258.3625
2386.35187	2238.6625
2389.16188	2238.4625
2391.97011	2235.8625
2394.77657	2237.0625
2397.58125	2220.5625
2400.38416	2224.7625
2403.18529	2216.4625
2405.98466	2227.8625
2408.78226	2215.3625
2411.57809	2209.9625
2414.37216	2195.2625
2417.16446	2194.3625
2419.955	2189.8625
2422.74378	2189.6625
2425.5308	2171.0625
2428.31606	2176.9625
2431.09956	2170.6625
2433.88131	2159.8625
2436.6613	2173.7625
2439.43954	2160.2625
2442.21603	2154.7625
2444.99077	2146.9625
2447.76377	2148.1625
2450.53501	2155.4625
2453.30451	2148.7625
2456.07226	2141.0625
2458.83827	2141.2625
2461.60254	2141.7625
2464.36507	2130.4625
2467.12586	2126.5625
2469.88492	2130.5625
2472.64224	2127.1625
2475.39782	2121.6625
2478.15167	2128.2625
2480.90379	2114.9625
2483.65417	2120.5625
2486.40283	2106.3625
2489.14976	2102.4625
2491.89497	2098.9625
2494.63845	2112.2625
2497.3802	2104.2625
2500.12024	2098.0625
2502.85855	2098.4625
2505.59514	2095.9625
2508.33002	2087.5625
2511.06318	2087.0625
2513.79462	2085.4625
2516.52435	2076.3625
2519.25237	2073.6625
2521.97867	2064.1625
2524.70327	2073.6625
2527.42616	2066.3625
2530.14734	2060.8625
2532.86681	2043.4625
2535.58458	2041.1625
2538.30065	2046.9625
2541.01501	2048.2625
2543.72768	2036.1625
2546.43864	2029.1625
2549.14791	2032.3625
2551.85548	2020.5625
2554.56136	2017.7625
2557.26554	2006.2625
2559.96803	2003.9625
2562.66883	2005.8625
2565.36794	2003.2625
2568.06536	2001.0625
2570.7611	1995.1625
2573.45514	1985.9625
2576.14751	1985.4625
2578.83819	1990.2625
2581.52719	1976.7625
2584.21451	1975.0625
2586.90015	1967.2625
2589.58411	1965.6625
2592.2664	1960.4625
2594.94701	1950.1625
2597.62594	1952.2625
2600.30321	1943.8625
2602.9788	1939.7625
2605.65273	1942.7625
2608.32498	1934.6625
2610.99557	1936.7625
2613.66449	1932.9625
2616.33175	1918.6625
2618.99734	1932.7625
2621.66128	1907.5625
2624.32355	1916.1625
2626.98416	1909.4625
2629.64311	1902.2625
2632.30041	1905.3625
2634.95605	1905.0625
2637.61004	1899.9625
2640.26238	1894.8625
2642.91306	1898.7625
2645.56209	1890.8625
2648.20948	1898.4625
2650.85521	1881.9625
2653.4993	1887.7625
2656.14175	1889.2625
2658.78255	1887.8625
2661.42171	1886.2625
2664.05923	1881.4625
2666.6951	1882.1625
2669.32934	1878.6625
2671.96194	1871.9625
2674.59291	1883.0625
2677.22224	1875.9625
2679.84993	1872.6625
2682.476	1873.2625
2685.10043	1884.4625
2687.72324	1871.8625
2690.34441	1871.3625
2692.96396	1869.8625
2695.58188	1876.3625
2698.19818	1889.1625
2700.81285	1876.2625
2703.4259	1885.8625
2706.03733	1892.7625
2708.64714	1893.9625
2711.25533	1879.1625
2713.86191	1876.3625
2716.46687	1874.0625
2719.07021	1876.1625
2721.67194	1878.1625
2724.27206	1867.1625
2726.87057	1882.7625
2729.46747	1874.5625
2732.06276	1875.5625
2734.65644	1859.3625
2737.24852	1872.2625
2739.83899	1864.6625
2742.42786	1855.8625
2745.01513	1851.6625
2747.60079	1860.0625
2750.18486	1851.1625
2752.76733	1836.8625
2755.3482	1850.3625
2757.92747	1843.4625
2760.50515	1838.9625
2763.08123	1837.8625
2765.65573	1830.2625
2768.22863	1835.2625
2770.79994	1819.5625
2773.36967	1829.2625
2775.9378	1826.3625
2778.50435	1805.9625
2781.06932	1811.6625
2783.6327	1814.1625
2786.1945	1814.6625
2788.75471	1804.4625
2791.31335	1802.1625
2793.87041	1800.3625
2796.42589	1789.6625
2798.97979	1784.1625
2801.53212	1781.3625
2804.08288	1775.5625
2806.63206	1780.0625
2809.17967	1767.7625
2811.72571	1763.6625
2814.27018	1759.6625
2816.81308	1750.1625
2819.35442	1762.8625
2821.89419	1755.5625
2824.43239	1753.3625
2826.96904	1750.0625
2829.50412	1749.3625
2832.03763	1750.0625
2834.56959	1743.1625
2837.1	1751.9625
2839.62884	1750.4625
2842.15613	1743.9625
2844.68186	1749.0625
2847.20604	1744.0625
2849.72867	1750.4625
2852.24974	1744.8625
2854.76927	1743.6625
2857.28724	1746.8625
2859.80367	1739.1625
2862.31855	1748.6625
2864.83189	1744.0625
2867.34368	1736.7625
2869.85393	1735.6625
2872.36264	1737.0625
2874.8698	1743.1625
2877.37543	1746.6625
2879.87952	1743.6625
2882.38207	1735.1625
2884.88308	1744.8625
2887.38256	1742.1625
2889.88051	1747.3625
2892.37692	1745.8625
2894.8718	1742.4625
2897.36515	1746.2625
2899.85698	1746.3625
2902.34727	1760.0625
2904.83604	1746.7625
2907.32328	1739.7625
2909.809	1749.7625
2912.29319	1761.0625
2914.77587	1754.6625
2917.25702	1753.7625
2919.73665	1750.9625
2922.21476	1762.7625
2924.69136	1764.2625
2927.16644	1767.9625
2929.64	1758.3625
2932.11205	1762.8625
2934.58258	1760.5625
2937.05161	1769.0625
2939.51912	1759.5625
2941.98513	1760.0625
2944.44962	1768.0625
2946.91261	1759.6625
2949.37409	1763.4625
2951.83407	1761.1625
2954.29254	1764.1625
2956.74951	1758.3625
2959.20498	1750.0625
2961.65895	1741.1625
2964.11142	1757.9625
2966.56239	1740.9625
2969.01186	1744.0625
2971.45984	1731.8625
2973.90632	1729.1625
2976.35131	1727.0625
2978.7948	1724.2625
2981.23681	1711.5625
2983.67732	1713.7625
2986.11635	1709.2625
2988.55388	1716.2625
2990.98993	1704.8625
2993.4245	1704.7625
2995.85758	1706.2625
2998.28917	1706.6625
3000.71928	1705.6625
3003.14791	1695.3625
3005.57506	1704.2625
3008.00073	1695.9625
3010.42493	1696.6625
3012.84764	1709.1625
3015.26888	1703.8625
3017.68865	1698.9625
3020.10694	1706.4625
3022.52376	1702.1625
3024.9391	1705.8625
3027.35298	1698.0625
3029.76539	1698.5625
3032.17632	1705.9625
3034.5858	1691.5625
3036.9938	1709.3625
3039.40034	1702.0625
3041.80542	1700.6625
3044.20903	1698.4625
3046.61118	1718.5625
3049.01187	1697.6625
3051.4111	1712.4625
3053.80888	1705.1625
3056.20519	1711.9625
3058.60005	1698.1625
3060.99345	1703.9625
3063.3854	1702.2625
3065.7759	1692.4625
3068.16494	1702.9625
3070.55254	1718.1625
3072.93868	1703.0625
3075.32338	1714.9625
3077.70662	1709.7625
3080.08842	1710.6625
3082.46878	1718.4625
3084.84769	1725.9625
3087.22515	1719.3625
3089.60118	1739.7625
3091.97576	1730.6625
3094.3489	1743.7625
3096.72061	1743.2625
3099.09087	1750.7625
3101.4597	1760.1625
3103.82709	1754.8625
3106.19305	1751.0625
3108.55757	1766.6625
3110.92066	1754.1625
3113.28232	1763.6625
3115.64255	1766.7625
3118.00134	1763.7625
3120.35871	1767.2625
3122.71466	1772.8625
3125.06917	1777.4625
