Data from AgNPs_FTO_APTES_UA_0.1mM_CRN_0uM_NaF_0.1M_Addition_RamanShift__0__10-02-37-458.txt Node

Date: Mon Dec 20 10:02:37 GMT 2021
User: TCL
Spectrometer: QEP01345
Trigger mode: 4
Integration Time (sec): 7.000000E0
Scans to average: 10
Electric dark correction enabled: true
Nonlinearity correction enabled: false
Boxcar width: 0
XAxis mode: Raman Shifts
Number of Pixels in Spectrum: 1044
>>>>>Begin Spectral Data<<<<<
46.04893	-0.025
50.45542	-0.625
54.85868	-0.725
59.25871	1.475
63.6555	22.775
68.04907	22.075
72.43941	27.775
76.82654	27.475
81.21044	28.075
85.59113	35.575
89.96862	31.475
94.34289	31.675
98.71396	34.675
103.08183	32.875
107.4465	36.875
111.80798	36.475
116.16626	33.875
120.52136	36.775
124.87327	36.175
129.222	37.975
133.56755	34.475
137.90993	37.975
142.24913	36.775
146.58517	39.375
150.91804	43.775
155.24774	46.375
159.57429	52.675
163.89768	60.975
168.21792	80.775
172.53501	94.775
176.84895	128.675
181.15975	171.775
185.46741	228.075
189.77193	312.675
194.07331	413.175
198.37157	550.875
202.6667	674.675
206.9587	818.875
211.24758	946.375
215.53334	1092.775
219.81599	1232.775
224.09553	1379.775
228.37195	1540.475
232.64527	1712.475
236.91549	1893.575
241.18261	2049.475
245.44663	2197.775
249.70755	2329.775
253.96539	2435.475
258.22014	2501.075
262.4718	2565.775
266.72039	2568.275
270.96589	2540.675
275.20832	2535.075
279.44768	2471.175
283.68397	2395.175
287.91719	2330.275
292.14735	2255.175
296.37445	2193.075
300.59849	2149.175
304.81948	2103.275
309.03742	2072.075
313.25231	2033.375
317.46415	1994.575
321.67296	1948.575
325.87872	1934.575
330.08145	1905.675
334.28114	1902.975
338.47781	1898.375
342.67145	1898.775
346.86207	1906.575
351.04966	1910.475
355.23424	1925.875
359.4158	1927.775
363.59435	1924.175
367.76989	1927.075
371.94243	1935.275
376.11196	1920.975
380.27849	1924.275
384.44203	1915.275
388.60257	1918.975
392.76012	1923.375
396.91468	1929.975
401.06626	1926.175
405.21485	1928.575
409.36047	1934.275
413.50311	1934.475
417.64277	1933.175
421.77947	1946.075
425.9132	1903.175
430.04396	1888.975
434.17176	1906.875
438.2966	1911.075
442.41849	1922.475
446.53742	1923.075
450.6534	1944.975
454.76644	1951.075
458.87653	1963.875
462.98368	1968.075
467.08789	1971.175
471.18916	1972.675
475.2875	1979.475
479.38291	1984.675
483.4754	2002.175
487.56496	2022.575
491.6516	2033.775
495.73531	2056.475
499.81612	2069.975
503.89401	2072.675
507.96899	2043.775
512.04106	2031.375
516.11023	2029.675
520.1765	2038.075
524.23987	2028.575
528.30034	2023.075
532.35792	2008.375
536.41261	1999.475
540.46441	1984.075
544.51333	1965.075
548.55936	1959.575
552.60252	1956.175
556.64279	1967.075
560.6802	1961.175
564.71473	1959.975
568.7464	1966.675
572.7752	1979.975
576.80114	1971.575
580.82422	1961.975
584.84444	1963.475
588.86181	1981.375
592.87633	1992.275
596.888	2007.475
600.89682	2014.175
604.9028	2044.375
608.90594	2152.875
612.90624	2339.575
616.90371	2393.375
620.89834	2247.375
624.89015	2208.075
628.87913	2277.175
632.86528	2383.975
636.84862	2474.775
640.82913	2484.575
644.80683	2409.375
648.78172	2303.575
652.75379	2232.975
656.72306	2188.975
660.68952	2180.275
664.65319	2158.075
668.61405	2142.075
672.57211	2148.375
676.52738	2177.775
680.47986	2210.875
684.42955	2254.975
688.37646	2275.675
692.32058	2282.375
696.26192	2247.375
700.20048	2186.575
704.13626	2184.275
708.06928	2185.275
711.99952	2191.875
715.927	2165.175
719.85171	2160.475
723.77365	2161.875
727.69284	2170.675
731.60928	2170.875
735.52295	2167.575
739.43388	2141.775
743.34206	2118.575
747.24749	2089.775
751.15017	2081.475
755.05012	2079.675
758.94733	2099.975
762.8418	2136.875
766.73354	2196.975
770.62254	2275.575
774.50882	2339.575
778.39237	2338.175
782.27321	2274.975
786.15132	2207.575
790.02671	2202.175
793.89938	2227.275
797.76935	2278.475
801.6366	2354.575
805.50115	2402.175
809.36299	2434.275
813.22213	2421.075
817.07857	2361.975
820.93231	2290.175
824.78336	2218.375
828.63172	2162.575
832.47738	2127.075
836.32036	2110.775
840.16066	2121.875
843.99827	2108.675
847.8332	2097.375
851.66546	2052.875
855.49504	2034.075
859.32195	2016.375
863.1462	2008.375
866.96777	2019.775
870.78668	2026.775
874.60293	2058.075
878.41652	2104.875
882.22745	2155.675
886.03573	2211.875
889.84136	2269.575
893.64433	2305.875
897.44466	2294.775
901.24235	2276.275
905.0374	2239.575
908.8298	2236.175
912.61957	2254.175
916.40671	2340.675
920.19121	2416.475
923.97308	2495.375
927.75233	2545.675
931.52895	2560.475
935.30295	2541.175
939.07433	2500.575
942.84309	2452.275
946.60924	2434.475
950.37278	2434.675
954.13371	2416.975
957.89203	2363.775
961.64774	2300.175
965.40086	2235.575
969.15137	2179.275
972.89929	2133.775
976.64461	2110.975
980.38733	2082.575
984.12747	2078.875
987.86502	2068.675
991.59999	2081.475
995.33237	2095.875
999.06217	2131.675
1002.78939	2176.175
1006.51404	2229.075
1010.23611	2287.775
1013.95561	2359.975
1017.67255	2434.775
1021.38692	2482.975
1025.09872	2507.275
1028.80796	2474.175
1032.51465	2421.975
1036.21877	2371.275
1039.92035	2290.175
1043.61937	2225.575
1047.31584	2165.475
1051.00976	2104.575
1054.70114	2086.875
1058.38998	2079.275
1062.07627	2061.975
1065.76003	2068.975
1069.44126	2080.875
1073.11995	2072.275
1076.79611	2086.675
1080.46974	2073.475
1084.14085	2077.775
1087.80943	2061.975
1091.47549	2029.275
1095.13903	2008.075
1098.80005	1981.275
1102.45857	1961.575
1106.11456	1954.375
1109.76805	1952.375
1113.41903	1979.875
1117.06751	2046.075
1120.71348	2118.375
1124.35696	2240.275
1127.99793	2368.475
1131.63641	2495.275
1135.2724	2537.375
1138.90589	2512.275
1142.5369	2443.475
1146.16542	2347.075
1149.79145	2248.375
1153.415	2158.575
1157.03607	2083.475
1160.65467	2042.775
1164.27079	2019.675
1167.88443	2019.375
1171.49561	2040.475
1175.10432	2076.575
1178.71056	2148.675
1182.31434	2216.675
1185.91565	2243.975
1189.51451	2249.575
1193.11091	2237.875
1196.70485	2233.675
1200.29634	2238.675
1203.88538	2234.275
1207.47197	2215.775
1211.05612	2184.875
1214.63782	2132.775
1218.21708	2104.675
1221.79391	2081.275
1225.36829	2057.675
1228.94024	2059.875
1232.50976	2072.675
1236.07685	2077.575
1239.6415	2091.975
1243.20374	2118.475
1246.76355	2148.375
1250.32093	2165.375
1253.8759	2200.275
1257.42845	2232.275
1260.97859	2254.575
1264.52631	2300.775
1268.07163	2334.375
1271.61453	2371.775
1275.15503	2385.775
1278.69312	2426.875
1282.22882	2457.575
1285.76211	2509.375
1289.29301	2575.575
1292.82151	2642.075
1296.34761	2717.875
1299.87133	2786.275
1303.39266	2839.775
1306.9116	2925.675
1310.42815	2988.175
1313.94233	3027.475
1317.45412	2988.375
1320.96354	2918.575
1324.47058	2859.775
1327.97525	2814.375
1331.47754	2802.375
1334.97747	2837.475
1338.47502	2891.975
1341.97022	2979.175
1345.46305	3074.075
1348.95352	3228.175
1352.44163	3394.775
1355.92738	3579.575
1359.41078	3791.675
1362.89183	3975.775
1366.37053	4062.275
1369.84688	3939.975
1373.32088	3786.875
1376.79254	3667.675
1380.26186	3614.175
1383.72883	3574.875
1387.19347	3561.475
1390.65578	3561.275
1394.11575	3555.175
1397.57339	3533.675
1401.0287	3518.375
1404.48168	3463.075
1407.93234	3418.675
1411.38068	3375.775
1414.82669	3330.775
1418.27039	3291.975
1421.71177	3240.075
1425.15083	3169.775
1428.58758	3091.875
1432.02203	2985.275
1435.45416	2915.375
1438.88399	2849.775
1442.31151	2809.175
1445.73673	2758.075
1449.15965	2734.975
1452.58027	2710.375
1455.9986	2690.075
1459.41463	2689.075
1462.82837	2690.875
1466.23982	2714.475
1469.64898	2740.375
1473.05586	2769.575
1476.46045	2783.275
1479.86276	2812.875
1483.26279	2834.775
1486.66054	2839.275
1490.05602	2859.075
1493.44922	2854.775
1496.84016	2875.575
1500.22882	2910.675
1503.61521	2977.875
1506.99934	3054.575
1510.38121	3153.075
1513.76081	3155.375
1517.13816	3067.375
1520.51324	2926.775
1523.88607	2796.275
1527.25665	2694.375
1530.62498	2639.175
1533.99105	2623.075
1537.35488	2596.075
1540.71647	2591.575
1544.07581	2576.275
1547.4329	2583.375
1550.78776	2594.375
1554.14038	2584.975
1557.49077	2588.775
1560.83892	2577.475
1564.18484	2563.475
1567.52853	2552.375
1570.86999	2537.175
1574.20922	2512.275
1577.54624	2478.775
1580.88103	2429.975
1584.2136	2340.175
1587.54395	2296.575
1590.87208	2250.475
1594.19801	2216.075
1597.52172	2214.175
1600.84321	2220.575
1604.16251	2197.375
1607.47959	2179.175
1610.79447	2177.475
1614.10715	2149.775
1617.41763	2152.975
1620.7259	2132.875
1624.03199	2105.775
1627.33587	2112.175
1630.63757	2100.975
1633.93707	2091.575
1637.23439	2098.475
1640.52951	2103.275
1643.82246	2123.975
1647.11321	2174.675
1650.40179	2229.475
1653.68819	2225.175
1656.97241	2161.675
1660.25446	2067.475
1663.53433	1992.575
1666.81203	1957.275
1670.08756	1914.575
1673.36092	1897.375
1676.63211	1891.775
1679.90115	1871.175
1683.16801	1853.075
1686.43272	1830.775
1689.69527	1808.975
1692.95567	1780.275
1696.2139	1769.175
1699.46999	1723.675
1702.72392	1683.275
1705.97571	1636.275
1709.22535	1587.375
1712.47284	1546.975
1715.71819	1488.475
1718.96139	1464.975
1722.20246	1420.175
1725.44139	1410.375
1728.67818	1378.375
1731.91284	1358.675
1735.14537	1329.075
1738.37576	1316.875
1741.60403	1309.975
1744.83017	1279.575
1748.05418	1278.675
1751.27607	1271.575
1754.49584	1256.875
1757.71349	1254.375
1760.92903	1242.575
1764.14244	1242.575
1767.35375	1234.875
1770.56294	1226.375
1773.77002	1219.475
1776.97499	1218.175
1780.17785	1215.575
1783.37861	1215.275
1786.57727	1205.775
1789.77382	1195.975
1792.96828	1207.775
1796.16064	1190.975
1799.3509	1186.975
1802.53907	1183.775
1805.72514	1178.375
1808.90913	1171.575
1812.09102	1180.075
1815.27083	1172.375
1818.44856	1160.375
1821.6242	1165.275
1824.79776	1158.875
1827.96924	1158.075
1831.13864	1142.775
1834.30597	1150.675
1837.47122	1149.175
1840.6344	1144.275
1843.7955	1144.875
1846.95454	1133.075
1850.11151	1136.575
1853.26642	1135.775
1856.41926	1135.975
1859.57004	1135.375
1862.71876	1136.375
1865.86542	1127.875
1869.01003	1128.775
1872.15258	1123.675
1875.29308	1131.275
1878.43152	1121.375
1881.56792	1120.675
1884.70227	1109.575
1887.83457	1117.975
1890.96482	1116.275
1894.09304	1112.975
1897.21921	1111.875
1900.34335	1111.675
1903.46544	1100.675
1906.58551	1103.075
1909.70353	1108.375
1912.81953	1099.775
1915.93349	1094.975
1919.04543	1100.575
1922.15534	1099.075
1925.26322	1093.975
1928.36908	1094.475
1931.47292	1080.675
1934.57473	1080.975
1937.67453	1082.075
1940.77232	1081.975
1943.86808	1074.775
1946.96184	1071.875
1950.05358	1063.075
1953.14331	1069.875
1956.23103	1059.575
1959.31675	1063.375
1962.40046	1059.375
1965.48217	1056.375
1968.56188	1041.375
1971.63959	1042.075
1974.7153	1034.375
1977.78901	1042.875
1980.86073	1030.075
1983.93046	1033.075
1986.99819	1034.075
1990.06394	1022.875
1993.1277	1027.675
1996.18947	1021.475
1999.24925	1016.175
2002.30706	1009.775
2005.36288	1015.575
2008.41672	1007.275
2011.46859	1005.675
2014.51848	1000.175
2017.56639	996.675
2020.61233	999.175
2023.6563	994.775
2026.6983	989.875
2029.73833	992.875
2032.7764	988.275
2035.8125	997.575
2038.84664	983.675
2041.87881	977.575
2044.90903	981.575
2047.93729	981.575
2050.96359	987.075
2053.98794	997.275
2057.01034	988.675
2060.03078	989.275
2063.04927	998.475
2066.06582	1004.275
2069.08042	1009.275
2072.09307	1017.575
2075.10378	1026.975
2078.11255	1032.275
2081.11938	1047.575
2084.12426	1054.875
2087.12722	1066.275
2090.12824	1081.375
2093.12732	1088.275
2096.12447	1096.075
2099.11969	1107.175
2102.11299	1112.775
2105.10435	1119.875
2108.09379	1123.975
2111.08131	1109.075
2114.0669	1110.775
2117.05057	1121.675
2120.03233	1114.475
2123.01216	1106.675
2125.99008	1098.675
2128.96609	1107.975
2131.94018	1093.075
2134.91236	1086.975
2137.88263	1072.775
2140.851	1072.275
2143.81746	1066.475
2146.78201	1048.575
2149.74466	1043.875
2152.7054	1036.475
2155.66425	1027.175
2158.6212	1011.275
2161.57625	1004.675
2164.52941	990.575
2167.48067	977.275
2170.43004	976.875
2173.37752	969.375
2176.32311	960.375
2179.26681	960.475
2182.20863	960.275
2185.14856	948.275
2188.08661	955.875
2191.02278	944.975
2193.95707	947.775
2196.88948	943.375
2199.82001	943.475
2202.74867	942.175
2205.67545	940.575
2208.60037	942.375
2211.52341	931.775
2214.44458	931.275
2217.36388	928.975
2220.28132	927.775
2223.1969	921.275
2226.11061	925.175
2229.02246	923.575
2231.93245	912.775
2234.84058	910.775
2237.74686	909.875
2240.65128	908.475
2243.55385	900.475
2246.45456	896.675
2249.35343	898.375
2252.25044	912.075
2255.14561	899.375
2258.03893	907.875
2260.93041	895.375
2263.82004	892.175
2266.70783	888.675
2269.59378	892.975
2272.4779	890.175
2275.36017	885.475
2278.24061	883.875
2281.11922	880.175
2283.996	883.175
2286.87094	881.375
2289.74405	879.875
2292.61534	876.575
2295.4848	876.475
2298.35243	877.875
2301.21824	877.275
2304.08223	872.875
2306.94439	869.575
2309.80474	866.075
2312.66327	870.275
2315.51999	865.975
2318.37489	864.575
2321.22797	865.475
2324.07925	861.975
2326.92871	861.875
2329.77637	860.175
2332.62222	860.375
2335.46626	856.075
2338.3085	849.475
2341.14893	857.575
2343.98756	849.775
2346.8244	849.075
2349.65943	843.175
2352.49267	849.475
2355.32411	844.175
2358.15376	846.075
2360.98161	847.775
2363.80768	845.175
2366.63195	838.875
2369.45444	842.875
2372.27514	839.075
2375.09405	838.275
2377.91118	838.675
2380.72652	829.175
2383.54009	833.275
2386.35187	841.075
2389.16188	826.975
2391.97011	835.275
2394.77657	822.075
2397.58125	821.575
2400.38416	827.375
2403.18529	820.675
2405.98466	813.275
2408.78226	813.775
2411.57809	809.975
2414.37216	808.075
2417.16446	814.975
2419.955	812.775
2422.74378	811.775
2425.5308	805.875
2428.31606	805.375
2431.09956	799.375
2433.88131	804.075
2436.6613	805.575
2439.43954	806.875
2442.21603	802.575
2444.99077	801.175
2447.76377	795.475
2450.53501	798.675
2453.30451	805.875
2456.07226	801.875
2458.83827	796.175
2461.60254	792.475
2464.36507	795.475
2467.12586	787.675
2469.88492	792.075
2472.64224	785.275
2475.39782	791.675
2478.15167	786.375
2480.90379	787.075
2483.65417	782.875
2486.40283	784.275
2489.14976	783.675
2491.89497	781.375
2494.63845	780.875
2497.3802	777.775
2500.12024	779.775
2502.85855	774.275
2505.59514	778.175
2508.33002	777.475
2511.06318	774.675
2513.79462	778.775
2516.52435	772.875
2519.25237	767.875
2521.97867	764.575
2524.70327	764.575
2527.42616	759.875
2530.14734	765.075
2532.86681	755.975
2535.58458	756.475
2538.30065	761.775
2541.01501	754.675
2543.72768	754.575
2546.43864	756.575
2549.14791	754.375
2551.85548	754.675
2554.56136	755.375
2557.26554	747.975
2559.96803	745.075
2562.66883	749.275
2565.36794	747.475
2568.06536	745.775
2570.7611	739.775
2573.45514	734.375
2576.14751	743.575
2578.83819	742.875
2581.52719	744.875
2584.21451	741.175
2586.90015	729.875
2589.58411	736.175
2592.2664	730.675
2594.94701	735.775
2597.62594	729.975
2600.30321	727.475
2602.9788	730.175
2605.65273	731.675
2608.32498	720.175
2610.99557	726.775
2613.66449	725.775
2616.33175	731.175
2618.99734	718.475
2621.66128	717.175
2624.32355	723.575
2626.98416	723.375
2629.64311	718.275
2632.30041	716.275
2634.95605	714.475
2637.61004	713.575
2640.26238	723.675
2642.91306	712.575
2645.56209	712.675
2648.20948	715.675
2650.85521	718.075
2653.4993	720.675
2656.14175	717.275
2658.78255	715.075
2661.42171	716.075
2664.05923	715.075
2666.6951	720.375
2669.32934	715.775
2671.96194	716.975
2674.59291	723.175
2677.22224	721.975
2679.84993	722.375
2682.476	715.875
2685.10043	731.175
2687.72324	724.175
2690.34441	725.375
2692.96396	722.175
2695.58188	729.475
2698.19818	726.475
2700.81285	729.475
2703.4259	735.775
2706.03733	727.175
2708.64714	736.275
2711.25533	734.075
2713.86191	731.375
2716.46687	728.475
2719.07021	735.475
2721.67194	735.775
2724.27206	734.675
2726.87057	737.275
2729.46747	741.275
2732.06276	732.975
2734.65644	739.275
2737.24852	729.575
2739.83899	738.575
2742.42786	731.575
2745.01513	723.575
2747.60079	736.575
2750.18486	730.775
2752.76733	728.575
2755.3482	723.375
2757.92747	728.875
2760.50515	725.875
2763.08123	732.075
2765.65573	722.475
2768.22863	724.775
2770.79994	724.875
2773.36967	721.775
2775.9378	717.875
2778.50435	718.975
2781.06932	717.375
2783.6327	715.675
2786.1945	716.175
2788.75471	714.075
2791.31335	715.675
2793.87041	712.075
2796.42589	708.675
2798.97979	712.975
2801.53212	712.475
2804.08288	708.075
2806.63206	708.775
2809.17967	700.775
2811.72571	707.475
2814.27018	698.275
2816.81308	700.275
2819.35442	701.275
2821.89419	693.275
2824.43239	693.275
2826.96904	694.075
2829.50412	689.275
2832.03763	695.875
2834.56959	694.875
2837.1	692.075
2839.62884	688.475
2842.15613	693.175
2844.68186	695.875
2847.20604	699.975
2849.72867	696.375
2852.24974	699.475
2854.76927	691.275
2857.28724	692.575
2859.80367	693.375
2862.31855	695.675
2864.83189	698.375
2867.34368	700.275
2869.85393	700.875
2872.36264	698.575
2874.8698	709.675
2877.37543	707.475
2879.87952	704.875
2882.38207	714.275
2884.88308	710.975
2887.38256	714.075
2889.88051	723.875
2892.37692	720.575
2894.8718	735.475
2897.36515	733.775
2899.85698	752.075
2902.34727	756.475
2904.83604	758.875
2907.32328	769.075
2909.809	784.275
2912.29319	789.175
2914.77587	792.375
2917.25702	807.575
2919.73665	822.775
2922.21476	823.375
2924.69136	825.375
2927.16644	843.375
2929.64	845.975
2932.11205	837.875
2934.58258	847.775
2937.05161	850.175
2939.51912	852.675
2941.98513	849.775
2944.44962	843.975
2946.91261	827.975
2949.37409	832.475
2951.83407	820.975
2954.29254	806.775
2956.74951	800.975
2959.20498	784.975
2961.65895	766.175
2964.11142	755.075
2966.56239	752.975
2969.01186	750.375
2971.45984	736.575
2973.90632	731.575
2976.35131	725.775
2978.7948	725.275
2981.23681	717.975
2983.67732	715.875
2986.11635	712.075
2988.55388	708.675
2990.98993	705.975
2993.4245	706.475
2995.85758	705.075
2998.28917	708.175
3000.71928	706.675
3003.14791	710.175
3005.57506	706.375
3008.00073	702.075
3010.42493	705.175
3012.84764	700.575
3015.26888	703.175
3017.68865	704.775
3020.10694	703.475
3022.52376	700.075
3024.9391	710.275
3027.35298	698.075
3029.76539	698.575
3032.17632	701.675
3034.5858	702.475
3036.9938	707.375
3039.40034	715.975
3041.80542	705.375
3044.20903	703.975
3046.61118	708.975
3049.01187	711.075
3051.4111	710.675
3053.80888	710.375
3056.20519	716.775
3058.60005	702.875
3060.99345	714.875
3063.3854	715.975
3065.7759	718.875
3068.16494	719.575
3070.55254	718.975
3072.93868	719.975
3075.32338	728.575
3077.70662	728.875
3080.08842	733.075
3082.46878	734.875
3084.84769	736.375
3087.22515	740.675
3089.60118	746.875
3091.97576	746.675
3094.3489	748.575
3096.72061	753.475
3099.09087	762.775
3101.4597	767.975
3103.82709	766.275
3106.19305	764.575
3108.55757	774.275
3110.92066	773.475
3113.28232	778.175
3115.64255	783.575
3118.00134	786.475
3120.35871	796.375
3122.71466	795.475
3125.06917	795.875
3127.42226	796.675
3129.77393	807.275
3132.12417	812.575
3134.47299	815.175
3136.82039	822.775
3139.16636	827.575
3141.51092	832.175
3143.85406	838.675
3146.19579	840.275
3148.53609	849.675
3150.87499	855.275
3153.21246	862.675
3155.54853	872.775
3157.88318	873.775
3160.21642	880.875
3162.54826	889.175
3164.87868	892.375
3167.2077	892.675
3169.5353	900.375
3171.86151	896.675
3174.18631	912.475
3176.5097	908.875
3178.83169	918.175
3181.15228	913.575
3183.47147	926.175
3185.78926	931.375
3188.10565	936.275
3190.42065	952.675
3192.73424	943.775
3195.04645	955.275
3197.35725	956.375
3199.66667	950.575
3201.97469	961.175
3204.28132	964.675
3206.58656	972.475
3208.8904	971.575
3211.19287	979.775
3213.49394	983.775
3215.79363	986.175
3218.09193	994.375
3220.38884	985.175
3222.68438	984.675
3224.97853	989.175
3227.2713	1000.175
3229.56269	1001.475
3231.8527	992.875
3234.14133	997.475
3236.42858	994.275
3238.71446	996.675
3240.99896	990.075
3243.28209	1002.575
3245.56384	1002.275
3247.84423	999.675
3250.12324	997.175
3252.40088	1008.675
3254.67715	998.275
3256.95205	1007.575
3259.22558	1007.075
3261.49775	999.675
3263.76855	1006.075
3266.03799	1001.175
3268.30606	1004.675
3270.57277	999.975
3272.83812	997.175
3275.10211	996.675
3277.36474	1006.875
3279.62601	1005.375
3281.88593	1014.375
3284.14448	1002.075
3286.40168	998.975
3288.65753	991.675
