Data from AgNPs_FTO_APTES_UA_0.1mM_CRN_100uM_NaF_0.1M_Addition_RamanShift__0__13-16-17-666.txt Node

Date: Mon Dec 20 13:16:17 GMT 2021
User: TCL
Spectrometer: QEP01345
Trigger mode: 4
Integration Time (sec): 7.000000E0
Scans to average: 10
Electric dark correction enabled: true
Nonlinearity correction enabled: false
Boxcar width: 0
XAxis mode: Raman Shifts
Number of Pixels in Spectrum: 1044
>>>>>Begin Spectral Data<<<<<
46.04893	1.175
50.45542	-0.425
54.85868	-2.225
59.25871	1.175
63.6555	30.775
68.04907	29.475
72.43941	32.875
76.82654	37.175
81.21044	36.275
85.59113	42.475
89.96862	38.475
94.34289	40.175
98.71396	38.775
103.08183	44.175
107.4465	46.675
111.80798	46.275
116.16626	48.775
120.52136	46.775
124.87327	50.275
129.222	50.975
133.56755	52.075
137.90993	57.575
142.24913	65.175
146.58517	65.775
150.91804	76.275
155.24774	91.875
159.57429	107.975
163.89768	136.775
168.21792	167.575
172.53501	223.475
176.84895	309.875
181.15975	425.475
185.46741	592.375
189.77193	809.575
194.07331	1082.575
198.37157	1404.675
202.6667	1740.975
206.9587	2095.575
211.24758	2424.875
215.53334	2780.475
219.81599	3132.575
224.09553	3537.075
228.37195	3984.575
232.64527	4483.875
236.91549	4989.975
241.18261	5464.175
245.44663	5906.775
249.70755	6262.575
253.96539	6562.775
258.22014	6776.375
262.4718	6942.375
266.72039	7033.375
270.96589	7028.775
275.20832	7019.675
279.44768	6918.475
283.68397	6810.675
287.91719	6708.675
292.14735	6617.975
296.37445	6584.475
300.59849	6578.175
304.81948	6581.475
309.03742	6550.875
313.25231	6523.475
317.46415	6421.375
321.67296	6314.475
325.87872	6218.475
330.08145	6155.775
334.28114	6141.675
338.47781	6157.675
342.67145	6213.675
346.86207	6271.775
351.04966	6366.775
355.23424	6457.475
359.4158	6560.575
363.59435	6659.175
367.76989	6727.275
371.94243	6804.975
376.11196	6856.375
380.27849	6922.775
384.44203	6963.475
388.60257	7052.175
392.76012	7090.075
396.91468	7140.375
401.06626	7239.275
405.21485	7290.675
409.36047	7265.175
413.50311	7204.075
417.64277	7140.875
421.77947	7090.875
425.9132	7077.075
430.04396	7101.475
434.17176	7136.675
438.2966	7198.275
442.41849	7251.675
446.53742	7356.675
450.6534	7468.375
454.76644	7550.375
458.87653	7594.975
462.98368	7584.375
467.08789	7597.475
471.18916	7569.775
475.2875	7547.575
479.38291	7580.875
483.4754	7647.875
487.56496	7777.775
491.6516	7931.175
495.73531	8053.575
499.81612	8074.775
503.89401	8026.275
507.96899	7914.075
512.04106	7843.475
516.11023	7796.475
520.1765	7805.575
524.23987	7862.275
528.30034	7873.975
532.35792	7896.475
536.41261	7871.275
540.46441	7778.975
544.51333	7674.475
548.55936	7613.775
552.60252	7596.975
556.64279	7601.475
560.6802	7613.875
564.71473	7633.375
568.7464	7690.675
572.7752	7726.475
576.80114	7769.375
580.82422	7823.175
584.84444	7948.075
588.86181	8134.675
592.87633	8307.075
596.888	8339.275
600.89682	8268.575
604.9028	8345.275
608.90594	8772.975
612.90624	9408.775
616.90371	9414.875
620.89834	8819.475
624.89015	8785.975
628.87913	9269.475
632.86528	9903.775
636.84862	10303.575
640.82913	10308.275
644.80683	9882.875
648.78172	9306.675
652.75379	8817.575
656.72306	8487.675
660.68952	8308.275
664.65319	8137.875
668.61405	7955.975
672.57211	7879.275
676.52738	7906.375
680.47986	7945.275
684.42955	7939.975
688.37646	7903.775
692.32058	7855.875
696.26192	7805.775
700.20048	7795.875
704.13626	7767.575
708.06928	7750.575
711.99952	7707.775
715.927	7745.675
719.85171	7775.675
723.77365	7884.875
727.69284	7937.775
731.60928	7885.975
735.52295	7776.375
739.43388	7697.975
743.34206	7666.175
747.24749	7694.375
751.15017	7704.075
755.05012	7718.775
758.94733	7800.875
762.8418	7979.875
766.73354	8268.475
770.62254	8546.275
774.50882	8671.575
778.39237	8539.475
782.27321	8192.075
786.15132	7880.375
790.02671	7680.375
793.89938	7606.675
797.76935	7636.075
801.6366	7702.875
805.50115	7895.675
809.36299	8146.975
813.22213	8342.175
817.07857	8299.275
820.93231	8119.375
824.78336	7851.975
828.63172	7629.275
832.47738	7491.675
836.32036	7428.875
840.16066	7397.175
843.99827	7387.275
847.8332	7377.475
851.66546	7367.775
855.49504	7375.175
859.32195	7382.275
863.1462	7436.175
866.96777	7506.275
870.78668	7586.175
874.60293	7745.275
878.41652	7890.575
882.22745	8091.175
886.03573	8228.575
889.84136	8294.075
893.64433	8241.175
897.44466	8017.875
901.24235	7770.975
905.0374	7529.375
908.8298	7365.975
912.61957	7309.575
916.40671	7260.275
920.19121	7266.275
923.97308	7280.475
927.75233	7252.075
931.52895	7249.375
935.30295	7226.275
939.07433	7194.375
942.84309	7116.775
946.60924	7075.375
950.37278	7051.575
954.13371	7046.775
957.89203	7041.375
961.64774	7014.875
965.40086	6985.375
969.15137	7007.475
972.89929	6965.475
976.64461	6948.775
980.38733	6943.475
984.12747	6967.875
987.86502	6983.175
991.59999	7029.675
995.33237	7076.875
999.06217	7197.375
1002.78939	7290.575
1006.51404	7383.275
1010.23611	7506.775
1013.95561	7586.175
1017.67255	7618.475
1021.38692	7617.775
1025.09872	7570.375
1028.80796	7493.775
1032.51465	7437.775
1036.21877	7380.275
1039.92035	7313.175
1043.61937	7301.475
1047.31584	7226.975
1051.00976	7235.675
1054.70114	7231.375
1058.38998	7249.275
1062.07627	7302.475
1065.76003	7380.775
1069.44126	7471.675
1073.11995	7567.775
1076.79611	7634.475
1080.46974	7641.075
1084.14085	7596.375
1087.80943	7534.975
1091.47549	7485.575
1095.13903	7457.775
1098.80005	7384.175
1102.45857	7317.375
1106.11456	7324.275
1109.76805	7380.275
1113.41903	7514.075
1117.06751	7761.975
1120.71348	8151.575
1124.35696	8694.275
1127.99793	9320.175
1131.63641	9847.375
1135.2724	10072.275
1138.90589	9995.075
1142.5369	9668.575
1146.16542	9176.575
1149.79145	8691.575
1153.415	8242.375
1157.03607	7889.575
1160.65467	7699.475
1164.27079	7628.175
1167.88443	7671.875
1171.49561	7821.275
1175.10432	8054.275
1178.71056	8408.075
1182.31434	8736.175
1185.91565	8948.575
1189.51451	8953.075
1193.11091	8924.975
1196.70485	8907.175
1200.29634	8924.475
1203.88538	8958.675
1207.47197	8907.075
1211.05612	8768.875
1214.63782	8578.575
1218.21708	8364.075
1221.79391	8162.775
1225.36829	8038.675
1228.94024	7906.175
1232.50976	7799.575
1236.07685	7710.675
1239.6415	7694.975
1243.20374	7701.475
1246.76355	7784.175
1250.32093	7844.775
1253.8759	7918.075
1257.42845	8021.975
1260.97859	8131.175
1264.52631	8201.375
1268.07163	8292.375
1271.61453	8349.675
1275.15503	8368.275
1278.69312	8396.075
1282.22882	8403.875
1285.76211	8444.575
1289.29301	8578.375
1292.82151	8674.775
1296.34761	8842.875
1299.87133	9098.475
1303.39266	9371.075
1306.9116	9733.075
1310.42815	10111.675
1313.94233	10324.775
1317.45412	10340.775
1320.96354	10188.075
1324.47058	9982.275
1327.97525	9775.975
1331.47754	9626.175
1334.97747	9588.375
1338.47502	9600.775
1341.97022	9692.975
1345.46305	9794.575
1348.95352	9991.975
1352.44163	10269.575
1355.92738	10638.575
1359.41078	11121.075
1362.89183	11632.075
1366.37053	11616.675
1369.84688	11013.575
1373.32088	10231.175
1376.79254	9680.275
1380.26186	9401.175
1383.72883	9223.675
1387.19347	9052.275
1390.65578	8877.375
1394.11575	8704.875
1397.57339	8600.975
1401.0287	8565.175
1404.48168	8488.875
1407.93234	8388.575
1411.38068	8263.275
1414.82669	8111.975
1418.27039	7940.975
1421.71177	7777.975
1425.15083	7652.775
1428.58758	7573.075
1432.02203	7543.675
1435.45416	7545.275
1438.88399	7584.475
1442.31151	7581.875
1445.73673	7628.975
1449.15965	7637.675
1452.58027	7638.775
1455.9986	7620.875
1459.41463	7627.275
1462.82837	7648.775
1466.23982	7738.075
1469.64898	7789.875
1473.05586	7864.475
1476.46045	7894.475
1479.86276	7914.875
1483.26279	7952.675
1486.66054	8000.675
1490.05602	8068.875
1493.44922	8197.575
1496.84016	8373.175
1500.22882	8605.175
1503.61521	8900.775
1506.99934	9283.375
1510.38121	9597.175
1513.76081	9663.075
1517.13816	9468.275
1520.51324	9062.975
1523.88607	8707.675
1527.25665	8507.475
1530.62498	8441.775
1533.99105	8447.575
1537.35488	8481.375
1540.71647	8473.675
1544.07581	8497.175
1547.4329	8464.675
1550.78776	8467.375
1554.14038	8420.575
1557.49077	8442.175
1560.83892	8440.575
1564.18484	8462.775
1567.52853	8534.275
1570.86999	8570.575
1574.20922	8641.275
1577.54624	8653.975
1580.88103	8583.475
1584.2136	8471.975
1587.54395	8422.175
1590.87208	8465.975
1594.19801	8608.475
1597.52172	8834.975
1600.84321	8938.475
1604.16251	8812.775
1607.47959	8584.975
1610.79447	8349.575
1614.10715	8120.775
1617.41763	7967.175
1620.7259	7870.375
1624.03199	7828.775
1627.33587	7876.275
1630.63757	7952.475
1633.93707	8158.675
1637.23439	8436.575
1640.52951	8811.575
1643.82246	9322.875
1647.11321	9818.675
1650.40179	10050.675
1653.68819	9872.675
1656.97241	9365.875
1660.25446	8786.275
1663.53433	8351.775
1666.81203	8113.875
1670.08756	7982.075
1673.36092	7884.775
1676.63211	7852.775
1679.90115	7839.675
1683.16801	7790.275
1686.43272	7725.875
1689.69527	7632.875
1692.95567	7501.975
1696.2139	7397.375
1699.46999	7294.975
1702.72392	7146.775
1705.97571	6975.475
1709.22535	6779.075
1712.47284	6624.575
1715.71819	6477.075
1718.96139	6362.575
1722.20246	6269.075
1725.44139	6199.675
1728.67818	6140.475
1731.91284	6070.875
1735.14537	6027.975
1738.37576	5979.175
1741.60403	5963.975
1744.83017	5929.575
1748.05418	5900.775
1751.27607	5884.275
1754.49584	5857.775
1757.71349	5867.975
1760.92903	5852.275
1764.14244	5837.175
1767.35375	5831.175
1770.56294	5804.075
1773.77002	5797.675
1776.97499	5783.375
1780.17785	5755.275
1783.37861	5744.475
1786.57727	5746.975
1789.77382	5737.375
1792.96828	5715.075
1796.16064	5704.375
1799.3509	5688.975
1802.53907	5662.875
1805.72514	5663.175
1808.90913	5639.175
1812.09102	5613.175
1815.27083	5606.275
1818.44856	5598.275
1821.6242	5585.675
1824.79776	5570.475
1827.96924	5564.275
1831.13864	5554.775
1834.30597	5558.375
1837.47122	5546.375
1840.6344	5542.175
1843.7955	5540.775
1846.95454	5555.675
1850.11151	5528.475
1853.26642	5521.375
1856.41926	5510.375
1859.57004	5516.675
1862.71876	5507.175
1865.86542	5505.475
1869.01003	5499.975
1872.15258	5474.175
1875.29308	5466.175
1878.43152	5462.275
1881.56792	5473.775
1884.70227	5461.075
1887.83457	5452.775
1890.96482	5424.275
1894.09304	5443.075
1897.21921	5412.175
1900.34335	5406.775
1903.46544	5404.575
1906.58551	5402.775
1909.70353	5407.875
1912.81953	5388.175
1915.93349	5392.175
1919.04543	5365.875
1922.15534	5359.175
1925.26322	5369.775
1928.36908	5347.075
1931.47292	5326.275
1934.57473	5320.875
1937.67453	5291.975
1940.77232	5283.575
1943.86808	5295.775
1946.96184	5267.675
1950.05358	5249.475
1953.14331	5230.275
1956.23103	5224.075
1959.31675	5199.775
1962.40046	5201.575
1965.48217	5174.175
1968.56188	5166.975
1971.63959	5146.475
1974.7153	5118.175
1977.78901	5110.875
1980.86073	5098.775
1983.93046	5078.975
1986.99819	5057.175
1990.06394	5046.275
1993.1277	5039.575
1996.18947	5035.975
1999.24925	5031.575
2002.30706	5020.875
2005.36288	4996.875
2008.41672	4970.175
2011.46859	4958.875
2014.51848	4930.175
2017.56639	4921.975
2020.61233	4896.875
2023.6563	4889.675
2026.6983	4885.075
2029.73833	4888.275
2032.7764	4877.875
2035.8125	4858.575
2038.84664	4851.675
2041.87881	4850.575
2044.90903	4842.575
2047.93729	4812.475
2050.96359	4809.675
2053.98794	4808.975
2057.01034	4809.075
2060.03078	4799.175
2063.04927	4795.475
2066.06582	4792.775
2069.08042	4782.475
2072.09307	4782.675
2075.10378	4777.675
2078.11255	4768.875
2081.11938	4780.075
2084.12426	4787.375
2087.12722	4787.775
2090.12824	4789.475
2093.12732	4781.675
2096.12447	4774.275
2099.11969	4780.775
2102.11299	4785.075
2105.10435	4793.875
2108.09379	4770.975
2111.08131	4786.375
2114.0669	4776.375
2117.05057	4787.675
2120.03233	4793.575
2123.01216	4795.275
2125.99008	4795.275
2128.96609	4808.275
2131.94018	4800.075
2134.91236	4793.075
2137.88263	4808.675
2140.851	4802.575
2143.81746	4809.675
2146.78201	4816.775
2149.74466	4818.375
2152.7054	4799.875
2155.66425	4809.775
2158.6212	4807.775
2161.57625	4805.175
2164.52941	4796.075
2167.48067	4793.475
2170.43004	4806.175
2173.37752	4782.475
2176.32311	4801.075
2179.26681	4776.475
2182.20863	4788.875
2185.14856	4805.675
2188.08661	4778.075
2191.02278	4786.975
2193.95707	4785.275
2196.88948	4774.775
2199.82001	4768.375
2202.74867	4748.275
2205.67545	4775.775
2208.60037	4749.175
2211.52341	4738.375
2214.44458	4746.675
2217.36388	4733.175
2220.28132	4722.975
2223.1969	4699.475
2226.11061	4704.675
2229.02246	4685.975
2231.93245	4669.075
2234.84058	4653.175
2237.74686	4658.175
2240.65128	4654.475
2243.55385	4645.575
2246.45456	4638.475
2249.35343	4629.775
2252.25044	4628.575
2255.14561	4608.975
2258.03893	4608.475
2260.93041	4607.475
2263.82004	4581.975
2266.70783	4595.575
2269.59378	4568.575
2272.4779	4563.975
2275.36017	4541.275
2278.24061	4543.475
2281.11922	4542.175
2283.996	4522.175
2286.87094	4524.075
2289.74405	4516.575
2292.61534	4506.475
2295.4848	4489.575
2298.35243	4500.575
2301.21824	4483.175
2304.08223	4488.775
2306.94439	4469.475
2309.80474	4461.575
2312.66327	4494.975
2315.51999	4468.175
2318.37489	4457.575
2321.22797	4463.175
2324.07925	4448.475
2326.92871	4447.275
2329.77637	4435.575
2332.62222	4416.575
2335.46626	4404.975
2338.3085	4398.875
2341.14893	4399.375
2343.98756	4392.075
2346.8244	4385.975
2349.65943	4379.975
2352.49267	4388.175
2355.32411	4393.175
2358.15376	4402.475
2360.98161	4380.875
2363.80768	4367.675
2366.63195	4363.575
2369.45444	4369.075
2372.27514	4375.875
2375.09405	4344.975
2377.91118	4354.875
2380.72652	4334.875
2383.54009	4321.575
2386.35187	4337.075
2389.16188	4307.775
2391.97011	4304.875
2394.77657	4275.675
2397.58125	4285.175
2400.38416	4273.175
2403.18529	4276.475
2405.98466	4277.575
2408.78226	4261.975
2411.57809	4253.975
2414.37216	4248.375
2417.16446	4253.675
2419.955	4226.675
2422.74378	4217.875
2425.5308	4219.775
2428.31606	4228.875
2431.09956	4207.575
2433.88131	4207.475
2436.6613	4189.175
2439.43954	4197.675
2442.21603	4178.475
2444.99077	4185.375
2447.76377	4179.175
2450.53501	4173.775
2453.30451	4177.875
2456.07226	4165.475
2458.83827	4163.975
2461.60254	4151.175
2464.36507	4150.775
2467.12586	4162.175
2469.88492	4141.975
2472.64224	4142.875
2475.39782	4130.375
2478.15167	4141.175
2480.90379	4127.375
2483.65417	4120.475
2486.40283	4115.775
2489.14976	4132.175
2491.89497	4128.375
2494.63845	4120.075
2497.3802	4108.275
2500.12024	4115.375
2502.85855	4102.575
2505.59514	4104.975
2508.33002	4098.675
2511.06318	4072.775
2513.79462	4098.275
2516.52435	4084.075
2519.25237	4084.875
2521.97867	4068.975
2524.70327	4065.175
2527.42616	4067.775
2530.14734	4058.075
2532.86681	4041.575
2535.58458	4045.675
2538.30065	4039.675
2541.01501	4031.875
2543.72768	4022.775
2546.43864	4014.075
2549.14791	3998.175
2551.85548	3990.675
2554.56136	3987.675
2557.26554	3984.475
2559.96803	3965.875
2562.66883	3971.975
2565.36794	3951.775
2568.06536	3961.175
2570.7611	3960.675
2573.45514	3945.775
2576.14751	3938.475
2578.83819	3946.575
2581.52719	3919.475
2584.21451	3910.975
2586.90015	3917.075
2589.58411	3904.375
2592.2664	3899.475
2594.94701	3896.575
2597.62594	3870.175
2600.30321	3881.475
2602.9788	3882.075
2605.65273	3850.575
2608.32498	3846.175
2610.99557	3837.975
2613.66449	3852.775
2616.33175	3829.575
2618.99734	3837.675
2621.66128	3834.775
2624.32355	3815.275
2626.98416	3827.475
2629.64311	3801.575
2632.30041	3811.675
2634.95605	3802.975
2637.61004	3803.275
2640.26238	3785.075
2642.91306	3785.775
2645.56209	3777.175
2648.20948	3787.775
2650.85521	3779.275
2653.4993	3796.575
2656.14175	3775.275
2658.78255	3793.375
2661.42171	3762.575
2664.05923	3762.475
2666.6951	3785.375
2669.32934	3777.475
2671.96194	3750.675
2674.59291	3780.475
2677.22224	3779.075
2679.84993	3765.575
2682.476	3773.275
2685.10043	3761.275
2687.72324	3766.875
2690.34441	3761.275
2692.96396	3754.475
2695.58188	3758.775
2698.19818	3756.075
2700.81285	3769.275
2703.4259	3771.475
2706.03733	3789.075
2708.64714	3790.675
2711.25533	3783.975
2713.86191	3787.475
2716.46687	3763.675
2719.07021	3779.975
2721.67194	3768.775
2724.27206	3760.375
2726.87057	3759.375
2729.46747	3767.975
2732.06276	3755.175
2734.65644	3762.075
2737.24852	3755.775
2739.83899	3754.075
2742.42786	3755.175
2745.01513	3733.075
2747.60079	3740.675
2750.18486	3719.475
2752.76733	3718.275
2755.3482	3721.175
2757.92747	3707.475
2760.50515	3703.675
2763.08123	3714.575
2765.65573	3703.575
2768.22863	3710.875
2770.79994	3704.975
2773.36967	3709.775
2775.9378	3689.875
2778.50435	3680.575
2781.06932	3666.075
2783.6327	3670.175
2786.1945	3671.175
2788.75471	3659.975
2791.31335	3653.875
2793.87041	3649.375
2796.42589	3641.775
2798.97979	3626.975
2801.53212	3623.075
2804.08288	3622.775
2806.63206	3610.475
2809.17967	3607.675
2811.72571	3595.375
2814.27018	3586.775
2816.81308	3580.575
2819.35442	3578.475
2821.89419	3573.875
2824.43239	3579.775
2826.96904	3562.375
2829.50412	3577.875
2832.03763	3565.075
2834.56959	3567.675
2837.1	3565.475
2839.62884	3566.275
2842.15613	3555.375
2844.68186	3563.475
2847.20604	3557.575
2849.72867	3551.275
2852.24974	3555.875
2854.76927	3546.975
2857.28724	3549.275
2859.80367	3540.375
2862.31855	3536.375
2864.83189	3534.775
2867.34368	3541.775
2869.85393	3519.175
2872.36264	3532.775
2874.8698	3530.575
2877.37543	3543.575
2879.87952	3537.475
2882.38207	3547.575
2884.88308	3536.375
2887.38256	3540.675
2889.88051	3545.975
2892.37692	3545.675
2894.8718	3550.575
2897.36515	3562.175
2899.85698	3539.375
2902.34727	3566.275
2904.83604	3545.475
2907.32328	3564.575
2909.809	3559.775
2912.29319	3559.975
2914.77587	3558.075
2917.25702	3573.375
2919.73665	3553.675
2922.21476	3562.775
2924.69136	3553.675
2927.16644	3566.875
2929.64	3564.875
2932.11205	3557.175
2934.58258	3545.475
2937.05161	3552.475
2939.51912	3546.975
2941.98513	3554.275
2944.44962	3537.475
2946.91261	3529.375
2949.37409	3551.475
2951.83407	3540.875
2954.29254	3534.975
2956.74951	3542.575
2959.20498	3521.075
2961.65895	3511.075
2964.11142	3520.975
2966.56239	3510.475
2969.01186	3512.675
2971.45984	3490.575
2973.90632	3489.375
2976.35131	3476.475
2978.7948	3480.575
2981.23681	3468.775
2983.67732	3460.475
2986.11635	3469.275
2988.55388	3448.275
2990.98993	3446.775
2993.4245	3439.275
2995.85758	3445.375
2998.28917	3439.675
3000.71928	3417.675
3003.14791	3415.075
3005.57506	3414.675
3008.00073	3424.875
3010.42493	3418.775
3012.84764	3418.975
3015.26888	3416.975
3017.68865	3412.775
3020.10694	3421.375
3022.52376	3413.375
3024.9391	3423.075
3027.35298	3422.675
3029.76539	3407.675
3032.17632	3417.375
3034.5858	3404.775
3036.9938	3397.875
3039.40034	3395.075
3041.80542	3402.375
3044.20903	3382.475
3046.61118	3405.675
3049.01187	3398.975
3051.4111	3386.675
3053.80888	3393.275
3056.20519	3386.775
3058.60005	3386.075
3060.99345	3385.475
3063.3854	3366.175
3065.7759	3368.075
3068.16494	3365.375
3070.55254	3371.875
3072.93868	3358.775
3075.32338	3368.075
3077.70662	3375.075
3080.08842	3369.575
3082.46878	3379.875
3084.84769	3366.575
3087.22515	3367.075
3089.60118	3372.375
3091.97576	3392.275
3094.3489	3393.675
3096.72061	3394.475
3099.09087	3388.175
3101.4597	3388.175
3103.82709	3402.375
3106.19305	3392.175
3108.55757	3397.175
3110.92066	3402.375
3113.28232	3401.975
3115.64255	3385.975
3118.00134	3389.375
3120.35871	3393.175
3122.71466	3392.175
3125.06917	3383.475
3127.42226	3402.975
3129.77393	3405.575
3132.12417	3402.875
3134.47299	3418.675
3136.82039	3427.275
3139.16636	3418.975
3141.51092	3423.375
3143.85406	3435.575
3146.19579	3444.575
3148.53609	3444.475
3150.87499	3461.075
3153.21246	3469.775
3155.54853	3471.275
3157.88318	3486.675
3160.21642	3483.775
3162.54826	3488.775
3164.87868	3500.275
3167.2077	3499.175
3169.5353	3517.875
3171.86151	3498.675
3174.18631	3507.675
3176.5097	3505.675
3178.83169	3506.975
3181.15228	3512.275
3183.47147	3519.475
3185.78926	3528.675
3188.10565	3519.375
3190.42065	3519.175
3192.73424	3527.275
3195.04645	3529.675
3197.35725	3527.975
3199.66667	3535.075
3201.97469	3535.775
3204.28132	3547.075
3206.58656	3546.375
3208.8904	3546.275
3211.19287	3560.475
3213.49394	3568.575
3215.79363	3582.275
3218.09193	3578.675
3220.38884	3589.375
3222.68438	3585.575
3224.97853	3577.275
3227.2713	3576.775
3229.56269	3561.975
3231.8527	3558.675
3234.14133	3568.175
