Data from AgNPs_FTO_APTES_UA_0.1mM_CRN_500uM_NaF_0.1M_Addition_RamanShift__31__15-10-37-783.txt Node

Date: Mon Dec 20 15:10:37 GMT 2021
User: TCL
Spectrometer: QEP01345
Trigger mode: 4
Integration Time (sec): 7.000000E0
Scans to average: 10
Electric dark correction enabled: true
Nonlinearity correction enabled: false
Boxcar width: 0
XAxis mode: Raman Shifts
Number of Pixels in Spectrum: 1044
>>>>>Begin Spectral Data<<<<<
46.04893	0.1125
50.45542	1.2125
54.85868	-1.5875
59.25871	1.1125
63.6555	24.4125
68.04907	25.5125
72.43941	26.5125
76.82654	28.3125
81.21044	27.7125
85.59113	35.2125
89.96862	32.7125
94.34289	35.7125
98.71396	35.5125
103.08183	33.6125
107.4465	36.0125
111.80798	39.9125
116.16626	38.4125
120.52136	38.3125
124.87327	41.6125
129.222	38.2125
133.56755	39.8125
137.90993	43.4125
142.24913	44.0125
146.58517	44.4125
150.91804	53.6125
155.24774	59.0125
159.57429	67.1125
163.89768	84.3125
168.21792	108.4125
172.53501	131.4125
176.84895	179.3125
181.15975	241.0125
185.46741	327.6125
189.77193	446.2125
194.07331	594.6125
198.37157	760.4125
202.6667	939.3125
206.9587	1113.9125
211.24758	1278.7125
215.53334	1463.4125
219.81599	1628.2125
224.09553	1813.0125
228.37195	2029.9125
232.64527	2261.6125
236.91549	2484.0125
241.18261	2705.3125
245.44663	2893.1125
249.70755	3029.2125
253.96539	3142.8125
258.22014	3203.8125
262.4718	3235.0125
266.72039	3245.2125
270.96589	3231.5125
275.20832	3198.0125
279.44768	3134.6125
283.68397	3068.1125
287.91719	3011.1125
292.14735	3003.3125
296.37445	3051.3125
300.59849	3176.4125
304.81948	3310.9125
309.03742	3392.4125
313.25231	3359.3125
317.46415	3197.1125
321.67296	2918.9125
325.87872	2692.4125
330.08145	2572.1125
334.28114	2547.4125
338.47781	2578.7125
342.67145	2620.9125
346.86207	2729.1125
351.04966	2886.8125
355.23424	3115.5125
359.4158	3269.9125
363.59435	3383.6125
367.76989	3456.5125
371.94243	3484.9125
376.11196	3515.3125
380.27849	3532.7125
384.44203	3517.6125
388.60257	3492.8125
392.76012	3467.1125
396.91468	3473.8125
401.06626	3525.7125
405.21485	3551.9125
409.36047	3457.7125
413.50311	3231.4125
417.64277	3011.9125
421.77947	2857.7125
425.9132	2791.2125
430.04396	2753.7125
434.17176	2755.2125
438.2966	2784.1125
442.41849	2838.0125
446.53742	2902.8125
450.6534	2985.2125
454.76644	3004.9125
458.87653	3001.6125
462.98368	2971.7125
467.08789	2949.1125
471.18916	2916.0125
475.2875	2872.6125
479.38291	2893.1125
483.4754	2951.3125
487.56496	3082.4125
491.6516	3213.6125
495.73531	3271.4125
499.81612	3206.2125
503.89401	3101.2125
507.96899	3067.0125
512.04106	3095.6125
516.11023	3198.6125
520.1765	3315.8125
524.23987	3412.9125
528.30034	3410.0125
532.35792	3335.8125
536.41261	3187.8125
540.46441	3000.9125
544.51333	2854.0125
548.55936	2766.0125
552.60252	2751.8125
556.64279	2785.6125
560.6802	2806.0125
564.71473	2829.1125
568.7464	2959.2125
572.7752	3044.8125
576.80114	2979.1125
580.82422	2892.6125
584.84444	2917.2125
588.86181	2985.2125
592.87633	3038.3125
596.888	3037.4125
600.89682	3109.3125
604.9028	3448.6125
608.90594	4436.3125
612.90624	5867.7125
616.90371	6025.1125
620.89834	4799.2125
624.89015	4458.3125
628.87913	4783.2125
632.86528	5241.1125
636.84862	5443.4125
640.82913	5213.9125
644.80683	4637.8125
648.78172	4029.8125
652.75379	3637.6125
656.72306	3449.6125
660.68952	3425.8125
664.65319	3279.3125
668.61405	3051.4125
672.57211	2946.0125
676.52738	2934.3125
680.47986	2958.4125
684.42955	2943.3125
688.37646	2906.1125
692.32058	2878.0125
696.26192	2847.2125
700.20048	2835.9125
704.13626	2829.4125
708.06928	2790.8125
711.99952	2755.7125
715.927	2762.7125
719.85171	2829.7125
723.77365	2888.0125
727.69284	2866.7125
731.60928	2800.4125
735.52295	2708.7125
739.43388	2691.2125
743.34206	2685.7125
747.24749	2712.5125
751.15017	2741.5125
755.05012	2772.5125
758.94733	2892.1125
762.8418	3165.7125
766.73354	3669.3125
770.62254	4225.1125
774.50882	4569.3125
778.39237	4451.9125
782.27321	3880.3125
786.15132	3296.9125
790.02671	2967.1125
793.89938	2864.0125
797.76935	2898.2125
801.6366	3073.4125
805.50115	3407.8125
809.36299	3754.0125
813.22213	3853.5125
817.07857	3670.8125
820.93231	3317.5125
824.78336	2973.7125
828.63172	2747.6125
832.47738	2637.3125
836.32036	2558.8125
840.16066	2539.2125
843.99827	2508.0125
847.8332	2497.9125
851.66546	2485.1125
855.49504	2488.3125
859.32195	2511.9125
863.1462	2539.8125
866.96777	2621.6125
870.78668	2746.1125
874.60293	2930.2125
878.41652	3169.4125
882.22745	3390.0125
886.03573	3541.8125
889.84136	3513.1125
893.64433	3310.2125
897.44466	3041.9125
901.24235	2786.9125
905.0374	2595.3125
908.8298	2471.0125
912.61957	2399.5125
916.40671	2355.8125
920.19121	2341.7125
923.97308	2336.8125
927.75233	2344.0125
931.52895	2351.3125
935.30295	2337.9125
939.07433	2280.3125
942.84309	2218.6125
946.60924	2192.8125
950.37278	2155.9125
954.13371	2162.6125
957.89203	2139.4125
961.64774	2138.7125
965.40086	2136.4125
969.15137	2119.5125
972.89929	2116.6125
976.64461	2110.0125
980.38733	2097.3125
984.12747	2125.1125
987.86502	2140.4125
991.59999	2181.6125
995.33237	2242.7125
999.06217	2339.2125
1002.78939	2474.2125
1006.51404	2618.9125
1010.23611	2787.5125
1013.95561	2883.8125
1017.67255	2897.9125
1021.38692	2826.5125
1025.09872	2706.1125
1028.80796	2537.8125
1032.51465	2415.4125
1036.21877	2323.2125
1039.92035	2300.4125
1043.61937	2299.1125
1047.31584	2314.0125
1051.00976	2336.2125
1054.70114	2364.5125
1058.38998	2414.8125
1062.07627	2473.5125
1065.76003	2548.3125
1069.44126	2585.2125
1073.11995	2586.4125
1076.79611	2586.5125
1080.46974	2563.5125
1084.14085	2575.4125
1087.80943	2569.4125
1091.47549	2530.0125
1095.13903	2463.2125
1098.80005	2367.9125
1102.45857	2321.3125
1106.11456	2311.6125
1109.76805	2385.0125
1113.41903	2521.2125
1117.06751	2748.1125
1120.71348	3051.4125
1124.35696	3488.1125
1127.99793	3989.8125
1131.63641	4378.5125
1135.2724	4515.4125
1138.90589	4428.3125
1142.5369	4167.7125
1146.16542	3779.9125
1149.79145	3335.1125
1153.415	2984.8125
1157.03607	2716.3125
1160.65467	2600.9125
1164.27079	2548.5125
1167.88443	2611.9125
1171.49561	2780.3125
1175.10432	3101.0125
1178.71056	3581.4125
1182.31434	4061.6125
1185.91565	4328.1125
1189.51451	4385.7125
1193.11091	4401.2125
1196.70485	4464.1125
1200.29634	4578.1125
1203.88538	4577.6125
1207.47197	4354.3125
1211.05612	3964.5125
1214.63782	3575.9125
1218.21708	3220.1125
1221.79391	2934.6125
1225.36829	2731.7125
1228.94024	2608.6125
1232.50976	2525.7125
1236.07685	2480.4125
1239.6415	2486.0125
1243.20374	2500.7125
1246.76355	2528.8125
1250.32093	2558.5125
1253.8759	2586.1125
1257.42845	2630.2125
1260.97859	2680.3125
1264.52631	2737.8125
1268.07163	2799.2125
1271.61453	2813.9125
1275.15503	2835.2125
1278.69312	2802.3125
1282.22882	2771.0125
1285.76211	2824.9125
1289.29301	2904.3125
1292.82151	3028.4125
1296.34761	3168.6125
1299.87133	3390.8125
1303.39266	3767.3125
1306.9116	4292.0125
1310.42815	4828.3125
1313.94233	5057.0125
1317.45412	4882.1125
1320.96354	4500.9125
1324.47058	4143.0125
1327.97525	3869.2125
1331.47754	3713.1125
1334.97747	3723.7125
1338.47502	3820.4125
1341.97022	3997.0125
1345.46305	4277.5125
1348.95352	4699.8125
1352.44163	5193.3125
1355.92738	5831.3125
1359.41078	6671.0125
1362.89183	7316.6125
1366.37053	7049.3125
1369.84688	6093.0125
1373.32088	5141.9125
1376.79254	4457.5125
1380.26186	4022.3125
1383.72883	3756.0125
1387.19347	3577.0125
1390.65578	3393.2125
1394.11575	3264.7125
1397.57339	3166.6125
1401.0287	3090.0125
1404.48168	3018.8125
1407.93234	2946.3125
1411.38068	2849.5125
1414.82669	2751.7125
1418.27039	2680.2125
1421.71177	2579.3125
1425.15083	2496.4125
1428.58758	2436.5125
1432.02203	2415.5125
1435.45416	2405.8125
1438.88399	2389.9125
1442.31151	2374.1125
1445.73673	2376.2125
1449.15965	2390.3125
1452.58027	2386.5125
1455.9986	2362.3125
1459.41463	2345.8125
1462.82837	2356.1125
1466.23982	2418.3125
1469.64898	2471.3125
1473.05586	2508.3125
1476.46045	2539.2125
1479.86276	2599.3125
1483.26279	2702.1125
1486.66054	2828.6125
1490.05602	2987.7125
1493.44922	3218.8125
1496.84016	3542.6125
1500.22882	4063.4125
1503.61521	4742.8125
1506.99934	5482.9125
1510.38121	5981.5125
1513.76081	6007.6125
1517.13816	5458.3125
1520.51324	4616.1125
1523.88607	3890.8125
1527.25665	3447.7125
1530.62498	3260.5125
1533.99105	3197.6125
1537.35488	3183.9125
1540.71647	3224.6125
1544.07581	3289.0125
1547.4329	3382.4125
1550.78776	3439.4125
1554.14038	3460.0125
1557.49077	3475.1125
1560.83892	3499.8125
1564.18484	3566.2125
1567.52853	3680.4125
1570.86999	3820.1125
1574.20922	3931.6125
1577.54624	3922.7125
1580.88103	3724.3125
1584.2136	3452.0125
1587.54395	3273.2125
1590.87208	3239.5125
1594.19801	3334.0125
1597.52172	3490.1125
1600.84321	3578.1125
1604.16251	3510.2125
1607.47959	3414.6125
1610.79447	3294.5125
1614.10715	3189.0125
1617.41763	3105.8125
1620.7259	3055.5125
1624.03199	3040.7125
1627.33587	3052.9125
1630.63757	3120.3125
1633.93707	3242.0125
1637.23439	3449.7125
1640.52951	3769.5125
1643.82246	4229.2125
1647.11321	4799.8125
1650.40179	5281.5125
1653.68819	5300.5125
1656.97241	4833.2125
1660.25446	4213.2125
1663.53433	3712.5125
1666.81203	3332.0125
1670.08756	3047.3125
1673.36092	2840.3125
1676.63211	2679.7125
1679.90115	2561.3125
1683.16801	2444.0125
1686.43272	2362.5125
1689.69527	2289.0125
1692.95567	2223.8125
1696.2139	2176.9125
1699.46999	2125.0125
1702.72392	2047.4125
1705.97571	1982.8125
1709.22535	1922.8125
1712.47284	1876.8125
1715.71819	1849.4125
1718.96139	1807.4125
1722.20246	1786.9125
1725.44139	1750.6125
1728.67818	1714.9125
1731.91284	1679.7125
1735.14537	1656.2125
1738.37576	1628.7125
1741.60403	1623.1125
1744.83017	1601.8125
1748.05418	1579.0125
1751.27607	1574.8125
1754.49584	1571.7125
1757.71349	1546.5125
1760.92903	1539.4125
1764.14244	1520.9125
1767.35375	1501.7125
1770.56294	1487.8125
1773.77002	1469.6125
1776.97499	1457.5125
1780.17785	1429.3125
1783.37861	1416.7125
1786.57727	1411.7125
1789.77382	1393.2125
1792.96828	1388.5125
1796.16064	1376.1125
1799.3509	1373.4125
1802.53907	1353.1125
1805.72514	1344.6125
1808.90913	1342.0125
1812.09102	1341.3125
1815.27083	1335.3125
1818.44856	1327.8125
1821.6242	1326.2125
1824.79776	1313.0125
1827.96924	1304.6125
1831.13864	1304.5125
1834.30597	1301.1125
1837.47122	1299.6125
1840.6344	1290.9125
1843.7955	1288.8125
1846.95454	1282.2125
1850.11151	1288.0125
1853.26642	1272.9125
1856.41926	1284.3125
1859.57004	1276.3125
1862.71876	1274.6125
1865.86542	1265.4125
1869.01003	1262.2125
1872.15258	1266.6125
1875.29308	1254.8125
1878.43152	1246.2125
1881.56792	1242.6125
1884.70227	1236.2125
1887.83457	1239.8125
1890.96482	1244.3125
1894.09304	1238.9125
1897.21921	1228.5125
1900.34335	1224.4125
1903.46544	1232.1125
1906.58551	1233.0125
1909.70353	1217.1125
1912.81953	1223.5125
1915.93349	1210.1125
1919.04543	1214.5125
1922.15534	1202.8125
1925.26322	1208.0125
1928.36908	1202.7125
1931.47292	1191.9125
1934.57473	1195.5125
1937.67453	1175.7125
1940.77232	1175.8125
1943.86808	1175.3125
1946.96184	1173.4125
1950.05358	1158.8125
1953.14331	1167.4125
1956.23103	1157.4125
1959.31675	1164.9125
1962.40046	1152.8125
1965.48217	1152.0125
1968.56188	1143.8125
1971.63959	1140.8125
1974.7153	1139.9125
1977.78901	1131.8125
1980.86073	1128.4125
1983.93046	1129.2125
1986.99819	1113.7125
1990.06394	1112.7125
1993.1277	1110.0125
1996.18947	1107.6125
1999.24925	1095.7125
2002.30706	1100.1125
2005.36288	1086.6125
2008.41672	1085.5125
2011.46859	1085.7125
2014.51848	1083.9125
2017.56639	1072.4125
2020.61233	1075.5125
2023.6563	1076.4125
2026.6983	1062.8125
2029.73833	1064.8125
2032.7764	1066.1125
2035.8125	1059.5125
2038.84664	1057.2125
2041.87881	1061.5125
2044.90903	1057.2125
2047.93729	1050.2125
2050.96359	1048.0125
2053.98794	1054.2125
2057.01034	1043.2125
2060.03078	1040.5125
2063.04927	1039.0125
2066.06582	1043.9125
2069.08042	1040.4125
2072.09307	1037.4125
2075.10378	1036.1125
2078.11255	1030.3125
2081.11938	1034.4125
2084.12426	1029.4125
2087.12722	1028.7125
2090.12824	1034.6125
2093.12732	1024.4125
2096.12447	1023.5125
2099.11969	1027.3125
2102.11299	1025.5125
2105.10435	1020.9125
2108.09379	1015.5125
2111.08131	1020.8125
2114.0669	1021.1125
2117.05057	1032.4125
2120.03233	1022.2125
2123.01216	1022.0125
2125.99008	1023.1125
2128.96609	1020.3125
2131.94018	1028.8125
2134.91236	1025.9125
2137.88263	1026.9125
2140.851	1035.4125
2143.81746	1021.6125
2146.78201	1024.1125
2149.74466	1027.0125
2152.7054	1019.0125
2155.66425	1022.7125
2158.6212	1021.1125
2161.57625	1009.9125
2164.52941	1008.0125
2167.48067	1010.9125
2170.43004	1001.7125
2173.37752	1000.3125
2176.32311	1001.2125
2179.26681	1003.9125
2182.20863	1005.8125
2185.14856	1000.5125
2188.08661	1003.0125
2191.02278	1002.1125
2193.95707	996.4125
2196.88948	992.8125
2199.82001	991.8125
2202.74867	982.3125
2205.67545	981.2125
2208.60037	986.4125
2211.52341	985.2125
2214.44458	979.5125
2217.36388	975.7125
2220.28132	981.7125
2223.1969	973.3125
2226.11061	974.2125
2229.02246	957.3125
2231.93245	957.4125
2234.84058	963.4125
2237.74686	957.0125
2240.65128	949.1125
2243.55385	962.9125
2246.45456	952.3125
2249.35343	959.0125
2252.25044	950.2125
2255.14561	950.3125
2258.03893	954.9125
2260.93041	963.7125
2263.82004	955.8125
2266.70783	950.6125
2269.59378	948.2125
2272.4779	940.8125
2275.36017	943.1125
2278.24061	936.3125
2281.11922	931.9125
2283.996	931.5125
2286.87094	926.3125
2289.74405	928.5125
2292.61534	922.3125
2295.4848	919.9125
2298.35243	913.9125
2301.21824	914.7125
2304.08223	912.4125
2306.94439	913.3125
2309.80474	908.1125
2312.66327	910.6125
2315.51999	904.2125
2318.37489	908.3125
2321.22797	899.9125
2324.07925	900.7125
2326.92871	902.5125
2329.77637	897.5125
2332.62222	893.3125
2335.46626	892.4125
2338.3085	900.0125
2341.14893	885.0125
2343.98756	884.8125
2346.8244	889.5125
2349.65943	884.4125
2352.49267	883.1125
2355.32411	893.4125
2358.15376	891.2125
2360.98161	890.2125
2363.80768	897.0125
2366.63195	900.3125
2369.45444	896.6125
2372.27514	897.0125
2375.09405	901.6125
2377.91118	902.1125
2380.72652	896.1125
2383.54009	892.4125
2386.35187	884.1125
2389.16188	884.3125
2391.97011	887.1125
2394.77657	871.9125
2397.58125	876.7125
2400.38416	877.4125
2403.18529	872.1125
2405.98466	868.4125
2408.78226	862.3125
2411.57809	860.7125
2414.37216	854.4125
2417.16446	851.6125
2419.955	846.7125
2422.74378	849.1125
2425.5308	846.2125
2428.31606	846.5125
2431.09956	840.5125
2433.88131	836.4125
2436.6613	846.2125
2439.43954	828.4125
2442.21603	833.6125
2444.99077	833.4125
2447.76377	835.4125
2450.53501	835.5125
2453.30451	841.7125
2456.07226	831.1125
2458.83827	838.1125
2461.60254	830.4125
2464.36507	829.5125
2467.12586	830.6125
2469.88492	827.6125
2472.64224	830.5125
2475.39782	833.4125
2478.15167	841.0125
2480.90379	835.9125
2483.65417	842.1125
2486.40283	835.1125
2489.14976	836.1125
2491.89497	840.0125
2494.63845	842.6125
2497.3802	838.5125
2500.12024	833.9125
2502.85855	830.1125
2505.59514	830.7125
2508.33002	826.1125
2511.06318	817.9125
2513.79462	813.4125
2516.52435	803.4125
2519.25237	806.1125
2521.97867	808.6125
2524.70327	797.4125
2527.42616	798.8125
2530.14734	788.4125
2532.86681	787.2125
2535.58458	791.8125
2538.30065	787.2125
2541.01501	795.2125
2543.72768	787.9125
2546.43864	782.9125
2549.14791	785.8125
2551.85548	786.9125
2554.56136	784.5125
2557.26554	777.4125
2559.96803	774.8125
2562.66883	778.4125
2565.36794	775.7125
2568.06536	775.8125
2570.7611	773.2125
2573.45514	772.9125
2576.14751	771.0125
2578.83819	771.9125
2581.52719	763.5125
2584.21451	764.0125
2586.90015	759.8125
2589.58411	759.2125
2592.2664	760.9125
2594.94701	756.3125
2597.62594	752.1125
2600.30321	743.3125
2602.9788	745.4125
2605.65273	748.7125
2608.32498	749.2125
2610.99557	749.3125
2613.66449	743.6125
2616.33175	744.2125
2618.99734	746.4125
2621.66128	739.5125
2624.32355	740.4125
2626.98416	739.7125
2629.64311	740.4125
2632.30041	741.7125
2634.95605	738.7125
2637.61004	734.6125
2640.26238	729.6125
2642.91306	722.9125
2645.56209	728.7125
2648.20948	731.5125
2650.85521	729.2125
2653.4993	730.1125
2656.14175	724.2125
2658.78255	733.0125
2661.42171	727.8125
2664.05923	728.8125
2666.6951	728.8125
2669.32934	734.8125
2671.96194	727.1125
2674.59291	729.1125
2677.22224	735.6125
2679.84993	727.9125
2682.476	733.6125
2685.10043	734.8125
2687.72324	736.6125
2690.34441	731.8125
2692.96396	735.9125
2695.58188	733.5125
2698.19818	737.6125
2700.81285	736.6125
2703.4259	755.4125
2706.03733	787.3125
2708.64714	768.5125
2711.25533	755.2125
2713.86191	757.4125
2716.46687	752.6125
2719.07021	751.7125
2721.67194	749.6125
2724.27206	751.2125
2726.87057	753.4125
2729.46747	744.9125
2732.06276	741.4125
2734.65644	747.4125
2737.24852	737.7125
2739.83899	744.7125
2742.42786	734.4125
2745.01513	733.3125
2747.60079	732.0125
2750.18486	731.9125
2752.76733	730.4125
2755.3482	732.9125
2757.92747	728.2125
2760.50515	729.5125
2763.08123	733.2125
2765.65573	724.4125
2768.22863	732.8125
2770.79994	716.2125
2773.36967	721.1125
2775.9378	729.6125
2778.50435	721.2125
2781.06932	726.4125
2783.6327	729.0125
2786.1945	724.1125
2788.75471	722.5125
2791.31335	731.1125
2793.87041	727.0125
2796.42589	735.1125
2798.97979	723.8125
2801.53212	726.7125
2804.08288	725.9125
2806.63206	722.4125
2809.17967	728.0125
2811.72571	728.1125
2814.27018	731.5125
2816.81308	729.6125
2819.35442	731.5125
2821.89419	735.3125
2824.43239	737.3125
2826.96904	741.0125
2829.50412	739.7125
2832.03763	737.2125
2834.56959	745.7125
2837.1	743.9125
2839.62884	748.8125
2842.15613	749.6125
2844.68186	755.5125
2847.20604	753.8125
2849.72867	768.3125
2852.24974	771.5125
2854.76927	786.1125
2857.28724	785.5125
2859.80367	774.9125
2862.31855	775.7125
2864.83189	776.8125
2867.34368	777.6125
2869.85393	784.8125
2872.36264	778.0125
2874.8698	784.2125
2877.37543	781.3125
2879.87952	777.3125
2882.38207	786.6125
2884.88308	786.4125
2887.38256	778.4125
2889.88051	791.9125
2892.37692	786.6125
2894.8718	785.4125
2897.36515	798.0125
2899.85698	795.5125
2902.34727	797.1125
2904.83604	799.2125
2907.32328	806.7125
2909.809	801.5125
2912.29319	804.2125
2914.77587	807.7125
2917.25702	812.7125
2919.73665	810.9125
2922.21476	809.9125
2924.69136	809.6125
2927.16644	814.0125
2929.64	810.1125
2932.11205	803.6125
2934.58258	804.6125
2937.05161	805.3125
2939.51912	803.3125
2941.98513	794.9125
2944.44962	796.8125
2946.91261	791.0125
2949.37409	795.9125
2951.83407	793.6125
2954.29254	788.8125
2956.74951	782.0125
2959.20498	770.0125
2961.65895	776.3125
2964.11142	770.0125
2966.56239	762.0125
2969.01186	766.2125
2971.45984	764.3125
2973.90632	755.8125
2976.35131	754.2125
2978.7948	758.6125
2981.23681	761.7125
2983.67732	762.8125
2986.11635	749.6125
2988.55388	752.3125
2990.98993	753.0125
2993.4245	753.7125
2995.85758	749.7125
2998.28917	755.4125
3000.71928	756.6125
3003.14791	753.5125
3005.57506	755.4125
3008.00073	757.4125
3010.42493	758.8125
3012.84764	762.9125
3015.26888	763.0125
3017.68865	766.5125
3020.10694	768.5125
3022.52376	775.6125
3024.9391	767.1125
3027.35298	771.7125
3029.76539	775.1125
3032.17632	772.9125
3034.5858	777.7125
3036.9938	775.2125
3039.40034	780.8125
3041.80542	777.9125
3044.20903	778.3125
3046.61118	787.5125
3049.01187	779.1125
3051.4111	787.9125
3053.80888	798.4125
3056.20519	797.0125
3058.60005	795.2125
3060.99345	803.7125
3063.3854	804.8125
3065.7759	801.6125
3068.16494	813.9125
3070.55254	810.0125
3072.93868	815.3125
3075.32338	824.8125
3077.70662	822.7125
3080.08842	823.8125
3082.46878	835.4125
3084.84769	833.9125
3087.22515	840.6125
3089.60118	845.2125
3091.97576	846.9125
3094.3489	847.8125
3096.72061	856.4125
3099.09087	857.8125
3101.4597	866.6125
3103.82709	875.9125
3106.19305	875.6125
3108.55757	886.7125
3110.92066	883.9125
3113.28232	890.3125
3115.64255	899.7125
3118.00134	903.1125
3120.35871	904.8125
3122.71466	922.6125
3125.06917	920.3125
3127.42226	922.7125
3129.77393	929.8125
3132.12417	942.5125
3134.47299	943.8125
3136.82039	955.8125
3139.16636	960.7125
3141.51092	974.8125
3143.85406	986.1125
3146.19579	992.8125
3148.53609	1002.8125
3150.87499	1004.7125
3153.21246	1015.5125
3155.54853	1026.7125
3157.88318	1037.4125
3160.21642	1038.0125
3162.54826	1049.0125
3164.87868	1061.7125
3167.2077	1069.1125
