Data from AgNPs_FTO_APTES_UA_0.1mM_CRN_50uM_NaF_0.1M_Addition_RamanShift__5__12-42-27-628.txt Node

Date: Mon Dec 20 12:42:27 GMT 2021
User: TCL
Spectrometer: QEP01345
Trigger mode: 4
Integration Time (sec): 7.000000E0
Scans to average: 10
Electric dark correction enabled: true
Nonlinearity correction enabled: false
Boxcar width: 0
XAxis mode: Raman Shifts
Number of Pixels in Spectrum: 1044
>>>>>Begin Spectral Data<<<<<
46.04893	0.625
50.45542	1.425
54.85868	-0.675
59.25871	-0.075
63.6555	29.525
68.04907	29.925
72.43941	32.925
76.82654	31.825
81.21044	35.125
85.59113	40.925
89.96862	35.625
94.34289	40.225
98.71396	40.325
103.08183	41.025
107.4465	42.925
111.80798	45.425
116.16626	44.525
120.52136	50.225
124.87327	50.825
129.222	49.425
133.56755	52.825
137.90993	56.725
142.24913	60.025
146.58517	61.525
150.91804	73.225
155.24774	86.825
159.57429	98.725
163.89768	125.725
168.21792	164.825
172.53501	212.225
176.84895	290.925
181.15975	400.425
185.46741	561.325
189.77193	772.625
194.07331	1024.325
198.37157	1333.025
202.6667	1645.325
206.9587	1954.425
211.24758	2274.225
215.53334	2587.725
219.81599	2927.525
224.09553	3296.225
228.37195	3704.925
232.64527	4152.425
236.91549	4624.125
241.18261	5086.725
245.44663	5499.025
249.70755	5849.525
253.96539	6146.025
258.22014	6374.825
262.4718	6531.525
266.72039	6609.625
270.96589	6635.125
275.20832	6596.725
279.44768	6536.125
283.68397	6457.725
287.91719	6359.025
292.14735	6264.125
296.37445	6244.725
300.59849	6209.925
304.81948	6193.125
309.03742	6175.725
313.25231	6105.025
317.46415	6047.525
321.67296	5936.825
325.87872	5874.225
330.08145	5804.025
334.28114	5787.625
338.47781	5798.025
342.67145	5845.925
346.86207	5893.825
351.04966	5957.225
355.23424	6037.925
359.4158	6109.125
363.59435	6193.525
367.76989	6247.125
371.94243	6313.725
376.11196	6392.225
380.27849	6428.025
384.44203	6491.925
388.60257	6572.625
392.76012	6614.925
396.91468	6679.825
401.06626	6741.725
405.21485	6788.925
409.36047	6785.125
413.50311	6738.225
417.64277	6691.525
421.77947	6686.625
425.9132	6679.225
430.04396	6712.225
434.17176	6721.725
438.2966	6760.525
442.41849	6798.025
446.53742	6882.325
450.6534	6934.225
454.76644	7023.925
458.87653	7039.825
462.98368	7053.325
467.08789	7073.125
471.18916	7078.825
475.2875	7083.225
479.38291	7137.025
483.4754	7203.225
487.56496	7316.625
491.6516	7459.325
495.73531	7566.625
499.81612	7567.325
503.89401	7544.225
507.96899	7416.525
512.04106	7337.625
516.11023	7281.825
520.1765	7289.225
524.23987	7322.225
528.30034	7334.925
532.35792	7351.125
536.41261	7347.325
540.46441	7267.625
544.51333	7206.925
548.55936	7130.425
552.60252	7094.725
556.64279	7117.925
560.6802	7126.825
564.71473	7113.125
568.7464	7159.725
572.7752	7233.525
576.80114	7260.625
580.82422	7332.225
584.84444	7481.125
588.86181	7617.125
592.87633	7720.925
596.888	7658.325
600.89682	7595.625
604.9028	7643.225
608.90594	7938.425
612.90624	8409.125
616.90371	8411.325
620.89834	8050.425
624.89015	8083.825
628.87913	8542.125
632.86528	9109.325
636.84862	9507.125
640.82913	9494.825
644.80683	9154.925
648.78172	8637.825
652.75379	8195.725
656.72306	7858.825
660.68952	7685.625
664.65319	7528.125
668.61405	7370.325
672.57211	7316.225
676.52738	7327.225
680.47986	7354.725
684.42955	7332.125
688.37646	7297.125
692.32058	7226.325
696.26192	7187.725
700.20048	7139.925
704.13626	7134.425
708.06928	7112.325
711.99952	7109.325
715.927	7108.225
719.85171	7148.425
723.77365	7237.925
727.69284	7287.025
731.60928	7233.125
735.52295	7148.625
739.43388	7056.125
743.34206	7043.225
747.24749	7055.025
751.15017	7039.625
755.05012	7060.525
758.94733	7120.325
762.8418	7280.725
766.73354	7498.125
770.62254	7724.925
774.50882	7788.925
778.39237	7627.125
782.27321	7351.025
786.15132	7115.625
790.02671	6982.425
793.89938	6928.125
797.76935	6928.325
801.6366	7008.925
805.50115	7194.625
809.36299	7422.125
813.22213	7565.125
817.07857	7546.125
820.93231	7365.725
824.78336	7118.325
828.63172	6918.625
832.47738	6794.825
836.32036	6728.825
840.16066	6710.625
843.99827	6712.825
847.8332	6686.925
851.66546	6686.825
855.49504	6678.125
859.32195	6683.325
863.1462	6692.025
866.96777	6762.725
870.78668	6846.525
874.60293	6982.225
878.41652	7131.325
882.22745	7272.525
886.03573	7410.625
889.84136	7455.025
893.64433	7397.425
897.44466	7195.125
901.24235	6971.425
905.0374	6787.725
908.8298	6644.425
912.61957	6572.025
916.40671	6531.125
920.19121	6516.525
923.97308	6501.625
927.75233	6476.325
931.52895	6471.925
935.30295	6407.025
939.07433	6381.225
942.84309	6326.925
946.60924	6312.325
950.37278	6274.625
954.13371	6296.425
957.89203	6269.025
961.64774	6253.725
965.40086	6232.725
969.15137	6199.725
972.89929	6191.925
976.64461	6168.525
980.38733	6162.525
984.12747	6179.525
987.86502	6178.525
991.59999	6207.425
995.33237	6248.525
999.06217	6317.625
1002.78939	6394.725
1006.51404	6475.725
1010.23611	6550.225
1013.95561	6630.525
1017.67255	6661.425
1021.38692	6663.825
1025.09872	6611.025
1028.80796	6557.225
1032.51465	6465.925
1036.21877	6387.725
1039.92035	6335.825
1043.61937	6318.325
1047.31584	6292.225
1051.00976	6279.125
1054.70114	6310.025
1058.38998	6326.225
1062.07627	6405.225
1065.76003	6469.125
1069.44126	6542.925
1073.11995	6592.325
1076.79611	6656.925
1080.46974	6652.225
1084.14085	6592.825
1087.80943	6530.325
1091.47549	6499.825
1095.13903	6461.225
1098.80005	6406.025
1102.45857	6355.225
1106.11456	6335.525
1109.76805	6370.025
1113.41903	6499.625
1117.06751	6728.825
1120.71348	7061.125
1124.35696	7550.025
1127.99793	8092.925
1131.63641	8548.725
1135.2724	8772.825
1138.90589	8692.725
1142.5369	8422.625
1146.16542	7997.825
1149.79145	7550.725
1153.415	7150.125
1157.03607	6839.125
1160.65467	6670.025
1164.27079	6578.825
1167.88443	6623.125
1171.49561	6710.225
1175.10432	6919.125
1178.71056	7180.225
1182.31434	7412.725
1185.91565	7562.825
1189.51451	7605.125
1193.11091	7633.425
1196.70485	7677.225
1200.29634	7716.625
1203.88538	7774.125
1207.47197	7692.025
1211.05612	7572.225
1214.63782	7408.025
1218.21708	7213.925
1221.79391	7003.625
1225.36829	6842.725
1228.94024	6723.725
1232.50976	6664.625
1236.07685	6608.125
1239.6415	6571.325
1243.20374	6608.725
1246.76355	6637.625
1250.32093	6694.025
1253.8759	6755.525
1257.42845	6847.825
1260.97859	6937.125
1264.52631	7005.925
1268.07163	7079.225
1271.61453	7089.025
1275.15503	7128.325
1278.69312	7143.725
1282.22882	7137.025
1285.76211	7184.525
1289.29301	7260.625
1292.82151	7360.025
1296.34761	7492.025
1299.87133	7651.625
1303.39266	7862.025
1306.9116	8104.025
1310.42815	8353.625
1313.94233	8508.925
1317.45412	8538.425
1320.96354	8465.125
1324.47058	8390.225
1327.97525	8286.225
1331.47754	8214.625
1334.97747	8218.225
1338.47502	8242.325
1341.97022	8314.625
1345.46305	8423.825
1348.95352	8563.825
1352.44163	8717.625
1355.92738	8932.125
1359.41078	9260.125
1362.89183	9578.225
1366.37053	9583.425
1369.84688	9144.825
1373.32088	8619.325
1376.79254	8191.425
1380.26186	7942.425
1383.72883	7797.125
1387.19347	7665.625
1390.65578	7517.125
1394.11575	7393.825
1397.57339	7302.325
1401.0287	7197.225
1404.48168	7127.525
1407.93234	7013.325
1411.38068	6884.725
1414.82669	6712.525
1418.27039	6565.225
1421.71177	6413.225
1425.15083	6272.725
1428.58758	6202.825
1432.02203	6180.125
1435.45416	6184.625
1438.88399	6209.025
1442.31151	6215.625
1445.73673	6255.425
1449.15965	6275.925
1452.58027	6286.625
1455.9986	6291.725
1459.41463	6328.825
1462.82837	6345.825
1466.23982	6396.425
1469.64898	6446.625
1473.05586	6509.525
1476.46045	6511.825
1479.86276	6522.725
1483.26279	6552.825
1486.66054	6603.025
1490.05602	6674.125
1493.44922	6786.825
1496.84016	6949.925
1500.22882	7177.725
1503.61521	7489.925
1506.99934	7797.225
1510.38121	8029.125
1513.76081	8105.325
1517.13816	7908.225
1520.51324	7608.525
1523.88607	7336.525
1527.25665	7199.725
1530.62498	7116.525
1533.99105	7136.325
1537.35488	7142.825
1540.71647	7133.225
1544.07581	7138.225
1547.4329	7130.525
1550.78776	7104.125
1554.14038	7108.825
1557.49077	7108.125
1560.83892	7112.825
1564.18484	7159.725
1567.52853	7199.225
1570.86999	7246.925
1574.20922	7276.625
1577.54624	7284.625
1580.88103	7241.425
1584.2136	7141.225
1587.54395	7056.925
1590.87208	7082.025
1594.19801	7139.625
1597.52172	7250.225
1600.84321	7332.825
1604.16251	7243.525
1607.47959	7087.025
1610.79447	6957.825
1614.10715	6804.425
1617.41763	6680.225
1620.7259	6590.925
1624.03199	6579.525
1627.33587	6630.125
1630.63757	6733.725
1633.93707	6917.725
1637.23439	7160.325
1640.52951	7505.625
1643.82246	7944.125
1647.11321	8314.325
1650.40179	8530.625
1653.68819	8413.625
1656.97241	8034.525
1660.25446	7562.325
1663.53433	7162.525
1666.81203	6944.525
1670.08756	6772.425
1673.36092	6665.125
1676.63211	6602.925
1679.90115	6544.825
1683.16801	6495.925
1686.43272	6418.125
1689.69527	6316.125
1692.95567	6203.725
1696.2139	6103.725
1699.46999	6002.625
1702.72392	5907.225
1705.97571	5781.225
1709.22535	5639.125
1712.47284	5487.925
1715.71819	5368.325
1718.96139	5263.125
1722.20246	5143.025
1725.44139	5080.425
1728.67818	5009.725
1731.91284	4953.425
1735.14537	4890.325
1738.37576	4839.925
1741.60403	4810.025
1744.83017	4795.925
1748.05418	4770.025
1751.27607	4750.225
1754.49584	4747.125
1757.71349	4728.325
1760.92903	4735.925
1764.14244	4700.425
1767.35375	4709.825
1770.56294	4696.125
1773.77002	4673.725
1776.97499	4659.625
1780.17785	4635.925
1783.37861	4627.025
1786.57727	4609.525
1789.77382	4597.325
1792.96828	4581.725
1796.16064	4572.025
1799.3509	4543.025
1802.53907	4527.425
1805.72514	4522.825
1808.90913	4516.125
1812.09102	4492.925
1815.27083	4481.025
1818.44856	4474.525
1821.6242	4465.725
1824.79776	4447.525
1827.96924	4433.225
1831.13864	4423.025
1834.30597	4420.425
1837.47122	4430.125
1840.6344	4425.325
1843.7955	4408.225
1846.95454	4400.025
1850.11151	4392.225
1853.26642	4391.525
1856.41926	4393.225
1859.57004	4376.725
1862.71876	4366.925
1865.86542	4374.125
1869.01003	4356.225
1872.15258	4355.825
1875.29308	4343.825
1878.43152	4338.925
1881.56792	4332.025
1884.70227	4330.825
1887.83457	4310.825
1890.96482	4313.425
1894.09304	4294.825
1897.21921	4280.625
1900.34335	4281.025
1903.46544	4275.625
1906.58551	4259.725
1909.70353	4256.025
1912.81953	4259.225
1915.93349	4260.525
1919.04543	4242.525
1922.15534	4235.525
1925.26322	4227.625
1928.36908	4207.325
1931.47292	4191.625
1934.57473	4198.825
1937.67453	4181.025
1940.77232	4160.125
1943.86808	4156.425
1946.96184	4147.425
1950.05358	4140.025
1953.14331	4118.325
1956.23103	4108.425
1959.31675	4104.525
1962.40046	4089.525
1965.48217	4070.325
1968.56188	4061.225
1971.63959	4027.525
1974.7153	4041.025
1977.78901	4013.625
1980.86073	4002.525
1983.93046	3992.225
1986.99819	3974.325
1990.06394	3967.525
1993.1277	3941.925
1996.18947	3957.525
1999.24925	3933.725
2002.30706	3920.825
2005.36288	3905.025
2008.41672	3893.925
2011.46859	3883.725
2014.51848	3870.625
2017.56639	3844.125
2020.61233	3848.325
2023.6563	3814.625
2026.6983	3813.425
2029.73833	3808.025
2032.7764	3803.425
2035.8125	3781.625
2038.84664	3774.525
2041.87881	3770.425
2044.90903	3769.125
2047.93729	3758.725
2050.96359	3742.925
2053.98794	3755.825
2057.01034	3749.925
2060.03078	3732.425
2063.04927	3724.325
2066.06582	3725.525
2069.08042	3722.825
2072.09307	3726.525
2075.10378	3708.625
2078.11255	3714.225
2081.11938	3708.625
2084.12426	3710.325
2087.12722	3717.225
2090.12824	3702.725
2093.12732	3719.725
2096.12447	3708.425
2099.11969	3695.025
2102.11299	3703.825
2105.10435	3710.225
2108.09379	3697.625
2111.08131	3701.725
2114.0669	3708.525
2117.05057	3700.425
2120.03233	3709.325
2123.01216	3720.725
2125.99008	3715.625
2128.96609	3706.925
2131.94018	3707.925
2134.91236	3705.725
2137.88263	3714.825
2140.851	3706.025
2143.81746	3706.925
2146.78201	3708.225
2149.74466	3724.625
2152.7054	3724.325
2155.66425	3687.225
2158.6212	3694.325
2161.57625	3695.725
2164.52941	3693.325
2167.48067	3693.725
2170.43004	3702.425
2173.37752	3702.325
2176.32311	3700.825
2179.26681	3668.025
2182.20863	3696.625
2185.14856	3694.925
2188.08661	3685.625
2191.02278	3685.425
2193.95707	3667.325
2196.88948	3656.425
2199.82001	3664.425
2202.74867	3649.725
2205.67545	3648.225
2208.60037	3636.425
2211.52341	3638.525
2214.44458	3621.425
2217.36388	3628.125
2220.28132	3603.325
2223.1969	3593.025
2226.11061	3601.025
2229.02246	3571.625
2231.93245	3577.225
2234.84058	3554.125
2237.74686	3556.025
2240.65128	3568.225
2243.55385	3541.425
2246.45456	3537.525
2249.35343	3533.825
2252.25044	3518.525
2255.14561	3515.325
2258.03893	3529.825
2260.93041	3531.125
2263.82004	3507.825
2266.70783	3498.525
2269.59378	3468.525
2272.4779	3475.025
2275.36017	3472.025
2278.24061	3458.925
2281.11922	3455.525
2283.996	3438.025
2286.87094	3445.025
2289.74405	3446.925
2292.61534	3424.425
2295.4848	3411.125
2298.35243	3419.925
2301.21824	3397.825
2304.08223	3406.425
2306.94439	3395.825
2309.80474	3390.325
2312.66327	3396.825
2315.51999	3385.625
2318.37489	3393.925
2321.22797	3378.625
2324.07925	3368.725
2326.92871	3358.425
2329.77637	3356.025
2332.62222	3359.925
2335.46626	3342.225
2338.3085	3340.025
2341.14893	3339.925
2343.98756	3323.525
2346.8244	3331.425
2349.65943	3327.525
2352.49267	3326.325
2355.32411	3335.825
2358.15376	3324.125
2360.98161	3311.525
2363.80768	3288.625
2366.63195	3306.525
2369.45444	3301.025
2372.27514	3293.125
2375.09405	3285.725
2377.91118	3279.925
2380.72652	3279.425
2383.54009	3264.525
2386.35187	3262.325
2389.16188	3255.525
2391.97011	3243.325
2394.77657	3239.525
2397.58125	3224.925
2400.38416	3227.825
2403.18529	3219.525
2405.98466	3212.925
2408.78226	3216.125
2411.57809	3204.425
2414.37216	3181.625
2417.16446	3201.925
2419.955	3201.025
2422.74378	3181.625
2425.5308	3173.825
2428.31606	3174.125
2431.09956	3170.225
2433.88131	3163.125
2436.6613	3155.225
2439.43954	3164.725
2442.21603	3156.525
2444.99077	3159.925
2447.76377	3151.325
2450.53501	3144.025
2453.30451	3144.825
2456.07226	3140.225
2458.83827	3129.725
2461.60254	3124.325
2464.36507	3115.525
2467.12586	3119.125
2469.88492	3119.425
2472.64224	3120.425
2475.39782	3106.525
2478.15167	3118.225
2480.90379	3094.025
2483.65417	3108.325
2486.40283	3100.925
2489.14976	3093.625
2491.89497	3099.825
2494.63845	3105.525
2497.3802	3095.725
2500.12024	3087.725
2502.85855	3074.125
2505.59514	3078.925
2508.33002	3073.025
2511.06318	3070.325
2513.79462	3070.425
2516.52435	3063.925
2519.25237	3052.325
2521.97867	3049.025
2524.70327	3044.325
2527.42616	3038.625
2530.14734	3037.425
2532.86681	3034.125
2535.58458	3019.125
2538.30065	3020.225
2541.01501	3017.625
2543.72768	2999.625
2546.43864	2999.525
2549.14791	2988.925
2551.85548	2991.225
2554.56136	2982.125
2557.26554	2975.925
2559.96803	2974.225
2562.66883	2964.925
2565.36794	2950.125
2568.06536	2952.825
2570.7611	2952.925
2573.45514	2939.425
2576.14751	2945.225
2578.83819	2950.925
2581.52719	2943.925
2584.21451	2912.925
2586.90015	2919.525
2589.58411	2920.525
2592.2664	2912.325
2594.94701	2899.025
2597.62594	2892.925
2600.30321	2885.025
2602.9788	2870.625
2605.65273	2873.725
2608.32498	2865.525
2610.99557	2860.425
2613.66449	2862.725
2616.33175	2850.025
2618.99734	2857.325
2621.66128	2839.925
2624.32355	2851.525
2626.98416	2836.325
2629.64311	2843.125
2632.30041	2835.425
2634.95605	2831.425
2637.61004	2820.225
2640.26238	2824.525
2642.91306	2823.725
2645.56209	2816.425
2648.20948	2812.325
2650.85521	2813.825
2653.4993	2811.225
2656.14175	2817.525
2658.78255	2822.525
2661.42171	2794.625
2664.05923	2806.725
2666.6951	2799.225
2669.32934	2801.025
2671.96194	2800.725
2674.59291	2806.625
2677.22224	2798.625
2679.84993	2807.625
2682.476	2798.025
2685.10043	2806.825
2687.72324	2799.325
2690.34441	2792.025
2692.96396	2803.225
2695.58188	2799.825
2698.19818	2808.625
2700.81285	2802.425
2703.4259	2808.125
2706.03733	2825.925
2708.64714	2813.225
2711.25533	2806.725
2713.86191	2800.925
2716.46687	2799.425
2719.07021	2800.425
2721.67194	2803.725
2724.27206	2798.125
2726.87057	2791.225
2729.46747	2799.625
2732.06276	2796.025
2734.65644	2796.525
2737.24852	2789.525
2739.83899	2794.625
2742.42786	2789.225
2745.01513	2779.825
2747.60079	2769.925
2750.18486	2781.625
2752.76733	2771.225
2755.3482	2758.225
2757.92747	2756.925
2760.50515	2766.125
2763.08123	2760.425
2765.65573	2755.425
2768.22863	2753.525
2770.79994	2750.025
2773.36967	2738.125
2775.9378	2738.825
2778.50435	2732.725
2781.06932	2720.525
2783.6327	2719.925
2786.1945	2719.525
2788.75471	2719.625
2791.31335	2700.525
2793.87041	2696.125
2796.42589	2691.725
2798.97979	2696.625
2801.53212	2682.625
2804.08288	2679.325
2806.63206	2666.725
2809.17967	2675.225
2811.72571	2658.925
2814.27018	2668.825
2816.81308	2652.025
2819.35442	2648.325
2821.89419	2653.025
2824.43239	2642.225
2826.96904	2622.425
2829.50412	2633.925
2832.03763	2632.125
2834.56959	2647.725
2837.1	2628.525
2839.62884	2640.925
2842.15613	2635.025
2844.68186	2633.625
2847.20604	2643.425
2849.72867	2633.925
2852.24974	2639.825
2854.76927	2640.425
2857.28724	2634.625
2859.80367	2628.425
2862.31855	2635.425
2864.83189	2621.425
2867.34368	2621.525
2869.85393	2629.425
2872.36264	2616.125
2874.8698	2624.425
2877.37543	2623.025
2879.87952	2621.425
2882.38207	2616.125
2884.88308	2627.925
2887.38256	2621.125
2889.88051	2632.425
2892.37692	2618.425
2894.8718	2627.925
2897.36515	2627.225
2899.85698	2621.725
2902.34727	2638.525
2904.83604	2625.025
2907.32328	2631.025
2909.809	2635.525
2912.29319	2638.825
2914.77587	2636.425
2917.25702	2631.725
2919.73665	2630.225
2922.21476	2628.325
2924.69136	2610.725
2927.16644	2633.725
2929.64	2626.025
2932.11205	2625.925
2934.58258	2614.625
2937.05161	2625.625
2939.51912	2613.825
2941.98513	2626.325
2944.44962	2621.625
2946.91261	2598.425
2949.37409	2622.425
2951.83407	2612.725
2954.29254	2612.925
2956.74951	2607.825
2959.20498	2609.425
2961.65895	2602.925
2964.11142	2597.125
2966.56239	2594.525
2969.01186	2594.925
2971.45984	2584.425
2973.90632	2582.425
2976.35131	2569.025
2978.7948	2589.025
2981.23681	2568.825
2983.67732	2569.125
2986.11635	2561.625
2988.55388	2558.525
2990.98993	2568.625
2993.4245	2554.625
2995.85758	2543.825
2998.28917	2552.925
3000.71928	2543.025
3003.14791	2557.925
3005.57506	2547.825
3008.00073	2541.625
3010.42493	2549.225
3012.84764	2542.825
3015.26888	2540.225
3017.68865	2546.125
3020.10694	2535.025
3022.52376	2538.325
3024.9391	2531.725
3027.35298	2532.125
3029.76539	2532.725
3032.17632	2528.225
3034.5858	2527.325
3036.9938	2531.525
3039.40034	2542.425
3041.80542	2536.725
3044.20903	2535.825
3046.61118	2540.825
3049.01187	2523.925
3051.4111	2529.725
3053.80888	2540.725
3056.20519	2527.125
3058.60005	2526.325
3060.99345	2537.825
3063.3854	2525.425
3065.7759	2522.425
3068.16494	2521.925
3070.55254	2509.125
3072.93868	2517.625
3075.32338	2530.325
3077.70662	2529.025
3080.08842	2526.625
3082.46878	2527.925
3084.84769	2523.525
3087.22515	2528.025
3089.60118	2534.125
3091.97576	2535.925
3094.3489	2538.525
3096.72061	2539.425
3099.09087	2537.725
3101.4597	2564.925
3103.82709	2560.625
3106.19305	2556.225
3108.55757	2558.825
3110.92066	2557.725
3113.28232	2566.525
3115.64255	2566.625
3118.00134	2555.225
3120.35871	2560.325
3122.71466	2558.225
3125.06917	2559.625
3127.42226	2559.325
3129.77393	2576.025
3132.12417	2574.225
3134.47299	2567.825
3136.82039	2585.525
3139.16636	2597.425
3141.51092	2607.025
3143.85406	2614.725
3146.19579	2613.325
3148.53609	2621.925
3150.87499	2640.525
3153.21246	2643.825
3155.54853	2666.525
3157.88318	2687.225
3160.21642	2663.725
3162.54826	2662.925
3164.87868	2681.225
3167.2077	2670.725
3169.5353	2680.925
3171.86151	2667.625
3174.18631	2685.225
3176.5097	2698.625
3178.83169	2685.625
3181.15228	2686.625
3183.47147	2701.625
3185.78926	2692.325
3188.10565	2695.325
3190.42065	2692.625
3192.73424	2692.725
3195.04645	2719.325
3197.35725	2721.925
3199.66667	2708.225
3201.97469	2723.725
3204.28132	2745.925
3206.58656	2733.925
3208.8904	2737.925
3211.19287	2751.325
3213.49394	2748.825
3215.79363	2751.025
3218.09193	2748.625
3220.38884	2768.725
3222.68438	2763.225
3224.97853	2766.225
3227.2713	2762.425
3229.56269	2759.025
3231.8527	2755.025
3234.14133	2753.425
3236.42858	2750.325
