Data from AgNPs_FTO_APTES_UA_0.1mM_CRN_50uM_NaF_0.1M_Addition_RamanShift__31__13-12-47-662.txt Node

Date: Mon Dec 20 13:12:47 GMT 2021
User: TCL
Spectrometer: QEP01345
Trigger mode: 4
Integration Time (sec): 7.000000E0
Scans to average: 10
Electric dark correction enabled: true
Nonlinearity correction enabled: false
Boxcar width: 0
XAxis mode: Raman Shifts
Number of Pixels in Spectrum: 1044
>>>>>Begin Spectral Data<<<<<
46.04893	0.525
50.45542	-0.075
54.85868	-0.775
59.25871	1.425
63.6555	29.825
68.04907	29.225
72.43941	34.125
76.82654	34.425
81.21044	33.225
85.59113	39.225
89.96862	36.325
94.34289	40.425
98.71396	38.125
103.08183	39.025
107.4465	43.525
111.80798	44.825
116.16626	41.725
120.52136	49.525
124.87327	50.225
129.222	51.825
133.56755	48.825
137.90993	56.225
142.24913	57.425
146.58517	63.425
150.91804	75.325
155.24774	87.925
159.57429	103.025
163.89768	129.425
168.21792	169.225
172.53501	218.425
176.84895	305.125
181.15975	412.925
185.46741	573.925
189.77193	787.125
194.07331	1060.325
198.37157	1370.125
202.6667	1702.125
206.9587	2028.725
211.24758	2361.225
215.53334	2695.025
219.81599	3055.825
224.09553	3453.725
228.37195	3890.925
232.64527	4376.925
236.91549	4855.025
241.18261	5269.825
245.44663	5621.625
249.70755	5854.025
253.96539	6050.425
258.22014	6221.325
262.4718	6302.925
266.72039	6354.925
270.96589	6319.125
275.20832	6224.525
279.44768	6085.925
283.68397	5958.425
287.91719	5865.225
292.14735	5867.225
296.37445	6023.025
300.59849	6337.525
304.81948	6712.025
309.03742	6995.925
313.25231	7010.125
317.46415	6649.825
321.67296	6022.325
325.87872	5466.625
330.08145	5173.725
334.28114	5102.425
338.47781	5189.325
342.67145	5341.825
346.86207	5615.425
351.04966	6042.425
355.23424	6529.125
359.4158	6942.625
363.59435	7122.925
367.76989	7193.625
371.94243	7186.625
376.11196	7171.725
380.27849	7137.925
384.44203	7048.125
388.60257	6900.225
392.76012	6832.525
396.91468	6832.325
401.06626	6980.125
405.21485	7086.325
409.36047	6869.525
413.50311	6373.725
417.64277	5856.525
421.77947	5540.825
425.9132	5389.225
430.04396	5308.025
434.17176	5324.025
438.2966	5373.225
442.41849	5529.425
446.53742	5700.925
450.6534	5843.525
454.76644	5888.125
458.87653	5886.925
462.98368	5826.425
467.08789	5718.725
471.18916	5622.225
475.2875	5523.525
479.38291	5450.625
483.4754	5467.725
487.56496	5581.125
491.6516	5706.725
495.73531	5803.725
499.81612	5740.925
503.89401	5678.725
507.96899	5674.025
512.04106	5802.325
516.11023	6009.725
520.1765	6239.825
524.23987	6378.625
528.30034	6331.525
532.35792	6178.025
536.41261	5956.625
540.46441	5658.725
544.51333	5407.025
548.55936	5308.825
552.60252	5327.925
556.64279	5418.725
560.6802	5489.725
564.71473	5605.125
568.7464	5911.625
572.7752	6075.125
576.80114	5817.125
580.82422	5507.925
584.84444	5439.225
588.86181	5497.125
592.87633	5553.025
596.888	5607.525
600.89682	5795.325
604.9028	6602.625
608.90594	8961.525
612.90624	12323.725
616.90371	12567.825
620.89834	9077.025
624.89015	7635.925
628.87913	7885.825
632.86528	8494.625
636.84862	8872.525
640.82913	8533.025
644.80683	7657.025
648.78172	6790.825
652.75379	6247.025
656.72306	6131.225
660.68952	6224.425
664.65319	5996.425
668.61405	5526.825
672.57211	5275.225
676.52738	5261.325
680.47986	5233.325
684.42955	5199.925
688.37646	5184.725
692.32058	5157.025
696.26192	5163.725
700.20048	5187.925
704.13626	5210.925
708.06928	5156.225
711.99952	5097.625
715.927	5128.325
719.85171	5221.325
723.77365	5321.325
727.69284	5284.825
731.60928	5200.925
735.52295	5080.025
739.43388	5034.225
743.34206	5050.325
747.24749	5074.625
751.15017	5092.725
755.05012	5164.325
758.94733	5456.825
762.8418	6177.425
766.73354	7406.625
770.62254	8705.025
774.50882	9485.925
778.39237	9238.525
782.27321	7907.225
786.15132	6470.925
790.02671	5667.725
793.89938	5335.525
797.76935	5285.125
801.6366	5480.525
805.50115	5894.125
809.36299	6344.425
813.22213	6512.925
817.07857	6315.625
820.93231	5872.725
824.78336	5448.125
828.63172	5157.325
832.47738	4998.025
836.32036	4896.325
840.16066	4807.025
843.99827	4770.925
847.8332	4727.525
851.66546	4719.125
855.49504	4735.925
859.32195	4769.025
863.1462	4801.425
866.96777	4916.125
870.78668	5076.025
874.60293	5366.925
878.41652	5688.925
882.22745	6034.425
886.03573	6229.125
889.84136	6190.625
893.64433	5911.725
897.44466	5540.225
901.24235	5211.025
905.0374	4926.525
908.8298	4744.325
912.61957	4610.825
916.40671	4544.825
920.19121	4518.425
923.97308	4523.425
927.75233	4597.725
931.52895	4674.025
935.30295	4621.625
939.07433	4485.425
942.84309	4325.925
946.60924	4250.725
950.37278	4208.725
954.13371	4192.225
957.89203	4170.825
961.64774	4161.525
965.40086	4149.525
969.15137	4131.025
972.89929	4121.625
976.64461	4121.425
980.38733	4138.225
984.12747	4139.225
987.86502	4176.925
991.59999	4245.125
995.33237	4344.125
999.06217	4484.525
1002.78939	4690.825
1006.51404	4913.225
1010.23611	5145.325
1013.95561	5315.825
1017.67255	5334.925
1021.38692	5231.225
1025.09872	5046.225
1028.80796	4826.425
1032.51465	4647.125
1036.21877	4552.525
1039.92035	4490.525
1043.61937	4487.025
1047.31584	4483.425
1051.00976	4523.925
1054.70114	4560.725
1058.38998	4584.125
1062.07627	4679.525
1065.76003	4759.325
1069.44126	4831.525
1073.11995	4888.825
1076.79611	4903.025
1080.46974	4979.925
1084.14085	5053.925
1087.80943	5149.225
1091.47549	5146.025
1095.13903	4976.825
1098.80005	4771.625
1102.45857	4640.425
1106.11456	4634.625
1109.76805	4732.725
1113.41903	4990.925
1117.06751	5412.625
1120.71348	5987.525
1124.35696	6736.925
1127.99793	7521.825
1131.63641	7946.025
1135.2724	7916.125
1138.90589	7667.025
1142.5369	7243.525
1146.16542	6650.525
1149.79145	6078.725
1153.415	5560.025
1157.03607	5225.325
1160.65467	5047.325
1164.27079	5085.025
1167.88443	5284.525
1171.49561	5693.125
1175.10432	6451.725
1178.71056	7567.925
1182.31434	8528.825
1185.91565	8882.925
1189.51451	8795.125
1193.11091	8494.425
1196.70485	8278.325
1200.29634	8246.925
1203.88538	8114.025
1207.47197	7658.825
1211.05612	7015.525
1214.63782	6434.525
1218.21708	5912.725
1221.79391	5531.625
1225.36829	5286.725
1228.94024	5090.925
1232.50976	4973.725
1236.07685	4952.425
1239.6415	4983.725
1243.20374	5007.225
1246.76355	5064.125
1250.32093	5117.025
1253.8759	5192.725
1257.42845	5311.925
1260.97859	5469.325
1264.52631	5667.025
1268.07163	5813.825
1271.61453	5929.325
1275.15503	5934.725
1278.69312	5888.325
1282.22882	5859.325
1285.76211	5989.725
1289.29301	6211.925
1292.82151	6466.625
1296.34761	6785.325
1299.87133	7256.425
1303.39266	8084.725
1306.9116	9358.725
1310.42815	10695.725
1313.94233	11231.825
1317.45412	10628.925
1320.96354	9547.625
1324.47058	8534.225
1327.97525	7750.525
1331.47754	7349.625
1334.97747	7271.525
1338.47502	7442.925
1341.97022	7848.925
1345.46305	8486.925
1348.95352	9397.125
1352.44163	10492.025
1355.92738	11970.425
1359.41078	14095.425
1362.89183	15766.425
1366.37053	15009.025
1369.84688	12434.925
1373.32088	10147.525
1376.79254	8621.925
1380.26186	7783.025
1383.72883	7281.425
1387.19347	6887.025
1390.65578	6508.525
1394.11575	6215.925
1397.57339	6025.525
1401.0287	5912.525
1404.48168	5843.725
1407.93234	5736.125
1411.38068	5639.325
1414.82669	5545.125
1418.27039	5457.825
1421.71177	5304.625
1425.15083	5162.825
1428.58758	5069.625
1432.02203	5085.025
1435.45416	5123.725
1438.88399	5100.825
1442.31151	5091.625
1445.73673	5093.225
1449.15965	5137.625
1452.58027	5111.625
1455.9986	5057.225
1459.41463	5040.925
1462.82837	5088.525
1466.23982	5200.425
1469.64898	5338.625
1473.05586	5403.825
1476.46045	5466.325
1479.86276	5553.725
1483.26279	5760.825
1486.66054	6000.025
1490.05602	6347.225
1493.44922	6841.825
1496.84016	7590.825
1500.22882	8796.925
1503.61521	10455.425
1506.99934	12281.225
1510.38121	13652.925
1513.76081	13769.925
1517.13816	12448.725
1520.51324	10359.725
1523.88607	8534.625
1527.25665	7399.625
1530.62498	6807.325
1533.99105	6553.525
1537.35488	6433.525
1540.71647	6424.125
1544.07581	6541.025
1547.4329	6637.225
1550.78776	6763.625
1554.14038	6808.925
1557.49077	6846.925
1560.83892	6931.925
1564.18484	7146.325
1567.52853	7436.225
1570.86999	7738.325
1574.20922	7885.825
1577.54624	7825.225
1580.88103	7354.825
1584.2136	6729.325
1587.54395	6299.625
1590.87208	6262.325
1594.19801	6504.125
1597.52172	6923.525
1600.84321	7150.025
1604.16251	7014.625
1607.47959	6743.625
1610.79447	6422.725
1614.10715	6095.625
1617.41763	5845.825
1620.7259	5681.825
1624.03199	5615.125
1627.33587	5629.125
1630.63757	5744.625
1633.93707	5955.825
1637.23439	6349.425
1640.52951	6979.825
1643.82246	7964.125
1647.11321	9242.125
1650.40179	10189.925
1653.68819	10034.725
1656.97241	8831.625
1660.25446	7434.225
1663.53433	6410.125
1666.81203	5765.925
1670.08756	5326.925
1673.36092	5031.425
1676.63211	4830.025
1679.90115	4649.325
1683.16801	4527.825
1686.43272	4415.825
1689.69527	4300.725
1692.95567	4209.125
1696.2139	4130.025
1699.46999	4060.125
1702.72392	3962.925
1705.97571	3881.925
1709.22535	3821.725
1712.47284	3759.125
1715.71819	3708.925
1718.96139	3677.625
1722.20246	3625.225
1725.44139	3579.625
1728.67818	3525.725
1731.91284	3469.325
1735.14537	3430.525
1738.37576	3391.025
1741.60403	3384.025
1744.83017	3352.325
1748.05418	3338.325
1751.27607	3311.325
1754.49584	3303.225
1757.71349	3284.525
1760.92903	3252.625
1764.14244	3238.525
1767.35375	3234.925
1770.56294	3209.425
1773.77002	3183.825
1776.97499	3158.925
1780.17785	3134.125
1783.37861	3115.125
1786.57727	3112.725
1789.77382	3094.825
1792.96828	3085.825
1796.16064	3059.125
1799.3509	3044.225
1802.53907	3047.925
1805.72514	3017.225
1808.90913	3004.625
1812.09102	3000.225
1815.27083	2995.225
1818.44856	2987.525
1821.6242	2976.225
1824.79776	2961.825
1827.96924	2964.325
1831.13864	2952.425
1834.30597	2944.125
1837.47122	2948.925
1840.6344	2927.025
1843.7955	2926.625
1846.95454	2919.725
1850.11151	2916.425
1853.26642	2905.625
1856.41926	2898.525
1859.57004	2897.525
1862.71876	2897.525
1865.86542	2896.725
1869.01003	2889.925
1872.15258	2882.725
1875.29308	2880.125
1878.43152	2872.925
1881.56792	2862.225
1884.70227	2867.225
1887.83457	2859.425
1890.96482	2857.225
1894.09304	2850.625
1897.21921	2844.625
1900.34335	2841.725
1903.46544	2833.025
1906.58551	2853.225
1909.70353	2832.525
1912.81953	2815.625
1915.93349	2831.825
1919.04543	2805.525
1922.15534	2805.125
1925.26322	2792.725
1928.36908	2801.125
1931.47292	2780.225
1934.57473	2764.725
1937.67453	2741.025
1940.77232	2756.825
1943.86808	2740.125
1946.96184	2736.325
1950.05358	2721.725
1953.14331	2709.225
1956.23103	2700.925
1959.31675	2702.525
1962.40046	2687.625
1965.48217	2687.525
1968.56188	2690.825
1971.63959	2671.825
1974.7153	2670.025
1977.78901	2664.725
1980.86073	2644.125
1983.93046	2631.925
1986.99819	2621.925
1990.06394	2609.625
1993.1277	2598.425
1996.18947	2582.225
1999.24925	2573.225
2002.30706	2576.325
2005.36288	2566.725
2008.41672	2549.125
2011.46859	2547.725
2014.51848	2526.525
2017.56639	2517.325
2020.61233	2522.025
2023.6563	2525.325
2026.6983	2494.825
2029.73833	2497.725
2032.7764	2493.125
2035.8125	2489.925
2038.84664	2477.725
2041.87881	2482.425
2044.90903	2475.325
2047.93729	2469.625
2050.96359	2479.925
2053.98794	2483.925
2057.01034	2445.725
2060.03078	2458.925
2063.04927	2451.025
2066.06582	2444.625
2069.08042	2442.025
2072.09307	2451.925
2075.10378	2424.325
2078.11255	2441.925
2081.11938	2434.125
2084.12426	2429.025
2087.12722	2429.625
2090.12824	2426.025
2093.12732	2428.525
2096.12447	2431.525
2099.11969	2428.225
2102.11299	2424.225
2105.10435	2418.925
2108.09379	2431.825
2111.08131	2426.425
2114.0669	2415.625
2117.05057	2435.225
2120.03233	2427.725
2123.01216	2430.225
2125.99008	2444.925
2128.96609	2431.325
2131.94018	2437.825
2134.91236	2438.025
2137.88263	2438.925
2140.851	2447.125
2143.81746	2438.825
2146.78201	2434.325
2149.74466	2433.125
2152.7054	2427.925
2155.66425	2424.025
2158.6212	2416.625
2161.57625	2423.825
2164.52941	2411.725
2167.48067	2409.425
2170.43004	2421.825
2173.37752	2403.925
2176.32311	2407.425
2179.26681	2404.725
2182.20863	2398.925
2185.14856	2407.825
2188.08661	2404.825
2191.02278	2399.025
2193.95707	2393.625
2196.88948	2386.625
2199.82001	2365.325
2202.74867	2374.125
2205.67545	2372.225
2208.60037	2366.425
2211.52341	2367.625
2214.44458	2357.825
2217.36388	2358.625
2220.28132	2353.225
2223.1969	2335.025
2226.11061	2331.225
2229.02246	2330.325
2231.93245	2316.625
2234.84058	2308.325
2237.74686	2312.925
2240.65128	2314.525
2243.55385	2310.025
2246.45456	2302.525
2249.35343	2304.425
2252.25044	2298.925
2255.14561	2298.625
2258.03893	2310.725
2260.93041	2309.925
2263.82004	2293.625
2266.70783	2296.225
2269.59378	2290.425
2272.4779	2284.025
2275.36017	2279.425
2278.24061	2266.825
2281.11922	2253.625
2283.996	2259.725
2286.87094	2255.725
2289.74405	2252.725
2292.61534	2244.625
2295.4848	2229.625
2298.35243	2231.025
2301.21824	2228.025
2304.08223	2222.825
2306.94439	2205.825
2309.80474	2216.925
2312.66327	2214.725
2315.51999	2210.525
2318.37489	2210.125
2321.22797	2200.725
2324.07925	2201.925
2326.92871	2192.525
2329.77637	2191.925
2332.62222	2183.425
2335.46626	2188.225
2338.3085	2175.925
2341.14893	2176.925
2343.98756	2168.025
2346.8244	2175.225
2349.65943	2169.525
2352.49267	2186.825
2355.32411	2179.625
2358.15376	2172.625
2360.98161	2192.725
2363.80768	2182.425
2366.63195	2202.825
2369.45444	2189.125
2372.27514	2190.525
2375.09405	2206.025
2377.91118	2190.625
2380.72652	2177.825
2383.54009	2167.225
2386.35187	2163.025
2389.16188	2161.725
2391.97011	2155.625
2394.77657	2138.825
2397.58125	2122.125
2400.38416	2124.025
2403.18529	2122.925
2405.98466	2116.625
2408.78226	2101.725
2411.57809	2103.025
2414.37216	2093.525
2417.16446	2110.925
2419.955	2089.325
2422.74378	2087.725
2425.5308	2085.525
2428.31606	2076.025
2431.09956	2078.025
2433.88131	2086.025
2436.6613	2074.425
2439.43954	2068.125
2442.21603	2068.625
2444.99077	2063.225
2447.76377	2072.025
2450.53501	2074.925
2453.30451	2081.025
2456.07226	2068.525
2458.83827	2061.325
2461.60254	2061.525
2464.36507	2067.125
2467.12586	2055.525
2469.88492	2062.225
2472.64224	2045.325
2475.39782	2057.925
2478.15167	2069.925
2480.90379	2070.625
2483.65417	2054.825
2486.40283	2063.025
2489.14976	2073.425
2491.89497	2090.925
2494.63845	2078.425
2497.3802	2077.725
2500.12024	2080.425
2502.85855	2071.425
2505.59514	2047.825
2508.33002	2037.625
2511.06318	2031.225
2513.79462	2024.525
2516.52435	2020.225
2519.25237	2003.225
2521.97867	1999.425
2524.70327	1983.325
2527.42616	1982.825
2530.14734	1983.925
2532.86681	1978.925
2535.58458	1971.925
2538.30065	1973.025
2541.01501	1973.625
2543.72768	1960.725
2546.43864	1954.925
2549.14791	1963.525
2551.85548	1961.525
2554.56136	1956.925
2557.26554	1960.825
2559.96803	1955.225
2562.66883	1951.225
2565.36794	1938.325
2568.06536	1936.825
2570.7611	1945.525
2573.45514	1933.225
2576.14751	1928.525
2578.83819	1922.625
2581.52719	1926.825
2584.21451	1921.225
2586.90015	1910.125
2589.58411	1902.525
2592.2664	1904.125
2594.94701	1896.825
2597.62594	1896.325
2600.30321	1880.625
2602.9788	1882.125
2605.65273	1892.025
2608.32498	1878.825
2610.99557	1879.025
2613.66449	1873.525
2616.33175	1879.825
2618.99734	1875.025
2621.66128	1877.325
2624.32355	1873.625
2626.98416	1868.325
2629.64311	1859.625
2632.30041	1863.225
2634.95605	1858.325
2637.61004	1840.825
2640.26238	1848.525
2642.91306	1840.325
2645.56209	1836.725
2648.20948	1833.825
2650.85521	1830.725
2653.4993	1840.125
2656.14175	1840.525
2658.78255	1835.125
2661.42171	1833.325
2664.05923	1831.725
2666.6951	1842.825
2669.32934	1846.025
2671.96194	1846.225
2674.59291	1844.625
2677.22224	1839.525
2679.84993	1850.425
2682.476	1844.225
2685.10043	1859.425
2687.72324	1849.625
2690.34441	1840.425
2692.96396	1837.525
2695.58188	1849.625
2698.19818	1846.225
2700.81285	1854.625
2703.4259	1865.425
2706.03733	1876.725
2708.64714	1885.625
2711.25533	1868.925
2713.86191	1862.225
2716.46687	1858.825
2719.07021	1860.125
2721.67194	1864.825
2724.27206	1868.325
2726.87057	1865.825
2729.46747	1860.825
2732.06276	1860.425
2734.65644	1855.425
2737.24852	1848.925
2739.83899	1844.025
2742.42786	1850.125
2745.01513	1825.425
2747.60079	1828.025
2750.18486	1830.825
2752.76733	1812.225
2755.3482	1833.825
2757.92747	1823.725
2760.50515	1817.325
2763.08123	1817.725
2765.65573	1816.225
2768.22863	1810.525
2770.79994	1812.025
2773.36967	1809.225
2775.9378	1809.225
2778.50435	1800.525
2781.06932	1797.525
2783.6327	1793.825
2786.1945	1799.425
2788.75471	1802.525
2791.31335	1798.525
2793.87041	1794.725
2796.42589	1784.525
2798.97979	1792.625
2801.53212	1793.625
2804.08288	1793.825
2806.63206	1794.525
2809.17967	1798.325
2811.72571	1790.125
2814.27018	1790.925
2816.81308	1787.625
2819.35442	1798.125
2821.89419	1801.225
2824.43239	1800.625
2826.96904	1780.425
2829.50412	1808.225
2832.03763	1798.325
2834.56959	1797.425
2837.1	1802.025
2839.62884	1799.925
2842.15613	1820.225
2844.68186	1820.125
2847.20604	1842.125
2849.72867	1845.425
2852.24974	1860.825
2854.76927	1864.825
2857.28724	1870.225
2859.80367	1857.225
2862.31855	1842.725
2864.83189	1852.725
2867.34368	1855.425
2869.85393	1855.225
2872.36264	1860.825
2874.8698	1860.225
2877.37543	1856.725
2879.87952	1856.525
2882.38207	1854.025
2884.88308	1855.125
2887.38256	1848.925
2889.88051	1857.625
2892.37692	1848.525
2894.8718	1851.825
2897.36515	1840.025
2899.85698	1863.025
2902.34727	1859.925
2904.83604	1855.225
2907.32328	1862.725
2909.809	1863.925
2912.29319	1865.825
2914.77587	1862.925
2917.25702	1866.925
2919.73665	1856.425
2922.21476	1857.325
2924.69136	1844.925
2927.16644	1848.125
2929.64	1846.325
2932.11205	1844.925
2934.58258	1847.925
2937.05161	1837.025
2939.51912	1829.125
2941.98513	1830.225
2944.44962	1812.925
2946.91261	1816.925
2949.37409	1814.225
2951.83407	1797.625
2954.29254	1803.025
2956.74951	1792.625
2959.20498	1789.225
2961.65895	1780.025
2964.11142	1785.125
2966.56239	1776.025
2969.01186	1775.225
2971.45984	1767.225
2973.90632	1763.925
2976.35131	1757.525
2978.7948	1764.425
2981.23681	1750.825
2983.67732	1754.125
2986.11635	1757.025
2988.55388	1740.925
2990.98993	1741.525
2993.4245	1734.625
2995.85758	1748.025
2998.28917	1737.125
3000.71928	1747.825
3003.14791	1747.825
3005.57506	1741.425
3008.00073	1738.025
3010.42493	1741.625
3012.84764	1746.925
3015.26888	1743.125
3017.68865	1743.625
3020.10694	1745.025
3022.52376	1743.125
3024.9391	1742.525
3027.35298	1744.725
3029.76539	1741.825
3032.17632	1731.125
3034.5858	1734.725
3036.9938	1736.925
3039.40034	1739.725
3041.80542	1739.625
3044.20903	1739.125
3046.61118	1748.125
3049.01187	1741.425
3051.4111	1740.925
3053.80888	1747.425
3056.20519	1760.525
3058.60005	1746.425
3060.99345	1742.025
3063.3854	1751.725
3065.7759	1748.125
3068.16494	1747.325
3070.55254	1758.025
3072.93868	1751.525
3075.32338	1762.425
3077.70662	1757.125
3080.08842	1758.225
3082.46878	1770.225
3084.84769	1757.125
3087.22515	1764.325
3089.60118	1777.425
3091.97576	1773.825
3094.3489	1775.225
3096.72061	1784.225
3099.09087	1787.725
3101.4597	1800.625
3103.82709	1798.225
3106.19305	1787.325
3108.55757	1800.425
3110.92066	1806.825
3113.28232	1809.325
3115.64255	1811.825
3118.00134	1816.325
3120.35871	1819.325
3122.71466	1823.625
3125.06917	1822.025
3127.42226	1830.825
3129.77393	1845.325
3132.12417	1845.525
3134.47299	1852.925
3136.82039	1863.525
3139.16636	1877.925
3141.51092	1877.425
3143.85406	1889.925
3146.19579	1890.925
3148.53609	1909.525
3150.87499	1920.725
3153.21246	1924.425
3155.54853	1939.025
3157.88318	1947.125
3160.21642	1950.725
3162.54826	1955.225
3164.87868	1959.725
3167.2077	1965.625
3169.5353	1976.425
3171.86151	1980.625
3174.18631	1983.725
3176.5097	1988.425
3178.83169	1991.925
3181.15228	1997.725
3183.47147	2001.025
3185.78926	2009.325
3188.10565	2017.625
3190.42065	2023.725
3192.73424	2039.725
3195.04645	2049.925
3197.35725	2050.925
3199.66667	2048.725
3201.97469	2072.425
3204.28132	2076.225
3206.58656	2073.125
3208.8904	2095.125
3211.19287	2091.125
3213.49394	2099.825
3215.79363	2101.025
3218.09193	2106.325
3220.38884	2121.625
3222.68438	2119.025
3224.97853	2123.825
3227.2713	2115.525
3229.56269	2120.525
3231.8527	2115.725
3234.14133	2119.125
