Data from AgNPs_FTO_APTES_UA_0.1mM_CRN_0uM_NaF_0.1M_Addition_RamanShift__5__10-08-27-452.txt Node

Date: Mon Dec 20 10:08:27 GMT 2021
User: TCL
Spectrometer: QEP01345
Trigger mode: 4
Integration Time (sec): 7.000000E0
Scans to average: 10
Electric dark correction enabled: true
Nonlinearity correction enabled: false
Boxcar width: 0
XAxis mode: Raman Shifts
Number of Pixels in Spectrum: 1044
>>>>>Begin Spectral Data<<<<<
46.04893	-0.3
50.45542	0.4
54.85868	-1.7
59.25871	1.4
63.6555	21.3
68.04907	21.4
72.43941	23.6
76.82654	26
81.21044	26.1
85.59113	33.4
89.96862	28.8
94.34289	30.3
98.71396	33.8
103.08183	33.7
107.4465	33.9
111.80798	35.6
116.16626	35.8
120.52136	34.7
124.87327	32.6
129.222	32.4
133.56755	35.7
137.90993	36.4
142.24913	36.5
146.58517	33.6
150.91804	43.2
155.24774	44.2
159.57429	49.5
163.89768	59.9
168.21792	76.4
172.53501	86.8
176.84895	116.5
181.15975	156.7
185.46741	209.1
189.77193	286.3
194.07331	384.6
198.37157	500.9
202.6667	618.8
206.9587	743.5
211.24758	879.9
215.53334	1009.8
219.81599	1142.5
224.09553	1295.7
228.37195	1471
232.64527	1646.5
236.91549	1831.5
241.18261	1999.1
245.44663	2172.2
249.70755	2297.5
253.96539	2401.8
258.22014	2468.3
262.4718	2497.7
266.72039	2505
270.96589	2490.2
275.20832	2451.6
279.44768	2387.7
283.68397	2307.4
287.91719	2244.6
292.14735	2161.4
296.37445	2090.7
300.59849	2036.5
304.81948	1990.2
309.03742	1965.2
313.25231	1909.8
317.46415	1867.1
321.67296	1826.8
325.87872	1801.5
330.08145	1771.6
334.28114	1771.7
338.47781	1781.7
342.67145	1777.4
346.86207	1777.4
351.04966	1782.6
355.23424	1798.5
359.4158	1824.2
363.59435	1816.5
367.76989	1826
371.94243	1829.1
376.11196	1838.4
380.27849	1845.9
384.44203	1847.6
388.60257	1861.8
392.76012	1864.4
396.91468	1861.3
401.06626	1879.7
405.21485	1891.9
409.36047	1870.2
413.50311	1872.9
417.64277	1855.7
421.77947	1846.2
425.9132	1853.6
430.04396	1857.4
434.17176	1873.5
438.2966	1890.8
442.41849	1902.6
446.53742	1908.5
450.6534	1927.3
454.76644	1945.5
458.87653	1943.3
462.98368	1947.4
467.08789	1954.6
471.18916	1952.1
475.2875	1966.2
479.38291	1960.5
483.4754	1975.2
487.56496	1996.3
491.6516	2020.7
495.73531	2054
499.81612	2050.8
503.89401	2042.1
507.96899	2023.6
512.04106	2013.3
516.11023	1993.3
520.1765	1997.8
524.23987	1999.4
528.30034	1996.4
532.35792	2001.8
536.41261	1976.4
540.46441	1969.1
544.51333	1940.8
548.55936	1928.1
552.60252	1920.8
556.64279	1922.9
560.6802	1933
564.71473	1928.8
568.7464	1918.9
572.7752	1942.1
576.80114	1928.4
580.82422	1942.5
584.84444	1948.7
588.86181	1981.7
592.87633	1993
596.888	1992.5
600.89682	1989.6
604.9028	2021
608.90594	2121.2
612.90624	2261.7
616.90371	2294
620.89834	2195.8
624.89015	2185.3
628.87913	2272.6
632.86528	2383.8
636.84862	2477.4
640.82913	2485.2
644.80683	2406.6
648.78172	2295.3
652.75379	2206.8
656.72306	2163.1
660.68952	2126.2
664.65319	2119.2
668.61405	2098.1
672.57211	2113.9
676.52738	2129.1
680.47986	2164.4
684.42955	2196.7
688.37646	2228.8
692.32058	2212.4
696.26192	2168
700.20048	2122.3
704.13626	2118.7
708.06928	2110.6
711.99952	2104.2
715.927	2086.4
719.85171	2083.4
723.77365	2096.2
727.69284	2093.5
731.60928	2092.9
735.52295	2063
739.43388	2057.2
743.34206	2028.2
747.24749	2027
751.15017	2016.1
755.05012	2022
758.94733	2038.4
762.8418	2066.3
766.73354	2119.2
770.62254	2186.7
774.50882	2224.1
778.39237	2215.4
782.27321	2135
786.15132	2092.3
790.02671	2070.9
793.89938	2089.1
797.76935	2107.7
801.6366	2164.1
805.50115	2209.7
809.36299	2258.3
813.22213	2286.4
817.07857	2253.6
820.93231	2194.6
824.78336	2127.2
828.63172	2062.8
832.47738	2033.5
836.32036	2009
840.16066	2006.3
843.99827	2006.8
847.8332	1999.8
851.66546	1967
855.49504	1963.8
859.32195	1951.5
863.1462	1943
866.96777	1948.8
870.78668	1963.3
874.60293	1983.4
878.41652	2013.4
882.22745	2076.4
886.03573	2116.2
889.84136	2159.4
893.64433	2175
897.44466	2163.9
901.24235	2132.5
905.0374	2117.4
908.8298	2119.4
912.61957	2144.7
916.40671	2212.2
920.19121	2295
923.97308	2359.4
927.75233	2403
931.52895	2418.2
935.30295	2385.9
939.07433	2337.4
942.84309	2278.5
946.60924	2249.9
950.37278	2222.7
954.13371	2204.1
957.89203	2170.8
961.64774	2113.2
965.40086	2073.6
969.15137	2034.7
972.89929	2020.8
976.64461	1996.3
980.38733	1983.8
984.12747	1970.2
987.86502	1970.1
991.59999	1966.5
995.33237	1983.5
999.06217	1997.2
1002.78939	2023.4
1006.51404	2064
1010.23611	2105.1
1013.95561	2147.6
1017.67255	2189.9
1021.38692	2201.5
1025.09872	2197.5
1028.80796	2184.3
1032.51465	2146.5
1036.21877	2113.9
1039.92035	2079.1
1043.61937	2034.2
1047.31584	1992.3
1051.00976	1966.1
1054.70114	1958.6
1058.38998	1954.5
1062.07627	1949.8
1065.76003	1953.3
1069.44126	1950.4
1073.11995	1961.6
1076.79611	1964
1080.46974	1947.3
1084.14085	1945
1087.80943	1929.6
1091.47549	1908
1095.13903	1889.6
1098.80005	1879.8
1102.45857	1859.7
1106.11456	1862.1
1109.76805	1878.3
1113.41903	1903.3
1117.06751	1981.4
1120.71348	2080.9
1124.35696	2227
1127.99793	2351.3
1131.63641	2472.7
1135.2724	2506.3
1138.90589	2469.2
1142.5369	2374.7
1146.16542	2250.8
1149.79145	2147.6
1153.415	2047.3
1157.03607	1975.4
1160.65467	1925.1
1164.27079	1890.8
1167.88443	1891.1
1171.49561	1912.3
1175.10432	1939.5
1178.71056	1992.5
1182.31434	2052.7
1185.91565	2079.5
1189.51451	2074.7
1193.11091	2089.1
1196.70485	2092.2
1200.29634	2113.2
1203.88538	2121.4
1207.47197	2108.8
1211.05612	2068.5
1214.63782	2042
1218.21708	1992.8
1221.79391	1970.5
1225.36829	1934.5
1228.94024	1936.3
1232.50976	1939.9
1236.07685	1940.6
1239.6415	1963.7
1243.20374	1966.1
1246.76355	1994.6
1250.32093	2010.9
1253.8759	2022.2
1257.42845	2059.5
1260.97859	2060.1
1264.52631	2103.7
1268.07163	2118.7
1271.61453	2138.4
1275.15503	2152.2
1278.69312	2168.6
1282.22882	2168.2
1285.76211	2181.3
1289.29301	2222.1
1292.82151	2271.7
1296.34761	2315
1299.87133	2357.4
1303.39266	2433.3
1306.9116	2496.2
1310.42815	2565.1
1313.94233	2597.3
1317.45412	2588.7
1320.96354	2542.9
1324.47058	2486
1327.97525	2454.1
1331.47754	2457.9
1334.97747	2459.9
1338.47502	2497.3
1341.97022	2573.8
1345.46305	2655.5
1348.95352	2770.6
1352.44163	2903.6
1355.92738	3055.1
1359.41078	3226.6
1362.89183	3402.7
1366.37053	3447.2
1369.84688	3369
1373.32088	3209.6
1376.79254	3112.2
1380.26186	3045.7
1383.72883	3002.4
1387.19347	2967.7
1390.65578	2952.5
1394.11575	2935.8
1397.57339	2908.4
1401.0287	2855.3
1404.48168	2839.3
1407.93234	2789
1411.38068	2755.9
1414.82669	2725.8
1418.27039	2676.5
1421.71177	2627.2
1425.15083	2553
1428.58758	2498.6
1432.02203	2422.5
1435.45416	2361.3
1438.88399	2314.5
1442.31151	2264.3
1445.73673	2250.3
1449.15965	2213
1452.58027	2195.6
1455.9986	2184
1459.41463	2165.6
1462.82837	2168.8
1466.23982	2183.1
1469.64898	2181.2
1473.05586	2202.9
1476.46045	2214.5
1479.86276	2229.1
1483.26279	2237.8
1486.66054	2250
1490.05602	2274
1493.44922	2277.4
1496.84016	2319.9
1500.22882	2357.6
1503.61521	2446.7
1506.99934	2521.8
1510.38121	2603.6
1513.76081	2616.4
1517.13816	2560.5
1520.51324	2452.2
1523.88607	2348.7
1527.25665	2296.1
1530.62498	2248.5
1533.99105	2221.9
1537.35488	2219.5
1540.71647	2207.2
1544.07581	2219.6
1547.4329	2230
1550.78776	2239.2
1554.14038	2232.7
1557.49077	2240.2
1560.83892	2242.7
1564.18484	2239.8
1567.52853	2240
1570.86999	2233.2
1574.20922	2217.6
1577.54624	2188.5
1580.88103	2141.1
1584.2136	2088.7
1587.54395	2038.3
1590.87208	2014
1594.19801	1999.3
1597.52172	1993.8
1600.84321	2012.4
1604.16251	1986.6
1607.47959	1982.5
1610.79447	1976.6
1614.10715	1974.3
1617.41763	1969
1620.7259	1945.3
1624.03199	1950.3
1627.33587	1948.5
1630.63757	1945.9
1633.93707	1952.3
1637.23439	1959
1640.52951	1971.2
1643.82246	2000.8
1647.11321	2038.9
1650.40179	2085.8
1653.68819	2089.6
1656.97241	2039.2
1660.25446	1960.2
1663.53433	1921.4
1666.81203	1880
1670.08756	1860.1
1673.36092	1853
1676.63211	1847.8
1679.90115	1843.7
1683.16801	1845.7
1686.43272	1820.2
1689.69527	1810.2
1692.95567	1795.9
1696.2139	1777.4
1699.46999	1753.3
1702.72392	1728.7
1705.97571	1681.8
1709.22535	1630.4
1712.47284	1586
1715.71819	1531
1718.96139	1483.3
1722.20246	1435.5
1725.44139	1410.5
1728.67818	1374.8
1731.91284	1345.2
1735.14537	1317
1738.37576	1303.9
1741.60403	1289.4
1744.83017	1260.9
1748.05418	1247.3
1751.27607	1244.3
1754.49584	1233.1
1757.71349	1232.6
1760.92903	1224.2
1764.14244	1213.3
1767.35375	1208.6
1770.56294	1214.4
1773.77002	1198.3
1776.97499	1200.2
1780.17785	1195.3
1783.37861	1182.8
1786.57727	1187
1789.77382	1177.5
1792.96828	1173.4
1796.16064	1167.2
1799.3509	1156.5
1802.53907	1155.2
1805.72514	1148.6
1808.90913	1140.6
1812.09102	1130
1815.27083	1134.1
1818.44856	1138.1
1821.6242	1124.8
1824.79776	1123.9
1827.96924	1126.8
1831.13864	1118.4
1834.30597	1118.3
1837.47122	1113.3
1840.6344	1104.6
1843.7955	1111.6
1846.95454	1112.8
1850.11151	1102.7
1853.26642	1098.2
1856.41926	1108.9
1859.57004	1107.2
1862.71876	1104.8
1865.86542	1093.1
1869.01003	1093.7
1872.15258	1096.7
1875.29308	1089.4
1878.43152	1088.7
1881.56792	1082
1884.70227	1079.7
1887.83457	1085.5
1890.96482	1078.9
1894.09304	1074.5
1897.21921	1058.5
1900.34335	1076.6
1903.46544	1068.5
1906.58551	1063.3
1909.70353	1060
1912.81953	1062.2
1915.93349	1062.2
1919.04543	1058
1922.15534	1059.9
1925.26322	1058.9
1928.36908	1051.5
1931.47292	1047.2
1934.57473	1044.2
1937.67453	1034.5
1940.77232	1031.9
1943.86808	1035
1946.96184	1039.5
1950.05358	1023.2
1953.14331	1029.9
1956.23103	1024.8
1959.31675	1017.5
1962.40046	1012.4
1965.48217	1016.8
1968.56188	1013.3
1971.63959	1006.2
1974.7153	1003
1977.78901	995.4
1980.86073	1003.1
1983.93046	996.4
1986.99819	985.5
1990.06394	985.2
1993.1277	984
1996.18947	980.3
1999.24925	968.4
2002.30706	975
2005.36288	974.5
2008.41672	972.5
2011.46859	970.6
2014.51848	960.4
2017.56639	958
2020.61233	951.6
2023.6563	953.8
2026.6983	949.3
2029.73833	950.9
2032.7764	947.8
2035.8125	945.1
2038.84664	943.1
2041.87881	940.2
2044.90903	934.8
2047.93729	942.1
2050.96359	939.9
2053.98794	938.5
2057.01034	946.8
2060.03078	944.8
2063.04927	942.8
2066.06582	955
2069.08042	955.5
2072.09307	953.1
2075.10378	964.5
2078.11255	961.1
2081.11938	964.1
2084.12426	975.7
2087.12722	980
2090.12824	989.7
2093.12732	989.9
2096.12447	993
2099.11969	996.6
2102.11299	998.7
2105.10435	995.3
2108.09379	1009.4
2111.08131	999.8
2114.0669	1010.2
2117.05057	1002.8
2120.03233	1006.4
2123.01216	999.8
2125.99008	999.7
2128.96609	999
2131.94018	1001.8
2134.91236	994.3
2137.88263	987.9
2140.851	986
2143.81746	981.7
2146.78201	976.3
2149.74466	966.4
2152.7054	961.4
2155.66425	948.6
2158.6212	952.1
2161.57625	942
2164.52941	931.8
2167.48067	933.8
2170.43004	921.5
2173.37752	916
2176.32311	910.3
2179.26681	906.2
2182.20863	906.7
2185.14856	910.6
2188.08661	911.8
2191.02278	905.8
2193.95707	907.1
2196.88948	898.5
2199.82001	898.3
2202.74867	899.1
2205.67545	891.7
2208.60037	898.8
2211.52341	887.7
2214.44458	892.8
2217.36388	885.6
2220.28132	877.3
2223.1969	882
2226.11061	878.6
2229.02246	873.8
2231.93245	873.5
2234.84058	871.9
2237.74686	860
2240.65128	866.6
2243.55385	867.5
2246.45456	872.2
2249.35343	859.8
2252.25044	861.9
2255.14561	859.3
2258.03893	856.1
2260.93041	856.3
2263.82004	854.3
2266.70783	842
2269.59378	848
2272.4779	849.4
2275.36017	847
2278.24061	837.9
2281.11922	838.9
2283.996	826.9
2286.87094	839
2289.74405	841.2
2292.61534	830.6
2295.4848	830.6
2298.35243	822.6
2301.21824	828.6
2304.08223	826.2
2306.94439	826
2309.80474	825.5
2312.66327	819.8
2315.51999	823.2
2318.37489	817
2321.22797	814.8
2324.07925	810.8
2326.92871	820.6
2329.77637	813.2
2332.62222	809.7
2335.46626	806
2338.3085	806.4
2341.14893	807.9
2343.98756	802.5
2346.8244	803.9
2349.65943	802.3
2352.49267	802.5
2355.32411	792.8
2358.15376	798.8
2360.98161	802.9
2363.80768	787.2
2366.63195	791.1
2369.45444	793.4
2372.27514	789.6
2375.09405	797.3
2377.91118	787
2380.72652	790.6
2383.54009	788.9
2386.35187	788.4
2389.16188	787.4
2391.97011	784.8
2394.77657	774.2
2397.58125	768.1
2400.38416	775
2403.18529	773.4
2405.98466	775.8
2408.78226	768.9
2411.57809	765.1
2414.37216	767.8
2417.16446	759.5
2419.955	765.5
2422.74378	764.3
2425.5308	760.2
2428.31606	756.2
2431.09956	753.2
2433.88131	752.7
2436.6613	759
2439.43954	752.9
2442.21603	750.8
2444.99077	746.8
2447.76377	749.4
2450.53501	751
2453.30451	752.7
2456.07226	750.9
2458.83827	752
2461.60254	746.5
2464.36507	740.5
2467.12586	742.7
2469.88492	748.1
2472.64224	737.6
2475.39782	736.3
2478.15167	737.8
2480.90379	732.3
2483.65417	735.6
2486.40283	735.2
2489.14976	729.2
2491.89497	736.2
2494.63845	734.9
2497.3802	729.4
2500.12024	729.5
2502.85855	730.1
2505.59514	730.6
2508.33002	728
2511.06318	724.3
2513.79462	731.2
2516.52435	719.4
2519.25237	719.8
2521.97867	715.6
2524.70327	715.1
2527.42616	714.5
2530.14734	715.9
2532.86681	705.1
2535.58458	711.2
2538.30065	715.6
2541.01501	711.9
2543.72768	711.4
2546.43864	707.9
2549.14791	703.9
2551.85548	708.3
2554.56136	699.8
2557.26554	702.6
2559.96803	699.4
2562.66883	698.8
2565.36794	693.8
2568.06536	703.5
2570.7611	699.6
2573.45514	698
2576.14751	695.2
2578.83819	696.3
2581.52719	689.7
2584.21451	688.9
2586.90015	683.2
2589.58411	686.7
2592.2664	677.6
2594.94701	685.4
2597.62594	687.1
2600.30321	683
2602.9788	677.2
2605.65273	684.1
2608.32498	677.1
2610.99557	675.7
2613.66449	672.7
2616.33175	675.5
2618.99734	675.1
2621.66128	674.9
2624.32355	672.1
2626.98416	672.6
2629.64311	672.8
2632.30041	669.3
2634.95605	667.8
2637.61004	662.2
2640.26238	666.5
2642.91306	667
2645.56209	670
2648.20948	664.2
2650.85521	668.2
2653.4993	669.2
2656.14175	667.3
2658.78255	667.5
2661.42171	665.2
2664.05923	662.4
2666.6951	668.8
2669.32934	672.7
2671.96194	667.9
2674.59291	664
2677.22224	672.6
2679.84993	666.3
2682.476	666
2685.10043	670
2687.72324	671
2690.34441	672.6
2692.96396	673.3
2695.58188	678.9
2698.19818	675.9
2700.81285	672.9
2703.4259	677.3
2706.03733	680.2
2708.64714	677.2
2711.25533	676.3
2713.86191	678.6
2716.46687	679.3
2719.07021	683.5
2721.67194	679.7
2724.27206	671.2
2726.87057	678.4
2729.46747	681.9
2732.06276	684.1
2734.65644	673.5
2737.24852	678.9
2739.83899	677.8
2742.42786	674.2
2745.01513	663.9
2747.60079	674.1
2750.18486	668.8
2752.76733	663.6
2755.3482	673
2757.92747	669
2760.50515	666.6
2763.08123	669.4
2765.65573	664.6
2768.22863	666.1
2770.79994	653.3
2773.36967	658.8
2775.9378	659.8
2778.50435	656
2781.06932	656.1
2783.6327	663.5
2786.1945	653
2788.75471	659.4
2791.31335	653.1
2793.87041	657.4
2796.42589	650.3
2798.97979	648.3
2801.53212	645.2
2804.08288	644
2806.63206	645.4
2809.17967	640.8
2811.72571	652.7
2814.27018	645.7
2816.81308	642.9
2819.35442	635.7
2821.89419	638.6
2824.43239	635.8
2826.96904	643.4
2829.50412	632.8
2832.03763	637.9
2834.56959	636
2837.1	626.6
2839.62884	631.4
2842.15613	636.1
2844.68186	630.6
2847.20604	635.8
2849.72867	638.2
2852.24974	643.3
2854.76927	636.3
2857.28724	640.4
2859.80367	636.2
2862.31855	634.7
2864.83189	638.9
2867.34368	638.1
2869.85393	640.4
2872.36264	639.4
2874.8698	652.1
2877.37543	647.7
2879.87952	652.8
2882.38207	656.7
2884.88308	656.5
2887.38256	662.2
2889.88051	665.6
2892.37692	664.7
2894.8718	668.6
2897.36515	676
2899.85698	684.5
2902.34727	686.7
2904.83604	691.1
2907.32328	705.4
2909.809	713.2
2912.29319	717.6
2914.77587	722.3
2917.25702	728.2
2919.73665	734.5
2922.21476	746.6
2924.69136	746.4
2927.16644	754.5
2929.64	757
2932.11205	757.5
2934.58258	767.8
2937.05161	762.1
2939.51912	758.9
2941.98513	758.1
2944.44962	754.4
2946.91261	745.4
2949.37409	737.8
2951.83407	728.7
2954.29254	723.6
2956.74951	720.2
2959.20498	708.3
2961.65895	701.5
2964.11142	691.8
2966.56239	694.2
2969.01186	684.6
2971.45984	682
2973.90632	671.7
2976.35131	665
2978.7948	671.6
2981.23681	662.9
2983.67732	657.3
2986.11635	654.9
2988.55388	651.4
2990.98993	655.6
2993.4245	652.6
2995.85758	648.7
2998.28917	654.5
3000.71928	653.4
3003.14791	656.2
3005.57506	649.7
3008.00073	654.4
3010.42493	650.6
3012.84764	652.4
3015.26888	652.6
3017.68865	650.6
3020.10694	652.5
3022.52376	655.3
3024.9391	652.9
3027.35298	653.1
3029.76539	648.4
3032.17632	657
3034.5858	654.6
3036.9938	660.9
3039.40034	662
3041.80542	660
3044.20903	653.5
3046.61118	658.6
3049.01187	660.3
3051.4111	668.7
3053.80888	667.1
3056.20519	671.1
3058.60005	668.5
3060.99345	672
3063.3854	665.9
3065.7759	671.6
3068.16494	677.5
3070.55254	678.5
3072.93868	674.1
3075.32338	688.1
3077.70662	681.8
3080.08842	684.2
3082.46878	694.4
3084.84769	696
3087.22515	701.1
3089.60118	703.5
3091.97576	703.8
3094.3489	705.5
3096.72061	712.2
3099.09087	717.2
3101.4597	721.9
3103.82709	723.9
3106.19305	726.2
3108.55757	732.8
3110.92066	731.2
3113.28232	729.8
3115.64255	739.9
3118.00134	746.1
3120.35871	742.5
3122.71466	753.6
3125.06917	756.1
3127.42226	759.3
3129.77393	770.8
3132.12417	767.6
3134.47299	778.1
3136.82039	785.7
3139.16636	788.1
3141.51092	797.5
3143.85406	803.5
3146.19579	805.3
3148.53609	805.5
3150.87499	809.1
3153.21246	825.6
3155.54853	829.2
3157.88318	839.3
3160.21642	835.8
3162.54826	851.7
3164.87868	852.6
3167.2077	862.3
3169.5353	865.4
3171.86151	860.8
3174.18631	876.3
3176.5097	876.9
3178.83169	884.9
3181.15228	885
3183.47147	892.3
3185.78926	895.4
3188.10565	893.5
3190.42065	900
3192.73424	906.6
3195.04645	915.7
3197.35725	911.3
3199.66667	927.9
3201.97469	924.4
3204.28132	937.3
3206.58656	935.9
3208.8904	935.3
3211.19287	939.5
3213.49394	943.4
3215.79363	947.2
3218.09193	950.9
3220.38884	953.7
3222.68438	954.2
3224.97853	959.3
3227.2713	961
3229.56269	959.1
3231.8527	965.4
3234.14133	958.7
3236.42858	959.8
3238.71446	960.4
3240.99896	960.4
3243.28209	965.6
3245.56384	970.4
3247.84423	963.1
3250.12324	962.9
3252.40088	968.5
3254.67715	970.7
3256.95205	966.2
3259.22558	971.4
3261.49775	969.5
3263.76855	964.1
3266.03799	968.6
3268.30606	965.5
3270.57277	958.1
3272.83812	963.8
3275.10211	965.3
3277.36474	965.6
3279.62601	966.3
3281.88593	966.4
3284.14448	966.6
3286.40168	962.6
3288.65753	959.1
3290.91202	957.1
3293.16516	959.1
3295.41695	957.7
3297.66738	948.2
3299.91647	949.2
3302.16421	942.2
3304.4106	941
3306.65564	943.5
3308.89933	942
3311.14169	932
3313.38269	912.8
3315.62236	917.8
3317.86068	914.2
3320.09766	903.6
3322.3333	906.1
3324.5676	902.6
3326.80056	883.2
3329.03219	884.7
3331.26248	-0.2
3333.49143	0.9
3335.71905	-0.5
