Data from AgNPs_FTO_APTES_UA_0.1mM_CRN_20uM_NaF_0.1M_Addition_RamanShift__25__12-26-07-609.txt Node

Date: Mon Dec 20 12:26:07 GMT 2021
User: TCL
Spectrometer: QEP01345
Trigger mode: 4
Integration Time (sec): 7.000000E0
Scans to average: 10
Electric dark correction enabled: true
Nonlinearity correction enabled: false
Boxcar width: 0
XAxis mode: Raman Shifts
Number of Pixels in Spectrum: 1044
>>>>>Begin Spectral Data<<<<<
46.04893	1.0625
50.45542	-0.8375
54.85868	-2.1375
59.25871	1.6625
63.6555	33.6625
68.04907	35.7625
72.43941	37.9625
76.82654	39.0625
81.21044	40.2625
85.59113	45.3625
89.96862	44.0625
94.34289	49.2625
98.71396	49.5625
103.08183	48.2625
107.4465	50.3625
111.80798	56.1625
116.16626	54.1625
120.52136	55.2625
124.87327	57.2625
129.222	59.7625
133.56755	60.8625
137.90993	64.9625
142.24913	71.2625
146.58517	75.4625
150.91804	86.3625
155.24774	101.5625
159.57429	124.4625
163.89768	160.2625
168.21792	207.4625
172.53501	272.9625
176.84895	375.9625
181.15975	531.8625
185.46741	734.3625
189.77193	1009.9625
194.07331	1346.9625
198.37157	1748.3625
202.6667	2170.7625
206.9587	2589.0625
211.24758	3000.3625
215.53334	3404.3625
219.81599	3831.7625
224.09553	4274.3625
228.37195	4772.7625
232.64527	5286.0625
236.91549	5847.5625
241.18261	6390.6625
245.44663	6873.7625
249.70755	7338.4625
253.96539	7751.9625
258.22014	8075.2625
262.4718	8326.9625
266.72039	8492.5625
270.96589	8559.9625
275.20832	8526.2625
279.44768	8461.1625
283.68397	8337.8625
287.91719	8219.0625
292.14735	8130.5625
296.37445	8137.9625
300.59849	8154.2625
304.81948	8196.4625
309.03742	8224.4625
313.25231	8156.3625
317.46415	7978.8625
321.67296	7759.5625
325.87872	7569.7625
330.08145	7468.7625
334.28114	7459.6625
338.47781	7550.2625
342.67145	7603.1625
346.86207	7738.2625
351.04966	7920.1625
355.23424	8115.7625
359.4158	8308.8625
363.59435	8419.5625
367.76989	8505.6625
371.94243	8563.9625
376.11196	8616.2625
380.27849	8692.7625
384.44203	8751.5625
388.60257	8787.6625
392.76012	8826.6625
396.91468	8916.4625
401.06626	9036.4625
405.21485	9115.1625
409.36047	9087.4625
413.50311	8953.6625
417.64277	8809.7625
421.77947	8722.0625
425.9132	8732.8625
430.04396	8711.5625
434.17176	8778.5625
438.2966	8842.3625
442.41849	8923.5625
446.53742	9052.3625
450.6534	9208.8625
454.76644	9307.5625
458.87653	9345.5625
462.98368	9310.1625
467.08789	9281.8625
471.18916	9260.0625
475.2875	9263.5625
479.38291	9301.3625
483.4754	9364.4625
487.56496	9474.5625
491.6516	9554.1625
495.73531	9612.6625
499.81612	9543.3625
503.89401	9464.8625
507.96899	9363.3625
512.04106	9327.3625
516.11023	9326.0625
520.1765	9376.7625
524.23987	9446.7625
528.30034	9458.5625
532.35792	9452.7625
536.41261	9365.2625
540.46441	9222.1625
544.51333	9098.8625
548.55936	9014.2625
552.60252	9043.4625
556.64279	9115.8625
560.6802	9184.0625
564.71473	9215.7625
568.7464	9334.3625
572.7752	9443.9625
576.80114	9398.8625
580.82422	9389.6625
584.84444	9466.5625
588.86181	9572.9625
592.87633	9690.8625
596.888	9725.7625
600.89682	9732.5625
604.9028	9962.0625
608.90594	10801.5625
612.90624	11968.1625
616.90371	12013.5625
620.89834	10838.1625
624.89015	10525.4625
628.87913	10945.7625
632.86528	11456.7625
636.84862	11760.9625
640.82913	11568.2625
644.80683	11030.3625
648.78172	10410.5625
652.75379	9965.5625
656.72306	9752.5625
660.68952	9730.6625
664.65319	9648.8625
668.61405	9490.6625
672.57211	9467.4625
676.52738	9462.7625
680.47986	9459.1625
684.42955	9412.4625
688.37646	9404.2625
692.32058	9367.0625
696.26192	9328.5625
700.20048	9315.4625
704.13626	9259.9625
708.06928	9190.3625
711.99952	9112.3625
715.927	9078.3625
719.85171	9103.7625
723.77365	9160.1625
727.69284	9148.2625
731.60928	9067.8625
735.52295	8989.5625
739.43388	8930.5625
743.34206	8931.6625
747.24749	8941.2625
751.15017	8967.3625
755.05012	9013.1625
758.94733	9145.6625
762.8418	9406.5625
766.73354	9894.4625
770.62254	10409.1625
774.50882	10681.9625
778.39237	10443.7625
782.27321	9873.7625
786.15132	9391.0625
790.02671	9106.3625
793.89938	9008.1625
797.76935	9016.8625
801.6366	9149.2625
805.50115	9398.5625
809.36299	9707.3625
813.22213	9822.3625
817.07857	9676.8625
820.93231	9360.9625
824.78336	9029.2625
828.63172	8807.5625
832.47738	8673.1625
836.32036	8620.6625
840.16066	8599.0625
843.99827	8552.9625
847.8332	8556.9625
851.66546	8535.3625
855.49504	8517.7625
859.32195	8537.8625
863.1462	8532.2625
866.96777	8602.8625
870.78668	8730.3625
874.60293	8897.6625
878.41652	9108.4625
882.22745	9285.1625
886.03573	9378.8625
889.84136	9379.0625
893.64433	9165.2625
897.44466	8878.9625
901.24235	8637.5625
905.0374	8435.2625
908.8298	8304.0625
912.61957	8212.6625
916.40671	8185.4625
920.19121	8206.1625
923.97308	8189.4625
927.75233	8191.5625
931.52895	8196.2625
935.30295	8149.9625
939.07433	8070.5625
942.84309	7997.6625
946.60924	7990.9625
950.37278	7972.5625
954.13371	7948.4625
957.89203	7915.6625
961.64774	7899.6625
965.40086	7848.5625
969.15137	7825.0625
972.89929	7779.2625
976.64461	7726.1625
980.38733	7745.9625
984.12747	7732.3625
987.86502	7747.0625
991.59999	7801.0625
995.33237	7866.7625
999.06217	7998.8625
1002.78939	8158.2625
1006.51404	8311.4625
1010.23611	8452.7625
1013.95561	8525.0625
1017.67255	8555.7625
1021.38692	8484.7625
1025.09872	8353.2625
1028.80796	8234.0625
1032.51465	8116.1625
1036.21877	8068.5625
1039.92035	8022.2625
1043.61937	7991.4625
1047.31584	7941.6625
1051.00976	7939.3625
1054.70114	7938.3625
1058.38998	7956.7625
1062.07627	8028.4625
1065.76003	8118.4625
1069.44126	8172.5625
1073.11995	8200.3625
1076.79611	8256.4625
1080.46974	8214.1625
1084.14085	8189.4625
1087.80943	8170.7625
1091.47549	8132.9625
1095.13903	8063.5625
1098.80005	7960.3625
1102.45857	7881.2625
1106.11456	7857.3625
1109.76805	7908.5625
1113.41903	8018.3625
1117.06751	8237.9625
1120.71348	8583.5625
1124.35696	8992.5625
1127.99793	9526.1625
1131.63641	10007.5625
1135.2724	10227.2625
1138.90589	10189.7625
1142.5369	9949.2625
1146.16542	9526.6625
1149.79145	9056.0625
1153.415	8656.8625
1157.03607	8362.9625
1160.65467	8226.9625
1164.27079	8220.8625
1167.88443	8323.2625
1171.49561	8566.2625
1175.10432	8946.8625
1178.71056	9476.1625
1182.31434	9994.7625
1185.91565	10295.7625
1189.51451	10319.8625
1193.11091	10294.4625
1196.70485	10266.1625
1200.29634	10279.1625
1203.88538	10239.0625
1207.47197	10015.4625
1211.05612	9693.2625
1214.63782	9371.6625
1218.21708	9050.4625
1221.79391	8770.3625
1225.36829	8584.8625
1228.94024	8427.0625
1232.50976	8311.3625
1236.07685	8245.5625
1239.6415	8233.3625
1243.20374	8230.6625
1246.76355	8282.3625
1250.32093	8336.8625
1253.8759	8415.4625
1257.42845	8524.2625
1260.97859	8621.0625
1264.52631	8701.7625
1268.07163	8800.8625
1271.61453	8859.5625
1275.15503	8962.5625
1278.69312	8971.6625
1282.22882	9023.3625
1285.76211	9111.0625
1289.29301	9252.9625
1292.82151	9479.1625
1296.34761	9735.3625
1299.87133	10100.5625
1303.39266	10584.2625
1306.9116	11160.6625
1310.42815	11808.7625
1313.94233	12237.5625
1317.45412	12214.9625
1320.96354	11954.8625
1324.47058	11620.5625
1327.97525	11344.3625
1331.47754	11150.5625
1334.97747	11133.8625
1338.47502	11206.5625
1341.97022	11365.7625
1345.46305	11504.9625
1348.95352	11706.4625
1352.44163	11994.9625
1355.92738	12439.9625
1359.41078	13187.1625
1362.89183	13882.5625
1366.37053	13732.8625
1369.84688	12644.7625
1373.32088	11408.5625
1376.79254	10615.6625
1380.26186	10207.4625
1383.72883	10018.1625
1387.19347	9893.0625
1390.65578	9743.6625
1394.11575	9644.8625
1397.57339	9576.7625
1401.0287	9602.7625
1404.48168	9612.7625
1407.93234	9562.3625
1411.38068	9442.4625
1414.82669	9216.2625
1418.27039	8937.4625
1421.71177	8639.1625
1425.15083	8383.5625
1428.58758	8206.8625
1432.02203	8136.6625
1435.45416	8180.6625
1438.88399	8215.4625
1442.31151	8246.4625
1445.73673	8295.8625
1449.15965	8353.3625
1452.58027	8406.4625
1455.9986	8401.8625
1459.41463	8432.5625
1462.82837	8499.1625
1466.23982	8571.7625
1469.64898	8691.3625
1473.05586	8740.6625
1476.46045	8767.7625
1479.86276	8781.2625
1483.26279	8808.3625
1486.66054	8846.1625
1490.05602	8932.5625
1493.44922	9082.8625
1496.84016	9282.6625
1500.22882	9590.1625
1503.61521	10098.0625
1506.99934	10684.4625
1510.38121	11226.7625
1513.76081	11380.6625
1517.13816	11058.4625
1520.51324	10359.9625
1523.88607	9687.0625
1527.25665	9312.9625
1530.62498	9083.7625
1533.99105	9023.3625
1537.35488	9026.7625
1540.71647	9040.4625
1544.07581	9057.0625
1547.4329	9061.8625
1550.78776	9071.0625
1554.14038	9055.7625
1557.49077	9078.7625
1560.83892	9136.2625
1564.18484	9200.1625
1567.52853	9291.0625
1570.86999	9364.3625
1574.20922	9470.5625
1577.54624	9513.3625
1580.88103	9404.8625
1584.2136	9267.9625
1587.54395	9217.8625
1590.87208	9323.6625
1594.19801	9603.4625
1597.52172	9921.9625
1600.84321	10132.6625
1604.16251	10018.6625
1607.47959	9705.6625
1610.79447	9347.8625
1614.10715	8983.7625
1617.41763	8687.4625
1620.7259	8498.0625
1624.03199	8387.1625
1627.33587	8398.1625
1630.63757	8474.8625
1633.93707	8693.0625
1637.23439	9085.8625
1640.52951	9554.5625
1643.82246	10221.8625
1647.11321	10906.5625
1650.40179	11350.0625
1653.68819	11144.1625
1656.97241	10376.6625
1660.25446	9453.6625
1663.53433	8771.9625
1666.81203	8289.2625
1670.08756	7937.9625
1673.36092	7726.7625
1676.63211	7576.0625
1679.90115	7472.2625
1683.16801	7356.0625
1686.43272	7215.1625
1689.69527	7113.6625
1692.95567	6987.4625
1696.2139	6879.0625
1699.46999	6787.0625
1702.72392	6672.4625
1705.97571	6559.8625
1709.22535	6462.2625
1712.47284	6393.9625
1715.71819	6326.6625
1718.96139	6269.1625
1722.20246	6201.4625
1725.44139	6131.3625
1728.67818	6077.2625
1731.91284	6030.8625
1735.14537	5956.6625
1738.37576	5911.5625
1741.60403	5897.7625
1744.83017	5869.6625
1748.05418	5869.1625
1751.27607	5840.0625
1754.49584	5824.9625
1757.71349	5836.7625
1760.92903	5794.9625
1764.14244	5786.3625
1767.35375	5767.3625
1770.56294	5722.4625
1773.77002	5700.2625
1776.97499	5673.5625
1780.17785	5641.1625
1783.37861	5621.9625
1786.57727	5586.3625
1789.77382	5554.6625
1792.96828	5535.4625
1796.16064	5523.3625
1799.3509	5501.1625
1802.53907	5481.6625
1805.72514	5465.9625
1808.90913	5440.7625
1812.09102	5430.6625
1815.27083	5412.7625
1818.44856	5392.5625
1821.6242	5377.9625
1824.79776	5364.6625
1827.96924	5358.9625
1831.13864	5347.7625
1834.30597	5337.0625
1837.47122	5341.3625
1840.6344	5334.5625
1843.7955	5311.1625
1846.95454	5311.9625
1850.11151	5328.1625
1853.26642	5317.9625
1856.41926	5292.7625
1859.57004	5302.0625
1862.71876	5294.8625
1865.86542	5294.5625
1869.01003	5280.9625
1872.15258	5276.5625
1875.29308	5254.2625
1878.43152	5267.1625
1881.56792	5231.9625
1884.70227	5225.4625
1887.83457	5214.8625
1890.96482	5210.2625
1894.09304	5208.6625
1897.21921	5203.7625
1900.34335	5204.3625
1903.46544	5194.2625
1906.58551	5186.7625
1909.70353	5178.1625
1912.81953	5161.9625
1915.93349	5149.8625
1919.04543	5128.7625
1922.15534	5123.7625
1925.26322	5127.9625
1928.36908	5102.7625
1931.47292	5108.1625
1934.57473	5078.9625
1937.67453	5060.6625
1940.77232	5044.6625
1943.86808	5040.7625
1946.96184	5011.0625
1950.05358	4994.5625
1953.14331	4984.0625
1956.23103	4972.6625
1959.31675	4972.0625
1962.40046	4952.6625
1965.48217	4932.9625
1968.56188	4913.4625
1971.63959	4883.7625
1974.7153	4874.1625
1977.78901	4864.9625
1980.86073	4846.4625
1983.93046	4828.0625
1986.99819	4828.3625
1990.06394	4785.5625
1993.1277	4789.0625
1996.18947	4764.4625
1999.24925	4747.4625
2002.30706	4749.3625
2005.36288	4713.3625
2008.41672	4708.8625
2011.46859	4693.8625
2014.51848	4695.7625
2017.56639	4665.3625
2020.61233	4651.7625
2023.6563	4644.1625
2026.6983	4633.2625
2029.73833	4609.1625
2032.7764	4614.5625
2035.8125	4602.8625
2038.84664	4582.4625
2041.87881	4590.9625
2044.90903	4563.5625
2047.93729	4554.3625
2050.96359	4558.5625
2053.98794	4552.0625
2057.01034	4550.7625
2060.03078	4529.5625
2063.04927	4532.1625
2066.06582	4530.9625
2069.08042	4525.9625
2072.09307	4506.5625
2075.10378	4513.5625
2078.11255	4511.6625
2081.11938	4505.0625
2084.12426	4495.9625
2087.12722	4502.7625
2090.12824	4503.0625
2093.12732	4489.4625
2096.12447	4494.5625
2099.11969	4484.0625
2102.11299	4493.8625
2105.10435	4477.8625
2108.09379	4481.7625
2111.08131	4482.3625
2114.0669	4489.5625
2117.05057	4490.3625
2120.03233	4491.7625
2123.01216	4493.7625
2125.99008	4503.0625
2128.96609	4502.3625
2131.94018	4487.6625
2134.91236	4520.6625
2137.88263	4488.9625
2140.851	4493.4625
2143.81746	4504.4625
2146.78201	4486.8625
2149.74466	4492.8625
2152.7054	4492.5625
2155.66425	4495.5625
2158.6212	4496.0625
2161.57625	4501.0625
2164.52941	4481.2625
2167.48067	4476.4625
2170.43004	4469.5625
2173.37752	4463.8625
2176.32311	4468.4625
2179.26681	4484.1625
2182.20863	4473.9625
2185.14856	4463.6625
2188.08661	4471.0625
2191.02278	4468.0625
2193.95707	4454.8625
2196.88948	4451.8625
2199.82001	4451.1625
2202.74867	4439.0625
2205.67545	4435.5625
2208.60037	4428.9625
2211.52341	4424.2625
2214.44458	4410.7625
2217.36388	4399.5625
2220.28132	4387.4625
2223.1969	4394.5625
2226.11061	4365.2625
2229.02246	4358.1625
2231.93245	4350.0625
2234.84058	4343.7625
2237.74686	4329.3625
2240.65128	4320.5625
2243.55385	4309.1625
2246.45456	4313.2625
2249.35343	4291.9625
2252.25044	4307.1625
2255.14561	4285.1625
2258.03893	4300.9625
2260.93041	4299.7625
2263.82004	4286.6625
2266.70783	4275.3625
2269.59378	4239.6625
2272.4779	4260.9625
2275.36017	4234.5625
2278.24061	4237.0625
2281.11922	4214.8625
2283.996	4198.1625
2286.87094	4196.1625
2289.74405	4185.5625
2292.61534	4190.9625
2295.4848	4166.3625
2298.35243	4171.4625
2301.21824	4151.3625
2304.08223	4159.6625
2306.94439	4149.6625
2309.80474	4142.7625
2312.66327	4140.7625
2315.51999	4136.5625
2318.37489	4134.7625
2321.22797	4132.3625
2324.07925	4117.9625
2326.92871	4110.6625
2329.77637	4114.6625
2332.62222	4101.4625
2335.46626	4094.1625
2338.3085	4096.7625
2341.14893	4106.5625
2343.98756	4079.3625
2346.8244	4085.1625
2349.65943	4070.2625
2352.49267	4071.1625
2355.32411	4072.4625
2358.15376	4042.8625
2360.98161	4055.2625
2363.80768	4058.6625
2366.63195	4066.0625
2369.45444	4062.7625
2372.27514	4047.2625
2375.09405	4050.0625
2377.91118	4036.4625
2380.72652	4017.2625
2383.54009	4014.6625
2386.35187	4026.4625
2389.16188	4005.3625
2391.97011	4001.8625
2394.77657	3977.0625
2397.58125	3975.3625
2400.38416	3966.5625
2403.18529	3952.5625
2405.98466	3957.9625
2408.78226	3943.6625
2411.57809	3937.1625
2414.37216	3923.2625
2417.16446	3910.8625
2419.955	3915.5625
2422.74378	3900.8625
2425.5308	3885.8625
2428.31606	3907.5625
2431.09956	3882.2625
2433.88131	3881.7625
2436.6613	3874.8625
2439.43954	3881.0625
2442.21603	3872.0625
2444.99077	3870.6625
2447.76377	3868.6625
2450.53501	3856.5625
2453.30451	3871.8625
2456.07226	3846.6625
2458.83827	3843.0625
2461.60254	3829.7625
2464.36507	3848.2625
2467.12586	3828.9625
2469.88492	3839.9625
2472.64224	3818.5625
2475.39782	3824.6625
2478.15167	3833.1625
2480.90379	3811.3625
2483.65417	3823.5625
2486.40283	3827.9625
2489.14976	3817.2625
2491.89497	3816.1625
2494.63845	3808.4625
2497.3802	3822.4625
2500.12024	3812.2625
2502.85855	3789.6625
2505.59514	3794.9625
2508.33002	3794.2625
2511.06318	3782.5625
2513.79462	3784.3625
2516.52435	3768.3625
2519.25237	3760.4625
2521.97867	3755.3625
2524.70327	3745.4625
2527.42616	3741.1625
2530.14734	3727.7625
2532.86681	3738.0625
2535.58458	3716.1625
2538.30065	3717.8625
2541.01501	3724.1625
2543.72768	3691.5625
2546.43864	3697.2625
2549.14791	3696.5625
2551.85548	3689.4625
2554.56136	3670.0625
2557.26554	3665.9625
2559.96803	3668.5625
2562.66883	3670.1625
2565.36794	3654.0625
2568.06536	3639.2625
2570.7611	3645.9625
2573.45514	3641.8625
2576.14751	3625.7625
2578.83819	3631.8625
2581.52719	3620.2625
2584.21451	3606.4625
2586.90015	3607.0625
2589.58411	3602.7625
2592.2664	3604.1625
2594.94701	3594.4625
2597.62594	3604.2625
2600.30321	3561.8625
2602.9788	3576.1625
2605.65273	3560.0625
2608.32498	3562.8625
2610.99557	3555.4625
2613.66449	3547.4625
2616.33175	3558.4625
2618.99734	3549.6625
2621.66128	3542.7625
2624.32355	3547.5625
2626.98416	3538.4625
2629.64311	3512.3625
2632.30041	3523.0625
2634.95605	3543.9625
2637.61004	3509.9625
2640.26238	3514.0625
2642.91306	3513.4625
2645.56209	3509.1625
2648.20948	3508.1625
2650.85521	3498.7625
2653.4993	3505.3625
2656.14175	3490.1625
2658.78255	3491.1625
2661.42171	3478.7625
2664.05923	3488.6625
2666.6951	3487.1625
2669.32934	3486.7625
2671.96194	3490.1625
2674.59291	3488.6625
2677.22224	3497.3625
2679.84993	3489.8625
2682.476	3481.9625
2685.10043	3483.0625
2687.72324	3488.2625
2690.34441	3491.1625
2692.96396	3486.9625
2695.58188	3482.3625
2698.19818	3482.8625
2700.81285	3490.2625
2703.4259	3508.1625
2706.03733	3514.7625
2708.64714	3523.7625
2711.25533	3501.0625
2713.86191	3503.1625
2716.46687	3498.8625
2719.07021	3505.4625
2721.67194	3500.6625
2724.27206	3488.8625
2726.87057	3498.5625
2729.46747	3503.1625
2732.06276	3484.0625
2734.65644	3474.9625
2737.24852	3489.1625
2739.83899	3483.7625
2742.42786	3464.1625
2745.01513	3460.8625
2747.60079	3466.8625
2750.18486	3457.1625
2752.76733	3452.2625
2755.3482	3454.3625
2757.92747	3446.0625
2760.50515	3444.4625
2763.08123	3438.9625
2765.65573	3438.8625
2768.22863	3439.8625
2770.79994	3409.3625
2773.36967	3417.3625
2775.9378	3401.5625
2778.50435	3419.8625
2781.06932	3418.1625
2783.6327	3413.0625
2786.1945	3412.9625
2788.75471	3385.4625
2791.31335	3396.9625
2793.87041	3382.9625
2796.42589	3372.6625
2798.97979	3380.7625
2801.53212	3358.4625
2804.08288	3366.7625
2806.63206	3362.7625
2809.17967	3343.8625
2811.72571	3346.3625
2814.27018	3331.9625
2816.81308	3330.0625
2819.35442	3325.0625
2821.89419	3325.6625
2824.43239	3315.1625
2826.96904	3320.6625
2829.50412	3311.9625
2832.03763	3329.3625
2834.56959	3306.0625
2837.1	3303.6625
2839.62884	3293.9625
2842.15613	3310.9625
2844.68186	3298.5625
2847.20604	3299.2625
2849.72867	3319.6625
2852.24974	3324.7625
2854.76927	3321.0625
2857.28724	3317.4625
2859.80367	3312.5625
2862.31855	3316.6625
2864.83189	3303.5625
2867.34368	3282.1625
2869.85393	3289.0625
2872.36264	3291.2625
2874.8698	3282.4625
2877.37543	3295.0625
2879.87952	3286.1625
2882.38207	3295.8625
2884.88308	3298.6625
2887.38256	3298.3625
2889.88051	3306.8625
2892.37692	3293.3625
2894.8718	3306.4625
2897.36515	3302.2625
2899.85698	3303.5625
2902.34727	3311.2625
2904.83604	3297.5625
2907.32328	3313.5625
2909.809	3315.8625
2912.29319	3307.8625
2914.77587	3307.3625
2917.25702	3319.3625
2919.73665	3320.6625
2922.21476	3323.2625
2924.69136	3322.4625
2927.16644	3313.2625
2929.64	3308.8625
2932.11205	3295.0625
2934.58258	3286.1625
2937.05161	3298.1625
2939.51912	3307.7625
2941.98513	3287.4625
2944.44962	3289.3625
2946.91261	3275.6625
2949.37409	3287.6625
2951.83407	3283.7625
2954.29254	3275.9625
2956.74951	3275.7625
2959.20498	3261.6625
2961.65895	3266.5625
2964.11142	3273.2625
2966.56239	3255.2625
2969.01186	3250.7625
2971.45984	3244.7625
2973.90632	3232.7625
2976.35131	3228.3625
2978.7948	3227.1625
2981.23681	3218.4625
2983.67732	3206.2625
2986.11635	3209.3625
2988.55388	3196.8625
2990.98993	3205.8625
2993.4245	3191.2625
2995.85758	3191.7625
2998.28917	3186.7625
3000.71928	3184.4625
3003.14791	3182.3625
3005.57506	3182.5625
3008.00073	3173.0625
3010.42493	3173.4625
3012.84764	3173.3625
3015.26888	3176.0625
3017.68865	3157.4625
3020.10694	3161.1625
3022.52376	3161.4625
3024.9391	3151.9625
3027.35298	3163.7625
3029.76539	3148.7625
3032.17632	3150.6625
3034.5858	3161.3625
3036.9938	3146.8625
3039.40034	3139.5625
3041.80542	3143.7625
3044.20903	3144.7625
3046.61118	3149.4625
3049.01187	3133.8625
3051.4111	3151.2625
3053.80888	3136.0625
3056.20519	3130.0625
3058.60005	3130.0625
3060.99345	3123.4625
3063.3854	3117.6625
3065.7759	3118.1625
3068.16494	3122.7625
3070.55254	3107.4625
3072.93868	3108.7625
3075.32338	3105.5625
3077.70662	3117.1625
3080.08842	3115.3625
3082.46878	3105.1625
3084.84769	3098.7625
3087.22515	3124.1625
3089.60118	3114.2625
3091.97576	3115.5625
3094.3489	3115.5625
3096.72061	3136.5625
3099.09087	3127.3625
3101.4597	3129.3625
3103.82709	3135.2625
3106.19305	3143.1625
3108.55757	3133.3625
3110.92066	3126.4625
3113.28232	3133.7625
3115.64255	3134.6625
3118.00134	3146.5625
