Data from AgNPs_FTO_APTES_UA_0.1mM_CRN_200uM_NaF_0.1M_Addition_RamanShift__14__14-11-07-727.txt Node

Date: Mon Dec 20 14:11:07 GMT 2021
User: TCL
Spectrometer: QEP01345
Trigger mode: 4
Integration Time (sec): 7.000000E0
Scans to average: 10
Electric dark correction enabled: true
Nonlinearity correction enabled: false
Boxcar width: 0
XAxis mode: Raman Shifts
Number of Pixels in Spectrum: 1044
>>>>>Begin Spectral Data<<<<<
46.04893	0.575
50.45542	0.975
54.85868	-1.225
59.25871	1.675
63.6555	22.975
68.04907	26.175
72.43941	31.475
76.82654	30.575
81.21044	32.475
85.59113	35.075
89.96862	32.775
94.34289	34.275
98.71396	34.875
103.08183	38.675
107.4465	40.875
111.80798	41.975
116.16626	40.975
120.52136	44.775
124.87327	44.275
129.222	42.475
133.56755	47.475
137.90993	48.475
142.24913	49.075
146.58517	52.775
150.91804	65.775
155.24774	74.175
159.57429	85.775
163.89768	112.975
168.21792	145.375
172.53501	187.175
176.84895	257.375
181.15975	370.075
185.46741	513.275
189.77193	710.575
194.07331	957.675
198.37157	1253.175
202.6667	1559.775
206.9587	1873.875
211.24758	2183.875
215.53334	2488.775
219.81599	2822.175
224.09553	3179.675
228.37195	3570.875
232.64527	3999.075
236.91549	4439.775
241.18261	4861.275
245.44663	5260.775
249.70755	5594.775
253.96539	5866.675
258.22014	6024.975
262.4718	6062.375
266.72039	6053.375
270.96589	5930.475
275.20832	5764.875
279.44768	5571.975
283.68397	5349.375
287.91719	5166.775
292.14735	4993.275
296.37445	4873.775
300.59849	4786.675
304.81948	4741.975
309.03742	4678.075
313.25231	4609.175
317.46415	4550.975
321.67296	4477.275
325.87872	4420.975
330.08145	4385.675
334.28114	4380.075
338.47781	4381.275
342.67145	4419.375
346.86207	4451.175
351.04966	4470.275
355.23424	4512.775
359.4158	4582.675
363.59435	4611.075
367.76989	4656.775
371.94243	4694.475
376.11196	4725.575
380.27849	4769.475
384.44203	4808.875
388.60257	4859.775
392.76012	4913.375
396.91468	4990.675
401.06626	5096.575
405.21485	5172.475
409.36047	5210.975
413.50311	5204.875
417.64277	5147.375
421.77947	5150.175
425.9132	5118.875
430.04396	5100.375
434.17176	5091.475
438.2966	5106.575
442.41849	5093.675
446.53742	5127.675
450.6534	5149.475
454.76644	5184.375
458.87653	5211.675
462.98368	5250.675
467.08789	5265.975
471.18916	5250.875
475.2875	5287.775
479.38291	5318.175
483.4754	5372.775
487.56496	5432.675
491.6516	5504.675
495.73531	5549.875
499.81612	5605.675
503.89401	5619.175
507.96899	5617.475
512.04106	5590.175
516.11023	5539.075
520.1765	5501.675
524.23987	5440.975
528.30034	5385.875
532.35792	5352.075
536.41261	5321.775
540.46441	5281.475
544.51333	5242.375
548.55936	5256.675
552.60252	5269.575
556.64279	5274.875
560.6802	5299.175
564.71473	5312.775
568.7464	5334.975
572.7752	5369.875
576.80114	5389.775
580.82422	5395.175
584.84444	5423.775
588.86181	5453.775
592.87633	5488.375
596.888	5497.875
600.89682	5525.675
604.9028	5633.875
608.90594	5855.575
612.90624	6126.475
616.90371	6138.175
620.89834	5864.975
624.89015	5759.775
628.87913	5838.675
632.86528	5999.675
636.84862	6116.975
640.82913	6176.175
644.80683	6124.175
648.78172	6030.975
652.75379	5956.875
656.72306	5914.775
660.68952	5946.575
664.65319	5985.675
668.61405	6052.275
672.57211	6140.875
676.52738	6229.975
680.47986	6294.175
684.42955	6309.475
688.37646	6316.775
692.32058	6301.475
696.26192	6235.875
700.20048	6151.675
704.13626	6052.375
708.06928	5907.175
711.99952	5765.475
715.927	5637.875
719.85171	5565.175
723.77365	5521.475
727.69284	5482.175
731.60928	5481.375
735.52295	5440.075
739.43388	5436.375
743.34206	5462.575
747.24749	5490.175
751.15017	5524.475
755.05012	5567.575
758.94733	5629.275
762.8418	5715.975
766.73354	5812.675
770.62254	5905.775
774.50882	5929.975
778.39237	5880.075
782.27321	5716.375
786.15132	5553.275
790.02671	5473.575
793.89938	5423.175
797.76935	5423.275
801.6366	5471.375
805.50115	5543.675
809.36299	5585.275
813.22213	5613.675
817.07857	5560.675
820.93231	5471.575
824.78336	5344.175
828.63172	5256.275
832.47738	5204.875
836.32036	5176.275
840.16066	5149.675
843.99827	5132.575
847.8332	5134.675
851.66546	5121.075
855.49504	5125.275
859.32195	5137.975
863.1462	5126.575
866.96777	5157.875
870.78668	5174.075
874.60293	5201.875
878.41652	5222.775
882.22745	5264.775
886.03573	5322.375
889.84136	5344.575
893.64433	5330.175
897.44466	5301.275
901.24235	5276.575
905.0374	5215.275
908.8298	5212.975
912.61957	5181.875
916.40671	5132.175
920.19121	5115.875
923.97308	5105.975
927.75233	5063.475
931.52895	5069.375
935.30295	5054.275
939.07433	5029.475
942.84309	5001.575
946.60924	4983.775
950.37278	4975.775
954.13371	4972.975
957.89203	4947.975
961.64774	4963.675
965.40086	4948.575
969.15137	4948.875
972.89929	4922.775
976.64461	4902.175
980.38733	4912.875
984.12747	4900.775
987.86502	4912.975
991.59999	4938.475
995.33237	4928.875
999.06217	4952.575
1002.78939	4967.275
1006.51404	4988.275
1010.23611	5020.075
1013.95561	5049.675
1017.67255	5053.375
1021.38692	5068.075
1025.09872	5070.175
1028.80796	5029.275
1032.51465	5011.775
1036.21877	4998.875
1039.92035	5009.975
1043.61937	4991.075
1047.31584	4996.175
1051.00976	5029.375
1054.70114	5030.575
1058.38998	5063.775
1062.07627	5068.575
1065.76003	5108.075
1069.44126	5101.375
1073.11995	5119.875
1076.79611	5138.475
1080.46974	5128.075
1084.14085	5107.475
1087.80943	5073.075
1091.47549	5071.575
1095.13903	5038.975
1098.80005	5038.075
1102.45857	4985.875
1106.11456	5001.775
1109.76805	5007.975
1113.41903	5062.675
1117.06751	5144.475
1120.71348	5259.975
1124.35696	5409.675
1127.99793	5593.475
1131.63641	5762.975
1135.2724	5847.375
1138.90589	5856.375
1142.5369	5787.475
1146.16542	5711.775
1149.79145	5575.175
1153.415	5442.675
1157.03607	5322.875
1160.65467	5227.175
1164.27079	5200.175
1167.88443	5171.775
1171.49561	5197.975
1175.10432	5283.275
1178.71056	5396.875
1182.31434	5524.175
1185.91565	5587.975
1189.51451	5603.075
1193.11091	5572.775
1196.70485	5558.275
1200.29634	5546.975
1203.88538	5548.875
1207.47197	5518.875
1211.05612	5493.675
1214.63782	5453.675
1218.21708	5454.775
1221.79391	5412.675
1225.36829	5378.575
1228.94024	5344.075
1232.50976	5321.575
1236.07685	5285.275
1239.6415	5266.975
1243.20374	5282.075
1246.76355	5282.975
1250.32093	5310.575
1253.8759	5320.975
1257.42845	5388.875
1260.97859	5406.375
1264.52631	5421.575
1268.07163	5429.075
1271.61453	5423.675
1275.15503	5428.575
1278.69312	5410.875
1282.22882	5385.975
1285.76211	5409.575
1289.29301	5459.575
1292.82151	5494.575
1296.34761	5575.775
1299.87133	5658.875
1303.39266	5750.775
1306.9116	5898.175
1310.42815	6064.675
1313.94233	6142.575
1317.45412	6182.175
1320.96354	6170.175
1324.47058	6130.475
1327.97525	6108.675
1331.47754	6089.575
1334.97747	6091.575
1338.47502	6132.175
1341.97022	6199.975
1345.46305	6292.575
1348.95352	6404.975
1352.44163	6528.875
1355.92738	6632.075
1359.41078	6811.775
1362.89183	6983.575
1366.37053	6958.775
1369.84688	6720.075
1373.32088	6424.475
1376.79254	6227.475
1380.26186	6079.875
1383.72883	5999.975
1387.19347	5951.475
1390.65578	5853.775
1394.11575	5764.975
1397.57339	5708.075
1401.0287	5645.775
1404.48168	5585.575
1407.93234	5508.275
1411.38068	5457.975
1414.82669	5377.175
1418.27039	5299.675
1421.71177	5219.575
1425.15083	5146.975
1428.58758	5074.475
1432.02203	5022.275
1435.45416	4990.475
1438.88399	4965.275
1442.31151	4946.675
1445.73673	4929.575
1449.15965	4911.775
1452.58027	4915.375
1455.9986	4920.875
1459.41463	4939.675
1462.82837	4961.475
1466.23982	4996.975
1469.64898	5045.775
1473.05586	5093.075
1476.46045	5114.475
1479.86276	5139.375
1483.26279	5139.575
1486.66054	5159.375
1490.05602	5187.275
1493.44922	5220.975
1496.84016	5284.975
1500.22882	5394.175
1503.61521	5559.475
1506.99934	5752.075
1510.38121	5893.975
1513.76081	5932.575
1517.13816	5864.275
1520.51324	5706.775
1523.88607	5554.775
1527.25665	5471.675
1530.62498	5427.375
1533.99105	5400.875
1537.35488	5430.675
1540.71647	5463.775
1544.07581	5485.775
1547.4329	5522.575
1550.78776	5561.975
1554.14038	5584.975
1557.49077	5634.875
1560.83892	5675.875
1564.18484	5700.975
1567.52853	5736.475
1570.86999	5772.575
1574.20922	5823.775
1577.54624	5836.175
1580.88103	5820.075
1584.2136	5756.175
1587.54395	5703.375
1590.87208	5671.775
1594.19801	5668.175
1597.52172	5699.275
1600.84321	5735.175
1604.16251	5691.675
1607.47959	5634.575
1610.79447	5589.075
1614.10715	5493.875
1617.41763	5444.775
1620.7259	5366.175
1624.03199	5329.375
1627.33587	5301.275
1630.63757	5314.975
1633.93707	5326.075
1637.23439	5397.275
1640.52951	5478.875
1643.82246	5607.075
1647.11321	5731.175
1650.40179	5830.975
1653.68819	5852.875
1656.97241	5718.475
1660.25446	5525.975
1663.53433	5411.975
1666.81203	5312.975
1670.08756	5234.675
1673.36092	5205.175
1676.63211	5141.675
1679.90115	5123.375
1683.16801	5050.075
1686.43272	4983.675
1689.69527	4905.575
1692.95567	4834.975
1696.2139	4767.175
1699.46999	4710.375
1702.72392	4622.675
1705.97571	4560.475
1709.22535	4521.775
1712.47284	4491.375
1715.71819	4437.675
1718.96139	4414.675
1722.20246	4353.275
1725.44139	4330.475
1728.67818	4272.175
1731.91284	4215.975
1735.14537	4180.775
1738.37576	4122.775
1741.60403	4092.675
1744.83017	4065.475
1748.05418	4071.275
1751.27607	4066.275
1754.49584	4060.675
1757.71349	4060.575
1760.92903	4053.475
1764.14244	4039.075
1767.35375	3993.975
1770.56294	3963.675
1773.77002	3930.175
1776.97499	3881.275
1780.17785	3836.675
1783.37861	3805.875
1786.57727	3770.675
1789.77382	3734.475
1792.96828	3704.375
1796.16064	3654.175
1799.3509	3640.275
1802.53907	3624.175
1805.72514	3605.575
1808.90913	3584.475
1812.09102	3580.875
1815.27083	3570.875
1818.44856	3556.175
1821.6242	3536.675
1824.79776	3533.275
1827.96924	3517.975
1831.13864	3506.475
1834.30597	3503.475
1837.47122	3488.875
1840.6344	3486.375
1843.7955	3478.975
1846.95454	3467.175
1850.11151	3477.575
1853.26642	3445.875
1856.41926	3446.075
1859.57004	3448.675
1862.71876	3432.875
1865.86542	3432.075
1869.01003	3428.275
1872.15258	3422.375
1875.29308	3412.175
1878.43152	3407.575
1881.56792	3396.275
1884.70227	3394.975
1887.83457	3395.275
1890.96482	3378.475
1894.09304	3375.275
1897.21921	3358.675
1900.34335	3359.375
1903.46544	3349.275
1906.58551	3341.875
1909.70353	3331.175
1912.81953	3346.075
1915.93349	3323.975
1919.04543	3328.975
1922.15534	3305.775
1925.26322	3307.075
1928.36908	3291.075
1931.47292	3280.775
1934.57473	3263.375
1937.67453	3268.275
1940.77232	3257.175
1943.86808	3246.675
1946.96184	3233.775
1950.05358	3214.475
1953.14331	3205.175
1956.23103	3200.675
1959.31675	3184.375
1962.40046	3189.675
1965.48217	3166.175
1968.56188	3148.375
1971.63959	3148.775
1974.7153	3128.875
1977.78901	3114.875
1980.86073	3117.275
1983.93046	3100.175
1986.99819	3090.375
1990.06394	3088.375
1993.1277	3073.075
1996.18947	3069.875
1999.24925	3060.075
2002.30706	3044.375
2005.36288	3029.375
2008.41672	3031.275
2011.46859	3018.075
2014.51848	3002.175
2017.56639	2988.475
2020.61233	2985.875
2023.6563	2970.475
2026.6983	2961.375
2029.73833	2951.475
2032.7764	2946.275
2035.8125	2930.175
2038.84664	2943.975
2041.87881	2920.775
2044.90903	2927.975
2047.93729	2914.875
2050.96359	2900.375
2053.98794	2915.075
2057.01034	2889.075
2060.03078	2910.075
2063.04927	2896.475
2066.06582	2885.875
2069.08042	2882.475
2072.09307	2885.175
2075.10378	2876.275
2078.11255	2885.175
2081.11938	2870.575
2084.12426	2873.875
2087.12722	2864.775
2090.12824	2867.875
2093.12732	2856.975
2096.12447	2866.175
2099.11969	2853.275
2102.11299	2870.475
2105.10435	2864.775
2108.09379	2856.475
2111.08131	2865.575
2114.0669	2867.175
2117.05057	2862.975
2120.03233	2867.275
2123.01216	2862.875
2125.99008	2877.675
2128.96609	2865.075
2131.94018	2866.975
2134.91236	2866.875
2137.88263	2861.575
2140.851	2866.575
2143.81746	2881.575
2146.78201	2876.975
2149.74466	2879.975
2152.7054	2867.375
2155.66425	2866.875
2158.6212	2855.275
2161.57625	2859.375
2164.52941	2868.375
2167.48067	2857.175
2170.43004	2849.675
2173.37752	2856.975
2176.32311	2846.675
2179.26681	2848.775
2182.20863	2838.675
2185.14856	2846.475
2188.08661	2837.575
2191.02278	2842.475
2193.95707	2836.775
2196.88948	2823.475
2199.82001	2826.175
2202.74867	2812.875
2205.67545	2816.475
2208.60037	2803.075
2211.52341	2796.175
2214.44458	2798.275
2217.36388	2786.275
2220.28132	2776.675
2223.1969	2765.875
2226.11061	2762.475
2229.02246	2760.275
2231.93245	2749.475
2234.84058	2739.575
2237.74686	2739.975
2240.65128	2734.775
2243.55385	2746.875
2246.45456	2719.875
2249.35343	2713.875
2252.25044	2713.775
2255.14561	2698.875
2258.03893	2704.075
2260.93041	2700.675
2263.82004	2689.875
2266.70783	2675.575
2269.59378	2680.475
2272.4779	2679.575
2275.36017	2660.275
2278.24061	2636.175
2281.11922	2650.275
2283.996	2632.975
2286.87094	2625.275
2289.74405	2632.475
2292.61534	2621.975
2295.4848	2602.975
2298.35243	2610.175
2301.21824	2599.575
2304.08223	2607.575
2306.94439	2598.575
2309.80474	2597.875
2312.66327	2591.375
2315.51999	2592.875
2318.37489	2592.275
2321.22797	2580.675
2324.07925	2566.775
2326.92871	2573.475
2329.77637	2559.675
2332.62222	2559.475
2335.46626	2553.075
2338.3085	2550.475
2341.14893	2527.375
2343.98756	2536.675
2346.8244	2530.275
2349.65943	2527.275
2352.49267	2538.275
2355.32411	2522.575
2358.15376	2520.975
2360.98161	2514.075
2363.80768	2517.875
2366.63195	2511.975
2369.45444	2506.175
2372.27514	2495.975
2375.09405	2494.275
2377.91118	2483.075
2380.72652	2484.475
2383.54009	2480.675
2386.35187	2474.975
2389.16188	2477.875
2391.97011	2468.975
2394.77657	2454.075
2397.58125	2446.175
2400.38416	2451.175
2403.18529	2444.375
2405.98466	2442.275
2408.78226	2436.875
2411.57809	2419.275
2414.37216	2414.775
2417.16446	2418.775
2419.955	2419.175
2422.74378	2408.375
2425.5308	2401.775
2428.31606	2400.675
2431.09956	2389.175
2433.88131	2391.375
2436.6613	2393.975
2439.43954	2397.175
2442.21603	2390.875
2444.99077	2361.675
2447.76377	2378.075
2450.53501	2382.275
2453.30451	2377.575
2456.07226	2356.575
2458.83827	2362.275
2461.60254	2350.175
2464.36507	2358.775
2467.12586	2340.975
2469.88492	2341.875
2472.64224	2337.975
2475.39782	2343.275
2478.15167	2359.875
2480.90379	2342.275
2483.65417	2337.175
2486.40283	2328.575
2489.14976	2321.275
2491.89497	2317.775
2494.63845	2329.575
2497.3802	2328.075
2500.12024	2313.475
2502.85855	2306.375
2505.59514	2302.975
2508.33002	2301.975
2511.06318	2299.875
2513.79462	2288.175
2516.52435	2293.975
2519.25237	2278.975
2521.97867	2278.275
2524.70327	2278.375
2527.42616	2275.175
2530.14734	2283.875
2532.86681	2260.075
2535.58458	2265.375
2538.30065	2256.375
2541.01501	2254.875
2543.72768	2241.675
2546.43864	2238.075
2549.14791	2232.575
2551.85548	2233.175
2554.56136	2218.275
2557.26554	2213.075
2559.96803	2213.375
2562.66883	2213.775
2565.36794	2206.475
2568.06536	2205.175
2570.7611	2198.475
2573.45514	2190.275
2576.14751	2193.775
2578.83819	2191.775
2581.52719	2182.475
2584.21451	2184.875
2586.90015	2172.875
2589.58411	2163.875
2592.2664	2159.475
2594.94701	2154.375
2597.62594	2148.675
2600.30321	2131.275
2602.9788	2143.675
2605.65273	2136.375
2608.32498	2123.675
2610.99557	2123.975
2613.66449	2119.975
2616.33175	2112.575
2618.99734	2125.575
2621.66128	2112.775
2624.32355	2108.475
2626.98416	2106.975
2629.64311	2099.675
2632.30041	2106.075
2634.95605	2106.875
2637.61004	2082.875
2640.26238	2093.675
2642.91306	2085.875
2645.56209	2088.675
2648.20948	2091.675
2650.85521	2078.275
2653.4993	2074.675
2656.14175	2064.675
2658.78255	2083.075
2661.42171	2078.275
2664.05923	2076.875
2666.6951	2069.575
2669.32934	2066.675
2671.96194	2068.375
2674.59291	2065.375
2677.22224	2068.175
2679.84993	2055.275
2682.476	2061.375
2685.10043	2080.075
2687.72324	2056.675
2690.34441	2057.075
2692.96396	2057.375
2695.58188	2067.075
2698.19818	2062.175
2700.81285	2052.775
2703.4259	2064.375
2706.03733	2085.875
2708.64714	2069.275
2711.25533	2064.075
2713.86191	2061.875
2716.46687	2061.875
2719.07021	2041.675
2721.67194	2049.775
2724.27206	2046.675
2726.87057	2049.975
2729.46747	2058.875
2732.06276	2045.075
2734.65644	2051.175
2737.24852	2044.175
2739.83899	2046.575
2742.42786	2035.975
2745.01513	2034.275
2747.60079	2027.575
2750.18486	2025.475
2752.76733	2019.775
2755.3482	2016.175
2757.92747	2013.375
2760.50515	2014.875
2763.08123	2010.075
2765.65573	2006.775
2768.22863	2001.375
2770.79994	2009.375
2773.36967	1998.675
2775.9378	1989.575
2778.50435	1987.775
2781.06932	1979.775
2783.6327	1984.775
2786.1945	1973.375
2788.75471	1971.475
2791.31335	1981.175
2793.87041	1966.275
2796.42589	1961.875
2798.97979	1955.875
2801.53212	1942.875
2804.08288	1959.975
2806.63206	1940.075
2809.17967	1938.875
2811.72571	1928.675
2814.27018	1928.175
2816.81308	1933.075
2819.35442	1926.775
2821.89419	1924.575
2824.43239	1918.775
2826.96904	1922.075
2829.50412	1919.275
2832.03763	1917.075
2834.56959	1906.775
2837.1	1909.975
2839.62884	1900.175
2842.15613	1901.775
2844.68186	1901.175
2847.20604	1890.175
2849.72867	1907.675
2852.24974	1891.275
2854.76927	1900.875
2857.28724	1900.075
2859.80367	1890.975
2862.31855	1885.275
2864.83189	1887.075
2867.34368	1880.075
2869.85393	1880.275
2872.36264	1880.475
2874.8698	1888.675
2877.37543	1885.075
2879.87952	1883.675
2882.38207	1882.675
2884.88308	1890.875
2887.38256	1873.575
2889.88051	1882.675
2892.37692	1888.375
2894.8718	1891.475
2897.36515	1885.475
2899.85698	1885.475
2902.34727	1887.675
2904.83604	1894.475
2907.32328	1904.875
2909.809	1901.075
2912.29319	1897.975
2914.77587	1904.475
2917.25702	1897.475
2919.73665	1906.875
2922.21476	1895.275
2924.69136	1910.675
2927.16644	1906.775
2929.64	1916.875
2932.11205	1909.475
2934.58258	1906.575
2937.05161	1904.175
2939.51912	1924.275
2941.98513	1912.475
2944.44962	1912.975
2946.91261	1897.975
2949.37409	1907.375
2951.83407	1911.275
2954.29254	1916.075
2956.74951	1911.375
2959.20498	1898.275
2961.65895	1894.775
2964.11142	1909.675
2966.56239	1890.775
2969.01186	1892.275
2971.45984	1878.275
2973.90632	1878.275
2976.35131	1865.275
2978.7948	1869.175
2981.23681	1850.075
2983.67732	1859.075
2986.11635	1848.475
2988.55388	1851.375
2990.98993	1843.675
2993.4245	1841.775
2995.85758	1841.075
2998.28917	1832.875
3000.71928	1825.475
3003.14791	1823.175
3005.57506	1827.875
3008.00073	1824.175
3010.42493	1824.975
3012.84764	1821.875
3015.26888	1823.275
3017.68865	1820.075
3020.10694	1818.975
3022.52376	1810.975
3024.9391	1826.675
3027.35298	1815.175
3029.76539	1811.975
3032.17632	1813.975
3034.5858	1804.575
3036.9938	1806.775
3039.40034	1808.475
3041.80542	1807.675
3044.20903	1802.075
3046.61118	1799.075
3049.01187	1794.975
3051.4111	1803.875
3053.80888	1807.675
3056.20519	1803.275
3058.60005	1790.975
3060.99345	1800.475
3063.3854	1796.375
3065.7759	1802.075
3068.16494	1796.375
3070.55254	1793.775
3072.93868	1800.875
3075.32338	1794.975
3077.70662	1793.675
3080.08842	1799.975
3082.46878	1805.475
3084.84769	1798.875
3087.22515	1805.475
3089.60118	1811.875
3091.97576	1814.375
3094.3489	1812.075
3096.72061	1822.375
3099.09087	1818.975
3101.4597	1815.675
3103.82709	1822.575
3106.19305	1832.275
3108.55757	1829.375
3110.92066	1827.275
3113.28232	1828.175
3115.64255	1842.375
3118.00134	1829.475
3120.35871	1828.175
3122.71466	1834.175
3125.06917	1835.775
3127.42226	1832.175
3129.77393	1851.975
3132.12417	1850.275
3134.47299	1855.375
3136.82039	1855.675
3139.16636	1853.775
3141.51092	1854.075
3143.85406	1877.575
3146.19579	1883.475
3148.53609	1886.475
3150.87499	1888.575
3153.21246	1901.975
3155.54853	1905.775
3157.88318	1916.575
3160.21642	1926.275
3162.54826	1926.875
3164.87868	1919.975
3167.2077	1932.175
3169.5353	1937.075
3171.86151	1942.375
3174.18631	1941.375
3176.5097	1939.775
3178.83169	1945.175
3181.15228	1954.275
3183.47147	1958.075
3185.78926	1962.575
3188.10565	1962.475
3190.42065	1962.175
3192.73424	1974.175
3195.04645	1966.275
3197.35725	1978.575
3199.66667	1978.075
3201.97469	1986.675
3204.28132	1987.775
3206.58656	2001.575
3208.8904	2003.875
3211.19287	1997.275
3213.49394	2005.575
3215.79363	2017.275
3218.09193	2017.375
3220.38884	2017.475
3222.68438	2029.875
3224.97853	2006.375
3227.2713	2017.775
3229.56269	2015.375
3231.8527	2018.475
3234.14133	2010.375
3236.42858	2011.875
