Data from AgNPs_FTO_APTES_UA_0.1mM_CRN_200uM_NaF_0.1M_Addition_RamanShift__13__14-09-57-726.txt Node

Date: Mon Dec 20 14:09:57 GMT 2021
User: TCL
Spectrometer: QEP01345
Trigger mode: 4
Integration Time (sec): 7.000000E0
Scans to average: 10
Electric dark correction enabled: true
Nonlinearity correction enabled: false
Boxcar width: 0
XAxis mode: Raman Shifts
Number of Pixels in Spectrum: 1044
>>>>>Begin Spectral Data<<<<<
46.04893	-0.7
50.45542	-0.3
54.85868	-0.6
59.25871	1
63.6555	25
68.04907	24.3
72.43941	29.7
76.82654	30.1
81.21044	30.7
85.59113	36.1
89.96862	30.8
94.34289	34.7
98.71396	37
103.08183	34.9
107.4465	39.4
111.80798	41.5
116.16626	38
120.52136	42.4
124.87327	42.8
129.222	42.6
133.56755	42.9
137.90993	46
142.24913	50.1
146.58517	50.9
150.91804	61.2
155.24774	71
159.57429	84.4
163.89768	108.4
168.21792	139.6
172.53501	182.6
176.84895	255.2
181.15975	361
185.46741	504.9
189.77193	699
194.07331	937.9
198.37157	1224.6
202.6667	1518.6
206.9587	1818
211.24758	2114.8
215.53334	2416.3
219.81599	2726.9
224.09553	3055.5
228.37195	3442
232.64527	3873.7
236.91549	4311
241.18261	4775.7
245.44663	5201.6
249.70755	5574.4
253.96539	5819
258.22014	5972.9
262.4718	6019
266.72039	5950.9
270.96589	5769.9
275.20832	5550.6
279.44768	5314.1
283.68397	5061.6
287.91719	4837.5
292.14735	4646.9
296.37445	4494.7
300.59849	4381.9
304.81948	4305.3
309.03742	4227.1
313.25231	4166
317.46415	4115.4
321.67296	4054.1
325.87872	4015.5
330.08145	3968.4
334.28114	3963.1
338.47781	3970.1
342.67145	3971.1
346.86207	3983.2
351.04966	3990.7
355.23424	4029.7
359.4158	4070.9
363.59435	4070.1
367.76989	4116.7
371.94243	4137.5
376.11196	4175.7
380.27849	4202.4
384.44203	4255.2
388.60257	4291.1
392.76012	4374.1
396.91468	4478.4
401.06626	4603.1
405.21485	4734.1
409.36047	4816.7
413.50311	4808.2
417.64277	4748.1
421.77947	4686.3
425.9132	4663.1
430.04396	4634.3
434.17176	4611.4
438.2966	4592
442.41849	4596
446.53742	4593.3
450.6534	4605.3
454.76644	4623.3
458.87653	4640.6
462.98368	4641.8
467.08789	4664.4
471.18916	4675.5
475.2875	4708
479.38291	4742.2
483.4754	4812.9
487.56496	4880.3
491.6516	4937.4
495.73531	5006.5
499.81612	5044
503.89401	5086.2
507.96899	5100.3
512.04106	5079.9
516.11023	5002.7
520.1765	4945
524.23987	4853.5
528.30034	4763.8
532.35792	4738.6
536.41261	4688.1
540.46441	4649.1
544.51333	4662.2
548.55936	4656.7
552.60252	4647.6
556.64279	4684.8
560.6802	4695.3
564.71473	4725.2
568.7464	4740.7
572.7752	4750.3
576.80114	4771
580.82422	4797.1
584.84444	4802.6
588.86181	4846.2
592.87633	4880.8
596.888	4890.3
600.89682	4943.2
604.9028	5041
608.90594	5212.7
612.90624	5408.4
616.90371	5381.8
620.89834	5201.9
624.89015	5090.9
628.87913	5084.5
632.86528	5167.9
636.84862	5241.7
640.82913	5293.8
644.80683	5285.1
648.78172	5280.4
652.75379	5236.1
656.72306	5243.1
660.68952	5268.2
664.65319	5329.2
668.61405	5393.7
672.57211	5494.1
676.52738	5581.9
680.47986	5614.5
684.42955	5654.9
688.37646	5661.4
692.32058	5674.4
696.26192	5636.4
700.20048	5587.2
704.13626	5457.4
708.06928	5306.4
711.99952	5130.6
715.927	5017.1
719.85171	4918.9
723.77365	4876.7
727.69284	4844.5
731.60928	4823.8
735.52295	4819.2
739.43388	4828.3
743.34206	4878.8
747.24749	4927.8
751.15017	4992.2
755.05012	5056.2
758.94733	5096.9
762.8418	5164.9
766.73354	5199.3
770.62254	5256
774.50882	5240.4
778.39237	5184.2
782.27321	5073.3
786.15132	4947.1
790.02671	4867.9
793.89938	4822.3
797.76935	4828.9
801.6366	4873.4
805.50115	4925.6
809.36299	4982
813.22213	4991.2
817.07857	4958.9
820.93231	4852.4
824.78336	4754.5
828.63172	4672.8
832.47738	4614.4
836.32036	4559.6
840.16066	4567.9
843.99827	4559.6
847.8332	4573.5
851.66546	4572.9
855.49504	4557.5
859.32195	4561.5
863.1462	4561.8
866.96777	4576.6
870.78668	4580.5
874.60293	4608.9
878.41652	4610.3
882.22745	4644
886.03573	4660.8
889.84136	4706.8
893.64433	4722.4
897.44466	4711.5
901.24235	4696.5
905.0374	4676.1
908.8298	4645.9
912.61957	4650.5
916.40671	4616.5
920.19121	4607.3
923.97308	4572.8
927.75233	4553.9
931.52895	4519.9
935.30295	4511.8
939.07433	4473
942.84309	4480.4
946.60924	4452.3
950.37278	4454.5
954.13371	4443.8
957.89203	4451.5
961.64774	4430.9
965.40086	4435.6
969.15137	4452.7
972.89929	4426.7
976.64461	4408.1
980.38733	4413.2
984.12747	4416.8
987.86502	4427.4
991.59999	4417.2
995.33237	4425.6
999.06217	4434
1002.78939	4463.8
1006.51404	4467.9
1010.23611	4485.1
1013.95561	4511.3
1017.67255	4513.8
1021.38692	4540.7
1025.09872	4529.6
1028.80796	4543.4
1032.51465	4535.5
1036.21877	4534.1
1039.92035	4527.3
1043.61937	4538.1
1047.31584	4544.9
1051.00976	4559.5
1054.70114	4577.9
1058.38998	4576.4
1062.07627	4606.3
1065.76003	4601
1069.44126	4623.7
1073.11995	4610.1
1076.79611	4604.5
1080.46974	4594
1084.14085	4571.2
1087.80943	4523.7
1091.47549	4523.9
1095.13903	4521.9
1098.80005	4503.7
1102.45857	4491.9
1106.11456	4491.5
1109.76805	4527.5
1113.41903	4558.9
1117.06751	4620.2
1120.71348	4703.5
1124.35696	4809.5
1127.99793	4923.7
1131.63641	5024.3
1135.2724	5095.1
1138.90589	5110.1
1142.5369	5097.1
1146.16542	5046.1
1149.79145	4976
1153.415	4885.8
1157.03607	4787
1160.65467	4723.7
1164.27079	4673.8
1167.88443	4642.8
1171.49561	4686.9
1175.10432	4724.9
1178.71056	4806.7
1182.31434	4883.7
1185.91565	4938.9
1189.51451	4958
1193.11091	4929.4
1196.70485	4940.7
1200.29634	4946
1203.88538	4934.1
1207.47197	4948.4
1211.05612	4973
1214.63782	4993.1
1218.21708	5025.7
1221.79391	5034.6
1225.36829	5015.5
1228.94024	5004
1232.50976	4969.9
1236.07685	4912.2
1239.6415	4889.4
1243.20374	4880.6
1246.76355	4868
1250.32093	4908.5
1253.8759	4944.1
1257.42845	4984.9
1260.97859	5018.1
1264.52631	5044.3
1268.07163	5043.4
1271.61453	5029.7
1275.15503	5004
1278.69312	4979.1
1282.22882	4957.9
1285.76211	4967.2
1289.29301	4963.9
1292.82151	5008.5
1296.34761	5062.5
1299.87133	5111.4
1303.39266	5199.4
1306.9116	5306.9
1310.42815	5418.5
1313.94233	5506.1
1317.45412	5551
1320.96354	5538.8
1324.47058	5540.1
1327.97525	5564.8
1331.47754	5581.8
1334.97747	5596.8
1338.47502	5618.2
1341.97022	5693
1345.46305	5761.3
1348.95352	5842.6
1352.44163	5919.2
1355.92738	5978
1359.41078	6074.3
1362.89183	6155.7
1366.37053	6111.5
1369.84688	5971.1
1373.32088	5793.9
1376.79254	5654.4
1380.26186	5551.7
1383.72883	5491.8
1387.19347	5427.2
1390.65578	5368.8
1394.11575	5313.1
1397.57339	5253.9
1401.0287	5210.2
1404.48168	5139.6
1407.93234	5109.1
1411.38068	5072.1
1414.82669	5001
1418.27039	4947.9
1421.71177	4865.5
1425.15083	4820.8
1428.58758	4752
1432.02203	4710.6
1435.45416	4646.2
1438.88399	4636.8
1442.31151	4596.3
1445.73673	4585.9
1449.15965	4584.7
1452.58027	4588.7
1455.9986	4575.1
1459.41463	4594.6
1462.82837	4614
1466.23982	4652.9
1469.64898	4683.9
1473.05586	4743.3
1476.46045	4760.5
1479.86276	4777.7
1483.26279	4785.1
1486.66054	4812.2
1490.05602	4819.1
1493.44922	4828.4
1496.84016	4884.8
1500.22882	4972.7
1503.61521	5071.8
1506.99934	5182.3
1510.38121	5271.2
1513.76081	5289.2
1517.13816	5248.7
1520.51324	5183.6
1523.88607	5101
1527.25665	5071.9
1530.62498	5058.1
1533.99105	5089.6
1537.35488	5121.3
1540.71647	5167.3
1544.07581	5219.1
1547.4329	5259.2
1550.78776	5316.8
1554.14038	5397.9
1557.49077	5442.5
1560.83892	5487.5
1564.18484	5525.8
1567.52853	5556.6
1570.86999	5589.3
1574.20922	5622.8
1577.54624	5666.5
1580.88103	5662.3
1584.2136	5657.5
1587.54395	5625.6
1590.87208	5605.2
1594.19801	5597.4
1597.52172	5614.3
1600.84321	5597
1604.16251	5544.8
1607.47959	5477.3
1610.79447	5415.6
1614.10715	5327.8
1617.41763	5258.4
1620.7259	5211.6
1624.03199	5155.1
1627.33587	5117.3
1630.63757	5109.2
1633.93707	5113.1
1637.23439	5140.1
1640.52951	5208.2
1643.82246	5268.7
1647.11321	5360
1650.40179	5431.3
1653.68819	5394.9
1656.97241	5295.1
1660.25446	5173.8
1663.53433	5059.5
1666.81203	4955.7
1670.08756	4892.1
1673.36092	4815.6
1676.63211	4759.8
1679.90115	4708.8
1683.16801	4644.5
1686.43272	4549.3
1689.69527	4476
1692.95567	4398.2
1696.2139	4334.1
1699.46999	4282.3
1702.72392	4228.6
1705.97571	4176.6
1709.22535	4156.9
1712.47284	4117.7
1715.71819	4088.6
1718.96139	4035.7
1722.20246	3994.4
1725.44139	3963.2
1728.67818	3915.6
1731.91284	3863
1735.14537	3806.6
1738.37576	3777
1741.60403	3739.8
1744.83017	3730.1
1748.05418	3709
1751.27607	3701.3
1754.49584	3689.1
1757.71349	3706.9
1760.92903	3702.4
1764.14244	3662.7
1767.35375	3629.7
1770.56294	3601.6
1773.77002	3572.7
1776.97499	3535.3
1780.17785	3481.6
1783.37861	3465.3
1786.57727	3432
1789.77382	3401.7
1792.96828	3354.3
1796.16064	3335
1799.3509	3319.2
1802.53907	3307.8
1805.72514	3281.7
1808.90913	3261.6
1812.09102	3244.4
1815.27083	3229.3
1818.44856	3217.3
1821.6242	3205
1824.79776	3193.2
1827.96924	3183.6
1831.13864	3171.8
1834.30597	3166.6
1837.47122	3164.4
1840.6344	3145
1843.7955	3147.8
1846.95454	3136.4
1850.11151	3127.4
1853.26642	3132
1856.41926	3120.4
1859.57004	3110.4
1862.71876	3104.4
1865.86542	3098.5
1869.01003	3082
1872.15258	3086
1875.29308	3069.8
1878.43152	3069.5
1881.56792	3060.9
1884.70227	3050.6
1887.83457	3036.6
1890.96482	3040.1
1894.09304	3030
1897.21921	3022.5
1900.34335	3022.9
1903.46544	3004.7
1906.58551	3016.6
1909.70353	3000.8
1912.81953	3009.8
1915.93349	2991.1
1919.04543	2985
1922.15534	2969.2
1925.26322	2968.1
1928.36908	2960.4
1931.47292	2943.1
1934.57473	2956.8
1937.67453	2927.7
1940.77232	2921.7
1943.86808	2912.8
1946.96184	2905.6
1950.05358	2889.3
1953.14331	2886.6
1956.23103	2865.2
1959.31675	2865.8
1962.40046	2846.8
1965.48217	2848.6
1968.56188	2841.6
1971.63959	2836.7
1974.7153	2802.5
1977.78901	2789.7
1980.86073	2800.6
1983.93046	2783
1986.99819	2769.6
1990.06394	2766.2
1993.1277	2768.6
1996.18947	2745
1999.24925	2737.1
2002.30706	2730.7
2005.36288	2713.7
2008.41672	2706.1
2011.46859	2700.6
2014.51848	2693.9
2017.56639	2681.2
2020.61233	2667.6
2023.6563	2655
2026.6983	2659.2
2029.73833	2642
2032.7764	2646.4
2035.8125	2620.7
2038.84664	2628.9
2041.87881	2619.4
2044.90903	2601.9
2047.93729	2599.2
2050.96359	2597.3
2053.98794	2585.9
2057.01034	2582.5
2060.03078	2585.5
2063.04927	2569.2
2066.06582	2579
2069.08042	2573.5
2072.09307	2569.5
2075.10378	2578.5
2078.11255	2565.3
2081.11938	2570.3
2084.12426	2550.7
2087.12722	2573
2090.12824	2567.4
2093.12732	2558.8
2096.12447	2560.2
2099.11969	2563.2
2102.11299	2554.8
2105.10435	2558.4
2108.09379	2555.7
2111.08131	2546.9
2114.0669	2554.7
2117.05057	2562
2120.03233	2560
2123.01216	2561.6
2125.99008	2561.5
2128.96609	2561.7
2131.94018	2551.3
2134.91236	2575
2137.88263	2566.4
2140.851	2565.8
2143.81746	2563.2
2146.78201	2558.1
2149.74466	2563.4
2152.7054	2555.4
2155.66425	2562
2158.6212	2548.4
2161.57625	2546.7
2164.52941	2544.6
2167.48067	2541.5
2170.43004	2544.6
2173.37752	2544.2
2176.32311	2534.4
2179.26681	2541.8
2182.20863	2531.8
2185.14856	2528.6
2188.08661	2513.3
2191.02278	2525.9
2193.95707	2523.3
2196.88948	2520.7
2199.82001	2495.4
2202.74867	2499
2205.67545	2508.4
2208.60037	2492.3
2211.52341	2488.1
2214.44458	2478.5
2217.36388	2467.7
2220.28132	2477.9
2223.1969	2456.7
2226.11061	2448.9
2229.02246	2447.3
2231.93245	2442.5
2234.84058	2432
2237.74686	2440.9
2240.65128	2430.2
2243.55385	2420.9
2246.45456	2416.2
2249.35343	2412.3
2252.25044	2412.8
2255.14561	2390.3
2258.03893	2390.1
2260.93041	2403.9
2263.82004	2379.5
2266.70783	2370.2
2269.59378	2362.4
2272.4779	2351.6
2275.36017	2354.2
2278.24061	2344.9
2281.11922	2350.6
2283.996	2336.3
2286.87094	2330.7
2289.74405	2322.5
2292.61534	2330.2
2295.4848	2317.2
2298.35243	2310.8
2301.21824	2292.6
2304.08223	2311.5
2306.94439	2296
2309.80474	2293.7
2312.66327	2295
2315.51999	2289.7
2318.37489	2288.8
2321.22797	2270.6
2324.07925	2282.1
2326.92871	2266.1
2329.77637	2271.6
2332.62222	2254.3
2335.46626	2257.8
2338.3085	2242
2341.14893	2251.6
2343.98756	2242.1
2346.8244	2239.2
2349.65943	2232.1
2352.49267	2232.8
2355.32411	2227.9
2358.15376	2231.4
2360.98161	2215.4
2363.80768	2218.9
2366.63195	2210.6
2369.45444	2209.2
2372.27514	2207.3
2375.09405	2211.9
2377.91118	2199.2
2380.72652	2198.6
2383.54009	2186.6
2386.35187	2181.5
2389.16188	2166.1
2391.97011	2177
2394.77657	2160.9
2397.58125	2167.9
2400.38416	2165.7
2403.18529	2148.7
2405.98466	2157.9
2408.78226	2137.1
2411.57809	2137.3
2414.37216	2133.5
2417.16446	2135.4
2419.955	2130.4
2422.74378	2122.1
2425.5308	2127.3
2428.31606	2120.6
2431.09956	2104.5
2433.88131	2118
2436.6613	2108.6
2439.43954	2110.9
2442.21603	2098.1
2444.99077	2097
2447.76377	2092.7
2450.53501	2090.8
2453.30451	2096.9
2456.07226	2091.2
2458.83827	2082.4
2461.60254	2081.8
2464.36507	2072
2467.12586	2071.2
2469.88492	2068.6
2472.64224	2066
2475.39782	2075.8
2478.15167	2075.8
2480.90379	2054.9
2483.65417	2059.6
2486.40283	2054.7
2489.14976	2053.3
2491.89497	2048.1
2494.63845	2048.3
2497.3802	2035.6
2500.12024	2041.5
2502.85855	2044.4
2505.59514	2040.3
2508.33002	2037.5
2511.06318	2027.8
2513.79462	2024.4
2516.52435	2021.6
2519.25237	2011.6
2521.97867	2018.4
2524.70327	2010.9
2527.42616	1990.4
2530.14734	2000.8
2532.86681	1996.7
2535.58458	1980.7
2538.30065	1988
2541.01501	1986
2543.72768	1975.9
2546.43864	1973.8
2549.14791	1967.2
2551.85548	1967.1
2554.56136	1952.3
2557.26554	1955.2
2559.96803	1952.2
2562.66883	1942.4
2565.36794	1935.4
2568.06536	1934.3
2570.7611	1939.8
2573.45514	1924.1
2576.14751	1924.9
2578.83819	1924
2581.52719	1925.4
2584.21451	1917.9
2586.90015	1911.3
2589.58411	1909.8
2592.2664	1891.9
2594.94701	1895.4
2597.62594	1891.6
2600.30321	1887.4
2602.9788	1889.8
2605.65273	1885.9
2608.32498	1869.1
2610.99557	1881.7
2613.66449	1862.2
2616.33175	1868.8
2618.99734	1850.9
2621.66128	1865.7
2624.32355	1847.2
2626.98416	1866.4
2629.64311	1852
2632.30041	1842.2
2634.95605	1845.6
2637.61004	1841.9
2640.26238	1833.9
2642.91306	1834.2
2645.56209	1829.5
2648.20948	1832.2
2650.85521	1824.8
2653.4993	1832.2
2656.14175	1818.8
2658.78255	1834.6
2661.42171	1814.8
2664.05923	1812.9
2666.6951	1816.1
2669.32934	1815.1
2671.96194	1809.9
2674.59291	1815
2677.22224	1816.6
2679.84993	1815.8
2682.476	1816.6
2685.10043	1823.4
2687.72324	1805.8
2690.34441	1808.9
2692.96396	1809.9
2695.58188	1815.8
2698.19818	1813.3
2700.81285	1815
2703.4259	1818.4
2706.03733	1828
2708.64714	1813.1
2711.25533	1808.2
2713.86191	1803.8
2716.46687	1805.2
2719.07021	1804.4
2721.67194	1803.6
2724.27206	1801
2726.87057	1800.9
2729.46747	1802.9
2732.06276	1792
2734.65644	1790.5
2737.24852	1786.2
2739.83899	1793.9
2742.42786	1786
2745.01513	1784
2747.60079	1778.1
2750.18486	1776.2
2752.76733	1772
2755.3482	1770.4
2757.92747	1766.9
2760.50515	1768
2763.08123	1749.3
2765.65573	1749.3
2768.22863	1741.8
2770.79994	1752.1
2773.36967	1758.7
2775.9378	1739.5
2778.50435	1736.3
2781.06932	1728.4
2783.6327	1736.1
2786.1945	1740.3
2788.75471	1731.5
2791.31335	1721.2
2793.87041	1718.1
2796.42589	1716.3
2798.97979	1710.4
2801.53212	1712.6
2804.08288	1696
2806.63206	1696.1
2809.17967	1693.4
2811.72571	1692
2814.27018	1687.2
2816.81308	1676.5
2819.35442	1678.5
2821.89419	1673.3
2824.43239	1677.1
2826.96904	1673.7
2829.50412	1667.8
2832.03763	1682.6
2834.56959	1678.9
2837.1	1668.2
2839.62884	1667.7
2842.15613	1665.1
2844.68186	1664.4
2847.20604	1664.5
2849.72867	1659.9
2852.24974	1664.2
2854.76927	1656
2857.28724	1660.6
2859.80367	1655.4
2862.31855	1648.4
2864.83189	1650.4
2867.34368	1648.9
2869.85393	1644.4
2872.36264	1641.4
2874.8698	1649.8
2877.37543	1646.4
2879.87952	1642.3
2882.38207	1633
2884.88308	1639.5
2887.38256	1647.6
2889.88051	1651.5
2892.37692	1651.4
2894.8718	1643.7
2897.36515	1638.6
2899.85698	1642.8
2902.34727	1654.7
2904.83604	1651.8
2907.32328	1652.8
2909.809	1662.4
2912.29319	1653.6
2914.77587	1658.4
2917.25702	1653.5
2919.73665	1653.6
2922.21476	1653.3
2924.69136	1657.1
2927.16644	1667.9
2929.64	1672.4
2932.11205	1672.1
2934.58258	1664.9
2937.05161	1671.1
2939.51912	1674.6
2941.98513	1676.9
2944.44962	1665.8
2946.91261	1666.3
2949.37409	1671.9
2951.83407	1675
2954.29254	1668.2
2956.74951	1679.1
2959.20498	1662.8
2961.65895	1663.2
2964.11142	1655.8
2966.56239	1655.1
2969.01186	1647.5
2971.45984	1641.1
2973.90632	1626.5
2976.35131	1627.8
2978.7948	1627.6
2981.23681	1615.2
2983.67732	1610.9
2986.11635	1607.7
2988.55388	1613
2990.98993	1607.7
2993.4245	1591.5
2995.85758	1595.7
2998.28917	1588.7
3000.71928	1587.7
3003.14791	1596.7
3005.57506	1589.3
3008.00073	1581.1
3010.42493	1581.7
3012.84764	1583.8
3015.26888	1588.9
3017.68865	1589.6
3020.10694	1570.1
3022.52376	1591.7
3024.9391	1578.4
3027.35298	1580.8
3029.76539	1571.5
3032.17632	1576.5
3034.5858	1571.5
3036.9938	1583.5
3039.40034	1571.4
3041.80542	1572.1
3044.20903	1561.2
3046.61118	1571.3
3049.01187	1564.9
3051.4111	1568
3053.80888	1570.9
3056.20519	1569.2
3058.60005	1569.1
3060.99345	1558.3
3063.3854	1565.4
3065.7759	1557.1
3068.16494	1562.5
3070.55254	1569.3
3072.93868	1559.4
3075.32338	1566.3
3077.70662	1557.6
3080.08842	1561.5
3082.46878	1573.5
3084.84769	1558.1
3087.22515	1575.3
3089.60118	1580.4
3091.97576	1583.4
3094.3489	1580.1
3096.72061	1581.5
3099.09087	1588
3101.4597	1590.6
3103.82709	1595.7
3106.19305	1592.8
3108.55757	1595.5
3110.92066	1592
3113.28232	1591.4
3115.64255	1598.3
3118.00134	1593.7
3120.35871	1603.1
3122.71466	1609.4
3125.06917	1609.8
3127.42226	1605.8
3129.77393	1604.8
3132.12417	1612.7
3134.47299	1615.2
3136.82039	1618.8
3139.16636	1626.1
3141.51092	1626.4
3143.85406	1644
3146.19579	1655
3148.53609	1642.7
3150.87499	1652.9
3153.21246	1662
3155.54853	1673.6
3157.88318	1686
3160.21642	1680.4
3162.54826	1678.6
3164.87868	1682.3
3167.2077	1688.4
3169.5353	1694.8
3171.86151	1692.4
3174.18631	1697.4
3176.5097	1695.2
3178.83169	1707.1
3181.15228	1703.6
3183.47147	1710.7
3185.78926	1717.8
3188.10565	1712.6
3190.42065	1719.9
3192.73424	1732.5
3195.04645	1727.6
3197.35725	1734.4
3199.66667	1733.3
3201.97469	1753
3204.28132	1738.1
3206.58656	1745.4
3208.8904	1749.7
3211.19287	1752.4
3213.49394	1762
3215.79363	1765.7
3218.09193	1753.3
3220.38884	1761.8
3222.68438	1773.7
3224.97853	1771.6
3227.2713	1763.8
3229.56269	1762.5
3231.8527	1767.4
3234.14133	1764.4
3236.42858	1760.9
3238.71446	1754.6
3240.99896	1759.7
3243.28209	1755.9
3245.56384	1760.1
3247.84423	1754.5
3250.12324	1755.3
3252.40088	1761.7
3254.67715	1758.1
3256.95205	1751.1
3259.22558	1753.4
3261.49775	1756.7
3263.76855	1751
3266.03799	1754.1
3268.30606	1748.3
3270.57277	1731.4
3272.83812	1734.4
3275.10211	1742.1
3277.36474	1733.4
3279.62601	1737.2
3281.88593	1744.3
3284.14448	1733.3
3286.40168	1750.3
3288.65753	1737.4
3290.91202	1734.9
3293.16516	1724.5
3295.41695	1707.5
3297.66738	1713.8
3299.91647	1716.9
3302.16421	1701.9
3304.4106	1698.1
3306.65564	1691.6
3308.89933	1680.7
3311.14169	1674.7
3313.38269	1659.4
3315.62236	1658.7
3317.86068	1635
3320.09766	1623.4
3322.3333	1615.2
3324.5676	1614.8
3326.80056	1587.8
3329.03219	1585.3
3331.26248	0
3333.49143	0.3
3335.71905	0
