Data from AgNPs_FTO_APTES_UA_0.1mM_CRN_100uM_NaF_0.1M_Addition_RamanShift__2__13-18-37-668.txt Node

Date: Mon Dec 20 13:18:37 GMT 2021
User: TCL
Spectrometer: QEP01345
Trigger mode: 4
Integration Time (sec): 7.000000E0
Scans to average: 10
Electric dark correction enabled: true
Nonlinearity correction enabled: false
Boxcar width: 0
XAxis mode: Raman Shifts
Number of Pixels in Spectrum: 1044
>>>>>Begin Spectral Data<<<<<
46.04893	0.175
50.45542	-1.425
54.85868	-1.725
59.25871	0.775
63.6555	32.275
68.04907	32.375
72.43941	34.275
76.82654	39.875
81.21044	38.875
85.59113	45.175
89.96862	42.575
94.34289	44.375
98.71396	42.975
103.08183	49.075
107.4465	48.375
111.80798	51.175
116.16626	50.675
120.52136	50.975
124.87327	55.575
129.222	49.875
133.56755	59.075
137.90993	60.575
142.24913	67.075
146.58517	67.875
150.91804	80.675
155.24774	93.475
159.57429	109.375
163.89768	141.475
168.21792	181.275
172.53501	232.875
176.84895	322.275
181.15975	442.875
185.46741	618.975
189.77193	848.175
194.07331	1135.775
198.37157	1471.175
202.6667	1832.975
206.9587	2175.275
211.24758	2526.575
215.53334	2880.675
219.81599	3265.175
224.09553	3664.675
228.37195	4132.975
232.64527	4628.475
236.91549	5156.075
241.18261	5648.975
245.44663	6116.175
249.70755	6509.275
253.96539	6834.875
258.22014	7081.975
262.4718	7252.675
266.72039	7354.675
270.96589	7375.575
275.20832	7347.075
279.44768	7276.275
283.68397	7164.075
287.91719	7069.075
292.14735	6969.475
296.37445	6919.175
300.59849	6890.975
304.81948	6874.575
309.03742	6845.075
313.25231	6780.775
317.46415	6720.275
321.67296	6603.075
325.87872	6523.175
330.08145	6479.175
334.28114	6476.275
338.47781	6505.375
342.67145	6527.675
346.86207	6612.175
351.04966	6681.875
355.23424	6774.075
359.4158	6869.275
363.59435	6940.975
367.76989	7039.475
371.94243	7108.675
376.11196	7167.575
380.27849	7242.175
384.44203	7302.875
388.60257	7393.475
392.76012	7440.075
396.91468	7507.775
401.06626	7592.075
405.21485	7635.075
409.36047	7645.575
413.50311	7587.375
417.64277	7546.775
421.77947	7538.375
425.9132	7544.775
430.04396	7553.275
434.17176	7598.875
438.2966	7632.475
442.41849	7693.375
446.53742	7778.675
450.6534	7871.475
454.76644	7946.975
458.87653	7993.375
462.98368	8021.075
467.08789	8028.775
471.18916	8027.975
475.2875	8031.775
479.38291	8074.875
483.4754	8171.875
487.56496	8293.275
491.6516	8436.675
495.73531	8574.075
499.81612	8569.375
503.89401	8521.175
507.96899	8423.675
512.04106	8327.575
516.11023	8304.775
520.1765	8300.775
524.23987	8349.275
528.30034	8387.275
532.35792	8408.375
536.41261	8363.475
540.46441	8293.775
544.51333	8211.075
548.55936	8134.675
552.60252	8086.475
556.64279	8090.375
560.6802	8128.175
564.71473	8118.775
568.7464	8162.475
572.7752	8249.675
576.80114	8276.175
580.82422	8325.775
584.84444	8487.275
588.86181	8664.175
592.87633	8784.575
596.888	8775.875
600.89682	8731.975
604.9028	8777.475
608.90594	9118.775
612.90624	9605.475
616.90371	9612.375
620.89834	9225.175
624.89015	9328.575
628.87913	9837.075
632.86528	10465.175
636.84862	10908.575
640.82913	10891.475
644.80683	10492.175
648.78172	9930.975
652.75379	9396.775
656.72306	9044.275
660.68952	8860.675
664.65319	8668.175
668.61405	8547.175
672.57211	8474.075
676.52738	8499.075
680.47986	8554.575
684.42955	8565.775
688.37646	8504.675
692.32058	8460.175
696.26192	8400.075
700.20048	8364.275
704.13626	8351.875
708.06928	8357.975
711.99952	8305.675
715.927	8337.275
719.85171	8386.575
723.77365	8497.675
727.69284	8537.375
731.60928	8505.575
735.52295	8403.575
739.43388	8306.175
743.34206	8266.275
747.24749	8270.775
751.15017	8288.975
755.05012	8318.475
758.94733	8379.975
762.8418	8538.275
766.73354	8733.575
770.62254	8953.875
774.50882	9039.875
778.39237	8923.175
782.27321	8628.575
786.15132	8399.575
790.02671	8269.675
793.89938	8220.175
797.76935	8227.075
801.6366	8313.875
805.50115	8483.875
809.36299	8743.775
813.22213	8944.075
817.07857	8926.875
820.93231	8745.675
824.78336	8480.175
828.63172	8264.175
832.47738	8104.775
836.32036	8017.675
840.16066	8020.275
843.99827	8005.275
847.8332	8010.275
851.66546	8012.375
855.49504	7997.175
859.32195	8025.175
863.1462	8076.775
866.96777	8128.775
870.78668	8215.675
874.60293	8359.575
878.41652	8519.475
882.22745	8725.875
886.03573	8877.175
889.84136	8947.275
893.64433	8878.875
897.44466	8660.575
901.24235	8408.775
905.0374	8188.175
908.8298	8015.375
912.61957	7945.875
916.40671	7889.875
920.19121	7893.975
923.97308	7896.175
927.75233	7886.675
931.52895	7861.475
935.30295	7836.175
939.07433	7776.175
942.84309	7730.275
946.60924	7699.475
950.37278	7682.975
954.13371	7672.775
957.89203	7685.775
961.64774	7645.475
965.40086	7624.775
969.15137	7622.475
972.89929	7596.475
976.64461	7608.375
980.38733	7593.275
984.12747	7605.175
987.86502	7636.075
991.59999	7681.275
995.33237	7733.375
999.06217	7827.775
1002.78939	7922.375
1006.51404	8044.775
1010.23611	8140.275
1013.95561	8225.575
1017.67255	8270.675
1021.38692	8259.675
1025.09872	8218.375
1028.80796	8134.675
1032.51465	8063.075
1036.21877	8049.975
1039.92035	7989.775
1043.61937	7901.075
1047.31584	7902.975
1051.00976	7884.675
1054.70114	7877.675
1058.38998	7893.275
1062.07627	7973.575
1065.76003	8053.375
1069.44126	8142.775
1073.11995	8224.875
1076.79611	8308.375
1080.46974	8294.975
1084.14085	8252.575
1087.80943	8164.175
1091.47549	8131.875
1095.13903	8085.275
1098.80005	8035.875
1102.45857	7982.375
1106.11456	7984.675
1109.76805	7982.275
1113.41903	8136.575
1117.06751	8397.475
1120.71348	8775.075
1124.35696	9296.875
1127.99793	9885.475
1131.63641	10426.375
1135.2724	10671.775
1138.90589	10641.175
1142.5369	10299.875
1146.16542	9835.175
1149.79145	9334.075
1153.415	8869.775
1157.03607	8514.575
1160.65467	8323.175
1164.27079	8250.475
1167.88443	8270.275
1171.49561	8417.575
1175.10432	8578.675
1178.71056	8867.475
1182.31434	9145.575
1185.91565	9316.775
1189.51451	9403.675
1193.11091	9447.775
1196.70485	9474.075
1200.29634	9543.175
1203.88538	9592.875
1207.47197	9554.475
1211.05612	9431.675
1214.63782	9264.975
1218.21708	9029.875
1221.79391	8809.375
1225.36829	8632.775
1228.94024	8499.375
1232.50976	8392.675
1236.07685	8329.975
1239.6415	8332.475
1243.20374	8368.875
1246.76355	8423.475
1250.32093	8487.275
1253.8759	8552.175
1257.42845	8672.575
1260.97859	8771.475
1264.52631	8877.275
1268.07163	8922.275
1271.61453	8965.775
1275.15503	9007.375
1278.69312	9004.975
1282.22882	9020.875
1285.76211	9079.975
1289.29301	9154.575
1292.82151	9244.675
1296.34761	9413.575
1299.87133	9597.675
1303.39266	9836.275
1306.9116	10112.475
1310.42815	10363.575
1313.94233	10527.975
1317.45412	10560.175
1320.96354	10467.875
1324.47058	10352.175
1327.97525	10258.175
1331.47754	10163.175
1334.97747	10144.975
1338.47502	10216.875
1341.97022	10278.675
1345.46305	10403.875
1348.95352	10549.175
1352.44163	10757.575
1355.92738	11019.675
1359.41078	11396.275
1362.89183	11703.875
1366.37053	11665.375
1369.84688	11197.875
1373.32088	10628.675
1376.79254	10157.375
1380.26186	9900.375
1383.72883	9759.475
1387.19347	9594.075
1390.65578	9423.575
1394.11575	9259.775
1397.57339	9137.975
1401.0287	9075.975
1404.48168	9005.375
1407.93234	8902.075
1411.38068	8761.875
1414.82669	8616.675
1418.27039	8448.675
1421.71177	8297.775
1425.15083	8157.675
1428.58758	8056.575
1432.02203	8031.075
1435.45416	8021.775
1438.88399	8077.275
1442.31151	8095.175
1445.73673	8103.075
1449.15965	8108.575
1452.58027	8094.975
1455.9986	8109.775
1459.41463	8116.575
1462.82837	8176.875
1466.23982	8222.075
1469.64898	8303.575
1473.05586	8354.075
1476.46045	8395.675
1479.86276	8405.275
1483.26279	8423.175
1486.66054	8455.875
1490.05602	8552.375
1493.44922	8634.475
1496.84016	8799.375
1500.22882	9010.575
1503.61521	9289.375
1506.99934	9595.175
1510.38121	9845.775
1513.76081	9907.675
1517.13816	9738.975
1520.51324	9455.975
1523.88607	9192.575
1527.25665	9059.175
1530.62498	9024.675
1533.99105	9014.675
1537.35488	9031.675
1540.71647	9062.275
1544.07581	9049.675
1547.4329	9060.875
1550.78776	9045.975
1554.14038	9014.775
1557.49077	9027.175
1560.83892	9016.275
1564.18484	9046.275
1567.52853	9063.975
1570.86999	9126.375
1574.20922	9179.075
1577.54624	9211.775
1580.88103	9178.075
1584.2136	9091.475
1587.54395	9043.775
1590.87208	9055.475
1594.19801	9146.175
1597.52172	9334.675
1600.84321	9411.275
1604.16251	9342.475
1607.47959	9156.675
1610.79447	8968.975
1614.10715	8782.275
1617.41763	8629.375
1620.7259	8541.575
1624.03199	8519.675
1627.33587	8517.075
1630.63757	8627.275
1633.93707	8768.575
1637.23439	9032.775
1640.52951	9374.675
1643.82246	9828.675
1647.11321	10233.875
1650.40179	10460.975
1653.68819	10266.875
1656.97241	9878.175
1660.25446	9396.275
1663.53433	9032.975
1666.81203	8806.875
1670.08756	8659.575
1673.36092	8610.575
1676.63211	8546.375
1679.90115	8539.875
1683.16801	8495.375
1686.43272	8408.975
1689.69527	8334.675
1692.95567	8224.975
1696.2139	8148.975
1699.46999	8035.575
1702.72392	7882.075
1705.97571	7716.075
1709.22535	7539.375
1712.47284	7369.475
1715.71819	7230.575
1718.96139	7089.075
1722.20246	6995.575
1725.44139	6923.975
1728.67818	6857.575
1731.91284	6804.375
1735.14537	6720.875
1738.37576	6686.275
1741.60403	6679.975
1744.83017	6620.575
1748.05418	6610.875
1751.27607	6585.275
1754.49584	6567.175
1757.71349	6586.675
1760.92903	6568.075
1764.14244	6545.475
1767.35375	6545.375
1770.56294	6521.175
1773.77002	6494.575
1776.97499	6495.275
1780.17785	6470.975
1783.37861	6475.875
1786.57727	6443.775
1789.77382	6428.975
1792.96828	6420.675
1796.16064	6377.775
1799.3509	6376.675
1802.53907	6369.775
1805.72514	6334.275
1808.90913	6326.975
1812.09102	6327.475
1815.27083	6316.475
1818.44856	6314.175
1821.6242	6283.375
1824.79776	6278.675
1827.96924	6264.475
1831.13864	6259.175
1834.30597	6249.975
1837.47122	6248.175
1840.6344	6261.975
1843.7955	6251.575
1846.95454	6252.375
1850.11151	6239.475
1853.26642	6204.875
1856.41926	6227.975
1859.57004	6216.075
1862.71876	6219.375
1865.86542	6211.675
1869.01003	6188.475
1872.15258	6190.575
1875.29308	6205.175
1878.43152	6177.275
1881.56792	6170.375
1884.70227	6149.175
1887.83457	6147.375
1890.96482	6140.875
1894.09304	6141.675
1897.21921	6126.975
1900.34335	6113.775
1903.46544	6113.975
1906.58551	6106.575
1909.70353	6111.875
1912.81953	6094.975
1915.93349	6105.375
1919.04543	6087.975
1922.15534	6057.975
1925.26322	6074.375
1928.36908	6039.775
1931.47292	6025.075
1934.57473	5998.575
1937.67453	6019.875
1940.77232	6003.775
1943.86808	5977.475
1946.96184	5949.975
1950.05358	5944.975
1953.14331	5940.475
1956.23103	5924.475
1959.31675	5906.475
1962.40046	5884.075
1965.48217	5869.175
1968.56188	5866.975
1971.63959	5822.375
1974.7153	5821.875
1977.78901	5815.175
1980.86073	5804.075
1983.93046	5766.275
1986.99819	5754.675
1990.06394	5723.575
1993.1277	5733.375
1996.18947	5717.775
1999.24925	5694.275
2002.30706	5687.175
2005.36288	5645.775
2008.41672	5651.375
2011.46859	5642.275
2014.51848	5634.975
2017.56639	5607.975
2020.61233	5585.075
2023.6563	5577.975
2026.6983	5570.775
2029.73833	5556.475
2032.7764	5543.875
2035.8125	5526.675
2038.84664	5510.575
2041.87881	5532.475
2044.90903	5495.175
2047.93729	5495.175
2050.96359	5489.175
2053.98794	5463.075
2057.01034	5478.875
2060.03078	5460.275
2063.04927	5458.075
2066.06582	5466.075
2069.08042	5466.975
2072.09307	5440.175
2075.10378	5463.675
2078.11255	5451.275
2081.11938	5468.975
2084.12426	5454.675
2087.12722	5444.975
2090.12824	5448.575
2093.12732	5446.075
2096.12447	5438.375
2099.11969	5452.175
2102.11299	5480.775
2105.10435	5471.475
2108.09379	5460.475
2111.08131	5462.675
2114.0669	5481.375
2117.05057	5472.275
2120.03233	5481.675
2123.01216	5489.375
2125.99008	5485.975
2128.96609	5475.775
2131.94018	5503.175
2134.91236	5500.175
2137.88263	5496.875
2140.851	5497.575
2143.81746	5497.675
2146.78201	5489.975
2149.74466	5534.575
2152.7054	5509.375
2155.66425	5504.475
2158.6212	5511.375
2161.57625	5521.175
2164.52941	5498.375
2167.48067	5515.975
2170.43004	5500.075
2173.37752	5506.075
2176.32311	5496.175
2179.26681	5502.375
2182.20863	5494.775
2185.14856	5495.975
2188.08661	5484.275
2191.02278	5489.775
2193.95707	5487.075
2196.88948	5475.175
2199.82001	5479.575
2202.74867	5453.775
2205.67545	5457.275
2208.60037	5460.575
2211.52341	5455.875
2214.44458	5462.175
2217.36388	5447.475
2220.28132	5431.275
2223.1969	5420.275
2226.11061	5393.075
2229.02246	5395.075
2231.93245	5381.075
2234.84058	5378.775
2237.74686	5340.475
2240.65128	5355.675
2243.55385	5359.375
2246.45456	5332.675
2249.35343	5338.675
2252.25044	5341.575
2255.14561	5310.175
2258.03893	5328.475
2260.93041	5325.275
2263.82004	5283.775
2266.70783	5294.275
2269.59378	5286.575
2272.4779	5270.675
2275.36017	5247.075
2278.24061	5239.975
2281.11922	5243.275
2283.996	5233.375
2286.87094	5210.575
2289.74405	5226.575
2292.61534	5216.875
2295.4848	5197.775
2298.35243	5188.975
2301.21824	5195.875
2304.08223	5192.975
2306.94439	5183.175
2309.80474	5183.775
2312.66327	5175.575
2315.51999	5174.475
2318.37489	5175.075
2321.22797	5164.775
2324.07925	5169.275
2326.92871	5145.075
2329.77637	5132.075
2332.62222	5132.675
2335.46626	5123.375
2338.3085	5117.975
2341.14893	5103.575
2343.98756	5109.775
2346.8244	5123.775
2349.65943	5091.175
2352.49267	5091.275
2355.32411	5085.175
2358.15376	5065.475
2360.98161	5089.575
2363.80768	5075.075
2366.63195	5071.175
2369.45444	5075.375
2372.27514	5066.975
2375.09405	5053.475
2377.91118	5044.775
2380.72652	5034.475
2383.54009	5017.575
2386.35187	5019.475
2389.16188	5016.375
2391.97011	5008.875
2394.77657	4991.375
2397.58125	4999.275
2400.38416	4971.275
2403.18529	4966.375
2405.98466	4978.975
2408.78226	4984.475
2411.57809	4973.975
2414.37216	4934.675
2417.16446	4952.875
2419.955	4929.375
2422.74378	4959.675
2425.5308	4921.175
2428.31606	4920.275
2431.09956	4910.175
2433.88131	4888.275
2436.6613	4920.575
2439.43954	4886.975
2442.21603	4892.075
2444.99077	4897.575
2447.76377	4891.975
2450.53501	4882.875
2453.30451	4891.875
2456.07226	4865.775
2458.83827	4871.775
2461.60254	4847.875
2464.36507	4848.475
2467.12586	4842.975
2469.88492	4850.175
2472.64224	4843.775
2475.39782	4844.875
2478.15167	4835.075
2480.90379	4837.375
2483.65417	4837.875
2486.40283	4829.375
2489.14976	4824.475
2491.89497	4819.575
2494.63845	4831.875
2497.3802	4818.275
2500.12024	4820.175
2502.85855	4798.975
2505.59514	4800.975
2508.33002	4799.175
2511.06318	4791.075
2513.79462	4782.875
2516.52435	4787.875
2519.25237	4784.275
2521.97867	4772.075
2524.70327	4766.675
2527.42616	4766.275
2530.14734	4756.675
2532.86681	4746.475
2535.58458	4741.875
2538.30065	4737.575
2541.01501	4721.475
2543.72768	4722.075
2546.43864	4706.475
2549.14791	4692.075
2551.85548	4695.875
2554.56136	4681.475
2557.26554	4678.475
2559.96803	4666.275
2562.66883	4686.375
2565.36794	4650.875
2568.06536	4663.075
2570.7611	4650.575
2573.45514	4644.475
2576.14751	4637.875
2578.83819	4621.775
2581.52719	4630.375
2584.21451	4606.175
2586.90015	4600.675
2589.58411	4604.575
2592.2664	4579.775
2594.94701	4585.675
2597.62594	4570.975
2600.30321	4562.275
2602.9788	4557.175
2605.65273	4555.975
2608.32498	4554.975
2610.99557	4533.175
2613.66449	4537.975
2616.33175	4528.075
2618.99734	4521.075
2621.66128	4528.975
2624.32355	4520.075
2626.98416	4503.275
2629.64311	4497.875
2632.30041	4488.575
2634.95605	4495.375
2637.61004	4496.275
2640.26238	4485.675
2642.91306	4452.475
2645.56209	4462.875
2648.20948	4471.675
2650.85521	4463.975
2653.4993	4475.175
2656.14175	4462.675
2658.78255	4466.175
2661.42171	4478.775
2664.05923	4457.075
2666.6951	4462.875
2669.32934	4457.775
2671.96194	4453.975
2674.59291	4443.275
2677.22224	4442.575
2679.84993	4461.975
2682.476	4449.575
2685.10043	4455.975
2687.72324	4458.575
2690.34441	4441.075
2692.96396	4449.975
2695.58188	4470.475
2698.19818	4466.575
2700.81285	4457.375
2703.4259	4462.575
2706.03733	4499.075
2708.64714	4468.775
2711.25533	4470.475
2713.86191	4469.975
2716.46687	4475.075
2719.07021	4465.275
2721.67194	4462.275
2724.27206	4454.675
2726.87057	4463.675
2729.46747	4460.175
2732.06276	4462.775
2734.65644	4456.075
2737.24852	4458.675
2739.83899	4460.175
2742.42786	4458.475
2745.01513	4437.175
2747.60079	4436.175
2750.18486	4430.175
2752.76733	4405.475
2755.3482	4426.475
2757.92747	4426.275
2760.50515	4416.975
2763.08123	4410.275
2765.65573	4388.875
2768.22863	4404.175
2770.79994	4384.375
2773.36967	4388.175
2775.9378	4393.175
2778.50435	4372.275
2781.06932	4382.975
2783.6327	4373.075
2786.1945	4362.875
2788.75471	4349.275
2791.31335	4343.075
2793.87041	4336.975
2796.42589	4327.175
2798.97979	4322.675
2801.53212	4321.675
2804.08288	4303.575
2806.63206	4293.075
2809.17967	4288.075
2811.72571	4265.575
2814.27018	4266.375
2816.81308	4270.775
2819.35442	4267.875
2821.89419	4250.675
2824.43239	4250.375
2826.96904	4245.375
2829.50412	4246.275
2832.03763	4242.175
2834.56959	4246.375
2837.1	4256.275
2839.62884	4244.875
2842.15613	4242.375
2844.68186	4232.975
2847.20604	4229.475
2849.72867	4219.575
2852.24974	4239.175
2854.76927	4234.275
2857.28724	4218.775
2859.80367	4216.275
2862.31855	4201.275
2864.83189	4222.875
2867.34368	4208.275
2869.85393	4216.075
2872.36264	4207.875
2874.8698	4198.375
2877.37543	4218.375
2879.87952	4184.475
2882.38207	4182.475
2884.88308	4209.775
2887.38256	4212.875
2889.88051	4207.075
2892.37692	4209.375
2894.8718	4210.075
2897.36515	4213.775
2899.85698	4208.275
2902.34727	4232.775
2904.83604	4227.975
2907.32328	4218.775
2909.809	4225.275
2912.29319	4229.075
2914.77587	4221.075
2917.25702	4232.275
2919.73665	4228.575
2922.21476	4197.075
2924.69136	4229.275
2927.16644	4221.475
2929.64	4219.075
2932.11205	4243.675
2934.58258	4210.275
2937.05161	4226.375
2939.51912	4226.975
2941.98513	4217.475
2944.44962	4210.075
2946.91261	4200.875
2949.37409	4212.675
2951.83407	4212.775
2954.29254	4218.475
2956.74951	4214.175
2959.20498	4202.575
2961.65895	4174.775
2964.11142	4201.175
2966.56239	4182.375
2969.01186	4183.375
2971.45984	4181.775
2973.90632	4161.275
2976.35131	4146.175
2978.7948	4146.575
2981.23681	4147.775
2983.67732	4134.375
2986.11635	4136.975
2988.55388	4130.075
2990.98993	4118.975
2993.4245	4123.775
2995.85758	4121.375
2998.28917	4118.375
3000.71928	4105.575
3003.14791	4098.075
3005.57506	4099.275
3008.00073	4099.775
3010.42493	4113.275
3012.84764	4103.475
3015.26888	4116.175
3017.68865	4105.375
3020.10694	4098.175
3022.52376	4097.175
3024.9391	4092.075
3027.35298	4079.275
3029.76539	4091.675
3032.17632	4093.375
3034.5858	4072.075
3036.9938	4084.275
3039.40034	4071.175
3041.80542	4078.575
3044.20903	4068.975
3046.61118	4067.575
3049.01187	4051.175
3051.4111	4066.875
3053.80888	4062.575
3056.20519	4068.875
3058.60005	4038.275
3060.99345	4047.775
3063.3854	4032.875
3065.7759	4029.375
3068.16494	4032.375
3070.55254	4039.675
3072.93868	4033.075
3075.32338	4035.275
3077.70662	4028.575
3080.08842	4023.475
3082.46878	4036.475
3084.84769	4026.675
3087.22515	4041.475
3089.60118	4054.275
3091.97576	4034.675
3094.3489	4044.675
3096.72061	4057.775
3099.09087	4064.875
3101.4597	4068.975
3103.82709	4082.075
3106.19305	4058.075
3108.55757	4071.675
3110.92066	4057.375
3113.28232	4048.275
3115.64255	4050.775
3118.00134	4044.275
3120.35871	4041.475
3122.71466	4052.275
3125.06917	4049.375
3127.42226	4036.575
3129.77393	4059.275
3132.12417	4053.075
3134.47299	4068.975
3136.82039	4076.775
3139.16636	4070.475
3141.51092	4085.575
3143.85406	4104.475
3146.19579	4095.175
3148.53609	4101.975
3150.87499	4126.875
3153.21246	4126.975
3155.54853	4135.675
3157.88318	4146.275
3160.21642	4157.275
3162.54826	4164.475
3164.87868	4153.875
3167.2077	4151.675
3169.5353	4160.875
3171.86151	4163.875
3174.18631	4157.875
3176.5097	4166.675
3178.83169	4160.475
3181.15228	4168.375
3183.47147	4171.175
3185.78926	4168.575
3188.10565	4176.275
3190.42065	4181.575
3192.73424	4191.275
3195.04645	4173.575
3197.35725	4185.375
3199.66667	4184.375
3201.97469	4197.775
3204.28132	4214.775
3206.58656	4208.275
3208.8904	4205.075
3211.19287	4221.975
3213.49394	4235.475
3215.79363	4222.775
3218.09193	4232.675
3220.38884	4238.775
3222.68438	4240.975
3224.97853	4237.775
3227.2713	4210.775
3229.56269	4229.575
3231.8527	4222.075
3234.14133	4208.775
