Data from AgNPs_FTO_APTES_UA_0.1mM_CRN_500uM_NaF_0.1M_Addition_RamanShift__30__15-09-27-793.txt Node

Date: Mon Dec 20 15:09:27 GMT 2021
User: TCL
Spectrometer: QEP01345
Trigger mode: 4
Integration Time (sec): 7.000000E0
Scans to average: 10
Electric dark correction enabled: true
Nonlinearity correction enabled: false
Boxcar width: 0
XAxis mode: Raman Shifts
Number of Pixels in Spectrum: 1044
>>>>>Begin Spectral Data<<<<<
46.04893	0.425
50.45542	1.425
54.85868	-1.175
59.25871	0.525
63.6555	20.325
68.04907	24.625
72.43941	28.925
76.82654	30.525
81.21044	29.525
85.59113	35.325
89.96862	32.825
94.34289	33.525
98.71396	37.125
103.08183	33.425
107.4465	35.825
111.80798	37.725
116.16626	36.225
120.52136	40.525
124.87327	41.225
129.222	35.725
133.56755	41.025
137.90993	43.025
142.24913	41.925
146.58517	41.525
150.91804	52.925
155.24774	55.925
159.57429	65.125
163.89768	81.525
168.21792	104.225
172.53501	125.225
176.84895	167.525
181.15975	227.825
185.46741	308.125
189.77193	422.625
194.07331	555.625
198.37157	716.125
202.6667	882.825
206.9587	1039.325
211.24758	1198.825
215.53334	1353.425
219.81599	1521.225
224.09553	1688.525
228.37195	1873.725
232.64527	2064.525
236.91549	2272.125
241.18261	2482.325
245.44663	2650.725
249.70755	2792.025
253.96539	2888.225
258.22014	2961.925
262.4718	2988.425
266.72039	2991.425
270.96589	2985.325
275.20832	2934.825
279.44768	2894.225
283.68397	2823.425
287.91719	2789.025
292.14735	2779.425
296.37445	2815.725
300.59849	2894.725
304.81948	2990.325
309.03742	3050.225
313.25231	3013.925
317.46415	2889.525
321.67296	2661.025
325.87872	2483.725
330.08145	2384.925
334.28114	2364.525
338.47781	2363.425
342.67145	2413.825
346.86207	2501.525
351.04966	2624.025
355.23424	2794.425
359.4158	2925.325
363.59435	3020.625
367.76989	3082.825
371.94243	3124.125
376.11196	3155.425
380.27849	3176.625
384.44203	3183.625
388.60257	3156.125
392.76012	3138.125
396.91468	3171.925
401.06626	3212.825
405.21485	3241.125
409.36047	3146.225
413.50311	2983.725
417.64277	2800.325
421.77947	2686.425
425.9132	2632.725
430.04396	2604.425
434.17176	2611.725
438.2966	2632.225
442.41849	2686.625
446.53742	2728.625
450.6534	2793.425
454.76644	2823.425
458.87653	2821.825
462.98368	2804.425
467.08789	2776.625
471.18916	2761.325
475.2875	2744.325
479.38291	2755.425
483.4754	2830.425
487.56496	2970.325
491.6516	3099.825
495.73531	3150.525
499.81612	3090.825
503.89401	2980.225
507.96899	2925.225
512.04106	2941.625
516.11023	3037.225
520.1765	3153.425
524.23987	3231.125
528.30034	3243.025
532.35792	3191.125
536.41261	3027.925
540.46441	2880.325
544.51333	2730.425
548.55936	2654.825
552.60252	2638.025
556.64279	2654.825
560.6802	2659.625
564.71473	2688.025
568.7464	2801.125
572.7752	2877.225
576.80114	2826.725
580.82422	2793.625
584.84444	2819.725
588.86181	2899.325
592.87633	2946.925
596.888	2946.525
600.89682	2989.125
604.9028	3253.425
608.90594	4028.325
612.90624	5149.525
616.90371	5313.925
620.89834	4463.025
624.89015	4303.525
628.87913	4708.525
632.86528	5138.725
636.84862	5317.525
640.82913	5098.925
644.80683	4547.225
648.78172	3945.825
652.75379	3555.225
656.72306	3355.425
660.68952	3293.025
664.65319	3152.025
668.61405	2979.125
672.57211	2887.525
676.52738	2890.425
680.47986	2901.525
684.42955	2883.825
688.37646	2855.425
692.32058	2833.725
696.26192	2802.525
700.20048	2788.825
704.13626	2774.825
708.06928	2730.825
711.99952	2690.825
715.927	2696.925
719.85171	2760.725
723.77365	2827.825
727.69284	2807.025
731.60928	2737.825
735.52295	2657.125
739.43388	2610.425
743.34206	2606.225
747.24749	2645.125
751.15017	2658.025
755.05012	2691.225
758.94733	2796.525
762.8418	3008.225
766.73354	3404.025
770.62254	3834.325
774.50882	4110.525
778.39237	4002.725
782.27321	3555.325
786.15132	3090.925
790.02671	2847.625
793.89938	2790.325
797.76935	2844.725
801.6366	3023.425
805.50115	3367.525
809.36299	3698.125
813.22213	3812.725
817.07857	3633.825
820.93231	3284.625
824.78336	2920.825
828.63172	2706.425
832.47738	2583.225
836.32036	2525.725
840.16066	2490.025
843.99827	2462.425
847.8332	2450.925
851.66546	2426.125
855.49504	2428.025
859.32195	2443.925
863.1462	2490.725
866.96777	2563.225
870.78668	2701.425
874.60293	2875.425
878.41652	3121.325
882.22745	3341.525
886.03573	3485.725
889.84136	3447.725
893.64433	3245.625
897.44466	2979.225
901.24235	2712.425
905.0374	2525.125
908.8298	2413.025
912.61957	2330.225
916.40671	2305.325
920.19121	2275.725
923.97308	2267.525
927.75233	2263.725
931.52895	2279.125
935.30295	2260.425
939.07433	2225.825
942.84309	2161.825
946.60924	2143.925
950.37278	2128.825
954.13371	2116.425
957.89203	2120.225
961.64774	2103.825
965.40086	2104.725
969.15137	2089.625
972.89929	2088.225
976.64461	2084.825
980.38733	2076.525
984.12747	2097.825
987.86502	2103.325
991.59999	2149.325
995.33237	2216.025
999.06217	2320.025
1002.78939	2445.225
1006.51404	2586.925
1010.23611	2746.025
1013.95561	2845.425
1017.67255	2847.425
1021.38692	2787.025
1025.09872	2661.625
1028.80796	2501.125
1032.51465	2384.925
1036.21877	2299.125
1039.92035	2271.525
1043.61937	2253.925
1047.31584	2256.625
1051.00976	2287.525
1054.70114	2321.925
1058.38998	2368.025
1062.07627	2432.625
1065.76003	2495.625
1069.44126	2544.325
1073.11995	2546.425
1076.79611	2528.325
1080.46974	2490.425
1084.14085	2481.125
1087.80943	2462.725
1091.47549	2435.925
1095.13903	2360.125
1098.80005	2287.125
1102.45857	2238.325
1106.11456	2253.025
1109.76805	2320.625
1113.41903	2430.325
1117.06751	2634.725
1120.71348	2925.725
1124.35696	3304.725
1127.99793	3795.225
1131.63641	4204.925
1135.2724	4376.225
1138.90589	4331.125
1142.5369	4083.725
1146.16542	3706.125
1149.79145	3281.125
1153.415	2915.925
1157.03607	2658.325
1160.65467	2526.425
1164.27079	2482.725
1167.88443	2506.625
1171.49561	2633.125
1175.10432	2901.825
1178.71056	3292.725
1182.31434	3681.925
1185.91565	3905.025
1189.51451	4020.925
1193.11091	4100.725
1196.70485	4237.625
1200.29634	4382.125
1203.88538	4425.625
1207.47197	4217.025
1211.05612	3880.825
1214.63782	3498.725
1218.21708	3138.725
1221.79391	2874.525
1225.36829	2674.425
1228.94024	2546.625
1232.50976	2462.125
1236.07685	2422.225
1239.6415	2434.925
1243.20374	2424.125
1246.76355	2463.325
1250.32093	2491.425
1253.8759	2513.225
1257.42845	2546.225
1260.97859	2581.425
1264.52631	2624.025
1268.07163	2669.325
1271.61453	2680.225
1275.15503	2690.425
1278.69312	2670.625
1282.22882	2654.725
1285.76211	2674.625
1289.29301	2733.625
1292.82151	2851.425
1296.34761	2946.125
1299.87133	3139.425
1303.39266	3449.725
1306.9116	3867.125
1310.42815	4319.825
1313.94233	4510.425
1317.45412	4401.325
1320.96354	4117.425
1324.47058	3871.125
1327.97525	3673.625
1331.47754	3578.525
1334.97747	3591.425
1338.47502	3679.025
1341.97022	3861.925
1345.46305	4103.425
1348.95352	4411.125
1352.44163	4819.025
1355.92738	5314.625
1359.41078	5953.525
1362.89183	6449.725
1366.37053	6205.025
1369.84688	5458.025
1373.32088	4721.625
1376.79254	4181.325
1380.26186	3819.125
1383.72883	3601.625
1387.19347	3457.025
1390.65578	3306.825
1394.11575	3189.525
1397.57339	3109.725
1401.0287	3046.025
1404.48168	2984.425
1407.93234	2903.925
1411.38068	2795.625
1414.82669	2689.625
1418.27039	2607.625
1421.71177	2512.425
1425.15083	2438.325
1428.58758	2375.625
1432.02203	2331.525
1435.45416	2323.025
1438.88399	2309.425
1442.31151	2290.725
1445.73673	2296.025
1449.15965	2310.425
1452.58027	2302.825
1455.9986	2280.425
1459.41463	2274.425
1462.82837	2297.625
1466.23982	2328.625
1469.64898	2378.525
1473.05586	2405.825
1476.46045	2440.825
1479.86276	2484.925
1483.26279	2576.625
1486.66054	2675.425
1490.05602	2807.125
1493.44922	2999.625
1496.84016	3261.025
1500.22882	3658.325
1503.61521	4181.425
1506.99934	4731.625
1510.38121	5111.125
1513.76081	5119.425
1517.13816	4693.925
1520.51324	4064.225
1523.88607	3512.225
1527.25665	3191.025
1530.62498	3046.325
1533.99105	3014.025
1537.35488	3017.625
1540.71647	3069.225
1544.07581	3146.625
1547.4329	3222.325
1550.78776	3259.825
1554.14038	3276.425
1557.49077	3297.325
1560.83892	3299.225
1564.18484	3348.325
1567.52853	3447.525
1570.86999	3533.925
1574.20922	3618.625
1577.54624	3628.125
1580.88103	3479.925
1584.2136	3280.025
1587.54395	3149.425
1590.87208	3117.925
1594.19801	3222.825
1597.52172	3350.925
1600.84321	3435.825
1604.16251	3406.225
1607.47959	3310.625
1610.79447	3212.025
1614.10715	3116.225
1617.41763	3033.025
1620.7259	2990.825
1624.03199	2977.525
1627.33587	3004.625
1630.63757	3042.225
1633.93707	3152.725
1637.23439	3348.525
1640.52951	3623.725
1643.82246	4017.325
1647.11321	4481.025
1650.40179	4860.425
1653.68819	4888.125
1656.97241	4520.425
1660.25446	4014.825
1663.53433	3591.825
1666.81203	3264.325
1670.08756	3008.725
1673.36092	2821.325
1676.63211	2658.725
1679.90115	2550.725
1683.16801	2442.125
1686.43272	2363.825
1689.69527	2295.925
1692.95567	2228.425
1696.2139	2182.725
1699.46999	2123.525
1702.72392	2055.325
1705.97571	1980.325
1709.22535	1905.625
1712.47284	1881.725
1715.71819	1832.225
1718.96139	1802.525
1722.20246	1779.625
1725.44139	1746.925
1728.67818	1714.525
1731.91284	1682.225
1735.14537	1648.925
1738.37576	1616.225
1741.60403	1614.125
1744.83017	1594.625
1748.05418	1590.625
1751.27607	1562.925
1754.49584	1564.225
1757.71349	1560.525
1760.92903	1537.925
1764.14244	1528.025
1767.35375	1501.125
1770.56294	1498.725
1773.77002	1464.725
1776.97499	1446.925
1780.17785	1421.325
1783.37861	1407.125
1786.57727	1398.325
1789.77382	1375.525
1792.96828	1376.325
1796.16064	1366.725
1799.3509	1366.125
1802.53907	1352.325
1805.72514	1347.425
1808.90913	1341.125
1812.09102	1329.225
1815.27083	1321.225
1818.44856	1319.625
1821.6242	1305.625
1824.79776	1305.625
1827.96924	1310.025
1831.13864	1293.725
1834.30597	1294.125
1837.47122	1288.725
1840.6344	1284.625
1843.7955	1285.625
1846.95454	1279.025
1850.11151	1285.125
1853.26642	1269.825
1856.41926	1269.125
1859.57004	1269.725
1862.71876	1270.525
1865.86542	1265.125
1869.01003	1268.825
1872.15258	1255.225
1875.29308	1252.825
1878.43152	1253.825
1881.56792	1235.825
1884.70227	1244.625
1887.83457	1237.725
1890.96482	1229.325
1894.09304	1235.425
1897.21921	1228.425
1900.34335	1227.825
1903.46544	1228.225
1906.58551	1229.025
1909.70353	1225.825
1912.81953	1219.625
1915.93349	1207.125
1919.04543	1207.725
1922.15534	1197.325
1925.26322	1200.525
1928.36908	1199.725
1931.47292	1197.525
1934.57473	1188.625
1937.67453	1180.525
1940.77232	1170.825
1943.86808	1188.125
1946.96184	1179.325
1950.05358	1159.625
1953.14331	1165.525
1956.23103	1159.525
1959.31675	1157.925
1962.40046	1151.825
1965.48217	1149.025
1968.56188	1152.425
1971.63959	1139.825
1974.7153	1134.125
1977.78901	1128.725
1980.86073	1133.625
1983.93046	1116.225
1986.99819	1120.925
1990.06394	1108.825
1993.1277	1108.125
1996.18947	1104.725
1999.24925	1105.425
2002.30706	1105.425
2005.36288	1090.325
2008.41672	1089.925
2011.46859	1095.625
2014.51848	1078.525
2017.56639	1077.325
2020.61233	1070.125
2023.6563	1069.425
2026.6983	1065.925
2029.73833	1063.625
2032.7764	1068.225
2035.8125	1060.825
2038.84664	1054.725
2041.87881	1053.825
2044.90903	1059.125
2047.93729	1058.625
2050.96359	1054.325
2053.98794	1049.525
2057.01034	1041.425
2060.03078	1050.625
2063.04927	1046.125
2066.06582	1044.025
2069.08042	1039.725
2072.09307	1036.825
2075.10378	1040.025
2078.11255	1033.525
2081.11938	1033.225
2084.12426	1026.325
2087.12722	1035.625
2090.12824	1036.025
2093.12732	1027.425
2096.12447	1033.025
2099.11969	1024.825
2102.11299	1021.325
2105.10435	1032.625
2108.09379	1022.425
2111.08131	1013.925
2114.0669	1017.125
2117.05057	1023.925
2120.03233	1026.025
2123.01216	1025.325
2125.99008	1029.425
2128.96609	1027.325
2131.94018	1028.125
2134.91236	1033.825
2137.88263	1027.125
2140.851	1020.025
2143.81746	1034.225
2146.78201	1026.625
2149.74466	1021.225
2152.7054	1020.425
2155.66425	1021.025
2158.6212	1017.025
2161.57625	1017.725
2164.52941	1014.425
2167.48067	1012.325
2170.43004	1005.925
2173.37752	1009.025
2176.32311	1008.225
2179.26681	1002.625
2182.20863	1004.225
2185.14856	1002.225
2188.08661	998.825
2191.02278	1000.425
2193.95707	999.225
2196.88948	1001.125
2199.82001	994.025
2202.74867	983.625
2205.67545	985.525
2208.60037	986.325
2211.52341	983.025
2214.44458	976.725
2217.36388	980.925
2220.28132	982.525
2223.1969	973.425
2226.11061	976.425
2229.02246	971.525
2231.93245	964.925
2234.84058	967.425
2237.74686	960.025
2240.65128	966.525
2243.55385	964.625
2246.45456	954.025
2249.35343	958.325
2252.25044	957.925
2255.14561	954.925
2258.03893	963.425
2260.93041	964.925
2263.82004	960.325
2266.70783	946.725
2269.59378	953.925
2272.4779	943.725
2275.36017	941.025
2278.24061	938.725
2281.11922	942.025
2283.996	933.925
2286.87094	933.725
2289.74405	922.725
2292.61534	918.025
2295.4848	910.225
2298.35243	916.625
2301.21824	908.125
2304.08223	914.425
2306.94439	911.225
2309.80474	911.025
2312.66327	909.325
2315.51999	913.025
2318.37489	909.625
2321.22797	905.225
2324.07925	904.325
2326.92871	903.225
2329.77637	905.225
2332.62222	901.425
2335.46626	895.625
2338.3085	896.325
2341.14893	886.625
2343.98756	889.525
2346.8244	887.925
2349.65943	880.425
2352.49267	894.325
2355.32411	886.925
2358.15376	897.325
2360.98161	889.425
2363.80768	892.225
2366.63195	895.225
2369.45444	900.825
2372.27514	899.025
2375.09405	900.825
2377.91118	902.725
2380.72652	895.025
2383.54009	891.225
2386.35187	898.025
2389.16188	892.925
2391.97011	883.225
2394.77657	886.425
2397.58125	875.925
2400.38416	867.825
2403.18529	872.925
2405.98466	876.725
2408.78226	869.425
2411.57809	865.025
2414.37216	858.625
2417.16446	857.625
2419.955	852.425
2422.74378	857.725
2425.5308	845.225
2428.31606	845.325
2431.09956	840.025
2433.88131	849.825
2436.6613	844.225
2439.43954	839.525
2442.21603	835.325
2444.99077	841.525
2447.76377	832.025
2450.53501	840.725
2453.30451	843.925
2456.07226	838.225
2458.83827	830.925
2461.60254	839.325
2464.36507	827.825
2467.12586	830.925
2469.88492	826.725
2472.64224	832.825
2475.39782	835.325
2478.15167	838.825
2480.90379	834.525
2483.65417	833.525
2486.40283	829.725
2489.14976	837.525
2491.89497	834.725
2494.63845	846.625
2497.3802	837.825
2500.12024	839.125
2502.85855	836.625
2505.59514	830.325
2508.33002	821.025
2511.06318	824.425
2513.79462	819.925
2516.52435	808.325
2519.25237	799.125
2521.97867	798.025
2524.70327	806.125
2527.42616	801.725
2530.14734	798.125
2532.86681	793.825
2535.58458	784.925
2538.30065	791.925
2541.01501	792.325
2543.72768	787.725
2546.43864	784.525
2549.14791	784.725
2551.85548	789.025
2554.56136	785.425
2557.26554	775.925
2559.96803	773.725
2562.66883	785.525
2565.36794	773.725
2568.06536	775.425
2570.7611	778.325
2573.45514	769.625
2576.14751	773.125
2578.83819	769.025
2581.52719	770.025
2584.21451	763.625
2586.90015	767.625
2589.58411	759.625
2592.2664	762.525
2594.94701	758.025
2597.62594	754.725
2600.30321	751.125
2602.9788	758.325
2605.65273	755.725
2608.32498	742.925
2610.99557	742.825
2613.66449	743.425
2616.33175	751.425
2618.99734	747.425
2621.66128	746.125
2624.32355	741.925
2626.98416	745.025
2629.64311	739.625
2632.30041	733.325
2634.95605	740.925
2637.61004	728.125
2640.26238	735.425
2642.91306	728.025
2645.56209	734.325
2648.20948	736.825
2650.85521	733.625
2653.4993	731.225
2656.14175	730.225
2658.78255	733.325
2661.42171	729.025
2664.05923	726.025
2666.6951	730.225
2669.32934	731.825
2671.96194	738.325
2674.59291	731.625
2677.22224	734.925
2679.84993	738.225
2682.476	739.625
2685.10043	733.325
2687.72324	736.925
2690.34441	731.925
2692.96396	735.525
2695.58188	737.425
2698.19818	739.425
2700.81285	743.625
2703.4259	760.825
2706.03733	790.225
2708.64714	772.325
2711.25533	754.325
2713.86191	752.925
2716.46687	751.725
2719.07021	755.625
2721.67194	751.325
2724.27206	750.125
2726.87057	753.625
2729.46747	749.825
2732.06276	748.925
2734.65644	742.925
2737.24852	744.125
2739.83899	736.925
2742.42786	735.525
2745.01513	730.925
2747.60079	730.825
2750.18486	733.825
2752.76733	730.625
2755.3482	733.025
2757.92747	729.325
2760.50515	734.325
2763.08123	731.125
2765.65573	728.525
2768.22863	733.225
2770.79994	724.425
2773.36967	731.925
2775.9378	728.725
2778.50435	724.625
2781.06932	726.525
2783.6327	732.125
2786.1945	730.125
2788.75471	734.925
2791.31335	730.425
2793.87041	732.125
2796.42589	727.825
2798.97979	728.025
2801.53212	727.025
2804.08288	732.525
2806.63206	727.125
2809.17967	724.125
2811.72571	729.625
2814.27018	736.125
2816.81308	731.525
2819.35442	724.725
2821.89419	730.225
2824.43239	739.425
2826.96904	734.225
2829.50412	737.825
2832.03763	738.425
2834.56959	738.525
2837.1	742.725
2839.62884	746.225
2842.15613	744.725
2844.68186	750.625
2847.20604	755.725
2849.72867	757.525
2852.24974	758.325
2854.76927	766.925
2857.28724	783.725
2859.80367	768.625
2862.31855	770.825
2864.83189	772.625
2867.34368	767.825
2869.85393	768.325
2872.36264	773.325
2874.8698	775.725
2877.37543	775.825
2879.87952	773.525
2882.38207	777.925
2884.88308	771.725
2887.38256	780.225
2889.88051	782.325
2892.37692	785.725
2894.8718	781.125
2897.36515	790.125
2899.85698	792.725
2902.34727	801.325
2904.83604	794.225
2907.32328	803.925
2909.809	800.825
2912.29319	798.525
2914.77587	807.025
2917.25702	804.725
2919.73665	807.625
2922.21476	807.925
2924.69136	803.625
2927.16644	807.025
2929.64	803.725
2932.11205	804.325
2934.58258	801.225
2937.05161	799.725
2939.51912	797.425
2941.98513	795.625
2944.44962	794.325
2946.91261	791.325
2949.37409	792.625
2951.83407	789.525
2954.29254	789.825
2956.74951	785.725
2959.20498	777.725
2961.65895	774.025
2964.11142	773.525
2966.56239	774.225
2969.01186	770.025
2971.45984	760.725
2973.90632	758.625
2976.35131	758.525
2978.7948	760.725
2981.23681	751.325
2983.67732	752.625
2986.11635	754.925
2988.55388	749.625
2990.98993	753.125
2993.4245	753.825
2995.85758	748.725
2998.28917	757.525
3000.71928	755.925
3003.14791	751.725
3005.57506	759.925
3008.00073	762.625
3010.42493	758.425
3012.84764	765.325
3015.26888	772.525
3017.68865	768.525
3020.10694	763.725
3022.52376	770.225
3024.9391	769.825
3027.35298	766.225
3029.76539	768.325
3032.17632	776.325
3034.5858	773.025
3036.9938	776.825
3039.40034	785.725
3041.80542	782.325
3044.20903	781.725
3046.61118	790.425
3049.01187	787.725
3051.4111	799.225
3053.80888	795.025
3056.20519	799.325
3058.60005	800.025
3060.99345	806.025
3063.3854	807.625
3065.7759	809.125
3068.16494	814.025
3070.55254	808.025
3072.93868	812.125
3075.32338	823.325
3077.70662	825.125
3080.08842	839.225
3082.46878	832.125
3084.84769	836.625
3087.22515	836.525
3089.60118	849.325
3091.97576	856.425
3094.3489	851.825
3096.72061	862.525
3099.09087	870.825
3101.4597	870.225
3103.82709	873.525
3106.19305	880.025
3108.55757	896.125
3110.92066	892.225
3113.28232	895.725
3115.64255	896.625
3118.00134	914.925
3120.35871	914.525
3122.71466	926.425
3125.06917	926.725
3127.42226	925.525
3129.77393	939.725
3132.12417	948.025
3134.47299	953.025
3136.82039	967.825
3139.16636	972.625
3141.51092	982.425
3143.85406	993.125
3146.19579	990.425
3148.53609	1001.525
3150.87499	1009.725
3153.21246	1020.125
3155.54853	1026.525
3157.88318	1037.525
3160.21642	1043.825
3162.54826	1057.325
3164.87868	1065.725
3167.2077	1072.825
3169.5353	1079.025
3171.86151	1084.825
3174.18631	1089.725
3176.5097	1094.825
3178.83169	1109.125
3181.15228	1110.225
3183.47147	1119.925
3185.78926	1124.725
3188.10565	1136.825
3190.42065	1137.625
3192.73424	1147.025
3195.04645	1160.225
3197.35725	1155.525
3199.66667	1165.225
3201.97469	1171.825
3204.28132	1188.525
3206.58656	1182.725
3208.8904	1189.425
3211.19287	1204.125
3213.49394	1209.325
3215.79363	1211.325
3218.09193	1213.525
3220.38884	1232.425
3222.68438	1240.025
3224.97853	1232.125
3227.2713	1236.725
3229.56269	1239.125
3231.8527	1241.025
3234.14133	1231.025
3236.42858	1239.125
3238.71446	1239.425
3240.99896	1237.025
3243.28209	1240.325
3245.56384	1241.325
3247.84423	1251.125
3250.12324	1251.125
3252.40088	1244.025
3254.67715	1247.925
3256.95205	1252.225
3259.22558	1255.625
3261.49775	1243.125
3263.76855	1260.325
3266.03799	1246.725
3268.30606	1248.425
3270.57277	1251.425
3272.83812	1257.225
3275.10211	1257.125
3277.36474	1253.525
3279.62601	1252.025
