Data from AgNPs_FTO_APTES_UA_0.1mM_CRN_500uM_NaF_0.1M_Addition_RamanShift__12__14-48-27-769.txt Node

Date: Mon Dec 20 14:48:27 GMT 2021
User: TCL
Spectrometer: QEP01345
Trigger mode: 4
Integration Time (sec): 7.000000E0
Scans to average: 10
Electric dark correction enabled: true
Nonlinearity correction enabled: false
Boxcar width: 0
XAxis mode: Raman Shifts
Number of Pixels in Spectrum: 1044
>>>>>Begin Spectral Data<<<<<
46.04893	0.25
50.45542	-0.45
54.85868	-1.35
59.25871	1.15
63.6555	23.35
68.04907	23.95
72.43941	28.95
76.82654	29.85
81.21044	28.15
85.59113	34.15
89.96862	27.95
94.34289	31.15
98.71396	33.55
103.08183	31.55
107.4465	34.65
111.80798	38.55
116.16626	34.95
120.52136	39.45
124.87327	38.35
129.222	37.15
133.56755	36.25
137.90993	42.75
142.24913	44.05
146.58517	42.35
150.91804	49.45
155.24774	56.05
159.57429	62.75
163.89768	81.35
168.21792	102.65
172.53501	130.95
176.84895	183.95
181.15975	250.75
185.46741	345.65
189.77193	482.95
194.07331	641.55
198.37157	829.65
202.6667	1030.85
206.9587	1233.25
211.24758	1427.75
215.53334	1630.65
219.81599	1844.15
224.09553	2075.95
228.37195	2322.15
232.64527	2612.35
236.91549	2916.75
241.18261	3217.85
245.44663	3517.55
249.70755	3748.35
253.96539	3930.75
258.22014	4024.75
262.4718	4036.75
266.72039	3977.95
270.96589	3849.25
275.20832	3700.95
279.44768	3511.15
283.68397	3339.95
287.91719	3182.55
292.14735	3049.95
296.37445	2928.05
300.59849	2867.65
304.81948	2803.15
309.03742	2755.05
313.25231	2713.25
317.46415	2682.75
321.67296	2652.15
325.87872	2629.45
330.08145	2605.95
334.28114	2583.45
338.47781	2589.45
342.67145	2581.35
346.86207	2581.95
351.04966	2573.95
355.23424	2611.65
359.4158	2631.25
363.59435	2649.25
367.76989	2660.05
371.94243	2672.75
376.11196	2693.25
380.27849	2718.85
384.44203	2748.55
388.60257	2812.65
392.76012	2850.45
396.91468	2927.65
401.06626	3010.05
405.21485	3087.45
409.36047	3127.75
413.50311	3143.95
417.64277	3107.25
421.77947	3078.75
425.9132	3057.95
430.04396	3032.25
434.17176	3018.55
438.2966	2996.55
442.41849	2973.65
446.53742	2966.55
450.6534	2974.75
454.76644	2979.65
458.87653	2992.05
462.98368	2991.75
467.08789	2993.15
471.18916	3006.45
475.2875	3034.75
479.38291	3068.95
483.4754	3117.95
487.56496	3186.75
491.6516	3237.05
495.73531	3293.15
499.81612	3311.45
503.89401	3334.85
507.96899	3342.05
512.04106	3310.35
516.11023	3253.45
520.1765	3196.35
524.23987	3137.75
528.30034	3080.45
532.35792	3057.05
536.41261	3018.75
540.46441	3000.05
544.51333	2989.35
548.55936	2967.95
552.60252	2965.45
556.64279	2990.45
560.6802	2988.15
564.71473	2996.75
568.7464	3013.65
572.7752	3027.85
576.80114	3042.75
580.82422	3052.75
584.84444	3077.35
588.86181	3132.85
592.87633	3152.55
596.888	3161.55
600.89682	3187.65
604.9028	3242.05
608.90594	3331.85
612.90624	3454.15
616.90371	3443.75
620.89834	3344.25
624.89015	3298.05
628.87913	3337.25
632.86528	3398.75
636.84862	3452.45
640.82913	3488.75
644.80683	3503.25
648.78172	3458.45
652.75379	3454.25
656.72306	3434.35
660.68952	3432.65
664.65319	3450.55
668.61405	3505.55
672.57211	3585.75
676.52738	3615.25
680.47986	3667.35
684.42955	3682.75
688.37646	3711.65
692.32058	3707.65
696.26192	3652.35
700.20048	3582.65
704.13626	3484.85
708.06928	3364.45
711.99952	3261.05
715.927	3172.55
719.85171	3138.25
723.77365	3094.45
727.69284	3090.85
731.60928	3082.75
735.52295	3056.65
739.43388	3094.85
743.34206	3122.85
747.24749	3147.65
751.15017	3181.95
755.05012	3233.75
758.94733	3270.05
762.8418	3277.95
766.73354	3311.95
770.62254	3310.55
774.50882	3292.95
778.39237	3242.95
782.27321	3187.35
786.15132	3121.95
790.02671	3068.65
793.89938	3053.35
797.76935	3059.85
801.6366	3103.05
805.50115	3146.65
809.36299	3194.25
813.22213	3201.95
817.07857	3161.25
820.93231	3089.35
824.78336	3013.85
828.63172	2936.25
832.47738	2898.95
836.32036	2875.15
840.16066	2867.35
843.99827	2875.85
847.8332	2869.55
851.66546	2865.45
855.49504	2878.75
859.32195	2871.15
863.1462	2863.25
866.96777	2861.75
870.78668	2870.25
874.60293	2873.85
878.41652	2901.25
882.22745	2930.65
886.03573	2943.95
889.84136	2968.45
893.64433	2964.25
897.44466	2955.85
901.24235	2953.25
905.0374	2924.85
908.8298	2906.05
912.61957	2890.65
916.40671	2865.05
920.19121	2848.15
923.97308	2847.05
927.75233	2824.35
931.52895	2817.15
935.30295	2803.55
939.07433	2788.75
942.84309	2773.55
946.60924	2775.25
950.37278	2752.05
954.13371	2757.65
957.89203	2751.25
961.64774	2755.75
965.40086	2750.65
969.15137	2745.55
972.89929	2726.35
976.64461	2735.15
980.38733	2733.15
984.12747	2733.55
987.86502	2740.25
991.59999	2733.35
995.33237	2738.65
999.06217	2741.85
1002.78939	2760.45
1006.51404	2756.65
1010.23611	2766.65
1013.95561	2783.35
1017.67255	2801.15
1021.38692	2804.05
1025.09872	2804.45
1028.80796	2803.15
1032.51465	2805.15
1036.21877	2794.05
1039.92035	2791.15
1043.61937	2801.95
1047.31584	2805.35
1051.00976	2817.75
1054.70114	2813.05
1058.38998	2815.95
1062.07627	2838.15
1065.76003	2818.15
1069.44126	2829.55
1073.11995	2816.25
1076.79611	2810.45
1080.46974	2798.75
1084.14085	2792.85
1087.80943	2764.55
1091.47549	2761.95
1095.13903	2739.65
1098.80005	2741.05
1102.45857	2732.25
1106.11456	2741.55
1109.76805	2760.15
1113.41903	2781.65
1117.06751	2836.35
1120.71348	2906.25
1124.35696	2985.25
1127.99793	3073.25
1131.63641	3159.15
1135.2724	3212.35
1138.90589	3232.45
1142.5369	3217.15
1146.16542	3175.35
1149.79145	3101.45
1153.415	3030.95
1157.03607	2935.35
1160.65467	2893.15
1164.27079	2847.95
1167.88443	2831.25
1171.49561	2821.25
1175.10432	2837.35
1178.71056	2876.75
1182.31434	2912.95
1185.91565	2955.45
1189.51451	2965.55
1193.11091	2963.75
1196.70485	2975.05
1200.29634	2975.25
1203.88538	3002.85
1207.47197	2994.95
1211.05612	3006.45
1214.63782	3020.05
1218.21708	3050.45
1221.79391	3043.05
1225.36829	3055.15
1228.94024	3037.95
1232.50976	2999.85
1236.07685	2974.65
1239.6415	2954.05
1243.20374	2950.45
1246.76355	2963.55
1250.32093	2979.45
1253.8759	3001.75
1257.42845	3029.85
1260.97859	3055.65
1264.52631	3059.45
1268.07163	3069.55
1271.61453	3048.15
1275.15503	3026.25
1278.69312	2995.25
1282.22882	2988.05
1285.76211	2973.45
1289.29301	2976.45
1292.82151	2986.25
1296.34761	3011.95
1299.87133	3044.85
1303.39266	3107.85
1306.9116	3160.55
1310.42815	3207.15
1313.94233	3274.75
1317.45412	3287.15
1320.96354	3305.15
1324.47058	3316.55
1327.97525	3320.55
1331.47754	3325.25
1334.97747	3361.95
1338.47502	3356.25
1341.97022	3408.15
1345.46305	3449.35
1348.95352	3473.15
1352.44163	3548.25
1355.92738	3577.25
1359.41078	3646.85
1362.89183	3700.15
1366.37053	3686.65
1369.84688	3633.45
1373.32088	3518.25
1376.79254	3421.55
1380.26186	3366.45
1383.72883	3310.15
1387.19347	3282.05
1390.65578	3233.35
1394.11575	3197.05
1397.57339	3161.75
1401.0287	3138.45
1404.48168	3105.05
1407.93234	3068.85
1411.38068	3046.35
1414.82669	3011.75
1418.27039	2989.15
1421.71177	2943.25
1425.15083	2903.15
1428.58758	2856.35
1432.02203	2829.65
1435.45416	2804.45
1438.88399	2773.85
1442.31151	2751.85
1445.73673	2737.25
1449.15965	2735.45
1452.58027	2722.55
1455.9986	2719.65
1459.41463	2729.85
1462.82837	2734.05
1466.23982	2749.25
1469.64898	2785.75
1473.05586	2804.05
1476.46045	2810.05
1479.86276	2825.65
1483.26279	2841.35
1486.66054	2847.45
1490.05602	2850.75
1493.44922	2864.45
1496.84016	2885.35
1500.22882	2931.25
1503.61521	2985.15
1506.99934	3040.95
1510.38121	3081.35
1513.76081	3098.45
1517.13816	3065.05
1520.51324	3037.25
1523.88607	2985.85
1527.25665	2967.45
1530.62498	2973.05
1533.99105	2988.75
1537.35488	3011.45
1540.71647	3037.45
1544.07581	3095.75
1547.4329	3132.65
1550.78776	3169.75
1554.14038	3200.75
1557.49077	3262.35
1560.83892	3280.25
1564.18484	3309.05
1567.52853	3317.95
1570.86999	3330.55
1574.20922	3354.65
1577.54624	3372.35
1580.88103	3370.65
1584.2136	3350.85
1587.54395	3338.25
1590.87208	3339.95
1594.19801	3343.65
1597.52172	3353.25
1600.84321	3343.15
1604.16251	3319.35
1607.47959	3296.05
1610.79447	3267.25
1614.10715	3225.65
1617.41763	3204.55
1620.7259	3152.15
1624.03199	3132.95
1627.33587	3126.25
1630.63757	3123.25
1633.93707	3116.85
1637.23439	3142.65
1640.52951	3164.05
1643.82246	3215.35
1647.11321	3260.15
1650.40179	3292.95
1653.68819	3288.65
1656.97241	3253.95
1660.25446	3171.95
1663.53433	3129.75
1666.81203	3074.05
1670.08756	3026.05
1673.36092	3007.25
1676.63211	2975.65
1679.90115	2924.95
1683.16801	2882.75
1686.43272	2816.65
1689.69527	2771.95
1692.95567	2702.35
1696.2139	2660.85
1699.46999	2609.45
1702.72392	2570.35
1705.97571	2519.75
1709.22535	2475.25
1712.47284	2444.25
1715.71819	2408.85
1718.96139	2387.45
1722.20246	2351.95
1725.44139	2322.65
1728.67818	2282.45
1731.91284	2260.65
1735.14537	2232.65
1738.37576	2206.65
1741.60403	2190.35
1744.83017	2186.85
1748.05418	2168.35
1751.27607	2167.45
1754.49584	2174.45
1757.71349	2182.75
1760.92903	2169.75
1764.14244	2157.25
1767.35375	2147.65
1770.56294	2135.25
1773.77002	2086.25
1776.97499	2053.95
1780.17785	2018.05
1783.37861	1990.45
1786.57727	1970.35
1789.77382	1934.05
1792.96828	1936.75
1796.16064	1903.15
1799.3509	1893.55
1802.53907	1864.05
1805.72514	1858.25
1808.90913	1847.25
1812.09102	1835.65
1815.27083	1821.65
1818.44856	1818.85
1821.6242	1809.25
1824.79776	1792.35
1827.96924	1789.05
1831.13864	1779.25
1834.30597	1782.25
1837.47122	1766.85
1840.6344	1769.45
1843.7955	1757.65
1846.95454	1751.45
1850.11151	1747.75
1853.26642	1748.55
1856.41926	1741.05
1859.57004	1733.45
1862.71876	1735.85
1865.86542	1723.45
1869.01003	1716.55
1872.15258	1724.15
1875.29308	1711.15
1878.43152	1711.15
1881.56792	1706.65
1884.70227	1697.65
1887.83457	1689.85
1890.96482	1695.45
1894.09304	1689.35
1897.21921	1693.55
1900.34335	1677.95
1903.46544	1668.65
1906.58551	1677.65
1909.70353	1664.95
1912.81953	1663.75
1915.93349	1649.65
1919.04543	1653.45
1922.15534	1641.45
1925.26322	1641.25
1928.36908	1641.25
1931.47292	1626.65
1934.57473	1627.75
1937.67453	1620.55
1940.77232	1615.95
1943.86808	1606.15
1946.96184	1610.75
1950.05358	1597.45
1953.14331	1592.15
1956.23103	1580.25
1959.31675	1588.55
1962.40046	1572.25
1965.48217	1572.35
1968.56188	1562.05
1971.63959	1546.15
1974.7153	1539.05
1977.78901	1540.45
1980.86073	1535.05
1983.93046	1531.45
1986.99819	1526.65
1990.06394	1516.95
1993.1277	1518.15
1996.18947	1504.95
1999.24925	1510.55
2002.30706	1494.35
2005.36288	1492.55
2008.41672	1491.95
2011.46859	1487.65
2014.51848	1469.85
2017.56639	1467.45
2020.61233	1461.05
2023.6563	1457.25
2026.6983	1456.45
2029.73833	1444.35
2032.7764	1440.15
2035.8125	1443.55
2038.84664	1433.55
2041.87881	1429.95
2044.90903	1420.15
2047.93729	1424.75
2050.96359	1417.05
2053.98794	1408.55
2057.01034	1413.05
2060.03078	1413.45
2063.04927	1405.55
2066.06582	1409.15
2069.08042	1395.45
2072.09307	1397.85
2075.10378	1396.15
2078.11255	1398.45
2081.11938	1394.55
2084.12426	1393.85
2087.12722	1391.05
2090.12824	1394.85
2093.12732	1393.75
2096.12447	1393.55
2099.11969	1387.45
2102.11299	1393.55
2105.10435	1390.05
2108.09379	1383.25
2111.08131	1386.95
2114.0669	1383.55
2117.05057	1384.75
2120.03233	1392.95
2123.01216	1390.95
2125.99008	1387.05
2128.96609	1384.65
2131.94018	1389.55
2134.91236	1391.45
2137.88263	1390.15
2140.851	1388.25
2143.81746	1392.35
2146.78201	1380.95
2149.74466	1385.95
2152.7054	1378.05
2155.66425	1377.55
2158.6212	1386.85
2161.57625	1379.25
2164.52941	1374.65
2167.48067	1365.65
2170.43004	1365.85
2173.37752	1359.45
2176.32311	1356.85
2179.26681	1366.75
2182.20863	1361.95
2185.14856	1362.75
2188.08661	1361.05
2191.02278	1349.15
2193.95707	1350.25
2196.88948	1349.45
2199.82001	1355.65
2202.74867	1335.15
2205.67545	1331.95
2208.60037	1337.25
2211.52341	1336.35
2214.44458	1326.45
2217.36388	1329.75
2220.28132	1331.65
2223.1969	1311.55
2226.11061	1310.95
2229.02246	1304.75
2231.93245	1316.15
2234.84058	1298.35
2237.74686	1304.55
2240.65128	1293.35
2243.55385	1298.95
2246.45456	1290.65
2249.35343	1298.95
2252.25044	1282.25
2255.14561	1285.15
2258.03893	1285.35
2260.93041	1284.35
2263.82004	1267.05
2266.70783	1274.85
2269.59378	1259.35
2272.4779	1251.55
2275.36017	1255.05
2278.24061	1254.95
2281.11922	1247.15
2283.996	1238.15
2286.87094	1244.55
2289.74405	1238.05
2292.61534	1235.45
2295.4848	1228.85
2298.35243	1231.15
2301.21824	1228.95
2304.08223	1224.55
2306.94439	1229.95
2309.80474	1222.95
2312.66327	1215.25
2315.51999	1212.25
2318.37489	1216.05
2321.22797	1210.45
2324.07925	1199.85
2326.92871	1207.75
2329.77637	1206.35
2332.62222	1200.35
2335.46626	1194.95
2338.3085	1189.05
2341.14893	1189.55
2343.98756	1185.65
2346.8244	1185.55
2349.65943	1171.55
2352.49267	1184.05
2355.32411	1178.35
2358.15376	1177.35
2360.98161	1180.55
2363.80768	1165.05
2366.63195	1169.75
2369.45444	1162.85
2372.27514	1160.85
2375.09405	1162.85
2377.91118	1157.65
2380.72652	1162.65
2383.54009	1147.45
2386.35187	1163.05
2389.16188	1149.35
2391.97011	1146.05
2394.77657	1142.05
2397.58125	1141.35
2400.38416	1136.15
2403.18529	1132.55
2405.98466	1129.35
2408.78226	1125.15
2411.57809	1125.75
2414.37216	1116.05
2417.16446	1117.55
2419.955	1112.25
2422.74378	1118.15
2425.5308	1109.35
2428.31606	1119.95
2431.09956	1112.15
2433.88131	1115.15
2436.6613	1097.55
2439.43954	1107.55
2442.21603	1097.95
2444.99077	1098.55
2447.76377	1091.55
2450.53501	1089.75
2453.30451	1101.25
2456.07226	1090.65
2458.83827	1086.95
2461.60254	1081.05
2464.36507	1082.75
2467.12586	1077.45
2469.88492	1092.15
2472.64224	1083.15
2475.39782	1081.95
2478.15167	1078.75
2480.90379	1079.45
2483.65417	1072.45
2486.40283	1070.85
2489.14976	1072.55
2491.89497	1068.85
2494.63845	1068.75
2497.3802	1067.05
2500.12024	1064.85
2502.85855	1063.55
2505.59514	1059.35
2508.33002	1060.75
2511.06318	1050.55
2513.79462	1047.55
2516.52435	1049.05
2519.25237	1047.55
2521.97867	1035.55
2524.70327	1040.95
2527.42616	1043.35
2530.14734	1043.85
2532.86681	1033.85
2535.58458	1034.35
2538.30065	1031.65
2541.01501	1028.75
2543.72768	1024.05
2546.43864	1025.15
2549.14791	1018.95
2551.85548	1019.65
2554.56136	1012.95
2557.26554	1007.25
2559.96803	1009.35
2562.66883	1007.55
2565.36794	1001.35
2568.06536	1001.35
2570.7611	993.45
2573.45514	994.65
2576.14751	993.05
2578.83819	992.85
2581.52719	990.05
2584.21451	987.05
2586.90015	984.95
2589.58411	988.75
2592.2664	983.15
2594.94701	973.05
2597.62594	985.85
2600.30321	975.05
2602.9788	972.65
2605.65273	970.25
2608.32498	970.25
2610.99557	962.25
2613.66449	963.65
2616.33175	958.65
2618.99734	969.05
2621.66128	958.25
2624.32355	965.95
2626.98416	957.35
2629.64311	953.65
2632.30041	959.25
2634.95605	947.35
2637.61004	950.45
2640.26238	950.65
2642.91306	944.15
2645.56209	944.15
2648.20948	941.55
2650.85521	941.75
2653.4993	942.25
2656.14175	938.85
2658.78255	937.05
2661.42171	929.85
2664.05923	941.45
2666.6951	936.35
2669.32934	934.75
2671.96194	926.95
2674.59291	933.95
2677.22224	935.25
2679.84993	930.55
2682.476	930.65
2685.10043	936.15
2687.72324	936.35
2690.34441	935.15
2692.96396	928.95
2695.58188	934.25
2698.19818	926.35
2700.81285	926.05
2703.4259	944.55
2706.03733	952.45
2708.64714	939.75
2711.25533	933.75
2713.86191	931.25
2716.46687	940.45
2719.07021	929.45
2721.67194	929.45
2724.27206	925.45
2726.87057	928.25
2729.46747	924.25
2732.06276	924.05
2734.65644	922.75
2737.24852	913.55
2739.83899	924.05
2742.42786	918.75
2745.01513	905.15
2747.60079	914.35
2750.18486	912.75
2752.76733	905.45
2755.3482	910.85
2757.92747	905.55
2760.50515	904.25
2763.08123	899.45
2765.65573	905.65
2768.22863	902.95
2770.79994	899.25
2773.36967	898.15
2775.9378	896.55
2778.50435	894.75
2781.06932	893.15
2783.6327	887.15
2786.1945	889.65
2788.75471	883.95
2791.31335	883.65
2793.87041	877.65
2796.42589	872.05
2798.97979	876.65
2801.53212	879.85
2804.08288	877.85
2806.63206	874.15
2809.17967	865.85
2811.72571	867.95
2814.27018	863.45
2816.81308	862.75
2819.35442	858.45
2821.89419	862.75
2824.43239	867.25
2826.96904	867.05
2829.50412	859.15
2832.03763	864.15
2834.56959	854.35
2837.1	857.55
2839.62884	860.05
2842.15613	854.35
2844.68186	862.35
2847.20604	861.25
2849.72867	861.25
2852.24974	857.55
2854.76927	868.75
2857.28724	861.35
2859.80367	853.95
2862.31855	855.25
2864.83189	855.75
2867.34368	857.65
2869.85393	845.25
2872.36264	849.65
2874.8698	858.45
2877.37543	853.85
2879.87952	848.75
2882.38207	858.85
2884.88308	850.15
2887.38256	852.05
2889.88051	861.05
2892.37692	859.45
2894.8718	855.85
2897.36515	860.25
2899.85698	863.55
2902.34727	865.45
2904.83604	864.65
2907.32328	866.95
2909.809	868.55
2912.29319	870.55
2914.77587	872.95
2917.25702	877.75
2919.73665	882.75
2922.21476	879.45
2924.69136	880.85
2927.16644	889.05
2929.64	889.35
2932.11205	890.85
2934.58258	896.85
2937.05161	890.25
2939.51912	890.35
2941.98513	897.95
2944.44962	897.85
2946.91261	894.45
2949.37409	902.55
2951.83407	897.05
2954.29254	897.95
2956.74951	902.95
2959.20498	894.05
2961.65895	891.45
2964.11142	890.15
2966.56239	883.35
2969.01186	872.05
2971.45984	869.25
2973.90632	865.85
2976.35131	866.25
2978.7948	864.85
2981.23681	862.45
2983.67732	848.15
2986.11635	856.85
2988.55388	858.35
2990.98993	847.75
2993.4245	847.25
2995.85758	844.95
2998.28917	843.85
3000.71928	838.45
3003.14791	839.35
3005.57506	848.35
3008.00073	836.95
3010.42493	842.95
3012.84764	843.15
3015.26888	839.95
3017.68865	843.55
3020.10694	840.35
3022.52376	841.05
3024.9391	851.75
3027.35298	837.15
3029.76539	834.55
3032.17632	841.15
3034.5858	846.15
3036.9938	850.05
3039.40034	853.75
3041.80542	836.45
3044.20903	837.55
3046.61118	845.65
3049.01187	842.25
3051.4111	847.25
3053.80888	843.95
3056.20519	855.75
3058.60005	853.55
3060.99345	851.85
3063.3854	857.35
3065.7759	852.25
3068.16494	852.55
3070.55254	858.65
3072.93868	852.05
3075.32338	852.75
3077.70662	859.15
3080.08842	862.45
3082.46878	869.45
3084.84769	871.65
3087.22515	867.25
3089.60118	873.45
3091.97576	878.05
3094.3489	880.45
3096.72061	882.05
3099.09087	894.25
3101.4597	892.55
3103.82709	895.75
3106.19305	895.45
3108.55757	902.95
3110.92066	901.95
3113.28232	906.15
3115.64255	904.45
3118.00134	913.45
3120.35871	915.85
3122.71466	922.35
3125.06917	931.85
3127.42226	927.95
3129.77393	925.65
3132.12417	938.25
3134.47299	943.25
3136.82039	943.75
3139.16636	952.95
3141.51092	958.85
3143.85406	967.35
3146.19579	982.85
3148.53609	972.25
3150.87499	983.75
3153.21246	981.25
3155.54853	999.45
3157.88318	1003.45
3160.21642	1009.25
3162.54826	1012.35
3164.87868	1014.65
3167.2077	1020.75
3169.5353	1027.15
3171.86151	1024.85
3174.18631	1043.55
3176.5097	1037.65
3178.83169	1041.55
3181.15228	1051.75
3183.47147	1054.65
3185.78926	1056.15
3188.10565	1059.55
3190.42065	1072.85
3192.73424	1075.65
3195.04645	1074.45
3197.35725	1081.05
3199.66667	1081.65
3201.97469	1087.05
3204.28132	1088.85
3206.58656	1082.85
3208.8904	1094.85
3211.19287	1103.35
3213.49394	1105.05
3215.79363	1108.65
3218.09193	1108.05
3220.38884	1115.05
3222.68438	1118.65
3224.97853	1118.65
3227.2713	1121.05
3229.56269	1120.35
3231.8527	1114.75
3234.14133	1114.95
3236.42858	1111.55
3238.71446	1114.55
3240.99896	1113.55
3243.28209	1122.85
3245.56384	1119.55
3247.84423	1115.85
3250.12324	1116.05
3252.40088	1119.65
3254.67715	1113.65
3256.95205	1119.35
3259.22558	1119.95
3261.49775	1111.45
3263.76855	1119.65
3266.03799	1123.35
3268.30606	1112.75
3270.57277	1102.75
3272.83812	1111.25
3275.10211	1112.35
3277.36474	1116.15
3279.62601	1113.95
3281.88593	1106.95
3284.14448	1117.95
3286.40168	1115.65
3288.65753	1108.45
3290.91202	1114.75
3293.16516	1108.65
3295.41695	1109.05
3297.66738	1097.15
3299.91647	1095.85
3302.16421	1091.75
3304.4106	1083.85
3306.65564	1082.75
3308.89933	1082.75
3311.14169	1071.15
3313.38269	1076.95
3315.62236	1071.85
3317.86068	1057.25
3320.09766	1052.45
3322.3333	1039.55
3324.5676	1047.85
3326.80056	1031.85
3329.03219	1027.95
3331.26248	0.85
3333.49143	0.65
3335.71905	-0.75
