Data from AgNPs_FTO_APTES_UA_0.1mM_CRN_0uM_NaF_0.1M_Addition_RamanShift__55__11-06-47-519.txt Node

Date: Mon Dec 20 11:06:47 GMT 2021
User: TCL
Spectrometer: QEP01345
Trigger mode: 4
Integration Time (sec): 7.000000E0
Scans to average: 10
Electric dark correction enabled: true
Nonlinearity correction enabled: false
Boxcar width: 0
XAxis mode: Raman Shifts
Number of Pixels in Spectrum: 1044
>>>>>Begin Spectral Data<<<<<
46.04893	-1.475
50.45542	-0.475
54.85868	0.425
59.25871	1.225
63.6555	32.425
68.04907	32.925
72.43941	36.025
76.82654	39.525
81.21044	40.025
85.59113	44.925
89.96862	44.425
94.34289	47.425
98.71396	45.025
103.08183	45.625
107.4465	48.925
111.80798	48.125
116.16626	50.925
120.52136	50.625
124.87327	56.625
129.222	56.025
133.56755	57.925
137.90993	61.025
142.24913	65.325
146.58517	69.725
150.91804	82.325
155.24774	97.525
159.57429	108.825
163.89768	145.825
168.21792	187.225
172.53501	239.425
176.84895	333.525
181.15975	456.525
185.46741	632.525
189.77193	874.125
194.07331	1166.425
198.37157	1506.125
202.6667	1861.325
206.9587	2214.125
211.24758	2569.525
215.53334	2913.525
219.81599	3265.325
224.09553	3641.425
228.37195	4039.525
232.64527	4495.525
236.91549	4957.025
241.18261	5393.125
245.44663	5823.825
249.70755	6218.325
253.96539	6542.925
258.22014	6812.725
262.4718	7011.825
266.72039	7149.725
270.96589	7201.625
275.20832	7185.225
279.44768	7119.025
283.68397	7027.225
287.91719	6951.325
292.14735	6891.225
296.37445	6872.025
300.59849	6879.725
304.81948	6926.825
309.03742	6943.625
313.25231	6874.525
317.46415	6745.025
321.67296	6553.525
325.87872	6392.125
330.08145	6307.625
334.28114	6317.425
338.47781	6334.625
342.67145	6420.225
346.86207	6501.825
351.04966	6657.025
355.23424	6827.225
359.4158	6965.025
363.59435	7074.725
367.76989	7133.225
371.94243	7216.925
376.11196	7276.225
380.27849	7334.525
384.44203	7395.125
388.60257	7457.025
392.76012	7483.725
396.91468	7597.125
401.06626	7668.425
405.21485	7777.425
409.36047	7717.525
413.50311	7633.625
417.64277	7513.025
421.77947	7462.425
425.9132	7452.125
430.04396	7454.125
434.17176	7506.925
438.2966	7568.025
442.41849	7657.425
446.53742	7769.525
450.6534	7962.725
454.76644	8049.525
458.87653	8069.525
462.98368	8038.725
467.08789	7985.525
471.18916	7977.425
475.2875	7909.925
479.38291	7962.625
483.4754	8034.325
487.56496	8168.725
491.6516	8279.725
495.73531	8340.025
499.81612	8264.325
503.89401	8197.525
507.96899	8070.525
512.04106	8016.725
516.11023	8016.025
520.1765	8026.125
524.23987	8085.125
528.30034	8118.725
532.35792	8073.725
536.41261	8008.325
540.46441	7874.025
544.51333	7761.525
548.55936	7705.025
552.60252	7723.525
556.64279	7791.725
560.6802	7849.625
564.71473	7878.225
568.7464	7977.825
572.7752	8099.025
576.80114	8103.525
580.82422	8131.125
584.84444	8252.425
588.86181	8409.725
592.87633	8577.825
596.888	8623.725
600.89682	8561.325
604.9028	8714.625
608.90594	9394.925
612.90624	10349.125
616.90371	10344.425
620.89834	9378.325
624.89015	9178.625
628.87913	9598.325
632.86528	10093.725
636.84862	10338.025
640.82913	10177.325
644.80683	9688.325
648.78172	9131.425
652.75379	8721.325
656.72306	8477.825
660.68952	8396.425
664.65319	8327.925
668.61405	8212.725
672.57211	8160.525
676.52738	8160.725
680.47986	8143.225
684.42955	8130.125
688.37646	8103.425
692.32058	8065.225
696.26192	8040.825
700.20048	8033.725
704.13626	7973.325
708.06928	7912.425
711.99952	7822.025
715.927	7785.125
719.85171	7807.325
723.77365	7859.325
727.69284	7837.025
731.60928	7772.325
735.52295	7698.025
739.43388	7663.125
743.34206	7672.125
747.24749	7689.725
751.15017	7722.625
755.05012	7772.325
758.94733	7855.625
762.8418	8120.325
766.73354	8569.925
770.62254	9008.425
774.50882	9253.725
778.39237	9053.325
782.27321	8547.525
786.15132	8108.525
790.02671	7855.725
793.89938	7774.725
797.76935	7784.225
801.6366	7920.225
805.50115	8169.525
809.36299	8426.425
813.22213	8520.225
817.07857	8385.425
820.93231	8091.725
824.78336	7793.725
828.63172	7592.525
832.47738	7449.525
836.32036	7421.425
840.16066	7392.625
843.99827	7368.725
847.8332	7354.325
851.66546	7331.625
855.49504	7297.725
859.32195	7327.725
863.1462	7344.325
866.96777	7405.125
870.78668	7513.625
874.60293	7681.525
878.41652	7871.525
882.22745	8047.425
886.03573	8136.425
889.84136	8120.525
893.64433	7910.325
897.44466	7666.525
901.24235	7433.125
905.0374	7242.925
908.8298	7119.025
912.61957	7053.625
916.40671	7043.025
920.19121	7023.225
923.97308	7056.125
927.75233	7051.025
931.52895	7029.825
935.30295	7015.125
939.07433	6923.925
942.84309	6884.225
946.60924	6855.625
950.37278	6845.525
954.13371	6842.225
957.89203	6801.825
961.64774	6770.025
965.40086	6733.925
969.15137	6712.925
972.89929	6667.725
976.64461	6647.525
980.38733	6633.025
984.12747	6642.925
987.86502	6664.025
991.59999	6738.825
995.33237	6807.925
999.06217	6946.325
1002.78939	7116.825
1006.51404	7276.825
1010.23611	7397.725
1013.95561	7518.125
1017.67255	7514.725
1021.38692	7456.625
1025.09872	7331.925
1028.80796	7165.925
1032.51465	7143.225
1036.21877	7132.225
1039.92035	7078.925
1043.61937	7029.825
1047.31584	6961.225
1051.00976	6889.425
1054.70114	6898.125
1058.38998	6907.325
1062.07627	6974.225
1065.76003	7042.525
1069.44126	7103.725
1073.11995	7139.725
1076.79611	7147.225
1080.46974	7122.825
1084.14085	7111.325
1087.80943	7116.625
1091.47549	7102.025
1095.13903	7030.025
1098.80005	6925.625
1102.45857	6850.025
1106.11456	6827.325
1109.76805	6857.825
1113.41903	6978.725
1117.06751	7167.125
1120.71348	7467.425
1124.35696	7885.825
1127.99793	8376.625
1131.63641	8853.725
1135.2724	9072.225
1138.90589	9073.225
1142.5369	8848.125
1146.16542	8467.925
1149.79145	8017.625
1153.415	7642.225
1157.03607	7352.125
1160.65467	7219.825
1164.27079	7223.125
1167.88443	7353.625
1171.49561	7600.325
1175.10432	7970.925
1178.71056	8502.625
1182.31434	8990.225
1185.91565	9288.025
1189.51451	9345.225
1193.11091	9337.025
1196.70485	9346.025
1200.29634	9340.425
1203.88538	9293.625
1207.47197	9094.025
1211.05612	8782.725
1214.63782	8455.225
1218.21708	8143.625
1221.79391	7903.525
1225.36829	7734.025
1228.94024	7569.525
1232.50976	7394.125
1236.07685	7302.925
1239.6415	7270.225
1243.20374	7293.125
1246.76355	7311.225
1250.32093	7380.725
1253.8759	7458.425
1257.42845	7567.525
1260.97859	7693.925
1264.52631	7776.925
1268.07163	7884.125
1271.61453	7980.525
1275.15503	8076.325
1278.69312	8158.925
1282.22882	8229.525
1285.76211	8340.025
1289.29301	8518.125
1292.82151	8723.525
1296.34761	9008.825
1299.87133	9404.225
1303.39266	9911.825
1306.9116	10490.725
1310.42815	11129.225
1313.94233	11590.525
1317.45412	11604.525
1320.96354	11354.125
1324.47058	10992.225
1327.97525	10698.225
1331.47754	10507.925
1334.97747	10468.125
1338.47502	10510.925
1341.97022	10631.425
1345.46305	10677.325
1348.95352	10842.925
1352.44163	11067.225
1355.92738	11503.825
1359.41078	12181.525
1362.89183	12848.125
1366.37053	12756.725
1369.84688	11803.325
1373.32088	10614.325
1376.79254	9806.225
1380.26186	9408.625
1383.72883	9244.125
1387.19347	9131.525
1390.65578	8979.925
1394.11575	8879.125
1397.57339	8874.525
1401.0287	8933.525
1404.48168	8967.225
1407.93234	8917.025
1411.38068	8795.325
1414.82669	8571.925
1418.27039	8285.325
1421.71177	7957.825
1425.15083	7683.825
1428.58758	7494.325
1432.02203	7450.125
1435.45416	7469.825
1438.88399	7555.325
1442.31151	7615.425
1445.73673	7716.725
1449.15965	7777.725
1452.58027	7809.225
1455.9986	7786.925
1459.41463	7804.625
1462.82837	7830.925
1466.23982	7933.825
1469.64898	8080.525
1473.05586	8147.125
1476.46045	8195.225
1479.86276	8227.325
1483.26279	8248.425
1486.66054	8299.825
1490.05602	8384.325
1493.44922	8500.925
1496.84016	8619.225
1500.22882	8832.525
1503.61521	9202.425
1506.99934	9629.125
1510.38121	10057.825
1513.76081	10269.425
1517.13816	10008.225
1520.51324	9470.325
1523.88607	8894.825
1527.25665	8535.425
1530.62498	8383.325
1533.99105	8358.025
1537.35488	8346.025
1540.71647	8359.925
1544.07581	8389.325
1547.4329	8386.125
1550.78776	8371.525
1554.14038	8365.925
1557.49077	8357.425
1560.83892	8396.125
1564.18484	8436.225
1567.52853	8495.225
1570.86999	8547.225
1574.20922	8607.525
1577.54624	8624.925
1580.88103	8581.325
1584.2136	8472.225
1587.54395	8500.625
1590.87208	8675.625
1594.19801	9022.525
1597.52172	9452.125
1600.84321	9717.825
1604.16251	9614.525
1607.47959	9221.125
1610.79447	8748.425
1614.10715	8318.125
1617.41763	7973.625
1620.7259	7769.025
1624.03199	7686.225
1627.33587	7712.025
1630.63757	7803.025
1633.93707	8075.825
1637.23439	8439.325
1640.52951	9030.025
1643.82246	9741.925
1647.11321	10451.625
1650.40179	10858.725
1653.68819	10611.025
1656.97241	9787.425
1660.25446	8851.725
1663.53433	8104.425
1666.81203	7546.725
1670.08756	7211.625
1673.36092	6945.525
1676.63211	6791.225
1679.90115	6646.925
1683.16801	6510.425
1686.43272	6405.425
1689.69527	6288.525
1692.95567	6182.225
1696.2139	6092.925
1699.46999	5979.425
1702.72392	5898.925
1705.97571	5794.025
1709.22535	5695.625
1712.47284	5625.225
1715.71819	5568.825
1718.96139	5509.125
1722.20246	5435.525
1725.44139	5379.625
1728.67818	5315.425
1731.91284	5255.525
1735.14537	5197.025
1738.37576	5160.325
1741.60403	5116.125
1744.83017	5089.025
1748.05418	5071.525
1751.27607	5047.225
1754.49584	5052.025
1757.71349	5027.325
1760.92903	5025.825
1764.14244	5010.625
1767.35375	4990.525
1770.56294	4970.425
1773.77002	4943.725
1776.97499	4916.725
1780.17785	4890.925
1783.37861	4869.025
1786.57727	4852.325
1789.77382	4822.125
1792.96828	4822.325
1796.16064	4792.925
1799.3509	4770.025
1802.53907	4769.025
1805.72514	4723.625
1808.90913	4713.225
1812.09102	4717.125
1815.27083	4698.125
1818.44856	4682.725
1821.6242	4667.025
1824.79776	4655.525
1827.96924	4662.425
1831.13864	4635.925
1834.30597	4647.425
1837.47122	4631.625
1840.6344	4632.125
1843.7955	4627.925
1846.95454	4619.725
1850.11151	4615.825
1853.26642	4614.125
1856.41926	4593.625
1859.57004	4592.925
1862.71876	4586.325
1865.86542	4580.725
1869.01003	4577.125
1872.15258	4547.025
1875.29308	4574.125
1878.43152	4555.025
1881.56792	4551.325
1884.70227	4543.225
1887.83457	4534.125
1890.96482	4537.725
1894.09304	4535.025
1897.21921	4517.825
1900.34335	4511.425
1903.46544	4505.025
1906.58551	4502.425
1909.70353	4502.325
1912.81953	4483.425
1915.93349	4483.625
1919.04543	4472.825
1922.15534	4459.525
1925.26322	4451.025
1928.36908	4445.425
1931.47292	4434.725
1934.57473	4401.925
1937.67453	4402.025
1940.77232	4384.525
1943.86808	4364.425
1946.96184	4376.325
1950.05358	4366.825
1953.14331	4341.225
1956.23103	4316.025
1959.31675	4299.025
1962.40046	4303.225
1965.48217	4293.225
1968.56188	4278.125
1971.63959	4255.125
1974.7153	4241.925
1977.78901	4238.325
1980.86073	4213.725
1983.93046	4212.525
1986.99819	4183.525
1990.06394	4178.925
1993.1277	4166.525
1996.18947	4143.925
1999.24925	4144.225
2002.30706	4128.825
2005.36288	4104.025
2008.41672	4082.725
2011.46859	4078.825
2014.51848	4070.025
2017.56639	4058.525
2020.61233	4050.525
2023.6563	4042.625
2026.6983	4034.625
2029.73833	4011.025
2032.7764	4003.425
2035.8125	4013.625
2038.84664	3988.325
2041.87881	3983.725
2044.90903	3970.725
2047.93729	3960.725
2050.96359	3967.225
2053.98794	3963.325
2057.01034	3947.325
2060.03078	3956.525
2063.04927	3941.425
2066.06582	3943.725
2069.08042	3941.625
2072.09307	3926.125
2075.10378	3926.925
2078.11255	3930.925
2081.11938	3924.825
2084.12426	3916.425
2087.12722	3920.225
2090.12824	3918.725
2093.12732	3911.325
2096.12447	3921.725
2099.11969	3919.825
2102.11299	3897.925
2105.10435	3906.025
2108.09379	3910.825
2111.08131	3904.825
2114.0669	3917.225
2117.05057	3913.125
2120.03233	3909.525
2123.01216	3898.425
2125.99008	3932.025
2128.96609	3920.025
2131.94018	3920.725
2134.91236	3925.425
2137.88263	3923.025
2140.851	3933.925
2143.81746	3931.625
2146.78201	3921.525
2149.74466	3918.825
2152.7054	3934.425
2155.66425	3917.525
2158.6212	3916.725
2161.57625	3911.525
2164.52941	3934.025
2167.48067	3906.225
2170.43004	3914.325
2173.37752	3897.225
2176.32311	3897.925
2179.26681	3905.325
2182.20863	3904.025
2185.14856	3906.025
2188.08661	3895.025
2191.02278	3893.625
2193.95707	3888.625
2196.88948	3874.225
2199.82001	3876.525
2202.74867	3868.625
2205.67545	3874.025
2208.60037	3877.125
2211.52341	3856.825
2214.44458	3845.625
2217.36388	3836.825
2220.28132	3837.025
2223.1969	3817.525
2226.11061	3801.425
2229.02246	3806.425
2231.93245	3810.625
2234.84058	3795.625
2237.74686	3791.425
2240.65128	3783.825
2243.55385	3773.825
2246.45456	3779.325
2249.35343	3767.625
2252.25044	3749.925
2255.14561	3739.725
2258.03893	3759.125
2260.93041	3752.925
2263.82004	3723.025
2266.70783	3728.025
2269.59378	3711.025
2272.4779	3695.225
2275.36017	3693.925
2278.24061	3676.625
2281.11922	3669.425
2283.996	3673.225
2286.87094	3669.125
2289.74405	3660.025
2292.61534	3658.425
2295.4848	3636.025
2298.35243	3646.725
2301.21824	3631.525
2304.08223	3630.925
2306.94439	3625.025
2309.80474	3629.725
2312.66327	3628.625
2315.51999	3619.925
2318.37489	3624.525
2321.22797	3616.825
2324.07925	3608.725
2326.92871	3604.725
2329.77637	3599.625
2332.62222	3583.825
2335.46626	3584.525
2338.3085	3590.025
2341.14893	3569.925
2343.98756	3582.325
2346.8244	3572.425
2349.65943	3564.725
2352.49267	3571.625
2355.32411	3568.725
2358.15376	3565.725
2360.98161	3557.125
2363.80768	3569.325
2366.63195	3552.825
2369.45444	3551.625
2372.27514	3543.425
2375.09405	3552.325
2377.91118	3530.325
2380.72652	3523.425
2383.54009	3530.425
2386.35187	3521.025
2389.16188	3507.025
2391.97011	3496.425
2394.77657	3498.425
2397.58125	3476.925
2400.38416	3483.425
2403.18529	3468.025
2405.98466	3456.425
2408.78226	3465.425
2411.57809	3445.325
2414.37216	3443.625
2417.16446	3432.725
2419.955	3430.925
2422.74378	3427.625
2425.5308	3409.825
2428.31606	3418.525
2431.09956	3406.125
2433.88131	3404.925
2436.6613	3403.725
2439.43954	3389.625
2442.21603	3395.225
2444.99077	3394.125
2447.76377	3387.225
2450.53501	3375.025
2453.30451	3389.725
2456.07226	3382.225
2458.83827	3382.725
2461.60254	3370.525
2464.36507	3361.025
2467.12586	3358.325
2469.88492	3348.025
2472.64224	3354.025
2475.39782	3360.325
2478.15167	3369.625
2480.90379	3365.225
2483.65417	3350.725
2486.40283	3353.625
2489.14976	3359.425
2491.89497	3361.725
2494.63845	3350.625
2497.3802	3362.725
2500.12024	3348.025
2502.85855	3346.725
2505.59514	3345.625
2508.33002	3329.225
2511.06318	3339.025
2513.79462	3323.525
2516.52435	3306.325
2519.25237	3314.725
2521.97867	3301.125
2524.70327	3291.425
2527.42616	3303.125
2530.14734	3284.425
2532.86681	3280.425
2535.58458	3271.425
2538.30065	3279.025
2541.01501	3261.125
2543.72768	3255.625
2546.43864	3251.125
2549.14791	3248.225
2551.85548	3239.025
2554.56136	3245.125
2557.26554	3249.025
2559.96803	3235.125
2562.66883	3214.425
2565.36794	3218.525
2568.06536	3226.925
2570.7611	3221.325
2573.45514	3218.625
2576.14751	3208.625
2578.83819	3205.625
2581.52719	3201.725
2584.21451	3189.325
2586.90015	3184.925
2589.58411	3169.125
2592.2664	3178.625
2594.94701	3175.525
2597.62594	3184.525
2600.30321	3157.425
2602.9788	3154.925
2605.65273	3167.025
2608.32498	3162.825
2610.99557	3150.625
2613.66449	3144.625
2616.33175	3155.425
2618.99734	3151.225
2621.66128	3142.125
2624.32355	3141.325
2626.98416	3139.425
2629.64311	3135.425
2632.30041	3122.625
2634.95605	3115.425
2637.61004	3111.925
2640.26238	3120.725
2642.91306	3120.625
2645.56209	3110.925
2648.20948	3101.525
2650.85521	3096.525
2653.4993	3100.025
2656.14175	3105.225
2658.78255	3099.025
2661.42171	3100.225
2664.05923	3101.925
2666.6951	3099.025
2669.32934	3092.125
2671.96194	3095.325
2674.59291	3092.125
2677.22224	3093.725
2679.84993	3107.825
2682.476	3093.425
2685.10043	3104.325
2687.72324	3108.425
2690.34441	3098.125
2692.96396	3086.525
2695.58188	3099.625
2698.19818	3094.325
2700.81285	3102.625
2703.4259	3093.925
2706.03733	3115.625
2708.64714	3113.825
2711.25533	3108.825
2713.86191	3116.925
2716.46687	3110.625
2719.07021	3107.925
2721.67194	3106.925
2724.27206	3101.425
2726.87057	3096.025
2729.46747	3101.725
2732.06276	3106.525
2734.65644	3093.825
2737.24852	3093.925
2739.83899	3089.525
2742.42786	3093.925
2745.01513	3085.525
2747.60079	3081.125
2750.18486	3080.525
2752.76733	3078.425
2755.3482	3070.125
2757.92747	3073.425
2760.50515	3078.125
2763.08123	3067.225
2765.65573	3075.125
2768.22863	3061.225
2770.79994	3061.125
2773.36967	3061.525
2775.9378	3062.525
2778.50435	3056.125
2781.06932	3052.225
2783.6327	3056.225
2786.1945	3051.025
2788.75471	3054.025
2791.31335	3050.625
2793.87041	3029.625
2796.42589	3024.325
2798.97979	3026.525
2801.53212	3008.925
2804.08288	3026.225
2806.63206	2994.625
2809.17967	2995.025
2811.72571	2995.625
2814.27018	2991.325
2816.81308	2975.725
2819.35442	2988.025
2821.89419	2972.825
2824.43239	2988.325
2826.96904	2980.125
2829.50412	2981.725
2832.03763	2968.125
2834.56959	2975.325
2837.1	2978.225
2839.62884	2974.725
2842.15613	2972.825
2844.68186	2980.025
2847.20604	2985.325
2849.72867	2977.825
2852.24974	2970.625
2854.76927	2974.625
2857.28724	2977.625
2859.80367	2967.525
2862.31855	2965.425
2864.83189	2967.425
2867.34368	2953.525
2869.85393	2956.025
2872.36264	2961.025
2874.8698	2963.525
2877.37543	2966.525
2879.87952	2964.425
2882.38207	2973.025
2884.88308	2979.525
2887.38256	2978.525
2889.88051	2979.925
2892.37692	2981.525
2894.8718	2974.125
2897.36515	2986.425
2899.85698	2985.825
2902.34727	2988.025
2904.83604	2976.125
2907.32328	2985.325
2909.809	2992.225
2912.29319	2983.425
2914.77587	2999.025
2917.25702	2984.825
2919.73665	2986.425
2922.21476	2995.825
2924.69136	2984.825
2927.16644	2984.825
2929.64	2980.025
2932.11205	2988.125
2934.58258	2975.825
2937.05161	2966.425
2939.51912	2961.625
2941.98513	2965.125
2944.44962	2961.725
2946.91261	2954.325
2949.37409	2958.425
2951.83407	2950.925
2954.29254	2942.025
2956.74951	2940.825
2959.20498	2941.625
2961.65895	2940.425
2964.11142	2940.325
2966.56239	2933.025
2969.01186	2924.925
2971.45984	2911.225
2973.90632	2917.325
2976.35131	2906.925
2978.7948	2902.225
2981.23681	2890.025
2983.67732	2892.225
2986.11635	2891.725
2988.55388	2889.225
2990.98993	2879.625
2993.4245	2868.925
2995.85758	2863.625
2998.28917	2857.125
3000.71928	2874.125
3003.14791	2859.025
3005.57506	2851.725
3008.00073	2860.425
3010.42493	2857.425
3012.84764	2854.625
3015.26888	2847.025
3017.68865	2851.625
3020.10694	2843.325
3022.52376	2846.925
3024.9391	2849.225
3027.35298	2844.025
3029.76539	2848.625
3032.17632	2854.425
3034.5858	2843.525
3036.9938	2834.725
3039.40034	2847.725
3041.80542	2851.925
3044.20903	2844.025
3046.61118	2835.925
3049.01187	2838.325
3051.4111	2844.825
3053.80888	2835.125
3056.20519	2837.525
3058.60005	2826.425
3060.99345	2822.425
3063.3854	2823.325
3065.7759	2825.025
3068.16494	2806.525
3070.55254	2828.925
3072.93868	2819.225
3075.32338	2820.925
3077.70662	2809.625
3080.08842	2801.425
3082.46878	2813.625
3084.84769	2818.325
3087.22515	2818.825
3089.60118	2823.325
3091.97576	2833.825
3094.3489	2841.325
3096.72061	2836.725
3099.09087	2838.325
3101.4597	2846.725
3103.82709	2859.425
3106.19305	2846.325
3108.55757	2858.625
3110.92066	2838.625
3113.28232	2842.525
3115.64255	2843.625
3118.00134	2840.725
3120.35871	2848.425
3122.71466	2861.725
3125.06917	2848.525
3127.42226	2862.725
3129.77393	2856.125
3132.12417	2870.325
3134.47299	2867.325
3136.82039	2871.425
3139.16636	2876.825
3141.51092	2899.525
3143.85406	2887.825
3146.19579	2913.825
3148.53609	2905.025
3150.87499	2913.425
3153.21246	2923.825
3155.54853	2923.825
3157.88318	2934.625
3160.21642	2945.825
3162.54826	2946.725
3164.87868	2934.225
3167.2077	2943.725
3169.5353	2956.225
3171.86151	2972.125
3174.18631	2966.725
3176.5097	2961.725
3178.83169	2975.825
3181.15228	2981.625
3183.47147	2971.625
3185.78926	2977.425
3188.10565	2988.725
3190.42065	2985.425
3192.73424	2995.425
3195.04645	2998.325
3197.35725	3014.225
3199.66667	3014.125
3201.97469	3021.025
3204.28132	3015.025
3206.58656	3038.225
3208.8904	3034.725
3211.19287	3046.925
3213.49394	3048.225
3215.79363	3037.325
3218.09193	3047.825
3220.38884	3054.425
3222.68438	3061.725
3224.97853	3062.725
3227.2713	3061.125
3229.56269	3062.925
3231.8527	3049.125
3234.14133	3043.625
