Data from AgNPs_FTO_APTES_UA_0.1mM_CRN_200uM_NaF_0.1M_Addition_RamanShift__7__14-02-57-718.txt Node

Date: Mon Dec 20 14:02:57 GMT 2021
User: TCL
Spectrometer: QEP01345
Trigger mode: 4
Integration Time (sec): 7.000000E0
Scans to average: 10
Electric dark correction enabled: true
Nonlinearity correction enabled: false
Boxcar width: 0
XAxis mode: Raman Shifts
Number of Pixels in Spectrum: 1044
>>>>>Begin Spectral Data<<<<<
46.04893	0.275
50.45542	-1.325
54.85868	-0.625
59.25871	0.875
63.6555	26.875
68.04907	27.075
72.43941	32.175
76.82654	34.175
81.21044	33.675
85.59113	37.775
89.96862	31.775
94.34289	38.675
98.71396	37.375
103.08183	38.575
107.4465	41.675
111.80798	43.475
116.16626	44.275
120.52136	46.675
124.87327	45.575
129.222	45.675
133.56755	46.875
137.90993	50.775
142.24913	55.075
146.58517	54.075
150.91804	66.475
155.24774	79.075
159.57429	85.075
163.89768	108.675
168.21792	142.175
172.53501	180.775
176.84895	237.975
181.15975	337.675
185.46741	463.375
189.77193	628.875
194.07331	848.075
198.37157	1096.975
202.6667	1361.775
206.9587	1624.775
211.24758	1903.075
215.53334	2183.575
219.81599	2477.875
224.09553	2810.875
228.37195	3177.475
232.64527	3577.975
236.91549	3999.175
241.18261	4395.575
245.44663	4736.275
249.70755	5012.975
253.96539	5214.675
258.22014	5341.275
262.4718	5405.375
266.72039	5410.175
270.96589	5374.375
275.20832	5307.075
279.44768	5193.875
283.68397	5115.975
287.91719	4987.675
292.14735	4910.775
296.37445	4853.775
300.59849	4805.675
304.81948	4771.375
309.03742	4726.675
313.25231	4671.375
317.46415	4609.775
321.67296	4550.875
325.87872	4486.975
330.08145	4457.675
334.28114	4423.875
338.47781	4439.975
342.67145	4453.375
346.86207	4486.675
351.04966	4527.475
355.23424	4570.275
359.4158	4611.675
363.59435	4668.675
367.76989	4728.475
371.94243	4773.975
376.11196	4820.575
380.27849	4865.775
384.44203	4907.075
388.60257	4952.675
392.76012	4993.775
396.91468	5028.575
401.06626	5089.075
405.21485	5129.475
409.36047	5134.575
413.50311	5114.275
417.64277	5099.175
421.77947	5091.175
425.9132	5102.175
430.04396	5115.075
434.17176	5135.775
438.2966	5142.175
442.41849	5161.675
446.53742	5186.775
450.6534	5248.375
454.76644	5281.375
458.87653	5296.975
462.98368	5324.775
467.08789	5337.075
471.18916	5366.975
475.2875	5386.375
479.38291	5411.075
483.4754	5504.275
487.56496	5595.775
491.6516	5730.975
495.73531	5849.875
499.81612	5883.975
503.89401	5847.975
507.96899	5770.275
512.04106	5700.975
516.11023	5637.875
520.1765	5611.475
524.23987	5624.775
528.30034	5639.175
532.35792	5656.775
536.41261	5643.675
540.46441	5602.975
544.51333	5533.575
548.55936	5477.575
552.60252	5421.075
556.64279	5413.975
560.6802	5425.875
564.71473	5412.175
568.7464	5439.175
572.7752	5469.175
576.80114	5519.875
580.82422	5596.075
584.84444	5717.875
588.86181	5838.475
592.87633	5867.375
596.888	5845.075
600.89682	5794.675
604.9028	5799.175
608.90594	5969.675
612.90624	6227.275
616.90371	6259.975
620.89834	6125.175
624.89015	6236.775
628.87913	6689.575
632.86528	7171.075
636.84862	7582.275
640.82913	7643.275
644.80683	7402.375
648.78172	6972.975
652.75379	6583.575
656.72306	6279.275
660.68952	6100.375
664.65319	5964.175
668.61405	5859.175
672.57211	5851.675
676.52738	5875.175
680.47986	5930.675
684.42955	5959.775
688.37646	5908.675
692.32058	5821.275
696.26192	5734.475
700.20048	5651.275
704.13626	5603.675
708.06928	5559.475
711.99952	5537.975
715.927	5550.375
719.85171	5580.575
723.77365	5652.475
727.69284	5697.075
731.60928	5669.575
735.52295	5568.475
739.43388	5488.875
743.34206	5464.075
747.24749	5485.975
751.15017	5487.075
755.05012	5503.175
758.94733	5541.375
762.8418	5622.075
766.73354	5754.275
770.62254	5863.975
774.50882	5877.075
778.39237	5795.875
782.27321	5614.375
786.15132	5480.375
790.02671	5408.475
793.89938	5382.575
797.76935	5409.075
801.6366	5481.175
805.50115	5622.275
809.36299	5837.175
813.22213	5986.275
817.07857	5973.275
820.93231	5822.875
824.78336	5627.475
828.63172	5405.575
832.47738	5285.075
836.32036	5203.175
840.16066	5174.475
843.99827	5180.775
847.8332	5179.075
851.66546	5157.475
855.49504	5150.375
859.32195	5174.275
863.1462	5203.775
866.96777	5256.075
870.78668	5313.575
874.60293	5428.275
878.41652	5551.075
882.22745	5690.775
886.03573	5792.675
889.84136	5860.475
893.64433	5815.175
897.44466	5674.475
901.24235	5478.175
905.0374	5315.475
908.8298	5176.275
912.61957	5112.975
916.40671	5062.875
920.19121	5043.975
923.97308	5049.475
927.75233	5018.675
931.52895	4993.775
935.30295	4988.575
939.07433	4961.375
942.84309	4911.175
946.60924	4909.275
950.37278	4895.675
954.13371	4882.775
957.89203	4876.975
961.64774	4843.675
965.40086	4847.775
969.15137	4844.475
972.89929	4831.975
976.64461	4794.175
980.38733	4811.175
984.12747	4806.275
987.86502	4812.175
991.59999	4830.675
995.33237	4847.575
999.06217	4897.975
1002.78939	4971.975
1006.51404	5041.475
1010.23611	5116.075
1013.95561	5166.875
1017.67255	5201.875
1021.38692	5195.575
1025.09872	5181.275
1028.80796	5118.475
1032.51465	5055.875
1036.21877	5010.175
1039.92035	4964.975
1043.61937	4942.875
1047.31584	4923.375
1051.00976	4921.275
1054.70114	4943.875
1058.38998	4961.175
1062.07627	5023.075
1065.76003	5094.675
1069.44126	5153.375
1073.11995	5230.475
1076.79611	5266.175
1080.46974	5232.175
1084.14085	5186.575
1087.80943	5123.675
1091.47549	5086.875
1095.13903	5039.675
1098.80005	4989.175
1102.45857	4977.975
1106.11456	4970.475
1109.76805	5011.075
1113.41903	5114.575
1117.06751	5339.075
1120.71348	5675.075
1124.35696	6123.775
1127.99793	6628.775
1131.63641	7066.975
1135.2724	7257.675
1138.90589	7197.875
1142.5369	6963.175
1146.16542	6554.375
1149.79145	6159.275
1153.415	5783.075
1157.03607	5463.775
1160.65467	5289.675
1164.27079	5186.175
1167.88443	5164.775
1171.49561	5207.475
1175.10432	5295.275
1178.71056	5460.275
1182.31434	5597.275
1185.91565	5697.275
1189.51451	5764.875
1193.11091	5821.475
1196.70485	5905.775
1200.29634	5984.975
1203.88538	6019.375
1207.47197	6018.675
1211.05612	5963.775
1214.63782	5834.575
1218.21708	5683.675
1221.79391	5513.875
1225.36829	5368.175
1228.94024	5275.075
1232.50976	5200.675
1236.07685	5163.175
1239.6415	5144.875
1243.20374	5181.875
1246.76355	5219.175
1250.32093	5270.975
1253.8759	5296.875
1257.42845	5372.875
1260.97859	5407.475
1264.52631	5468.475
1268.07163	5491.975
1271.61453	5521.675
1275.15503	5527.075
1278.69312	5513.075
1282.22882	5505.975
1285.76211	5507.175
1289.29301	5548.475
1292.82151	5582.075
1296.34761	5666.475
1299.87133	5748.675
1303.39266	5866.875
1306.9116	6010.975
1310.42815	6130.975
1313.94233	6256.975
1317.45412	6286.875
1320.96354	6299.175
1324.47058	6296.975
1327.97525	6265.575
1331.47754	6282.075
1334.97747	6317.375
1338.47502	6353.975
1341.97022	6433.875
1345.46305	6543.175
1348.95352	6651.575
1352.44163	6771.875
1355.92738	6898.275
1359.41078	7077.175
1362.89183	7273.675
1366.37053	7280.275
1369.84688	7052.775
1373.32088	6771.075
1376.79254	6517.075
1380.26186	6371.575
1383.72883	6247.775
1387.19347	6137.075
1390.65578	6019.775
1394.11575	5892.675
1397.57339	5786.975
1401.0287	5697.075
1404.48168	5604.875
1407.93234	5495.275
1411.38068	5382.575
1414.82669	5252.375
1418.27039	5140.675
1421.71177	4995.875
1425.15083	4903.375
1428.58758	4835.275
1432.02203	4779.075
1435.45416	4783.075
1438.88399	4788.975
1442.31151	4787.975
1445.73673	4786.675
1449.15965	4811.675
1452.58027	4810.375
1455.9986	4816.275
1459.41463	4836.275
1462.82837	4863.675
1466.23982	4905.975
1469.64898	4947.775
1473.05586	4963.575
1476.46045	4991.775
1479.86276	4997.375
1483.26279	5019.875
1486.66054	5038.275
1490.05602	5091.775
1493.44922	5163.375
1496.84016	5260.275
1500.22882	5411.575
1503.61521	5595.375
1506.99934	5776.275
1510.38121	5915.375
1513.76081	5951.975
1517.13816	5872.175
1520.51324	5693.875
1523.88607	5565.475
1527.25665	5489.575
1530.62498	5464.475
1533.99105	5483.475
1537.35488	5500.975
1540.71647	5516.675
1544.07581	5533.375
1547.4329	5548.375
1550.78776	5574.075
1554.14038	5568.175
1557.49077	5583.975
1560.83892	5572.775
1564.18484	5589.575
1567.52853	5613.575
1570.86999	5623.075
1574.20922	5651.875
1577.54624	5654.975
1580.88103	5626.775
1584.2136	5567.175
1587.54395	5513.475
1590.87208	5457.575
1594.19801	5473.075
1597.52172	5517.875
1600.84321	5545.675
1604.16251	5526.275
1607.47959	5426.475
1610.79447	5367.875
1614.10715	5281.075
1617.41763	5215.675
1620.7259	5183.675
1624.03199	5182.575
1627.33587	5182.875
1630.63757	5231.275
1633.93707	5363.075
1637.23439	5498.675
1640.52951	5721.775
1643.82246	5966.975
1647.11321	6215.675
1650.40179	6372.375
1653.68819	6376.775
1656.97241	6192.775
1660.25446	5983.475
1663.53433	5773.475
1666.81203	5683.575
1670.08756	5607.475
1673.36092	5560.875
1676.63211	5550.475
1679.90115	5536.575
1683.16801	5530.275
1686.43272	5477.575
1689.69527	5388.475
1692.95567	5317.275
1696.2139	5234.175
1699.46999	5130.075
1702.72392	5033.675
1705.97571	4913.075
1709.22535	4739.775
1712.47284	4595.875
1715.71819	4447.975
1718.96139	4310.775
1722.20246	4194.075
1725.44139	4118.775
1728.67818	4021.975
1731.91284	3958.475
1735.14537	3893.475
1738.37576	3839.875
1741.60403	3794.775
1744.83017	3769.475
1748.05418	3751.675
1751.27607	3731.675
1754.49584	3727.875
1757.71349	3723.975
1760.92903	3699.975
1764.14244	3688.975
1767.35375	3679.475
1770.56294	3657.375
1773.77002	3642.775
1776.97499	3634.075
1780.17785	3603.975
1783.37861	3596.075
1786.57727	3579.375
1789.77382	3557.475
1792.96828	3542.475
1796.16064	3500.975
1799.3509	3495.175
1802.53907	3495.275
1805.72514	3474.275
1808.90913	3460.675
1812.09102	3455.975
1815.27083	3447.375
1818.44856	3440.475
1821.6242	3422.775
1824.79776	3427.975
1827.96924	3401.975
1831.13864	3383.075
1834.30597	3404.775
1837.47122	3394.675
1840.6344	3386.775
1843.7955	3384.775
1846.95454	3369.575
1850.11151	3382.175
1853.26642	3375.675
1856.41926	3371.575
1859.57004	3362.175
1862.71876	3358.775
1865.86542	3355.375
1869.01003	3336.975
1872.15258	3321.475
1875.29308	3329.775
1878.43152	3322.375
1881.56792	3302.175
1884.70227	3302.575
1887.83457	3299.075
1890.96482	3294.675
1894.09304	3291.075
1897.21921	3275.675
1900.34335	3272.975
1903.46544	3256.975
1906.58551	3270.775
1909.70353	3249.475
1912.81953	3247.975
1915.93349	3239.875
1919.04543	3238.975
1922.15534	3232.275
1925.26322	3219.375
1928.36908	3208.475
1931.47292	3206.075
1934.57473	3200.375
1937.67453	3180.075
1940.77232	3186.775
1943.86808	3167.275
1946.96184	3164.175
1950.05358	3147.175
1953.14331	3147.275
1956.23103	3117.675
1959.31675	3125.575
1962.40046	3113.775
1965.48217	3105.075
1968.56188	3086.975
1971.63959	3061.175
1974.7153	3066.375
1977.78901	3052.875
1980.86073	3053.775
1983.93046	3031.875
1986.99819	3027.875
1990.06394	3009.775
1993.1277	3003.775
1996.18947	2995.675
1999.24925	2993.975
2002.30706	2983.475
2005.36288	2971.675
2008.41672	2965.275
2011.46859	2946.475
2014.51848	2938.075
2017.56639	2925.975
2020.61233	2921.275
2023.6563	2914.075
2026.6983	2888.875
2029.73833	2885.575
2032.7764	2890.275
2035.8125	2878.675
2038.84664	2871.175
2041.87881	2862.575
2044.90903	2854.575
2047.93729	2856.775
2050.96359	2850.975
2053.98794	2844.575
2057.01034	2831.075
2060.03078	2824.875
2063.04927	2826.375
2066.06582	2823.875
2069.08042	2813.175
2072.09307	2821.475
2075.10378	2823.875
2078.11255	2821.075
2081.11938	2812.975
2084.12426	2817.175
2087.12722	2794.575
2090.12824	2821.875
2093.12732	2806.375
2096.12447	2809.975
2099.11969	2815.475
2102.11299	2816.875
2105.10435	2798.775
2108.09379	2795.175
2111.08131	2799.075
2114.0669	2798.975
2117.05057	2814.675
2120.03233	2795.775
2123.01216	2803.275
2125.99008	2809.975
2128.96609	2818.675
2131.94018	2808.375
2134.91236	2806.075
2137.88263	2816.375
2140.851	2808.375
2143.81746	2809.875
2146.78201	2798.975
2149.74466	2807.375
2152.7054	2806.975
2155.66425	2789.275
2158.6212	2800.475
2161.57625	2796.375
2164.52941	2789.875
2167.48067	2800.275
2170.43004	2787.175
2173.37752	2776.575
2176.32311	2782.275
2179.26681	2781.275
2182.20863	2769.675
2185.14856	2780.375
2188.08661	2776.875
2191.02278	2780.775
2193.95707	2770.675
2196.88948	2774.975
2199.82001	2754.075
2202.74867	2750.575
2205.67545	2738.675
2208.60037	2739.675
2211.52341	2736.875
2214.44458	2727.975
2217.36388	2731.175
2220.28132	2724.375
2223.1969	2697.875
2226.11061	2698.675
2229.02246	2704.575
2231.93245	2675.575
2234.84058	2669.475
2237.74686	2681.575
2240.65128	2682.375
2243.55385	2657.275
2246.45456	2669.175
2249.35343	2662.075
2252.25044	2648.875
2255.14561	2637.475
2258.03893	2654.075
2260.93041	2651.675
2263.82004	2630.475
2266.70783	2620.475
2269.59378	2618.775
2272.4779	2617.875
2275.36017	2607.875
2278.24061	2603.275
2281.11922	2585.175
2283.996	2579.075
2286.87094	2577.675
2289.74405	2564.175
2292.61534	2573.575
2295.4848	2560.875
2298.35243	2547.475
2301.21824	2555.075
2304.08223	2548.475
2306.94439	2550.375
2309.80474	2543.375
2312.66327	2544.775
2315.51999	2532.675
2318.37489	2530.575
2321.22797	2523.375
2324.07925	2519.275
2326.92871	2511.175
2329.77637	2511.675
2332.62222	2507.975
2335.46626	2498.375
2338.3085	2483.375
2341.14893	2492.475
2343.98756	2477.475
2346.8244	2483.875
2349.65943	2478.775
2352.49267	2475.175
2355.32411	2474.675
2358.15376	2466.475
2360.98161	2465.575
2363.80768	2456.675
2366.63195	2455.275
2369.45444	2444.575
2372.27514	2454.275
2375.09405	2449.975
2377.91118	2445.775
2380.72652	2435.375
2383.54009	2430.275
2386.35187	2432.975
2389.16188	2415.975
2391.97011	2409.175
2394.77657	2418.375
2397.58125	2406.775
2400.38416	2403.375
2403.18529	2406.875
2405.98466	2397.675
2408.78226	2399.675
2411.57809	2388.375
2414.37216	2377.975
2417.16446	2379.675
2419.955	2362.475
2422.74378	2365.475
2425.5308	2350.275
2428.31606	2357.575
2431.09956	2346.075
2433.88131	2336.575
2436.6613	2344.375
2439.43954	2332.575
2442.21603	2327.175
2444.99077	2331.075
2447.76377	2323.575
2450.53501	2331.175
2453.30451	2328.275
2456.07226	2313.875
2458.83827	2317.875
2461.60254	2309.675
2464.36507	2291.575
2467.12586	2297.775
2469.88492	2301.375
2472.64224	2299.175
2475.39782	2292.575
2478.15167	2296.375
2480.90379	2284.175
2483.65417	2285.175
2486.40283	2294.575
2489.14976	2278.375
2491.89497	2288.175
2494.63845	2273.775
2497.3802	2274.175
2500.12024	2276.075
2502.85855	2268.175
2505.59514	2268.075
2508.33002	2256.275
2511.06318	2255.575
2513.79462	2258.175
2516.52435	2255.275
2519.25237	2249.775
2521.97867	2242.275
2524.70327	2236.775
2527.42616	2240.075
2530.14734	2234.975
2532.86681	2213.175
2535.58458	2229.475
2538.30065	2215.075
2541.01501	2217.675
2543.72768	2207.975
2546.43864	2210.275
2549.14791	2205.175
2551.85548	2195.875
2554.56136	2187.675
2557.26554	2186.075
2559.96803	2168.075
2562.66883	2178.775
2565.36794	2159.275
2568.06536	2155.975
2570.7611	2163.075
2573.45514	2157.375
2576.14751	2167.375
2578.83819	2161.575
2581.52719	2143.175
2584.21451	2139.275
2586.90015	2132.575
2589.58411	2128.775
2592.2664	2129.475
2594.94701	2129.975
2597.62594	2115.775
2600.30321	2107.475
2602.9788	2102.575
2605.65273	2091.475
2608.32498	2101.075
2610.99557	2090.375
2613.66449	2076.775
2616.33175	2082.775
2618.99734	2094.075
2621.66128	2094.375
2624.32355	2070.875
2626.98416	2074.975
2629.64311	2070.475
2632.30041	2064.975
2634.95605	2056.575
2637.61004	2065.275
2640.26238	2050.375
2642.91306	2053.275
2645.56209	2058.475
2648.20948	2043.875
2650.85521	2058.675
2653.4993	2053.075
2656.14175	2036.475
2658.78255	2043.375
2661.42171	2045.375
2664.05923	2044.375
2666.6951	2034.075
2669.32934	2044.875
2671.96194	2036.275
2674.59291	2036.475
2677.22224	2024.175
2679.84993	2040.475
2682.476	2033.375
2685.10043	2031.475
2687.72324	2040.375
2690.34441	2023.775
2692.96396	2038.975
2695.58188	2028.775
2698.19818	2034.175
2700.81285	2037.575
2703.4259	2048.575
2706.03733	2062.775
2708.64714	2052.975
2711.25533	2044.575
2713.86191	2039.375
2716.46687	2042.375
2719.07021	2045.075
2721.67194	2027.175
2724.27206	2023.575
2726.87057	2037.775
2729.46747	2035.175
2732.06276	2023.775
2734.65644	2027.075
2737.24852	2028.475
2739.83899	2020.675
2742.42786	2009.575
2745.01513	2014.475
2747.60079	2017.675
2750.18486	2007.975
2752.76733	2002.575
2755.3482	2007.675
2757.92747	2005.475
2760.50515	1994.775
2763.08123	1998.775
2765.65573	1987.575
2768.22863	1990.575
2770.79994	1985.475
2773.36967	1980.075
2775.9378	1982.875
2778.50435	1978.375
2781.06932	1966.675
2783.6327	1977.275
2786.1945	1968.375
2788.75471	1954.375
2791.31335	1949.275
2793.87041	1940.375
2796.42589	1948.075
2798.97979	1955.475
2801.53212	1944.575
2804.08288	1936.775
2806.63206	1930.875
2809.17967	1928.275
2811.72571	1918.275
2814.27018	1912.475
2816.81308	1923.475
2819.35442	1912.875
2821.89419	1903.175
2824.43239	1913.175
2826.96904	1906.275
2829.50412	1903.575
2832.03763	1906.775
2834.56959	1904.675
2837.1	1892.475
2839.62884	1901.975
2842.15613	1894.175
2844.68186	1895.675
2847.20604	1890.775
2849.72867	1897.975
2852.24974	1903.875
2854.76927	1900.875
2857.28724	1903.875
2859.80367	1895.775
2862.31855	1882.275
2864.83189	1887.275
2867.34368	1889.575
2869.85393	1896.175
2872.36264	1884.775
2874.8698	1891.975
2877.37543	1892.375
2879.87952	1896.175
2882.38207	1889.875
2884.88308	1889.675
2887.38256	1887.975
2889.88051	1896.675
2892.37692	1900.775
2894.8718	1892.275
2897.36515	1894.575
2899.85698	1893.175
2902.34727	1900.675
2904.83604	1897.775
2907.32328	1904.675
2909.809	1907.975
2912.29319	1901.075
2914.77587	1907.675
2917.25702	1907.775
2919.73665	1909.275
2922.21476	1902.975
2924.69136	1906.575
2927.16644	1912.875
2929.64	1921.075
2932.11205	1918.775
2934.58258	1905.275
2937.05161	1912.475
2939.51912	1922.675
2941.98513	1911.575
2944.44962	1910.775
2946.91261	1913.775
2949.37409	1915.075
2951.83407	1909.975
2954.29254	1911.075
2956.74951	1906.175
2959.20498	1892.675
2961.65895	1890.875
2964.11142	1895.675
2966.56239	1888.275
2969.01186	1888.675
2971.45984	1883.575
2973.90632	1871.675
2976.35131	1872.575
2978.7948	1871.575
2981.23681	1860.475
2983.67732	1860.175
2986.11635	1862.375
2988.55388	1855.975
2990.98993	1854.275
2993.4245	1850.775
2995.85758	1853.075
2998.28917	1842.575
3000.71928	1850.875
3003.14791	1845.175
3005.57506	1841.975
3008.00073	1843.275
3010.42493	1843.875
3012.84764	1846.575
3015.26888	1844.975
3017.68865	1854.275
3020.10694	1851.075
3022.52376	1847.375
3024.9391	1848.775
3027.35298	1848.175
3029.76539	1846.075
3032.17632	1842.575
3034.5858	1833.375
3036.9938	1846.375
3039.40034	1848.875
3041.80542	1846.175
3044.20903	1841.475
3046.61118	1852.175
3049.01187	1846.775
3051.4111	1846.875
3053.80888	1849.875
3056.20519	1850.575
3058.60005	1850.875
3060.99345	1848.075
3063.3854	1834.975
3065.7759	1845.275
3068.16494	1845.975
3070.55254	1841.075
3072.93868	1848.675
3075.32338	1848.775
3077.70662	1852.575
3080.08842	1848.875
3082.46878	1858.575
3084.84769	1851.275
3087.22515	1863.175
3089.60118	1873.675
3091.97576	1871.675
3094.3489	1867.675
3096.72061	1873.775
3099.09087	1892.775
3101.4597	1890.375
3103.82709	1893.175
3106.19305	1885.075
3108.55757	1904.175
3110.92066	1892.575
3113.28232	1901.075
3115.64255	1902.975
3118.00134	1913.075
3120.35871	1905.175
3122.71466	1914.475
3125.06917	1920.175
3127.42226	1911.075
3129.77393	1932.575
3132.12417	1937.475
3134.47299	1928.075
3136.82039	1944.175
3139.16636	1944.175
3141.51092	1951.475
3143.85406	1960.175
3146.19579	1974.975
3148.53609	1968.775
3150.87499	1984.575
3153.21246	1991.875
3155.54853	1996.475
3157.88318	2016.075
3160.21642	2010.375
3162.54826	2023.875
3164.87868	2028.875
3167.2077	2019.275
3169.5353	2040.375
3171.86151	2041.375
3174.18631	2049.075
3176.5097	2046.675
3178.83169	2050.875
3181.15228	2056.075
3183.47147	2060.075
3185.78926	2061.475
3188.10565	2072.475
3190.42065	2068.175
3192.73424	2086.175
3195.04645	2077.375
3197.35725	2092.075
3199.66667	2084.475
3201.97469	2095.775
3204.28132	2095.275
3206.58656	2097.375
3208.8904	2103.675
3211.19287	2113.675
3213.49394	2117.175
3215.79363	2118.975
3218.09193	2131.175
3220.38884	2135.175
3222.68438	2133.975
3224.97853	2116.675
3227.2713	2121.175
3229.56269	2123.975
3231.8527	2128.375
3234.14133	2124.475
3236.42858	2120.375
