Data from AgNPs_FTO_APTES_UA_0.1mM_CRN_1000uM_NaF_0.1M_Addition_RamanShift__15__15-31-37-818.txt Node

Date: Mon Dec 20 15:31:37 GMT 2021
User: TCL
Spectrometer: QEP01345
Trigger mode: 4
Integration Time (sec): 7.000000E0
Scans to average: 10
Electric dark correction enabled: true
Nonlinearity correction enabled: false
Boxcar width: 0
XAxis mode: Raman Shifts
Number of Pixels in Spectrum: 1044
>>>>>Begin Spectral Data<<<<<
46.04893	-0.725
50.45542	-0.625
54.85868	-0.525
59.25871	0.675
63.6555	21.175
68.04907	20.275
72.43941	24.975
76.82654	27.175
81.21044	24.775
85.59113	30.075
89.96862	27.075
94.34289	29.675
98.71396	28.675
103.08183	33.075
107.4465	28.275
111.80798	32.275
116.16626	33.475
120.52136	33.275
124.87327	34.275
129.222	36.075
133.56755	33.975
137.90993	37.575
142.24913	41.075
146.58517	38.775
150.91804	47.775
155.24774	54.675
159.57429	62.075
163.89768	75.375
168.21792	92.775
172.53501	121.275
176.84895	168.675
181.15975	228.875
185.46741	318.775
189.77193	433.875
194.07331	585.775
198.37157	764.675
202.6667	953.675
206.9587	1145.575
211.24758	1342.575
215.53334	1536.375
219.81599	1747.175
224.09553	1965.075
228.37195	2189.475
232.64527	2439.575
236.91549	2684.275
241.18261	2921.175
245.44663	3146.475
249.70755	3318.875
253.96539	3461.075
258.22014	3552.375
262.4718	3590.975
266.72039	3582.575
270.96589	3550.175
275.20832	3482.575
279.44768	3390.375
283.68397	3294.875
287.91719	3200.875
292.14735	3115.475
296.37445	3048.375
300.59849	3000.275
304.81948	2973.075
309.03742	2940.875
313.25231	2917.475
317.46415	2898.375
321.67296	2842.575
325.87872	2827.075
330.08145	2809.675
334.28114	2806.575
338.47781	2832.175
342.67145	2834.075
346.86207	2860.175
351.04966	2896.875
355.23424	2918.375
359.4158	2960.775
363.59435	2993.375
367.76989	3022.875
371.94243	3060.575
376.11196	3086.775
380.27849	3104.075
384.44203	3133.875
388.60257	3169.275
392.76012	3212.375
396.91468	3237.575
401.06626	3267.375
405.21485	3307.175
409.36047	3331.875
413.50311	3326.275
417.64277	3298.975
421.77947	3302.875
425.9132	3302.275
430.04396	3310.775
434.17176	3310.275
438.2966	3315.475
442.41849	3324.475
446.53742	3353.875
450.6534	3362.475
454.76644	3389.775
458.87653	3401.575
462.98368	3425.775
467.08789	3425.375
471.18916	3443.275
475.2875	3444.875
479.38291	3478.975
483.4754	3513.875
487.56496	3549.975
491.6516	3592.375
495.73531	3646.075
499.81612	3657.275
503.89401	3665.275
507.96899	3650.375
512.04106	3613.875
516.11023	3598.275
520.1765	3573.675
524.23987	3583.475
528.30034	3559.475
532.35792	3556.975
536.41261	3537.475
540.46441	3507.775
544.51333	3494.375
548.55936	3470.775
552.60252	3446.075
556.64279	3454.675
560.6802	3459.475
564.71473	3471.375
568.7464	3493.075
572.7752	3518.175
576.80114	3514.575
580.82422	3528.875
584.84444	3570.275
588.86181	3585.575
592.87633	3601.775
596.888	3622.275
600.89682	3611.675
604.9028	3664.575
608.90594	3780.675
612.90624	3940.475
616.90371	3970.475
620.89834	3873.375
624.89015	3883.575
628.87913	4010.575
632.86528	4166.675
636.84862	4289.175
640.82913	4292.475
644.80683	4232.075
648.78172	4109.175
652.75379	4004.375
656.72306	3947.775
660.68952	3930.875
664.65319	3950.575
668.61405	3999.875
672.57211	4059.375
676.52738	4127.775
680.47986	4143.675
684.42955	4163.775
688.37646	4146.175
692.32058	4091.275
696.26192	4042.475
700.20048	3999.775
704.13626	3926.675
708.06928	3847.375
711.99952	3782.875
715.927	3710.975
719.85171	3678.975
723.77365	3666.775
727.69284	3660.375
731.60928	3655.875
735.52295	3619.675
739.43388	3599.275
743.34206	3603.375
747.24749	3607.675
751.15017	3635.175
755.05012	3639.075
758.94733	3656.975
762.8418	3685.175
766.73354	3745.375
770.62254	3786.775
774.50882	3820.475
778.39237	3784.375
782.27321	3704.575
786.15132	3627.975
790.02671	3590.575
793.89938	3590.275
797.76935	3595.875
801.6366	3608.875
805.50115	3661.475
809.36299	3717.975
813.22213	3753.575
817.07857	3723.075
820.93231	3652.275
824.78336	3560.975
828.63172	3492.575
832.47738	3450.575
836.32036	3421.875
840.16066	3408.775
843.99827	3386.775
847.8332	3391.675
851.66546	3391.775
855.49504	3386.775
859.32195	3403.675
863.1462	3410.375
866.96777	3437.775
870.78668	3444.675
874.60293	3480.175
878.41652	3488.575
882.22745	3556.075
886.03573	3567.475
889.84136	3604.275
893.64433	3567.675
897.44466	3524.175
901.24235	3474.175
905.0374	3430.375
908.8298	3400.875
912.61957	3376.575
916.40671	3360.475
920.19121	3341.675
923.97308	3321.975
927.75233	3325.675
931.52895	3309.175
935.30295	3309.075
939.07433	3291.975
942.84309	3285.275
946.60924	3272.275
950.37278	3268.375
954.13371	3247.375
957.89203	3254.875
961.64774	3252.875
965.40086	3249.875
969.15137	3236.475
972.89929	3221.375
976.64461	3216.475
980.38733	3190.575
984.12747	3195.475
987.86502	3200.075
991.59999	3215.975
995.33237	3219.575
999.06217	3242.375
1002.78939	3264.675
1006.51404	3275.575
1010.23611	3293.875
1013.95561	3316.975
1017.67255	3325.275
1021.38692	3323.175
1025.09872	3309.175
1028.80796	3283.775
1032.51465	3267.775
1036.21877	3264.275
1039.92035	3248.375
1043.61937	3237.975
1047.31584	3251.875
1051.00976	3250.375
1054.70114	3268.575
1058.38998	3276.475
1062.07627	3330.875
1065.76003	3331.575
1069.44126	3330.275
1073.11995	3353.375
1076.79611	3358.575
1080.46974	3345.775
1084.14085	3321.675
1087.80943	3301.375
1091.47549	3270.775
1095.13903	3256.375
1098.80005	3248.575
1102.45857	3228.375
1106.11456	3243.675
1109.76805	3245.475
1113.41903	3281.175
1117.06751	3351.975
1120.71348	3440.275
1124.35696	3578.675
1127.99793	3738.475
1131.63641	3868.975
1135.2724	3955.875
1138.90589	3949.375
1142.5369	3895.775
1146.16542	3775.975
1149.79145	3643.175
1153.415	3509.575
1157.03607	3422.775
1160.65467	3353.975
1164.27079	3303.775
1167.88443	3284.175
1171.49561	3302.575
1175.10432	3321.875
1178.71056	3399.275
1182.31434	3449.675
1185.91565	3472.175
1189.51451	3502.675
1193.11091	3523.275
1196.70485	3509.775
1200.29634	3519.075
1203.88538	3529.175
1207.47197	3505.775
1211.05612	3484.975
1214.63782	3445.775
1218.21708	3406.275
1221.79391	3347.575
1225.36829	3310.975
1228.94024	3306.575
1232.50976	3277.375
1236.07685	3277.275
1239.6415	3270.075
1243.20374	3285.775
1246.76355	3291.575
1250.32093	3330.775
1253.8759	3332.575
1257.42845	3347.775
1260.97859	3354.175
1264.52631	3351.575
1268.07163	3356.475
1271.61453	3340.975
1275.15503	3336.075
1278.69312	3318.375
1282.22882	3303.475
1285.76211	3301.375
1289.29301	3300.675
1292.82151	3323.475
1296.34761	3353.775
1299.87133	3403.175
1303.39266	3447.075
1306.9116	3515.475
1310.42815	3604.675
1313.94233	3660.775
1317.45412	3681.575
1320.96354	3670.075
1324.47058	3658.275
1327.97525	3647.475
1331.47754	3620.075
1334.97747	3633.875
1338.47502	3657.475
1341.97022	3707.475
1345.46305	3757.575
1348.95352	3824.175
1352.44163	3901.475
1355.92738	4006.575
1359.41078	4100.675
1362.89183	4188.375
1366.37053	4176.875
1369.84688	4058.375
1373.32088	3918.375
1376.79254	3813.875
1380.26186	3724.075
1383.72883	3664.975
1387.19347	3632.875
1390.65578	3564.375
1394.11575	3535.975
1397.57339	3465.875
1401.0287	3419.175
1404.48168	3382.175
1407.93234	3349.975
1411.38068	3312.575
1414.82669	3291.375
1418.27039	3227.775
1421.71177	3189.075
1425.15083	3140.975
1428.58758	3098.375
1432.02203	3050.475
1435.45416	3021.475
1438.88399	2987.475
1442.31151	2952.375
1445.73673	2952.575
1449.15965	2958.775
1452.58027	2939.775
1455.9986	2920.075
1459.41463	2937.875
1462.82837	2955.975
1466.23982	2961.775
1469.64898	2984.975
1473.05586	3007.675
1476.46045	3016.875
1479.86276	3021.775
1483.26279	3025.175
1486.66054	3034.375
1490.05602	3054.075
1493.44922	3072.975
1496.84016	3111.375
1500.22882	3163.475
1503.61521	3242.575
1506.99934	3335.275
1510.38121	3415.075
1513.76081	3449.875
1517.13816	3381.675
1520.51324	3314.675
1523.88607	3229.475
1527.25665	3177.675
1530.62498	3168.175
1533.99105	3154.975
1537.35488	3170.175
1540.71647	3167.775
1544.07581	3195.775
1547.4329	3213.775
1550.78776	3232.275
1554.14038	3269.975
1557.49077	3280.975
1560.83892	3289.075
1564.18484	3303.275
1567.52853	3314.875
1570.86999	3338.575
1574.20922	3357.175
1577.54624	3375.475
1580.88103	3350.675
1584.2136	3330.975
1587.54395	3301.375
1590.87208	3270.475
1594.19801	3259.875
1597.52172	3262.875
1600.84321	3285.775
1604.16251	3277.075
1607.47959	3271.475
1610.79447	3255.375
1614.10715	3231.975
1617.41763	3203.675
1620.7259	3188.875
1624.03199	3173.275
1627.33587	3159.575
1630.63757	3171.375
1633.93707	3184.875
1637.23439	3213.675
1640.52951	3260.575
1643.82246	3316.275
1647.11321	3394.275
1650.40179	3463.175
1653.68819	3491.575
1656.97241	3445.375
1660.25446	3385.075
1663.53433	3336.175
1666.81203	3319.375
1670.08756	3292.875
1673.36092	3284.975
1676.63211	3272.275
1679.90115	3270.075
1683.16801	3244.675
1686.43272	3211.975
1689.69527	3173.775
1692.95567	3122.875
1696.2139	3083.975
1699.46999	3045.275
1702.72392	2986.875
1705.97571	2925.775
1709.22535	2864.475
1712.47284	2825.675
1715.71819	2801.175
1718.96139	2772.475
1722.20246	2744.175
1725.44139	2710.775
1728.67818	2688.975
1731.91284	2659.275
1735.14537	2615.675
1738.37576	2600.875
1741.60403	2575.375
1744.83017	2569.175
1748.05418	2578.875
1751.27607	2568.675
1754.49584	2585.475
1757.71349	2611.975
1760.92903	2596.275
1764.14244	2585.475
1767.35375	2565.175
1770.56294	2536.775
1773.77002	2504.975
1776.97499	2464.975
1780.17785	2419.175
1783.37861	2387.475
1786.57727	2356.575
1789.77382	2330.975
1792.96828	2318.975
1796.16064	2295.075
1799.3509	2267.175
1802.53907	2260.875
1805.72514	2231.675
1808.90913	2216.075
1812.09102	2220.975
1815.27083	2208.175
1818.44856	2196.375
1821.6242	2187.975
1824.79776	2170.475
1827.96924	2172.275
1831.13864	2160.375
1834.30597	2172.575
1837.47122	2161.275
1840.6344	2146.875
1843.7955	2150.675
1846.95454	2136.975
1850.11151	2144.575
1853.26642	2125.375
1856.41926	2129.875
1859.57004	2128.575
1862.71876	2123.575
1865.86542	2117.675
1869.01003	2116.075
1872.15258	2105.875
1875.29308	2111.175
1878.43152	2096.775
1881.56792	2084.775
1884.70227	2081.575
1887.83457	2077.275
1890.96482	2084.975
1894.09304	2074.575
1897.21921	2067.075
1900.34335	2067.075
1903.46544	2068.075
1906.58551	2059.475
1909.70353	2054.675
1912.81953	2039.875
1915.93349	2046.475
1919.04543	2047.175
1922.15534	2040.875
1925.26322	2027.075
1928.36908	2022.375
1931.47292	2025.675
1934.57473	2015.075
1937.67453	2016.175
1940.77232	2006.575
1943.86808	1987.575
1946.96184	1990.575
1950.05358	1978.375
1953.14331	1976.775
1956.23103	1960.575
1959.31675	1956.275
1962.40046	1950.275
1965.48217	1937.875
1968.56188	1948.975
1971.63959	1927.775
1974.7153	1920.575
1977.78901	1925.075
1980.86073	1919.875
1983.93046	1897.675
1986.99819	1903.875
1990.06394	1893.675
1993.1277	1887.775
1996.18947	1878.775
1999.24925	1875.475
2002.30706	1857.575
2005.36288	1866.775
2008.41672	1854.475
2011.46859	1842.875
2014.51848	1832.875
2017.56639	1841.675
2020.61233	1812.175
2023.6563	1816.375
2026.6983	1808.975
2029.73833	1815.375
2032.7764	1806.275
2035.8125	1792.375
2038.84664	1795.575
2041.87881	1786.675
2044.90903	1779.775
2047.93729	1778.775
2050.96359	1775.175
2053.98794	1763.675
2057.01034	1764.875
2060.03078	1777.575
2063.04927	1775.375
2066.06582	1758.375
2069.08042	1760.075
2072.09307	1755.875
2075.10378	1762.375
2078.11255	1754.475
2081.11938	1745.075
2084.12426	1745.275
2087.12722	1757.475
2090.12824	1753.275
2093.12732	1752.275
2096.12447	1746.475
2099.11969	1743.575
2102.11299	1739.575
2105.10435	1740.375
2108.09379	1736.875
2111.08131	1738.075
2114.0669	1737.575
2117.05057	1755.075
2120.03233	1739.375
2123.01216	1740.175
2125.99008	1742.475
2128.96609	1736.775
2131.94018	1748.975
2134.91236	1745.475
2137.88263	1742.775
2140.851	1739.675
2143.81746	1741.175
2146.78201	1737.875
2149.74466	1750.275
2152.7054	1742.275
2155.66425	1745.875
2158.6212	1747.175
2161.57625	1733.975
2164.52941	1730.675
2167.48067	1732.875
2170.43004	1738.775
2173.37752	1722.175
2176.32311	1725.975
2179.26681	1716.175
2182.20863	1720.875
2185.14856	1726.475
2188.08661	1718.375
2191.02278	1714.575
2193.95707	1716.775
2196.88948	1720.275
2199.82001	1711.875
2202.74867	1697.275
2205.67545	1706.375
2208.60037	1699.575
2211.52341	1689.675
2214.44458	1690.675
2217.36388	1684.375
2220.28132	1681.075
2223.1969	1681.875
2226.11061	1681.075
2229.02246	1664.675
2231.93245	1671.875
2234.84058	1657.175
2237.74686	1666.775
2240.65128	1647.775
2243.55385	1650.475
2246.45456	1633.075
2249.35343	1640.075
2252.25044	1640.275
2255.14561	1630.175
2258.03893	1645.475
2260.93041	1639.075
2263.82004	1620.775
2266.70783	1617.175
2269.59378	1615.275
2272.4779	1602.875
2275.36017	1593.975
2278.24061	1598.975
2281.11922	1597.875
2283.996	1596.275
2286.87094	1583.175
2289.74405	1577.575
2292.61534	1583.675
2295.4848	1584.275
2298.35243	1588.175
2301.21824	1576.875
2304.08223	1582.175
2306.94439	1561.675
2309.80474	1559.975
2312.66327	1563.375
2315.51999	1553.975
2318.37489	1559.875
2321.22797	1550.975
2324.07925	1549.075
2326.92871	1539.075
2329.77637	1538.575
2332.62222	1546.775
2335.46626	1537.475
2338.3085	1529.475
2341.14893	1529.075
2343.98756	1517.475
2346.8244	1522.275
2349.65943	1514.575
2352.49267	1514.775
2355.32411	1512.275
2358.15376	1510.275
2360.98161	1505.975
2363.80768	1504.675
2366.63195	1509.975
2369.45444	1505.475
2372.27514	1499.375
2375.09405	1504.875
2377.91118	1496.475
2380.72652	1493.675
2383.54009	1488.375
2386.35187	1487.775
2389.16188	1483.775
2391.97011	1481.975
2394.77657	1467.975
2397.58125	1467.075
2400.38416	1465.075
2403.18529	1461.575
2405.98466	1457.475
2408.78226	1456.375
2411.57809	1449.175
2414.37216	1447.075
2417.16446	1450.175
2419.955	1447.075
2422.74378	1443.075
2425.5308	1431.675
2428.31606	1440.275
2431.09956	1446.775
2433.88131	1435.975
2436.6613	1442.175
2439.43954	1434.675
2442.21603	1432.875
2444.99077	1424.575
2447.76377	1421.675
2450.53501	1416.775
2453.30451	1417.675
2456.07226	1420.575
2458.83827	1416.775
2461.60254	1416.275
2464.36507	1404.675
2467.12586	1401.675
2469.88492	1410.075
2472.64224	1401.675
2475.39782	1402.975
2478.15167	1407.575
2480.90379	1392.175
2483.65417	1395.675
2486.40283	1396.775
2489.14976	1387.675
2491.89497	1392.575
2494.63845	1387.275
2497.3802	1395.275
2500.12024	1385.775
2502.85855	1379.375
2505.59514	1368.175
2508.33002	1371.575
2511.06318	1378.975
2513.79462	1365.375
2516.52435	1358.975
2519.25237	1364.275
2521.97867	1357.375
2524.70327	1358.475
2527.42616	1356.475
2530.14734	1348.975
2532.86681	1350.075
2535.58458	1348.975
2538.30065	1348.775
2541.01501	1336.175
2543.72768	1338.275
2546.43864	1337.375
2549.14791	1329.175
2551.85548	1324.775
2554.56136	1317.775
2557.26554	1314.675
2559.96803	1311.675
2562.66883	1314.875
2565.36794	1313.375
2568.06536	1308.475
2570.7611	1308.175
2573.45514	1312.075
2576.14751	1299.275
2578.83819	1289.275
2581.52719	1296.075
2584.21451	1284.875
2586.90015	1286.875
2589.58411	1288.575
2592.2664	1282.575
2594.94701	1276.775
2597.62594	1271.175
2600.30321	1272.575
2602.9788	1272.275
2605.65273	1267.275
2608.32498	1265.875
2610.99557	1264.275
2613.66449	1251.575
2616.33175	1261.875
2618.99734	1253.975
2621.66128	1248.975
2624.32355	1247.575
2626.98416	1247.375
2629.64311	1247.575
2632.30041	1239.375
2634.95605	1237.475
2637.61004	1245.775
2640.26238	1234.075
2642.91306	1239.375
2645.56209	1232.975
2648.20948	1237.875
2650.85521	1234.175
2653.4993	1227.975
2656.14175	1227.675
2658.78255	1226.475
2661.42171	1232.075
2664.05923	1221.375
2666.6951	1217.275
2669.32934	1230.175
2671.96194	1221.875
2674.59291	1220.675
2677.22224	1222.075
2679.84993	1226.375
2682.476	1218.575
2685.10043	1225.775
2687.72324	1216.075
2690.34441	1215.575
2692.96396	1215.175
2695.58188	1220.975
2698.19818	1218.375
2700.81285	1220.675
2703.4259	1228.975
2706.03733	1255.275
2708.64714	1241.475
2711.25533	1230.675
2713.86191	1225.575
2716.46687	1215.575
2719.07021	1213.175
2721.67194	1212.175
2724.27206	1208.075
2726.87057	1213.675
2729.46747	1208.975
2732.06276	1203.575
2734.65644	1206.675
2737.24852	1201.875
2739.83899	1195.475
2742.42786	1199.375
2745.01513	1193.775
2747.60079	1197.275
2750.18486	1185.475
2752.76733	1187.775
2755.3482	1192.475
2757.92747	1189.175
2760.50515	1182.575
2763.08123	1185.275
2765.65573	1176.275
2768.22863	1186.875
2770.79994	1180.475
2773.36967	1176.375
2775.9378	1172.375
2778.50435	1166.175
2781.06932	1167.575
2783.6327	1165.675
2786.1945	1161.375
2788.75471	1166.675
2791.31335	1161.775
2793.87041	1155.975
2796.42589	1154.375
2798.97979	1153.575
2801.53212	1150.575
2804.08288	1146.275
2806.63206	1139.275
2809.17967	1138.575
2811.72571	1138.975
2814.27018	1144.775
2816.81308	1131.875
2819.35442	1138.475
2821.89419	1137.875
2824.43239	1129.575
2826.96904	1129.075
2829.50412	1133.575
2832.03763	1132.175
2834.56959	1128.875
2837.1	1115.175
2839.62884	1122.175
2842.15613	1129.475
2844.68186	1119.675
2847.20604	1124.075
2849.72867	1120.275
2852.24974	1117.975
2854.76927	1124.175
2857.28724	1132.375
2859.80367	1116.375
2862.31855	1110.675
2864.83189	1117.475
2867.34368	1107.075
2869.85393	1108.675
2872.36264	1103.675
2874.8698	1106.875
2877.37543	1111.475
2879.87952	1109.475
2882.38207	1109.675
2884.88308	1113.075
2887.38256	1118.575
2889.88051	1111.675
2892.37692	1116.875
2894.8718	1106.375
2897.36515	1113.175
2899.85698	1114.675
2902.34727	1122.075
2904.83604	1125.175
2907.32328	1123.075
2909.809	1130.475
2912.29319	1132.475
2914.77587	1130.975
2917.25702	1130.775
2919.73665	1142.275
2922.21476	1134.675
2924.69136	1144.375
2927.16644	1138.475
2929.64	1140.975
2932.11205	1144.375
2934.58258	1146.175
2937.05161	1140.375
2939.51912	1150.675
2941.98513	1152.975
2944.44962	1154.975
2946.91261	1149.875
2949.37409	1154.675
2951.83407	1151.375
2954.29254	1147.975
2956.74951	1154.175
2959.20498	1144.575
2961.65895	1144.775
2964.11142	1136.875
2966.56239	1139.475
2969.01186	1133.875
2971.45984	1126.275
2973.90632	1127.275
2976.35131	1111.275
2978.7948	1117.875
2981.23681	1112.275
2983.67732	1117.275
2986.11635	1116.475
2988.55388	1109.975
2990.98993	1106.775
2993.4245	1098.275
2995.85758	1103.875
2998.28917	1097.775
3000.71928	1099.675
3003.14791	1100.775
3005.57506	1094.175
3008.00073	1101.275
3010.42493	1096.175
3012.84764	1096.175
3015.26888	1096.475
3017.68865	1098.375
3020.10694	1100.075
3022.52376	1091.975
3024.9391	1095.675
3027.35298	1084.775
3029.76539	1093.875
3032.17632	1094.375
3034.5858	1092.075
3036.9938	1092.275
3039.40034	1088.575
3041.80542	1093.575
3044.20903	1088.575
3046.61118	1095.275
3049.01187	1086.775
3051.4111	1088.475
3053.80888	1081.675
3056.20519	1101.575
3058.60005	1086.175
3060.99345	1093.375
3063.3854	1091.075
3065.7759	1093.875
3068.16494	1100.575
3070.55254	1087.175
3072.93868	1093.675
3075.32338	1099.475
3077.70662	1102.775
3080.08842	1100.475
3082.46878	1109.175
3084.84769	1109.075
3087.22515	1107.175
3089.60118	1112.075
3091.97576	1112.775
3094.3489	1112.275
3096.72061	1113.075
3099.09087	1128.375
3101.4597	1137.275
3103.82709	1133.275
3106.19305	1127.875
3108.55757	1141.075
3110.92066	1131.875
3113.28232	1134.575
3115.64255	1139.075
3118.00134	1144.575
3120.35871	1142.875
3122.71466	1145.675
3125.06917	1150.575
3127.42226	1146.075
3129.77393	1166.075
3132.12417	1161.875
3134.47299	1169.475
3136.82039	1171.775
3139.16636	1173.775
3141.51092	1180.075
3143.85406	1188.775
3146.19579	1193.075
3148.53609	1195.575
3150.87499	1211.575
3153.21246	1219.975
3155.54853	1220.175
3157.88318	1223.775
3160.21642	1220.375
3162.54826	1233.175
3164.87868	1233.475
3167.2077	1243.975
3169.5353	1241.775
3171.86151	1245.875
3174.18631	1252.775
3176.5097	1259.375
3178.83169	1255.275
3181.15228	1252.975
3183.47147	1265.975
3185.78926	1268.275
3188.10565	1270.075
3190.42065	1277.675
3192.73424	1282.175
3195.04645	1288.075
3197.35725	1276.475
3199.66667	1283.075
3201.97469	1293.475
3204.28132	1303.375
3206.58656	1308.975
3208.8904	1313.375
3211.19287	1313.975
3213.49394	1316.275
3215.79363	1309.075
3218.09193	1316.675
3220.38884	1333.075
3222.68438	1338.375
3224.97853	1323.575
3227.2713	1325.375
3229.56269	1320.875
3231.8527	1328.875
3234.14133	1329.575
3236.42858	1328.175
