Data from AgNPs_FTO_APTES_UA_0.1mM_CRN_200uM_NaF_0.1M_Addition_RamanShift__21__14-19-17-736.txt Node

Date: Mon Dec 20 14:19:17 GMT 2021
User: TCL
Spectrometer: QEP01345
Trigger mode: 4
Integration Time (sec): 7.000000E0
Scans to average: 10
Electric dark correction enabled: true
Nonlinearity correction enabled: false
Boxcar width: 0
XAxis mode: Raman Shifts
Number of Pixels in Spectrum: 1044
>>>>>Begin Spectral Data<<<<<
46.04893	-0.075
50.45542	-0.275
54.85868	-1.375
59.25871	1.025
63.6555	25.125
68.04907	26.425
72.43941	29.425
76.82654	30.125
81.21044	33.825
85.59113	36.125
89.96862	33.825
94.34289	40.025
98.71396	36.625
103.08183	37.325
107.4465	38.525
111.80798	40.225
116.16626	41.025
120.52136	42.925
124.87327	44.225
129.222	42.825
133.56755	46.525
137.90993	51.325
142.24913	51.625
146.58517	55.325
150.91804	67.425
155.24774	76.525
159.57429	90.025
163.89768	110.925
168.21792	142.625
172.53501	187.425
176.84895	252.425
181.15975	346.425
185.46741	475.425
189.77193	669.725
194.07331	888.425
198.37157	1155.725
202.6667	1436.625
206.9587	1723.425
211.24758	2016.125
215.53334	2303.025
219.81599	2603.525
224.09553	2888.025
228.37195	3228.525
232.64527	3575.025
236.91549	3919.125
241.18261	4245.825
245.44663	4543.625
249.70755	4814.725
253.96539	5035.625
258.22014	5228.225
262.4718	5356.725
266.72039	5391.325
270.96589	5414.125
275.20832	5386.325
279.44768	5293.225
283.68397	5191.125
287.91719	5114.725
292.14735	5055.125
296.37445	5004.625
300.59849	4969.925
304.81948	4978.625
309.03742	4948.425
313.25231	4885.525
317.46415	4814.025
321.67296	4714.825
325.87872	4665.125
330.08145	4626.625
334.28114	4623.225
338.47781	4639.125
342.67145	4678.125
346.86207	4719.225
351.04966	4783.925
355.23424	4864.225
359.4158	4959.325
363.59435	5013.025
367.76989	5061.825
371.94243	5088.425
376.11196	5135.925
380.27849	5191.725
384.44203	5238.225
388.60257	5282.425
392.76012	5323.625
396.91468	5395.525
401.06626	5414.525
405.21485	5468.225
409.36047	5484.925
413.50311	5458.525
417.64277	5407.825
421.77947	5393.025
425.9132	5382.925
430.04396	5396.525
434.17176	5435.325
438.2966	5444.525
442.41849	5481.325
446.53742	5570.125
450.6534	5634.825
454.76644	5671.325
458.87653	5706.125
462.98368	5702.725
467.08789	5728.325
471.18916	5731.425
475.2875	5741.625
479.38291	5774.025
483.4754	5868.625
487.56496	5941.125
491.6516	6014.625
495.73531	6069.225
499.81612	6064.225
503.89401	5987.625
507.96899	5921.025
512.04106	5872.325
516.11023	5842.225
520.1765	5854.025
524.23987	5898.825
528.30034	5931.425
532.35792	5921.525
536.41261	5878.825
540.46441	5801.525
544.51333	5733.625
548.55936	5682.425
552.60252	5684.025
556.64279	5687.425
560.6802	5679.925
564.71473	5722.225
568.7464	5775.325
572.7752	5816.225
576.80114	5858.925
580.82422	5876.325
584.84444	5924.925
588.86181	6001.825
592.87633	6063.625
596.888	6068.425
600.89682	6048.525
604.9028	6134.225
608.90594	6407.525
612.90624	6802.625
616.90371	6840.525
620.89834	6573.525
624.89015	6622.825
628.87913	6980.825
632.86528	7404.325
636.84862	7636.525
640.82913	7578.425
644.80683	7257.025
648.78172	6857.725
652.75379	6564.925
656.72306	6349.725
660.68952	6299.625
664.65319	6273.625
668.61405	6259.525
672.57211	6346.525
676.52738	6418.225
680.47986	6464.525
684.42955	6457.825
688.37646	6406.025
692.32058	6324.325
696.26192	6226.925
700.20048	6167.825
704.13626	6096.325
708.06928	6020.425
711.99952	5923.125
715.927	5855.625
719.85171	5825.025
723.77365	5862.725
727.69284	5860.825
731.60928	5821.925
735.52295	5746.325
739.43388	5702.825
743.34206	5694.725
747.24749	5700.125
751.15017	5698.725
755.05012	5719.125
758.94733	5766.425
762.8418	5888.225
766.73354	6073.725
770.62254	6225.125
774.50882	6289.325
778.39237	6188.225
782.27321	5984.025
786.15132	5806.625
790.02671	5726.525
793.89938	5695.125
797.76935	5732.925
801.6366	5804.325
805.50115	5932.525
809.36299	6127.825
813.22213	6194.025
817.07857	6114.825
820.93231	5932.125
824.78336	5710.425
828.63172	5532.225
832.47738	5446.325
836.32036	5391.625
840.16066	5366.425
843.99827	5353.125
847.8332	5331.225
851.66546	5323.325
855.49504	5308.925
859.32195	5324.625
863.1462	5364.225
866.96777	5417.925
870.78668	5473.025
874.60293	5588.425
878.41652	5686.325
882.22745	5816.725
886.03573	5887.425
889.84136	5908.725
893.64433	5802.625
897.44466	5624.825
901.24235	5444.325
905.0374	5319.425
908.8298	5217.625
912.61957	5169.625
916.40671	5126.125
920.19121	5112.625
923.97308	5122.825
927.75233	5110.725
931.52895	5124.325
935.30295	5114.725
939.07433	5094.725
942.84309	5045.625
946.60924	5043.825
950.37278	5020.325
954.13371	5007.025
957.89203	5001.425
961.64774	4978.125
965.40086	4945.925
969.15137	4918.125
972.89929	4887.725
976.64461	4860.425
980.38733	4859.325
984.12747	4856.925
987.86502	4862.525
991.59999	4872.425
995.33237	4914.825
999.06217	4968.325
1002.78939	5039.925
1006.51404	5132.525
1010.23611	5191.725
1013.95561	5249.625
1017.67255	5258.825
1021.38692	5245.725
1025.09872	5171.025
1028.80796	5087.625
1032.51465	5017.325
1036.21877	4974.525
1039.92035	4945.825
1043.61937	4928.125
1047.31584	4915.125
1051.00976	4939.325
1054.70114	4959.225
1058.38998	4974.025
1062.07627	5042.125
1065.76003	5083.225
1069.44126	5128.325
1073.11995	5174.825
1076.79611	5180.125
1080.46974	5157.925
1084.14085	5101.125
1087.80943	5041.825
1091.47549	5000.625
1095.13903	4954.625
1098.80005	4913.625
1102.45857	4886.725
1106.11456	4871.825
1109.76805	4892.225
1113.41903	4963.125
1117.06751	5080.225
1120.71348	5281.925
1124.35696	5597.825
1127.99793	5966.125
1131.63641	6323.125
1135.2724	6530.825
1138.90589	6560.025
1142.5369	6395.225
1146.16542	6117.425
1149.79145	5771.925
1153.415	5472.925
1157.03607	5264.725
1160.65467	5138.025
1164.27079	5111.925
1167.88443	5133.425
1171.49561	5225.625
1175.10432	5361.125
1178.71056	5554.725
1182.31434	5751.825
1185.91565	5863.825
1189.51451	5907.925
1193.11091	5917.625
1196.70485	5965.725
1200.29634	6024.025
1203.88538	6054.125
1207.47197	5980.625
1211.05612	5836.125
1214.63782	5687.625
1218.21708	5482.925
1221.79391	5327.925
1225.36829	5213.725
1228.94024	5120.225
1232.50976	5070.725
1236.07685	5045.425
1239.6415	5041.225
1243.20374	5038.225
1246.76355	5061.325
1250.32093	5085.725
1253.8759	5140.825
1257.42845	5171.125
1260.97859	5226.525
1264.52631	5232.625
1268.07163	5260.925
1271.61453	5277.325
1275.15503	5284.025
1278.69312	5314.625
1282.22882	5321.325
1285.76211	5361.225
1289.29301	5429.725
1292.82151	5486.525
1296.34761	5622.525
1299.87133	5777.825
1303.39266	5964.925
1306.9116	6190.925
1310.42815	6402.125
1313.94233	6597.225
1317.45412	6626.325
1320.96354	6585.225
1324.47058	6490.125
1327.97525	6442.825
1331.47754	6429.525
1334.97747	6458.425
1338.47502	6488.725
1341.97022	6566.925
1345.46305	6644.925
1348.95352	6773.125
1352.44163	6885.825
1355.92738	7050.225
1359.41078	7311.325
1362.89183	7573.625
1366.37053	7532.725
1369.84688	7157.625
1373.32088	6715.825
1376.79254	6384.525
1380.26186	6194.925
1383.72883	6075.625
1387.19347	5982.825
1390.65578	5899.925
1394.11575	5840.525
1397.57339	5774.525
1401.0287	5759.725
1404.48168	5714.625
1407.93234	5657.525
1411.38068	5567.225
1414.82669	5429.925
1418.27039	5297.625
1421.71177	5124.225
1425.15083	5013.325
1428.58758	4893.525
1432.02203	4845.625
1435.45416	4813.225
1438.88399	4798.125
1442.31151	4776.525
1445.73673	4793.025
1449.15965	4803.625
1452.58027	4816.825
1455.9986	4828.525
1459.41463	4840.725
1462.82837	4854.925
1466.23982	4913.225
1469.64898	4955.225
1473.05586	4984.925
1476.46045	4988.425
1479.86276	4973.825
1483.26279	4993.725
1486.66054	4984.825
1490.05602	5007.425
1493.44922	5065.025
1496.84016	5162.125
1500.22882	5275.625
1503.61521	5474.725
1506.99934	5688.525
1510.38121	5878.225
1513.76081	5947.825
1517.13816	5809.425
1520.51324	5595.725
1523.88607	5383.825
1527.25665	5252.825
1530.62498	5204.225
1533.99105	5188.825
1537.35488	5223.125
1540.71647	5239.625
1544.07581	5250.425
1547.4329	5253.625
1550.78776	5279.625
1554.14038	5298.625
1557.49077	5299.325
1560.83892	5343.925
1564.18484	5360.625
1567.52853	5390.425
1570.86999	5444.925
1574.20922	5502.825
1577.54624	5550.425
1580.88103	5537.425
1584.2136	5482.825
1587.54395	5448.025
1590.87208	5447.325
1594.19801	5515.625
1597.52172	5603.225
1600.84321	5694.225
1604.16251	5624.725
1607.47959	5526.925
1610.79447	5424.825
1614.10715	5312.325
1617.41763	5202.725
1620.7259	5117.225
1624.03199	5089.025
1627.33587	5060.025
1630.63757	5105.125
1633.93707	5170.425
1637.23439	5307.125
1640.52951	5515.225
1643.82246	5761.325
1647.11321	6027.525
1650.40179	6190.625
1653.68819	6166.325
1656.97241	5916.125
1660.25446	5610.925
1663.53433	5361.525
1666.81203	5223.525
1670.08756	5094.325
1673.36092	5061.425
1676.63211	5004.525
1679.90115	4935.025
1683.16801	4891.125
1686.43272	4809.825
1689.69527	4728.525
1692.95567	4618.425
1696.2139	4524.825
1699.46999	4404.025
1702.72392	4286.225
1705.97571	4170.225
1709.22535	4069.125
1712.47284	4019.725
1715.71819	3961.025
1718.96139	3898.225
1722.20246	3856.825
1725.44139	3808.125
1728.67818	3765.225
1731.91284	3728.325
1735.14537	3681.825
1738.37576	3648.025
1741.60403	3635.525
1744.83017	3611.525
1748.05418	3617.025
1751.27607	3600.125
1754.49584	3616.025
1757.71349	3628.625
1760.92903	3587.125
1764.14244	3578.725
1767.35375	3532.925
1770.56294	3519.425
1773.77002	3464.025
1776.97499	3443.725
1780.17785	3396.025
1783.37861	3369.125
1786.57727	3335.525
1789.77382	3300.725
1792.96828	3275.825
1796.16064	3251.825
1799.3509	3236.525
1802.53907	3207.425
1805.72514	3186.925
1808.90913	3180.725
1812.09102	3178.325
1815.27083	3160.025
1818.44856	3136.725
1821.6242	3143.525
1824.79776	3134.625
1827.96924	3111.925
1831.13864	3100.225
1834.30597	3114.625
1837.47122	3103.825
1840.6344	3087.225
1843.7955	3091.225
1846.95454	3084.525
1850.11151	3081.225
1853.26642	3075.225
1856.41926	3065.025
1859.57004	3066.025
1862.71876	3063.825
1865.86542	3055.525
1869.01003	3049.525
1872.15258	3035.125
1875.29308	3035.225
1878.43152	3020.925
1881.56792	3013.125
1884.70227	3013.825
1887.83457	3008.225
1890.96482	2996.725
1894.09304	2994.725
1897.21921	2983.625
1900.34335	2983.625
1903.46544	2976.625
1906.58551	2973.525
1909.70353	2966.125
1912.81953	2968.925
1915.93349	2956.925
1919.04543	2943.425
1922.15534	2937.925
1925.26322	2931.525
1928.36908	2914.625
1931.47292	2905.825
1934.57473	2906.825
1937.67453	2898.025
1940.77232	2886.525
1943.86808	2886.725
1946.96184	2872.925
1950.05358	2864.725
1953.14331	2851.825
1956.23103	2838.425
1959.31675	2833.125
1962.40046	2823.825
1965.48217	2808.925
1968.56188	2799.125
1971.63959	2795.525
1974.7153	2765.725
1977.78901	2768.525
1980.86073	2756.325
1983.93046	2749.925
1986.99819	2738.325
1990.06394	2728.325
1993.1277	2726.225
1996.18947	2706.025
1999.24925	2707.625
2002.30706	2700.225
2005.36288	2687.825
2008.41672	2679.825
2011.46859	2678.025
2014.51848	2663.325
2017.56639	2646.125
2020.61233	2631.925
2023.6563	2629.025
2026.6983	2616.125
2029.73833	2609.325
2032.7764	2612.725
2035.8125	2600.925
2038.84664	2592.525
2041.87881	2603.425
2044.90903	2583.625
2047.93729	2580.025
2050.96359	2578.525
2053.98794	2558.925
2057.01034	2558.025
2060.03078	2555.425
2063.04927	2553.325
2066.06582	2555.925
2069.08042	2552.125
2072.09307	2537.925
2075.10378	2540.725
2078.11255	2530.325
2081.11938	2542.025
2084.12426	2542.325
2087.12722	2541.325
2090.12824	2540.725
2093.12732	2528.125
2096.12447	2539.625
2099.11969	2530.725
2102.11299	2534.825
2105.10435	2517.425
2108.09379	2525.925
2111.08131	2527.225
2114.0669	2528.125
2117.05057	2533.425
2120.03233	2521.325
2123.01216	2523.425
2125.99008	2534.125
2128.96609	2533.325
2131.94018	2529.425
2134.91236	2529.725
2137.88263	2528.825
2140.851	2527.525
2143.81746	2532.825
2146.78201	2529.225
2149.74466	2525.825
2152.7054	2524.625
2155.66425	2515.425
2158.6212	2535.825
2161.57625	2518.025
2164.52941	2520.425
2167.48067	2520.525
2170.43004	2515.325
2173.37752	2504.925
2176.32311	2518.125
2179.26681	2515.125
2182.20863	2503.725
2185.14856	2500.125
2188.08661	2488.525
2191.02278	2497.625
2193.95707	2493.925
2196.88948	2486.625
2199.82001	2477.125
2202.74867	2470.925
2205.67545	2480.125
2208.60037	2468.925
2211.52341	2458.725
2214.44458	2460.525
2217.36388	2442.325
2220.28132	2443.425
2223.1969	2438.825
2226.11061	2423.325
2229.02246	2418.925
2231.93245	2423.025
2234.84058	2414.125
2237.74686	2403.825
2240.65128	2395.025
2243.55385	2397.825
2246.45456	2397.325
2249.35343	2391.325
2252.25044	2383.125
2255.14561	2363.725
2258.03893	2386.225
2260.93041	2373.525
2263.82004	2351.425
2266.70783	2350.925
2269.59378	2344.625
2272.4779	2341.125
2275.36017	2329.325
2278.24061	2339.625
2281.11922	2322.425
2283.996	2315.825
2286.87094	2327.925
2289.74405	2311.125
2292.61534	2306.625
2295.4848	2289.925
2298.35243	2284.525
2301.21824	2287.925
2304.08223	2274.925
2306.94439	2280.925
2309.80474	2275.125
2312.66327	2286.125
2315.51999	2262.325
2318.37489	2270.125
2321.22797	2262.725
2324.07925	2268.425
2326.92871	2263.825
2329.77637	2264.225
2332.62222	2244.525
2335.46626	2244.625
2338.3085	2242.225
2341.14893	2222.625
2343.98756	2225.225
2346.8244	2224.125
2349.65943	2223.225
2352.49267	2220.125
2355.32411	2222.225
2358.15376	2227.225
2360.98161	2210.225
2363.80768	2215.225
2366.63195	2213.325
2369.45444	2202.425
2372.27514	2207.025
2375.09405	2212.525
2377.91118	2197.525
2380.72652	2202.625
2383.54009	2188.025
2386.35187	2190.825
2389.16188	2181.825
2391.97011	2167.825
2394.77657	2162.325
2397.58125	2168.025
2400.38416	2158.625
2403.18529	2156.725
2405.98466	2157.225
2408.78226	2142.025
2411.57809	2135.425
2414.37216	2130.325
2417.16446	2139.125
2419.955	2126.825
2422.74378	2120.025
2425.5308	2110.025
2428.31606	2118.325
2431.09956	2098.325
2433.88131	2099.625
2436.6613	2103.325
2439.43954	2106.025
2442.21603	2091.325
2444.99077	2086.625
2447.76377	2088.025
2450.53501	2083.125
2453.30451	2083.625
2456.07226	2081.725
2458.83827	2075.625
2461.60254	2082.825
2464.36507	2067.225
2467.12586	2071.125
2469.88492	2064.325
2472.64224	2055.325
2475.39782	2074.625
2478.15167	2059.925
2480.90379	2056.225
2483.65417	2052.625
2486.40283	2043.825
2489.14976	2046.325
2491.89497	2048.425
2494.63845	2052.625
2497.3802	2037.425
2500.12024	2041.425
2502.85855	2032.225
2505.59514	2023.125
2508.33002	2024.625
2511.06318	2033.325
2513.79462	2032.325
2516.52435	2023.025
2519.25237	2021.725
2521.97867	2014.125
2524.70327	2007.525
2527.42616	2003.025
2530.14734	1998.725
2532.86681	2000.325
2535.58458	1988.025
2538.30065	1988.425
2541.01501	1990.125
2543.72768	1977.425
2546.43864	1972.125
2549.14791	1973.425
2551.85548	1972.025
2554.56136	1963.425
2557.26554	1965.125
2559.96803	1952.925
2562.66883	1959.125
2565.36794	1941.725
2568.06536	1936.225
2570.7611	1933.325
2573.45514	1929.225
2576.14751	1926.125
2578.83819	1933.525
2581.52719	1915.825
2584.21451	1911.925
2586.90015	1909.625
2589.58411	1908.925
2592.2664	1907.225
2594.94701	1901.225
2597.62594	1900.725
2600.30321	1893.925
2602.9788	1885.625
2605.65273	1875.325
2608.32498	1877.225
2610.99557	1882.825
2613.66449	1875.725
2616.33175	1875.525
2618.99734	1861.825
2621.66128	1860.225
2624.32355	1870.625
2626.98416	1847.525
2629.64311	1854.525
2632.30041	1859.825
2634.95605	1849.325
2637.61004	1844.525
2640.26238	1843.225
2642.91306	1846.525
2645.56209	1837.225
2648.20948	1839.225
2650.85521	1847.125
2653.4993	1840.425
2656.14175	1829.225
2658.78255	1842.025
2661.42171	1828.325
2664.05923	1833.625
2666.6951	1830.725
2669.32934	1829.325
2671.96194	1830.625
2674.59291	1825.125
2677.22224	1824.225
2679.84993	1830.425
2682.476	1836.125
2685.10043	1828.125
2687.72324	1823.025
2690.34441	1819.425
2692.96396	1829.725
2695.58188	1829.825
2698.19818	1832.625
2700.81285	1826.125
2703.4259	1834.425
2706.03733	1857.525
2708.64714	1840.625
2711.25533	1837.725
2713.86191	1828.125
2716.46687	1832.825
2719.07021	1823.425
2721.67194	1835.425
2724.27206	1817.625
2726.87057	1823.625
2729.46747	1825.825
2732.06276	1817.625
2734.65644	1825.325
2737.24852	1822.325
2739.83899	1811.025
2742.42786	1814.325
2745.01513	1808.425
2747.60079	1809.025
2750.18486	1791.225
2752.76733	1795.225
2755.3482	1792.625
2757.92747	1794.425
2760.50515	1798.325
2763.08123	1795.325
2765.65573	1788.125
2768.22863	1792.125
2770.79994	1775.225
2773.36967	1784.125
2775.9378	1783.525
2778.50435	1779.225
2781.06932	1764.425
2783.6327	1780.025
2786.1945	1778.325
2788.75471	1763.725
2791.31335	1765.325
2793.87041	1754.725
2796.42589	1749.125
2798.97979	1750.925
2801.53212	1760.225
2804.08288	1754.025
2806.63206	1739.125
2809.17967	1740.525
2811.72571	1741.825
2814.27018	1730.225
2816.81308	1726.125
2819.35442	1730.825
2821.89419	1724.825
2824.43239	1725.125
2826.96904	1725.525
2829.50412	1726.125
2832.03763	1719.325
2834.56959	1723.525
2837.1	1721.625
2839.62884	1718.425
2842.15613	1720.225
2844.68186	1724.725
2847.20604	1713.625
2849.72867	1716.525
2852.24974	1718.325
2854.76927	1725.125
2857.28724	1718.225
2859.80367	1721.925
2862.31855	1708.625
2864.83189	1712.725
2867.34368	1713.025
2869.85393	1718.825
2872.36264	1704.825
2874.8698	1713.825
2877.37543	1720.925
2879.87952	1724.025
2882.38207	1720.725
2884.88308	1729.325
2887.38256	1731.725
2889.88051	1730.025
2892.37692	1736.325
2894.8718	1726.725
2897.36515	1739.125
2899.85698	1737.625
2902.34727	1748.225
2904.83604	1744.225
2907.32328	1756.625
2909.809	1763.125
2912.29319	1759.825
2914.77587	1768.925
2917.25702	1766.225
2919.73665	1766.025
2922.21476	1772.725
2924.69136	1771.825
2927.16644	1782.525
2929.64	1781.525
2932.11205	1786.725
2934.58258	1781.525
2937.05161	1791.125
2939.51912	1787.825
2941.98513	1779.825
2944.44962	1780.325
2946.91261	1772.025
2949.37409	1776.625
2951.83407	1782.425
2954.29254	1775.225
2956.74951	1776.225
2959.20498	1766.325
2961.65895	1758.425
2964.11142	1755.925
2966.56239	1745.025
2969.01186	1743.625
2971.45984	1733.125
2973.90632	1724.125
2976.35131	1718.825
2978.7948	1713.425
2981.23681	1714.325
2983.67732	1705.625
2986.11635	1702.325
2988.55388	1704.325
2990.98993	1698.025
2993.4245	1693.625
2995.85758	1693.325
2998.28917	1686.925
3000.71928	1686.025
3003.14791	1682.125
3005.57506	1683.125
3008.00073	1688.825
3010.42493	1683.025
3012.84764	1696.125
3015.26888	1685.125
3017.68865	1681.625
3020.10694	1681.125
3022.52376	1689.025
3024.9391	1687.825
3027.35298	1681.025
3029.76539	1674.325
3032.17632	1679.125
3034.5858	1679.225
3036.9938	1682.925
3039.40034	1684.725
3041.80542	1673.025
3044.20903	1676.125
3046.61118	1680.025
3049.01187	1669.325
3051.4111	1675.525
3053.80888	1671.225
3056.20519	1670.825
3058.60005	1662.825
3060.99345	1680.525
3063.3854	1680.625
3065.7759	1672.825
3068.16494	1673.625
3070.55254	1680.025
3072.93868	1667.225
3075.32338	1675.925
3077.70662	1684.925
3080.08842	1680.725
3082.46878	1688.525
3084.84769	1673.325
3087.22515	1681.225
3089.60118	1698.525
3091.97576	1703.325
3094.3489	1693.625
3096.72061	1714.025
3099.09087	1707.425
3101.4597	1713.125
3103.82709	1727.625
3106.19305	1719.025
3108.55757	1720.525
3110.92066	1731.025
3113.28232	1722.825
3115.64255	1731.825
3118.00134	1728.525
3120.35871	1733.525
3122.71466	1742.925
3125.06917	1736.125
3127.42226	1743.525
3129.77393	1750.625
3132.12417	1762.025
3134.47299	1766.325
3136.82039	1765.925
3139.16636	1769.225
3141.51092	1785.725
3143.85406	1782.525
3146.19579	1795.625
3148.53609	1807.025
3150.87499	1816.625
3153.21246	1813.025
3155.54853	1816.325
3157.88318	1831.725
3160.21642	1840.625
3162.54826	1849.725
3164.87868	1860.325
3167.2077	1854.225
3169.5353	1857.425
3171.86151	1866.025
3174.18631	1866.625
3176.5097	1879.125
3178.83169	1876.725
3181.15228	1885.125
3183.47147	1890.625
3185.78926	1895.125
3188.10565	1894.125
3190.42065	1906.225
3192.73424	1907.625
3195.04645	1910.025
3197.35725	1914.525
3199.66667	1924.925
3201.97469	1932.325
3204.28132	1941.325
3206.58656	1944.625
3208.8904	1951.225
3211.19287	1954.825
3213.49394	1960.225
3215.79363	1963.725
3218.09193	1965.025
3220.38884	1969.225
3222.68438	1981.225
3224.97853	1959.125
3227.2713	1971.425
3229.56269	1966.225
3231.8527	1973.425
3234.14133	1971.225
3236.42858	1964.125
