Data from AgNPs_FTO_APTES_UA_0.1mM_CRN_0uM_NaF_0.1M_Addition_RamanShift__31__10-38-47-487.txt Node

Date: Mon Dec 20 10:38:47 GMT 2021
User: TCL
Spectrometer: QEP01345
Trigger mode: 4
Integration Time (sec): 7.000000E0
Scans to average: 10
Electric dark correction enabled: true
Nonlinearity correction enabled: false
Boxcar width: 0
XAxis mode: Raman Shifts
Number of Pixels in Spectrum: 1044
>>>>>Begin Spectral Data<<<<<
46.04893	0.625
50.45542	-0.575
54.85868	-0.475
59.25871	1.325
63.6555	24.325
68.04907	26.325
72.43941	27.825
76.82654	28.325
81.21044	35.625
85.59113	37.225
89.96862	32.725
94.34289	34.425
98.71396	38.225
103.08183	35.925
107.4465	38.525
111.80798	41.125
116.16626	39.125
120.52136	39.525
124.87327	42.825
129.222	44.625
133.56755	42.025
137.90993	46.725
142.24913	48.025
146.58517	49.425
150.91804	57.825
155.24774	66.325
159.57429	75.225
163.89768	95.525
168.21792	122.625
172.53501	155.125
176.84895	208.625
181.15975	284.625
185.46741	385.525
189.77193	524.925
194.07331	693.125
198.37157	889.525
202.6667	1096.625
206.9587	1302.725
211.24758	1505.425
215.53334	1709.825
219.81599	1922.425
224.09553	2155.225
228.37195	2409.025
232.64527	2685.525
236.91549	2961.525
241.18261	3233.125
245.44663	3475.925
249.70755	3671.125
253.96539	3834.225
258.22014	3961.725
262.4718	4063.325
266.72039	4123.725
270.96589	4120.625
275.20832	4088.925
279.44768	4047.225
283.68397	3986.525
287.91719	3901.025
292.14735	3871.025
296.37445	3847.325
300.59849	3867.225
304.81948	3904.325
309.03742	3914.525
313.25231	3898.725
317.46415	3824.625
321.67296	3727.425
325.87872	3643.925
330.08145	3581.725
334.28114	3547.725
338.47781	3548.725
342.67145	3543.225
346.86207	3573.225
351.04966	3625.425
355.23424	3683.125
359.4158	3765.925
363.59435	3831.125
367.76989	3865.225
371.94243	3921.325
376.11196	3962.325
380.27849	3993.025
384.44203	4021.225
388.60257	4051.925
392.76012	4052.725
396.91468	4086.025
401.06626	4126.525
405.21485	4160.925
409.36047	4137.925
413.50311	4060.725
417.64277	4008.425
421.77947	3975.225
425.9132	3974.725
430.04396	3971.325
434.17176	4011.525
438.2966	4087.025
442.41849	4193.325
446.53742	4329.725
450.6534	4466.825
454.76644	4551.525
458.87653	4552.425
462.98368	4452.425
467.08789	4371.825
471.18916	4309.925
475.2875	4273.025
479.38291	4248.625
483.4754	4306.625
487.56496	4436.425
491.6516	4638.025
495.73531	4784.725
499.81612	4827.625
503.89401	4764.225
507.96899	4651.725
512.04106	4551.725
516.11023	4524.425
520.1765	4524.025
524.23987	4586.525
528.30034	4637.725
532.35792	4644.725
536.41261	4605.125
540.46441	4477.325
544.51333	4372.925
548.55936	4286.525
552.60252	4252.125
556.64279	4274.725
560.6802	4281.825
564.71473	4242.525
568.7464	4209.125
572.7752	4243.425
576.80114	4253.425
580.82422	4306.425
584.84444	4483.225
588.86181	4804.525
592.87633	5140.825
596.888	5275.525
600.89682	5102.825
604.9028	4990.025
608.90594	5275.325
612.90624	5810.225
616.90371	5856.225
620.89834	5332.625
624.89015	5329.125
628.87913	5763.925
632.86528	6328.225
636.84862	6715.125
640.82913	6677.525
644.80683	6352.725
648.78172	5858.925
652.75379	5410.325
656.72306	5071.225
660.68952	4851.625
664.65319	4633.025
668.61405	4444.525
672.57211	4358.225
676.52738	4349.525
680.47986	4349.825
684.42955	4330.825
688.37646	4288.925
692.32058	4251.625
696.26192	4169.825
700.20048	4143.225
704.13626	4114.525
708.06928	4087.425
711.99952	4052.025
715.927	4079.625
719.85171	4156.825
723.77365	4243.725
727.69284	4255.325
731.60928	4221.725
735.52295	4151.025
739.43388	4098.525
743.34206	4119.525
747.24749	4116.825
751.15017	4126.625
755.05012	4145.025
758.94733	4192.025
762.8418	4327.725
766.73354	4613.125
770.62254	4897.925
774.50882	5051.725
778.39237	4912.225
782.27321	4563.125
786.15132	4271.725
790.02671	4082.225
793.89938	4039.925
797.76935	4052.425
801.6366	4171.025
805.50115	4353.825
809.36299	4607.025
813.22213	4715.525
817.07857	4628.925
820.93231	4416.625
824.78336	4203.725
828.63172	4013.425
832.47738	3917.825
836.32036	3862.925
840.16066	3850.325
843.99827	3839.725
847.8332	3810.625
851.66546	3801.925
855.49504	3807.125
859.32195	3806.225
863.1462	3813.825
866.96777	3872.725
870.78668	3962.325
874.60293	4109.325
878.41652	4266.725
882.22745	4443.425
886.03573	4558.125
889.84136	4591.225
893.64433	4485.225
897.44466	4300.625
901.24235	4096.825
905.0374	3895.025
908.8298	3785.125
912.61957	3711.225
916.40671	3685.225
920.19121	3683.225
923.97308	3669.325
927.75233	3670.425
931.52895	3647.225
935.30295	3627.625
939.07433	3577.225
942.84309	3537.825
946.60924	3516.225
950.37278	3474.725
954.13371	3479.125
957.89203	3467.725
961.64774	3441.925
965.40086	3433.725
969.15137	3412.325
972.89929	3421.425
976.64461	3420.025
980.38733	3422.425
984.12747	3409.425
987.86502	3427.225
991.59999	3468.025
995.33237	3508.625
999.06217	3598.225
1002.78939	3727.525
1006.51404	3809.825
1010.23611	3899.325
1013.95561	3982.825
1017.67255	4025.825
1021.38692	3994.925
1025.09872	3890.425
1028.80796	3802.425
1032.51465	3717.925
1036.21877	3655.025
1039.92035	3616.125
1043.61937	3592.225
1047.31584	3569.525
1051.00976	3573.425
1054.70114	3578.125
1058.38998	3581.525
1062.07627	3634.425
1065.76003	3701.225
1069.44126	3759.725
1073.11995	3808.525
1076.79611	3845.825
1080.46974	3867.325
1084.14085	3854.525
1087.80943	3813.025
1091.47549	3766.125
1095.13903	3701.625
1098.80005	3628.525
1102.45857	3583.325
1106.11456	3576.325
1109.76805	3655.925
1113.41903	3781.325
1117.06751	3991.925
1120.71348	4318.625
1124.35696	4777.525
1127.99793	5304.725
1131.63641	5769.925
1135.2724	6004.925
1138.90589	5946.525
1142.5369	5705.825
1146.16542	5332.125
1149.79145	4875.225
1153.415	4477.525
1157.03607	4153.425
1160.65467	3954.125
1164.27079	3869.525
1167.88443	3906.825
1171.49561	4045.625
1175.10432	4300.025
1178.71056	4674.425
1182.31434	5039.925
1185.91565	5266.325
1189.51451	5267.525
1193.11091	5238.225
1196.70485	5201.825
1200.29634	5255.525
1203.88538	5232.925
1207.47197	5134.825
1211.05612	4963.425
1214.63782	4790.825
1218.21708	4652.325
1221.79391	4530.825
1225.36829	4416.925
1228.94024	4300.425
1232.50976	4164.425
1236.07685	4086.225
1239.6415	4053.925
1243.20374	4049.525
1246.76355	4078.325
1250.32093	4106.625
1253.8759	4160.225
1257.42845	4262.725
1260.97859	4346.825
1264.52631	4423.125
1268.07163	4502.525
1271.61453	4510.525
1275.15503	4507.625
1278.69312	4492.625
1282.22882	4501.625
1285.76211	4577.125
1289.29301	4694.825
1292.82151	4839.825
1296.34761	5047.025
1299.87133	5250.525
1303.39266	5512.825
1306.9116	5879.625
1310.42815	6314.825
1313.94233	6620.925
1317.45412	6661.625
1320.96354	6420.625
1324.47058	6062.225
1327.97525	5728.625
1331.47754	5536.225
1334.97747	5458.325
1338.47502	5524.425
1341.97022	5570.525
1345.46305	5619.925
1348.95352	5822.625
1352.44163	6186.525
1355.92738	6768.925
1359.41078	7448.225
1362.89183	8052.225
1366.37053	8082.725
1369.84688	7433.625
1373.32088	6543.825
1376.79254	5934.525
1380.26186	5646.225
1383.72883	5511.825
1387.19347	5338.425
1390.65578	5111.825
1394.11575	4925.925
1397.57339	4845.625
1401.0287	4787.025
1404.48168	4737.925
1407.93234	4665.125
1411.38068	4575.925
1414.82669	4468.025
1418.27039	4345.325
1421.71177	4208.525
1425.15083	4116.325
1428.58758	4089.125
1432.02203	4104.425
1435.45416	4178.425
1438.88399	4224.525
1442.31151	4240.325
1445.73673	4227.925
1449.15965	4215.825
1452.58027	4180.725
1455.9986	4100.125
1459.41463	4064.125
1462.82837	4082.625
1466.23982	4167.225
1469.64898	4301.825
1473.05586	4383.925
1476.46045	4441.725
1479.86276	4525.825
1483.26279	4585.825
1486.66054	4653.725
1490.05602	4705.725
1493.44922	4789.925
1496.84016	4864.125
1500.22882	4985.825
1503.61521	5229.725
1506.99934	5524.525
1510.38121	5778.125
1513.76081	5867.825
1517.13816	5657.725
1520.51324	5313.225
1523.88607	4985.625
1527.25665	4817.425
1530.62498	4776.025
1533.99105	4793.025
1537.35488	4830.425
1540.71647	4869.525
1544.07581	4900.725
1547.4329	4922.325
1550.78776	4913.525
1554.14038	4910.425
1557.49077	4908.125
1560.83892	4911.625
1564.18484	4947.825
1567.52853	4977.725
1570.86999	5051.725
1574.20922	5081.825
1577.54624	5067.325
1580.88103	4974.925
1584.2136	4842.425
1587.54395	4812.525
1590.87208	4897.125
1594.19801	5107.925
1597.52172	5448.325
1600.84321	5727.525
1604.16251	5720.225
1607.47959	5472.225
1610.79447	5149.225
1614.10715	4850.425
1617.41763	4698.025
1620.7259	4612.125
1624.03199	4624.525
1627.33587	4662.525
1630.63757	4777.625
1633.93707	4985.025
1637.23439	5333.125
1640.52951	5777.125
1643.82246	6357.525
1647.11321	6893.525
1650.40179	7093.525
1653.68819	6819.825
1656.97241	6194.725
1660.25446	5545.125
1663.53433	5055.425
1666.81203	4702.825
1670.08756	4434.425
1673.36092	4249.225
1676.63211	4135.725
1679.90115	4021.325
1683.16801	3931.725
1686.43272	3820.525
1689.69527	3694.825
1692.95567	3590.625
1696.2139	3476.125
1699.46999	3368.025
1702.72392	3238.525
1705.97571	3126.825
1709.22535	3001.225
1712.47284	2894.925
1715.71819	2804.225
1718.96139	2740.825
1722.20246	2695.025
1725.44139	2640.825
1728.67818	2593.125
1731.91284	2548.125
1735.14537	2507.625
1738.37576	2484.125
1741.60403	2462.225
1744.83017	2435.725
1748.05418	2432.225
1751.27607	2412.825
1754.49584	2392.725
1757.71349	2389.925
1760.92903	2381.925
1764.14244	2376.125
1767.35375	2366.625
1770.56294	2354.325
1773.77002	2334.725
1776.97499	2330.525
1780.17785	2326.225
1783.37861	2323.225
1786.57727	2305.625
1789.77382	2292.825
1792.96828	2283.725
1796.16064	2278.125
1799.3509	2273.925
1802.53907	2254.425
1805.72514	2249.125
1808.90913	2243.325
1812.09102	2238.225
1815.27083	2218.625
1818.44856	2210.425
1821.6242	2213.125
1824.79776	2209.825
1827.96924	2208.225
1831.13864	2185.225
1834.30597	2192.325
1837.47122	2178.925
1840.6344	2176.225
1843.7955	2178.225
1846.95454	2165.025
1850.11151	2153.325
1853.26642	2156.425
1856.41926	2153.025
1859.57004	2154.725
1862.71876	2148.125
1865.86542	2139.425
1869.01003	2139.125
1872.15258	2134.825
1875.29308	2127.025
1878.43152	2130.225
1881.56792	2115.625
1884.70227	2112.325
1887.83457	2105.425
1890.96482	2097.925
1894.09304	2102.025
1897.21921	2101.225
1900.34335	2091.225
1903.46544	2099.325
1906.58551	2096.425
1909.70353	2077.525
1912.81953	2089.225
1915.93349	2082.725
1919.04543	2066.425
1922.15534	2057.725
1925.26322	2046.325
1928.36908	2034.825
1931.47292	2047.225
1934.57473	2036.125
1937.67453	2025.925
1940.77232	2013.125
1943.86808	2020.325
1946.96184	2008.925
1950.05358	1990.625
1953.14331	1992.525
1956.23103	1992.225
1959.31675	1977.125
1962.40046	1975.025
1965.48217	1968.225
1968.56188	1958.225
1971.63959	1947.925
1974.7153	1942.925
1977.78901	1945.325
1980.86073	1931.125
1983.93046	1929.025
1986.99819	1912.925
1990.06394	1906.125
1993.1277	1911.625
1996.18947	1894.925
1999.24925	1905.025
2002.30706	1893.625
2005.36288	1878.225
2008.41672	1881.625
2011.46859	1865.025
2014.51848	1856.225
2017.56639	1855.125
2020.61233	1843.225
2023.6563	1840.825
2026.6983	1839.125
2029.73833	1827.925
2032.7764	1816.525
2035.8125	1824.825
2038.84664	1806.925
2041.87881	1813.525
2044.90903	1805.425
2047.93729	1809.425
2050.96359	1800.825
2053.98794	1796.825
2057.01034	1796.525
2060.03078	1798.425
2063.04927	1793.625
2066.06582	1801.325
2069.08042	1786.425
2072.09307	1786.325
2075.10378	1784.325
2078.11255	1782.125
2081.11938	1791.325
2084.12426	1782.625
2087.12722	1785.325
2090.12824	1779.125
2093.12732	1778.525
2096.12447	1787.025
2099.11969	1780.025
2102.11299	1776.525
2105.10435	1767.225
2108.09379	1774.125
2111.08131	1775.125
2114.0669	1772.225
2117.05057	1773.825
2120.03233	1777.325
2123.01216	1781.925
2125.99008	1766.725
2128.96609	1770.925
2131.94018	1769.825
2134.91236	1772.325
2137.88263	1759.825
2140.851	1757.925
2143.81746	1768.625
2146.78201	1764.625
2149.74466	1767.925
2152.7054	1759.725
2155.66425	1761.525
2158.6212	1747.125
2161.57625	1746.725
2164.52941	1753.825
2167.48067	1746.125
2170.43004	1747.525
2173.37752	1738.825
2176.32311	1736.425
2179.26681	1738.825
2182.20863	1729.925
2185.14856	1735.225
2188.08661	1731.725
2191.02278	1735.925
2193.95707	1729.225
2196.88948	1733.425
2199.82001	1719.925
2202.74867	1718.625
2205.67545	1713.125
2208.60037	1702.825
2211.52341	1698.125
2214.44458	1691.525
2217.36388	1690.825
2220.28132	1685.925
2223.1969	1672.525
2226.11061	1678.325
2229.02246	1667.425
2231.93245	1667.325
2234.84058	1662.325
2237.74686	1656.725
2240.65128	1664.425
2243.55385	1648.825
2246.45456	1642.525
2249.35343	1646.725
2252.25044	1638.425
2255.14561	1632.425
2258.03893	1632.325
2260.93041	1631.225
2263.82004	1626.625
2266.70783	1625.425
2269.59378	1625.625
2272.4779	1612.325
2275.36017	1613.525
2278.24061	1604.725
2281.11922	1592.925
2283.996	1602.625
2286.87094	1591.125
2289.74405	1586.425
2292.61534	1583.925
2295.4848	1574.125
2298.35243	1577.725
2301.21824	1572.825
2304.08223	1559.425
2306.94439	1570.225
2309.80474	1555.825
2312.66327	1560.025
2315.51999	1549.425
2318.37489	1547.025
2321.22797	1548.525
2324.07925	1542.725
2326.92871	1547.825
2329.77637	1532.125
2332.62222	1533.525
2335.46626	1528.225
2338.3085	1521.925
2341.14893	1529.925
2343.98756	1531.525
2346.8244	1513.025
2349.65943	1518.625
2352.49267	1521.025
2355.32411	1521.225
2358.15376	1519.925
2360.98161	1518.125
2363.80768	1509.125
2366.63195	1512.825
2369.45444	1510.825
2372.27514	1510.525
2375.09405	1511.225
2377.91118	1512.225
2380.72652	1501.725
2383.54009	1498.225
2386.35187	1504.725
2389.16188	1490.425
2391.97011	1489.825
2394.77657	1480.225
2397.58125	1469.825
2400.38416	1464.825
2403.18529	1463.825
2405.98466	1466.625
2408.78226	1464.625
2411.57809	1461.325
2414.37216	1449.625
2417.16446	1453.325
2419.955	1442.825
2422.74378	1447.325
2425.5308	1445.325
2428.31606	1443.325
2431.09956	1432.825
2433.88131	1444.425
2436.6613	1441.125
2439.43954	1433.225
2442.21603	1420.325
2444.99077	1428.525
2447.76377	1427.425
2450.53501	1421.725
2453.30451	1425.125
2456.07226	1419.725
2458.83827	1423.425
2461.60254	1420.525
2464.36507	1406.825
2467.12586	1411.625
2469.88492	1406.025
2472.64224	1407.825
2475.39782	1414.525
2478.15167	1407.925
2480.90379	1405.325
2483.65417	1400.025
2486.40283	1408.625
2489.14976	1396.425
2491.89497	1397.825
2494.63845	1404.825
2497.3802	1403.325
2500.12024	1393.125
2502.85855	1392.825
2505.59514	1398.625
2508.33002	1390.625
2511.06318	1385.325
2513.79462	1380.725
2516.52435	1380.125
2519.25237	1375.325
2521.97867	1371.225
2524.70327	1363.525
2527.42616	1364.825
2530.14734	1363.025
2532.86681	1358.925
2535.58458	1356.225
2538.30065	1360.025
2541.01501	1356.925
2543.72768	1356.125
2546.43864	1345.325
2549.14791	1347.325
2551.85548	1342.125
2554.56136	1335.725
2557.26554	1347.225
2559.96803	1324.925
2562.66883	1335.525
2565.36794	1331.425
2568.06536	1332.725
2570.7611	1329.225
2573.45514	1321.525
2576.14751	1325.725
2578.83819	1325.525
2581.52719	1307.625
2584.21451	1309.325
2586.90015	1316.025
2589.58411	1310.425
2592.2664	1304.625
2594.94701	1304.525
2597.62594	1302.425
2600.30321	1305.225
2602.9788	1291.925
2605.65273	1294.125
2608.32498	1294.625
2610.99557	1286.625
2613.66449	1289.525
2616.33175	1288.225
2618.99734	1294.625
2621.66128	1284.925
2624.32355	1278.425
2626.98416	1286.825
2629.64311	1277.825
2632.30041	1281.425
2634.95605	1276.225
2637.61004	1277.625
2640.26238	1276.625
2642.91306	1264.025
2645.56209	1276.025
2648.20948	1265.725
2650.85521	1266.725
2653.4993	1277.325
2656.14175	1263.725
2658.78255	1263.125
2661.42171	1258.525
2664.05923	1263.925
2666.6951	1275.025
2669.32934	1259.925
2671.96194	1266.825
2674.59291	1279.725
2677.22224	1273.625
2679.84993	1272.325
2682.476	1267.225
2685.10043	1267.125
2687.72324	1267.625
2690.34441	1261.225
2692.96396	1269.225
2695.58188	1274.825
2698.19818	1265.125
2700.81285	1271.725
2703.4259	1277.125
2706.03733	1291.325
2708.64714	1290.425
2711.25533	1278.525
2713.86191	1281.525
2716.46687	1283.325
2719.07021	1278.625
2721.67194	1293.725
2724.27206	1283.325
2726.87057	1292.725
2729.46747	1292.225
2732.06276	1282.025
2734.65644	1280.325
2737.24852	1277.025
2739.83899	1283.925
2742.42786	1278.725
2745.01513	1273.525
2747.60079	1296.825
2750.18486	1274.925
2752.76733	1278.125
2755.3482	1275.325
2757.92747	1265.725
2760.50515	1268.425
2763.08123	1274.125
2765.65573	1265.225
2768.22863	1273.025
2770.79994	1267.825
2773.36967	1267.625
2775.9378	1266.525
2778.50435	1262.525
2781.06932	1253.825
2783.6327	1263.925
2786.1945	1259.625
2788.75471	1253.025
2791.31335	1258.925
2793.87041	1259.625
2796.42589	1262.725
2798.97979	1256.725
2801.53212	1251.825
2804.08288	1247.825
2806.63206	1250.525
2809.17967	1242.025
2811.72571	1253.825
2814.27018	1244.125
2816.81308	1252.325
2819.35442	1251.125
2821.89419	1251.625
2824.43239	1248.925
2826.96904	1256.725
2829.50412	1256.125
2832.03763	1251.425
2834.56959	1250.625
2837.1	1255.725
2839.62884	1259.825
2842.15613	1274.025
2844.68186	1274.325
2847.20604	1287.625
2849.72867	1298.425
2852.24974	1300.025
2854.76927	1305.025
2857.28724	1308.325
2859.80367	1311.325
2862.31855	1309.425
2864.83189	1315.925
2867.34368	1306.925
2869.85393	1310.125
2872.36264	1303.725
2874.8698	1312.925
2877.37543	1306.525
2879.87952	1305.825
2882.38207	1315.325
2884.88308	1322.525
2887.38256	1315.425
2889.88051	1313.025
2892.37692	1325.925
2894.8718	1328.225
2897.36515	1323.525
2899.85698	1321.825
2902.34727	1334.125
2904.83604	1330.725
2907.32328	1330.525
2909.809	1328.725
2912.29319	1329.425
2914.77587	1329.825
2917.25702	1333.325
2919.73665	1327.525
2922.21476	1323.125
2924.69136	1333.925
2927.16644	1331.825
2929.64	1331.825
2932.11205	1330.025
2934.58258	1324.225
2937.05161	1314.825
2939.51912	1306.825
2941.98513	1303.325
2944.44962	1307.525
2946.91261	1286.625
2949.37409	1287.925
2951.83407	1269.825
2954.29254	1269.225
2956.74951	1265.325
2959.20498	1253.425
2961.65895	1252.525
2964.11142	1252.325
2966.56239	1239.025
2969.01186	1239.125
2971.45984	1232.625
2973.90632	1224.225
2976.35131	1221.225
2978.7948	1222.025
2981.23681	1211.825
2983.67732	1205.625
2986.11635	1198.825
2988.55388	1199.525
2990.98993	1200.425
2993.4245	1197.325
2995.85758	1194.125
2998.28917	1191.125
3000.71928	1192.525
3003.14791	1182.525
3005.57506	1191.225
3008.00073	1190.125
3010.42493	1190.825
3012.84764	1195.325
3015.26888	1197.725
3017.68865	1191.625
3020.10694	1201.225
3022.52376	1197.425
3024.9391	1202.525
3027.35298	1194.725
3029.76539	1200.125
3032.17632	1194.225
3034.5858	1199.725
3036.9938	1193.925
3039.40034	1203.625
3041.80542	1200.625
3044.20903	1206.225
3046.61118	1208.825
3049.01187	1201.825
3051.4111	1209.025
3053.80888	1216.125
3056.20519	1217.325
3058.60005	1208.725
3060.99345	1226.425
3063.3854	1229.225
3065.7759	1225.825
3068.16494	1227.925
3070.55254	1219.825
3072.93868	1229.825
3075.32338	1224.425
3077.70662	1230.625
3080.08842	1228.925
3082.46878	1233.325
3084.84769	1228.425
3087.22515	1239.825
3089.60118	1241.425
3091.97576	1244.225
3094.3489	1239.325
3096.72061	1249.325
3099.09087	1258.025
3101.4597	1254.625
3103.82709	1263.325
3106.19305	1263.725
3108.55757	1276.725
3110.92066	1274.525
3113.28232	1270.325
3115.64255	1265.825
3118.00134	1276.825
3120.35871	1284.125
3122.71466	1288.725
3125.06917	1290.925
3127.42226	1287.225
3129.77393	1299.325
3132.12417	1309.725
3134.47299	1312.625
3136.82039	1323.125
3139.16636	1332.625
3141.51092	1333.225
3143.85406	1346.325
3146.19579	1355.525
3148.53609	1362.025
3150.87499	1359.225
3153.21246	1370.725
3155.54853	1372.625
3157.88318	1374.525
3160.21642	1387.425
3162.54826	1391.225
3164.87868	1404.625
3167.2077	1398.525
3169.5353	1408.025
3171.86151	1415.425
3174.18631	1422.725
3176.5097	1424.125
3178.83169	1426.425
3181.15228	1425.625
3183.47147	1436.325
3185.78926	1440.025
3188.10565	1442.825
3190.42065	1453.625
3192.73424	1456.025
3195.04645	1462.425
3197.35725	1463.125
3199.66667	1464.925
3201.97469	1470.225
3204.28132	1479.825
3206.58656	1478.525
3208.8904	1489.625
3211.19287	1491.525
3213.49394	1496.725
3215.79363	1498.825
3218.09193	1500.725
3220.38884	1511.425
3222.68438	1510.325
3224.97853	1501.425
3227.2713	1511.325
3229.56269	1510.025
3231.8527	1509.525
3234.14133	1508.025
3236.42858	1502.825
