Data from AgNPs_FTO_APTES_UA_0.1mM_CRN_500uM_NaF_0.1M_Addition_RamanShift__15__14-51-57-773.txt Node

Date: Mon Dec 20 14:51:57 GMT 2021
User: TCL
Spectrometer: QEP01345
Trigger mode: 4
Integration Time (sec): 7.000000E0
Scans to average: 10
Electric dark correction enabled: true
Nonlinearity correction enabled: false
Boxcar width: 0
XAxis mode: Raman Shifts
Number of Pixels in Spectrum: 1044
>>>>>Begin Spectral Data<<<<<
46.04893	0.55
50.45542	-0.95
54.85868	-0.55
59.25871	1.15
63.6555	20.95
68.04907	27.85
72.43941	28.95
76.82654	28.95
81.21044	30.15
85.59113	32.15
89.96862	32.35
94.34289	34.05
98.71396	32.25
103.08183	33.35
107.4465	37.95
111.80798	35.75
116.16626	40.25
120.52136	40.65
124.87327	39.75
129.222	41.65
133.56755	38.35
137.90993	41.95
142.24913	44.85
146.58517	45.85
150.91804	50.95
155.24774	59.15
159.57429	68.25
163.89768	85.55
168.21792	105.95
172.53501	129.95
176.84895	176.75
181.15975	244.85
185.46741	335.85
189.77193	462.95
194.07331	616.05
198.37157	799.15
202.6667	1004.25
206.9587	1212.65
211.24758	1424.25
215.53334	1636.35
219.81599	1854.95
224.09553	2090.55
228.37195	2333.75
232.64527	2588.85
236.91549	2833.75
241.18261	3062.95
245.44663	3255.85
249.70755	3425.35
253.96539	3552.75
258.22014	3638.65
262.4718	3678.35
266.72039	3674.75
270.96589	3612.85
275.20832	3531.45
279.44768	3455.35
283.68397	3363.85
287.91719	3256.65
292.14735	3192.45
296.37445	3119.15
300.59849	3085.45
304.81948	3051.65
309.03742	3024.15
313.25231	3001.75
317.46415	2961.45
321.67296	2909.65
325.87872	2879.35
330.08145	2857.85
334.28114	2849.15
338.47781	2855.15
342.67145	2868.95
346.86207	2889.75
351.04966	2914.35
355.23424	2950.45
359.4158	2988.75
363.59435	3024.95
367.76989	3054.35
371.94243	3089.25
376.11196	3124.05
380.27849	3163.25
384.44203	3187.35
388.60257	3225.85
392.76012	3240.75
396.91468	3280.45
401.06626	3312.35
405.21485	3331.95
409.36047	3345.35
413.50311	3338.45
417.64277	3321.55
421.77947	3311.65
425.9132	3296.95
430.04396	3323.05
434.17176	3344.95
438.2966	3344.55
442.41849	3354.05
446.53742	3386.65
450.6534	3418.25
454.76644	3429.75
458.87653	3444.75
462.98368	3453.05
467.08789	3456.55
471.18916	3475.75
475.2875	3491.55
479.38291	3515.65
483.4754	3555.45
487.56496	3621.05
491.6516	3679.75
495.73531	3738.15
499.81612	3739.95
503.89401	3738.75
507.96899	3687.85
512.04106	3658.95
516.11023	3632.25
520.1765	3620.55
524.23987	3609.55
528.30034	3612.55
532.35792	3613.85
536.41261	3587.15
540.46441	3541.55
544.51333	3521.55
548.55936	3484.85
552.60252	3465.55
556.64279	3473.65
560.6802	3477.75
564.71473	3485.05
568.7464	3500.15
572.7752	3529.35
576.80114	3550.85
580.82422	3559.75
584.84444	3603.25
588.86181	3649.15
592.87633	3704.15
596.888	3691.85
600.89682	3674.75
604.9028	3710.75
608.90594	3864.75
612.90624	4063.25
616.90371	4115.85
620.89834	3993.85
624.89015	4015.55
628.87913	4225.75
632.86528	4459.55
636.84862	4634.15
640.82913	4640.35
644.80683	4501.05
648.78172	4309.35
652.75379	4162.65
656.72306	4066.25
660.68952	4051.35
664.65319	4045.15
668.61405	4066.05
672.57211	4133.25
676.52738	4220.95
680.47986	4286.25
684.42955	4299.05
688.37646	4251.85
692.32058	4181.55
696.26192	4092.25
700.20048	3998.85
704.13626	3929.55
708.06928	3860.55
711.99952	3785.45
715.927	3709.25
719.85171	3666.75
723.77365	3650.85
727.69284	3668.65
731.60928	3630.35
735.52295	3600.35
739.43388	3569.15
743.34206	3557.65
747.24749	3566.65
751.15017	3589.25
755.05012	3611.55
758.94733	3626.75
762.8418	3685.65
766.73354	3762.95
770.62254	3825.05
774.50882	3855.45
778.39237	3793.05
782.27321	3695.25
786.15132	3602.35
790.02671	3567.05
793.89938	3555.75
797.76935	3571.55
801.6366	3608.75
805.50115	3664.85
809.36299	3747.25
813.22213	3791.25
817.07857	3739.35
820.93231	3626.15
824.78336	3512.75
828.63172	3421.95
832.47738	3365.85
836.32036	3329.35
840.16066	3317.15
843.99827	3293.25
847.8332	3286.25
851.66546	3272.55
855.49504	3266.35
859.32195	3295.05
863.1462	3299.25
866.96777	3344.65
870.78668	3359.35
874.60293	3411.65
878.41652	3471.95
882.22745	3522.75
886.03573	3554.65
889.84136	3575.05
893.64433	3525.45
897.44466	3460.65
901.24235	3393.35
905.0374	3315.45
908.8298	3266.55
912.61957	3229.55
916.40671	3207.95
920.19121	3201.75
923.97308	3183.65
927.75233	3169.75
931.52895	3172.35
935.30295	3181.65
939.07433	3161.25
942.84309	3133.45
946.60924	3120.05
950.37278	3114.25
954.13371	3111.55
957.89203	3099.85
961.64774	3085.15
965.40086	3074.85
969.15137	3072.85
972.89929	3046.75
976.64461	3040.45
980.38733	3045.45
984.12747	3027.95
987.86502	3021.45
991.59999	3030.15
995.33237	3044.55
999.06217	3065.85
1002.78939	3111.15
1006.51404	3146.15
1010.23611	3173.15
1013.95561	3194.65
1017.67255	3203.75
1021.38692	3188.65
1025.09872	3172.35
1028.80796	3131.35
1032.51465	3113.15
1036.21877	3075.55
1039.92035	3074.05
1043.61937	3061.95
1047.31584	3063.75
1051.00976	3067.55
1054.70114	3091.45
1058.38998	3109.65
1062.07627	3135.65
1065.76003	3138.55
1069.44126	3160.15
1073.11995	3181.35
1076.79611	3179.25
1080.46974	3173.35
1084.14085	3143.25
1087.80943	3104.75
1091.47549	3104.15
1095.13903	3080.05
1098.80005	3058.75
1102.45857	3041.05
1106.11456	3030.95
1109.76805	3059.55
1113.41903	3120.75
1117.06751	3196.65
1120.71348	3332.55
1124.35696	3513.35
1127.99793	3737.95
1131.63641	3955.15
1135.2724	4068.35
1138.90589	4072.25
1142.5369	3971.35
1146.16542	3804.55
1149.79145	3621.15
1153.415	3444.15
1157.03607	3304.25
1160.65467	3217.25
1164.27079	3173.55
1167.88443	3143.15
1171.49561	3174.95
1175.10432	3230.85
1178.71056	3315.45
1182.31434	3387.55
1185.91565	3434.35
1189.51451	3468.85
1193.11091	3478.55
1196.70485	3492.65
1200.29634	3518.15
1203.88538	3516.65
1207.47197	3483.25
1211.05612	3436.65
1214.63782	3349.35
1218.21708	3295.45
1221.79391	3220.45
1225.36829	3172.65
1228.94024	3149.55
1232.50976	3124.75
1236.07685	3108.55
1239.6415	3116.55
1243.20374	3126.25
1246.76355	3138.35
1250.32093	3155.05
1253.8759	3163.05
1257.42845	3181.95
1260.97859	3194.95
1264.52631	3205.95
1268.07163	3203.05
1271.61453	3214.65
1275.15503	3209.85
1278.69312	3201.75
1282.22882	3209.15
1285.76211	3218.65
1289.29301	3240.45
1292.82151	3271.25
1296.34761	3333.95
1299.87133	3399.05
1303.39266	3470.85
1306.9116	3582.35
1310.42815	3703.25
1313.94233	3781.45
1317.45412	3800.15
1320.96354	3795.25
1324.47058	3755.65
1327.97525	3739.75
1331.47754	3737.25
1334.97747	3740.75
1338.47502	3774.25
1341.97022	3800.35
1345.46305	3884.85
1348.95352	3972.15
1352.44163	4063.65
1355.92738	4167.25
1359.41078	4312.15
1362.89183	4457.35
1366.37053	4460.25
1369.84688	4288.75
1373.32088	4058.65
1376.79254	3893.85
1380.26186	3793.75
1383.72883	3723.85
1387.19347	3647.95
1390.65578	3584.75
1394.11575	3526.15
1397.57339	3476.95
1401.0287	3432.35
1404.48168	3402.75
1407.93234	3345.45
1411.38068	3306.05
1414.82669	3234.65
1418.27039	3201.25
1421.71177	3130.05
1425.15083	3068.45
1428.58758	3005.75
1432.02203	2957.75
1435.45416	2918.05
1438.88399	2893.05
1442.31151	2863.65
1445.73673	2867.15
1449.15965	2861.75
1452.58027	2865.25
1455.9986	2850.85
1459.41463	2853.55
1462.82837	2866.45
1466.23982	2887.95
1469.64898	2914.45
1473.05586	2941.75
1476.46045	2947.05
1479.86276	2947.05
1483.26279	2955.75
1486.66054	2956.75
1490.05602	2984.95
1493.44922	3015.55
1496.84016	3076.75
1500.22882	3143.45
1503.61521	3246.15
1506.99934	3367.85
1510.38121	3468.55
1513.76081	3500.15
1517.13816	3433.25
1520.51324	3318.75
1523.88607	3200.75
1527.25665	3118.65
1530.62498	3079.35
1533.99105	3110.45
1537.35488	3086.15
1540.71647	3109.95
1544.07581	3126.35
1547.4329	3159.05
1550.78776	3172.95
1554.14038	3185.85
1557.49077	3200.15
1560.83892	3225.05
1564.18484	3228.95
1567.52853	3250.45
1570.86999	3282.35
1574.20922	3297.75
1577.54624	3307.45
1580.88103	3276.95
1584.2136	3242.15
1587.54395	3212.75
1590.87208	3186.85
1594.19801	3184.35
1597.52172	3208.35
1600.84321	3261.25
1604.16251	3245.65
1607.47959	3227.05
1610.79447	3193.85
1614.10715	3166.35
1617.41763	3126.55
1620.7259	3107.35
1624.03199	3094.55
1627.33587	3074.25
1630.63757	3098.15
1633.93707	3133.15
1637.23439	3205.05
1640.52951	3275.65
1643.82246	3376.65
1647.11321	3495.85
1650.40179	3587.55
1653.68819	3588.95
1656.97241	3527.05
1660.25446	3413.75
1663.53433	3336.95
1666.81203	3308.65
1670.08756	3271.45
1673.36092	3257.75
1676.63211	3240.75
1679.90115	3244.05
1683.16801	3195.55
1686.43272	3146.95
1689.69527	3085.35
1692.95567	3018.75
1696.2139	2960.25
1699.46999	2872.75
1702.72392	2795.15
1705.97571	2733.05
1709.22535	2654.45
1712.47284	2600.95
1715.71819	2567.75
1718.96139	2521.35
1722.20246	2484.05
1725.44139	2454.15
1728.67818	2422.05
1731.91284	2380.35
1735.14537	2354.65
1738.37576	2325.95
1741.60403	2315.95
1744.83017	2304.95
1748.05418	2303.35
1751.27607	2301.95
1754.49584	2305.45
1757.71349	2311.95
1760.92903	2300.35
1764.14244	2289.35
1767.35375	2263.65
1770.56294	2233.15
1773.77002	2197.95
1776.97499	2152.25
1780.17785	2130.45
1783.37861	2078.35
1786.57727	2059.35
1789.77382	2031.05
1792.96828	2003.15
1796.16064	1976.15
1799.3509	1956.35
1802.53907	1942.15
1805.72514	1930.75
1808.90913	1914.75
1812.09102	1906.55
1815.27083	1899.25
1818.44856	1896.85
1821.6242	1879.25
1824.79776	1866.45
1827.96924	1866.95
1831.13864	1861.15
1834.30597	1858.05
1837.47122	1854.35
1840.6344	1838.15
1843.7955	1840.35
1846.95454	1836.75
1850.11151	1842.95
1853.26642	1814.75
1856.41926	1827.95
1859.57004	1823.85
1862.71876	1824.45
1865.86542	1822.65
1869.01003	1804.45
1872.15258	1808.45
1875.29308	1810.45
1878.43152	1791.35
1881.56792	1782.25
1884.70227	1791.45
1887.83457	1792.25
1890.96482	1779.35
1894.09304	1774.75
1897.21921	1758.55
1900.34335	1768.55
1903.46544	1755.85
1906.58551	1768.95
1909.70353	1754.45
1912.81953	1752.25
1915.93349	1750.95
1919.04543	1740.95
1922.15534	1736.15
1925.26322	1722.55
1928.36908	1724.85
1931.47292	1721.15
1934.57473	1716.55
1937.67453	1700.55
1940.77232	1699.55
1943.86808	1697.45
1946.96184	1689.25
1950.05358	1685.65
1953.14331	1677.95
1956.23103	1662.75
1959.31675	1661.05
1962.40046	1657.05
1965.48217	1644.95
1968.56188	1653.55
1971.63959	1643.45
1974.7153	1629.75
1977.78901	1615.65
1980.86073	1625.35
1983.93046	1613.35
1986.99819	1603.15
1990.06394	1601.35
1993.1277	1591.95
1996.18947	1591.85
1999.24925	1597.45
2002.30706	1578.05
2005.36288	1573.05
2008.41672	1579.95
2011.46859	1566.35
2014.51848	1558.55
2017.56639	1547.75
2020.61233	1557.15
2023.6563	1544.35
2026.6983	1539.35
2029.73833	1531.15
2032.7764	1529.05
2035.8125	1509.35
2038.84664	1510.55
2041.87881	1512.35
2044.90903	1505.15
2047.93729	1507.95
2050.96359	1498.05
2053.98794	1503.15
2057.01034	1498.65
2060.03078	1490.45
2063.04927	1488.05
2066.06582	1496.55
2069.08042	1486.05
2072.09307	1484.05
2075.10378	1479.45
2078.11255	1483.85
2081.11938	1474.45
2084.12426	1474.55
2087.12722	1479.35
2090.12824	1481.65
2093.12732	1477.15
2096.12447	1472.75
2099.11969	1468.65
2102.11299	1470.45
2105.10435	1469.65
2108.09379	1467.75
2111.08131	1472.95
2114.0669	1462.45
2117.05057	1473.05
2120.03233	1464.05
2123.01216	1470.55
2125.99008	1466.45
2128.96609	1469.65
2131.94018	1463.65
2134.91236	1474.65
2137.88263	1462.25
2140.851	1463.95
2143.81746	1469.35
2146.78201	1462.45
2149.74466	1463.35
2152.7054	1462.95
2155.66425	1461.15
2158.6212	1462.65
2161.57625	1457.45
2164.52941	1459.85
2167.48067	1459.85
2170.43004	1456.35
2173.37752	1456.65
2176.32311	1450.75
2179.26681	1439.95
2182.20863	1451.75
2185.14856	1444.45
2188.08661	1440.25
2191.02278	1445.05
2193.95707	1443.15
2196.88948	1428.15
2199.82001	1435.15
2202.74867	1422.85
2205.67545	1419.25
2208.60037	1412.35
2211.52341	1408.75
2214.44458	1403.75
2217.36388	1412.65
2220.28132	1396.35
2223.1969	1392.55
2226.11061	1389.65
2229.02246	1381.65
2231.93245	1388.85
2234.84058	1379.75
2237.74686	1380.35
2240.65128	1371.95
2243.55385	1363.65
2246.45456	1363.15
2249.35343	1364.95
2252.25044	1364.25
2255.14561	1349.75
2258.03893	1364.65
2260.93041	1355.45
2263.82004	1350.85
2266.70783	1348.55
2269.59378	1342.25
2272.4779	1335.15
2275.36017	1333.15
2278.24061	1333.15
2281.11922	1323.25
2283.996	1315.25
2286.87094	1320.45
2289.74405	1322.25
2292.61534	1309.05
2295.4848	1311.65
2298.35243	1308.15
2301.21824	1297.55
2304.08223	1301.45
2306.94439	1296.25
2309.80474	1296.45
2312.66327	1299.95
2315.51999	1287.45
2318.37489	1287.85
2321.22797	1284.25
2324.07925	1289.05
2326.92871	1289.55
2329.77637	1280.65
2332.62222	1277.25
2335.46626	1269.65
2338.3085	1265.15
2341.14893	1257.35
2343.98756	1254.65
2346.8244	1250.25
2349.65943	1257.45
2352.49267	1247.35
2355.32411	1253.35
2358.15376	1244.75
2360.98161	1245.95
2363.80768	1251.05
2366.63195	1242.25
2369.45444	1247.15
2372.27514	1234.15
2375.09405	1241.15
2377.91118	1233.35
2380.72652	1237.05
2383.54009	1224.35
2386.35187	1230.55
2389.16188	1221.65
2391.97011	1217.25
2394.77657	1221.25
2397.58125	1205.05
2400.38416	1205.55
2403.18529	1207.25
2405.98466	1202.15
2408.78226	1207.75
2411.57809	1202.55
2414.37216	1189.35
2417.16446	1197.85
2419.955	1193.15
2422.74378	1183.05
2425.5308	1175.35
2428.31606	1184.45
2431.09956	1179.35
2433.88131	1179.25
2436.6613	1185.65
2439.43954	1174.65
2442.21603	1166.45
2444.99077	1162.65
2447.76377	1161.65
2450.53501	1162.65
2453.30451	1169.15
2456.07226	1155.85
2458.83827	1158.35
2461.60254	1150.45
2464.36507	1155.65
2467.12586	1153.75
2469.88492	1144.15
2472.64224	1146.05
2475.39782	1149.45
2478.15167	1156.55
2480.90379	1142.35
2483.65417	1136.75
2486.40283	1137.25
2489.14976	1139.65
2491.89497	1136.05
2494.63845	1135.45
2497.3802	1127.05
2500.12024	1127.65
2502.85855	1126.45
2505.59514	1118.75
2508.33002	1122.15
2511.06318	1119.85
2513.79462	1119.15
2516.52435	1117.85
2519.25237	1115.15
2521.97867	1105.15
2524.70327	1103.35
2527.42616	1113.55
2530.14734	1111.15
2532.86681	1092.85
2535.58458	1099.85
2538.30065	1088.55
2541.01501	1095.15
2543.72768	1089.85
2546.43864	1081.05
2549.14791	1084.25
2551.85548	1077.85
2554.56136	1075.25
2557.26554	1076.95
2559.96803	1067.55
2562.66883	1067.35
2565.36794	1060.35
2568.06536	1071.85
2570.7611	1062.15
2573.45514	1066.45
2576.14751	1055.55
2578.83819	1062.05
2581.52719	1055.55
2584.21451	1047.55
2586.90015	1043.05
2589.58411	1042.85
2592.2664	1038.95
2594.94701	1045.75
2597.62594	1033.35
2600.30321	1030.15
2602.9788	1033.05
2605.65273	1030.95
2608.32498	1026.45
2610.99557	1022.45
2613.66449	1013.55
2616.33175	1015.95
2618.99734	1023.05
2621.66128	1025.05
2624.32355	1010.45
2626.98416	1020.35
2629.64311	1009.25
2632.30041	1016.45
2634.95605	1007.65
2637.61004	1003.85
2640.26238	1013.65
2642.91306	1001.35
2645.56209	1001.55
2648.20948	1002.85
2650.85521	997.35
2653.4993	1003.15
2656.14175	1002.85
2658.78255	997.35
2661.42171	991.35
2664.05923	988.15
2666.6951	989.65
2669.32934	995.85
2671.96194	994.55
2674.59291	993.35
2677.22224	995.05
2679.84993	991.65
2682.476	994.05
2685.10043	996.75
2687.72324	995.75
2690.34441	987.95
2692.96396	992.55
2695.58188	997.85
2698.19818	992.95
2700.81285	991.95
2703.4259	994.65
2706.03733	1021.25
2708.64714	1011.65
2711.25533	1006.15
2713.86191	994.05
2716.46687	986.85
2719.07021	988.55
2721.67194	994.75
2724.27206	983.65
2726.87057	988.45
2729.46747	983.95
2732.06276	986.05
2734.65644	983.65
2737.24852	979.95
2739.83899	978.25
2742.42786	981.15
2745.01513	964.45
2747.60079	977.25
2750.18486	969.45
2752.76733	974.05
2755.3482	963.55
2757.92747	965.85
2760.50515	960.05
2763.08123	967.05
2765.65573	961.35
2768.22863	964.45
2770.79994	954.75
2773.36967	958.95
2775.9378	958.05
2778.50435	948.45
2781.06932	946.45
2783.6327	946.05
2786.1945	949.75
2788.75471	945.75
2791.31335	947.45
2793.87041	945.75
2796.42589	940.05
2798.97979	941.25
2801.53212	940.15
2804.08288	939.35
2806.63206	940.65
2809.17967	930.65
2811.72571	937.35
2814.27018	935.05
2816.81308	928.65
2819.35442	931.95
2821.89419	920.55
2824.43239	934.65
2826.96904	928.85
2829.50412	928.25
2832.03763	928.95
2834.56959	926.15
2837.1	923.65
2839.62884	917.25
2842.15613	917.25
2844.68186	925.05
2847.20604	924.35
2849.72867	927.35
2852.24974	929.45
2854.76927	931.65
2857.28724	940.85
2859.80367	927.05
2862.31855	917.85
2864.83189	926.05
2867.34368	926.75
2869.85393	924.05
2872.36264	920.65
2874.8698	936.15
2877.37543	924.95
2879.87952	930.05
2882.38207	923.75
2884.88308	935.25
2887.38256	928.75
2889.88051	939.05
2892.37692	936.35
2894.8718	931.25
2897.36515	949.75
2899.85698	946.75
2902.34727	945.15
2904.83604	950.35
2907.32328	948.35
2909.809	962.05
2912.29319	961.05
2914.77587	963.05
2917.25702	961.65
2919.73665	968.45
2922.21476	972.85
2924.69136	978.05
2927.16644	981.35
2929.64	982.65
2932.11205	975.55
2934.58258	983.05
2937.05161	985.95
2939.51912	989.15
2941.98513	996.75
2944.44962	991.15
2946.91261	978.35
2949.37409	984.75
2951.83407	991.95
2954.29254	986.25
2956.74951	989.15
2959.20498	981.85
2961.65895	978.65
2964.11142	974.65
2966.56239	964.05
2969.01186	969.55
2971.45984	960.45
2973.90632	947.85
2976.35131	948.65
2978.7948	946.95
2981.23681	937.75
2983.67732	938.35
2986.11635	936.15
2988.55388	936.75
2990.98993	938.95
2993.4245	935.85
2995.85758	932.75
2998.28917	925.85
3000.71928	933.45
3003.14791	930.45
3005.57506	931.65
3008.00073	929.15
3010.42493	932.85
3012.84764	927.55
3015.26888	933.55
3017.68865	931.05
3020.10694	932.25
3022.52376	931.95
3024.9391	936.05
3027.35298	933.35
3029.76539	931.35
3032.17632	936.35
3034.5858	920.05
3036.9938	933.85
3039.40034	937.95
3041.80542	930.25
3044.20903	934.85
3046.61118	930.45
3049.01187	925.45
3051.4111	933.35
3053.80888	934.45
3056.20519	937.35
3058.60005	933.55
3060.99345	939.05
3063.3854	936.05
3065.7759	942.75
3068.16494	937.85
3070.55254	939.95
3072.93868	949.75
3075.32338	948.35
3077.70662	948.45
3080.08842	951.55
3082.46878	957.65
3084.84769	958.35
3087.22515	960.25
3089.60118	965.65
3091.97576	972.25
3094.3489	970.35
3096.72061	975.75
3099.09087	979.45
3101.4597	994.45
3103.82709	984.75
3106.19305	992.65
3108.55757	1004.35
3110.92066	1002.45
3113.28232	1004.15
3115.64255	1008.55
3118.00134	1014.85
3120.35871	1013.15
3122.71466	1022.25
3125.06917	1022.85
3127.42226	1023.65
3129.77393	1027.95
3132.12417	1041.75
3134.47299	1047.45
3136.82039	1051.55
3139.16636	1055.55
3141.51092	1065.95
3143.85406	1066.25
3146.19579	1078.85
3148.53609	1081.55
3150.87499	1088.45
3153.21246	1103.05
3155.54853	1108.55
3157.88318	1107.85
3160.21642	1122.45
3162.54826	1120.95
3164.87868	1134.15
3167.2077	1140.95
3169.5353	1150.05
3171.86151	1151.35
3174.18631	1148.85
3176.5097	1160.45
3178.83169	1169.45
3181.15228	1167.45
3183.47147	1171.55
3185.78926	1181.55
3188.10565	1184.35
3190.42065	1190.95
3192.73424	1196.05
3195.04645	1205.75
3197.35725	1198.75
3199.66667	1212.95
3201.97469	1216.05
3204.28132	1219.35
3206.58656	1226.45
3208.8904	1226.05
3211.19287	1230.25
3213.49394	1244.95
3215.79363	1239.75
3218.09193	1250.75
3220.38884	1258.15
3222.68438	1268.05
3224.97853	1254.35
3227.2713	1264.05
3229.56269	1258.95
3231.8527	1262.95
3234.14133	1251.65
3236.42858	1260.65
3238.71446	1260.95
3240.99896	1264.55
3243.28209	1267.95
3245.56384	1261.65
3247.84423	1263.75
3250.12324	1245.45
3252.40088	1267.45
3254.67715	1265.95
3256.95205	1268.05
3259.22558	1271.35
3261.49775	1260.25
3263.76855	1261.15
3266.03799	1267.05
3268.30606	1260.85
3270.57277	1257.35
3272.83812	1247.35
3275.10211	1253.65
3277.36474	1259.65
3279.62601	1254.75
3281.88593	1257.95
3284.14448	1263.55
3286.40168	1263.85
3288.65753	1250.85
3290.91202	1253.35
3293.16516	1251.35
3295.41695	1248.85
3297.66738	1249.85
3299.91647	1239.95
3302.16421	1226.95
3304.4106	1236.75
3306.65564	1237.55
3308.89933	1227.15
3311.14169	1218.55
3313.38269	1211.75
3315.62236	1204.85
3317.86068	1197.25
3320.09766	1187.35
3322.3333	1180.45
3324.5676	1188.85
3326.80056	1177.85
3329.03219	1165.85
3331.26248	-0.15
3333.49143	1.35
3335.71905	-0.45
