Data from AgNPs_FTO_APTES_UA_0.1mM_CRN_100uM_NaF_0.1M_Addition_RamanShift__8__13-25-37-676.txt Node

Date: Mon Dec 20 13:25:37 GMT 2021
User: TCL
Spectrometer: QEP01345
Trigger mode: 4
Integration Time (sec): 7.000000E0
Scans to average: 10
Electric dark correction enabled: true
Nonlinearity correction enabled: false
Boxcar width: 0
XAxis mode: Raman Shifts
Number of Pixels in Spectrum: 1044
>>>>>Begin Spectral Data<<<<<
46.04893	0.9
50.45542	-1.3
54.85868	-2.1
59.25871	0.9
63.6555	28
68.04907	29.7
72.43941	31.5
76.82654	32.2
81.21044	33.2
85.59113	37.6
89.96862	36.1
94.34289	36.4
98.71396	39.8
103.08183	38
107.4465	42.7
111.80798	43.3
116.16626	44.6
120.52136	45
124.87327	44.6
129.222	48.2
133.56755	48.1
137.90993	49.9
142.24913	53.8
146.58517	60.7
150.91804	70.8
155.24774	79.8
159.57429	94.5
163.89768	121.7
168.21792	156.5
172.53501	206.9
176.84895	279.5
181.15975	383.1
185.46741	529.4
189.77193	729.2
194.07331	974.2
198.37157	1264.9
202.6667	1578.6
206.9587	1876.1
211.24758	2200.7
215.53334	2505.9
219.81599	2837.6
224.09553	3222.8
228.37195	3638
232.64527	4108.7
236.91549	4593
241.18261	5046.3
245.44663	5480.4
249.70755	5837.8
253.96539	6074
258.22014	6245.4
262.4718	6351.1
266.72039	6374.8
270.96589	6372.7
275.20832	6282.8
279.44768	6184.8
283.68397	6071.6
287.91719	5959.7
292.14735	5882.1
296.37445	5790.2
300.59849	5760.3
304.81948	5719.1
309.03742	5691.5
313.25231	5631.2
317.46415	5551.5
321.67296	5450.8
325.87872	5387.3
330.08145	5346.9
334.28114	5337.3
338.47781	5339.6
342.67145	5368.9
346.86207	5406
351.04966	5468.2
355.23424	5522.6
359.4158	5591.7
363.59435	5642
367.76989	5710.8
371.94243	5769.1
376.11196	5816.4
380.27849	5875.1
384.44203	5934.6
388.60257	5994
392.76012	6046.7
396.91468	6105.4
401.06626	6164.4
405.21485	6182.7
409.36047	6211.5
413.50311	6190.5
417.64277	6147.6
421.77947	6159.8
425.9132	6153.5
430.04396	6149.2
434.17176	6189.9
438.2966	6205.1
442.41849	6236.3
446.53742	6294.8
450.6534	6347.9
454.76644	6373.3
458.87653	6426.3
462.98368	6456
467.08789	6453.2
471.18916	6495.8
475.2875	6497.2
479.38291	6537.9
483.4754	6605.1
487.56496	6709.7
491.6516	6821.2
495.73531	6927.1
499.81612	6987.2
503.89401	6972.7
507.96899	6905.5
512.04106	6829.3
516.11023	6775.1
520.1765	6755.1
524.23987	6754.5
528.30034	6767.4
532.35792	6761.7
536.41261	6787.7
540.46441	6697.2
544.51333	6638.3
548.55936	6579.4
552.60252	6552.7
556.64279	6532.2
560.6802	6545.2
564.71473	6557
568.7464	6574
572.7752	6635
576.80114	6687.6
580.82422	6761.7
584.84444	6865.4
588.86181	6991.6
592.87633	7063.1
596.888	7027.9
600.89682	6966.3
604.9028	7000.7
608.90594	7211.2
612.90624	7528.2
616.90371	7538
620.89834	7296.7
624.89015	7389.4
628.87913	7812
632.86528	8341
636.84862	8730.4
640.82913	8800.1
644.80683	8530
648.78172	8102.8
652.75379	7677.2
656.72306	7387.1
660.68952	7199.4
664.65319	7057.3
668.61405	6947.6
672.57211	6896.2
676.52738	6931.9
680.47986	6957.8
684.42955	6963
688.37646	6941
692.32058	6855.2
696.26192	6803.1
700.20048	6715.5
704.13626	6687.1
708.06928	6658.7
711.99952	6653.6
715.927	6648.6
719.85171	6695.1
723.77365	6754.7
727.69284	6818.6
731.60928	6809
735.52295	6717.5
739.43388	6634.2
743.34206	6583.9
747.24749	6612.4
751.15017	6601.3
755.05012	6623
758.94733	6683.5
762.8418	6789.3
766.73354	6926
770.62254	7066.4
774.50882	7129.1
778.39237	6983.6
782.27321	6784.4
786.15132	6618.7
790.02671	6501.4
793.89938	6477.2
797.76935	6507.6
801.6366	6555.1
805.50115	6720.5
809.36299	6947.8
813.22213	7119.3
817.07857	7113.7
820.93231	6947.8
824.78336	6721.9
828.63172	6512.1
832.47738	6366.6
836.32036	6308.8
840.16066	6283.2
843.99827	6270.5
847.8332	6260.8
851.66546	6244.7
855.49504	6253.2
859.32195	6271.5
863.1462	6299.6
866.96777	6342.2
870.78668	6427.4
874.60293	6511.3
878.41652	6641.3
882.22745	6809.9
886.03573	6932.4
889.84136	6994
893.64433	6964.1
897.44466	6824.9
901.24235	6600.3
905.0374	6419.6
908.8298	6282.5
912.61957	6227.5
916.40671	6167.3
920.19121	6183.8
923.97308	6152.7
927.75233	6130.8
931.52895	6111.4
935.30295	6070.5
939.07433	6029.1
942.84309	5995.3
946.60924	5965.1
950.37278	5970
954.13371	5950.8
957.89203	5935.1
961.64774	5931.9
965.40086	5908.7
969.15137	5910.5
972.89929	5880.6
976.64461	5868.2
980.38733	5852.9
984.12747	5831.1
987.86502	5872.3
991.59999	5883.3
995.33237	5939
999.06217	5988.5
1002.78939	6054.1
1006.51404	6118.4
1010.23611	6208.3
1013.95561	6269.2
1017.67255	6292.9
1021.38692	6306.2
1025.09872	6279.1
1028.80796	6231.4
1032.51465	6163.1
1036.21877	6101.4
1039.92035	6035
1043.61937	6026.6
1047.31584	5989
1051.00976	6014.2
1054.70114	6012.8
1058.38998	6034.7
1062.07627	6108.8
1065.76003	6235.7
1069.44126	6253.9
1073.11995	6303.5
1076.79611	6347.5
1080.46974	6350.6
1084.14085	6302.7
1087.80943	6246.9
1091.47549	6201.8
1095.13903	6141
1098.80005	6131.7
1102.45857	6101.9
1106.11456	6096.9
1109.76805	6125.2
1113.41903	6231.1
1117.06751	6484.2
1120.71348	6834.8
1124.35696	7297.2
1127.99793	7836.1
1131.63641	8291.6
1135.2724	8474.5
1138.90589	8426.6
1142.5369	8166.5
1146.16542	7789.3
1149.79145	7342.6
1153.415	6944.4
1157.03607	6612.1
1160.65467	6390.7
1164.27079	6293.2
1167.88443	6297.2
1171.49561	6345.7
1175.10432	6485.8
1178.71056	6651.1
1182.31434	6832.1
1185.91565	6971.9
1189.51451	7026
1193.11091	7061.7
1196.70485	7133.9
1200.29634	7221.7
1203.88538	7285.8
1207.47197	7276.8
1211.05612	7226.7
1214.63782	7092.1
1218.21708	6929.7
1221.79391	6710.9
1225.36829	6538.8
1228.94024	6447.1
1232.50976	6368.9
1236.07685	6306.6
1239.6415	6315.9
1243.20374	6317.9
1246.76355	6365.4
1250.32093	6416.6
1253.8759	6482.7
1257.42845	6557.8
1260.97859	6621.6
1264.52631	6674.8
1268.07163	6716.8
1271.61453	6718
1275.15503	6758.6
1278.69312	6766.9
1282.22882	6758.4
1285.76211	6773.3
1289.29301	6804.2
1292.82151	6863.2
1296.34761	6982.5
1299.87133	7107.5
1303.39266	7234.9
1306.9116	7420.3
1310.42815	7570.1
1313.94233	7705
1317.45412	7736.1
1320.96354	7720.7
1324.47058	7689.1
1327.97525	7640.7
1331.47754	7626.8
1334.97747	7661.9
1338.47502	7689.1
1341.97022	7787.7
1345.46305	7892
1348.95352	8041.2
1352.44163	8161.8
1355.92738	8326.8
1359.41078	8529.9
1362.89183	8754.8
1366.37053	8770.7
1369.84688	8467.3
1373.32088	8066.8
1376.79254	7775.2
1380.26186	7591.8
1383.72883	7453.4
1387.19347	7358.5
1390.65578	7213.5
1394.11575	7100.6
1397.57339	6985.5
1401.0287	6883.9
1404.48168	6784.4
1407.93234	6684.9
1411.38068	6534.4
1414.82669	6401.3
1418.27039	6231
1421.71177	6111.9
1425.15083	6000
1428.58758	5905.6
1432.02203	5878.6
1435.45416	5867.8
1438.88399	5913.2
1442.31151	5900.4
1445.73673	5921
1449.15965	5940.2
1452.58027	5952.2
1455.9986	5963.7
1459.41463	5974.5
1462.82837	6002.7
1466.23982	6064.3
1469.64898	6108.2
1473.05586	6138.2
1476.46045	6156.1
1479.86276	6167.1
1483.26279	6191.9
1486.66054	6189.5
1490.05602	6243.2
1493.44922	6329.6
1496.84016	6453.7
1500.22882	6625.1
1503.61521	6840.7
1506.99934	7067.4
1510.38121	7267.1
1513.76081	7326
1517.13816	7216.2
1520.51324	7017.2
1523.88607	6821.5
1527.25665	6719.6
1530.62498	6699.7
1533.99105	6713.1
1537.35488	6730.3
1540.71647	6738.3
1544.07581	6729.7
1547.4329	6747.8
1550.78776	6747.4
1554.14038	6739.4
1557.49077	6742.7
1560.83892	6734
1564.18484	6756.5
1567.52853	6773.2
1570.86999	6785.1
1574.20922	6830.2
1577.54624	6850.3
1580.88103	6830.8
1584.2136	6747.3
1587.54395	6682.1
1590.87208	6653.4
1594.19801	6689.5
1597.52172	6744.8
1600.84321	6761.7
1604.16251	6711.2
1607.47959	6627.3
1610.79447	6512.6
1614.10715	6410
1617.41763	6320.8
1620.7259	6244.1
1624.03199	6213.9
1627.33587	6229.4
1630.63757	6294.9
1633.93707	6388.2
1637.23439	6531.4
1640.52951	6818
1643.82246	7087.8
1647.11321	7394
1650.40179	7555.5
1653.68819	7514.1
1656.97241	7304.3
1660.25446	7000.5
1663.53433	6795.9
1666.81203	6652.7
1670.08756	6561.2
1673.36092	6540.2
1676.63211	6513.1
1679.90115	6521.7
1683.16801	6509
1686.43272	6447.9
1689.69527	6378.2
1692.95567	6287.4
1696.2139	6231.2
1699.46999	6135.5
1702.72392	5989.9
1705.97571	5883.3
1709.22535	5714.6
1712.47284	5560.7
1715.71819	5409.8
1718.96139	5257.5
1722.20246	5127.2
1725.44139	5027.2
1728.67818	4927.8
1731.91284	4861.4
1735.14537	4789.9
1738.37576	4742.4
1741.60403	4733.5
1744.83017	4683.1
1748.05418	4658.4
1751.27607	4639.3
1754.49584	4625.3
1757.71349	4637.6
1760.92903	4628.7
1764.14244	4589.3
1767.35375	4589.3
1770.56294	4578.9
1773.77002	4560.4
1776.97499	4531
1780.17785	4523.2
1783.37861	4507.2
1786.57727	4497.7
1789.77382	4470.6
1792.96828	4449.9
1796.16064	4431.2
1799.3509	4414.4
1802.53907	4406.6
1805.72514	4390.7
1808.90913	4376.7
1812.09102	4373.6
1815.27083	4355.7
1818.44856	4355.1
1821.6242	4332.6
1824.79776	4306.2
1827.96924	4312.2
1831.13864	4289.8
1834.30597	4318.3
1837.47122	4307.7
1840.6344	4298.3
1843.7955	4279.4
1846.95454	4271.2
1850.11151	4270.1
1853.26642	4261.9
1856.41926	4266.1
1859.57004	4255.3
1862.71876	4242.3
1865.86542	4242.4
1869.01003	4237
1872.15258	4216.7
1875.29308	4218.6
1878.43152	4211
1881.56792	4222.6
1884.70227	4197.6
1887.83457	4186
1890.96482	4187.8
1894.09304	4172.3
1897.21921	4157.9
1900.34335	4164.9
1903.46544	4146.6
1906.58551	4151.8
1909.70353	4146.1
1912.81953	4142.4
1915.93349	4127.7
1919.04543	4113.9
1922.15534	4110.8
1925.26322	4099.4
1928.36908	4086.2
1931.47292	4081.8
1934.57473	4059.9
1937.67453	4057.4
1940.77232	4046.7
1943.86808	4027.5
1946.96184	4018.8
1950.05358	4000.3
1953.14331	4004.2
1956.23103	3992.3
1959.31675	3971.7
1962.40046	3966.3
1965.48217	3956.1
1968.56188	3934.2
1971.63959	3927.8
1974.7153	3910.8
1977.78901	3896.4
1980.86073	3891.2
1983.93046	3855.7
1986.99819	3864.6
1990.06394	3852.8
1993.1277	3847.4
1996.18947	3830
1999.24925	3832.9
2002.30706	3801.7
2005.36288	3780.7
2008.41672	3770.4
2011.46859	3762.3
2014.51848	3753.5
2017.56639	3745.8
2020.61233	3713.2
2023.6563	3708.5
2026.6983	3702.2
2029.73833	3700.3
2032.7764	3680.2
2035.8125	3671.7
2038.84664	3659.4
2041.87881	3660.4
2044.90903	3646.7
2047.93729	3644.1
2050.96359	3651.3
2053.98794	3636.6
2057.01034	3623.6
2060.03078	3614.4
2063.04927	3607.6
2066.06582	3611.8
2069.08042	3608.5
2072.09307	3597.5
2075.10378	3603.4
2078.11255	3594.7
2081.11938	3591.3
2084.12426	3598.3
2087.12722	3603.6
2090.12824	3596.2
2093.12732	3604.8
2096.12447	3591
2099.11969	3604.3
2102.11299	3596.9
2105.10435	3592.4
2108.09379	3582.4
2111.08131	3582.2
2114.0669	3592.5
2117.05057	3588.4
2120.03233	3597.3
2123.01216	3591.7
2125.99008	3614.5
2128.96609	3608
2131.94018	3607.3
2134.91236	3592
2137.88263	3608.4
2140.851	3599.7
2143.81746	3607.6
2146.78201	3596
2149.74466	3604.1
2152.7054	3603.1
2155.66425	3597.7
2158.6212	3597.6
2161.57625	3597.4
2164.52941	3591.3
2167.48067	3588.8
2170.43004	3583.2
2173.37752	3592.4
2176.32311	3578
2179.26681	3572.4
2182.20863	3570.1
2185.14856	3584
2188.08661	3569.6
2191.02278	3559
2193.95707	3575.2
2196.88948	3558.6
2199.82001	3557.7
2202.74867	3545.2
2205.67545	3549.6
2208.60037	3516.7
2211.52341	3520.9
2214.44458	3524.1
2217.36388	3515.4
2220.28132	3511.5
2223.1969	3484.4
2226.11061	3479.4
2229.02246	3469.3
2231.93245	3475.2
2234.84058	3458.2
2237.74686	3450.2
2240.65128	3460.3
2243.55385	3448.7
2246.45456	3444.2
2249.35343	3430.1
2252.25044	3410.3
2255.14561	3402.1
2258.03893	3419.8
2260.93041	3413.3
2263.82004	3390.3
2266.70783	3395.4
2269.59378	3382.8
2272.4779	3378.3
2275.36017	3361.3
2278.24061	3343.9
2281.11922	3346.7
2283.996	3340.2
2286.87094	3321.9
2289.74405	3328.3
2292.61534	3320
2295.4848	3318.9
2298.35243	3313.8
2301.21824	3303.6
2304.08223	3295.9
2306.94439	3287.1
2309.80474	3291.7
2312.66327	3291.6
2315.51999	3291.1
2318.37489	3287.8
2321.22797	3274.8
2324.07925	3269.9
2326.92871	3260.7
2329.77637	3243.3
2332.62222	3247.8
2335.46626	3235.3
2338.3085	3239.7
2341.14893	3241.1
2343.98756	3229.3
2346.8244	3217.6
2349.65943	3204.6
2352.49267	3222.7
2355.32411	3210.2
2358.15376	3215.6
2360.98161	3201.2
2363.80768	3189.5
2366.63195	3185.8
2369.45444	3194.3
2372.27514	3179.5
2375.09405	3184.2
2377.91118	3175.8
2380.72652	3171.5
2383.54009	3158
2386.35187	3154.9
2389.16188	3146.3
2391.97011	3138.4
2394.77657	3136.1
2397.58125	3130.6
2400.38416	3130
2403.18529	3117
2405.98466	3112.1
2408.78226	3089.6
2411.57809	3111.6
2414.37216	3094.6
2417.16446	3098
2419.955	3094.6
2422.74378	3095.4
2425.5308	3078.2
2428.31606	3067.4
2431.09956	3062.1
2433.88131	3061.8
2436.6613	3053.9
2439.43954	3057.8
2442.21603	3048.3
2444.99077	3033.9
2447.76377	3036.2
2450.53501	3033.3
2453.30451	3041.1
2456.07226	3027.3
2458.83827	3011.4
2461.60254	3013.3
2464.36507	3011
2467.12586	3004.3
2469.88492	3000.8
2472.64224	2998.1
2475.39782	2996.6
2478.15167	3006.6
2480.90379	2993.4
2483.65417	2997.8
2486.40283	2977.5
2489.14976	2990.7
2491.89497	2981
2494.63845	2978.9
2497.3802	2981.8
2500.12024	2969.3
2502.85855	2966.2
2505.59514	2961.5
2508.33002	2953.9
2511.06318	2948.7
2513.79462	2943.3
2516.52435	2947.2
2519.25237	2949.8
2521.97867	2930.2
2524.70327	2930.9
2527.42616	2923.2
2530.14734	2925.8
2532.86681	2909.7
2535.58458	2908.6
2538.30065	2912.4
2541.01501	2905.3
2543.72768	2887.8
2546.43864	2875.6
2549.14791	2888.3
2551.85548	2879.6
2554.56136	2859.7
2557.26554	2862
2559.96803	2850.8
2562.66883	2846.9
2565.36794	2836.8
2568.06536	2839.7
2570.7611	2834.4
2573.45514	2820.7
2576.14751	2832
2578.83819	2818.5
2581.52719	2822.5
2584.21451	2805.1
2586.90015	2795.6
2589.58411	2799.4
2592.2664	2790.4
2594.94701	2787.5
2597.62594	2775.5
2600.30321	2772.2
2602.9788	2773.5
2605.65273	2765.7
2608.32498	2753.4
2610.99557	2749.7
2613.66449	2746
2616.33175	2733.2
2618.99734	2742.8
2621.66128	2735.6
2624.32355	2728.4
2626.98416	2723.7
2629.64311	2715.3
2632.30041	2715.2
2634.95605	2713.2
2637.61004	2716.4
2640.26238	2705.2
2642.91306	2707.1
2645.56209	2708.4
2648.20948	2701.7
2650.85521	2700.8
2653.4993	2697.4
2656.14175	2693.9
2658.78255	2702.1
2661.42171	2686.4
2664.05923	2678.4
2666.6951	2677.1
2669.32934	2678
2671.96194	2675.9
2674.59291	2684.3
2677.22224	2687
2679.84993	2690.9
2682.476	2677.6
2685.10043	2675.1
2687.72324	2679.7
2690.34441	2672.8
2692.96396	2672.7
2695.58188	2674.4
2698.19818	2681.7
2700.81285	2673.7
2703.4259	2687.6
2706.03733	2697.1
2708.64714	2694.5
2711.25533	2688.5
2713.86191	2664.8
2716.46687	2672.2
2719.07021	2685.6
2721.67194	2671.1
2724.27206	2663.6
2726.87057	2666.8
2729.46747	2666.9
2732.06276	2661.4
2734.65644	2661.5
2737.24852	2660.6
2739.83899	2659.8
2742.42786	2654.8
2745.01513	2641.7
2747.60079	2638.4
2750.18486	2635.9
2752.76733	2637.3
2755.3482	2645.6
2757.92747	2639.1
2760.50515	2634
2763.08123	2630.3
2765.65573	2612.9
2768.22863	2629.1
2770.79994	2608.5
2773.36967	2611.1
2775.9378	2617.2
2778.50435	2592.2
2781.06932	2586.8
2783.6327	2584.4
2786.1945	2588.7
2788.75471	2584.8
2791.31335	2583.3
2793.87041	2573.1
2796.42589	2558.5
2798.97979	2554.7
2801.53212	2550.4
2804.08288	2556.5
2806.63206	2535.1
2809.17967	2537.5
2811.72571	2523.4
2814.27018	2533.9
2816.81308	2525.9
2819.35442	2509.6
2821.89419	2512.9
2824.43239	2500.7
2826.96904	2498.2
2829.50412	2505.5
2832.03763	2505.3
2834.56959	2503.7
2837.1	2494
2839.62884	2495.2
2842.15613	2486.6
2844.68186	2497.3
2847.20604	2500.2
2849.72867	2496.3
2852.24974	2491.7
2854.76927	2484.8
2857.28724	2494.9
2859.80367	2483
2862.31855	2492.4
2864.83189	2481.2
2867.34368	2487.4
2869.85393	2485.3
2872.36264	2475.5
2874.8698	2487.6
2877.37543	2472.6
2879.87952	2477.4
2882.38207	2480.1
2884.88308	2485.9
2887.38256	2481.7
2889.88051	2483.4
2892.37692	2479.2
2894.8718	2480
2897.36515	2476.2
2899.85698	2480.7
2902.34727	2485.3
2904.83604	2486.1
2907.32328	2491.7
2909.809	2486.2
2912.29319	2479.3
2914.77587	2485
2917.25702	2477.4
2919.73665	2473.6
2922.21476	2486
2924.69136	2474.2
2927.16644	2484.4
2929.64	2481.4
2932.11205	2483.4
2934.58258	2483.3
2937.05161	2474
2939.51912	2476
2941.98513	2482.2
2944.44962	2469
2946.91261	2464.5
2949.37409	2478.2
2951.83407	2486.3
2954.29254	2475.3
2956.74951	2470.7
2959.20498	2469.1
2961.65895	2460.8
2964.11142	2460.7
2966.56239	2455.4
2969.01186	2461.6
2971.45984	2453.9
2973.90632	2428.3
2976.35131	2436.7
2978.7948	2434
2981.23681	2413.2
2983.67732	2446.2
2986.11635	2419.2
2988.55388	2414.4
2990.98993	2408.8
2993.4245	2409.5
2995.85758	2406.6
2998.28917	2395.9
3000.71928	2411
3003.14791	2406.8
3005.57506	2396.1
3008.00073	2399.4
3010.42493	2398.9
3012.84764	2407.5
3015.26888	2403.7
3017.68865	2407.2
3020.10694	2401.9
3022.52376	2402.2
3024.9391	2397.1
3027.35298	2401.3
3029.76539	2401
3032.17632	2385.7
3034.5858	2392.9
3036.9938	2385.2
3039.40034	2384.2
3041.80542	2405
3044.20903	2384.2
3046.61118	2401.9
3049.01187	2378.9
3051.4111	2394.9
3053.80888	2398.2
3056.20519	2386.7
3058.60005	2389.1
3060.99345	2385.9
3063.3854	2381.4
3065.7759	2382.3
3068.16494	2383.4
3070.55254	2375.4
3072.93868	2371.3
3075.32338	2372.4
3077.70662	2382
3080.08842	2385.3
3082.46878	2394.5
3084.84769	2388.9
3087.22515	2395.6
3089.60118	2401.2
3091.97576	2393.1
3094.3489	2403.9
3096.72061	2400.5
3099.09087	2405.9
3101.4597	2409.5
3103.82709	2412.7
3106.19305	2420.6
3108.55757	2417.4
3110.92066	2418.6
3113.28232	2412.6
3115.64255	2421.5
3118.00134	2417.5
3120.35871	2425.2
3122.71466	2422.8
3125.06917	2423.5
3127.42226	2423.6
3129.77393	2437.9
3132.12417	2433.2
3134.47299	2443.6
3136.82039	2451.3
3139.16636	2465.2
3141.51092	2463.7
3143.85406	2475.9
3146.19579	2468.5
3148.53609	2484.6
3150.87499	2483.8
3153.21246	2501.8
3155.54853	2511.6
3157.88318	2514.7
3160.21642	2517.8
3162.54826	2516.3
3164.87868	2524
3167.2077	2533.3
3169.5353	2530.6
3171.86151	2538.1
3174.18631	2535.9
3176.5097	2540.6
3178.83169	2543.2
3181.15228	2554.2
3183.47147	2550.2
3185.78926	2552.2
3188.10565	2550.9
3190.42065	2556
3192.73424	2554
3195.04645	2564.5
3197.35725	2571.5
3199.66667	2577.2
3201.97469	2584.9
3204.28132	2587.1
3206.58656	2592.7
3208.8904	2595.2
3211.19287	2599.3
3213.49394	2603.5
3215.79363	2605.3
3218.09193	2605.1
3220.38884	2624.2
3222.68438	2612
3224.97853	2600.6
3227.2713	2611.6
3229.56269	2603.8
3231.8527	2606.9
3234.14133	2601.9
3236.42858	2606.8
3238.71446	2602.3
3240.99896	2597.7
3243.28209	2593.5
3245.56384	2590.3
3247.84423	2590.7
3250.12324	2594.4
3252.40088	2593.6
3254.67715	2601.6
3256.95205	2588
3259.22558	2596.8
3261.49775	2584.7
3263.76855	2583.7
3266.03799	2573.2
3268.30606	2580.2
3270.57277	2565.6
3272.83812	2548.8
3275.10211	2553.7
3277.36474	2562.8
3279.62601	2563.9
3281.88593	2563.5
3284.14448	2577.3
3286.40168	2568.1
3288.65753	2544.2
3290.91202	2546.7
3293.16516	2544
3295.41695	2534.6
3297.66738	2526.8
3299.91647	2517.6
3302.16421	2491.1
3304.4106	2491.5
3306.65564	2472.5
3308.89933	2457.7
3311.14169	2447.4
3313.38269	2429.9
3315.62236	2430.2
3317.86068	2395.9
3320.09766	2371.8
3322.3333	2369
3324.5676	2365.1
3326.80056	2335.1
3329.03219	2319.7
3331.26248	0.2
3333.49143	0.2
3335.71905	0.7
