Data from AgNPs_FTO_APTES_UA_0.1mM_CRN_20uM_NaF_0.1M_Addition_RamanShift__11__12-09-47-591.txt Node

Date: Mon Dec 20 12:09:47 GMT 2021
User: TCL
Spectrometer: QEP01345
Trigger mode: 4
Integration Time (sec): 7.000000E0
Scans to average: 10
Electric dark correction enabled: true
Nonlinearity correction enabled: false
Boxcar width: 0
XAxis mode: Raman Shifts
Number of Pixels in Spectrum: 1044
>>>>>Begin Spectral Data<<<<<
46.04893	1.2125
50.45542	-0.1875
54.85868	-2.1875
59.25871	1.1125
63.6555	32.5125
68.04907	28.7125
72.43941	34.3125
76.82654	33.6125
81.21044	36.5125
85.59113	37.4125
89.96862	40.3125
94.34289	41.3125
98.71396	41.4125
103.08183	41.0125
107.4465	43.0125
111.80798	45.6125
116.16626	46.4125
120.52136	49.5125
124.87327	50.9125
129.222	47.3125
133.56755	51.4125
137.90993	56.1125
142.24913	58.2125
146.58517	62.0125
150.91804	74.0125
155.24774	85.5125
159.57429	100.9125
163.89768	125.1125
168.21792	168.5125
172.53501	224.7125
176.84895	302.8125
181.15975	429.0125
185.46741	601.6125
189.77193	826.4125
194.07331	1120.2125
198.37157	1435.6125
202.6667	1779.8125
206.9587	2120.2125
211.24758	2464.3125
215.53334	2806.0125
219.81599	3152.5125
224.09553	3540.3125
228.37195	3998.1125
232.64527	4491.2125
236.91549	5038.5125
241.18261	5580.7125
245.44663	6089.4125
249.70755	6549.7125
253.96539	6890.5125
258.22014	7121.7125
262.4718	7242.5125
266.72039	7208.6125
270.96589	7120.4125
275.20832	6948.7125
279.44768	6719.9125
283.68397	6489.9125
287.91719	6303.4125
292.14735	6144.8125
296.37445	5984.2125
300.59849	5908.9125
304.81948	5840.0125
309.03742	5797.3125
313.25231	5747.5125
317.46415	5663.6125
321.67296	5573.2125
325.87872	5516.4125
330.08145	5478.0125
334.28114	5463.8125
338.47781	5460.8125
342.67145	5482.4125
346.86207	5515.4125
351.04966	5573.3125
355.23424	5598.8125
359.4158	5667.3125
363.59435	5698.0125
367.76989	5749.8125
371.94243	5808.9125
376.11196	5827.3125
380.27849	5879.5125
384.44203	5944.5125
388.60257	6004.5125
392.76012	6062.5125
396.91468	6183.6125
401.06626	6314.9125
405.21485	6424.0125
409.36047	6485.1125
413.50311	6458.8125
417.64277	6400.1125
421.77947	6359.1125
425.9132	6350.4125
430.04396	6333.6125
434.17176	6336.0125
438.2966	6326.5125
442.41849	6315.6125
446.53742	6365.4125
450.6534	6417.2125
454.76644	6431.3125
458.87653	6475.0125
462.98368	6473.3125
467.08789	6478.3125
471.18916	6496.0125
475.2875	6512.7125
479.38291	6556.0125
483.4754	6602.8125
487.56496	6696.4125
491.6516	6766.3125
495.73531	6847.0125
499.81612	6884.3125
503.89401	6947.0125
507.96899	6955.4125
512.04106	6901.7125
516.11023	6850.7125
520.1765	6752.5125
524.23987	6662.4125
528.30034	6590.8125
532.35792	6526.9125
536.41261	6463.8125
540.46441	6443.6125
544.51333	6419.2125
548.55936	6414.6125
552.60252	6449.6125
556.64279	6492.5125
560.6802	6513.5125
564.71473	6540.8125
568.7464	6548.3125
572.7752	6593.5125
576.80114	6653.0125
580.82422	6690.7125
584.84444	6763.0125
588.86181	6818.6125
592.87633	6878.4125
596.888	6902.3125
600.89682	6898.2125
604.9028	7019.4125
608.90594	7254.9125
612.90624	7599.7125
616.90371	7552.6125
620.89834	7111.0125
624.89015	6950.9125
628.87913	7000.1125
632.86528	7149.1125
636.84862	7291.9125
640.82913	7360.0125
644.80683	7334.0125
648.78172	7239.3125
652.75379	7145.1125
656.72306	7080.5125
660.68952	7066.2125
664.65319	7042.6125
668.61405	7033.2125
672.57211	7053.1125
676.52738	7047.6125
680.47986	7026.9125
684.42955	6992.6125
688.37646	6935.2125
692.32058	6907.5125
696.26192	6892.3125
700.20048	6851.0125
704.13626	6803.5125
708.06928	6719.4125
711.99952	6665.5125
715.927	6586.4125
719.85171	6558.9125
723.77365	6534.5125
727.69284	6506.0125
731.60928	6483.2125
735.52295	6474.8125
739.43388	6512.8125
743.34206	6544.4125
747.24749	6613.4125
751.15017	6665.1125
755.05012	6750.5125
758.94733	6818.7125
762.8418	6909.0125
766.73354	7062.6125
770.62254	7176.8125
774.50882	7224.3125
778.39237	7094.4125
782.27321	6863.5125
786.15132	6667.2125
790.02671	6534.8125
793.89938	6504.4125
797.76935	6497.1125
801.6366	6559.1125
805.50115	6645.2125
809.36299	6724.1125
813.22213	6786.6125
817.07857	6720.1125
820.93231	6596.2125
824.78336	6455.6125
828.63172	6333.2125
832.47738	6266.3125
836.32036	6240.8125
840.16066	6221.6125
843.99827	6201.5125
847.8332	6201.0125
851.66546	6213.7125
855.49504	6215.6125
859.32195	6222.0125
863.1462	6212.1125
866.96777	6231.1125
870.78668	6259.0125
874.60293	6285.0125
878.41652	6321.8125
882.22745	6372.1125
886.03573	6401.3125
889.84136	6436.1125
893.64433	6436.9125
897.44466	6396.3125
901.24235	6334.8125
905.0374	6292.7125
908.8298	6268.3125
912.61957	6229.1125
916.40671	6217.7125
920.19121	6215.4125
923.97308	6197.8125
927.75233	6177.5125
931.52895	6141.8125
935.30295	6093.2125
939.07433	6065.8125
942.84309	6026.9125
946.60924	6014.4125
950.37278	5992.9125
954.13371	5974.8125
957.89203	5972.4125
961.64774	5977.8125
965.40086	5960.6125
969.15137	5958.2125
972.89929	5950.6125
976.64461	5933.1125
980.38733	5922.6125
984.12747	5912.7125
987.86502	5940.2125
991.59999	5943.9125
995.33237	5959.3125
999.06217	5999.8125
1002.78939	6020.7125
1006.51404	6054.4125
1010.23611	6090.7125
1013.95561	6120.0125
1017.67255	6139.8125
1021.38692	6158.8125
1025.09872	6131.1125
1028.80796	6110.4125
1032.51465	6089.2125
1036.21877	6077.5125
1039.92035	6065.6125
1043.61937	6058.5125
1047.31584	6073.6125
1051.00976	6072.0125
1054.70114	6092.8125
1058.38998	6098.7125
1062.07627	6103.7125
1065.76003	6148.7125
1069.44126	6175.3125
1073.11995	6214.1125
1076.79611	6207.3125
1080.46974	6236.4125
1084.14085	6227.4125
1087.80943	6214.3125
1091.47549	6201.7125
1095.13903	6196.7125
1098.80005	6154.2125
1102.45857	6139.3125
1106.11456	6115.4125
1109.76805	6113.7125
1113.41903	6165.5125
1117.06751	6253.7125
1120.71348	6420.3125
1124.35696	6585.0125
1127.99793	6760.2125
1131.63641	6938.5125
1135.2724	7018.7125
1138.90589	7062.5125
1142.5369	7000.8125
1146.16542	6928.4125
1149.79145	6773.6125
1153.415	6634.1125
1157.03607	6481.2125
1160.65467	6377.3125
1164.27079	6327.8125
1167.88443	6373.6125
1171.49561	6410.2125
1175.10432	6538.3125
1178.71056	6704.1125
1182.31434	6887.3125
1185.91565	6972.1125
1189.51451	7031.7125
1193.11091	7023.3125
1196.70485	7030.5125
1200.29634	6991.6125
1203.88538	6967.6125
1207.47197	6942.3125
1211.05612	6936.7125
1214.63782	6905.9125
1218.21708	6879.7125
1221.79391	6830.6125
1225.36829	6786.0125
1228.94024	6726.3125
1232.50976	6683.9125
1236.07685	6608.8125
1239.6415	6576.2125
1243.20374	6553.3125
1246.76355	6549.9125
1250.32093	6590.8125
1253.8759	6641.4125
1257.42845	6704.8125
1260.97859	6760.5125
1264.52631	6793.6125
1268.07163	6859.1125
1271.61453	6835.8125
1275.15503	6837.6125
1278.69312	6851.8125
1282.22882	6847.8125
1285.76211	6874.6125
1289.29301	6914.4125
1292.82151	7012.8125
1296.34761	7123.4125
1299.87133	7258.3125
1303.39266	7408.2125
1306.9116	7577.3125
1310.42815	7757.6125
1313.94233	7883.3125
1317.45412	7905.7125
1320.96354	7906.5125
1324.47058	7856.5125
1327.97525	7830.0125
1331.47754	7804.6125
1334.97747	7800.5125
1338.47502	7827.9125
1341.97022	7906.9125
1345.46305	7977.6125
1348.95352	8092.0125
1352.44163	8210.9125
1355.92738	8280.2125
1359.41078	8450.2125
1362.89183	8596.9125
1366.37053	8561.6125
1369.84688	8242.7125
1373.32088	7854.0125
1376.79254	7544.1125
1380.26186	7382.9125
1383.72883	7303.0125
1387.19347	7240.2125
1390.65578	7144.9125
1394.11575	7069.7125
1397.57339	7021.1125
1401.0287	6947.2125
1404.48168	6901.7125
1407.93234	6844.1125
1411.38068	6758.5125
1414.82669	6648.6125
1418.27039	6523.9125
1421.71177	6432.9125
1425.15083	6331.7125
1428.58758	6243.8125
1432.02203	6195.3125
1435.45416	6187.0125
1438.88399	6201.5125
1442.31151	6186.9125
1445.73673	6196.7125
1449.15965	6205.8125
1452.58027	6208.6125
1455.9986	6247.0125
1459.41463	6284.5125
1462.82837	6317.9125
1466.23982	6358.3125
1469.64898	6439.8125
1473.05586	6489.4125
1476.46045	6519.3125
1479.86276	6537.5125
1483.26279	6573.2125
1486.66054	6584.9125
1490.05602	6616.7125
1493.44922	6665.7125
1496.84016	6783.8125
1500.22882	6933.3125
1503.61521	7143.0125
1506.99934	7352.5125
1510.38121	7501.5125
1513.76081	7559.8125
1517.13816	7460.8125
1520.51324	7271.2125
1523.88607	7116.1125
1527.25665	7014.5125
1530.62498	6995.9125
1533.99105	7004.8125
1537.35488	6995.6125
1540.71647	7018.7125
1544.07581	7049.0125
1547.4329	7071.7125
1550.78776	7103.5125
1554.14038	7130.6125
1557.49077	7181.4125
1560.83892	7201.3125
1564.18484	7250.7125
1567.52853	7273.2125
1570.86999	7335.2125
1574.20922	7384.7125
1577.54624	7403.1125
1580.88103	7378.4125
1584.2136	7295.4125
1587.54395	7264.0125
1590.87208	7269.7125
1594.19801	7311.4125
1597.52172	7364.5125
1600.84321	7406.8125
1604.16251	7298.5125
1607.47959	7196.5125
1610.79447	7037.9125
1614.10715	6888.0125
1617.41763	6730.6125
1620.7259	6615.2125
1624.03199	6567.5125
1627.33587	6524.3125
1630.63757	6559.0125
1633.93707	6599.4125
1637.23439	6723.9125
1640.52951	6925.1125
1643.82246	7177.1125
1647.11321	7442.9125
1650.40179	7593.7125
1653.68819	7552.5125
1656.97241	7322.9125
1660.25446	7020.8125
1663.53433	6748.7125
1666.81203	6546.0125
1670.08756	6381.6125
1673.36092	6274.2125
1676.63211	6188.3125
1679.90115	6094.7125
1683.16801	5994.6125
1686.43272	5888.5125
1689.69527	5794.1125
1692.95567	5663.9125
1696.2139	5584.5125
1699.46999	5505.9125
1702.72392	5419.5125
1705.97571	5338.1125
1709.22535	5281.8125
1712.47284	5229.1125
1715.71819	5173.0125
1718.96139	5122.7125
1722.20246	5076.3125
1725.44139	5011.7125
1728.67818	4989.5125
1731.91284	4917.4125
1735.14537	4868.4125
1738.37576	4817.0125
1741.60403	4793.7125
1744.83017	4763.7125
1748.05418	4734.7125
1751.27607	4718.3125
1754.49584	4696.0125
1757.71349	4690.4125
1760.92903	4662.7125
1764.14244	4645.8125
1767.35375	4627.4125
1770.56294	4630.4125
1773.77002	4602.2125
1776.97499	4580.7125
1780.17785	4562.5125
1783.37861	4550.0125
1786.57727	4535.9125
1789.77382	4503.4125
1792.96828	4492.4125
1796.16064	4460.8125
1799.3509	4446.5125
1802.53907	4445.8125
1805.72514	4418.8125
1808.90913	4396.2125
1812.09102	4387.5125
1815.27083	4368.9125
1818.44856	4378.1125
1821.6242	4340.0125
1824.79776	4355.3125
1827.96924	4344.6125
1831.13864	4318.2125
1834.30597	4329.9125
1837.47122	4311.3125
1840.6344	4301.3125
1843.7955	4289.6125
1846.95454	4283.2125
1850.11151	4282.1125
1853.26642	4261.5125
1856.41926	4259.8125
1859.57004	4267.0125
1862.71876	4249.7125
1865.86542	4249.0125
1869.01003	4219.4125
1872.15258	4229.3125
1875.29308	4221.9125
1878.43152	4201.2125
1881.56792	4196.7125
1884.70227	4178.6125
1887.83457	4176.0125
1890.96482	4168.2125
1894.09304	4165.8125
1897.21921	4145.1125
1900.34335	4154.8125
1903.46544	4138.1125
1906.58551	4148.0125
1909.70353	4116.5125
1912.81953	4106.7125
1915.93349	4096.1125
1919.04543	4091.8125
1922.15534	4061.7125
1925.26322	4083.9125
1928.36908	4058.9125
1931.47292	4068.6125
1934.57473	4036.8125
1937.67453	4023.6125
1940.77232	4018.6125
1943.86808	4009.3125
1946.96184	3987.9125
1950.05358	3966.5125
1953.14331	3967.2125
1956.23103	3954.9125
1959.31675	3936.5125
1962.40046	3939.5125
1965.48217	3925.4125
1968.56188	3895.8125
1971.63959	3888.1125
1974.7153	3879.7125
1977.78901	3854.2125
1980.86073	3855.0125
1983.93046	3835.9125
1986.99819	3817.1125
1990.06394	3794.6125
1993.1277	3792.2125
1996.18947	3785.9125
1999.24925	3770.0125
2002.30706	3750.3125
2005.36288	3738.0125
2008.41672	3732.5125
2011.46859	3723.5125
2014.51848	3701.2125
2017.56639	3703.0125
2020.61233	3672.3125
2023.6563	3678.9125
2026.6983	3648.1125
2029.73833	3665.2125
2032.7764	3637.9125
2035.8125	3638.8125
2038.84664	3615.9125
2041.87881	3614.5125
2044.90903	3591.8125
2047.93729	3593.9125
2050.96359	3580.6125
2053.98794	3584.7125
2057.01034	3581.0125
2060.03078	3562.2125
2063.04927	3550.0125
2066.06582	3551.2125
2069.08042	3563.0125
2072.09307	3539.1125
2075.10378	3546.5125
2078.11255	3542.8125
2081.11938	3531.2125
2084.12426	3544.2125
2087.12722	3529.8125
2090.12824	3538.3125
2093.12732	3528.0125
2096.12447	3537.7125
2099.11969	3516.9125
2102.11299	3523.5125
2105.10435	3521.1125
2108.09379	3515.3125
2111.08131	3519.6125
2114.0669	3520.1125
2117.05057	3528.9125
2120.03233	3526.9125
2123.01216	3517.6125
2125.99008	3519.2125
2128.96609	3518.4125
2131.94018	3533.3125
2134.91236	3523.6125
2137.88263	3518.4125
2140.851	3522.8125
2143.81746	3530.7125
2146.78201	3524.2125
2149.74466	3518.2125
2152.7054	3512.1125
2155.66425	3520.2125
2158.6212	3520.6125
2161.57625	3519.7125
2164.52941	3509.6125
2167.48067	3502.6125
2170.43004	3499.2125
2173.37752	3499.7125
2176.32311	3491.0125
2179.26681	3486.9125
2182.20863	3493.9125
2185.14856	3483.7125
2188.08661	3471.8125
2191.02278	3490.3125
2193.95707	3471.0125
2196.88948	3470.0125
2199.82001	3465.4125
2202.74867	3458.5125
2205.67545	3451.7125
2208.60037	3445.7125
2211.52341	3436.8125
2214.44458	3421.3125
2217.36388	3408.8125
2220.28132	3406.5125
2223.1969	3373.1125
2226.11061	3385.6125
2229.02246	3370.2125
2231.93245	3366.0125
2234.84058	3373.2125
2237.74686	3352.9125
2240.65128	3345.1125
2243.55385	3330.3125
2246.45456	3333.6125
2249.35343	3329.1125
2252.25044	3316.9125
2255.14561	3309.2125
2258.03893	3300.9125
2260.93041	3310.6125
2263.82004	3292.3125
2266.70783	3279.0125
2269.59378	3269.2125
2272.4779	3284.6125
2275.36017	3264.9125
2278.24061	3243.9125
2281.11922	3244.0125
2283.996	3238.4125
2286.87094	3235.7125
2289.74405	3214.0125
2292.61534	3212.5125
2295.4848	3202.7125
2298.35243	3207.6125
2301.21824	3196.7125
2304.08223	3192.6125
2306.94439	3195.0125
2309.80474	3179.4125
2312.66327	3172.6125
2315.51999	3181.5125
2318.37489	3166.4125
2321.22797	3156.9125
2324.07925	3145.4125
2326.92871	3145.1125
2329.77637	3145.8125
2332.62222	3136.9125
2335.46626	3130.1125
2338.3085	3113.8125
2341.14893	3118.5125
2343.98756	3098.7125
2346.8244	3090.2125
2349.65943	3086.9125
2352.49267	3097.0125
2355.32411	3085.2125
2358.15376	3092.3125
2360.98161	3069.2125
2363.80768	3073.2125
2366.63195	3073.5125
2369.45444	3075.3125
2372.27514	3077.6125
2375.09405	3060.5125
2377.91118	3055.7125
2380.72652	3045.8125
2383.54009	3046.3125
2386.35187	3036.4125
2389.16188	3019.0125
2391.97011	3020.6125
2394.77657	3019.5125
2397.58125	3009.9125
2400.38416	2988.6125
2403.18529	2992.4125
2405.98466	2983.0125
2408.78226	2980.9125
2411.57809	2972.8125
2414.37216	2967.5125
2417.16446	2962.9125
2419.955	2958.0125
2422.74378	2947.9125
2425.5308	2931.6125
2428.31606	2934.4125
2431.09956	2938.5125
2433.88131	2929.8125
2436.6613	2931.9125
2439.43954	2927.3125
2442.21603	2923.9125
2444.99077	2925.3125
2447.76377	2919.7125
2450.53501	2913.5125
2453.30451	2907.1125
2456.07226	2907.4125
2458.83827	2904.4125
2461.60254	2896.7125
2464.36507	2888.0125
2467.12586	2882.3125
2469.88492	2878.6125
2472.64224	2876.6125
2475.39782	2881.3125
2478.15167	2873.7125
2480.90379	2861.1125
2483.65417	2849.9125
2486.40283	2857.5125
2489.14976	2854.3125
2491.89497	2844.3125
2494.63845	2854.4125
2497.3802	2845.2125
2500.12024	2828.1125
2502.85855	2820.3125
2505.59514	2825.9125
2508.33002	2807.3125
2511.06318	2808.8125
2513.79462	2818.9125
2516.52435	2801.2125
2519.25237	2797.1125
2521.97867	2800.6125
2524.70327	2783.4125
2527.42616	2772.9125
2530.14734	2786.2125
2532.86681	2775.3125
2535.58458	2752.7125
2538.30065	2761.2125
2541.01501	2760.7125
2543.72768	2756.1125
2546.43864	2740.8125
2549.14791	2736.6125
2551.85548	2740.1125
2554.56136	2725.7125
2557.26554	2720.2125
2559.96803	2721.6125
2562.66883	2714.5125
2565.36794	2704.6125
2568.06536	2697.0125
2570.7611	2687.9125
2573.45514	2689.5125
2576.14751	2681.1125
2578.83819	2677.3125
2581.52719	2673.5125
2584.21451	2654.4125
2586.90015	2658.9125
2589.58411	2653.1125
2592.2664	2655.2125
2594.94701	2646.1125
2597.62594	2633.1125
2600.30321	2629.0125
2602.9788	2626.4125
2605.65273	2610.3125
2608.32498	2619.3125
2610.99557	2619.1125
2613.66449	2599.7125
2616.33175	2595.7125
2618.99734	2590.9125
2621.66128	2600.6125
2624.32355	2583.0125
2626.98416	2593.4125
2629.64311	2571.6125
2632.30041	2572.3125
2634.95605	2570.1125
2637.61004	2574.1125
2640.26238	2567.3125
2642.91306	2566.1125
2645.56209	2572.4125
2648.20948	2549.2125
2650.85521	2546.2125
2653.4993	2539.8125
2656.14175	2547.2125
2658.78255	2544.3125
2661.42171	2537.3125
2664.05923	2528.6125
2666.6951	2528.0125
2669.32934	2537.7125
2671.96194	2537.1125
2674.59291	2523.5125
2677.22224	2523.6125
2679.84993	2532.5125
2682.476	2530.8125
2685.10043	2532.5125
2687.72324	2535.3125
2690.34441	2522.3125
2692.96396	2520.4125
2695.58188	2526.3125
2698.19818	2529.1125
2700.81285	2537.2125
2703.4259	2532.6125
2706.03733	2558.5125
2708.64714	2555.8125
2711.25533	2529.1125
2713.86191	2533.2125
2716.46687	2529.4125
2719.07021	2513.2125
2721.67194	2508.5125
2724.27206	2512.7125
2726.87057	2507.9125
2729.46747	2520.9125
2732.06276	2500.8125
2734.65644	2498.6125
2737.24852	2499.8125
2739.83899	2498.1125
2742.42786	2491.4125
2745.01513	2476.9125
2747.60079	2486.2125
2750.18486	2485.1125
2752.76733	2472.1125
2755.3482	2461.3125
2757.92747	2464.2125
2760.50515	2453.6125
2763.08123	2464.1125
2765.65573	2454.1125
2768.22863	2454.3125
2770.79994	2435.1125
2773.36967	2444.9125
2775.9378	2440.0125
2778.50435	2439.2125
2781.06932	2423.3125
2783.6327	2427.0125
2786.1945	2426.4125
2788.75471	2411.6125
2791.31335	2402.5125
2793.87041	2387.5125
2796.42589	2381.0125
2798.97979	2395.2125
2801.53212	2376.4125
2804.08288	2387.7125
2806.63206	2378.6125
2809.17967	2367.5125
2811.72571	2361.9125
2814.27018	2360.0125
2816.81308	2344.6125
2819.35442	2353.1125
2821.89419	2336.0125
2824.43239	2336.2125
2826.96904	2343.3125
2829.50412	2331.6125
2832.03763	2334.1125
2834.56959	2340.8125
2837.1	2323.0125
2839.62884	2338.8125
2842.15613	2317.5125
2844.68186	2339.0125
2847.20604	2325.3125
2849.72867	2324.2125
2852.24974	2325.9125
2854.76927	2324.9125
2857.28724	2332.2125
2859.80367	2317.8125
2862.31855	2317.8125
2864.83189	2311.6125
2867.34368	2305.6125
2869.85393	2304.9125
2872.36264	2297.4125
2874.8698	2310.7125
2877.37543	2296.0125
2879.87952	2304.4125
2882.38207	2301.2125
2884.88308	2300.1125
2887.38256	2292.5125
2889.88051	2302.7125
2892.37692	2282.9125
2894.8718	2291.5125
2897.36515	2295.3125
2899.85698	2287.7125
2902.34727	2295.3125
2904.83604	2294.9125
2907.32328	2306.3125
2909.809	2296.7125
2912.29319	2300.5125
2914.77587	2289.2125
2917.25702	2293.9125
2919.73665	2288.0125
2922.21476	2281.1125
2924.69136	2281.0125
2927.16644	2287.1125
2929.64	2293.5125
2932.11205	2285.2125
2934.58258	2279.8125
2937.05161	2287.4125
2939.51912	2269.1125
2941.98513	2274.5125
2944.44962	2280.2125
2946.91261	2259.7125
2949.37409	2277.1125
2951.83407	2269.6125
2954.29254	2267.3125
2956.74951	2267.1125
2959.20498	2258.6125
2961.65895	2258.8125
2964.11142	2259.1125
2966.56239	2242.7125
2969.01186	2253.6125
2971.45984	2251.3125
2973.90632	2230.2125
2976.35131	2231.7125
2978.7948	2231.5125
2981.23681	2235.8125
2983.67732	2216.2125
2986.11635	2225.1125
2988.55388	2220.8125
2990.98993	2210.3125
2993.4245	2212.2125
2995.85758	2201.1125
2998.28917	2203.2125
3000.71928	2198.6125
3003.14791	2217.1125
3005.57506	2209.8125
3008.00073	2201.3125
3010.42493	2193.1125
3012.84764	2180.3125
3015.26888	2198.4125
3017.68865	2176.9125
3020.10694	2186.8125
3022.52376	2171.0125
3024.9391	2176.1125
3027.35298	2173.7125
3029.76539	2168.9125
3032.17632	2168.5125
3034.5858	2167.1125
3036.9938	2157.9125
3039.40034	2177.2125
3041.80542	2158.8125
3044.20903	2158.6125
3046.61118	2165.1125
3049.01187	2165.2125
3051.4111	2160.1125
3053.80888	2161.9125
3056.20519	2162.8125
3058.60005	2149.1125
3060.99345	2145.2125
3063.3854	2152.9125
3065.7759	2148.0125
3068.16494	2150.3125
3070.55254	2154.3125
3072.93868	2141.7125
3075.32338	2144.1125
3077.70662	2156.8125
3080.08842	2141.7125
3082.46878	2144.4125
3084.84769	2151.6125
3087.22515	2143.0125
3089.60118	2157.3125
3091.97576	2145.9125
3094.3489	2166.2125
3096.72061	2163.6125
3099.09087	2166.9125
3101.4597	2172.0125
3103.82709	2166.1125
3106.19305	2167.0125
3108.55757	2164.1125
3110.92066	2162.5125
3113.28232	2170.1125
3115.64255	2158.8125
3118.00134	2171.8125
3120.35871	2162.1125
3122.71466	2170.8125
3125.06917	2177.4125
