Data from AgNPs_FTO_APTES_UA_0.1mM_CRN_100uM_NaF_0.1M_Addition_RamanShift__25__13-45-27-698.txt Node

Date: Mon Dec 20 13:45:27 GMT 2021
User: TCL
Spectrometer: QEP01345
Trigger mode: 4
Integration Time (sec): 7.000000E0
Scans to average: 10
Electric dark correction enabled: true
Nonlinearity correction enabled: false
Boxcar width: 0
XAxis mode: Raman Shifts
Number of Pixels in Spectrum: 1044
>>>>>Begin Spectral Data<<<<<
46.04893	0.75
50.45542	-0.15
54.85868	-1.55
59.25871	1.15
63.6555	29.65
68.04907	32.45
72.43941	35.85
76.82654	35.35
81.21044	39.75
85.59113	42.65
89.96862	39.35
94.34289	45.45
98.71396	42.55
103.08183	43.65
107.4465	43.85
111.80798	47.35
116.16626	49.55
120.52136	51.55
124.87327	51.05
129.222	51.85
133.56755	54.05
137.90993	58.45
142.24913	64.55
146.58517	65.65
150.91804	77.75
155.24774	94.35
159.57429	112.05
163.89768	137.25
168.21792	178.65
172.53501	231.95
176.84895	318.75
181.15975	435.75
185.46741	606.75
189.77193	839.25
194.07331	1130.65
198.37157	1458.95
202.6667	1814.65
206.9587	2179.55
211.24758	2520.45
215.53334	2881.55
219.81599	3245.75
224.09553	3620.15
228.37195	4030.55
232.64527	4463.25
236.91549	4893.75
241.18261	5333.05
245.44663	5716.95
249.70755	6083.55
253.96539	6365.75
258.22014	6612.15
262.4718	6820.55
266.72039	6886.05
270.96589	6903.85
275.20832	6871.35
279.44768	6779.75
283.68397	6680.35
287.91719	6587.25
292.14735	6537.75
296.37445	6518.85
300.59849	6555.15
304.81948	6600.05
309.03742	6627.25
313.25231	6588.15
317.46415	6444.85
321.67296	6237.15
325.87872	6078.05
330.08145	5973.55
334.28114	5960.75
338.47781	5998.35
342.67145	6063.25
346.86207	6173.85
351.04966	6318.65
355.23424	6492.55
359.4158	6637.35
363.59435	6737.75
367.76989	6800.35
371.94243	6860.55
376.11196	6893.75
380.27849	6946.25
384.44203	6997.05
388.60257	7033.15
392.76012	7057.95
396.91468	7130.95
401.06626	7235.45
405.21485	7281.95
409.36047	7252.35
413.50311	7125.85
417.64277	6983.05
421.77947	6912.05
425.9132	6877.05
430.04396	6891.75
434.17176	6926.25
438.2966	6964.85
442.41849	7039.15
446.53742	7145.65
450.6534	7248.15
454.76644	7310.45
458.87653	7349.65
462.98368	7327.75
467.08789	7304.35
471.18916	7324.05
475.2875	7318.75
479.38291	7329.45
483.4754	7415.75
487.56496	7524.75
491.6516	7629.75
495.73531	7710.05
499.81612	7636.15
503.89401	7529.75
507.96899	7439.75
512.04106	7406.45
516.11023	7440.95
520.1765	7532.85
524.23987	7604.45
528.30034	7640.95
532.35792	7649.35
536.41261	7563.35
540.46441	7413.55
544.51333	7283.75
548.55936	7186.85
552.60252	7180.95
556.64279	7208.75
560.6802	7248.55
564.71473	7300.55
568.7464	7426.75
572.7752	7501.45
576.80114	7488.35
580.82422	7424.85
584.84444	7482.95
588.86181	7565.35
592.87633	7678.45
596.888	7694.75
600.89682	7710.95
604.9028	7938.25
608.90594	8664.75
612.90624	9717.55
616.90371	9807.15
620.89834	8930.85
624.89015	8784.65
628.87913	9232.05
632.86528	9807.35
636.84862	10145.15
640.82913	9907.15
644.80683	9345.65
648.78172	8708.85
652.75379	8232.85
656.72306	7976.65
660.68952	7915.05
664.65319	7834.25
668.61405	7712.05
672.57211	7678.75
676.52738	7703.15
680.47986	7729.55
684.42955	7694.15
688.37646	7656.45
692.32058	7611.85
696.26192	7587.25
700.20048	7540.45
704.13626	7491.65
708.06928	7401.65
711.99952	7340.85
715.927	7299.25
719.85171	7322.15
723.77365	7386.45
727.69284	7399.05
731.60928	7339.35
735.52295	7216.75
739.43388	7167.95
743.34206	7129.25
747.24749	7160.35
751.15017	7181.65
755.05012	7224.95
758.94733	7319.55
762.8418	7558.85
766.73354	7972.25
770.62254	8392.75
774.50882	8586.75
778.39237	8414.95
782.27321	7950.75
786.15132	7544.85
790.02671	7327.65
793.89938	7276.85
797.76935	7306.35
801.6366	7453.65
805.50115	7718.05
809.36299	8035.95
813.22213	8209.95
817.07857	8088.25
820.93231	7760.15
824.78336	7408.55
828.63172	7147.85
832.47738	6986.55
836.32036	6896.45
840.16066	6871.95
843.99827	6830.85
847.8332	6804.15
851.66546	6776.85
855.49504	6780.55
859.32195	6791.85
863.1462	6821.85
866.96777	6888.05
870.78668	7031.45
874.60293	7184.95
878.41652	7421.55
882.22745	7646.75
886.03573	7792.95
889.84136	7806.65
893.64433	7597.55
897.44466	7327.55
901.24235	7044.85
905.0374	6793.15
908.8298	6653.05
912.61957	6560.45
916.40671	6525.05
920.19121	6495.75
923.97308	6507.75
927.75233	6509.45
931.52895	6497.65
935.30295	6475.35
939.07433	6425.95
942.84309	6366.25
946.60924	6377.65
950.37278	6333.75
954.13371	6343.25
957.89203	6332.25
961.64774	6272.75
965.40086	6243.65
969.15137	6227.95
972.89929	6205.45
976.64461	6175.15
980.38733	6156.55
984.12747	6161.05
987.86502	6174.15
991.59999	6219.95
995.33237	6281.15
999.06217	6382.55
1002.78939	6501.75
1006.51404	6682.55
1010.23611	6807.25
1013.95561	6952.05
1017.67255	6965.75
1021.38692	6925.15
1025.09872	6814.85
1028.80796	6663.45
1032.51465	6542.15
1036.21877	6448.85
1039.92035	6370.85
1043.61937	6359.65
1047.31584	6333.55
1051.00976	6344.45
1054.70114	6350.35
1058.38998	6411.45
1062.07627	6449.25
1065.76003	6543.45
1069.44126	6586.35
1073.11995	6648.35
1076.79611	6661.85
1080.46974	6633.25
1084.14085	6575.65
1087.80943	6530.75
1091.47549	6475.65
1095.13903	6427.25
1098.80005	6343.45
1102.45857	6276.15
1106.11456	6266.05
1109.76805	6303.45
1113.41903	6448.85
1117.06751	6633.75
1120.71348	6971.65
1124.35696	7404.85
1127.99793	7970.95
1131.63641	8475.05
1135.2724	8721.25
1138.90589	8744.25
1142.5369	8484.45
1146.16542	8038.35
1149.79145	7556.95
1153.415	7120.45
1157.03607	6797.05
1160.65467	6635.35
1164.27079	6593.05
1167.88443	6644.25
1171.49561	6835.05
1175.10432	7121.55
1178.71056	7542.75
1182.31434	7956.25
1185.91565	8165.85
1189.51451	8208.55
1193.11091	8226.85
1196.70485	8300.65
1200.29634	8410.55
1203.88538	8423.75
1207.47197	8313.85
1211.05612	8006.45
1214.63782	7662.15
1218.21708	7303.55
1221.79391	7042.25
1225.36829	6835.65
1228.94024	6700.95
1232.50976	6603.35
1236.07685	6525.95
1239.6415	6532.15
1243.20374	6554.45
1246.76355	6610.75
1250.32093	6671.95
1253.8759	6716.55
1257.42845	6798.15
1260.97859	6885.75
1264.52631	6952.95
1268.07163	6963.55
1271.61453	7000.25
1275.15503	7021.25
1278.69312	7020.95
1282.22882	7050.15
1285.76211	7108.55
1289.29301	7222.25
1292.82151	7376.75
1296.34761	7563.45
1299.87133	7804.75
1303.39266	8202.45
1306.9116	8683.45
1310.42815	9233.95
1313.94233	9557.85
1317.45412	9513.35
1320.96354	9262.35
1324.47058	9005.95
1327.97525	8768.45
1331.47754	8670.25
1334.97747	8688.85
1338.47502	8785.55
1341.97022	8931.05
1345.46305	9124.65
1348.95352	9363.15
1352.44163	9684.85
1355.92738	10105.45
1359.41078	10748.95
1362.89183	11410.15
1366.37053	11265.05
1369.84688	10313.65
1373.32088	9318.75
1376.79254	8697.85
1380.26186	8336.25
1383.72883	8120.15
1387.19347	7988.05
1390.65578	7810.35
1394.11575	7715.05
1397.57339	7643.15
1401.0287	7615.25
1404.48168	7611.15
1407.93234	7545.35
1411.38068	7426.75
1414.82669	7249.45
1418.27039	7013.15
1421.71177	6817.15
1425.15083	6589.85
1428.58758	6463.45
1432.02203	6404.35
1435.45416	6398.25
1438.88399	6408.25
1442.31151	6411.05
1445.73673	6432.15
1449.15965	6437.65
1452.58027	6454.15
1455.9986	6456.25
1459.41463	6453.65
1462.82837	6488.45
1466.23982	6565.15
1469.64898	6621.45
1473.05586	6682.55
1476.46045	6684.55
1479.86276	6706.05
1483.26279	6742.95
1486.66054	6791.75
1490.05602	6902.15
1493.44922	7051.55
1496.84016	7246.95
1500.22882	7555.15
1503.61521	8029.05
1506.99934	8586.45
1510.38121	9086.25
1513.76081	9218.35
1517.13816	8868.65
1520.51324	8221.25
1523.88607	7643.95
1527.25665	7273.05
1530.62498	7108.85
1533.99105	7071.25
1537.35488	7071.85
1540.71647	7096.65
1544.07581	7123.85
1547.4329	7178.95
1550.78776	7208.45
1554.14038	7204.25
1557.49077	7251.45
1560.83892	7262.35
1564.18484	7332.65
1567.52853	7417.05
1570.86999	7484.55
1574.20922	7570.45
1577.54624	7610.85
1580.88103	7543.55
1584.2136	7416.25
1587.54395	7329.35
1590.87208	7370.65
1594.19801	7532.75
1597.52172	7771.75
1600.84321	7923.75
1604.16251	7864.15
1607.47959	7681.75
1610.79447	7468.75
1614.10715	7235.95
1617.41763	7068.25
1620.7259	6917.55
1624.03199	6857.95
1627.33587	6834.55
1630.63757	6885.05
1633.93707	7003.15
1637.23439	7215.25
1640.52951	7570.75
1643.82246	8046.15
1647.11321	8603.05
1650.40179	8961.35
1653.68819	8834.55
1656.97241	8281.95
1660.25446	7644.15
1663.53433	7144.85
1666.81203	6799.95
1670.08756	6615.45
1673.36092	6453.75
1676.63211	6348.25
1679.90115	6268.15
1683.16801	6178.05
1686.43272	6073.85
1689.69527	5982.05
1692.95567	5894.95
1696.2139	5838.75
1699.46999	5702.75
1702.72392	5579.35
1705.97571	5429.65
1709.22535	5315.45
1712.47284	5225.75
1715.71819	5161.65
1718.96139	5086.85
1722.20246	5027.95
1725.44139	4986.05
1728.67818	4944.05
1731.91284	4885.05
1735.14537	4833.55
1738.37576	4817.85
1741.60403	4774.55
1744.83017	4784.65
1748.05418	4760.75
1751.27607	4747.95
1754.49584	4718.15
1757.71349	4731.15
1760.92903	4702.15
1764.14244	4683.95
1767.35375	4656.45
1770.56294	4616.75
1773.77002	4579.85
1776.97499	4534.75
1780.17785	4497.45
1783.37861	4469.35
1786.57727	4454.75
1789.77382	4421.05
1792.96828	4404.45
1796.16064	4374.15
1799.3509	4361.95
1802.53907	4338.45
1805.72514	4321.85
1808.90913	4323.45
1812.09102	4300.85
1815.27083	4285.65
1818.44856	4275.95
1821.6242	4254.95
1824.79776	4244.95
1827.96924	4235.65
1831.13864	4230.85
1834.30597	4221.65
1837.47122	4217.25
1840.6344	4200.45
1843.7955	4210.05
1846.95454	4199.85
1850.11151	4207.15
1853.26642	4193.85
1856.41926	4170.75
1859.57004	4182.25
1862.71876	4172.95
1865.86542	4170.65
1869.01003	4158.65
1872.15258	4141.25
1875.29308	4145.45
1878.43152	4141.85
1881.56792	4123.15
1884.70227	4123.75
1887.83457	4115.45
1890.96482	4092.85
1894.09304	4104.95
1897.21921	4091.55
1900.34335	4081.75
1903.46544	4078.45
1906.58551	4087.55
1909.70353	4067.65
1912.81953	4060.25
1915.93349	4043.15
1919.04543	4041.75
1922.15534	4013.45
1925.26322	4012.55
1928.36908	4021.65
1931.47292	4004.35
1934.57473	3982.15
1937.67453	3980.65
1940.77232	3968.05
1943.86808	3947.15
1946.96184	3955.75
1950.05358	3920.05
1953.14331	3922.65
1956.23103	3901.35
1959.31675	3888.35
1962.40046	3887.05
1965.48217	3864.85
1968.56188	3865.35
1971.63959	3841.25
1974.7153	3822.75
1977.78901	3826.75
1980.86073	3788.15
1983.93046	3792.85
1986.99819	3786.75
1990.06394	3770.95
1993.1277	3762.35
1996.18947	3729.85
1999.24925	3735.85
2002.30706	3726.45
2005.36288	3703.05
2008.41672	3689.05
2011.46859	3698.35
2014.51848	3680.25
2017.56639	3657.75
2020.61233	3666.85
2023.6563	3644.55
2026.6983	3644.65
2029.73833	3617.85
2032.7764	3618.55
2035.8125	3614.55
2038.84664	3604.75
2041.87881	3594.35
2044.90903	3569.35
2047.93729	3582.35
2050.96359	3576.35
2053.98794	3572.75
2057.01034	3568.25
2060.03078	3563.95
2063.04927	3549.55
2066.06582	3560.85
2069.08042	3545.35
2072.09307	3543.05
2075.10378	3542.65
2078.11255	3545.35
2081.11938	3530.75
2084.12426	3528.95
2087.12722	3534.05
2090.12824	3539.95
2093.12732	3529.35
2096.12447	3515.85
2099.11969	3517.05
2102.11299	3519.95
2105.10435	3523.45
2108.09379	3513.25
2111.08131	3521.25
2114.0669	3518.35
2117.05057	3524.05
2120.03233	3535.95
2123.01216	3530.85
2125.99008	3521.25
2128.96609	3534.85
2131.94018	3540.25
2134.91236	3532.35
2137.88263	3532.75
2140.851	3537.35
2143.81746	3546.85
2146.78201	3539.95
2149.74466	3532.45
2152.7054	3531.65
2155.66425	3536.45
2158.6212	3532.45
2161.57625	3549.95
2164.52941	3517.85
2167.48067	3522.25
2170.43004	3526.25
2173.37752	3518.85
2176.32311	3518.65
2179.26681	3499.85
2182.20863	3499.25
2185.14856	3510.85
2188.08661	3505.65
2191.02278	3505.95
2193.95707	3504.35
2196.88948	3483.15
2199.82001	3487.75
2202.74867	3470.85
2205.67545	3474.95
2208.60037	3465.35
2211.52341	3459.95
2214.44458	3464.45
2217.36388	3463.55
2220.28132	3449.55
2223.1969	3430.25
2226.11061	3417.65
2229.02246	3417.85
2231.93245	3403.65
2234.84058	3390.55
2237.74686	3384.35
2240.65128	3392.95
2243.55385	3379.95
2246.45456	3383.85
2249.35343	3379.55
2252.25044	3362.05
2255.14561	3374.45
2258.03893	3361.25
2260.93041	3356.15
2263.82004	3344.55
2266.70783	3338.05
2269.59378	3338.55
2272.4779	3327.45
2275.36017	3302.55
2278.24061	3287.45
2281.11922	3297.25
2283.996	3299.35
2286.87094	3285.95
2289.74405	3267.95
2292.61534	3260.85
2295.4848	3255.25
2298.35243	3263.05
2301.21824	3257.25
2304.08223	3253.45
2306.94439	3246.65
2309.80474	3234.75
2312.66327	3237.85
2315.51999	3242.45
2318.37489	3231.35
2321.22797	3216.85
2324.07925	3219.55
2326.92871	3224.25
2329.77637	3217.85
2332.62222	3204.15
2335.46626	3178.95
2338.3085	3193.35
2341.14893	3187.25
2343.98756	3191.55
2346.8244	3178.25
2349.65943	3181.05
2352.49267	3178.65
2355.32411	3175.05
2358.15376	3182.85
2360.98161	3162.55
2363.80768	3166.55
2366.63195	3165.05
2369.45444	3174.55
2372.27514	3161.95
2375.09405	3164.75
2377.91118	3156.35
2380.72652	3140.65
2383.54009	3130.65
2386.35187	3129.95
2389.16188	3117.65
2391.97011	3107.55
2394.77657	3104.55
2397.58125	3094.65
2400.38416	3105.85
2403.18529	3091.15
2405.98466	3102.45
2408.78226	3093.45
2411.57809	3075.65
2414.37216	3061.95
2417.16446	3057.55
2419.955	3055.35
2422.74378	3044.85
2425.5308	3040.15
2428.31606	3046.65
2431.09956	3039.05
2433.88131	3026.25
2436.6613	3034.85
2439.43954	3020.95
2442.21603	3022.15
2444.99077	3007.25
2447.76377	3007.75
2450.53501	3014.55
2453.30451	3006.55
2456.07226	2991.45
2458.83827	3000.45
2461.60254	2989.95
2464.36507	2990.25
2467.12586	2989.25
2469.88492	2985.15
2472.64224	2975.65
2475.39782	2977.15
2478.15167	2982.35
2480.90379	2976.35
2483.65417	2969.15
2486.40283	2967.55
2489.14976	2982.05
2491.89497	2963.55
2494.63845	2976.65
2497.3802	2969.05
2500.12024	2977.55
2502.85855	2961.15
2505.59514	2955.45
2508.33002	2948.45
2511.06318	2945.75
2513.79462	2943.35
2516.52435	2926.75
2519.25237	2928.05
2521.97867	2912.85
2524.70327	2899.95
2527.42616	2918.25
2530.14734	2910.15
2532.86681	2891.35
2535.58458	2903.75
2538.30065	2885.65
2541.01501	2887.25
2543.72768	2874.75
2546.43864	2872.35
2549.14791	2872.15
2551.85548	2859.05
2554.56136	2857.35
2557.26554	2849.15
2559.96803	2838.65
2562.66883	2832.35
2565.36794	2828.45
2568.06536	2833.45
2570.7611	2826.65
2573.45514	2831.55
2576.14751	2808.85
2578.83819	2803.65
2581.52719	2804.75
2584.21451	2799.45
2586.90015	2790.45
2589.58411	2781.95
2592.2664	2781.25
2594.94701	2770.75
2597.62594	2779.35
2600.30321	2767.05
2602.9788	2752.25
2605.65273	2752.15
2608.32498	2760.35
2610.99557	2748.65
2613.66449	2745.55
2616.33175	2731.25
2618.99734	2740.35
2621.66128	2739.85
2624.32355	2726.15
2626.98416	2721.65
2629.64311	2723.75
2632.30041	2737.95
2634.95605	2713.65
2637.61004	2711.65
2640.26238	2719.15
2642.91306	2704.95
2645.56209	2704.75
2648.20948	2700.95
2650.85521	2697.95
2653.4993	2696.35
2656.14175	2697.55
2658.78255	2710.25
2661.42171	2706.85
2664.05923	2682.25
2666.6951	2697.45
2669.32934	2697.55
2671.96194	2678.55
2674.59291	2688.75
2677.22224	2685.85
2679.84993	2696.45
2682.476	2696.05
2685.10043	2693.45
2687.72324	2688.05
2690.34441	2689.25
2692.96396	2683.05
2695.58188	2701.95
2698.19818	2685.85
2700.81285	2690.15
2703.4259	2708.35
2706.03733	2715.85
2708.64714	2721.75
2711.25533	2700.15
2713.86191	2698.65
2716.46687	2701.55
2719.07021	2693.45
2721.67194	2692.35
2724.27206	2700.25
2726.87057	2696.05
2729.46747	2694.55
2732.06276	2692.55
2734.65644	2691.15
2737.24852	2688.35
2739.83899	2682.65
2742.42786	2677.25
2745.01513	2673.85
2747.60079	2679.95
2750.18486	2664.95
2752.76733	2657.65
2755.3482	2656.15
2757.92747	2658.15
2760.50515	2654.85
2763.08123	2647.05
2765.65573	2639.25
2768.22863	2646.25
2770.79994	2642.95
2773.36967	2637.65
2775.9378	2633.85
2778.50435	2624.85
2781.06932	2626.55
2783.6327	2623.35
2786.1945	2618.95
2788.75471	2625.05
2791.31335	2625.25
2793.87041	2610.45
2796.42589	2595.75
2798.97979	2604.45
2801.53212	2588.45
2804.08288	2595.75
2806.63206	2579.85
2809.17967	2588.25
2811.72571	2574.85
2814.27018	2570.75
2816.81308	2570.45
2819.35442	2567.95
2821.89419	2555.85
2824.43239	2568.95
2826.96904	2574.65
2829.50412	2569.75
2832.03763	2571.35
2834.56959	2556.85
2837.1	2552.55
2839.62884	2564.45
2842.15613	2558.05
2844.68186	2557.05
2847.20604	2563.75
2849.72867	2563.35
2852.24974	2550.55
2854.76927	2548.65
2857.28724	2565.15
2859.80367	2547.55
2862.31855	2548.35
2864.83189	2552.95
2867.34368	2547.55
2869.85393	2548.05
2872.36264	2543.65
2874.8698	2549.45
2877.37543	2543.05
2879.87952	2550.55
2882.38207	2554.65
2884.88308	2553.85
2887.38256	2554.95
2889.88051	2562.45
2892.37692	2560.15
2894.8718	2567.15
2897.36515	2572.25
2899.85698	2563.45
2902.34727	2578.25
2904.83604	2575.35
2907.32328	2590.55
2909.809	2578.95
2912.29319	2573.55
2914.77587	2589.85
2917.25702	2592.35
2919.73665	2583.85
2922.21476	2592.45
2924.69136	2591.15
2927.16644	2579.65
2929.64	2587.15
2932.11205	2582.25
2934.58258	2590.05
2937.05161	2586.75
2939.51912	2580.95
2941.98513	2581.25
2944.44962	2574.25
2946.91261	2576.75
2949.37409	2590.55
2951.83407	2581.45
2954.29254	2583.65
2956.74951	2574.95
2959.20498	2567.55
2961.65895	2561.95
2964.11142	2553.85
2966.56239	2546.05
2969.01186	2539.15
2971.45984	2527.35
2973.90632	2530.95
2976.35131	2522.95
2978.7948	2522.75
2981.23681	2518.45
2983.67732	2505.35
2986.11635	2497.05
2988.55388	2498.35
2990.98993	2495.75
2993.4245	2495.35
2995.85758	2491.55
2998.28917	2490.55
3000.71928	2487.05
3003.14791	2484.75
3005.57506	2484.05
3008.00073	2489.45
3010.42493	2486.25
3012.84764	2485.15
3015.26888	2477.95
3017.68865	2481.15
3020.10694	2484.65
3022.52376	2478.95
3024.9391	2490.85
3027.35298	2486.35
3029.76539	2486.65
3032.17632	2484.95
3034.5858	2468.05
3036.9938	2475.25
3039.40034	2469.45
3041.80542	2470.95
3044.20903	2463.65
3046.61118	2471.15
3049.01187	2469.05
3051.4111	2484.65
3053.80888	2469.05
3056.20519	2465.25
3058.60005	2464.95
3060.99345	2468.45
3063.3854	2469.25
3065.7759	2481.05
3068.16494	2462.95
3070.55254	2460.95
3072.93868	2453.65
3075.32338	2475.55
3077.70662	2468.15
3080.08842	2462.65
3082.46878	2466.45
3084.84769	2472.05
3087.22515	2468.85
3089.60118	2472.15
3091.97576	2486.35
3094.3489	2484.15
3096.72061	2484.15
3099.09087	2500.65
3101.4597	2506.95
3103.82709	2501.35
3106.19305	2499.95
3108.55757	2513.25
3110.92066	2504.15
3113.28232	2505.55
3115.64255	2500.45
3118.00134	2502.45
3120.35871	2509.95
3122.71466	2519.25
3125.06917	2518.15
3127.42226	2516.15
3129.77393	2537.65
3132.12417	2541.95
3134.47299	2540.25
3136.82039	2554.65
3139.16636	2554.65
3141.51092	2564.25
3143.85406	2579.55
3146.19579	2578.45
3148.53609	2575.65
3150.87499	2594.05
3153.21246	2605.45
3155.54853	2618.25
3157.88318	2628.65
3160.21642	2630.65
3162.54826	2637.15
3164.87868	2646.05
3167.2077	2650.55
3169.5353	2644.85
3171.86151	2646.25
3174.18631	2665.25
3176.5097	2662.35
3178.83169	2672.85
3181.15228	2677.05
3183.47147	2679.45
3185.78926	2682.55
3188.10565	2676.95
3190.42065	2691.05
3192.73424	2694.05
3195.04645	2708.05
3197.35725	2704.85
3199.66667	2710.25
3201.97469	2728.55
3204.28132	2729.45
3206.58656	2728.05
3208.8904	2740.35
3211.19287	2749.25
3213.49394	2742.75
3215.79363	2765.75
3218.09193	2764.15
3220.38884	2767.05
3222.68438	2778.35
3224.97853	2782.45
3227.2713	2781.65
3229.56269	2768.55
3231.8527	2767.15
3234.14133	2765.65
3236.42858	2769.15
3238.71446	2759.45
3240.99896	2759.15
3243.28209	2772.65
3245.56384	2768.25
3247.84423	2747.65
3250.12324	2773.75
3252.40088	2763.45
3254.67715	2757.45
3256.95205	2765.55
3259.22558	2763.85
3261.49775	2764.25
3263.76855	2758.75
3266.03799	2752.45
3268.30606	2755.35
3270.57277	2741.75
3272.83812	2743.35
3275.10211	2746.35
3277.36474	2746.65
3279.62601	2752.75
3281.88593	2751.55
3284.14448	2745.45
3286.40168	2725.15
3288.65753	2741.05
3290.91202	2737.05
3293.16516	2720.85
3295.41695	2713.15
3297.66738	2706.95
3299.91647	2696.25
3302.16421	2693.55
3304.4106	2662.05
3306.65564	2653.25
3308.89933	2653.05
3311.14169	2637.75
3313.38269	2615.15
3315.62236	2601.35
3317.86068	2580.75
3320.09766	2552.95
3322.3333	2527.45
3324.5676	2535.65
3326.80056	2494.15
3329.03219	2491.25
3331.26248	0.15
3333.49143	-0.05
3335.71905	0.35
