Data from AgNPs_UA_10uM_CRN_500uM_SU_RamanShift__105__13-22-50-274.txt Node

Date: Thu Aug 04 13:22:50 BST 2022
User: TCL
Spectrometer: QEP01345
Trigger mode: 4
Integration Time (sec): 1.000000E0
Scans to average: 10
Electric dark correction enabled: true
Nonlinearity correction enabled: false
Boxcar width: 0
XAxis mode: Raman Shifts
Number of Pixels in Spectrum: 1044
>>>>>Begin Spectral Data<<<<<
46.04893	0.5875
50.45542	-0.6125
54.85868	0.9875
59.25871	-0.0125
63.6555	20.3875
68.04907	21.7875
72.43941	23.2875
76.82654	20.9875
81.21044	22.8875
85.59113	25.8875
89.96862	26.1875
94.34289	26.7875
98.71396	26.1875
103.08183	29.0875
107.4465	29.2875
111.80798	28.2875
116.16626	31.5875
120.52136	34.0875
124.87327	36.8875
129.222	37.3875
133.56755	37.0875
137.90993	43.2875
142.24913	45.8875
146.58517	53.4875
150.91804	61.1875
155.24774	78.2875
159.57429	96.6875
163.89768	126.6875
168.21792	169.3875
172.53501	233.7875
176.84895	326.8875
181.15975	462.9875
185.46741	657.5875
189.77193	915.6875
194.07331	1226.8875
198.37157	1582.8875
202.6667	1957.5875
206.9587	2336.2875
211.24758	2715.7875
215.53334	3097.0875
219.81599	3490.5875
224.09553	3946.4875
228.37195	4427.8875
232.64527	5001.5875
236.91549	5515.8875
241.18261	5996.7875
245.44663	6393.6875
249.70755	6731.7875
253.96539	6993.3875
258.22014	7247.9875
262.4718	7445.8875
266.72039	7603.9875
270.96589	7637.0875
275.20832	7608.8875
279.44768	7510.3875
283.68397	7400.6875
287.91719	7314.1875
292.14735	7338.0875
296.37445	7432.5875
300.59849	7643.6875
304.81948	7923.1875
309.03742	8149.2875
313.25231	8267.4875
317.46415	8197.4875
321.67296	7907.1875
325.87872	7610.7875
330.08145	7465.3875
334.28114	7449.2875
338.47781	7547.1875
342.67145	7673.8875
346.86207	7877.8875
351.04966	8175.8875
355.23424	8501.7875
359.4158	8704.6875
363.59435	8832.2875
367.76989	8881.2875
371.94243	8870.7875
376.11196	8832.0875
380.27849	8841.7875
384.44203	8860.1875
388.60257	8920.4875
392.76012	8996.8875
396.91468	9088.0875
401.06626	9232.9875
405.21485	9293.8875
409.36047	9187.0875
413.50311	8929.0875
417.64277	8682.0875
421.77947	8497.6875
425.9132	8443.1875
430.04396	8414.9875
434.17176	8478.4875
438.2966	8596.9875
442.41849	8714.5875
446.53742	8952.3875
450.6534	9118.4875
454.76644	9240.6875
458.87653	9302.8875
462.98368	9297.4875
467.08789	9216.3875
471.18916	9058.9875
475.2875	8901.2875
479.38291	8727.6875
483.4754	8620.6875
487.56496	8567.3875
491.6516	8525.6875
495.73531	8530.2875
499.81612	8573.3875
503.89401	8636.0875
507.96899	8687.9875
512.04106	8737.9875
516.11023	8766.0875
520.1765	8808.6875
524.23987	8840.5875
528.30034	8851.7875
532.35792	8816.3875
536.41261	8737.0875
540.46441	8645.0875
544.51333	8623.6875
548.55936	8693.6875
552.60252	8781.3875
556.64279	8948.2875
560.6802	9078.7875
564.71473	9148.4875
568.7464	9277.1875
572.7752	9248.6875
576.80114	9019.4875
580.82422	8824.1875
584.84444	8819.8875
588.86181	8838.6875
592.87633	8916.2875
596.888	9090.5875
600.89682	9463.2875
604.9028	10534.5875
608.90594	12662.8875
612.90624	14690.3875
616.90371	13516.5875
620.89834	10653.5875
624.89015	9491.4875
628.87913	9406.5875
632.86528	9560.3875
636.84862	9614.3875
640.82913	9352.6875
644.80683	9022.0875
648.78172	8829.9875
652.75379	8835.3875
656.72306	9114.7875
660.68952	9397.7875
664.65319	9342.6875
668.61405	9227.9875
672.57211	9278.9875
676.52738	9258.7875
680.47986	9079.0875
684.42955	8900.2875
688.37646	8867.7875
692.32058	8948.3875
696.26192	9133.0875
700.20048	9294.1875
704.13626	9304.0875
708.06928	9186.1875
711.99952	9055.7875
715.927	9096.7875
719.85171	9151.1875
723.77365	9138.8875
727.69284	9089.4875
731.60928	9025.2875
735.52295	9014.2875
739.43388	9051.3875
743.34206	9085.2875
747.24749	9100.8875
751.15017	9107.9875
755.05012	9222.1875
758.94733	9553.3875
762.8418	10293.3875
766.73354	11431.2875
770.62254	12333.5875
774.50882	12533.3875
778.39237	12112.5875
782.27321	11296.6875
786.15132	10399.9875
790.02671	9742.7875
793.89938	9417.3875
797.76935	9244.4875
801.6366	9150.3875
805.50115	9108.3875
809.36299	9062.6875
813.22213	9031.7875
817.07857	9038.9875
820.93231	9037.1875
824.78336	9021.9875
828.63172	9059.5875
832.47738	9065.4875
836.32036	9071.4875
840.16066	9075.0875
843.99827	9060.9875
847.8332	9052.7875
851.66546	9077.1875
855.49504	9092.2875
859.32195	9073.3875
863.1462	9087.7875
866.96777	9048.3875
870.78668	9050.8875
874.60293	9101.5875
878.41652	9137.8875
882.22745	9220.4875
886.03573	9281.7875
889.84136	9241.5875
893.64433	9242.0875
897.44466	9184.9875
901.24235	9171.4875
905.0374	9155.2875
908.8298	9096.8875
912.61957	9108.2875
916.40671	9131.1875
920.19121	9165.0875
923.97308	9229.9875
927.75233	9314.3875
931.52895	9387.3875
935.30295	9301.2875
939.07433	9180.5875
942.84309	9061.5875
946.60924	9058.9875
950.37278	9038.0875
954.13371	9029.2875
957.89203	8998.6875
961.64774	8996.3875
965.40086	8985.6875
969.15137	8948.4875
972.89929	8970.6875
976.64461	8994.7875
980.38733	8999.8875
984.12747	9032.1875
987.86502	9064.7875
991.59999	9131.4875
995.33237	9215.3875
999.06217	9353.9875
1002.78939	9529.5875
1006.51404	9741.8875
1010.23611	9837.4875
1013.95561	9937.2875
1017.67255	9971.3875
1021.38692	9974.6875
1025.09872	9938.0875
1028.80796	9938.6875
1032.51465	9997.6875
1036.21877	10069.7875
1039.92035	10081.9875
1043.61937	10056.3875
1047.31584	9969.8875
1051.00976	9926.8875
1054.70114	9895.5875
1058.38998	9902.6875
1062.07627	9961.2875
1065.76003	10008.2875
1069.44126	10108.9875
1073.11995	10276.7875
1076.79611	10489.6875
1080.46974	10608.8875
1084.14085	10684.0875
1087.80943	10778.4875
1091.47549	10818.6875
1095.13903	10773.4875
1098.80005	10757.7875
1102.45857	10787.6875
1106.11456	10735.0875
1109.76805	10629.3875
1113.41903	10626.0875
1117.06751	10741.2875
1120.71348	10935.9875
1124.35696	11144.0875
1127.99793	11261.4875
1131.63641	11117.4875
1135.2724	10804.0875
1138.90589	10588.0875
1142.5369	10399.0875
1146.16542	10280.2875
1149.79145	10215.6875
1153.415	10104.7875
1157.03607	10117.6875
1160.65467	10197.4875
1164.27079	10382.8875
1167.88443	10735.8875
1171.49561	11221.4875
1175.10432	11953.9875
1178.71056	12898.5875
1182.31434	13750.3875
1185.91565	14130.7875
1189.51451	14098.2875
1193.11091	13832.7875
1196.70485	13482.9875
1200.29634	13092.8875
1203.88538	12679.8875
1207.47197	12194.8875
1211.05612	11721.9875
1214.63782	11366.9875
1218.21708	11133.1875
1221.79391	11022.8875
1225.36829	10994.9875
1228.94024	10935.2875
1232.50976	10936.5875
1236.07685	10897.4875
1239.6415	10912.2875
1243.20374	10958.8875
1246.76355	11075.7875
1250.32093	11181.2875
1253.8759	11381.8875
1257.42845	11653.0875
1260.97859	11997.4875
1264.52631	12297.4875
1268.07163	12528.0875
1271.61453	12698.7875
1275.15503	12765.5875
1278.69312	12843.9875
1282.22882	12916.8875
1285.76211	13047.1875
1289.29301	13244.7875
1292.82151	13478.3875
1296.34761	13759.6875
1299.87133	14234.3875
1303.39266	15015.8875
1306.9116	16171.6875
1310.42815	17340.8875
1313.94233	17847.3875
1317.45412	17377.5875
1320.96354	16452.1875
1324.47058	15486.6875
1327.97525	14696.5875
1331.47754	14222.9875
1334.97747	14094.0875
1338.47502	14253.4875
1341.97022	14671.4875
1345.46305	15444.5875
1348.95352	16470.1875
1352.44163	17581.0875
1355.92738	18732.4875
1359.41078	20095.3875
1362.89183	21007.5875
1366.37053	20007.7875
1369.84688	17426.2875
1373.32088	15057.3875
1376.79254	13741.6875
1380.26186	13101.8875
1383.72883	12717.7875
1387.19347	12398.7875
1390.65578	12048.6875
1394.11575	11711.4875
1397.57339	11455.8875
1401.0287	11329.3875
1404.48168	11359.2875
1407.93234	11435.6875
1411.38068	11599.5875
1414.82669	11813.5875
1418.27039	11860.0875
1421.71177	11822.3875
1425.15083	11733.3875
1428.58758	11714.2875
1432.02203	11803.6875
1435.45416	11875.9875
1438.88399	11911.0875
1442.31151	11856.8875
1445.73673	11820.4875
1449.15965	11818.4875
1452.58027	11732.8875
1455.9986	11680.6875
1459.41463	11656.0875
1462.82837	11739.2875
1466.23982	11913.6875
1469.64898	12115.3875
1473.05586	12277.1875
1476.46045	12429.2875
1479.86276	12558.7875
1483.26279	12715.1875
1486.66054	12919.5875
1490.05602	13259.3875
1493.44922	13766.8875
1496.84016	14594.2875
1500.22882	15738.6875
1503.61521	17179.9875
1506.99934	18504.0875
1510.38121	19307.8875
1513.76081	19042.3875
1517.13816	17683.6875
1520.51324	15941.3875
1523.88607	14567.4875
1527.25665	13699.3875
1530.62498	13288.2875
1533.99105	13017.9875
1537.35488	12929.0875
1540.71647	12842.8875
1544.07581	12742.0875
1547.4329	12631.8875
1550.78776	12528.3875
1554.14038	12410.9875
1557.49077	12389.4875
1560.83892	12501.9875
1564.18484	12772.1875
1567.52853	13056.4875
1570.86999	13221.6875
1574.20922	13228.9875
1577.54624	13051.9875
1580.88103	12580.9875
1584.2136	12072.9875
1587.54395	11817.6875
1590.87208	11930.6875
1594.19801	12415.3875
1597.52172	12966.5875
1600.84321	13216.7875
1604.16251	13117.2875
1607.47959	12845.0875
1610.79447	12414.5875
1614.10715	11850.5875
1617.41763	11210.7875
1620.7259	10774.8875
1624.03199	10570.8875
1627.33587	10508.0875
1630.63757	10666.8875
1633.93707	11048.9875
1637.23439	11766.9875
1640.52951	12820.2875
1643.82246	14122.9875
1647.11321	15363.8875
1650.40179	15772.9875
1653.68819	14883.3875
1656.97241	13215.4875
1660.25446	11609.7875
1663.53433	10542.1875
1666.81203	9870.3875
1670.08756	9526.9875
1673.36092	9290.5875
1676.63211	9154.3875
1679.90115	9030.8875
1683.16801	8924.1875
1686.43272	8853.8875
1689.69527	8790.7875
1692.95567	8755.6875
1696.2139	8713.9875
1699.46999	8696.2875
1702.72392	8666.9875
1705.97571	8698.1875
1709.22535	8676.2875
1712.47284	8659.7875
1715.71819	8680.5875
1718.96139	8662.3875
1722.20246	8640.4875
1725.44139	8625.0875
1728.67818	8557.1875
1731.91284	8521.3875
1735.14537	8478.4875
1738.37576	8445.1875
1741.60403	8412.0875
1744.83017	8394.1875
1748.05418	8404.4875
1751.27607	8373.3875
1754.49584	8349.0875
1757.71349	8334.9875
1760.92903	8337.6875
1764.14244	8294.7875
1767.35375	8307.1875
1770.56294	8292.9875
1773.77002	8289.5875
1776.97499	8260.3875
1780.17785	8224.3875
1783.37861	8220.6875
1786.57727	8192.1875
1789.77382	8203.4875
1792.96828	8169.8875
1796.16064	8157.6875
1799.3509	8163.7875
1802.53907	8137.9875
1805.72514	8130.6875
1808.90913	8111.6875
1812.09102	8082.4875
1815.27083	8056.1875
1818.44856	8029.1875
1821.6242	8011.7875
1824.79776	8003.3875
1827.96924	7996.4875
1831.13864	7991.8875
1834.30597	7963.2875
1837.47122	7963.9875
1840.6344	7940.7875
1843.7955	7948.8875
1846.95454	7945.7875
1850.11151	7933.0875
1853.26642	7939.2875
1856.41926	7917.5875
1859.57004	7928.1875
1862.71876	7943.7875
1865.86542	7904.3875
1869.01003	7915.1875
1872.15258	7869.6875
1875.29308	7869.5875
1878.43152	7875.3875
1881.56792	7861.2875
1884.70227	7835.5875
1887.83457	7824.3875
1890.96482	7811.5875
1894.09304	7791.7875
1897.21921	7803.2875
1900.34335	7799.1875
1903.46544	7790.3875
1906.58551	7767.1875
1909.70353	7752.3875
1912.81953	7765.0875
1915.93349	7749.0875
1919.04543	7723.8875
1922.15534	7722.8875
1925.26322	7718.6875
1928.36908	7682.0875
1931.47292	7670.6875
1934.57473	7646.3875
1937.67453	7611.5875
1940.77232	7610.8875
1943.86808	7601.3875
1946.96184	7565.2875
1950.05358	7530.3875
1953.14331	7533.9875
1956.23103	7504.4875
1959.31675	7496.9875
1962.40046	7467.6875
1965.48217	7431.5875
1968.56188	7416.7875
1971.63959	7404.3875
1974.7153	7386.2875
1977.78901	7391.1875
1980.86073	7368.3875
1983.93046	7312.3875
1986.99819	7293.7875
1990.06394	7267.0875
1993.1277	7260.3875
1996.18947	7251.7875
1999.24925	7216.6875
2002.30706	7173.4875
2005.36288	7140.9875
2008.41672	7119.6875
2011.46859	7109.0875
2014.51848	7085.5875
2017.56639	7043.1875
2020.61233	7040.0875
2023.6563	7035.4875
2026.6983	7022.1875
2029.73833	6980.1875
2032.7764	6950.3875
2035.8125	6950.3875
2038.84664	6950.1875
2041.87881	6916.2875
2044.90903	6928.3875
2047.93729	6890.8875
2050.96359	6882.9875
2053.98794	6870.4875
2057.01034	6870.4875
2060.03078	6858.0875
2063.04927	6855.4875
2066.06582	6854.3875
2069.08042	6850.2875
2072.09307	6817.1875
2075.10378	6831.3875
2078.11255	6800.1875
2081.11938	6794.0875
2084.12426	6794.9875
2087.12722	6794.0875
2090.12824	6813.5875
2093.12732	6796.4875
2096.12447	6801.8875
2099.11969	6808.8875
2102.11299	6800.4875
2105.10435	6800.1875
2108.09379	6812.0875
2111.08131	6815.3875
2114.0669	6797.5875
2117.05057	6823.7875
2120.03233	6833.1875
2123.01216	6819.3875
2125.99008	6827.4875
2128.96609	6831.9875
2131.94018	6822.6875
2134.91236	6843.0875
2137.88263	6832.0875
2140.851	6815.6875
2143.81746	6834.2875
2146.78201	6826.2875
2149.74466	6839.9875
2152.7054	6830.2875
2155.66425	6833.1875
2158.6212	6820.1875
2161.57625	6812.2875
2164.52941	6799.9875
2167.48067	6810.8875
2170.43004	6784.9875
2173.37752	6796.1875
2176.32311	6776.8875
2179.26681	6794.1875
2182.20863	6808.1875
2185.14856	6821.1875
2188.08661	6799.9875
2191.02278	6794.8875
2193.95707	6788.6875
2196.88948	6792.2875
2199.82001	6788.3875
2202.74867	6778.7875
2205.67545	6769.0875
2208.60037	6777.9875
2211.52341	6759.2875
2214.44458	6730.8875
2217.36388	6729.5875
2220.28132	6703.8875
2223.1969	6691.5875
2226.11061	6677.0875
2229.02246	6652.2875
2231.93245	6653.1875
2234.84058	6620.3875
2237.74686	6607.7875
2240.65128	6588.4875
2243.55385	6586.1875
2246.45456	6608.8875
2249.35343	6595.5875
2252.25044	6567.9875
2255.14561	6576.7875
2258.03893	6567.6875
2260.93041	6554.0875
2263.82004	6546.8875
2266.70783	6523.0875
2269.59378	6504.4875
2272.4779	6494.7875
2275.36017	6466.6875
2278.24061	6462.3875
2281.11922	6441.6875
2283.996	6432.9875
2286.87094	6423.3875
2289.74405	6429.7875
2292.61534	6411.8875
2295.4848	6384.2875
2298.35243	6402.6875
2301.21824	6366.8875
2304.08223	6365.4875
2306.94439	6378.6875
2309.80474	6377.0875
2312.66327	6372.6875
2315.51999	6374.6875
2318.37489	6363.4875
2321.22797	6330.8875
2324.07925	6324.4875
2326.92871	6319.1875
2329.77637	6313.2875
2332.62222	6298.2875
2335.46626	6307.6875
2338.3085	6283.3875
2341.14893	6289.5875
2343.98756	6307.0875
2346.8244	6285.6875
2349.65943	6279.6875
2352.49267	6271.7875
2355.32411	6284.6875
2358.15376	6274.2875
2360.98161	6255.5875
2363.80768	6271.2875
2366.63195	6251.8875
2369.45444	6248.2875
2372.27514	6241.1875
2375.09405	6238.8875
2377.91118	6220.2875
2380.72652	6194.0875
2383.54009	6189.4875
2386.35187	6181.7875
2389.16188	6153.5875
2391.97011	6140.3875
2394.77657	6107.0875
2397.58125	6092.6875
2400.38416	6096.7875
2403.18529	6078.3875
2405.98466	6089.7875
2408.78226	6060.1875
2411.57809	6074.8875
2414.37216	6045.0875
2417.16446	6049.2875
2419.955	6038.5875
2422.74378	6039.4875
2425.5308	6033.4875
2428.31606	6026.8875
2431.09956	6029.2875
2433.88131	6005.6875
2436.6613	6003.3875
2439.43954	6013.5875
2442.21603	5996.4875
2444.99077	5990.8875
2447.76377	6000.8875
2450.53501	6002.4875
2453.30451	5983.1875
2456.07226	5992.9875
2458.83827	5957.6875
2461.60254	5958.7875
2464.36507	5954.2875
2467.12586	5926.4875
2469.88492	5930.8875
2472.64224	5937.1875
2475.39782	5936.4875
2478.15167	5937.9875
2480.90379	5924.6875
2483.65417	5903.0875
2486.40283	5918.7875
2489.14976	5930.8875
2491.89497	5939.4875
2494.63845	5932.4875
2497.3802	5917.9875
2500.12024	5891.0875
2502.85855	5869.3875
2505.59514	5876.5875
2508.33002	5885.0875
2511.06318	5870.0875
2513.79462	5872.7875
2516.52435	5846.8875
2519.25237	5827.0875
2521.97867	5806.6875
2524.70327	5798.8875
2527.42616	5802.7875
2530.14734	5792.9875
2532.86681	5772.2875
2535.58458	5786.3875
2538.30065	5786.5875
2541.01501	5795.2875
2543.72768	5772.1875
2546.43864	5774.7875
2549.14791	5743.0875
2551.85548	5766.1875
2554.56136	5752.0875
2557.26554	5732.1875
2559.96803	5706.5875
2562.66883	5706.9875
2565.36794	5689.7875
2568.06536	5694.9875
2570.7611	5679.7875
2573.45514	5660.8875
2576.14751	5655.2875
2578.83819	5655.1875
2581.52719	5647.7875
2584.21451	5631.2875
2586.90015	5630.5875
2589.58411	5623.4875
2592.2664	5617.6875
2594.94701	5594.7875
2597.62594	5591.6875
2600.30321	5575.1875
2602.9788	5572.9875
2605.65273	5569.6875
2608.32498	5582.3875
2610.99557	5561.3875
2613.66449	5556.8875
2616.33175	5541.7875
2618.99734	5560.7875
2621.66128	5546.9875
2624.32355	5521.0875
2626.98416	5516.6875
2629.64311	5523.3875
2632.30041	5505.2875
2634.95605	5495.8875
2637.61004	5489.5875
2640.26238	5481.6875
2642.91306	5472.1875
2645.56209	5471.5875
2648.20948	5466.0875
2650.85521	5462.3875
2653.4993	5446.1875
2656.14175	5450.0875
2658.78255	5445.5875
2661.42171	5448.6875
2664.05923	5468.6875
2666.6951	5457.0875
2669.32934	5477.1875
2671.96194	5463.7875
2674.59291	5464.2875
2677.22224	5477.1875
2679.84993	5456.2875
2682.476	5455.5875
2685.10043	5450.4875
2687.72324	5439.0875
2690.34441	5454.3875
2692.96396	5442.1875
2695.58188	5456.5875
2698.19818	5437.8875
2700.81285	5426.9875
2703.4259	5427.7875
2706.03733	5412.7875
2708.64714	5407.3875
2711.25533	5405.0875
2713.86191	5397.0875
2716.46687	5417.5875
2719.07021	5425.3875
2721.67194	5415.9875
2724.27206	5424.1875
2726.87057	5399.9875
2729.46747	5416.3875
2732.06276	5411.7875
2734.65644	5410.8875
2737.24852	5403.5875
2739.83899	5392.4875
2742.42786	5381.8875
2745.01513	5365.2875
2747.60079	5350.1875
2750.18486	5352.5875
2752.76733	5359.3875
2755.3482	5346.1875
2757.92747	5324.1875
2760.50515	5325.2875
2763.08123	5303.5875
2765.65573	5301.4875
2768.22863	5309.2875
2770.79994	5296.8875
2773.36967	5287.0875
2775.9378	5273.6875
2778.50435	5276.5875
2781.06932	5258.6875
2783.6327	5254.1875
2786.1945	5279.1875
2788.75471	5262.1875
2791.31335	5251.6875
2793.87041	5223.7875
2796.42589	5217.9875
2798.97979	5193.4875
2801.53212	5200.4875
2804.08288	5180.8875
2806.63206	5176.7875
2809.17967	5178.6875
2811.72571	5166.1875
2814.27018	5153.1875
2816.81308	5139.1875
2819.35442	5123.7875
2821.89419	5140.5875
2824.43239	5123.6875
2826.96904	5089.8875
2829.50412	5112.6875
2832.03763	5078.3875
2834.56959	5064.6875
2837.1	5057.5875
2839.62884	5047.7875
2842.15613	5048.9875
2844.68186	5057.6875
2847.20604	5050.9875
2849.72867	5035.6875
2852.24974	5025.2875
2854.76927	5013.8875
2857.28724	5005.2875
2859.80367	4995.3875
2862.31855	4992.0875
2864.83189	4987.1875
2867.34368	5002.6875
2869.85393	4985.0875
2872.36264	4986.3875
2874.8698	4999.3875
2877.37543	4972.6875
2879.87952	4950.6875
2882.38207	4938.7875
2884.88308	4952.7875
2887.38256	4947.5875
2889.88051	4951.1875
2892.37692	4930.7875
2894.8718	4923.1875
2897.36515	4939.4875
2899.85698	4942.9875
2902.34727	4933.8875
2904.83604	4951.5875
2907.32328	4941.0875
2909.809	4947.3875
2912.29319	4966.0875
2914.77587	4939.8875
2917.25702	4949.3875
2919.73665	4953.4875
2922.21476	4959.3875
2924.69136	4942.3875
2927.16644	4952.5875
2929.64	4909.0875
2932.11205	4905.9875
2934.58258	4911.0875
2937.05161	4889.6875
2939.51912	4890.9875
2941.98513	4899.8875
2944.44962	4884.5875
2946.91261	4874.5875
2949.37409	4880.3875
2951.83407	4868.0875
2954.29254	4867.2875
2956.74951	4869.2875
2959.20498	4858.1875
2961.65895	4863.5875
2964.11142	4866.6875
2966.56239	4849.1875
2969.01186	4847.9875
2971.45984	4839.9875
2973.90632	4830.4875
2976.35131	4806.9875
2978.7948	4821.0875
2981.23681	4814.0875
2983.67732	4791.0875
2986.11635	4775.5875
2988.55388	4784.4875
2990.98993	4766.5875
2993.4245	4756.0875
2995.85758	4738.4875
2998.28917	4728.7875
3000.71928	4703.2875
3003.14791	4699.8875
3005.57506	4697.1875
3008.00073	4693.5875
3010.42493	4665.9875
3012.84764	4674.5875
3015.26888	4661.6875
3017.68865	4660.7875
3020.10694	4651.3875
3022.52376	4624.4875
3024.9391	4616.3875
3027.35298	4601.2875
3029.76539	4577.5875
3032.17632	4580.8875
3034.5858	4577.5875
3036.9938	4580.4875
3039.40034	4552.9875
3041.80542	4534.9875
3044.20903	4534.3875
3046.61118	4526.2875
3049.01187	4491.6875
3051.4111	4503.1875
3053.80888	4479.7875
3056.20519	4469.3875
3058.60005	4467.9875
3060.99345	4465.7875
3063.3854	4462.4875
3065.7759	4431.5875
3068.16494	4424.1875
3070.55254	4427.0875
3072.93868	4404.9875
3075.32338	4382.4875
3077.70662	4373.3875
3080.08842	4371.9875
3082.46878	4363.0875
3084.84769	4348.4875
3087.22515	4350.4875
3089.60118	4353.9875
3091.97576	4340.8875
3094.3489	4338.0875
3096.72061	4334.3875
3099.09087	4312.3875
3101.4597	4316.9875
3103.82709	4321.6875
3106.19305	4331.3875
3108.55757	4330.7875
