Data from AgNPs_UA_10uM_CRN_500uM_SU_RamanShift__116__13-24-40-276.txt Node

Date: Thu Aug 04 13:24:40 BST 2022
User: TCL
Spectrometer: QEP01345
Trigger mode: 4
Integration Time (sec): 1.000000E0
Scans to average: 10
Electric dark correction enabled: true
Nonlinearity correction enabled: false
Boxcar width: 0
XAxis mode: Raman Shifts
Number of Pixels in Spectrum: 1044
>>>>>Begin Spectral Data<<<<<
46.04893	0.025
50.45542	-0.075
54.85868	-0.175
59.25871	-0.475
63.6555	22.525
68.04907	22.325
72.43941	21.825
76.82654	23.725
81.21044	23.625
85.59113	25.725
89.96862	26.025
94.34289	26.625
98.71396	27.225
103.08183	30.225
107.4465	31.525
111.80798	31.425
116.16626	31.525
120.52136	34.125
124.87327	34.325
129.222	37.425
133.56755	39.625
137.90993	41.125
142.24913	49.125
146.58517	55.625
150.91804	65.825
155.24774	81.225
159.57429	98.625
163.89768	131.725
168.21792	177.725
172.53501	242.425
176.84895	342.125
181.15975	494.725
185.46741	699.525
189.77193	967.125
194.07331	1297.725
198.37157	1675.925
202.6667	2075.225
206.9587	2477.925
211.24758	2867.625
215.53334	3272.325
219.81599	3712.525
224.09553	4208.425
228.37195	4734.225
232.64527	5312.525
236.91549	5862.325
241.18261	6367.925
245.44663	6785.825
249.70755	7110.125
253.96539	7375.225
258.22014	7629.125
262.4718	7851.925
266.72039	8025.625
270.96589	8044.825
275.20832	8002.925
279.44768	7916.325
283.68397	7765.925
287.91719	7701.225
292.14735	7714.925
296.37445	7840.825
300.59849	8062.825
304.81948	8343.725
309.03742	8650.625
313.25231	8795.125
317.46415	8687.325
321.67296	8351.725
325.87872	8031.525
330.08145	7854.525
334.28114	7855.325
338.47781	7946.725
342.67145	8089.125
346.86207	8323.925
351.04966	8663.325
355.23424	8987.325
359.4158	9243.025
363.59435	9371.425
367.76989	9387.825
371.94243	9381.825
376.11196	9337.925
380.27849	9315.025
384.44203	9338.925
388.60257	9381.425
392.76012	9453.225
396.91468	9563.125
401.06626	9732.425
405.21485	9791.225
409.36047	9666.725
413.50311	9369.925
417.64277	9058.425
421.77947	8889.725
425.9132	8801.325
430.04396	8799.725
434.17176	8861.025
438.2966	8951.125
442.41849	9134.825
446.53742	9333.525
450.6534	9535.725
454.76644	9671.525
458.87653	9707.925
462.98368	9689.625
467.08789	9600.625
471.18916	9457.125
475.2875	9248.625
479.38291	9098.325
483.4754	8961.925
487.56496	8897.225
491.6516	8847.325
495.73531	8848.125
499.81612	8884.725
503.89401	8958.725
507.96899	9046.725
512.04106	9068.025
516.11023	9137.125
520.1765	9185.725
524.23987	9206.025
528.30034	9197.825
532.35792	9179.525
536.41261	9094.425
540.46441	8969.425
544.51333	8947.725
548.55936	9008.125
552.60252	9140.925
556.64279	9303.525
560.6802	9415.725
564.71473	9529.725
568.7464	9656.325
572.7752	9640.825
576.80114	9386.325
580.82422	9199.325
584.84444	9129.725
588.86181	9151.625
592.87633	9246.825
596.888	9428.725
600.89682	9869.125
604.9028	11018.725
608.90594	13386.225
612.90624	15666.725
616.90371	14378.025
620.89834	11153.325
624.89015	9872.625
628.87913	9752.725
632.86528	9914.325
636.84862	9975.825
640.82913	9729.125
644.80683	9308.625
648.78172	9110.925
652.75379	9135.925
656.72306	9440.125
660.68952	9765.925
664.65319	9677.925
668.61405	9510.425
672.57211	9595.425
676.52738	9569.625
680.47986	9374.525
684.42955	9163.025
688.37646	9124.825
692.32058	9226.525
696.26192	9392.925
700.20048	9576.925
704.13626	9606.425
708.06928	9478.225
711.99952	9328.425
715.927	9379.425
719.85171	9433.925
723.77365	9433.625
727.69284	9361.525
731.60928	9271.525
735.52295	9265.725
739.43388	9319.625
743.34206	9361.225
747.24749	9375.625
751.15017	9368.425
755.05012	9478.725
758.94733	9836.425
762.8418	10697.525
766.73354	11988.725
770.62254	12967.725
774.50882	13202.425
778.39237	12714.525
782.27321	11795.425
786.15132	10779.025
790.02671	10057.725
793.89938	9697.525
797.76935	9498.925
801.6366	9426.825
805.50115	9365.625
809.36299	9314.925
813.22213	9302.425
817.07857	9281.625
820.93231	9286.125
824.78336	9279.625
828.63172	9310.725
832.47738	9334.425
836.32036	9307.725
840.16066	9308.225
843.99827	9287.725
847.8332	9289.825
851.66546	9313.325
855.49504	9320.325
859.32195	9337.325
863.1462	9306.825
866.96777	9292.625
870.78668	9308.625
874.60293	9349.425
878.41652	9379.125
882.22745	9470.425
886.03573	9513.225
889.84136	9516.925
893.64433	9438.225
897.44466	9431.225
901.24235	9410.825
905.0374	9382.925
908.8298	9359.625
912.61957	9345.125
916.40671	9345.925
920.19121	9372.625
923.97308	9473.525
927.75233	9561.625
931.52895	9675.225
935.30295	9574.925
939.07433	9416.225
942.84309	9307.825
946.60924	9265.525
950.37278	9258.525
954.13371	9216.925
957.89203	9225.125
961.64774	9192.925
965.40086	9206.825
969.15137	9174.225
972.89929	9146.625
976.64461	9164.225
980.38733	9210.125
984.12747	9249.025
987.86502	9269.525
991.59999	9340.325
995.33237	9446.425
999.06217	9583.625
1002.78939	9763.225
1006.51404	9959.425
1010.23611	10094.025
1013.95561	10208.225
1017.67255	10243.225
1021.38692	10217.625
1025.09872	10191.525
1028.80796	10129.225
1032.51465	10212.325
1036.21877	10291.525
1039.92035	10318.925
1043.61937	10278.425
1047.31584	10224.425
1051.00976	10177.325
1054.70114	10141.725
1058.38998	10153.825
1062.07627	10193.425
1065.76003	10276.125
1069.44126	10359.525
1073.11995	10544.025
1076.79611	10764.125
1080.46974	10890.825
1084.14085	11009.625
1087.80943	11106.925
1091.47549	11153.425
1095.13903	11116.225
1098.80005	11071.325
1102.45857	11089.625
1106.11456	11058.025
1109.76805	10935.925
1113.41903	10934.825
1117.06751	11066.825
1120.71348	11291.725
1124.35696	11513.925
1127.99793	11693.625
1131.63641	11502.125
1135.2724	11151.425
1138.90589	10869.925
1142.5369	10673.825
1146.16542	10554.025
1149.79145	10442.625
1153.415	10390.525
1157.03607	10342.425
1160.65467	10458.825
1164.27079	10695.925
1167.88443	11055.725
1171.49561	11587.125
1175.10432	12384.725
1178.71056	13451.225
1182.31434	14368.425
1185.91565	14748.925
1189.51451	14657.725
1193.11091	14350.625
1196.70485	13952.725
1200.29634	13535.025
1203.88538	13091.225
1207.47197	12581.025
1211.05612	12054.825
1214.63782	11648.325
1218.21708	11427.625
1221.79391	11296.625
1225.36829	11287.325
1228.94024	11243.825
1232.50976	11203.625
1236.07685	11168.225
1239.6415	11213.225
1243.20374	11262.225
1246.76355	11351.025
1250.32093	11497.325
1253.8759	11672.925
1257.42845	12014.625
1260.97859	12361.625
1264.52631	12669.525
1268.07163	12943.925
1271.61453	13129.625
1275.15503	13215.525
1278.69312	13244.925
1282.22882	13316.125
1285.76211	13475.725
1289.29301	13690.625
1292.82151	13956.925
1296.34761	14267.525
1299.87133	14792.625
1303.39266	15670.025
1306.9116	16930.925
1310.42815	18260.725
1313.94233	18761.925
1317.45412	18227.625
1320.96354	17140.325
1324.47058	16065.025
1327.97525	15189.625
1331.47754	14713.325
1334.97747	14563.425
1338.47502	14738.825
1341.97022	15224.725
1345.46305	16021.825
1348.95352	17136.625
1352.44163	18356.625
1355.92738	19653.825
1359.41078	21199.525
1362.89183	22296.325
1366.37053	21158.225
1369.84688	18330.425
1373.32088	15693.425
1376.79254	14267.125
1380.26186	13584.425
1383.72883	13148.825
1387.19347	12802.025
1390.65578	12396.225
1394.11575	12030.825
1397.57339	11759.525
1401.0287	11672.225
1404.48168	11663.325
1407.93234	11756.125
1411.38068	11945.425
1414.82669	12138.325
1418.27039	12181.425
1421.71177	12140.425
1425.15083	12107.525
1428.58758	12071.125
1432.02203	12180.525
1435.45416	12276.325
1438.88399	12256.725
1442.31151	12197.525
1445.73673	12169.325
1449.15965	12170.025
1452.58027	12097.725
1455.9986	12013.425
1459.41463	11974.625
1462.82837	12056.925
1466.23982	12237.425
1469.64898	12480.225
1473.05586	12653.025
1476.46045	12793.925
1479.86276	12950.225
1483.26279	13095.225
1486.66054	13326.325
1490.05602	13719.725
1493.44922	14315.525
1496.84016	15184.825
1500.22882	16441.825
1503.61521	18046.925
1506.99934	19591.025
1510.38121	20495.125
1513.76081	20231.125
1517.13816	18725.325
1520.51324	16793.925
1523.88607	15195.025
1527.25665	14215.125
1530.62498	13728.025
1533.99105	13468.925
1537.35488	13353.125
1540.71647	13213.625
1544.07581	13123.725
1547.4329	13003.225
1550.78776	12865.325
1554.14038	12793.225
1557.49077	12806.625
1560.83892	12938.025
1564.18484	13231.925
1567.52853	13516.325
1570.86999	13741.325
1574.20922	13796.125
1577.54624	13551.025
1580.88103	13015.025
1584.2136	12418.625
1587.54395	12148.425
1590.87208	12308.525
1594.19801	12760.825
1597.52172	13359.625
1600.84321	13634.225
1604.16251	13511.125
1607.47959	13247.425
1610.79447	12772.725
1614.10715	12131.725
1617.41763	11495.225
1620.7259	11029.425
1624.03199	10777.325
1627.33587	10740.425
1630.63757	10925.625
1633.93707	11353.425
1637.23439	12100.025
1640.52951	13262.725
1643.82246	14699.125
1647.11321	16091.125
1650.40179	16601.225
1653.68819	15668.225
1656.97241	13796.125
1660.25446	12043.525
1663.53433	10865.025
1666.81203	10149.725
1670.08756	9742.325
1673.36092	9481.125
1676.63211	9332.625
1679.90115	9180.225
1683.16801	9080.625
1686.43272	8999.925
1689.69527	8949.225
1692.95567	8913.125
1696.2139	8871.925
1699.46999	8843.725
1702.72392	8827.625
1705.97571	8820.325
1709.22535	8824.225
1712.47284	8809.725
1715.71819	8812.725
1718.96139	8803.825
1722.20246	8803.025
1725.44139	8757.525
1728.67818	8717.725
1731.91284	8678.025
1735.14537	8642.725
1738.37576	8595.525
1741.60403	8557.825
1744.83017	8527.125
1748.05418	8520.825
1751.27607	8486.725
1754.49584	8483.825
1757.71349	8480.425
1760.92903	8468.025
1764.14244	8427.925
1767.35375	8416.925
1770.56294	8402.625
1773.77002	8388.925
1776.97499	8367.125
1780.17785	8334.725
1783.37861	8315.725
1786.57727	8301.825
1789.77382	8287.825
1792.96828	8277.325
1796.16064	8276.125
1799.3509	8263.725
1802.53907	8257.625
1805.72514	8219.525
1808.90913	8203.525
1812.09102	8204.325
1815.27083	8176.525
1818.44856	8170.625
1821.6242	8123.625
1824.79776	8118.625
1827.96924	8093.425
1831.13864	8077.625
1834.30597	8076.225
1837.47122	8049.925
1840.6344	8040.125
1843.7955	8035.925
1846.95454	8016.425
1850.11151	8035.625
1853.26642	8042.225
1856.41926	8025.525
1859.57004	8032.725
1862.71876	8023.925
1865.86542	8011.325
1869.01003	8009.125
1872.15258	7996.825
1875.29308	7970.225
1878.43152	7975.525
1881.56792	7951.325
1884.70227	7946.025
1887.83457	7918.825
1890.96482	7893.825
1894.09304	7882.625
1897.21921	7886.725
1900.34335	7859.825
1903.46544	7865.525
1906.58551	7858.225
1909.70353	7869.925
1912.81953	7868.825
1915.93349	7829.325
1919.04543	7813.325
1922.15534	7794.825
1925.26322	7799.725
1928.36908	7779.725
1931.47292	7751.625
1934.57473	7740.925
1937.67453	7713.225
1940.77232	7708.625
1943.86808	7672.325
1946.96184	7667.525
1950.05358	7664.525
1953.14331	7622.225
1956.23103	7614.825
1959.31675	7580.525
1962.40046	7550.225
1965.48217	7518.825
1968.56188	7493.125
1971.63959	7476.425
1974.7153	7464.125
1977.78901	7480.225
1980.86073	7444.325
1983.93046	7397.625
1986.99819	7368.525
1990.06394	7358.125
1993.1277	7345.225
1996.18947	7296.225
1999.24925	7265.325
2002.30706	7249.525
2005.36288	7217.625
2008.41672	7200.325
2011.46859	7186.225
2014.51848	7139.025
2017.56639	7149.125
2020.61233	7120.425
2023.6563	7113.725
2026.6983	7088.625
2029.73833	7059.525
2032.7764	7048.725
2035.8125	7024.825
2038.84664	7010.825
2041.87881	6989.525
2044.90903	6969.825
2047.93729	6987.525
2050.96359	6968.325
2053.98794	6948.725
2057.01034	6953.125
2060.03078	6928.025
2063.04927	6930.725
2066.06582	6928.425
2069.08042	6909.125
2072.09307	6897.625
2075.10378	6881.425
2078.11255	6907.025
2081.11938	6879.525
2084.12426	6864.425
2087.12722	6868.525
2090.12824	6861.325
2093.12732	6872.825
2096.12447	6874.325
2099.11969	6860.225
2102.11299	6870.225
2105.10435	6870.025
2108.09379	6874.725
2111.08131	6880.625
2114.0669	6895.025
2117.05057	6875.325
2120.03233	6914.225
2123.01216	6896.525
2125.99008	6891.325
2128.96609	6906.525
2131.94018	6918.125
2134.91236	6907.025
2137.88263	6898.825
2140.851	6893.725
2143.81746	6903.425
2146.78201	6900.725
2149.74466	6884.225
2152.7054	6891.625
2155.66425	6885.125
2158.6212	6888.625
2161.57625	6872.925
2164.52941	6876.925
2167.48067	6879.425
2170.43004	6850.325
2173.37752	6857.125
2176.32311	6860.625
2179.26681	6874.825
2182.20863	6866.525
2185.14856	6878.925
2188.08661	6860.425
2191.02278	6892.825
2193.95707	6871.225
2196.88948	6843.525
2199.82001	6841.325
2202.74867	6845.025
2205.67545	6831.325
2208.60037	6833.225
2211.52341	6816.325
2214.44458	6807.425
2217.36388	6790.225
2220.28132	6763.825
2223.1969	6732.825
2226.11061	6710.325
2229.02246	6729.525
2231.93245	6719.825
2234.84058	6709.725
2237.74686	6696.125
2240.65128	6676.725
2243.55385	6659.225
2246.45456	6655.825
2249.35343	6654.425
2252.25044	6628.425
2255.14561	6653.625
2258.03893	6644.725
2260.93041	6617.725
2263.82004	6599.825
2266.70783	6585.125
2269.59378	6571.625
2272.4779	6545.425
2275.36017	6525.125
2278.24061	6522.225
2281.11922	6522.825
2283.996	6498.425
2286.87094	6492.025
2289.74405	6489.025
2292.61534	6471.825
2295.4848	6455.525
2298.35243	6449.225
2301.21824	6435.625
2304.08223	6430.525
2306.94439	6433.625
2309.80474	6426.525
2312.66327	6434.625
2315.51999	6404.725
2318.37489	6430.625
2321.22797	6404.125
2324.07925	6391.525
2326.92871	6381.825
2329.77637	6382.025
2332.62222	6362.825
2335.46626	6352.925
2338.3085	6344.525
2341.14893	6350.825
2343.98756	6369.625
2346.8244	6349.825
2349.65943	6325.225
2352.49267	6323.925
2355.32411	6321.525
2358.15376	6330.525
2360.98161	6330.125
2363.80768	6316.225
2366.63195	6313.925
2369.45444	6310.125
2372.27514	6298.325
2375.09405	6273.925
2377.91118	6289.425
2380.72652	6274.325
2383.54009	6250.325
2386.35187	6238.525
2389.16188	6224.125
2391.97011	6207.925
2394.77657	6177.925
2397.58125	6162.425
2400.38416	6147.225
2403.18529	6141.825
2405.98466	6132.625
2408.78226	6115.525
2411.57809	6105.025
2414.37216	6106.525
2417.16446	6113.625
2419.955	6090.925
2422.74378	6088.525
2425.5308	6076.125
2428.31606	6080.725
2431.09956	6088.425
2433.88131	6068.125
2436.6613	6055.325
2439.43954	6067.225
2442.21603	6058.825
2444.99077	6056.525
2447.76377	6056.825
2450.53501	6040.625
2453.30451	6043.725
2456.07226	6036.225
2458.83827	6024.025
2461.60254	6007.025
2464.36507	6019.525
2467.12586	6009.025
2469.88492	5997.225
2472.64224	5984.825
2475.39782	6004.025
2478.15167	6002.325
2480.90379	5996.425
2483.65417	5967.825
2486.40283	5976.525
2489.14976	5987.625
2491.89497	5982.525
2494.63845	5976.925
2497.3802	5964.025
2500.12024	5957.025
2502.85855	5948.925
2505.59514	5953.025
2508.33002	5944.825
2511.06318	5911.425
2513.79462	5901.125
2516.52435	5913.325
2519.25237	5866.825
2521.97867	5874.925
2524.70327	5868.825
2527.42616	5850.325
2530.14734	5838.225
2532.86681	5828.625
2535.58458	5858.125
2538.30065	5853.825
2541.01501	5838.125
2543.72768	5836.125
2546.43864	5814.425
2549.14791	5832.025
2551.85548	5809.025
2554.56136	5801.625
2557.26554	5802.925
2559.96803	5774.225
2562.66883	5763.625
2565.36794	5760.325
2568.06536	5738.325
2570.7611	5707.925
2573.45514	5724.925
2576.14751	5710.225
2578.83819	5691.025
2581.52719	5700.525
2584.21451	5689.325
2586.90015	5683.425
2589.58411	5682.325
2592.2664	5665.925
2594.94701	5653.025
2597.62594	5649.425
2600.30321	5641.625
2602.9788	5629.125
2605.65273	5636.525
2608.32498	5620.925
2610.99557	5599.725
2613.66449	5624.425
2616.33175	5615.525
2618.99734	5614.625
2621.66128	5602.525
2624.32355	5575.925
2626.98416	5577.225
2629.64311	5575.025
2632.30041	5577.825
2634.95605	5561.225
2637.61004	5542.525
2640.26238	5521.625
2642.91306	5526.425
2645.56209	5530.925
2648.20948	5528.125
2650.85521	5517.725
2653.4993	5519.525
2656.14175	5507.925
2658.78255	5505.925
2661.42171	5477.325
2664.05923	5515.525
2666.6951	5506.825
2669.32934	5529.825
2671.96194	5523.425
2674.59291	5522.425
2677.22224	5520.925
2679.84993	5531.425
2682.476	5521.325
2685.10043	5507.525
2687.72324	5518.325
2690.34441	5526.025
2692.96396	5488.325
2695.58188	5487.325
2698.19818	5486.825
2700.81285	5488.325
2703.4259	5467.825
2706.03733	5467.225
2708.64714	5461.825
2711.25533	5467.225
2713.86191	5461.525
2716.46687	5485.525
2719.07021	5479.925
2721.67194	5481.325
2724.27206	5462.125
2726.87057	5472.725
2729.46747	5479.825
2732.06276	5468.025
2734.65644	5467.025
2737.24852	5463.425
2739.83899	5455.225
2742.42786	5432.025
2745.01513	5424.725
2747.60079	5419.825
2750.18486	5420.625
2752.76733	5413.925
2755.3482	5402.325
2757.92747	5393.525
2760.50515	5378.225
2763.08123	5363.425
2765.65573	5360.125
2768.22863	5340.825
2770.79994	5360.125
2773.36967	5332.025
2775.9378	5335.025
2778.50435	5331.025
2781.06932	5317.425
2783.6327	5341.425
2786.1945	5319.925
2788.75471	5320.025
2791.31335	5293.125
2793.87041	5311.025
2796.42589	5275.025
2798.97979	5253.725
2801.53212	5248.325
2804.08288	5237.525
2806.63206	5228.625
2809.17967	5226.525
2811.72571	5214.525
2814.27018	5218.725
2816.81308	5193.025
2819.35442	5205.425
2821.89419	5170.525
2824.43239	5177.525
2826.96904	5158.825
2829.50412	5162.925
2832.03763	5122.225
2834.56959	5127.525
2837.1	5119.125
2839.62884	5113.025
2842.15613	5097.425
2844.68186	5119.925
2847.20604	5110.525
2849.72867	5111.825
2852.24974	5083.925
2854.76927	5077.125
2857.28724	5059.425
2859.80367	5072.025
2862.31855	5051.325
2864.83189	5036.125
2867.34368	5051.825
2869.85393	5052.225
2872.36264	5037.325
2874.8698	5044.625
2877.37543	5027.525
2879.87952	5023.125
2882.38207	5009.025
2884.88308	4998.625
2887.38256	5029.025
2889.88051	4996.525
2892.37692	4980.625
2894.8718	4982.725
2897.36515	4985.625
2899.85698	4997.725
2902.34727	4994.225
2904.83604	5006.425
2907.32328	5008.625
2909.809	5008.325
2912.29319	5026.825
2914.77587	5020.325
2917.25702	5011.025
2919.73665	5011.025
2922.21476	5008.025
2924.69136	4994.825
2927.16644	4990.225
2929.64	4981.125
2932.11205	4956.225
2934.58258	4939.825
2937.05161	4964.625
2939.51912	4951.925
2941.98513	4966.225
2944.44962	4918.625
2946.91261	4937.525
2949.37409	4937.825
2951.83407	4922.225
2954.29254	4924.925
2956.74951	4917.525
2959.20498	4914.025
2961.65895	4898.525
2964.11142	4908.825
2966.56239	4897.425
2969.01186	4898.425
2971.45984	4914.525
2973.90632	4898.725
2976.35131	4863.025
2978.7948	4865.825
2981.23681	4855.625
2983.67732	4859.225
2986.11635	4827.025
2988.55388	4833.925
2990.98993	4816.425
2993.4245	4801.325
2995.85758	4776.625
2998.28917	4779.325
3000.71928	4766.325
3003.14791	4745.225
3005.57506	4746.325
3008.00073	4724.225
3010.42493	4713.625
3012.84764	4694.725
3015.26888	4709.425
3017.68865	4703.925
3020.10694	4689.325
3022.52376	4679.325
3024.9391	4654.525
3027.35298	4655.525
3029.76539	4625.925
3032.17632	4642.925
3034.5858	4624.025
3036.9938	4621.825
3039.40034	4602.225
3041.80542	4585.025
3044.20903	4579.525
3046.61118	4588.925
3049.01187	4561.525
3051.4111	4565.425
3053.80888	4541.325
3056.20519	4512.825
3058.60005	4509.625
3060.99345	4510.325
3063.3854	4496.625
3065.7759	4497.325
3068.16494	4481.525
3070.55254	4457.925
3072.93868	4443.725
3075.32338	4422.425
3077.70662	4432.125
3080.08842	4414.325
3082.46878	4415.625
3084.84769	4388.125
3087.22515	4387.425
3089.60118	4413.525
3091.97576	4382.925
3094.3489	4369.825
3096.72061	4371.725
3099.09087	4353.425
3101.4597	4362.425
3103.82709	4368.425
3106.19305	4374.525
3108.55757	4371.625
3110.92066	4345.025
3113.28232	4332.525
3115.64255	4334.625
3118.00134	4318.525
3120.35871	4327.525
3122.71466	4301.125
3125.06917	4292.025
3127.42226	4279.425
3129.77393	4274.225
3132.12417	4272.025
3134.47299	4249.925
3136.82039	4238.125
3139.16636	4241.425
3141.51092	4243.225
3143.85406	4256.525
3146.19579	4230.525
3148.53609	4240.525
3150.87499	4247.825
3153.21246	4236.125
3155.54853	4249.125
3157.88318	4217.225
3160.21642	4228.925
3162.54826	4215.025
3164.87868	4222.825
3167.2077	4203.425
3169.5353	4216.525
3171.86151	4196.025
3174.18631	4183.625
3176.5097	4182.625
3178.83169	4172.425
3181.15228	4175.325
3183.47147	4159.525
3185.78926	4157.725
3188.10565	4122.825
3190.42065	4119.525
3192.73424	4113.925
3195.04645	4123.325
3197.35725	4117.025
3199.66667	4111.625
3201.97469	4102.925
3204.28132	4109.625
3206.58656	4112.025
3208.8904	4097.625
3211.19287	4113.425
3213.49394	4111.925
3215.79363	4105.025
