Data from AgNPs_UA_5uM_CRN_500uM_SU_RamanShift__134__11-51-43-166.txt Node

Date: Thu Aug 04 11:51:43 BST 2022
User: TCL
Spectrometer: QEP01345
Trigger mode: 4
Integration Time (sec): 1.000000E0
Scans to average: 10
Electric dark correction enabled: true
Nonlinearity correction enabled: false
Boxcar width: 0
XAxis mode: Raman Shifts
Number of Pixels in Spectrum: 1044
>>>>>Begin Spectral Data<<<<<
46.04893	-1
50.45542	-0.5
54.85868	0.6
59.25871	0.1
63.6555	-57.3
68.04907	-39.8
72.43941	-70.5
76.82654	-56.5
81.21044	-56.1
85.59113	-49.3
89.96862	-75.8
94.34289	-53.9
98.71396	-76.5
103.08183	-56.1
107.4465	-49.4
111.80798	-55.7
116.16626	-43.5
120.52136	-74.6
124.87327	-49.2
129.222	-61.8
133.56755	-49.8
137.90993	-61.1
142.24913	-50.5
146.58517	-44.8
150.91804	-38.6
155.24774	-30.2
159.57429	-9.5
163.89768	-7.6
168.21792	34.8
172.53501	56.2
176.84895	137.3
181.15975	264.6
185.46741	416
189.77193	594.6
194.07331	880
198.37157	1165
202.6667	1445.8
206.9587	1775.8
211.24758	2076.6
215.53334	2395.5
219.81599	2743.3
224.09553	3138.8
228.37195	3569.1
232.64527	4037.9
236.91549	4502.7
241.18261	4861.2
245.44663	5180.2
249.70755	5384
253.96539	5515.4
258.22014	5632.6
262.4718	5673.7
266.72039	5713.1
270.96589	5664.2
275.20832	5559.1
279.44768	5461.6
283.68397	5317.8
287.91719	5272.6
292.14735	5291.9
296.37445	5430.6
300.59849	5662.7
304.81948	5929.1
309.03742	6263.3
313.25231	6480.7
317.46415	6406.3
321.67296	6086.3
325.87872	5730.2
330.08145	5561.1
334.28114	5531.4
338.47781	5617.8
342.67145	5735.6
346.86207	5944.7
351.04966	6286.7
355.23424	6649
359.4158	6880.3
363.59435	6927.2
367.76989	6869.8
371.94243	6773.7
376.11196	6680.1
380.27849	6638.7
384.44203	6571.5
388.60257	6534.9
392.76012	6562.4
396.91468	6667.5
401.06626	6817.9
405.21485	6821.2
409.36047	6707.9
413.50311	6439.3
417.64277	6204.6
421.77947	6016.9
425.9132	5967.7
430.04396	5977.9
434.17176	6017.5
438.2966	6108.2
442.41849	6185.3
446.53742	6290.3
450.6534	6401.2
454.76644	6461.3
458.87653	6490.9
462.98368	6487.7
467.08789	6416.2
471.18916	6377.2
475.2875	6277.4
479.38291	6179.3
483.4754	6090.8
487.56496	6045.5
491.6516	6002.8
495.73531	6000.8
499.81612	6017.6
503.89401	6091.7
507.96899	6143
512.04106	6229.9
516.11023	6326.5
520.1765	6389.6
524.23987	6427.8
528.30034	6440.4
532.35792	6367.4
536.41261	6333.9
540.46441	6248.8
544.51333	6207.4
548.55936	6238.1
552.60252	6374.9
556.64279	6463.3
560.6802	6577.8
564.71473	6679
568.7464	6850
572.7752	6830.6
576.80114	6514.9
580.82422	6319
584.84444	6221.6
588.86181	6218.6
592.87633	6249.8
596.888	6372.5
600.89682	6674.7
604.9028	7551.3
608.90594	9364.2
612.90624	11392.7
616.90371	10619.5
620.89834	7974.7
624.89015	6843.4
628.87913	6680.3
632.86528	6826.7
636.84862	6956.4
640.82913	6859.6
644.80683	6541.9
648.78172	6393.8
652.75379	6428.9
656.72306	6641.6
660.68952	6840.4
664.65319	6781.6
668.61405	6575.8
672.57211	6531.3
676.52738	6533.4
680.47986	6455.1
684.42955	6388.6
688.37646	6364.5
692.32058	6367.9
696.26192	6385.3
700.20048	6508.4
704.13626	6538.4
708.06928	6494.8
711.99952	6470.4
715.927	6428.9
719.85171	6469
723.77365	6517.2
727.69284	6496.8
731.60928	6496.2
735.52295	6474.6
739.43388	6497.2
743.34206	6516
747.24749	6546.7
751.15017	6543.8
755.05012	6606.2
758.94733	6929.8
762.8418	7640
766.73354	8768.2
770.62254	9617.4
774.50882	9681.8
778.39237	9275.6
782.27321	8507.8
786.15132	7607.6
790.02671	7017.1
793.89938	6671.1
797.76935	6589.5
801.6366	6511.7
805.50115	6487.4
809.36299	6473.2
813.22213	6485.7
817.07857	6483.9
820.93231	6475.7
824.78336	6499.1
828.63172	6510.6
832.47738	6527.6
836.32036	6530.5
840.16066	6521.1
843.99827	6504.6
847.8332	6487.2
851.66546	6530.7
855.49504	6516.3
859.32195	6555.3
863.1462	6548
866.96777	6525.2
870.78668	6524
874.60293	6560.6
878.41652	6577.9
882.22745	6672.5
886.03573	6680.4
889.84136	6675.2
893.64433	6671.5
897.44466	6666.3
901.24235	6661.8
905.0374	6650.4
908.8298	6588.1
912.61957	6554.6
916.40671	6531.6
920.19121	6572.9
923.97308	6657.4
927.75233	6697.2
931.52895	6761.2
935.30295	6750.4
939.07433	6611.2
942.84309	6514
946.60924	6507
950.37278	6452.5
954.13371	6453.7
957.89203	6453.9
961.64774	6464.5
965.40086	6450.3
969.15137	6430.3
972.89929	6459.7
976.64461	6449.6
980.38733	6487.6
984.12747	6477.9
987.86502	6482.9
991.59999	6517.6
995.33237	6603.8
999.06217	6688.6
1002.78939	6765.9
1006.51404	6890.6
1010.23611	7012.8
1013.95561	7088.3
1017.67255	7086.5
1021.38692	7064.7
1025.09872	6983.2
1028.80796	6887
1032.51465	6904.2
1036.21877	6876.5
1039.92035	6916.8
1043.61937	6962.3
1047.31584	7005.7
1051.00976	7047.4
1054.70114	7032.3
1058.38998	7022.2
1062.07627	7060.4
1065.76003	7078.8
1069.44126	7161.7
1073.11995	7239.1
1076.79611	7378.8
1080.46974	7510.3
1084.14085	7661.1
1087.80943	7733.2
1091.47549	7785
1095.13903	7725.3
1098.80005	7630.7
1102.45857	7537.2
1106.11456	7496.3
1109.76805	7430.5
1113.41903	7513.6
1117.06751	7649.4
1120.71348	7849.8
1124.35696	8170.7
1127.99793	8413.4
1131.63641	8284.2
1135.2724	7954.1
1138.90589	7702.2
1142.5369	7542.9
1146.16542	7487.7
1149.79145	7383.2
1153.415	7345
1157.03607	7312.1
1160.65467	7380
1164.27079	7522.9
1167.88443	7733.8
1171.49561	8093.4
1175.10432	8591.8
1178.71056	9344.5
1182.31434	10006.4
1185.91565	10232.2
1189.51451	10131
1193.11091	9954.9
1196.70485	9781.9
1200.29634	9643.9
1203.88538	9421.6
1207.47197	9057.5
1211.05612	8680
1214.63782	8336.5
1218.21708	8155.3
1221.79391	8005.5
1225.36829	7893
1228.94024	7863.3
1232.50976	7848.4
1236.07685	7890.2
1239.6415	7919.2
1243.20374	7942
1246.76355	8004.9
1250.32093	8082
1253.8759	8154.2
1257.42845	8349.3
1260.97859	8536.2
1264.52631	8755.1
1268.07163	8874
1271.61453	8960.3
1275.15503	8976.3
1278.69312	8982.2
1282.22882	9053.9
1285.76211	9223.8
1289.29301	9436.1
1292.82151	9665.1
1296.34761	9851.9
1299.87133	10187.6
1303.39266	10798.9
1306.9116	11762.7
1310.42815	12772.4
1313.94233	13139.7
1317.45412	12492.6
1320.96354	11541.1
1324.47058	10699.1
1327.97525	10086
1331.47754	9734.4
1334.97747	9686.1
1338.47502	9774.9
1341.97022	10147
1345.46305	10754.3
1348.95352	11659
1352.44163	12710.5
1355.92738	13789.2
1359.41078	15056.2
1362.89183	16282.5
1366.37053	15667.6
1369.84688	13270.2
1373.32088	11051.9
1376.79254	9937.5
1380.26186	9399.7
1383.72883	9060.1
1387.19347	8748.9
1390.65578	8428.3
1394.11575	8252.6
1397.57339	8098
1401.0287	8025
1404.48168	7964.5
1407.93234	7991.9
1411.38068	8016.5
1414.82669	8095.3
1418.27039	8169.2
1421.71177	8161.8
1425.15083	8050.5
1428.58758	7988.3
1432.02203	8040.9
1435.45416	8104.4
1438.88399	8095.6
1442.31151	8121
1445.73673	8190
1449.15965	8242.1
1452.58027	8291.1
1455.9986	8257.7
1459.41463	8242.5
1462.82837	8354.9
1466.23982	8500.7
1469.64898	8708.8
1473.05586	8823.1
1476.46045	8897.4
1479.86276	8951.1
1483.26279	9002.9
1486.66054	9163.4
1490.05602	9371.4
1493.44922	9819.3
1496.84016	10542.7
1500.22882	11700.7
1503.61521	13069.3
1506.99934	14493.8
1510.38121	15489.8
1513.76081	15380.2
1517.13816	14126.6
1520.51324	12363.4
1523.88607	10956.4
1527.25665	10146.9
1530.62498	9713.1
1533.99105	9528
1537.35488	9459.5
1540.71647	9387.4
1544.07581	9340.3
1547.4329	9253.3
1550.78776	9152.6
1554.14038	9047
1557.49077	8969.7
1560.83892	9016.6
1564.18484	9200.5
1567.52853	9457.3
1570.86999	9721
1574.20922	9831.4
1577.54624	9726.8
1580.88103	9297.5
1584.2136	8759.4
1587.54395	8491.6
1590.87208	8434.1
1594.19801	8601.9
1597.52172	8974.2
1600.84321	9113.3
1604.16251	9030.4
1607.47959	8876.4
1610.79447	8681.1
1614.10715	8381.7
1617.41763	8080.7
1620.7259	7827.6
1624.03199	7666.1
1627.33587	7607.4
1630.63757	7642.6
1633.93707	7861.8
1637.23439	8241.1
1640.52951	8857.3
1643.82246	9695.6
1647.11321	10663.4
1650.40179	11218.6
1653.68819	10876.1
1656.97241	9814.7
1660.25446	8618.7
1663.53433	7766.2
1666.81203	7246
1670.08756	6970.3
1673.36092	6821.1
1676.63211	6677.3
1679.90115	6605.9
1683.16801	6524.6
1686.43272	6445.2
1689.69527	6418.7
1692.95567	6319.5
1696.2139	6315.5
1699.46999	6251.2
1702.72392	6247.7
1705.97571	6274
1709.22535	6243.3
1712.47284	6275.2
1715.71819	6287.9
1718.96139	6286.6
1722.20246	6281.9
1725.44139	6250.7
1728.67818	6216.4
1731.91284	6191.1
1735.14537	6146.2
1738.37576	6126.6
1741.60403	6104.4
1744.83017	6090.8
1748.05418	6077.9
1751.27607	6091.2
1754.49584	6058.3
1757.71349	6028.6
1760.92903	6040.3
1764.14244	5979.6
1767.35375	5994.1
1770.56294	5970.7
1773.77002	5948
1776.97499	5974
1780.17785	5953.2
1783.37861	5928.8
1786.57727	5943.3
1789.77382	5890.4
1792.96828	5915.7
1796.16064	5917.9
1799.3509	5893.9
1802.53907	5910.5
1805.72514	5857.9
1808.90913	5854.3
1812.09102	5850
1815.27083	5833.9
1818.44856	5825.7
1821.6242	5824
1824.79776	5797.7
1827.96924	5785.1
1831.13864	5773.5
1834.30597	5795.4
1837.47122	5747.4
1840.6344	5751.3
1843.7955	5709.3
1846.95454	5720.4
1850.11151	5751
1853.26642	5702.8
1856.41926	5713.7
1859.57004	5724.1
1862.71876	5692.2
1865.86542	5714.7
1869.01003	5683.7
1872.15258	5673.8
1875.29308	5699.9
1878.43152	5692.8
1881.56792	5675.5
1884.70227	5652.5
1887.83457	5651.8
1890.96482	5624.4
1894.09304	5623.4
1897.21921	5632.2
1900.34335	5625.3
1903.46544	5595.3
1906.58551	5621.9
1909.70353	5619.3
1912.81953	5603.1
1915.93349	5580
1919.04543	5574.2
1922.15534	5575.3
1925.26322	5567.3
1928.36908	5540.6
1931.47292	5550
1934.57473	5556.7
1937.67453	5515.9
1940.77232	5504.3
1943.86808	5490.5
1946.96184	5463.3
1950.05358	5445.2
1953.14331	5427.9
1956.23103	5436.7
1959.31675	5391.5
1962.40046	5341.5
1965.48217	5365.6
1968.56188	5355
1971.63959	5352
1974.7153	5330.2
1977.78901	5330.7
1980.86073	5296.2
1983.93046	5264.8
1986.99819	5201.6
1990.06394	5203.9
1993.1277	5213.1
1996.18947	5198
1999.24925	5162
2002.30706	5171.1
2005.36288	5144.2
2008.41672	5137.4
2011.46859	5113.6
2014.51848	5099.2
2017.56639	5074.9
2020.61233	5061
2023.6563	5067.8
2026.6983	5020
2029.73833	5011.1
2032.7764	5019.2
2035.8125	4968.3
2038.84664	4989.4
2041.87881	4969.8
2044.90903	4966.5
2047.93729	4958.7
2050.96359	4931.4
2053.98794	4946.2
2057.01034	4948.1
2060.03078	4928.9
2063.04927	4913.3
2066.06582	4904.4
2069.08042	4900.2
2072.09307	4902.9
2075.10378	4906.2
2078.11255	4888
2081.11938	4893.8
2084.12426	4899.9
2087.12722	4876.6
2090.12824	4870.2
2093.12732	4888.4
2096.12447	4905.5
2099.11969	4887
2102.11299	4878.9
2105.10435	4901.3
2108.09379	4887.4
2111.08131	4894.9
2114.0669	4871.1
2117.05057	4882
2120.03233	4879.2
2123.01216	4900.6
2125.99008	4892.3
2128.96609	4889.8
2131.94018	4909.6
2134.91236	4904.8
2137.88263	4886.9
2140.851	4895
2143.81746	4932.8
2146.78201	4894.5
2149.74466	4895.2
2152.7054	4918.1
2155.66425	4901.9
2158.6212	4878.3
2161.57625	4860.3
2164.52941	4827.8
2167.48067	4853.7
2170.43004	4862.4
2173.37752	4861.9
2176.32311	4867.9
2179.26681	4856.1
2182.20863	4859.4
2185.14856	4860.7
2188.08661	4854.8
2191.02278	4870.4
2193.95707	4844.1
2196.88948	4845.5
2199.82001	4843.3
2202.74867	4818.7
2205.67545	4810
2208.60037	4830
2211.52341	4799.5
2214.44458	4811.5
2217.36388	4798.6
2220.28132	4774.9
2223.1969	4746.8
2226.11061	4743.1
2229.02246	4741.3
2231.93245	4747.6
2234.84058	4728.6
2237.74686	4695
2240.65128	4698.4
2243.55385	4695.7
2246.45456	4679.8
2249.35343	4707.7
2252.25044	4683.6
2255.14561	4676.1
2258.03893	4667.2
2260.93041	4666.6
2263.82004	4649.7
2266.70783	4648.2
2269.59378	4617.4
2272.4779	4589.8
2275.36017	4605.3
2278.24061	4607.3
2281.11922	4565.4
2283.996	4579.5
2286.87094	4559
2289.74405	4554.9
2292.61534	4549.4
2295.4848	4542.1
2298.35243	4530.4
2301.21824	4523.1
2304.08223	4510.8
2306.94439	4515.7
2309.80474	4525.3
2312.66327	4524.6
2315.51999	4507.7
2318.37489	4494.1
2321.22797	4480.3
2324.07925	4470.7
2326.92871	4460.8
2329.77637	4456.6
2332.62222	4458.9
2335.46626	4414.7
2338.3085	4413.1
2341.14893	4439.6
2343.98756	4426.1
2346.8244	4405.2
2349.65943	4389.7
2352.49267	4403.5
2355.32411	4393.8
2358.15376	4392
2360.98161	4411.5
2363.80768	4395.9
2366.63195	4402.9
2369.45444	4400.2
2372.27514	4397.3
2375.09405	4402.2
2377.91118	4347.2
2380.72652	4352.8
2383.54009	4344.9
2386.35187	4359.3
2389.16188	4322.5
2391.97011	4327.6
2394.77657	4309.7
2397.58125	4301.4
2400.38416	4308.1
2403.18529	4282.5
2405.98466	4264.5
2408.78226	4264.3
2411.57809	4253.7
2414.37216	4248
2417.16446	4233.8
2419.955	4224.9
2422.74378	4236.8
2425.5308	4231.8
2428.31606	4228.3
2431.09956	4228.8
2433.88131	4178.2
2436.6613	4216.5
2439.43954	4200.7
2442.21603	4192.1
2444.99077	4187.6
2447.76377	4192.1
2450.53501	4175.5
2453.30451	4177.8
2456.07226	4189.8
2458.83827	4170.3
2461.60254	4132.7
2464.36507	4157.6
2467.12586	4132.4
2469.88492	4140.6
2472.64224	4146.5
2475.39782	4113
2478.15167	4139.6
2480.90379	4120.6
2483.65417	4143.1
2486.40283	4135.9
2489.14976	4150.8
2491.89497	4126.1
2494.63845	4125.8
2497.3802	4126
2500.12024	4108.6
2502.85855	4109.8
2505.59514	4104.5
2508.33002	4110.7
2511.06318	4065.5
2513.79462	4080.6
2516.52435	4044.1
2519.25237	4024.8
2521.97867	4021.4
2524.70327	4030
2527.42616	4036.7
2530.14734	4046.7
2532.86681	4007.2
2535.58458	4013.3
2538.30065	4005.3
2541.01501	4010.6
2543.72768	3994
2546.43864	3988.7
2549.14791	3979
2551.85548	3967.6
2554.56136	3946.6
2557.26554	3968.5
2559.96803	3951.7
2562.66883	3953.5
2565.36794	3921.7
2568.06536	3886.7
2570.7611	3928.1
2573.45514	3899.2
2576.14751	3912.4
2578.83819	3886.2
2581.52719	3867.9
2584.21451	3854
2586.90015	3851
2589.58411	3825.7
2592.2664	3848.9
2594.94701	3850.3
2597.62594	3839.8
2600.30321	3762.8
2602.9788	3791.2
2605.65273	3786
2608.32498	3783.6
2610.99557	3803.4
2613.66449	3767.4
2616.33175	3778.3
2618.99734	3785.4
2621.66128	3787.8
2624.32355	3775.2
2626.98416	3744.9
2629.64311	3749.8
2632.30041	3728.3
2634.95605	3725.7
2637.61004	3697.9
2640.26238	3681.5
2642.91306	3688.4
2645.56209	3716.9
2648.20948	3704.3
2650.85521	3691.5
2653.4993	3702.7
2656.14175	3691.5
2658.78255	3679.6
2661.42171	3658.4
2664.05923	3702.9
2666.6951	3706.5
2669.32934	3706.4
2671.96194	3713.2
2674.59291	3684.8
2677.22224	3686.2
2679.84993	3702.4
2682.476	3682.7
2685.10043	3681.3
2687.72324	3665.7
2690.34441	3675
2692.96396	3668.7
2695.58188	3685.6
2698.19818	3676.1
2700.81285	3663.4
2703.4259	3651.5
2706.03733	3615.9
2708.64714	3609.2
2711.25533	3659.2
2713.86191	3658.9
2716.46687	3649.7
2719.07021	3651.8
2721.67194	3656.1
2724.27206	3657.2
2726.87057	3650.9
2729.46747	3631.7
2732.06276	3639.1
2734.65644	3625.2
2737.24852	3617.5
2739.83899	3602.6
2742.42786	3610.1
2745.01513	3628.4
2747.60079	3599
2750.18486	3578.5
2752.76733	3594.3
2755.3482	3576.7
2757.92747	3591.5
2760.50515	3557.2
2763.08123	3567.9
2765.65573	3554.7
2768.22863	3549.9
2770.79994	3528.9
2773.36967	3539.3
2775.9378	3528.7
2778.50435	3518.4
2781.06932	3521.9
2783.6327	3490.7
2786.1945	3518.1
2788.75471	3501.8
2791.31335	3491.3
2793.87041	3491.9
2796.42589	3467.6
2798.97979	3459.3
2801.53212	3461.9
2804.08288	3481.4
2806.63206	3449.9
2809.17967	3432.3
2811.72571	3442.7
2814.27018	3432.1
2816.81308	3416.3
2819.35442	3370.9
2821.89419	3396.5
2824.43239	3379.4
2826.96904	3409.6
2829.50412	3381.9
2832.03763	3396.3
2834.56959	3391.6
2837.1	3370.4
2839.62884	3365.7
2842.15613	3370
2844.68186	3373.1
2847.20604	3353.1
2849.72867	3336.1
2852.24974	3343.6
2854.76927	3305
2857.28724	3266.1
2859.80367	3323.8
2862.31855	3324.9
2864.83189	3318.4
2867.34368	3303.8
2869.85393	3327.7
2872.36264	3300.7
2874.8698	3303.7
2877.37543	3310.2
2879.87952	3296.5
2882.38207	3271
2884.88308	3274.6
2887.38256	3287.9
2889.88051	3269.6
2892.37692	3290.4
2894.8718	3265.3
2897.36515	3273.1
2899.85698	3269.7
2902.34727	3259.1
2904.83604	3274
2907.32328	3288.5
2909.809	3273.9
2912.29319	3272.2
2914.77587	3264.3
2917.25702	3280.5
2919.73665	3294.3
2922.21476	3287.2
2924.69136	3282.3
2927.16644	3271.5
2929.64	3269.1
2932.11205	3262.9
2934.58258	3252.7
2937.05161	3248.9
2939.51912	3242
2941.98513	3252.4
2944.44962	3241.7
2946.91261	3217.1
2949.37409	3224.1
2951.83407	3219.8
2954.29254	3206.6
2956.74951	3214.1
2959.20498	3196.1
2961.65895	3195.5
2964.11142	3190.1
2966.56239	3174.4
2969.01186	3198.3
2971.45984	3180.5
2973.90632	3160.7
2976.35131	3179.3
2978.7948	3158.5
2981.23681	3158.2
2983.67732	3150.3
2986.11635	3151.5
2988.55388	3135.4
2990.98993	3123.9
2993.4245	3119.2
2995.85758	3107.3
2998.28917	3090.6
3000.71928	3097.4
3003.14791	3088.6
3005.57506	3068.3
3008.00073	3050.3
3010.42493	2993.3
3012.84764	3051.1
3015.26888	3052.9
3017.68865	3027.5
3020.10694	2994
3022.52376	2997.9
3024.9391	3002.7
3027.35298	2987.4
3029.76539	2972.5
3032.17632	2985.6
3034.5858	2968.2
3036.9938	2980
3039.40034	2968.2
3041.80542	2950.5
3044.20903	2943.8
3046.61118	2930.3
3049.01187	2947.8
3051.4111	2921.7
3053.80888	2914.8
3056.20519	2902
3058.60005	2897.6
3060.99345	2917.6
3063.3854	2885.7
3065.7759	2873.3
3068.16494	2861.5
3070.55254	2857.4
3072.93868	2858.6
3075.32338	2856.2
3077.70662	2844.6
3080.08842	2828.9
3082.46878	2810.6
3084.84769	2831.4
3087.22515	2820.3
3089.60118	2839.4
3091.97576	2812.5
3094.3489	2817.1
3096.72061	2818.6
3099.09087	2791
3101.4597	2812.7
3103.82709	2803.2
3106.19305	2786.3
3108.55757	2799.4
3110.92066	2774.3
3113.28232	2776
3115.64255	2780.6
3118.00134	2771.4
3120.35871	2764.5
3122.71466	2731.7
3125.06917	2740.4
3127.42226	2738
3129.77393	2714.2
3132.12417	2729.9
3134.47299	2729.3
3136.82039	2703.5
3139.16636	2687.4
3141.51092	2701
3143.85406	2708.2
3146.19579	2692.9
3148.53609	2694.4
3150.87499	2693.2
3153.21246	2667.1
3155.54853	2701
3157.88318	2695.2
3160.21642	2706.5
3162.54826	2688.4
3164.87868	2688.3
3167.2077	2646.2
3169.5353	2677.9
3171.86151	2681.3
3174.18631	2664.1
3176.5097	2665.2
3178.83169	2659
3181.15228	2661.8
3183.47147	2630.9
3185.78926	2619
3188.10565	2620.3
3190.42065	2609.9
3192.73424	2616.7
3195.04645	2608.1
3197.35725	2588.9
3199.66667	2601
3201.97469	2587.8
3204.28132	2574.9
3206.58656	2595.9
3208.8904	2599
3211.19287	2585.2
3213.49394	2566.6
3215.79363	2568.8
3218.09193	2579.4
3220.38884	2578.4
3222.68438	2576.5
3224.97853	2556.3
3227.2713	2575.8
3229.56269	2558.9
3231.8527	2567.8
3234.14133	2542.2
3236.42858	2540.2
3238.71446	2515.8
3240.99896	2539.5
3243.28209	2519.1
3245.56384	2530.9
3247.84423	2506.1
3250.12324	2504.4
3252.40088	2510.7
3254.67715	2494.6
3256.95205	2483.2
3259.22558	2506.6
3261.49775	2497.5
3263.76855	2495.2
3266.03799	2495.6
3268.30606	2485.7
3270.57277	2488
3272.83812	2465.6
3275.10211	2473.8
3277.36474	2477.7
3279.62601	2462.3
3281.88593	2452.1
3284.14448	2436.3
3286.40168	2451.8
3288.65753	2427.3
3290.91202	2433.4
3293.16516	2406.1
3295.41695	2423.4
3297.66738	2423.1
3299.91647	2412.8
3302.16421	2408.6
3304.4106	2359.2
3306.65564	2383.4
3308.89933	2337.1
3311.14169	2331.1
3313.38269	2306.8
3315.62236	2294.5
3317.86068	2269.4
3320.09766	2269.4
3322.3333	2231.5
3324.5676	2224.1
3326.80056	2188.3
3329.03219	2184.4
3331.26248	-0.3
3333.49143	-0.2
3335.71905	0.8
