Data from AgNPs_UA_50uM_CRN_500uM_SU_RamanShift__23__13-59-40-318.txt Node

Date: Thu Aug 04 13:59:40 BST 2022
User: TCL
Spectrometer: QEP01345
Trigger mode: 4
Integration Time (sec): 1.000000E0
Scans to average: 10
Electric dark correction enabled: true
Nonlinearity correction enabled: false
Boxcar width: 0
XAxis mode: Raman Shifts
Number of Pixels in Spectrum: 1044
>>>>>Begin Spectral Data<<<<<
46.04893	0.425
50.45542	0.325
54.85868	-0.675
59.25871	0.225
63.6555	15.025
68.04907	13.225
72.43941	13.525
76.82654	15.825
81.21044	16.625
85.59113	19.725
89.96862	18.725
94.34289	19.725
98.71396	19.625
103.08183	19.325
107.4465	18.225
111.80798	20.825
116.16626	19.625
120.52136	22.325
124.87327	25.625
129.222	25.525
133.56755	27.725
137.90993	31.125
142.24913	31.225
146.58517	36.225
150.91804	45.625
155.24774	52.825
159.57429	67.625
163.89768	85.025
168.21792	111.625
172.53501	156.525
176.84895	221.825
181.15975	318.825
185.46741	443.925
189.77193	614.125
194.07331	829.525
198.37157	1079.125
202.6667	1336.325
206.9587	1596.825
211.24758	1864.625
215.53334	2146.925
219.81599	2451.825
224.09553	2791.625
228.37195	3153.725
232.64527	3557.825
236.91549	3953.525
241.18261	4265.525
245.44663	4501.125
249.70755	4675.025
253.96539	4799.025
258.22014	4925.025
262.4718	5017.425
266.72039	5088.825
270.96589	5110.125
275.20832	5035.125
279.44768	4959.425
283.68397	4869.425
287.91719	4808.925
292.14735	4846.825
296.37445	4955.625
300.59849	5193.725
304.81948	5485.725
309.03742	5772.125
313.25231	5954.925
317.46415	5901.125
321.67296	5598.125
325.87872	5253.425
330.08145	5067.025
334.28114	5039.325
338.47781	5101.025
342.67145	5227.925
346.86207	5411.225
351.04966	5691.725
355.23424	5970.225
359.4158	6155.925
363.59435	6205.225
367.76989	6169.925
371.94243	6100.225
376.11196	5993.925
380.27849	5942.625
384.44203	5910.625
388.60257	5881.925
392.76012	5925.125
396.91468	6015.025
401.06626	6132.125
405.21485	6152.625
409.36047	6000.425
413.50311	5730.925
417.64277	5487.825
421.77947	5323.625
425.9132	5265.725
430.04396	5266.625
434.17176	5302.225
438.2966	5358.725
442.41849	5459.925
446.53742	5576.625
450.6534	5679.825
454.76644	5727.425
458.87653	5729.625
462.98368	5702.925
467.08789	5635.925
471.18916	5553.825
475.2875	5435.625
479.38291	5333.525
483.4754	5256.225
487.56496	5199.725
491.6516	5199.325
495.73531	5183.725
499.81612	5211.825
503.89401	5251.225
507.96899	5312.825
512.04106	5357.625
516.11023	5460.225
520.1765	5510.025
524.23987	5519.425
528.30034	5511.425
532.35792	5480.325
536.41261	5401.725
540.46441	5324.225
544.51333	5288.125
548.55936	5318.725
552.60252	5414.825
556.64279	5516.625
560.6802	5599.825
564.71473	5691.225
568.7464	5843.325
572.7752	5825.925
576.80114	5605.425
580.82422	5406.525
584.84444	5331.725
588.86181	5318.125
592.87633	5340.325
596.888	5441.125
600.89682	5767.825
604.9028	6575.125
608.90594	8388.325
612.90624	10310.425
616.90371	9433.425
620.89834	6830.425
624.89015	5714.825
628.87913	5589.225
632.86528	5731.225
636.84862	5843.125
640.82913	5713.025
644.80683	5452.625
648.78172	5305.925
652.75379	5311.525
656.72306	5518.825
660.68952	5721.025
664.65319	5646.625
668.61405	5430.825
672.57211	5373.725
676.52738	5395.925
680.47986	5312.125
684.42955	5213.825
688.37646	5181.025
692.32058	5198.525
696.26192	5278.925
700.20048	5376.425
704.13626	5415.225
708.06928	5375.325
711.99952	5330.425
715.927	5309.625
719.85171	5333.625
723.77365	5363.425
727.69284	5350.825
731.60928	5295.825
735.52295	5271.325
739.43388	5286.225
743.34206	5312.625
747.24749	5308.525
751.15017	5317.725
755.05012	5398.525
758.94733	5689.325
762.8418	6397.625
766.73354	7477.025
770.62254	8290.325
774.50882	8346.625
778.39237	7860.925
782.27321	7053.525
786.15132	6245.425
790.02671	5695.225
793.89938	5454.325
797.76935	5301.025
801.6366	5250.725
805.50115	5230.425
809.36299	5215.025
813.22213	5183.025
817.07857	5184.625
820.93231	5195.625
824.78336	5210.025
828.63172	5231.725
832.47738	5230.725
836.32036	5221.925
840.16066	5178.025
843.99827	5160.825
847.8332	5164.525
851.66546	5174.925
855.49504	5190.125
859.32195	5200.125
863.1462	5168.125
866.96777	5179.725
870.78668	5192.125
874.60293	5204.225
878.41652	5229.125
882.22745	5267.225
886.03573	5297.025
889.84136	5290.725
893.64433	5274.325
897.44466	5264.625
901.24235	5244.025
905.0374	5213.925
908.8298	5197.925
912.61957	5175.525
916.40671	5173.625
920.19121	5204.025
923.97308	5253.125
927.75233	5330.525
931.52895	5376.525
935.30295	5310.625
939.07433	5163.525
942.84309	5095.125
946.60924	5050.725
950.37278	5054.325
954.13371	5045.025
957.89203	5030.825
961.64774	5023.825
965.40086	5019.625
969.15137	5009.425
972.89929	5002.725
976.64461	5009.725
980.38733	5011.425
984.12747	5014.425
987.86502	5045.725
991.59999	5073.825
995.33237	5116.725
999.06217	5178.025
1002.78939	5274.625
1006.51404	5389.325
1010.23611	5507.525
1013.95561	5532.625
1017.67255	5508.125
1021.38692	5473.325
1025.09872	5400.125
1028.80796	5318.125
1032.51465	5294.825
1036.21877	5303.425
1039.92035	5334.225
1043.61937	5372.025
1047.31584	5399.725
1051.00976	5409.925
1054.70114	5414.125
1058.38998	5412.125
1062.07627	5414.525
1065.76003	5462.125
1069.44126	5550.225
1073.11995	5650.725
1076.79611	5781.225
1080.46974	5909.825
1084.14085	6015.125
1087.80943	6115.525
1091.47549	6140.225
1095.13903	6088.725
1098.80005	5993.125
1102.45857	5892.025
1106.11456	5815.525
1109.76805	5769.325
1113.41903	5811.325
1117.06751	5932.225
1120.71348	6145.725
1124.35696	6424.025
1127.99793	6626.325
1131.63641	6457.025
1135.2724	6193.925
1138.90589	5957.025
1142.5369	5853.325
1146.16542	5781.525
1149.79145	5751.425
1153.415	5689.325
1157.03607	5631.125
1160.65467	5676.125
1164.27079	5811.325
1167.88443	6021.225
1171.49561	6339.325
1175.10432	6876.125
1178.71056	7604.325
1182.31434	8233.725
1185.91565	8373.625
1189.51451	8209.225
1193.11091	7905.725
1196.70485	7659.525
1200.29634	7464.325
1203.88538	7234.925
1207.47197	6914.825
1211.05612	6615.825
1214.63782	6405.625
1218.21708	6212.825
1221.79391	6069.125
1225.36829	5997.725
1228.94024	5988.825
1232.50976	5960.125
1236.07685	5978.725
1239.6415	6007.425
1243.20374	6006.125
1246.76355	6068.525
1250.32093	6145.925
1253.8759	6266.425
1257.42845	6468.025
1260.97859	6690.525
1264.52631	6873.525
1268.07163	7004.625
1271.61453	7063.725
1275.15503	7083.125
1278.69312	7096.425
1282.22882	7089.925
1285.76211	7218.125
1289.29301	7420.825
1292.82151	7605.225
1296.34761	7795.025
1299.87133	8117.025
1303.39266	8666.225
1306.9116	9526.525
1310.42815	10431.425
1313.94233	10674.025
1317.45412	10094.625
1320.96354	9228.425
1324.47058	8472.625
1327.97525	7871.325
1331.47754	7526.825
1334.97747	7467.425
1338.47502	7593.125
1341.97022	7912.525
1345.46305	8480.325
1348.95352	9301.225
1352.44163	10252.125
1355.92738	11282.525
1359.41078	12628.425
1362.89183	13776.925
1366.37053	13203.125
1369.84688	11011.325
1373.32088	8999.125
1376.79254	7887.925
1380.26186	7365.825
1383.72883	7058.425
1387.19347	6776.525
1390.65578	6515.125
1394.11575	6291.325
1397.57339	6153.425
1401.0287	6039.425
1404.48168	5990.425
1407.93234	5989.925
1411.38068	6053.425
1414.82669	6133.725
1418.27039	6154.025
1421.71177	6152.225
1425.15083	6080.125
1428.58758	6028.425
1432.02203	6067.825
1435.45416	6133.325
1438.88399	6162.825
1442.31151	6191.525
1445.73673	6229.125
1449.15965	6293.425
1452.58027	6248.525
1455.9986	6188.725
1459.41463	6162.625
1462.82837	6222.625
1466.23982	6347.325
1469.64898	6509.725
1473.05586	6626.525
1476.46045	6720.025
1479.86276	6742.525
1483.26279	6866.125
1486.66054	7033.525
1490.05602	7284.025
1493.44922	7693.925
1496.84016	8413.625
1500.22882	9410.725
1503.61521	10744.025
1506.99934	12117.025
1510.38121	12949.625
1513.76081	12749.225
1517.13816	11556.125
1520.51324	9993.925
1523.88607	8730.725
1527.25665	7931.225
1530.62498	7570.325
1533.99105	7375.425
1537.35488	7278.825
1540.71647	7199.525
1544.07581	7132.225
1547.4329	7037.025
1550.78776	6929.725
1554.14038	6875.625
1557.49077	6891.325
1560.83892	6975.925
1564.18484	7204.925
1567.52853	7493.125
1570.86999	7748.825
1574.20922	7814.725
1577.54624	7681.425
1580.88103	7241.825
1584.2136	6733.025
1587.54395	6428.725
1590.87208	6384.725
1594.19801	6580.225
1597.52172	6864.625
1600.84321	6970.225
1604.16251	6890.425
1607.47959	6745.925
1610.79447	6514.225
1614.10715	6221.925
1617.41763	5918.225
1620.7259	5707.425
1624.03199	5571.725
1627.33587	5548.625
1630.63757	5610.725
1633.93707	5793.725
1637.23439	6141.625
1640.52951	6715.025
1643.82246	7581.725
1647.11321	8532.525
1650.40179	9122.825
1653.68819	8842.025
1656.97241	7787.225
1660.25446	6655.125
1663.53433	5844.725
1666.81203	5377.525
1670.08756	5102.025
1673.36092	4938.325
1676.63211	4831.525
1679.90115	4756.925
1683.16801	4697.725
1686.43272	4658.725
1689.69527	4617.725
1692.95567	4581.525
1696.2139	4594.125
1699.46999	4574.325
1702.72392	4541.525
1705.97571	4553.825
1709.22535	4549.125
1712.47284	4558.925
1715.71819	4549.925
1718.96139	4552.925
1722.20246	4521.525
1725.44139	4501.925
1728.67818	4480.725
1731.91284	4463.825
1735.14537	4433.925
1738.37576	4412.125
1741.60403	4397.725
1744.83017	4385.125
1748.05418	4377.625
1751.27607	4372.425
1754.49584	4339.625
1757.71349	4324.925
1760.92903	4336.025
1764.14244	4327.425
1767.35375	4320.225
1770.56294	4295.625
1773.77002	4282.725
1776.97499	4263.725
1780.17785	4248.725
1783.37861	4236.125
1786.57727	4231.225
1789.77382	4215.125
1792.96828	4209.525
1796.16064	4198.525
1799.3509	4209.825
1802.53907	4199.125
1805.72514	4189.225
1808.90913	4163.325
1812.09102	4167.325
1815.27083	4142.425
1818.44856	4146.225
1821.6242	4131.725
1824.79776	4125.925
1827.96924	4103.625
1831.13864	4097.825
1834.30597	4079.625
1837.47122	4076.725
1840.6344	4083.225
1843.7955	4086.925
1846.95454	4067.625
1850.11151	4070.625
1853.26642	4068.025
1856.41926	4062.025
1859.57004	4075.825
1862.71876	4065.725
1865.86542	4051.525
1869.01003	4055.525
1872.15258	4048.625
1875.29308	4041.225
1878.43152	4037.525
1881.56792	4028.225
1884.70227	4030.825
1887.83457	4013.225
1890.96482	4013.625
1894.09304	4010.725
1897.21921	4002.425
1900.34335	3974.725
1903.46544	3987.425
1906.58551	3972.825
1909.70353	3968.525
1912.81953	3953.925
1915.93349	3954.725
1919.04543	3957.825
1922.15534	3943.225
1925.26322	3931.725
1928.36908	3928.425
1931.47292	3925.125
1934.57473	3899.025
1937.67453	3892.425
1940.77232	3884.325
1943.86808	3869.125
1946.96184	3863.325
1950.05358	3845.825
1953.14331	3835.825
1956.23103	3822.125
1959.31675	3824.125
1962.40046	3802.625
1965.48217	3794.925
1968.56188	3789.525
1971.63959	3785.025
1974.7153	3769.525
1977.78901	3763.725
1980.86073	3746.125
1983.93046	3728.425
1986.99819	3721.825
1990.06394	3701.925
1993.1277	3692.925
1996.18947	3691.525
1999.24925	3664.325
2002.30706	3652.325
2005.36288	3628.725
2008.41672	3620.125
2011.46859	3626.225
2014.51848	3605.925
2017.56639	3597.925
2020.61233	3602.225
2023.6563	3571.825
2026.6983	3559.625
2029.73833	3532.925
2032.7764	3529.425
2035.8125	3527.625
2038.84664	3521.525
2041.87881	3509.925
2044.90903	3492.225
2047.93729	3494.925
2050.96359	3493.625
2053.98794	3486.925
2057.01034	3472.025
2060.03078	3472.825
2063.04927	3491.325
2066.06582	3471.925
2069.08042	3466.725
2072.09307	3453.625
2075.10378	3442.025
2078.11255	3439.325
2081.11938	3456.125
2084.12426	3457.225
2087.12722	3448.925
2090.12824	3448.825
2093.12732	3457.125
2096.12447	3457.125
2099.11969	3451.325
2102.11299	3453.025
2105.10435	3461.125
2108.09379	3454.125
2111.08131	3462.025
2114.0669	3442.925
2117.05057	3451.725
2120.03233	3455.225
2123.01216	3463.425
2125.99008	3453.725
2128.96609	3481.325
2131.94018	3473.625
2134.91236	3476.025
2137.88263	3463.225
2140.851	3456.725
2143.81746	3473.925
2146.78201	3459.025
2149.74466	3456.225
2152.7054	3453.125
2155.66425	3441.825
2158.6212	3448.525
2161.57625	3443.125
2164.52941	3435.125
2167.48067	3445.925
2170.43004	3444.825
2173.37752	3439.225
2176.32311	3438.225
2179.26681	3444.225
2182.20863	3439.225
2185.14856	3445.925
2188.08661	3431.925
2191.02278	3436.925
2193.95707	3435.025
2196.88948	3427.525
2199.82001	3429.825
2202.74867	3404.325
2205.67545	3408.025
2208.60037	3405.925
2211.52341	3401.525
2214.44458	3394.725
2217.36388	3385.525
2220.28132	3389.025
2223.1969	3360.625
2226.11061	3358.025
2229.02246	3339.725
2231.93245	3339.625
2234.84058	3362.125
2237.74686	3333.325
2240.65128	3341.325
2243.55385	3323.325
2246.45456	3329.125
2249.35343	3317.025
2252.25044	3319.625
2255.14561	3317.325
2258.03893	3318.525
2260.93041	3322.825
2263.82004	3302.425
2266.70783	3291.425
2269.59378	3291.925
2272.4779	3284.625
2275.36017	3266.225
2278.24061	3259.125
2281.11922	3251.125
2283.996	3252.725
2286.87094	3241.225
2289.74405	3240.025
2292.61534	3245.825
2295.4848	3240.625
2298.35243	3232.825
2301.21824	3222.725
2304.08223	3225.725
2306.94439	3225.625
2309.80474	3220.825
2312.66327	3212.525
2315.51999	3203.825
2318.37489	3208.325
2321.22797	3206.125
2324.07925	3177.725
2326.92871	3182.225
2329.77637	3183.725
2332.62222	3152.225
2335.46626	3178.525
2338.3085	3163.025
2341.14893	3166.725
2343.98756	3155.825
2346.8244	3160.325
2349.65943	3164.925
2352.49267	3146.025
2355.32411	3147.625
2358.15376	3153.625
2360.98161	3165.825
2363.80768	3168.925
2366.63195	3152.325
2369.45444	3160.425
2372.27514	3152.725
2375.09405	3143.425
2377.91118	3145.725
2380.72652	3131.625
2383.54009	3115.325
2386.35187	3114.825
2389.16188	3109.125
2391.97011	3111.125
2394.77657	3090.325
2397.58125	3077.825
2400.38416	3070.125
2403.18529	3064.625
2405.98466	3059.325
2408.78226	3055.725
2411.57809	3050.125
2414.37216	3045.925
2417.16446	3030.625
2419.955	3048.825
2422.74378	3023.925
2425.5308	3030.725
2428.31606	3031.525
2431.09956	3037.725
2433.88131	3024.425
2436.6613	3022.625
2439.43954	3022.825
2442.21603	3025.925
2444.99077	3028.125
2447.76377	3017.525
2450.53501	3028.625
2453.30451	3011.025
2456.07226	3017.325
2458.83827	2999.825
2461.60254	3011.625
2464.36507	3011.425
2467.12586	2995.825
2469.88492	2998.625
2472.64224	3001.325
2475.39782	2994.525
2478.15167	2992.225
2480.90379	2995.225
2483.65417	3008.625
2486.40283	2999.225
2489.14976	3000.025
2491.89497	3008.725
2494.63845	3001.825
2497.3802	3006.425
2500.12024	2994.325
2502.85855	2984.425
2505.59514	2993.225
2508.33002	2973.725
2511.06318	2965.525
2513.79462	2959.825
2516.52435	2942.425
2519.25237	2940.425
2521.97867	2932.125
2524.70327	2922.525
2527.42616	2926.725
2530.14734	2916.425
2532.86681	2910.525
2535.58458	2926.225
2538.30065	2921.125
2541.01501	2912.725
2543.72768	2894.925
2546.43864	2904.325
2549.14791	2898.325
2551.85548	2900.225
2554.56136	2894.525
2557.26554	2886.425
2559.96803	2895.025
2562.66883	2875.925
2565.36794	2881.625
2568.06536	2871.925
2570.7611	2851.825
2573.45514	2853.725
2576.14751	2855.525
2578.83819	2835.625
2581.52719	2836.925
2584.21451	2833.325
2586.90015	2822.725
2589.58411	2821.425
2592.2664	2807.925
2594.94701	2809.625
2597.62594	2799.825
2600.30321	2804.725
2602.9788	2797.725
2605.65273	2781.125
2608.32498	2796.825
2610.99557	2794.325
2613.66449	2794.725
2616.33175	2772.025
2618.99734	2772.025
2621.66128	2768.825
2624.32355	2759.725
2626.98416	2752.225
2629.64311	2736.225
2632.30041	2741.025
2634.95605	2742.725
2637.61004	2733.325
2640.26238	2730.725
2642.91306	2725.825
2645.56209	2725.025
2648.20948	2722.225
2650.85521	2721.825
2653.4993	2724.625
2656.14175	2726.925
2658.78255	2724.725
2661.42171	2715.625
2664.05923	2720.325
2666.6951	2729.525
2669.32934	2721.825
2671.96194	2714.025
2674.59291	2705.625
2677.22224	2722.825
2679.84993	2727.525
2682.476	2719.125
2685.10043	2700.225
2687.72324	2705.725
2690.34441	2713.925
2692.96396	2713.525
2695.58188	2698.725
2698.19818	2708.325
2700.81285	2704.125
2703.4259	2694.725
2706.03733	2714.025
2708.64714	2704.825
2711.25533	2693.825
2713.86191	2689.725
2716.46687	2695.425
2719.07021	2693.225
2721.67194	2703.325
2724.27206	2697.425
2726.87057	2695.625
2729.46747	2686.125
2732.06276	2690.925
2734.65644	2690.025
2737.24852	2687.425
2739.83899	2675.525
2742.42786	2690.325
2745.01513	2668.525
2747.60079	2664.325
2750.18486	2670.725
2752.76733	2664.525
2755.3482	2654.625
2757.92747	2646.425
2760.50515	2639.125
2763.08123	2644.325
2765.65573	2629.325
2768.22863	2619.225
2770.79994	2619.125
2773.36967	2624.125
2775.9378	2620.725
2778.50435	2612.725
2781.06932	2621.025
2783.6327	2612.725
2786.1945	2599.325
2788.75471	2618.025
2791.31335	2591.025
2793.87041	2585.925
2796.42589	2583.025
2798.97979	2587.925
2801.53212	2581.725
2804.08288	2570.025
2806.63206	2575.625
2809.17967	2564.425
2811.72571	2571.725
2814.27018	2558.625
2816.81308	2549.725
2819.35442	2553.025
2821.89419	2548.825
2824.43239	2532.925
2826.96904	2531.425
2829.50412	2534.125
2832.03763	2524.425
2834.56959	2523.825
2837.1	2515.025
2839.62884	2505.325
2842.15613	2512.025
2844.68186	2514.325
2847.20604	2500.025
2849.72867	2500.725
2852.24974	2491.225
2854.76927	2487.425
2857.28724	2479.125
2859.80367	2480.925
2862.31855	2485.425
2864.83189	2494.225
2867.34368	2479.525
2869.85393	2484.125
2872.36264	2480.725
2874.8698	2479.325
2877.37543	2484.525
2879.87952	2467.025
2882.38207	2465.725
2884.88308	2454.225
2887.38256	2462.725
2889.88051	2447.625
2892.37692	2452.425
2894.8718	2438.825
2897.36515	2442.825
2899.85698	2436.525
2902.34727	2447.725
2904.83604	2455.225
2907.32328	2448.125
2909.809	2459.525
2912.29319	2465.125
2914.77587	2455.825
2917.25702	2469.225
2919.73665	2445.725
2922.21476	2458.425
2924.69136	2450.325
2927.16644	2443.025
2929.64	2434.325
2932.11205	2434.525
2934.58258	2420.525
2937.05161	2435.925
2939.51912	2432.425
2941.98513	2410.825
2944.44962	2415.425
2946.91261	2415.125
2949.37409	2419.325
2951.83407	2407.025
2954.29254	2414.525
2956.74951	2409.925
2959.20498	2403.525
2961.65895	2395.125
2964.11142	2397.525
2966.56239	2390.125
2969.01186	2390.325
2971.45984	2391.625
2973.90632	2395.225
2976.35131	2382.925
2978.7948	2386.225
2981.23681	2377.425
2983.67732	2372.225
2986.11635	2367.825
2988.55388	2364.025
2990.98993	2359.125
2993.4245	2351.525
2995.85758	2354.425
2998.28917	2356.025
3000.71928	2335.725
3003.14791	2339.925
3005.57506	2325.325
3008.00073	2318.725
3010.42493	2327.125
3012.84764	2310.725
3015.26888	2312.625
3017.68865	2311.925
3020.10694	2300.825
3022.52376	2296.825
3024.9391	2286.425
3027.35298	2279.225
3029.76539	2265.825
3032.17632	2264.625
3034.5858	2259.825
3036.9938	2258.125
3039.40034	2243.625
3041.80542	2250.425
3044.20903	2241.325
3046.61118	2236.125
3049.01187	2232.625
3051.4111	2227.425
3053.80888	2220.325
3056.20519	2222.625
3058.60005	2222.125
3060.99345	2226.025
3063.3854	2212.425
3065.7759	2204.325
3068.16494	2196.525
3070.55254	2189.425
3072.93868	2191.625
3075.32338	2185.025
3077.70662	2177.425
3080.08842	2161.125
3082.46878	2174.125
3084.84769	2161.125
3087.22515	2142.325
3089.60118	2157.325
3091.97576	2151.825
3094.3489	2154.525
3096.72061	2145.025
3099.09087	2153.325
3101.4597	2140.225
3103.82709	2142.525
3106.19305	2131.425
3108.55757	2141.925
3110.92066	2129.325
3113.28232	2132.425
3115.64255	2129.525
3118.00134	2124.125
3120.35871	2111.725
3122.71466	2108.725
3125.06917	2102.425
3127.42226	2102.425
3129.77393	2100.025
3132.12417	2089.425
3134.47299	2105.025
3136.82039	2081.825
3139.16636	2083.725
3141.51092	2086.425
3143.85406	2080.225
3146.19579	2079.025
3148.53609	2083.125
3150.87499	2076.025
3153.21246	2087.625
3155.54853	2093.425
3157.88318	2090.325
3160.21642	2079.325
3162.54826	2074.325
3164.87868	2089.225
3167.2077	2075.825
3169.5353	2065.325
3171.86151	2064.825
3174.18631	2065.625
3176.5097	2061.725
3178.83169	2059.725
3181.15228	2049.725
3183.47147	2059.125
3185.78926	2042.925
3188.10565	2039.825
3190.42065	2044.325
3192.73424	2033.625
3195.04645	2041.225
3197.35725	2033.425
3199.66667	2023.325
3201.97469	2038.025
3204.28132	2034.025
3206.58656	2024.025
3208.8904	2021.425
3211.19287	2032.125
3213.49394	2027.325
3215.79363	2036.425
3218.09193	2028.525
3220.38884	2027.725
3222.68438	2019.525
3224.97853	2016.725
3227.2713	2016.825
3229.56269	2009.525
3231.8527	2003.425
3234.14133	2002.025
3236.42858	1989.625
3238.71446	1994.925
