Data from AgNPs_UA_10uM_CRN_500uM_SU_RamanShift__86__13-19-40-271.txt Node

Date: Thu Aug 04 13:19:40 BST 2022
User: TCL
Spectrometer: QEP01345
Trigger mode: 4
Integration Time (sec): 1.000000E0
Scans to average: 10
Electric dark correction enabled: true
Nonlinearity correction enabled: false
Boxcar width: 0
XAxis mode: Raman Shifts
Number of Pixels in Spectrum: 1044
>>>>>Begin Spectral Data<<<<<
46.04893	-0.375
50.45542	-1.075
54.85868	0.825
59.25871	-0.175
63.6555	23.225
68.04907	21.525
72.43941	22.025
76.82654	24.825
81.21044	23.625
85.59113	27.325
89.96862	25.625
94.34289	27.725
98.71396	25.325
103.08183	29.325
107.4465	28.525
111.80798	28.125
116.16626	30.225
120.52136	33.425
124.87327	35.825
129.222	38.725
133.56755	39.125
137.90993	45.525
142.24913	46.125
146.58517	53.225
150.91804	64.925
155.24774	80.325
159.57429	95.325
163.89768	127.625
168.21792	170.925
172.53501	234.625
176.84895	333.625
181.15975	474.825
185.46741	665.225
189.77193	920.825
194.07331	1241.825
198.37157	1603.825
202.6667	1983.925
206.9587	2362.125
211.24758	2728.925
215.53334	3115.225
219.81599	3509.725
224.09553	3973.725
228.37195	4456.425
232.64527	4998.525
236.91549	5543.625
241.18261	6041.125
245.44663	6445.925
249.70755	6772.225
253.96539	7087.825
258.22014	7351.225
262.4718	7565.825
266.72039	7705.625
270.96589	7769.025
275.20832	7728.225
279.44768	7643.225
283.68397	7531.825
287.91719	7461.425
292.14735	7422.625
296.37445	7532.225
300.59849	7698.225
304.81948	7936.425
309.03742	8154.025
313.25231	8259.925
317.46415	8180.225
321.67296	7958.425
325.87872	7687.825
330.08145	7562.425
334.28114	7555.525
338.47781	7629.825
342.67145	7778.625
346.86207	7959.425
351.04966	8233.425
355.23424	8518.125
359.4158	8732.525
363.59435	8832.225
367.76989	8910.625
371.94243	8931.225
376.11196	8922.825
380.27849	8946.925
384.44203	9005.825
388.60257	9043.525
392.76012	9125.625
396.91468	9223.425
401.06626	9379.425
405.21485	9429.025
409.36047	9352.725
413.50311	9134.925
417.64277	8898.125
421.77947	8741.725
425.9132	8673.225
430.04396	8655.125
434.17176	8707.925
438.2966	8808.025
442.41849	8971.425
446.53742	9189.825
450.6534	9406.425
454.76644	9524.725
458.87653	9592.125
462.98368	9591.725
467.08789	9502.525
471.18916	9357.625
475.2875	9187.725
479.38291	9028.825
483.4754	8887.425
487.56496	8840.525
491.6516	8802.925
495.73531	8803.925
499.81612	8831.825
503.89401	8914.125
507.96899	8961.525
512.04106	8959.925
516.11023	9030.925
520.1765	9073.025
524.23987	9091.025
528.30034	9085.225
532.35792	9074.125
536.41261	8993.525
540.46441	8892.725
544.51333	8904.425
548.55936	8970.225
552.60252	9054.025
556.64279	9214.725
560.6802	9309.925
564.71473	9413.025
568.7464	9491.525
572.7752	9460.625
576.80114	9265.225
580.82422	9126.725
584.84444	9089.325
588.86181	9154.725
592.87633	9247.325
596.888	9418.525
600.89682	9808.025
604.9028	10806.125
608.90594	12764.625
612.90624	14600.925
616.90371	13502.225
620.89834	10846.425
624.89015	9839.625
628.87913	9823.925
632.86528	9883.725
636.84862	9913.925
640.82913	9652.025
644.80683	9325.425
648.78172	9107.225
652.75379	9153.625
656.72306	9393.925
660.68952	9677.925
664.65319	9608.225
668.61405	9550.325
672.57211	9629.625
676.52738	9608.125
680.47986	9417.525
684.42955	9210.325
688.37646	9221.325
692.32058	9306.625
696.26192	9473.825
700.20048	9626.225
704.13626	9665.025
708.06928	9533.825
711.99952	9421.925
715.927	9408.725
719.85171	9466.125
723.77365	9490.125
727.69284	9392.425
731.60928	9327.625
735.52295	9327.325
739.43388	9357.425
743.34206	9416.425
747.24749	9432.725
751.15017	9432.025
755.05012	9531.725
758.94733	9832.225
762.8418	10534.425
766.73354	11578.225
770.62254	12417.025
774.50882	12612.225
778.39237	12235.625
782.27321	11539.025
786.15132	10720.425
790.02671	10074.925
793.89938	9762.725
797.76935	9607.125
801.6366	9522.025
805.50115	9451.925
809.36299	9428.025
813.22213	9408.325
817.07857	9401.825
820.93231	9425.325
824.78336	9408.425
828.63172	9409.725
832.47738	9450.825
836.32036	9419.225
840.16066	9483.625
843.99827	9454.225
847.8332	9476.425
851.66546	9450.425
855.49504	9467.825
859.32195	9464.925
863.1462	9448.325
866.96777	9437.725
870.78668	9448.325
874.60293	9475.825
878.41652	9511.625
882.22745	9600.425
886.03573	9653.425
889.84136	9647.325
893.64433	9595.425
897.44466	9562.025
901.24235	9528.225
905.0374	9525.725
908.8298	9517.125
912.61957	9513.425
916.40671	9527.125
920.19121	9559.625
923.97308	9635.925
927.75233	9746.225
931.52895	9789.425
935.30295	9729.125
939.07433	9589.525
942.84309	9494.125
946.60924	9463.025
950.37278	9463.225
954.13371	9427.225
957.89203	9404.725
961.64774	9405.425
965.40086	9388.825
969.15137	9369.825
972.89929	9370.425
976.64461	9372.925
980.38733	9382.925
984.12747	9434.425
987.86502	9470.125
991.59999	9562.025
995.33237	9667.725
999.06217	9859.925
1002.78939	10060.925
1006.51404	10212.225
1010.23611	10308.225
1013.95561	10412.025
1017.67255	10473.525
1021.38692	10500.025
1025.09872	10468.625
1028.80796	10488.925
1032.51465	10605.425
1036.21877	10720.725
1039.92035	10721.525
1043.61937	10648.225
1047.31584	10546.125
1051.00976	10440.025
1054.70114	10394.625
1058.38998	10398.225
1062.07627	10427.725
1065.76003	10482.925
1069.44126	10572.225
1073.11995	10740.025
1076.79611	10929.025
1080.46974	11052.725
1084.14085	11139.225
1087.80943	11226.725
1091.47549	11250.125
1095.13903	11229.025
1098.80005	11226.325
1102.45857	11285.425
1106.11456	11271.825
1109.76805	11129.525
1113.41903	11097.725
1117.06751	11210.025
1120.71348	11384.025
1124.35696	11520.225
1127.99793	11647.325
1131.63641	11462.725
1135.2724	11203.825
1138.90589	10989.025
1142.5369	10808.225
1146.16542	10738.025
1149.79145	10665.425
1153.415	10581.325
1157.03607	10566.625
1160.65467	10654.425
1164.27079	10863.225
1167.88443	11225.825
1171.49561	11711.225
1175.10432	12452.725
1178.71056	13377.425
1182.31434	14254.825
1185.91565	14653.825
1189.51451	14639.525
1193.11091	14404.225
1196.70485	14036.025
1200.29634	13653.425
1203.88538	13198.325
1207.47197	12758.725
1211.05612	12309.925
1214.63782	11929.625
1218.21708	11704.525
1221.79391	11596.825
1225.36829	11605.925
1228.94024	11583.025
1232.50976	11542.525
1236.07685	11492.725
1239.6415	11482.125
1243.20374	11547.025
1246.76355	11615.425
1250.32093	11747.825
1253.8759	11939.825
1257.42845	12239.425
1260.97859	12570.925
1264.52631	12856.425
1268.07163	13115.525
1271.61453	13305.425
1275.15503	13414.725
1278.69312	13508.625
1282.22882	13600.825
1285.76211	13742.125
1289.29301	13844.825
1292.82151	14066.925
1296.34761	14314.525
1299.87133	14766.125
1303.39266	15560.625
1306.9116	16721.625
1310.42815	17888.525
1313.94233	18470.825
1317.45412	18078.625
1320.96354	17216.825
1324.47058	16283.925
1327.97525	15483.925
1331.47754	14990.525
1334.97747	14851.725
1338.47502	14996.225
1341.97022	15470.525
1345.46305	16194.525
1348.95352	17155.825
1352.44163	18232.225
1355.92738	19319.625
1359.41078	20523.825
1362.89183	21249.725
1366.37053	20223.025
1369.84688	17788.325
1373.32088	15571.825
1376.79254	14276.025
1380.26186	13682.225
1383.72883	13305.525
1387.19347	12999.125
1390.65578	12626.825
1394.11575	12298.825
1397.57339	12044.525
1401.0287	12023.025
1404.48168	12032.125
1407.93234	12123.225
1411.38068	12316.325
1414.82669	12467.325
1418.27039	12487.425
1421.71177	12463.325
1425.15083	12375.425
1428.58758	12322.125
1432.02203	12388.425
1435.45416	12502.925
1438.88399	12497.025
1442.31151	12422.225
1445.73673	12450.625
1449.15965	12401.325
1452.58027	12343.525
1455.9986	12263.525
1459.41463	12265.125
1462.82837	12363.225
1466.23982	12562.625
1469.64898	12785.525
1473.05586	12938.625
1476.46045	13105.225
1479.86276	13228.525
1483.26279	13383.825
1486.66054	13569.825
1490.05602	13884.525
1493.44922	14387.325
1496.84016	15111.325
1500.22882	16159.125
1503.61521	17403.025
1506.99934	18553.825
1510.38121	19223.625
1513.76081	18889.025
1517.13816	17707.625
1520.51324	16178.725
1523.88607	14956.125
1527.25665	14201.525
1530.62498	13848.325
1533.99105	13671.425
1537.35488	13586.425
1540.71647	13493.225
1544.07581	13373.425
1547.4329	13247.425
1550.78776	13084.625
1554.14038	12975.825
1557.49077	12919.225
1560.83892	13021.525
1564.18484	13228.825
1567.52853	13478.425
1570.86999	13606.525
1574.20922	13623.225
1577.54624	13449.525
1580.88103	13012.425
1584.2136	12573.725
1587.54395	12359.225
1590.87208	12539.625
1594.19801	13072.925
1597.52172	13706.225
1600.84321	14028.325
1604.16251	13920.925
1607.47959	13576.725
1610.79447	13083.825
1614.10715	12423.325
1617.41763	11796.025
1620.7259	11330.925
1624.03199	11084.525
1627.33587	11063.925
1630.63757	11213.225
1633.93707	11650.425
1637.23439	12387.325
1640.52951	13402.825
1643.82246	14671.725
1647.11321	15724.125
1650.40179	16014.725
1653.68819	15101.625
1656.97241	13478.225
1660.25446	11980.325
1663.53433	10924.525
1666.81203	10344.825
1670.08756	9987.825
1673.36092	9757.025
1676.63211	9634.025
1679.90115	9473.025
1683.16801	9400.025
1686.43272	9317.925
1689.69527	9257.125
1692.95567	9222.325
1696.2139	9200.425
1699.46999	9151.225
1702.72392	9136.125
1705.97571	9134.325
1709.22535	9137.225
1712.47284	9127.625
1715.71819	9148.025
1718.96139	9118.425
1722.20246	9113.525
1725.44139	9084.025
1728.67818	9017.525
1731.91284	8989.125
1735.14537	8944.125
1738.37576	8927.625
1741.60403	8878.925
1744.83017	8874.925
1748.05418	8863.325
1751.27607	8829.925
1754.49584	8819.525
1757.71349	8791.625
1760.92903	8811.325
1764.14244	8762.325
1767.35375	8754.425
1770.56294	8748.525
1773.77002	8726.525
1776.97499	8692.225
1780.17785	8682.025
1783.37861	8653.825
1786.57727	8631.425
1789.77382	8666.525
1792.96828	8640.825
1796.16064	8620.625
1799.3509	8618.525
1802.53907	8597.225
1805.72514	8602.625
1808.90913	8547.425
1812.09102	8519.725
1815.27083	8515.525
1818.44856	8501.025
1821.6242	8474.525
1824.79776	8472.625
1827.96924	8448.625
1831.13864	8436.525
1834.30597	8433.225
1837.47122	8403.825
1840.6344	8398.625
1843.7955	8379.325
1846.95454	8380.325
1850.11151	8391.325
1853.26642	8379.725
1856.41926	8358.325
1859.57004	8380.525
1862.71876	8389.225
1865.86542	8364.025
1869.01003	8349.125
1872.15258	8346.725
1875.29308	8349.925
1878.43152	8309.825
1881.56792	8329.625
1884.70227	8308.425
1887.83457	8306.325
1890.96482	8263.325
1894.09304	8236.925
1897.21921	8247.425
1900.34335	8218.925
1903.46544	8223.525
1906.58551	8220.025
1909.70353	8193.725
1912.81953	8207.525
1915.93349	8200.125
1919.04543	8151.825
1922.15534	8149.825
1925.26322	8155.725
1928.36908	8122.525
1931.47292	8102.625
1934.57473	8101.725
1937.67453	8074.225
1940.77232	8055.225
1943.86808	8039.425
1946.96184	8009.025
1950.05358	8000.025
1953.14331	7978.225
1956.23103	7941.125
1959.31675	7929.225
1962.40046	7885.425
1965.48217	7875.825
1968.56188	7826.425
1971.63959	7830.625
1974.7153	7825.525
1977.78901	7819.425
1980.86073	7789.825
1983.93046	7751.125
1986.99819	7692.125
1990.06394	7695.325
1993.1277	7668.125
1996.18947	7627.925
1999.24925	7613.325
2002.30706	7583.725
2005.36288	7559.725
2008.41672	7550.025
2011.46859	7513.425
2014.51848	7502.325
2017.56639	7466.325
2020.61233	7458.525
2023.6563	7445.325
2026.6983	7410.725
2029.73833	7399.125
2032.7764	7367.225
2035.8125	7351.725
2038.84664	7350.225
2041.87881	7318.925
2044.90903	7325.925
2047.93729	7308.425
2050.96359	7288.725
2053.98794	7275.025
2057.01034	7284.425
2060.03078	7268.725
2063.04927	7255.625
2066.06582	7277.725
2069.08042	7234.025
2072.09307	7238.725
2075.10378	7223.425
2078.11255	7220.725
2081.11938	7216.725
2084.12426	7203.025
2087.12722	7219.125
2090.12824	7206.025
2093.12732	7203.125
2096.12447	7204.325
2099.11969	7210.525
2102.11299	7215.025
2105.10435	7220.225
2108.09379	7215.425
2111.08131	7210.925
2114.0669	7216.625
2117.05057	7221.025
2120.03233	7252.525
2123.01216	7225.825
2125.99008	7232.125
2128.96609	7225.825
2131.94018	7236.025
2134.91236	7239.025
2137.88263	7231.925
2140.851	7222.825
2143.81746	7235.325
2146.78201	7225.025
2149.74466	7238.425
2152.7054	7232.525
2155.66425	7212.525
2158.6212	7235.725
2161.57625	7186.525
2164.52941	7225.025
2167.48067	7211.925
2170.43004	7203.625
2173.37752	7189.525
2176.32311	7196.925
2179.26681	7188.225
2182.20863	7205.325
2185.14856	7209.225
2188.08661	7212.425
2191.02278	7201.825
2193.95707	7190.525
2196.88948	7188.525
2199.82001	7163.725
2202.74867	7192.125
2205.67545	7183.825
2208.60037	7191.125
2211.52341	7173.125
2214.44458	7146.225
2217.36388	7133.225
2220.28132	7102.125
2223.1969	7100.625
2226.11061	7058.725
2229.02246	7051.825
2231.93245	7041.625
2234.84058	7028.725
2237.74686	7030.125
2240.65128	7004.825
2243.55385	6996.525
2246.45456	7006.225
2249.35343	6978.325
2252.25044	6956.625
2255.14561	6949.325
2258.03893	6957.925
2260.93041	6966.325
2263.82004	6940.225
2266.70783	6912.025
2269.59378	6899.825
2272.4779	6856.925
2275.36017	6849.025
2278.24061	6848.025
2281.11922	6831.425
2283.996	6812.525
2286.87094	6812.425
2289.74405	6804.125
2292.61534	6784.625
2295.4848	6761.925
2298.35243	6781.525
2301.21824	6770.025
2304.08223	6755.125
2306.94439	6764.725
2309.80474	6760.325
2312.66327	6760.725
2315.51999	6757.425
2318.37489	6726.925
2321.22797	6720.725
2324.07925	6705.725
2326.92871	6702.425
2329.77637	6713.825
2332.62222	6687.125
2335.46626	6688.625
2338.3085	6674.225
2341.14893	6686.225
2343.98756	6675.025
2346.8244	6688.425
2349.65943	6658.625
2352.49267	6651.325
2355.32411	6644.325
2358.15376	6636.225
2360.98161	6638.325
2363.80768	6650.225
2366.63195	6622.925
2369.45444	6621.125
2372.27514	6620.025
2375.09405	6592.225
2377.91118	6564.125
2380.72652	6561.925
2383.54009	6551.225
2386.35187	6536.025
2389.16188	6513.025
2391.97011	6519.725
2394.77657	6477.825
2397.58125	6482.625
2400.38416	6477.625
2403.18529	6476.025
2405.98466	6455.425
2408.78226	6434.825
2411.57809	6428.625
2414.37216	6421.425
2417.16446	6383.825
2419.955	6404.825
2422.74378	6402.025
2425.5308	6393.225
2428.31606	6395.025
2431.09956	6388.625
2433.88131	6365.925
2436.6613	6357.525
2439.43954	6357.125
2442.21603	6361.225
2444.99077	6358.525
2447.76377	6354.425
2450.53501	6359.325
2453.30451	6329.125
2456.07226	6327.125
2458.83827	6313.025
2461.60254	6295.325
2464.36507	6309.325
2467.12586	6267.925
2469.88492	6277.325
2472.64224	6297.525
2475.39782	6285.125
2478.15167	6294.325
2480.90379	6280.325
2483.65417	6265.225
2486.40283	6280.025
2489.14976	6287.525
2491.89497	6275.125
2494.63845	6280.225
2497.3802	6257.325
2500.12024	6243.925
2502.85855	6236.625
2505.59514	6245.925
2508.33002	6245.125
2511.06318	6209.225
2513.79462	6193.825
2516.52435	6176.025
2519.25237	6192.025
2521.97867	6161.825
2524.70327	6160.925
2527.42616	6134.025
2530.14734	6125.925
2532.86681	6128.725
2535.58458	6148.625
2538.30065	6152.025
2541.01501	6131.225
2543.72768	6150.025
2546.43864	6135.925
2549.14791	6118.025
2551.85548	6098.225
2554.56136	6104.625
2557.26554	6084.525
2559.96803	6087.225
2562.66883	6053.425
2565.36794	6033.125
2568.06536	6043.725
2570.7611	6006.325
2573.45514	6001.125
2576.14751	6010.525
2578.83819	5984.325
2581.52719	5992.325
2584.21451	5974.625
2586.90015	5971.625
2589.58411	5968.325
2592.2664	5941.625
2594.94701	5944.425
2597.62594	5945.825
2600.30321	5925.525
2602.9788	5923.525
2605.65273	5918.025
2608.32498	5918.125
2610.99557	5894.925
2613.66449	5900.225
2616.33175	5907.925
2618.99734	5888.925
2621.66128	5891.525
2624.32355	5864.725
2626.98416	5870.025
2629.64311	5851.025
2632.30041	5847.625
2634.95605	5850.925
2637.61004	5836.625
2640.26238	5819.925
2642.91306	5806.425
2645.56209	5822.825
2648.20948	5803.425
2650.85521	5815.725
2653.4993	5798.525
2656.14175	5796.325
2658.78255	5786.125
2661.42171	5783.825
2664.05923	5794.725
2666.6951	5798.325
2669.32934	5811.425
2671.96194	5795.025
2674.59291	5802.725
2677.22224	5786.125
2679.84993	5790.825
2682.476	5783.225
2685.10043	5804.925
2687.72324	5798.925
2690.34441	5796.125
2692.96396	5789.425
2695.58188	5778.225
2698.19818	5765.825
2700.81285	5764.125
2703.4259	5747.125
2706.03733	5755.825
2708.64714	5725.925
2711.25533	5738.625
2713.86191	5725.225
2716.46687	5734.325
2719.07021	5748.425
2721.67194	5743.625
2724.27206	5732.625
2726.87057	5732.225
2729.46747	5735.425
2732.06276	5725.025
2734.65644	5731.425
2737.24852	5720.825
2739.83899	5715.725
2742.42786	5692.325
2745.01513	5682.725
2747.60079	5675.425
2750.18486	5670.825
2752.76733	5677.125
2755.3482	5662.725
2757.92747	5644.525
2760.50515	5645.625
2763.08123	5645.025
2765.65573	5621.725
2768.22863	5623.625
2770.79994	5605.325
2773.36967	5607.725
2775.9378	5599.125
2778.50435	5601.925
2781.06932	5590.525
2783.6327	5583.525
2786.1945	5602.625
2788.75471	5593.625
2791.31335	5566.225
2793.87041	5530.325
2796.42589	5526.825
2798.97979	5524.325
2801.53212	5518.325
2804.08288	5501.225
2806.63206	5489.725
2809.17967	5483.525
2811.72571	5465.725
2814.27018	5456.725
2816.81308	5443.325
2819.35442	5439.025
2821.89419	5441.025
2824.43239	5419.425
2826.96904	5405.625
2829.50412	5425.625
2832.03763	5381.625
2834.56959	5378.325
2837.1	5386.225
2839.62884	5350.925
2842.15613	5355.025
2844.68186	5371.025
2847.20604	5355.725
2849.72867	5355.425
2852.24974	5321.525
2854.76927	5301.325
2857.28724	5293.425
2859.80367	5317.025
2862.31855	5308.825
2864.83189	5306.725
2867.34368	5310.025
2869.85393	5298.825
2872.36264	5269.725
2874.8698	5266.025
2877.37543	5269.125
2879.87952	5263.125
2882.38207	5249.125
2884.88308	5234.225
2887.38256	5258.825
2889.88051	5238.525
2892.37692	5243.325
2894.8718	5238.025
2897.36515	5242.325
2899.85698	5220.425
2902.34727	5242.825
2904.83604	5241.725
2907.32328	5263.125
2909.809	5251.825
2912.29319	5257.625
2914.77587	5259.425
2917.25702	5261.925
2919.73665	5257.625
2922.21476	5243.725
2924.69136	5233.925
2927.16644	5242.125
2929.64	5238.325
2932.11205	5204.025
2934.58258	5166.325
2937.05161	5188.425
2939.51912	5203.025
2941.98513	5210.425
2944.44962	5183.125
2946.91261	5170.125
2949.37409	5172.025
2951.83407	5168.425
2954.29254	5161.725
2956.74951	5154.025
2959.20498	5153.825
2961.65895	5164.125
2964.11142	5150.825
2966.56239	5144.025
2969.01186	5160.325
2971.45984	5145.025
2973.90632	5129.525
2976.35131	5110.625
2978.7948	5102.625
2981.23681	5106.325
2983.67732	5095.325
2986.11635	5066.625
2988.55388	5068.225
2990.98993	5054.225
2993.4245	5029.125
2995.85758	5012.625
2998.28917	5016.325
3000.71928	4996.425
3003.14791	4996.225
3005.57506	4978.525
3008.00073	4945.325
3010.42493	4935.625
3012.84764	4941.325
3015.26888	4922.825
3017.68865	4924.825
3020.10694	4906.925
3022.52376	4906.425
3024.9391	4880.925
3027.35298	4869.125
3029.76539	4867.925
3032.17632	4848.325
3034.5858	4863.925
3036.9938	4844.525
3039.40034	4829.925
3041.80542	4812.325
3044.20903	4785.225
3046.61118	4799.725
3049.01187	4772.325
3051.4111	4775.825
3053.80888	4769.725
3056.20519	4763.125
3058.60005	4736.725
3060.99345	4722.025
3063.3854	4719.025
3065.7759	4708.925
3068.16494	4692.125
3070.55254	4681.525
3072.93868	4663.825
3075.32338	4642.025
3077.70662	4640.725
3080.08842	4637.025
3082.46878	4636.125
3084.84769	4617.125
3087.22515	4604.225
3089.60118	4594.825
3091.97576	4608.225
3094.3489	4591.625
3096.72061	4590.625
3099.09087	4586.625
3101.4597	4582.925
3103.82709	4594.625
3106.19305	4567.725
3108.55757	4577.825
3110.92066	4566.825
3113.28232	4539.625
3115.64255	4546.925
3118.00134	4533.825
3120.35871	4523.425
3122.71466	4513.425
3125.06917	4507.325
3127.42226	4485.325
3129.77393	4485.125
3132.12417	4464.325
3134.47299	4452.125
3136.82039	4447.025
3139.16636	4464.325
3141.51092	4459.825
3143.85406	4442.625
3146.19579	4446.225
3148.53609	4455.725
3150.87499	4448.925
3153.21246	4436.025
3155.54853	4446.725
3157.88318	4436.625
3160.21642	4446.125
3162.54826	4432.625
3164.87868	4417.225
3167.2077	4427.425
3169.5353	4411.825
3171.86151	4396.825
3174.18631	4392.225
3176.5097	4379.425
3178.83169	4387.025
3181.15228	4373.225
3183.47147	4355.825
3185.78926	4360.325
3188.10565	4333.125
3190.42065	4329.925
3192.73424	4328.225
3195.04645	4315.725
3197.35725	4309.825
3199.66667	4294.125
3201.97469	4310.525
3204.28132	4319.525
3206.58656	4311.825
3208.8904	4294.725
3211.19287	4314.825
3213.49394	4307.825
3215.79363	4308.325
