Data from AgNPs_UA_10uM_CRN_500uM_SU_RamanShift__5__13-06-10-254.txt Node

Date: Thu Aug 04 13:06:10 BST 2022
User: TCL
Spectrometer: QEP01345
Trigger mode: 4
Integration Time (sec): 1.000000E0
Scans to average: 10
Electric dark correction enabled: true
Nonlinearity correction enabled: false
Boxcar width: 0
XAxis mode: Raman Shifts
Number of Pixels in Spectrum: 1044
>>>>>Begin Spectral Data<<<<<
46.04893	0.0625
50.45542	0.9625
54.85868	-0.5375
59.25871	0.2625
63.6555	17.6625
68.04907	18.6625
72.43941	16.6625
76.82654	18.8625
81.21044	18.9625
85.59113	20.8625
89.96862	21.5625
94.34289	21.2625
98.71396	21.3625
103.08183	23.8625
107.4465	23.1625
111.80798	23.3625
116.16626	23.7625
120.52136	26.7625
124.87327	28.8625
129.222	30.9625
133.56755	32.3625
137.90993	34.1625
142.24913	39.0625
146.58517	44.1625
150.91804	52.0625
155.24774	62.6625
159.57429	77.2625
163.89768	102.7625
168.21792	134.7625
172.53501	185.3625
176.84895	264.9625
181.15975	375.3625
185.46741	526.6625
189.77193	732.8625
194.07331	992.6625
198.37157	1291.5625
202.6667	1587.1625
206.9587	1896.7625
211.24758	2208.6625
215.53334	2515.2625
219.81599	2859.8625
224.09553	3238.8625
228.37195	3653.1625
232.64527	4093.4625
236.91549	4531.6625
241.18261	4927.1625
245.44663	5231.2625
249.70755	5467.1625
253.96539	5670.4625
258.22014	5853.7625
262.4718	6012.1625
266.72039	6095.9625
270.96589	6098.4625
275.20832	6047.6625
279.44768	5963.6625
283.68397	5867.0625
287.91719	5812.8625
292.14735	5821.1625
296.37445	5911.0625
300.59849	6102.2625
304.81948	6345.0625
309.03742	6587.1625
313.25231	6715.3625
317.46415	6664.4625
321.67296	6425.0625
325.87872	6159.4625
330.08145	6002.3625
334.28114	5978.9625
338.47781	6058.4625
342.67145	6174.5625
346.86207	6358.7625
351.04966	6626.9625
355.23424	6902.5625
359.4158	7079.1625
363.59435	7156.0625
367.76989	7119.8625
371.94243	7094.6625
376.11196	7054.5625
380.27849	7047.7625
384.44203	7071.1625
388.60257	7105.4625
392.76012	7148.3625
396.91468	7238.7625
401.06626	7363.1625
405.21485	7406.9625
409.36047	7318.0625
413.50311	7098.3625
417.64277	6886.4625
421.77947	6769.2625
425.9132	6678.2625
430.04396	6666.4625
434.17176	6687.8625
438.2966	6755.4625
442.41849	6848.1625
446.53742	6983.3625
450.6534	7117.1625
454.76644	7211.9625
458.87653	7255.7625
462.98368	7266.2625
467.08789	7225.7625
471.18916	7133.0625
475.2875	7000.8625
479.38291	6874.0625
483.4754	6778.5625
487.56496	6728.8625
491.6516	6719.4625
495.73531	6718.5625
499.81612	6761.4625
503.89401	6826.3625
507.96899	6878.4625
512.04106	6902.7625
516.11023	6954.7625
520.1765	6980.7625
524.23987	7017.0625
528.30034	6976.0625
532.35792	6966.7625
536.41261	6903.0625
540.46441	6808.4625
544.51333	6818.2625
548.55936	6872.6625
552.60252	6949.2625
556.64279	7071.3625
560.6802	7155.6625
564.71473	7244.4625
568.7464	7349.2625
572.7752	7274.3625
576.80114	7076.2625
580.82422	6911.3625
584.84444	6855.9625
588.86181	6838.4625
592.87633	6855.5625
596.888	6976.9625
600.89682	7299.2625
604.9028	8153.4625
608.90594	9892.0625
612.90624	11625.3625
616.90371	10758.9625
620.89834	8382.3625
624.89015	7400.4625
628.87913	7299.8625
632.86528	7459.2625
636.84862	7561.1625
640.82913	7374.9625
644.80683	7104.0625
648.78172	6956.5625
652.75379	6951.1625
656.72306	7184.0625
660.68952	7388.8625
664.65319	7331.3625
668.61405	7254.6625
672.57211	7305.1625
676.52738	7304.8625
680.47986	7133.8625
684.42955	6959.2625
688.37646	6913.9625
692.32058	6979.0625
696.26192	7098.4625
700.20048	7226.0625
704.13626	7243.0625
708.06928	7196.6625
711.99952	7097.7625
715.927	7084.5625
719.85171	7132.0625
723.77365	7135.5625
727.69284	7103.3625
731.60928	7051.0625
735.52295	7044.3625
739.43388	7074.9625
743.34206	7103.9625
747.24749	7098.9625
751.15017	7086.0625
755.05012	7162.6625
758.94733	7427.9625
762.8418	8091.3625
766.73354	9077.9625
770.62254	9780.1625
774.50882	9898.7625
778.39237	9651.9625
782.27321	9022.8625
786.15132	8239.4625
790.02671	7664.4625
793.89938	7361.4625
797.76935	7221.4625
801.6366	7120.4625
805.50115	7080.7625
809.36299	7045.0625
813.22213	7047.1625
817.07857	7041.8625
820.93231	7055.2625
824.78336	7054.8625
828.63172	7084.1625
832.47738	7097.0625
836.32036	7071.3625
840.16066	7041.3625
843.99827	7027.9625
847.8332	7045.5625
851.66546	7063.9625
855.49504	7074.9625
859.32195	7059.1625
863.1462	7078.1625
866.96777	7078.2625
870.78668	7071.9625
874.60293	7105.4625
878.41652	7108.4625
882.22745	7196.5625
886.03573	7230.3625
889.84136	7228.7625
893.64433	7194.5625
897.44466	7181.2625
901.24235	7178.6625
905.0374	7170.2625
908.8298	7130.8625
912.61957	7111.3625
916.40671	7135.5625
920.19121	7121.5625
923.97308	7176.1625
927.75233	7227.1625
931.52895	7292.5625
935.30295	7230.6625
939.07433	7113.8625
942.84309	7074.8625
946.60924	7034.3625
950.37278	6999.2625
954.13371	7018.6625
957.89203	7007.3625
961.64774	7009.4625
965.40086	7012.1625
969.15137	7001.7625
972.89929	6987.8625
976.64461	6997.6625
980.38733	7010.3625
984.12747	7014.9625
987.86502	7028.0625
991.59999	7053.2625
995.33237	7114.8625
999.06217	7149.0625
1002.78939	7222.4625
1006.51404	7372.7625
1010.23611	7477.8625
1013.95561	7549.9625
1017.67255	7566.6625
1021.38692	7565.0625
1025.09872	7509.0625
1028.80796	7423.2625
1032.51465	7391.7625
1036.21877	7408.0625
1039.92035	7419.0625
1043.61937	7484.4625
1047.31584	7518.5625
1051.00976	7540.8625
1054.70114	7548.0625
1058.38998	7581.1625
1062.07627	7616.1625
1065.76003	7677.5625
1069.44126	7751.5625
1073.11995	7899.3625
1076.79611	8053.3625
1080.46974	8173.2625
1084.14085	8250.5625
1087.80943	8346.0625
1091.47549	8385.3625
1095.13903	8401.0625
1098.80005	8454.6625
1102.45857	8534.3625
1106.11456	8491.9625
1109.76805	8343.0625
1113.41903	8281.7625
1117.06751	8370.8625
1120.71348	8530.1625
1124.35696	8688.4625
1127.99793	8830.9625
1131.63641	8672.3625
1135.2724	8408.9625
1138.90589	8183.0625
1142.5369	8069.8625
1146.16542	7990.3625
1149.79145	7924.8625
1153.415	7860.2625
1157.03607	7838.4625
1160.65467	7881.1625
1164.27079	8058.8625
1167.88443	8289.3625
1171.49561	8635.1625
1175.10432	9188.0625
1178.71056	9877.6625
1182.31434	10515.4625
1185.91565	10743.5625
1189.51451	10719.3625
1193.11091	10633.8625
1196.70485	10457.9625
1200.29634	10284.6625
1203.88538	10026.0625
1207.47197	9673.6625
1211.05612	9297.0625
1214.63782	8922.0625
1218.21708	8640.6625
1221.79391	8461.3625
1225.36829	8384.0625
1228.94024	8360.8625
1232.50976	8373.1625
1236.07685	8422.0625
1239.6415	8434.6625
1243.20374	8488.9625
1246.76355	8536.2625
1250.32093	8612.2625
1253.8759	8707.7625
1257.42845	8914.6625
1260.97859	9181.6625
1264.52631	9407.3625
1268.07163	9573.2625
1271.61453	9662.7625
1275.15503	9661.9625
1278.69312	9605.7625
1282.22882	9624.0625
1285.76211	9703.3625
1289.29301	9864.2625
1292.82151	10031.5625
1296.34761	10219.0625
1299.87133	10519.5625
1303.39266	11047.6625
1306.9116	11868.8625
1310.42815	12739.4625
1313.94233	13080.9625
1317.45412	12586.8625
1320.96354	11862.7625
1324.47058	11205.1625
1327.97525	10680.7625
1331.47754	10317.6625
1334.97747	10229.4625
1338.47502	10352.6625
1341.97022	10721.2625
1345.46305	11383.9625
1348.95352	12426.0625
1352.44163	13528.3625
1355.92738	14600.2625
1359.41078	15692.5625
1362.89183	16492.9625
1366.37053	15658.3625
1369.84688	13453.0625
1373.32088	11476.3625
1376.79254	10384.9625
1380.26186	9878.5625
1383.72883	9523.4625
1387.19347	9201.7625
1390.65578	8904.1625
1394.11575	8638.3625
1397.57339	8466.3625
1401.0287	8404.2625
1404.48168	8362.5625
1407.93234	8420.2625
1411.38068	8524.5625
1414.82669	8654.8625
1418.27039	8718.0625
1421.71177	8687.6625
1425.15083	8615.6625
1428.58758	8499.4625
1432.02203	8504.4625
1435.45416	8501.3625
1438.88399	8477.1625
1442.31151	8459.7625
1445.73673	8509.2625
1449.15965	8534.0625
1452.58027	8508.8625
1455.9986	8518.0625
1459.41463	8511.6625
1462.82837	8567.7625
1466.23982	8756.8625
1469.64898	8946.5625
1473.05586	9127.2625
1476.46045	9207.9625
1479.86276	9301.8625
1483.26279	9438.3625
1486.66054	9607.3625
1490.05602	9904.4625
1493.44922	10350.8625
1496.84016	11068.3625
1500.22882	12077.3625
1503.61521	13291.4625
1506.99934	14479.1625
1510.38121	15165.1625
1513.76081	14990.6625
1517.13816	13833.0625
1520.51324	12353.6625
1523.88607	11144.3625
1527.25665	10430.0625
1530.62498	10080.2625
1533.99105	9914.6625
1537.35488	9837.7625
1540.71647	9737.6625
1544.07581	9638.2625
1547.4329	9538.1625
1550.78776	9424.9625
1554.14038	9308.0625
1557.49077	9270.2625
1560.83892	9373.0625
1564.18484	9557.4625
1567.52853	9799.8625
1570.86999	10009.8625
1574.20922	10078.1625
1577.54624	9972.7625
1580.88103	9575.2625
1584.2136	9103.3625
1587.54395	8794.6625
1590.87208	8780.6625
1594.19801	8993.8625
1597.52172	9297.7625
1600.84321	9405.6625
1604.16251	9335.7625
1607.47959	9198.6625
1610.79447	8999.2625
1614.10715	8687.8625
1617.41763	8342.9625
1620.7259	8069.7625
1624.03199	7908.0625
1627.33587	7841.2625
1630.63757	7895.4625
1633.93707	8079.5625
1637.23439	8495.0625
1640.52951	9153.2625
1643.82246	10098.5625
1647.11321	11059.9625
1650.40179	11568.7625
1653.68819	11144.1625
1656.97241	9989.9625
1660.25446	8806.8625
1663.53433	7996.6625
1666.81203	7506.5625
1670.08756	7203.2625
1673.36092	7041.1625
1676.63211	6920.7625
1679.90115	6833.6625
1683.16801	6791.6625
1686.43272	6690.8625
1689.69527	6669.1625
1692.95567	6617.7625
1696.2139	6592.5625
1699.46999	6587.8625
1702.72392	6566.0625
1705.97571	6576.6625
1709.22535	6554.1625
1712.47284	6563.5625
1715.71819	6566.3625
1718.96139	6540.0625
1722.20246	6540.8625
1725.44139	6538.5625
1728.67818	6496.9625
1731.91284	6459.2625
1735.14537	6417.0625
1738.37576	6381.5625
1741.60403	6387.7625
1744.83017	6355.6625
1748.05418	6345.0625
1751.27607	6332.8625
1754.49584	6312.6625
1757.71349	6297.0625
1760.92903	6286.7625
1764.14244	6285.0625
1767.35375	6252.3625
1770.56294	6261.6625
1773.77002	6227.1625
1776.97499	6223.9625
1780.17785	6183.3625
1783.37861	6162.5625
1786.57727	6169.6625
1789.77382	6173.2625
1792.96828	6165.7625
1796.16064	6135.3625
1799.3509	6129.1625
1802.53907	6134.9625
1805.72514	6109.0625
1808.90913	6078.8625
1812.09102	6059.6625
1815.27083	6060.7625
1818.44856	6020.9625
1821.6242	6020.6625
1824.79776	6016.0625
1827.96924	6000.6625
1831.13864	5990.7625
1834.30597	5978.0625
1837.47122	5978.8625
1840.6344	5938.4625
1843.7955	5944.6625
1846.95454	5932.9625
1850.11151	5937.1625
1853.26642	5937.5625
1856.41926	5934.0625
1859.57004	5948.3625
1862.71876	5933.5625
1865.86542	5913.2625
1869.01003	5919.2625
1872.15258	5899.9625
1875.29308	5892.4625
1878.43152	5879.8625
1881.56792	5885.6625
1884.70227	5864.2625
1887.83457	5848.6625
1890.96482	5832.3625
1894.09304	5812.1625
1897.21921	5822.4625
1900.34335	5827.9625
1903.46544	5797.4625
1906.58551	5797.7625
1909.70353	5785.9625
1912.81953	5791.2625
1915.93349	5765.5625
1919.04543	5759.9625
1922.15534	5735.1625
1925.26322	5740.7625
1928.36908	5698.6625
1931.47292	5713.6625
1934.57473	5679.9625
1937.67453	5685.6625
1940.77232	5667.0625
1943.86808	5623.8625
1946.96184	5619.0625
1950.05358	5616.2625
1953.14331	5589.5625
1956.23103	5566.8625
1959.31675	5545.1625
1962.40046	5540.4625
1965.48217	5512.6625
1968.56188	5514.1625
1971.63959	5497.7625
1974.7153	5465.8625
1977.78901	5476.0625
1980.86073	5454.9625
1983.93046	5418.0625
1986.99819	5393.4625
1990.06394	5399.2625
1993.1277	5364.2625
1996.18947	5336.8625
1999.24925	5329.4625
2002.30706	5305.5625
2005.36288	5276.2625
2008.41672	5267.8625
2011.46859	5250.4625
2014.51848	5244.5625
2017.56639	5204.8625
2020.61233	5204.1625
2023.6563	5184.4625
2026.6983	5158.8625
2029.73833	5147.5625
2032.7764	5150.0625
2035.8125	5135.0625
2038.84664	5122.5625
2041.87881	5097.3625
2044.90903	5074.4625
2047.93729	5097.0625
2050.96359	5074.2625
2053.98794	5067.3625
2057.01034	5044.7625
2060.03078	5051.3625
2063.04927	5042.4625
2066.06582	5032.2625
2069.08042	5017.8625
2072.09307	5021.9625
2075.10378	5009.6625
2078.11255	5015.1625
2081.11938	5007.8625
2084.12426	4976.4625
2087.12722	4978.6625
2090.12824	4980.5625
2093.12732	4971.8625
2096.12447	4991.6625
2099.11969	4983.6625
2102.11299	5003.2625
2105.10435	4990.2625
2108.09379	4990.8625
2111.08131	4986.8625
2114.0669	4986.2625
2117.05057	5005.8625
2120.03233	5017.5625
2123.01216	5013.2625
2125.99008	4995.0625
2128.96609	5006.8625
2131.94018	5006.3625
2134.91236	5013.4625
2137.88263	4982.5625
2140.851	4982.7625
2143.81746	5009.4625
2146.78201	4975.7625
2149.74466	4984.6625
2152.7054	4977.1625
2155.66425	4972.4625
2158.6212	4997.5625
2161.57625	4964.2625
2164.52941	4971.7625
2167.48067	4976.9625
2170.43004	4963.5625
2173.37752	4953.5625
2176.32311	4937.5625
2179.26681	4933.8625
2182.20863	4947.7625
2185.14856	4962.3625
2188.08661	4959.2625
2191.02278	4945.9625
2193.95707	4946.3625
2196.88948	4945.6625
2199.82001	4922.7625
2202.74867	4921.4625
2205.67545	4915.4625
2208.60037	4907.5625
2211.52341	4901.9625
2214.44458	4887.2625
2217.36388	4850.6625
2220.28132	4843.8625
2223.1969	4841.1625
2226.11061	4822.2625
2229.02246	4821.2625
2231.93245	4826.1625
2234.84058	4808.9625
2237.74686	4802.2625
2240.65128	4786.8625
2243.55385	4770.1625
2246.45456	4752.9625
2249.35343	4749.5625
2252.25044	4753.4625
2255.14561	4762.4625
2258.03893	4749.4625
2260.93041	4736.6625
2263.82004	4734.4625
2266.70783	4722.2625
2269.59378	4704.3625
2272.4779	4689.0625
2275.36017	4665.5625
2278.24061	4669.7625
2281.11922	4656.9625
2283.996	4640.4625
2286.87094	4627.9625
2289.74405	4649.3625
2292.61534	4625.1625
2295.4848	4588.8625
2298.35243	4585.3625
2301.21824	4585.2625
2304.08223	4573.1625
2306.94439	4568.6625
2309.80474	4571.4625
2312.66327	4574.8625
2315.51999	4558.6625
2318.37489	4555.6625
2321.22797	4554.5625
2324.07925	4522.7625
2326.92871	4523.0625
2329.77637	4498.2625
2332.62222	4501.3625
2335.46626	4490.7625
2338.3085	4477.3625
2341.14893	4488.8625
2343.98756	4481.1625
2346.8244	4476.7625
2349.65943	4458.4625
2352.49267	4447.8625
2355.32411	4465.4625
2358.15376	4456.9625
2360.98161	4451.8625
2363.80768	4466.9625
2366.63195	4447.3625
2369.45444	4452.0625
2372.27514	4445.0625
2375.09405	4438.5625
2377.91118	4441.0625
2380.72652	4411.3625
2383.54009	4405.2625
2386.35187	4407.4625
2389.16188	4392.0625
2391.97011	4367.1625
2394.77657	4344.5625
2397.58125	4345.1625
2400.38416	4342.9625
2403.18529	4327.4625
2405.98466	4324.7625
2408.78226	4310.0625
2411.57809	4287.3625
2414.37216	4293.5625
2417.16446	4275.8625
2419.955	4295.7625
2422.74378	4274.0625
2425.5308	4279.0625
2428.31606	4281.2625
2431.09956	4262.9625
2433.88131	4255.7625
2436.6613	4272.4625
2439.43954	4254.0625
2442.21603	4244.6625
2444.99077	4236.2625
2447.76377	4261.2625
2450.53501	4235.6625
2453.30451	4248.4625
2456.07226	4236.4625
2458.83827	4207.0625
2461.60254	4204.3625
2464.36507	4225.0625
2467.12586	4206.2625
2469.88492	4189.1625
2472.64224	4194.0625
2475.39782	4182.7625
2478.15167	4180.5625
2480.90379	4165.9625
2483.65417	4169.6625
2486.40283	4168.5625
2489.14976	4173.7625
2491.89497	4162.3625
2494.63845	4163.1625
2497.3802	4171.0625
2500.12024	4146.1625
2502.85855	4144.5625
2505.59514	4140.1625
2508.33002	4133.3625
2511.06318	4115.8625
2513.79462	4096.8625
2516.52435	4098.8625
2519.25237	4087.1625
2521.97867	4067.6625
2524.70327	4078.2625
2527.42616	4065.5625
2530.14734	4053.2625
2532.86681	4049.2625
2535.58458	4044.0625
2538.30065	4048.9625
2541.01501	4055.2625
2543.72768	4045.4625
2546.43864	4040.0625
2549.14791	4004.1625
2551.85548	4011.2625
2554.56136	4010.3625
2557.26554	4013.5625
2559.96803	3991.5625
2562.66883	3986.9625
2565.36794	3974.6625
2568.06536	3949.5625
2570.7611	3942.4625
2573.45514	3922.3625
2576.14751	3932.9625
2578.83819	3929.9625
2581.52719	3917.8625
2584.21451	3909.5625
2586.90015	3898.9625
2589.58411	3889.4625
2592.2664	3895.5625
2594.94701	3878.6625
2597.62594	3870.0625
2600.30321	3853.9625
2602.9788	3851.0625
2605.65273	3845.9625
2608.32498	3844.7625
2610.99557	3838.2625
2613.66449	3835.8625
2616.33175	3818.9625
2618.99734	3822.5625
2621.66128	3820.9625
2624.32355	3797.5625
2626.98416	3786.3625
2629.64311	3769.5625
2632.30041	3768.4625
2634.95605	3763.9625
2637.61004	3749.7625
2640.26238	3756.7625
2642.91306	3745.0625
2645.56209	3730.8625
2648.20948	3746.1625
2650.85521	3725.7625
2653.4993	3739.4625
2656.14175	3733.6625
2658.78255	3716.7625
2661.42171	3724.5625
2664.05923	3722.0625
2666.6951	3729.4625
2669.32934	3731.4625
2671.96194	3736.0625
2674.59291	3725.6625
2677.22224	3714.6625
2679.84993	3720.6625
2682.476	3718.0625
2685.10043	3736.0625
2687.72324	3705.7625
2690.34441	3719.2625
2692.96396	3708.8625
2695.58188	3704.4625
2698.19818	3717.9625
2700.81285	3706.0625
2703.4259	3694.3625
2706.03733	3685.5625
2708.64714	3686.2625
2711.25533	3677.6625
2713.86191	3676.9625
2716.46687	3686.4625
2719.07021	3693.5625
2721.67194	3673.2625
2724.27206	3674.4625
2726.87057	3675.9625
2729.46747	3677.2625
2732.06276	3674.8625
2734.65644	3669.6625
2737.24852	3643.4625
2739.83899	3658.3625
2742.42786	3637.6625
2745.01513	3625.5625
2747.60079	3625.0625
2750.18486	3618.1625
2752.76733	3625.6625
2755.3482	3601.2625
2757.92747	3607.2625
2760.50515	3595.4625
2763.08123	3591.8625
2765.65573	3572.7625
2768.22863	3566.6625
2770.79994	3565.4625
2773.36967	3547.0625
2775.9378	3555.1625
2778.50435	3537.9625
2781.06932	3544.7625
2783.6327	3528.9625
2786.1945	3522.8625
2788.75471	3523.5625
2791.31335	3519.5625
2793.87041	3516.1625
2796.42589	3497.5625
2798.97979	3499.1625
2801.53212	3487.3625
2804.08288	3475.9625
2806.63206	3474.8625
2809.17967	3465.3625
2811.72571	3457.5625
2814.27018	3459.3625
2816.81308	3450.2625
2819.35442	3444.3625
2821.89419	3438.9625
2824.43239	3419.6625
2826.96904	3415.2625
2829.50412	3415.8625
2832.03763	3398.0625
2834.56959	3382.6625
2837.1	3385.8625
2839.62884	3377.4625
2842.15613	3372.0625
2844.68186	3370.5625
2847.20604	3373.7625
2849.72867	3362.8625
2852.24974	3345.3625
2854.76927	3334.6625
2857.28724	3346.9625
2859.80367	3327.4625
2862.31855	3326.2625
2864.83189	3324.0625
2867.34368	3336.9625
2869.85393	3334.0625
2872.36264	3318.8625
2874.8698	3318.5625
2877.37543	3312.2625
2879.87952	3304.9625
2882.38207	3297.3625
2884.88308	3288.3625
2887.38256	3298.1625
2889.88051	3303.6625
2892.37692	3270.1625
2894.8718	3280.9625
2897.36515	3279.1625
2899.85698	3275.5625
2902.34727	3280.7625
2904.83604	3287.4625
2907.32328	3280.8625
2909.809	3276.5625
2912.29319	3284.6625
2914.77587	3279.4625
2917.25702	3297.4625
2919.73665	3275.2625
2922.21476	3294.2625
2924.69136	3291.8625
2927.16644	3284.6625
2929.64	3263.3625
2932.11205	3251.1625
2934.58258	3246.2625
2937.05161	3249.0625
2939.51912	3244.2625
2941.98513	3231.0625
2944.44962	3221.2625
2946.91261	3222.4625
2949.37409	3217.0625
2951.83407	3207.0625
2954.29254	3200.6625
2956.74951	3202.2625
2959.20498	3209.9625
2961.65895	3196.7625
2964.11142	3204.2625
2966.56239	3200.6625
2969.01186	3181.0625
2971.45984	3187.4625
2973.90632	3180.6625
2976.35131	3175.4625
2978.7948	3182.5625
2981.23681	3180.2625
2983.67732	3158.0625
2986.11635	3148.4625
2988.55388	3155.7625
2990.98993	3129.1625
2993.4245	3126.4625
2995.85758	3118.9625
2998.28917	3126.6625
3000.71928	3114.4625
3003.14791	3099.3625
3005.57506	3099.9625
3008.00073	3076.4625
3010.42493	3066.3625
3012.84764	3059.0625
3015.26888	3054.6625
3017.68865	3061.3625
3020.10694	3050.8625
3022.52376	3034.8625
3024.9391	3012.8625
3027.35298	3007.2625
3029.76539	3003.6625
3032.17632	3002.3625
3034.5858	2998.3625
3036.9938	2977.4625
3039.40034	2967.5625
3041.80542	2960.6625
3044.20903	2956.1625
3046.61118	2959.1625
3049.01187	2948.8625
3051.4111	2945.6625
3053.80888	2935.0625
3056.20519	2932.6625
3058.60005	2919.2625
3060.99345	2913.9625
3063.3854	2906.0625
3065.7759	2893.0625
3068.16494	2906.4625
3070.55254	2880.5625
3072.93868	2865.4625
3075.32338	2866.2625
3077.70662	2851.7625
3080.08842	2854.1625
3082.46878	2847.7625
3084.84769	2841.4625
3087.22515	2836.7625
3089.60118	2832.7625
3091.97576	2833.9625
3094.3489	2819.1625
3096.72061	2822.1625
3099.09087	2812.4625
3101.4597	2801.8625
3103.82709	2819.8625
3106.19305	2818.7625
3108.55757	2808.8625
3110.92066	2790.9625
3113.28232	2786.5625
3115.64255	2782.4625
3118.00134	2774.9625
3120.35871	2769.3625
3122.71466	2767.7625
