Data from AgNPs_UA_10uM_CRN_500uM_SU_RamanShift__69__13-16-50-267.txt Node

Date: Thu Aug 04 13:16:50 BST 2022
User: TCL
Spectrometer: QEP01345
Trigger mode: 4
Integration Time (sec): 1.000000E0
Scans to average: 10
Electric dark correction enabled: true
Nonlinearity correction enabled: false
Boxcar width: 0
XAxis mode: Raman Shifts
Number of Pixels in Spectrum: 1044
>>>>>Begin Spectral Data<<<<<
46.04893	0.1875
50.45542	-0.8125
54.85868	1.4875
59.25871	-1.1125
63.6555	23.2875
68.04907	21.7875
72.43941	22.9875
76.82654	24.3875
81.21044	24.4875
85.59113	27.7875
89.96862	28.7875
94.34289	27.5875
98.71396	30.1875
103.08183	31.7875
107.4465	29.6875
111.80798	30.6875
116.16626	33.9875
120.52136	34.8875
124.87327	37.4875
129.222	39.1875
133.56755	39.0875
137.90993	43.3875
142.24913	52.6875
146.58517	57.2875
150.91804	70.5875
155.24774	84.7875
159.57429	102.8875
163.89768	136.8875
168.21792	181.1875
172.53501	250.5875
176.84895	355.9875
181.15975	506.2875
185.46741	715.8875
189.77193	989.5875
194.07331	1334.8875
198.37157	1731.6875
202.6667	2141.0875
206.9587	2553.8875
211.24758	2957.1875
215.53334	3377.8875
219.81599	3816.5875
224.09553	4322.2875
228.37195	4863.8875
232.64527	5432.0875
236.91549	6017.7875
241.18261	6569.3875
245.44663	7025.7875
249.70755	7400.3875
253.96539	7739.9875
258.22014	8033.5875
262.4718	8243.1875
266.72039	8394.3875
270.96589	8430.8875
275.20832	8433.2875
279.44768	8302.4875
283.68397	8173.3875
287.91719	8090.2875
292.14735	8088.8875
296.37445	8165.6875
300.59849	8323.9875
304.81948	8564.1875
309.03742	8787.6875
313.25231	8874.2875
317.46415	8820.7875
321.67296	8588.8875
325.87872	8335.8875
330.08145	8206.8875
334.28114	8182.6875
338.47781	8277.7875
342.67145	8412.2875
346.86207	8614.4875
351.04966	8900.2875
355.23424	9198.5875
359.4158	9421.1875
363.59435	9538.9875
367.76989	9596.9875
371.94243	9619.7875
376.11196	9597.6875
380.27849	9660.3875
384.44203	9707.5875
388.60257	9788.6875
392.76012	9900.3875
396.91468	10001.4875
401.06626	10159.5875
405.21485	10226.3875
409.36047	10135.1875
413.50311	9918.1875
417.64277	9712.1875
421.77947	9570.2875
425.9132	9474.9875
430.04396	9440.2875
434.17176	9453.2875
438.2966	9549.6875
442.41849	9681.8875
446.53742	9850.2875
450.6534	10035.6875
454.76644	10193.1875
458.87653	10304.3875
462.98368	10377.3875
467.08789	10314.5875
471.18916	10167.4875
475.2875	9993.4875
479.38291	9831.0875
483.4754	9718.2875
487.56496	9670.0875
491.6516	9621.7875
495.73531	9636.9875
499.81612	9696.3875
503.89401	9780.5875
507.96899	9827.1875
512.04106	9836.2875
516.11023	9883.0875
520.1765	9914.8875
524.23987	9910.0875
528.30034	9905.9875
532.35792	9867.8875
536.41261	9846.6875
540.46441	9759.1875
544.51333	9747.9875
548.55936	9797.5875
552.60252	9907.4875
556.64279	10045.7875
560.6802	10177.1875
564.71473	10244.3875
568.7464	10317.4875
572.7752	10244.7875
576.80114	9995.0875
580.82422	9833.8875
584.84444	9770.2875
588.86181	9764.7875
592.87633	9815.8875
596.888	9973.4875
600.89682	10412.7875
604.9028	11461.6875
608.90594	13478.8875
612.90624	15380.4875
616.90371	14270.7875
620.89834	11577.6875
624.89015	10504.4875
628.87913	10407.2875
632.86528	10611.1875
636.84862	10756.1875
640.82913	10565.5875
644.80683	10199.4875
648.78172	9994.2875
652.75379	10008.6875
656.72306	10281.9875
660.68952	10561.5875
664.65319	10534.2875
668.61405	10499.1875
672.57211	10652.3875
676.52738	10633.9875
680.47986	10393.2875
684.42955	10123.7875
688.37646	10079.1875
692.32058	10135.1875
696.26192	10348.0875
700.20048	10559.6875
704.13626	10593.4875
708.06928	10476.6875
711.99952	10336.4875
715.927	10291.6875
719.85171	10368.6875
723.77365	10403.8875
727.69284	10306.8875
731.60928	10233.4875
735.52295	10221.7875
739.43388	10270.1875
743.34206	10287.5875
747.24749	10306.1875
751.15017	10280.5875
755.05012	10359.7875
758.94733	10640.2875
762.8418	11324.9875
766.73354	12385.0875
770.62254	13180.7875
774.50882	13436.5875
778.39237	13251.1875
782.27321	12654.6875
786.15132	11799.2875
790.02671	11084.2875
793.89938	10696.3875
797.76935	10504.3875
801.6366	10370.1875
805.50115	10315.0875
809.36299	10259.3875
813.22213	10288.0875
817.07857	10269.0875
820.93231	10265.2875
824.78336	10287.5875
828.63172	10306.8875
832.47738	10310.8875
836.32036	10296.2875
840.16066	10273.6875
843.99827	10278.3875
847.8332	10285.1875
851.66546	10316.7875
855.49504	10338.5875
859.32195	10347.4875
863.1462	10313.7875
866.96777	10328.3875
870.78668	10346.9875
874.60293	10390.0875
878.41652	10414.4875
882.22745	10485.6875
886.03573	10534.1875
889.84136	10533.9875
893.64433	10525.7875
897.44466	10469.1875
901.24235	10460.6875
905.0374	10444.8875
908.8298	10409.9875
912.61957	10402.5875
916.40671	10370.2875
920.19121	10403.5875
923.97308	10433.2875
927.75233	10494.2875
931.52895	10552.1875
935.30295	10510.3875
939.07433	10423.0875
942.84309	10317.6875
946.60924	10299.1875
950.37278	10277.4875
954.13371	10260.1875
957.89203	10252.0875
961.64774	10266.5875
965.40086	10267.3875
969.15137	10260.3875
972.89929	10245.0875
976.64461	10263.2875
980.38733	10237.6875
984.12747	10308.6875
987.86502	10309.5875
991.59999	10319.9875
995.33237	10391.0875
999.06217	10452.2875
1002.78939	10545.2875
1006.51404	10736.6875
1010.23611	10880.2875
1013.95561	11001.7875
1017.67255	11044.9875
1021.38692	11025.9875
1025.09872	10989.1875
1028.80796	10870.3875
1032.51465	10808.2875
1036.21877	10809.3875
1039.92035	10845.4875
1043.61937	10912.0875
1047.31584	10943.8875
1051.00976	11001.3875
1054.70114	10999.0875
1058.38998	11079.9875
1062.07627	11117.5875
1065.76003	11196.0875
1069.44126	11334.8875
1073.11995	11527.0875
1076.79611	11784.7875
1080.46974	11893.0875
1084.14085	12010.1875
1087.80943	12045.5875
1091.47549	12150.9875
1095.13903	12213.0875
1098.80005	12361.4875
1102.45857	12579.4875
1106.11456	12593.7875
1109.76805	12285.1875
1113.41903	12198.0875
1117.06751	12224.4875
1120.71348	12356.3875
1124.35696	12450.9875
1127.99793	12508.7875
1131.63641	12297.2875
1135.2724	12031.6875
1138.90589	11811.5875
1142.5369	11653.6875
1146.16542	11598.1875
1149.79145	11478.8875
1153.415	11386.5875
1157.03607	11352.6875
1160.65467	11379.4875
1164.27079	11556.7875
1167.88443	11883.5875
1171.49561	12325.4875
1175.10432	12948.5875
1178.71056	13754.8875
1182.31434	14474.0875
1185.91565	14755.8875
1189.51451	14834.6875
1193.11091	14809.8875
1196.70485	14647.8875
1200.29634	14393.2875
1203.88538	14029.2875
1207.47197	13601.3875
1211.05612	13137.3875
1214.63782	12709.9875
1218.21708	12359.6875
1221.79391	12144.9875
1225.36829	12018.0875
1228.94024	12000.9875
1232.50976	12016.2875
1236.07685	12097.9875
1239.6415	12148.8875
1243.20374	12216.3875
1246.76355	12300.5875
1250.32093	12330.2875
1253.8759	12500.3875
1257.42845	12770.6875
1260.97859	13091.8875
1264.52631	13396.2875
1268.07163	13586.6875
1271.61453	13701.3875
1275.15503	13672.5875
1278.69312	13665.9875
1282.22882	13618.0875
1285.76211	13660.3875
1289.29301	13777.1875
1292.82151	13942.4875
1296.34761	14164.3875
1299.87133	14483.7875
1303.39266	15073.9875
1306.9116	15964.4875
1310.42815	16849.0875
1313.94233	17252.0875
1317.45412	16856.6875
1320.96354	16204.2875
1324.47058	15527.2875
1327.97525	14930.7875
1331.47754	14501.7875
1334.97747	14333.8875
1338.47502	14499.1875
1341.97022	14975.4875
1345.46305	15839.0875
1348.95352	17062.4875
1352.44163	18357.2875
1355.92738	19451.6875
1359.41078	20444.0875
1362.89183	21006.1875
1366.37053	19975.5875
1369.84688	17679.5875
1373.32088	15530.6875
1376.79254	14353.8875
1380.26186	13764.6875
1383.72883	13373.9875
1387.19347	12990.1875
1390.65578	12607.2875
1394.11575	12308.3875
1397.57339	12025.1875
1401.0287	11927.2875
1404.48168	11934.3875
1407.93234	12008.6875
1411.38068	12229.6875
1414.82669	12425.7875
1418.27039	12471.9875
1421.71177	12482.4875
1425.15083	12384.3875
1428.58758	12239.1875
1432.02203	12186.1875
1435.45416	12138.3875
1438.88399	12084.0875
1442.31151	12048.8875
1445.73673	12076.0875
1449.15965	12090.1875
1452.58027	12064.6875
1455.9986	12068.5875
1459.41463	12085.1875
1462.82837	12131.1875
1466.23982	12345.3875
1469.64898	12565.0875
1473.05586	12772.3875
1476.46045	12926.1875
1479.86276	13075.9875
1483.26279	13248.2875
1486.66054	13447.9875
1490.05602	13847.1875
1493.44922	14350.4875
1496.84016	15225.6875
1500.22882	16332.4875
1503.61521	17654.8875
1506.99934	18751.2875
1510.38121	19269.5875
1513.76081	18878.6875
1517.13816	17657.0875
1520.51324	16180.9875
1523.88607	14915.4875
1527.25665	14184.6875
1530.62498	13774.6875
1533.99105	13595.2875
1537.35488	13548.9875
1540.71647	13408.7875
1544.07581	13305.4875
1547.4329	13174.5875
1550.78776	13002.2875
1554.14038	12902.6875
1557.49077	12859.3875
1560.83892	12992.3875
1564.18484	13241.0875
1567.52853	13490.6875
1570.86999	13712.9875
1574.20922	13808.9875
1577.54624	13673.7875
1580.88103	13241.5875
1584.2136	12729.3875
1587.54395	12404.6875
1590.87208	12400.1875
1594.19801	12650.3875
1597.52172	13026.7875
1600.84321	13126.3875
1604.16251	13059.4875
1607.47959	12927.3875
1610.79447	12668.5875
1614.10715	12230.7875
1617.41763	11777.6875
1620.7259	11457.1875
1624.03199	11231.3875
1627.33587	11158.6875
1630.63757	11202.7875
1633.93707	11445.6875
1637.23439	11959.9875
1640.52951	12768.2875
1643.82246	13890.2875
1647.11321	14990.0875
1650.40179	15472.6875
1653.68819	14867.4875
1656.97241	13494.2875
1660.25446	12173.2875
1663.53433	11258.7875
1666.81203	10729.3875
1670.08756	10348.7875
1673.36092	10180.6875
1676.63211	10072.2875
1679.90115	9932.4875
1683.16801	9849.5875
1686.43272	9770.3875
1689.69527	9703.2875
1692.95567	9679.1875
1696.2139	9634.5875
1699.46999	9598.0875
1702.72392	9585.1875
1705.97571	9580.2875
1709.22535	9566.5875
1712.47284	9579.9875
1715.71819	9592.3875
1718.96139	9589.3875
1722.20246	9579.6875
1725.44139	9544.8875
1728.67818	9472.9875
1731.91284	9419.2875
1735.14537	9388.8875
1738.37576	9368.5875
1741.60403	9338.3875
1744.83017	9281.8875
1748.05418	9276.3875
1751.27607	9278.1875
1754.49584	9238.3875
1757.71349	9231.7875
1760.92903	9224.6875
1764.14244	9203.0875
1767.35375	9169.2875
1770.56294	9164.2875
1773.77002	9145.0875
1776.97499	9104.8875
1780.17785	9080.5875
1783.37861	9053.9875
1786.57727	9051.6875
1789.77382	9023.8875
1792.96828	9017.2875
1796.16064	9006.3875
1799.3509	8983.4875
1802.53907	8972.8875
1805.72514	8965.6875
1808.90913	8921.4875
1812.09102	8914.3875
1815.27083	8907.8875
1818.44856	8859.4875
1821.6242	8832.9875
1824.79776	8796.6875
1827.96924	8800.2875
1831.13864	8780.8875
1834.30597	8779.9875
1837.47122	8751.2875
1840.6344	8737.6875
1843.7955	8734.3875
1846.95454	8734.3875
1850.11151	8719.9875
1853.26642	8712.1875
1856.41926	8703.5875
1859.57004	8723.5875
1862.71876	8715.4875
1865.86542	8692.7875
1869.01003	8671.1875
1872.15258	8663.1875
1875.29308	8649.1875
1878.43152	8643.2875
1881.56792	8607.6875
1884.70227	8570.4875
1887.83457	8572.4875
1890.96482	8552.9875
1894.09304	8534.9875
1897.21921	8527.0875
1900.34335	8523.9875
1903.46544	8495.3875
1906.58551	8511.4875
1909.70353	8473.4875
1912.81953	8485.7875
1915.93349	8464.0875
1919.04543	8430.1875
1922.15534	8405.4875
1925.26322	8384.1875
1928.36908	8352.7875
1931.47292	8359.9875
1934.57473	8349.5875
1937.67453	8332.3875
1940.77232	8295.8875
1943.86808	8255.9875
1946.96184	8230.6875
1950.05358	8231.2875
1953.14331	8210.8875
1956.23103	8162.3875
1959.31675	8153.7875
1962.40046	8102.4875
1965.48217	8077.7875
1968.56188	8069.7875
1971.63959	8041.6875
1974.7153	8012.7875
1977.78901	7997.7875
1980.86073	7981.3875
1983.93046	7954.9875
1986.99819	7881.3875
1990.06394	7905.6875
1993.1277	7864.8875
1996.18947	7817.3875
1999.24925	7797.3875
2002.30706	7756.1875
2005.36288	7735.3875
2008.41672	7722.5875
2011.46859	7688.4875
2014.51848	7667.3875
2017.56639	7628.8875
2020.61233	7604.9875
2023.6563	7570.1875
2026.6983	7574.1875
2029.73833	7540.5875
2032.7764	7531.6875
2035.8125	7498.8875
2038.84664	7464.6875
2041.87881	7472.6875
2044.90903	7442.7875
2047.93729	7446.0875
2050.96359	7413.3875
2053.98794	7420.6875
2057.01034	7396.0875
2060.03078	7409.0875
2063.04927	7362.5875
2066.06582	7355.7875
2069.08042	7334.7875
2072.09307	7333.9875
2075.10378	7350.3875
2078.11255	7308.1875
2081.11938	7298.6875
2084.12426	7297.9875
2087.12722	7295.9875
2090.12824	7283.4875
2093.12732	7295.4875
2096.12447	7288.6875
2099.11969	7299.5875
2102.11299	7296.1875
2105.10435	7287.2875
2108.09379	7290.5875
2111.08131	7285.5875
2114.0669	7275.3875
2117.05057	7302.0875
2120.03233	7313.2875
2123.01216	7308.8875
2125.99008	7301.1875
2128.96609	7297.4875
2131.94018	7307.4875
2134.91236	7308.6875
2137.88263	7298.0875
2140.851	7299.0875
2143.81746	7312.0875
2146.78201	7285.6875
2149.74466	7262.6875
2152.7054	7292.7875
2155.66425	7284.7875
2158.6212	7273.6875
2161.57625	7260.2875
2164.52941	7251.8875
2167.48067	7255.5875
2170.43004	7242.8875
2173.37752	7236.4875
2176.32311	7232.6875
2179.26681	7248.3875
2182.20863	7226.4875
2185.14856	7245.5875
2188.08661	7217.8875
2191.02278	7225.7875
2193.95707	7219.9875
2196.88948	7229.0875
2199.82001	7195.3875
2202.74867	7194.4875
2205.67545	7203.0875
2208.60037	7184.1875
2211.52341	7165.8875
2214.44458	7126.8875
2217.36388	7117.7875
2220.28132	7068.2875
2223.1969	7057.8875
2226.11061	7045.8875
2229.02246	7034.7875
2231.93245	7025.8875
2234.84058	7011.0875
2237.74686	6998.3875
2240.65128	6986.0875
2243.55385	6970.1875
2246.45456	6954.3875
2249.35343	6939.0875
2252.25044	6931.4875
2255.14561	6915.3875
2258.03893	6922.4875
2260.93041	6915.0875
2263.82004	6896.6875
2266.70783	6868.2875
2269.59378	6846.0875
2272.4779	6846.8875
2275.36017	6792.0875
2278.24061	6816.5875
2281.11922	6788.7875
2283.996	6749.1875
2286.87094	6740.3875
2289.74405	6742.5875
2292.61534	6745.5875
2295.4848	6709.4875
2298.35243	6698.7875
2301.21824	6700.0875
2304.08223	6691.2875
2306.94439	6672.6875
2309.80474	6659.0875
2312.66327	6655.4875
2315.51999	6649.5875
2318.37489	6645.1875
2321.22797	6603.9875
2324.07925	6600.6875
2326.92871	6590.1875
2329.77637	6596.6875
2332.62222	6556.8875
2335.46626	6522.7875
2338.3085	6542.6875
2341.14893	6560.1875
2343.98756	6525.9875
2346.8244	6521.4875
2349.65943	6509.6875
2352.49267	6479.5875
2355.32411	6483.3875
2358.15376	6478.8875
2360.98161	6483.9875
2363.80768	6476.4875
2366.63195	6471.7875
2369.45444	6477.1875
2372.27514	6477.8875
2375.09405	6446.8875
2377.91118	6445.6875
2380.72652	6428.6875
2383.54009	6396.6875
2386.35187	6399.2875
2389.16188	6386.5875
2391.97011	6362.0875
2394.77657	6326.3875
2397.58125	6317.5875
2400.38416	6300.9875
2403.18529	6297.0875
2405.98466	6287.1875
2408.78226	6257.9875
2411.57809	6272.2875
2414.37216	6241.1875
2417.16446	6231.5875
2419.955	6227.2875
2422.74378	6221.3875
2425.5308	6216.6875
2428.31606	6215.6875
2431.09956	6226.1875
2433.88131	6192.2875
2436.6613	6201.7875
2439.43954	6176.2875
2442.21603	6168.6875
2444.99077	6170.1875
2447.76377	6184.7875
2450.53501	6159.5875
2453.30451	6159.4875
2456.07226	6143.5875
2458.83827	6130.8875
2461.60254	6119.0875
2464.36507	6109.3875
2467.12586	6091.9875
2469.88492	6091.4875
2472.64224	6085.8875
2475.39782	6087.5875
2478.15167	6074.3875
2480.90379	6065.1875
2483.65417	6053.6875
2486.40283	6026.5875
2489.14976	6064.8875
2491.89497	6032.2875
2494.63845	6016.2875
2497.3802	6015.9875
2500.12024	6022.9875
2502.85855	5995.5875
2505.59514	5991.2875
2508.33002	5983.1875
2511.06318	5991.3875
2513.79462	5940.5875
2516.52435	5952.8875
2519.25237	5943.3875
2521.97867	5923.8875
2524.70327	5923.1875
2527.42616	5889.8875
2530.14734	5899.2875
2532.86681	5867.0875
2535.58458	5865.3875
2538.30065	5880.7875
2541.01501	5862.9875
2543.72768	5848.3875
2546.43864	5847.8875
2549.14791	5819.4875
2551.85548	5787.7875
2554.56136	5813.8875
2557.26554	5801.0875
2559.96803	5785.3875
2562.66883	5760.9875
2565.36794	5731.0875
2568.06536	5725.5875
2570.7611	5699.4875
2573.45514	5715.3875
2576.14751	5679.5875
2578.83819	5679.5875
2581.52719	5659.2875
2584.21451	5659.7875
2586.90015	5642.1875
2589.58411	5634.9875
2592.2664	5624.6875
2594.94701	5592.3875
2597.62594	5594.8875
2600.30321	5574.9875
2602.9788	5589.1875
2605.65273	5568.2875
2608.32498	5552.2875
2610.99557	5545.2875
2613.66449	5541.4875
2616.33175	5529.7875
2618.99734	5520.6875
2621.66128	5499.9875
2624.32355	5490.2875
2626.98416	5466.7875
2629.64311	5460.5875
2632.30041	5441.4875
2634.95605	5450.6875
2637.61004	5425.3875
2640.26238	5399.3875
2642.91306	5402.6875
2645.56209	5413.6875
2648.20948	5423.1875
2650.85521	5404.3875
2653.4993	5384.4875
2656.14175	5376.5875
2658.78255	5379.7875
2661.42171	5372.7875
2664.05923	5375.0875
2666.6951	5374.0875
2669.32934	5374.2875
2671.96194	5376.7875
2674.59291	5385.1875
2677.22224	5374.4875
2679.84993	5377.7875
2682.476	5360.8875
2685.10043	5374.1875
2687.72324	5358.2875
2690.34441	5360.1875
2692.96396	5353.9875
2695.58188	5342.4875
2698.19818	5328.2875
2700.81285	5341.7875
2703.4259	5333.8875
2706.03733	5310.4875
2708.64714	5305.0875
2711.25533	5318.0875
2713.86191	5301.6875
2716.46687	5309.0875
2719.07021	5301.5875
2721.67194	5314.7875
2724.27206	5306.2875
2726.87057	5307.3875
2729.46747	5286.9875
2732.06276	5293.1875
2734.65644	5296.5875
2737.24852	5281.3875
2739.83899	5265.0875
2742.42786	5252.7875
2745.01513	5248.1875
2747.60079	5232.3875
2750.18486	5231.2875
2752.76733	5223.8875
2755.3482	5198.5875
2757.92747	5187.2875
2760.50515	5194.9875
2763.08123	5175.4875
2765.65573	5149.5875
2768.22863	5156.2875
2770.79994	5138.5875
2773.36967	5116.2875
2775.9378	5106.6875
2778.50435	5117.9875
2781.06932	5117.2875
2783.6327	5098.3875
2786.1945	5085.9875
2788.75471	5071.9875
2791.31335	5060.7875
2793.87041	5054.9875
2796.42589	5048.3875
2798.97979	5031.1875
2801.53212	5022.9875
2804.08288	4995.9875
2806.63206	4989.4875
2809.17967	4987.3875
2811.72571	4979.9875
2814.27018	4971.0875
2816.81308	4956.7875
2819.35442	4936.5875
2821.89419	4927.1875
2824.43239	4907.6875
2826.96904	4904.1875
2829.50412	4902.6875
2832.03763	4872.6875
2834.56959	4881.9875
2837.1	4860.3875
2839.62884	4855.4875
2842.15613	4846.1875
2844.68186	4849.7875
2847.20604	4834.9875
2849.72867	4828.9875
2852.24974	4816.0875
2854.76927	4798.3875
2857.28724	4808.0875
2859.80367	4791.3875
2862.31855	4769.6875
2864.83189	4779.8875
2867.34368	4770.5875
2869.85393	4761.3875
2872.36264	4767.0875
2874.8698	4730.3875
2877.37543	4746.4875
2879.87952	4733.9875
2882.38207	4722.4875
2884.88308	4719.2875
2887.38256	4725.8875
2889.88051	4708.6875
2892.37692	4697.8875
2894.8718	4697.6875
2897.36515	4699.4875
2899.85698	4687.1875
2902.34727	4674.0875
2904.83604	4685.9875
2907.32328	4704.2875
2909.809	4685.9875
2912.29319	4708.8875
2914.77587	4700.2875
2917.25702	4702.1875
2919.73665	4705.6875
2922.21476	4686.3875
2924.69136	4674.2875
2927.16644	4669.9875
2929.64	4661.0875
2932.11205	4646.8875
2934.58258	4640.4875
2937.05161	4628.3875
2939.51912	4641.1875
2941.98513	4647.7875
2944.44962	4628.0875
2946.91261	4618.6875
2949.37409	4599.1875
2951.83407	4606.9875
2954.29254	4594.7875
2956.74951	4576.5875
2959.20498	4598.3875
2961.65895	4590.5875
2964.11142	4575.6875
2966.56239	4553.1875
2969.01186	4587.1875
2971.45984	4567.0875
2973.90632	4561.9875
2976.35131	4544.8875
2978.7948	4546.6875
2981.23681	4537.0875
2983.67732	4525.5875
2986.11635	4511.3875
2988.55388	4505.4875
2990.98993	4478.9875
2993.4245	4479.5875
2995.85758	4467.0875
2998.28917	4457.0875
3000.71928	4446.3875
3003.14791	4431.0875
3005.57506	4422.7875
3008.00073	4396.4875
3010.42493	4387.0875
3012.84764	4384.7875
3015.26888	4386.5875
3017.68865	4383.0875
3020.10694	4368.2875
3022.52376	4338.8875
3024.9391	4328.9875
3027.35298	4308.2875
3029.76539	4306.2875
3032.17632	4302.9875
3034.5858	4272.0875
3036.9938	4278.0875
3039.40034	4274.2875
3041.80542	4259.2875
3044.20903	4246.0875
3046.61118	4247.8875
3049.01187	4228.8875
3051.4111	4237.7875
3053.80888	4200.0875
3056.20519	4189.5875
3058.60005	4179.7875
3060.99345	4184.3875
3063.3854	4167.8875
3065.7759	4150.2875
3068.16494	4145.4875
3070.55254	4133.0875
3072.93868	4124.8875
3075.32338	4096.5875
3077.70662	4092.4875
3080.08842	4074.0875
3082.46878	4087.2875
3084.84769	4069.2875
3087.22515	4052.2875
3089.60118	4062.6875
3091.97576	4057.3875
3094.3489	4030.8875
