Data from AgNPs_UA_5uM_CRN_500uM_SU_RamanShift__218__12-05-43-183.txt Node

Date: Thu Aug 04 12:05:43 BST 2022
User: TCL
Spectrometer: QEP01345
Trigger mode: 4
Integration Time (sec): 1.000000E0
Scans to average: 10
Electric dark correction enabled: true
Nonlinearity correction enabled: false
Boxcar width: 0
XAxis mode: Raman Shifts
Number of Pixels in Spectrum: 1044
>>>>>Begin Spectral Data<<<<<
46.04893	-1.325
50.45542	0.475
54.85868	0.575
59.25871	-0.825
63.6555	-58.725
68.04907	-39.825
72.43941	-72.225
76.82654	-57.225
81.21044	-56.825
85.59113	-50.625
89.96862	-75.325
94.34289	-55.725
98.71396	-78.025
103.08183	-58.825
107.4465	-49.625
111.80798	-56.825
116.16626	-43.725
120.52136	-73.525
124.87327	-49.225
129.222	-61.725
133.56755	-49.625
137.90993	-64.425
142.24913	-51.925
146.58517	-43.625
150.91804	-41.825
155.24774	-28.525
159.57429	-12.925
163.89768	-6.825
168.21792	37.975
172.53501	55.075
176.84895	142.175
181.15975	268.575
185.46741	419.875
189.77193	595.475
194.07331	886.875
198.37157	1167.375
202.6667	1453.075
206.9587	1773.875
211.24758	2084.775
215.53334	2400.675
219.81599	2759.675
224.09553	3159.875
228.37195	3588.075
232.64527	4056.375
236.91549	4511.975
241.18261	4859.875
245.44663	5142.775
249.70755	5313.475
253.96539	5451.375
258.22014	5563.975
262.4718	5611.875
266.72039	5658.475
270.96589	5623.275
275.20832	5535.675
279.44768	5427.075
283.68397	5321.375
287.91719	5252.975
292.14735	5299.675
296.37445	5474.275
300.59849	5776.975
304.81948	6111.775
309.03742	6485.575
313.25231	6691.375
317.46415	6667.875
321.67296	6269.575
325.87872	5878.275
330.08145	5671.575
334.28114	5644.975
338.47781	5673.775
342.67145	5830.475
346.86207	6063.775
351.04966	6430.675
355.23424	6826.575
359.4158	7089.875
363.59435	7128.275
367.76989	7056.375
371.94243	6929.475
376.11196	6799.275
380.27849	6719.375
384.44203	6670.575
388.60257	6618.475
392.76012	6626.475
396.91468	6749.875
401.06626	6896.175
405.21485	6942.575
409.36047	6766.275
413.50311	6450.575
417.64277	6156.275
421.77947	5951.375
425.9132	5869.875
430.04396	5878.075
434.17176	5904.775
438.2966	5978.275
442.41849	6077.675
446.53742	6194.475
450.6534	6304.575
454.76644	6369.675
458.87653	6370.275
462.98368	6343.175
467.08789	6274.375
471.18916	6194.375
475.2875	6087.775
479.38291	5950.375
483.4754	5868.675
487.56496	5814.675
491.6516	5793.675
495.73531	5802.075
499.81612	5825.075
503.89401	5899.175
507.96899	5965.975
512.04106	6065.375
516.11023	6156.675
520.1765	6227.675
524.23987	6262.275
528.30034	6252.275
532.35792	6179.375
536.41261	6130.375
540.46441	6018.475
544.51333	5985.475
548.55936	6030.075
552.60252	6155.675
556.64279	6245.775
560.6802	6384.275
564.71473	6505.475
568.7464	6715.675
572.7752	6688.675
576.80114	6366.175
580.82422	6132.775
584.84444	6012.375
588.86181	6022.175
592.87633	6058.275
596.888	6177.475
600.89682	6537.775
604.9028	7515.975
608.90594	9614.775
612.90624	11946.575
616.90371	11103.375
620.89834	8012.375
624.89015	6676.775
628.87913	6481.275
632.86528	6611.975
636.84862	6790.475
640.82913	6666.275
644.80683	6302.875
648.78172	6102.775
652.75379	6143.075
656.72306	6387.775
660.68952	6621.475
664.65319	6545.775
668.61405	6293.575
672.57211	6239.975
676.52738	6223.575
680.47986	6122.975
684.42955	6035.875
688.37646	5979.375
692.32058	5971.775
696.26192	6066.075
700.20048	6145.575
704.13626	6205.975
708.06928	6141.575
711.99952	6146.275
715.927	6086.875
719.85171	6144.275
723.77365	6199.475
727.69284	6155.075
731.60928	6151.975
735.52295	6106.475
739.43388	6157.975
743.34206	6169.475
747.24749	6216.875
751.15017	6209.875
755.05012	6283.775
758.94733	6681.975
762.8418	7517.275
766.73354	8870.275
770.62254	9893.275
774.50882	9954.475
778.39237	9426.675
782.27321	8509.275
786.15132	7437.375
790.02671	6761.475
793.89938	6382.375
797.76935	6259.575
801.6366	6156.775
805.50115	6127.475
809.36299	6112.875
813.22213	6112.575
817.07857	6081.075
820.93231	6114.375
824.78336	6122.375
828.63172	6148.675
832.47738	6138.875
836.32036	6144.075
840.16066	6106.375
843.99827	6092.375
847.8332	6106.775
851.66546	6109.375
855.49504	6110.575
859.32195	6140.875
863.1462	6129.275
866.96777	6114.775
870.78668	6112.675
874.60293	6141.075
878.41652	6166.275
882.22745	6225.975
886.03573	6270.575
889.84136	6226.275
893.64433	6265.975
897.44466	6239.075
901.24235	6251.775
905.0374	6243.875
908.8298	6176.975
912.61957	6152.375
916.40671	6090.575
920.19121	6139.475
923.97308	6239.875
927.75233	6313.575
931.52895	6354.875
935.30295	6338.275
939.07433	6185.175
942.84309	6052.275
946.60924	6046.275
950.37278	5975.675
954.13371	5992.675
957.89203	5995.375
961.64774	6005.475
965.40086	6006.375
969.15137	5964.375
972.89929	5999.075
976.64461	5986.275
980.38733	6001.675
984.12747	6003.175
987.86502	6019.775
991.59999	6046.675
995.33237	6128.375
999.06217	6191.375
1002.78939	6271.475
1006.51404	6399.975
1010.23611	6507.975
1013.95561	6552.175
1017.67255	6577.875
1021.38692	6531.075
1025.09872	6466.375
1028.80796	6412.375
1032.51465	6379.975
1036.21877	6368.375
1039.92035	6437.575
1043.61937	6458.375
1047.31584	6504.975
1051.00976	6544.075
1054.70114	6540.475
1058.38998	6527.475
1062.07627	6540.275
1065.76003	6606.475
1069.44126	6647.075
1073.11995	6729.175
1076.79611	6838.375
1080.46974	6992.475
1084.14085	7178.275
1087.80943	7309.675
1091.47549	7346.775
1095.13903	7258.375
1098.80005	7142.675
1102.45857	7062.075
1106.11456	6999.075
1109.76805	6951.375
1113.41903	7066.775
1117.06751	7249.075
1120.71348	7511.075
1124.35696	7880.775
1127.99793	8179.175
1131.63641	8019.075
1135.2724	7600.975
1138.90589	7303.075
1142.5369	7114.975
1146.16542	7010.075
1149.79145	6888.675
1153.415	6843.775
1157.03607	6847.875
1160.65467	6952.075
1164.27079	7135.475
1167.88443	7408.575
1171.49561	7827.575
1175.10432	8445.875
1178.71056	9352.475
1182.31434	10159.075
1185.91565	10411.375
1189.51451	10270.975
1193.11091	10027.275
1196.70485	9761.675
1200.29634	9522.575
1203.88538	9220.275
1207.47197	8790.375
1211.05612	8305.375
1214.63782	7908.075
1218.21708	7646.175
1221.79391	7486.275
1225.36829	7406.975
1228.94024	7399.375
1232.50976	7435.475
1236.07685	7458.875
1239.6415	7477.675
1243.20374	7499.475
1246.76355	7534.075
1250.32093	7614.975
1253.8759	7662.275
1257.42845	7825.275
1260.97859	8047.975
1264.52631	8278.775
1268.07163	8444.475
1271.61453	8580.475
1275.15503	8638.475
1278.69312	8622.575
1282.22882	8691.075
1285.76211	8896.275
1289.29301	9140.375
1292.82151	9415.375
1296.34761	9644.075
1299.87133	10050.575
1303.39266	10741.075
1306.9116	11881.475
1310.42815	13133.375
1313.94233	13585.475
1317.45412	12786.575
1320.96354	11638.575
1324.47058	10625.375
1327.97525	9846.275
1331.47754	9453.075
1334.97747	9358.475
1338.47502	9477.875
1341.97022	9823.375
1345.46305	10577.075
1348.95352	11672.875
1352.44163	12978.175
1355.92738	14319.375
1359.41078	16020.675
1362.89183	17531.075
1366.37053	16908.575
1369.84688	14044.175
1373.32088	11329.675
1376.79254	9905.875
1380.26186	9225.775
1383.72883	8794.475
1387.19347	8405.975
1390.65578	8055.875
1394.11575	7816.975
1397.57339	7645.275
1401.0287	7519.475
1404.48168	7511.075
1407.93234	7517.175
1411.38068	7517.875
1414.82669	7618.575
1418.27039	7696.575
1421.71177	7675.975
1425.15083	7577.775
1428.58758	7495.775
1432.02203	7541.075
1435.45416	7610.375
1438.88399	7606.375
1442.31151	7607.675
1445.73673	7674.475
1449.15965	7719.475
1452.58027	7733.075
1455.9986	7735.175
1459.41463	7734.875
1462.82837	7849.075
1466.23982	8019.775
1469.64898	8244.375
1473.05586	8378.875
1476.46045	8473.975
1479.86276	8554.375
1483.26279	8662.775
1486.66054	8864.475
1490.05602	9136.975
1493.44922	9698.575
1496.84016	10587.175
1500.22882	11965.075
1503.61521	13702.875
1506.99934	15506.375
1510.38121	16745.375
1513.76081	16584.875
1517.13816	15019.375
1520.51324	12856.775
1523.88607	11153.275
1527.25665	10115.675
1530.62498	9632.375
1533.99105	9408.775
1537.35488	9303.175
1540.71647	9176.875
1544.07581	9043.475
1547.4329	8932.975
1550.78776	8797.075
1554.14038	8708.775
1557.49077	8680.875
1560.83892	8768.875
1564.18484	9036.075
1567.52853	9361.175
1570.86999	9668.375
1574.20922	9812.475
1577.54624	9699.575
1580.88103	9170.675
1584.2136	8491.275
1587.54395	8111.475
1590.87208	8046.475
1594.19801	8202.675
1597.52172	8555.475
1600.84321	8709.175
1604.16251	8572.875
1607.47959	8381.175
1610.79447	8179.675
1614.10715	7891.075
1617.41763	7609.475
1620.7259	7337.975
1624.03199	7192.175
1627.33587	7100.375
1630.63757	7169.775
1633.93707	7373.175
1637.23439	7823.575
1640.52951	8490.175
1643.82246	9500.675
1647.11321	10645.875
1650.40179	11372.775
1653.68819	11049.675
1656.97241	9783.875
1660.25446	8398.375
1663.53433	7395.475
1666.81203	6774.675
1670.08756	6447.275
1673.36092	6243.975
1676.63211	6125.675
1679.90115	6011.975
1683.16801	5945.475
1686.43272	5842.375
1689.69527	5804.775
1692.95567	5749.875
1696.2139	5730.775
1699.46999	5693.775
1702.72392	5666.575
1705.97571	5683.375
1709.22535	5670.675
1712.47284	5714.275
1715.71819	5721.075
1718.96139	5701.975
1722.20246	5674.975
1725.44139	5650.775
1728.67818	5639.675
1731.91284	5585.975
1735.14537	5545.375
1738.37576	5527.075
1741.60403	5487.575
1744.83017	5472.875
1748.05418	5477.575
1751.27607	5467.475
1754.49584	5436.975
1757.71349	5406.475
1760.92903	5412.375
1764.14244	5354.175
1767.35375	5366.875
1770.56294	5332.175
1773.77002	5325.775
1776.97499	5349.775
1780.17785	5332.475
1783.37861	5308.775
1786.57727	5334.075
1789.77382	5267.475
1792.96828	5296.175
1796.16064	5290.575
1799.3509	5276.975
1802.53907	5288.375
1805.72514	5247.875
1808.90913	5233.675
1812.09102	5211.075
1815.27083	5220.775
1818.44856	5193.375
1821.6242	5177.275
1824.79776	5188.475
1827.96924	5169.175
1831.13864	5143.875
1834.30597	5150.375
1837.47122	5131.775
1840.6344	5118.575
1843.7955	5106.275
1846.95454	5095.975
1850.11151	5118.075
1853.26642	5083.575
1856.41926	5076.875
1859.57004	5085.775
1862.71876	5082.775
1865.86542	5081.275
1869.01003	5086.775
1872.15258	5048.775
1875.29308	5072.975
1878.43152	5061.575
1881.56792	5046.075
1884.70227	5025.875
1887.83457	5025.075
1890.96482	4999.775
1894.09304	5006.575
1897.21921	4986.975
1900.34335	4997.875
1903.46544	4969.275
1906.58551	4989.275
1909.70353	4982.875
1912.81953	4981.375
1915.93349	4964.875
1919.04543	4963.875
1922.15534	4921.675
1925.26322	4931.775
1928.36908	4907.575
1931.47292	4927.775
1934.57473	4940.575
1937.67453	4883.075
1940.77232	4855.875
1943.86808	4858.175
1946.96184	4859.075
1950.05358	4831.875
1953.14331	4812.775
1956.23103	4809.975
1959.31675	4771.175
1962.40046	4734.475
1965.48217	4754.275
1968.56188	4743.375
1971.63959	4752.675
1974.7153	4734.775
1977.78901	4713.975
1980.86073	4688.975
1983.93046	4660.075
1986.99819	4592.375
1990.06394	4611.875
1993.1277	4618.175
1996.18947	4602.375
1999.24925	4566.275
2002.30706	4587.675
2005.36288	4574.375
2008.41672	4534.375
2011.46859	4508.575
2014.51848	4513.475
2017.56639	4483.575
2020.61233	4463.575
2023.6563	4470.175
2026.6983	4421.375
2029.73833	4448.475
2032.7764	4433.075
2035.8125	4396.975
2038.84664	4402.475
2041.87881	4384.575
2044.90903	4395.775
2047.93729	4378.875
2050.96359	4366.875
2053.98794	4364.975
2057.01034	4352.675
2060.03078	4333.075
2063.04927	4330.975
2066.06582	4331.175
2069.08042	4326.875
2072.09307	4326.775
2075.10378	4325.675
2078.11255	4311.675
2081.11938	4297.575
2084.12426	4304.975
2087.12722	4298.575
2090.12824	4290.375
2093.12732	4311.275
2096.12447	4309.375
2099.11969	4288.675
2102.11299	4300.075
2105.10435	4289.975
2108.09379	4305.075
2111.08131	4294.075
2114.0669	4293.675
2117.05057	4298.775
2120.03233	4293.175
2123.01216	4324.475
2125.99008	4301.775
2128.96609	4301.175
2131.94018	4322.975
2134.91236	4307.975
2137.88263	4289.175
2140.851	4309.275
2143.81746	4326.875
2146.78201	4309.175
2149.74466	4297.975
2152.7054	4310.575
2155.66425	4301.775
2158.6212	4304.475
2161.57625	4260.875
2164.52941	4244.875
2167.48067	4250.075
2170.43004	4261.375
2173.37752	4275.975
2176.32311	4271.375
2179.26681	4264.975
2182.20863	4275.575
2185.14856	4257.075
2188.08661	4273.175
2191.02278	4269.375
2193.95707	4248.775
2196.88948	4231.775
2199.82001	4243.475
2202.74867	4238.675
2205.67545	4236.375
2208.60037	4229.475
2211.52341	4233.675
2214.44458	4207.575
2217.36388	4198.875
2220.28132	4178.975
2223.1969	4166.075
2226.11061	4151.375
2229.02246	4154.275
2231.93245	4160.875
2234.84058	4137.875
2237.74686	4132.275
2240.65128	4118.975
2243.55385	4125.575
2246.45456	4110.175
2249.35343	4106.475
2252.25044	4106.375
2255.14561	4080.275
2258.03893	4097.175
2260.93041	4099.175
2263.82004	4082.475
2266.70783	4075.475
2269.59378	4059.875
2272.4779	4041.775
2275.36017	4037.475
2278.24061	4020.975
2281.11922	4000.475
2283.996	4007.075
2286.87094	3986.475
2289.74405	3998.275
2292.61534	3997.875
2295.4848	3963.875
2298.35243	3977.775
2301.21824	3965.475
2304.08223	3970.675
2306.94439	3968.675
2309.80474	3955.975
2312.66327	3954.475
2315.51999	3934.875
2318.37489	3936.775
2321.22797	3916.675
2324.07925	3913.475
2326.92871	3889.775
2329.77637	3892.975
2332.62222	3877.475
2335.46626	3859.775
2338.3085	3863.675
2341.14893	3881.075
2343.98756	3893.475
2346.8244	3850.775
2349.65943	3840.075
2352.49267	3846.475
2355.32411	3855.175
2358.15376	3852.675
2360.98161	3852.675
2363.80768	3817.375
2366.63195	3841.975
2369.45444	3835.375
2372.27514	3847.975
2375.09405	3870.275
2377.91118	3824.375
2380.72652	3820.375
2383.54009	3810.675
2386.35187	3810.075
2389.16188	3794.775
2391.97011	3772.575
2394.77657	3781.475
2397.58125	3771.475
2400.38416	3763.475
2403.18529	3731.475
2405.98466	3726.075
2408.78226	3730.475
2411.57809	3713.575
2414.37216	3701.975
2417.16446	3703.975
2419.955	3675.675
2422.74378	3720.375
2425.5308	3682.175
2428.31606	3685.875
2431.09956	3689.375
2433.88131	3667.575
2436.6613	3671.175
2439.43954	3664.075
2442.21603	3654.975
2444.99077	3641.975
2447.76377	3672.775
2450.53501	3647.175
2453.30451	3643.175
2456.07226	3651.375
2458.83827	3638.975
2461.60254	3594.475
2464.36507	3631.975
2467.12586	3619.175
2469.88492	3612.675
2472.64224	3616.175
2475.39782	3599.075
2478.15167	3616.575
2480.90379	3615.175
2483.65417	3624.475
2486.40283	3609.975
2489.14976	3625.875
2491.89497	3599.375
2494.63845	3610.775
2497.3802	3597.975
2500.12024	3599.975
2502.85855	3597.275
2505.59514	3599.375
2508.33002	3570.475
2511.06318	3546.975
2513.79462	3557.675
2516.52435	3525.675
2519.25237	3489.375
2521.97867	3492.975
2524.70327	3506.175
2527.42616	3504.975
2530.14734	3516.375
2532.86681	3485.875
2535.58458	3503.175
2538.30065	3474.875
2541.01501	3509.275
2543.72768	3463.975
2546.43864	3475.475
2549.14791	3463.875
2551.85548	3457.775
2554.56136	3443.375
2557.26554	3435.375
2559.96803	3442.575
2562.66883	3438.175
2565.36794	3414.075
2568.06536	3397.575
2570.7611	3435.175
2573.45514	3390.775
2576.14751	3394.675
2578.83819	3365.175
2581.52719	3363.475
2584.21451	3377.375
2586.90015	3356.675
2589.58411	3352.175
2592.2664	3344.475
2594.94701	3350.675
2597.62594	3341.375
2600.30321	3284.175
2602.9788	3295.475
2605.65273	3291.575
2608.32498	3294.975
2610.99557	3317.375
2613.66449	3279.075
2616.33175	3297.275
2618.99734	3299.575
2621.66128	3286.875
2624.32355	3267.175
2626.98416	3263.675
2629.64311	3234.075
2632.30041	3244.175
2634.95605	3245.375
2637.61004	3218.175
2640.26238	3200.575
2642.91306	3210.975
2645.56209	3232.275
2648.20948	3208.075
2650.85521	3210.575
2653.4993	3231.575
2656.14175	3220.075
2658.78255	3201.175
2661.42171	3166.275
2664.05923	3194.975
2666.6951	3213.375
2669.32934	3214.575
2671.96194	3224.475
2674.59291	3203.675
2677.22224	3209.075
2679.84993	3217.375
2682.476	3210.875
2685.10043	3190.675
2687.72324	3197.075
2690.34441	3187.575
2692.96396	3190.375
2695.58188	3187.375
2698.19818	3184.475
2700.81285	3168.575
2703.4259	3159.375
2706.03733	3148.975
2708.64714	3148.775
2711.25533	3174.175
2713.86191	3170.575
2716.46687	3179.975
2719.07021	3166.175
2721.67194	3170.475
2724.27206	3189.775
2726.87057	3175.875
2729.46747	3163.075
2732.06276	3161.975
2734.65644	3130.575
2737.24852	3137.875
2739.83899	3119.075
2742.42786	3151.375
2745.01513	3155.875
2747.60079	3116.675
2750.18486	3103.275
2752.76733	3107.975
2755.3482	3105.975
2757.92747	3095.175
2760.50515	3086.375
2763.08123	3073.175
2765.65573	3085.675
2768.22863	3073.675
2770.79994	3068.675
2773.36967	3048.075
2775.9378	3044.375
2778.50435	3054.975
2781.06932	3058.675
2783.6327	3048.975
2786.1945	3047.775
2788.75471	3036.475
2791.31335	3025.875
2793.87041	3038.975
2796.42589	3005.275
2798.97979	3000.875
2801.53212	3008.775
2804.08288	3011.275
2806.63206	3005.275
2809.17967	2977.675
2811.72571	2981.875
2814.27018	2981.375
2816.81308	2967.875
2819.35442	2940.775
2821.89419	2957.075
2824.43239	2943.075
2826.96904	2967.875
2829.50412	2944.475
2832.03763	2944.075
2834.56959	2949.575
2837.1	2936.075
2839.62884	2938.275
2842.15613	2925.975
2844.68186	2944.775
2847.20604	2908.575
2849.72867	2911.075
2852.24974	2905.775
2854.76927	2876.175
2857.28724	2842.875
2859.80367	2901.575
2862.31855	2902.575
2864.83189	2889.075
2867.34368	2887.375
2869.85393	2900.075
2872.36264	2877.175
2874.8698	2882.075
2877.37543	2880.475
2879.87952	2875.075
2882.38207	2846.875
2884.88308	2861.875
2887.38256	2859.675
2889.88051	2852.275
2892.37692	2849.675
2894.8718	2831.275
2897.36515	2851.375
2899.85698	2842.975
2902.34727	2852.975
2904.83604	2853.875
2907.32328	2869.375
2909.809	2867.175
2912.29319	2867.375
2914.77587	2869.275
2917.25702	2880.675
2919.73665	2873.275
2922.21476	2876.975
2924.69136	2877.275
2927.16644	2869.775
2929.64	2860.875
2932.11205	2838.175
2934.58258	2837.875
2937.05161	2844.875
2939.51912	2828.075
2941.98513	2850.875
2944.44962	2816.175
2946.91261	2790.975
2949.37409	2804.875
2951.83407	2790.175
2954.29254	2798.375
2956.74951	2805.875
2959.20498	2768.375
2961.65895	2775.175
2964.11142	2760.975
2966.56239	2776.975
2969.01186	2773.175
2971.45984	2771.275
2973.90632	2751.875
2976.35131	2769.075
2978.7948	2758.875
2981.23681	2744.175
2983.67732	2753.275
2986.11635	2744.875
2988.55388	2710.575
2990.98993	2711.675
2993.4245	2694.075
2995.85758	2702.075
2998.28917	2693.175
3000.71928	2689.775
3003.14791	2682.475
3005.57506	2675.975
3008.00073	2647.575
3010.42493	2594.675
3012.84764	2638.775
3015.26888	2650.675
3017.68865	2647.675
3020.10694	2598.875
3022.52376	2620.275
3024.9391	2605.475
3027.35298	2609.675
3029.76539	2580.375
3032.17632	2585.075
3034.5858	2580.375
3036.9938	2587.075
3039.40034	2583.575
3041.80542	2569.475
3044.20903	2555.375
3046.61118	2544.075
3049.01187	2551.075
3051.4111	2531.875
3053.80888	2535.575
3056.20519	2533.175
3058.60005	2509.475
3060.99345	2529.775
3063.3854	2508.075
3065.7759	2505.375
3068.16494	2478.875
3070.55254	2483.275
3072.93868	2479.975
3075.32338	2478.075
3077.70662	2459.375
3080.08842	2453.975
3082.46878	2446.175
3084.84769	2473.375
3087.22515	2445.175
3089.60118	2465.975
3091.97576	2437.975
3094.3489	2454.075
3096.72061	2432.675
3099.09087	2429.175
3101.4597	2431.075
3103.82709	2421.675
3106.19305	2425.875
3108.55757	2421.475
3110.92066	2403.475
3113.28232	2423.475
3115.64255	2413.175
3118.00134	2407.775
3120.35871	2386.675
3122.71466	2372.275
3125.06917	2377.575
3127.42226	2358.875
3129.77393	2350.875
3132.12417	2359.975
3134.47299	2369.375
3136.82039	2341.375
3139.16636	2311.075
3141.51092	2350.275
3143.85406	2353.875
3146.19579	2329.475
3148.53609	2334.775
3150.87499	2337.875
3153.21246	2327.375
3155.54853	2340.975
3157.88318	2329.775
3160.21642	2338.175
3162.54826	2334.375
3164.87868	2330.675
3167.2077	2285.275
3169.5353	2320.675
3171.86151	2320.275
3174.18631	2307.775
3176.5097	2298.675
3178.83169	2310.175
3181.15228	2302.975
3183.47147	2276.775
3185.78926	2266.375
3188.10565	2264.175
3190.42065	2261.975
3192.73424	2263.175
3195.04645	2252.175
3197.35725	2238.175
3199.66667	2248.675
3201.97469	2241.875
3204.28132	2246.775
3206.58656	2250.575
3208.8904	2255.975
3211.19287	2243.475
3213.49394	2234.775
3215.79363	2226.075
3218.09193	2245.275
3220.38884	2238.675
3222.68438	2234.075
3224.97853	2214.975
3227.2713	2232.975
3229.56269	2211.975
3231.8527	2219.775
3234.14133	2200.175
