Data from AgNPs_UA_10uM_CRN_500uM_SU_RamanShift__152__13-30-40-284.txt Node

Date: Thu Aug 04 13:30:40 BST 2022
User: TCL
Spectrometer: QEP01345
Trigger mode: 4
Integration Time (sec): 1.000000E0
Scans to average: 10
Electric dark correction enabled: true
Nonlinearity correction enabled: false
Boxcar width: 0
XAxis mode: Raman Shifts
Number of Pixels in Spectrum: 1044
>>>>>Begin Spectral Data<<<<<
46.04893	1.1125
50.45542	0.3125
54.85868	-0.4875
59.25871	-0.7875
63.6555	14.4125
68.04907	15.0125
72.43941	16.6125
76.82654	16.9125
81.21044	17.3125
85.59113	18.3125
89.96862	19.8125
94.34289	19.5125
98.71396	18.1125
103.08183	21.5125
107.4465	19.3125
111.80798	21.6125
116.16626	22.3125
120.52136	26.2125
124.87327	25.7125
129.222	24.6125
133.56755	29.0125
137.90993	31.1125
142.24913	33.2125
146.58517	37.1125
150.91804	41.9125
155.24774	54.4125
159.57429	67.1125
163.89768	85.8125
168.21792	116.4125
172.53501	157.0125
176.84895	218.3125
181.15975	310.3125
185.46741	433.4125
189.77193	595.0125
194.07331	794.7125
198.37157	1021.1125
202.6667	1264.1125
206.9587	1485.9125
211.24758	1730.2125
215.53334	1966.0125
219.81599	2212.2125
224.09553	2492.2125
228.37195	2812.5125
232.64527	3137.4125
236.91549	3484.4125
241.18261	3822.7125
245.44663	4104.9125
249.70755	4351.7125
253.96539	4572.6125
258.22014	4767.8125
262.4718	4932.7125
266.72039	5034.3125
270.96589	5093.7125
275.20832	5081.4125
279.44768	5024.6125
283.68397	4949.7125
287.91719	4894.4125
292.14735	4884.2125
296.37445	4936.2125
300.59849	5014.4125
304.81948	5124.3125
309.03742	5217.5125
313.25231	5258.0125
317.46415	5207.1125
321.67296	5071.9125
325.87872	4948.9125
330.08145	4885.0125
334.28114	4929.6125
338.47781	4985.8125
342.67145	5075.7125
346.86207	5220.2125
351.04966	5379.4125
355.23424	5533.9125
359.4158	5695.2125
363.59435	5780.6125
367.76989	5853.0125
371.94243	5889.2125
376.11196	5932.6125
380.27849	5957.5125
384.44203	5998.1125
388.60257	6017.1125
392.76012	6064.8125
396.91468	6156.8125
401.06626	6258.1125
405.21485	6326.1125
409.36047	6310.1125
413.50311	6167.9125
417.64277	6039.4125
421.77947	5970.8125
425.9132	5963.8125
430.04396	6015.8125
434.17176	6125.6125
438.2966	6308.2125
442.41849	6560.2125
446.53742	6869.1125
450.6534	7131.9125
454.76644	7292.9125
458.87653	7277.1125
462.98368	7115.2125
467.08789	6902.4125
471.18916	6646.5125
475.2875	6411.7125
479.38291	6222.8125
483.4754	6098.8125
487.56496	6002.5125
491.6516	5950.2125
495.73531	5911.5125
499.81612	5921.1125
503.89401	5976.1125
507.96899	5984.6125
512.04106	6014.6125
516.11023	6057.4125
520.1765	6116.9125
524.23987	6154.7125
528.30034	6177.4125
532.35792	6164.7125
536.41261	6097.2125
540.46441	5989.8125
544.51333	5969.5125
548.55936	6032.7125
552.60252	6114.7125
556.64279	6215.6125
560.6802	6231.4125
564.71473	6202.9125
568.7464	6227.0125
572.7752	6230.0125
576.80114	6215.5125
580.82422	6207.4125
584.84444	6335.3125
588.86181	6550.5125
592.87633	6799.0125
596.888	6989.3125
600.89682	7181.0125
604.9028	7775.5125
608.90594	8943.6125
612.90624	9913.6125
616.90371	9052.4125
620.89834	7411.4125
624.89015	6805.1125
628.87913	6704.9125
632.86528	6616.5125
636.84862	6516.0125
640.82913	6337.2125
644.80683	6131.3125
648.78172	6056.0125
652.75379	6086.1125
656.72306	6290.2125
660.68952	6465.1125
664.65319	6395.6125
668.61405	6331.9125
672.57211	6359.8125
676.52738	6327.5125
680.47986	6237.2125
684.42955	6155.6125
688.37646	6174.0125
692.32058	6227.5125
696.26192	6323.1125
700.20048	6429.3125
704.13626	6444.9125
708.06928	6324.7125
711.99952	6271.4125
715.927	6284.5125
719.85171	6318.1125
723.77365	6306.4125
727.69284	6241.4125
731.60928	6186.8125
735.52295	6238.8125
739.43388	6310.4125
743.34206	6382.7125
747.24749	6390.1125
751.15017	6413.9125
755.05012	6499.6125
758.94733	6692.7125
762.8418	7120.5125
766.73354	7732.7125
770.62254	8335.1125
774.50882	8548.6125
778.39237	8263.0125
782.27321	7611.0125
786.15132	7008.6125
790.02671	6639.6125
793.89938	6474.0125
797.76935	6375.2125
801.6366	6337.8125
805.50115	6333.6125
809.36299	6311.4125
813.22213	6288.4125
817.07857	6257.7125
820.93231	6250.7125
824.78336	6256.4125
828.63172	6288.5125
832.47738	6301.2125
836.32036	6322.2125
840.16066	6319.3125
843.99827	6355.6125
847.8332	6337.4125
851.66546	6306.7125
855.49504	6302.6125
859.32195	6327.3125
863.1462	6280.1125
866.96777	6281.8125
870.78668	6274.0125
874.60293	6316.8125
878.41652	6320.3125
882.22745	6375.5125
886.03573	6400.1125
889.84136	6399.8125
893.64433	6336.2125
897.44466	6340.3125
901.24235	6329.8125
905.0374	6303.1125
908.8298	6271.2125
912.61957	6302.2125
916.40671	6333.1125
920.19121	6378.5125
923.97308	6433.7125
927.75233	6526.1125
931.52895	6541.4125
935.30295	6477.1125
939.07433	6362.6125
942.84309	6312.2125
946.60924	6267.9125
950.37278	6267.5125
954.13371	6218.8125
957.89203	6195.9125
961.64774	6184.6125
965.40086	6172.2125
969.15137	6139.3125
972.89929	6144.6125
976.64461	6165.1125
980.38733	6189.7125
984.12747	6229.6125
987.86502	6270.6125
991.59999	6356.1125
995.33237	6512.9125
999.06217	6745.2125
1002.78939	7003.7125
1006.51404	7097.3125
1010.23611	7185.1125
1013.95561	7327.4125
1017.67255	7395.9125
1021.38692	7331.7125
1025.09872	7282.4125
1028.80796	7310.8125
1032.51465	7442.7125
1036.21877	7602.8125
1039.92035	7561.0125
1043.61937	7439.9125
1047.31584	7274.5125
1051.00976	7095.4125
1054.70114	7034.2125
1058.38998	7013.0125
1062.07627	7025.9125
1065.76003	7045.1125
1069.44126	7094.6125
1073.11995	7182.5125
1076.79611	7250.6125
1080.46974	7318.3125
1084.14085	7370.8125
1087.80943	7447.4125
1091.47549	7425.4125
1095.13903	7321.1125
1098.80005	7213.6125
1102.45857	7175.4125
1106.11456	7149.6125
1109.76805	7166.5125
1113.41903	7240.5125
1117.06751	7345.3125
1120.71348	7504.8125
1124.35696	7645.6125
1127.99793	7737.1125
1131.63641	7633.6125
1135.2724	7473.6125
1138.90589	7342.5125
1142.5369	7231.0125
1146.16542	7131.2125
1149.79145	7078.9125
1153.415	7093.1125
1157.03607	7144.7125
1160.65467	7247.3125
1164.27079	7465.0125
1167.88443	7722.8125
1171.49561	8181.5125
1175.10432	8812.4125
1178.71056	9695.5125
1182.31434	10502.2125
1185.91565	11050.5125
1189.51451	11132.7125
1193.11091	10813.6125
1196.70485	10245.0125
1200.29634	9673.9125
1203.88538	9151.6125
1207.47197	8701.8125
1211.05612	8384.0125
1214.63782	8215.0125
1218.21708	8218.9125
1221.79391	8280.2125
1225.36829	8294.5125
1228.94024	8266.4125
1232.50976	8234.7125
1236.07685	8241.2125
1239.6415	8300.0125
1243.20374	8344.4125
1246.76355	8393.1125
1250.32093	8478.9125
1253.8759	8640.8125
1257.42845	8922.5125
1260.97859	9213.7125
1264.52631	9438.1125
1268.07163	9625.7125
1271.61453	9780.7125
1275.15503	9890.6125
1278.69312	10063.0125
1282.22882	10266.6125
1285.76211	10524.8125
1289.29301	10755.1125
1292.82151	11061.5125
1296.34761	11298.6125
1299.87133	11679.0125
1303.39266	12296.5125
1306.9116	13108.7125
1310.42815	13914.5125
1313.94233	14286.6125
1317.45412	14052.3125
1320.96354	13526.0125
1324.47058	12959.8125
1327.97525	12624.8125
1331.47754	12649.5125
1334.97747	12847.8125
1338.47502	13128.7125
1341.97022	13367.0125
1345.46305	13583.0125
1348.95352	13933.1125
1352.44163	14430.4125
1355.92738	15102.1125
1359.41078	15877.7125
1362.89183	16132.2125
1366.37053	15250.6125
1369.84688	13633.5125
1373.32088	12155.1125
1376.79254	11264.3125
1380.26186	10822.3125
1383.72883	10590.1125
1387.19347	10271.7125
1390.65578	9897.2125
1394.11575	9585.0125
1397.57339	9445.4125
1401.0287	9492.4125
1404.48168	9723.0125
1407.93234	10025.3125
1411.38068	10293.9125
1414.82669	10370.3125
1418.27039	10190.7125
1421.71177	10022.3125
1425.15083	9965.3125
1428.58758	10122.5125
1432.02203	10342.6125
1435.45416	10503.4125
1438.88399	10480.4125
1442.31151	10395.6125
1445.73673	10325.9125
1449.15965	10229.8125
1452.58027	10079.2125
1455.9986	9905.0125
1459.41463	9857.1125
1462.82837	9941.9125
1466.23982	10192.7125
1469.64898	10449.1125
1473.05586	10606.4125
1476.46045	10772.3125
1479.86276	10916.1125
1483.26279	10986.7125
1486.66054	11060.7125
1490.05602	11197.9125
1493.44922	11447.9125
1496.84016	11746.4125
1500.22882	12262.7125
1503.61521	12831.8125
1506.99934	13406.5125
1510.38121	13638.4125
1513.76081	13266.8125
1517.13816	12500.9125
1520.51324	11681.3125
1523.88607	11129.1125
1527.25665	10901.9125
1530.62498	10839.3125
1533.99105	10888.0125
1537.35488	10934.3125
1540.71647	10926.5125
1544.07581	10834.4125
1547.4329	10671.9125
1550.78776	10415.2125
1554.14038	10116.9125
1557.49077	9898.9125
1560.83892	9859.9125
1564.18484	9849.6125
1567.52853	9905.4125
1570.86999	9963.8125
1574.20922	9953.5125
1577.54624	9876.6125
1580.88103	9637.0125
1584.2136	9405.6125
1587.54395	9428.8125
1590.87208	9899.3125
1594.19801	10748.0125
1597.52172	11792.6125
1600.84321	12424.8125
1604.16251	12403.5125
1607.47959	11710.9125
1610.79447	10705.7125
1614.10715	9715.7125
1617.41763	8972.8125
1620.7259	8476.8125
1624.03199	8270.1125
1627.33587	8271.8125
1630.63757	8484.9125
1633.93707	8972.3125
1637.23439	9731.8125
1640.52951	10746.9125
1643.82246	11778.7125
1647.11321	12399.9125
1650.40179	12160.8125
1653.68819	11048.8125
1656.97241	9624.2125
1660.25446	8478.1125
1663.53433	7726.1125
1666.81203	7261.8125
1670.08756	6977.3125
1673.36092	6804.0125
1676.63211	6684.1125
1679.90115	6565.9125
1683.16801	6496.3125
1686.43272	6436.6125
1689.69527	6394.4125
1692.95567	6360.5125
1696.2139	6341.3125
1699.46999	6319.0125
1702.72392	6309.5125
1705.97571	6280.1125
1709.22535	6295.4125
1712.47284	6281.9125
1715.71819	6289.2125
1718.96139	6295.4125
1722.20246	6281.5125
1725.44139	6258.4125
1728.67818	6220.5125
1731.91284	6189.3125
1735.14537	6171.5125
1738.37576	6130.7125
1741.60403	6107.0125
1744.83017	6080.6125
1748.05418	6089.8125
1751.27607	6068.5125
1754.49584	6058.1125
1757.71349	6057.0125
1760.92903	6049.2125
1764.14244	6040.6125
1767.35375	6033.9125
1770.56294	6026.6125
1773.77002	6024.1125
1776.97499	5995.9125
1780.17785	5992.4125
1783.37861	5988.1125
1786.57727	5979.8125
1789.77382	5980.8125
1792.96828	5982.6125
1796.16064	5971.8125
1799.3509	5947.7125
1802.53907	5970.0125
1805.72514	5953.1125
1808.90913	5925.6125
1812.09102	5919.5125
1815.27083	5904.9125
1818.44856	5870.7125
1821.6242	5872.1125
1824.79776	5869.1125
1827.96924	5858.7125
1831.13864	5851.7125
1834.30597	5856.4125
1837.47122	5832.6125
1840.6344	5831.1125
1843.7955	5820.4125
1846.95454	5838.6125
1850.11151	5820.4125
1853.26642	5824.1125
1856.41926	5823.3125
1859.57004	5844.5125
1862.71876	5841.0125
1865.86542	5844.8125
1869.01003	5842.6125
1872.15258	5811.5125
1875.29308	5812.8125
1878.43152	5823.7125
1881.56792	5812.2125
1884.70227	5791.5125
1887.83457	5801.3125
1890.96482	5771.3125
1894.09304	5771.5125
1897.21921	5785.5125
1900.34335	5778.9125
1903.46544	5776.1125
1906.58551	5777.0125
1909.70353	5765.4125
1912.81953	5774.3125
1915.93349	5746.7125
1919.04543	5736.3125
1922.15534	5740.5125
1925.26322	5742.9125
1928.36908	5722.2125
1931.47292	5721.6125
1934.57473	5734.7125
1937.67453	5727.3125
1940.77232	5700.7125
1943.86808	5681.9125
1946.96184	5686.0125
1950.05358	5666.8125
1953.14331	5638.8125
1956.23103	5627.7125
1959.31675	5604.8125
1962.40046	5575.1125
1965.48217	5555.3125
1968.56188	5543.0125
1971.63959	5516.5125
1974.7153	5520.9125
1977.78901	5524.4125
1980.86073	5499.5125
1983.93046	5467.8125
1986.99819	5441.9125
1990.06394	5438.9125
1993.1277	5448.4125
1996.18947	5408.2125
1999.24925	5387.2125
2002.30706	5375.4125
2005.36288	5354.8125
2008.41672	5357.4125
2011.46859	5337.1125
2014.51848	5313.6125
2017.56639	5301.3125
2020.61233	5298.9125
2023.6563	5278.0125
2026.6983	5266.1125
2029.73833	5257.1125
2032.7764	5253.2125
2035.8125	5238.8125
2038.84664	5232.5125
2041.87881	5227.1125
2044.90903	5218.7125
2047.93729	5211.1125
2050.96359	5197.9125
2053.98794	5188.1125
2057.01034	5175.4125
2060.03078	5185.3125
2063.04927	5185.7125
2066.06582	5171.6125
2069.08042	5172.6125
2072.09307	5153.1125
2075.10378	5155.9125
2078.11255	5140.5125
2081.11938	5147.9125
2084.12426	5122.1125
2087.12722	5136.5125
2090.12824	5129.5125
2093.12732	5136.1125
2096.12447	5128.1125
2099.11969	5145.6125
2102.11299	5154.5125
2105.10435	5130.4125
2108.09379	5144.6125
2111.08131	5136.0125
2114.0669	5144.2125
2117.05057	5139.2125
2120.03233	5146.5125
2123.01216	5139.3125
2125.99008	5161.5125
2128.96609	5143.9125
2131.94018	5167.5125
2134.91236	5154.1125
2137.88263	5156.1125
2140.851	5149.5125
2143.81746	5152.0125
2146.78201	5145.6125
2149.74466	5135.5125
2152.7054	5173.7125
2155.66425	5156.8125
2158.6212	5148.1125
2161.57625	5132.0125
2164.52941	5139.8125
2167.48067	5145.1125
2170.43004	5142.8125
2173.37752	5132.1125
2176.32311	5149.3125
2179.26681	5129.4125
2182.20863	5157.6125
2185.14856	5138.9125
2188.08661	5149.8125
2191.02278	5150.4125
2193.95707	5143.7125
2196.88948	5140.3125
2199.82001	5144.3125
2202.74867	5131.2125
2205.67545	5134.2125
2208.60037	5136.5125
2211.52341	5133.9125
2214.44458	5114.6125
2217.36388	5110.0125
2220.28132	5102.2125
2223.1969	5083.8125
2226.11061	5087.5125
2229.02246	5061.8125
2231.93245	5061.2125
2234.84058	5060.8125
2237.74686	5046.9125
2240.65128	5028.3125
2243.55385	5034.4125
2246.45456	5040.1125
2249.35343	5008.8125
2252.25044	5002.4125
2255.14561	5015.9125
2258.03893	5006.7125
2260.93041	4987.4125
2263.82004	4990.7125
2266.70783	4960.8125
2269.59378	4942.4125
2272.4779	4924.5125
2275.36017	4929.0125
2278.24061	4921.8125
2281.11922	4910.7125
2283.996	4896.2125
2286.87094	4884.3125
2289.74405	4897.3125
2292.61534	4870.2125
2295.4848	4873.1125
2298.35243	4877.5125
2301.21824	4860.2125
2304.08223	4866.7125
2306.94439	4867.9125
2309.80474	4869.7125
2312.66327	4873.1125
2315.51999	4873.6125
2318.37489	4870.5125
2321.22797	4864.2125
2324.07925	4865.0125
2326.92871	4856.8125
2329.77637	4840.2125
2332.62222	4851.1125
2335.46626	4849.3125
2338.3085	4847.0125
2341.14893	4844.8125
2343.98756	4856.7125
2346.8244	4846.0125
2349.65943	4847.5125
2352.49267	4837.1125
2355.32411	4847.1125
2358.15376	4836.2125
2360.98161	4823.6125
2363.80768	4827.4125
2366.63195	4834.6125
2369.45444	4830.2125
2372.27514	4811.2125
2375.09405	4808.7125
2377.91118	4793.8125
2380.72652	4771.2125
2383.54009	4764.1125
2386.35187	4752.2125
2389.16188	4732.8125
2391.97011	4742.1125
2394.77657	4729.8125
2397.58125	4699.9125
2400.38416	4702.9125
2403.18529	4694.9125
2405.98466	4703.8125
2408.78226	4685.8125
2411.57809	4672.4125
2414.37216	4674.8125
2417.16446	4656.8125
2419.955	4656.1125
2422.74378	4650.2125
2425.5308	4644.1125
2428.31606	4656.1125
2431.09956	4640.9125
2433.88131	4620.1125
2436.6613	4623.6125
2439.43954	4619.7125
2442.21603	4622.2125
2444.99077	4622.3125
2447.76377	4620.3125
2450.53501	4616.9125
2453.30451	4623.4125
2456.07226	4607.4125
2458.83827	4611.2125
2461.60254	4585.6125
2464.36507	4600.3125
2467.12586	4573.7125
2469.88492	4575.5125
2472.64224	4584.1125
2475.39782	4579.1125
2478.15167	4593.6125
2480.90379	4586.3125
2483.65417	4582.6125
2486.40283	4596.5125
2489.14976	4595.5125
2491.89497	4592.1125
2494.63845	4610.6125
2497.3802	4609.8125
2500.12024	4590.9125
2502.85855	4595.4125
2505.59514	4600.5125
2508.33002	4587.9125
2511.06318	4581.5125
2513.79462	4560.6125
2516.52435	4574.9125
2519.25237	4555.5125
2521.97867	4545.3125
2524.70327	4540.3125
2527.42616	4534.8125
2530.14734	4529.4125
2532.86681	4540.7125
2535.58458	4559.6125
2538.30065	4546.3125
2541.01501	4523.4125
2543.72768	4527.0125
2546.43864	4525.8125
2549.14791	4517.3125
2551.85548	4523.8125
2554.56136	4530.3125
2557.26554	4501.7125
2559.96803	4501.9125
2562.66883	4494.3125
2565.36794	4485.9125
2568.06536	4476.8125
2570.7611	4471.8125
2573.45514	4460.4125
2576.14751	4464.4125
2578.83819	4453.5125
2581.52719	4458.0125
2584.21451	4455.8125
2586.90015	4452.8125
2589.58411	4454.1125
2592.2664	4441.3125
2594.94701	4451.2125
2597.62594	4444.5125
2600.30321	4427.3125
2602.9788	4433.1125
2605.65273	4434.3125
2608.32498	4456.4125
2610.99557	4431.2125
2613.66449	4426.8125
2616.33175	4438.1125
2618.99734	4449.2125
2621.66128	4435.3125
2624.32355	4433.5125
2626.98416	4420.7125
2629.64311	4437.9125
2632.30041	4416.6125
2634.95605	4442.0125
2637.61004	4419.0125
2640.26238	4392.6125
2642.91306	4414.5125
2645.56209	4406.7125
2648.20948	4402.4125
2650.85521	4388.9125
2653.4993	4398.4125
2656.14175	4398.5125
2658.78255	4384.5125
2661.42171	4378.6125
2664.05923	4394.3125
2666.6951	4410.8125
2669.32934	4424.7125
2671.96194	4413.6125
2674.59291	4419.6125
2677.22224	4411.1125
2679.84993	4403.2125
2682.476	4418.4125
2685.10043	4423.5125
2687.72324	4415.2125
2690.34441	4405.9125
2692.96396	4402.5125
2695.58188	4392.6125
2698.19818	4398.7125
2700.81285	4395.5125
2703.4259	4390.4125
2706.03733	4388.1125
2708.64714	4360.1125
2711.25533	4394.7125
2713.86191	4365.7125
2716.46687	4384.1125
2719.07021	4391.1125
2721.67194	4410.4125
2724.27206	4390.5125
2726.87057	4391.0125
2729.46747	4401.0125
2732.06276	4387.2125
2734.65644	4397.1125
2737.24852	4390.6125
2739.83899	4390.0125
2742.42786	4373.9125
2745.01513	4376.5125
2747.60079	4364.7125
2750.18486	4354.9125
2752.76733	4374.7125
2755.3482	4367.6125
2757.92747	4352.4125
2760.50515	4358.1125
2763.08123	4346.5125
2765.65573	4347.6125
2768.22863	4341.6125
2770.79994	4348.1125
2773.36967	4328.0125
2775.9378	4340.0125
2778.50435	4354.0125
2781.06932	4325.3125
2783.6327	4347.9125
2786.1945	4334.8125
2788.75471	4344.7125
2791.31335	4341.3125
2793.87041	4318.2125
2796.42589	4317.9125
2798.97979	4297.8125
2801.53212	4309.4125
2804.08288	4304.9125
2806.63206	4278.4125
2809.17967	4281.2125
2811.72571	4260.8125
2814.27018	4275.0125
2816.81308	4256.4125
2819.35442	4256.7125
2821.89419	4248.9125
2824.43239	4237.3125
2826.96904	4235.3125
2829.50412	4225.3125
2832.03763	4207.2125
2834.56959	4221.7125
2837.1	4207.1125
2839.62884	4201.1125
2842.15613	4212.9125
2844.68186	4213.7125
2847.20604	4206.5125
2849.72867	4195.8125
2852.24974	4189.6125
2854.76927	4174.9125
2857.28724	4185.6125
2859.80367	4162.9125
2862.31855	4154.5125
2864.83189	4158.9125
2867.34368	4155.4125
2869.85393	4144.4125
2872.36264	4144.1125
2874.8698	4145.2125
2877.37543	4150.7125
2879.87952	4133.3125
2882.38207	4131.4125
2884.88308	4131.6125
2887.38256	4122.3125
2889.88051	4131.8125
2892.37692	4123.8125
2894.8718	4122.5125
2897.36515	4115.9125
2899.85698	4124.7125
2902.34727	4132.3125
2904.83604	4147.3125
2907.32328	4144.2125
2909.809	4134.4125
2912.29319	4124.1125
2914.77587	4133.1125
2917.25702	4146.5125
2919.73665	4134.4125
2922.21476	4146.8125
2924.69136	4136.1125
2927.16644	4114.0125
2929.64	4125.8125
2932.11205	4103.7125
2934.58258	4079.2125
2937.05161	4098.5125
2939.51912	4092.8125
2941.98513	4091.0125
2944.44962	4087.7125
2946.91261	4082.0125
2949.37409	4095.1125
2951.83407	4088.2125
2954.29254	4076.7125
2956.74951	4067.9125
2959.20498	4070.5125
2961.65895	4084.9125
2964.11142	4062.5125
2966.56239	4051.7125
2969.01186	4062.0125
2971.45984	4060.7125
2973.90632	4045.0125
2976.35131	4027.9125
2978.7948	4032.3125
2981.23681	4015.1125
2983.67732	4015.2125
2986.11635	3983.9125
2988.55388	3974.8125
2990.98993	3972.6125
2993.4245	3956.8125
2995.85758	3950.5125
2998.28917	3930.9125
3000.71928	3925.0125
3003.14791	3905.0125
3005.57506	3908.6125
3008.00073	3906.8125
3010.42493	3880.1125
3012.84764	3886.0125
3015.26888	3891.9125
3017.68865	3875.8125
3020.10694	3869.6125
3022.52376	3845.1125
3024.9391	3838.8125
3027.35298	3816.7125
3029.76539	3818.4125
3032.17632	3831.7125
3034.5858	3797.2125
3036.9938	3801.1125
3039.40034	3802.4125
3041.80542	3788.6125
3044.20903	3773.4125
3046.61118	3781.4125
3049.01187	3764.7125
3051.4111	3764.4125
3053.80888	3756.6125
3056.20519	3748.4125
3058.60005	3722.4125
3060.99345	3716.6125
3063.3854	3699.5125
3065.7759	3694.6125
3068.16494	3685.2125
3070.55254	3676.9125
3072.93868	3660.4125
3075.32338	3641.3125
3077.70662	3631.4125
3080.08842	3629.1125
3082.46878	3630.5125
3084.84769	3613.7125
3087.22515	3614.7125
3089.60118	3613.0125
3091.97576	3593.7125
3094.3489	3588.2125
3096.72061	3586.1125
3099.09087	3577.5125
3101.4597	3582.6125
3103.82709	3583.6125
3106.19305	3568.7125
3108.55757	3576.8125
3110.92066	3569.0125
3113.28232	3556.1125
3115.64255	3551.2125
3118.00134	3540.7125
