Data from AgNPs_UA_50uM_CRN_500uM_SU_RamanShift__11__13-57-40-316.txt Node

Date: Thu Aug 04 13:57:40 BST 2022
User: TCL
Spectrometer: QEP01345
Trigger mode: 4
Integration Time (sec): 1.000000E0
Scans to average: 10
Electric dark correction enabled: true
Nonlinearity correction enabled: false
Boxcar width: 0
XAxis mode: Raman Shifts
Number of Pixels in Spectrum: 1044
>>>>>Begin Spectral Data<<<<<
46.04893	1.775
50.45542	-1.325
54.85868	-1.225
59.25871	0.175
63.6555	14.775
68.04907	12.475
72.43941	15.275
76.82654	14.475
81.21044	15.975
85.59113	18.275
89.96862	19.375
94.34289	18.475
98.71396	19.775
103.08183	20.775
107.4465	17.975
111.80798	19.775
116.16626	20.775
120.52136	22.475
124.87327	24.475
129.222	25.775
133.56755	28.875
137.90993	30.875
142.24913	32.875
146.58517	37.975
150.91804	44.475
155.24774	53.475
159.57429	66.475
163.89768	87.675
168.21792	115.575
172.53501	162.975
176.84895	225.675
181.15975	322.175
185.46741	457.575
189.77193	640.675
194.07331	855.975
198.37157	1113.775
202.6667	1377.975
206.9587	1658.575
211.24758	1927.875
215.53334	2216.975
219.81599	2510.175
224.09553	2861.875
228.37195	3257.875
232.64527	3662.075
236.91549	4057.275
241.18261	4371.575
245.44663	4607.275
249.70755	4803.275
253.96539	4910.175
258.22014	5054.475
262.4718	5147.275
266.72039	5224.875
270.96589	5252.875
275.20832	5197.675
279.44768	5087.675
283.68397	5004.375
287.91719	4946.475
292.14735	4988.175
296.37445	5135.375
300.59849	5363.475
304.81948	5690.275
309.03742	5976.675
313.25231	6193.675
317.46415	6115.775
321.67296	5798.375
325.87872	5421.675
330.08145	5206.875
334.28114	5196.975
338.47781	5261.375
342.67145	5396.975
346.86207	5587.875
351.04966	5893.675
355.23424	6178.075
359.4158	6359.575
363.59435	6415.875
367.76989	6388.375
371.94243	6300.175
376.11196	6220.475
380.27849	6139.975
384.44203	6105.575
388.60257	6086.675
392.76012	6116.575
396.91468	6194.975
401.06626	6322.775
405.21485	6335.375
409.36047	6168.975
413.50311	5875.175
417.64277	5609.775
421.77947	5443.175
425.9132	5383.875
430.04396	5386.075
434.17176	5441.075
438.2966	5508.875
442.41849	5620.775
446.53742	5724.475
450.6534	5860.775
454.76644	5896.075
458.87653	5882.975
462.98368	5862.875
467.08789	5806.575
471.18916	5692.175
475.2875	5548.875
479.38291	5441.675
483.4754	5349.975
487.56496	5312.475
491.6516	5295.575
495.73531	5290.175
499.81612	5293.575
503.89401	5337.975
507.96899	5389.675
512.04106	5445.675
516.11023	5556.175
520.1765	5614.275
524.23987	5642.375
528.30034	5634.975
532.35792	5597.275
536.41261	5536.975
540.46441	5450.375
544.51333	5390.475
548.55936	5431.875
552.60252	5532.275
556.64279	5629.775
560.6802	5699.875
564.71473	5829.875
568.7464	5977.775
572.7752	5978.975
576.80114	5744.575
580.82422	5540.375
584.84444	5452.875
588.86181	5437.775
592.87633	5475.675
596.888	5571.075
600.89682	5900.375
604.9028	6780.875
608.90594	8730.775
612.90624	10794.675
616.90371	9883.175
620.89834	7062.675
624.89015	5853.875
628.87913	5697.475
632.86528	5857.175
636.84862	5960.275
640.82913	5806.175
644.80683	5508.575
648.78172	5372.575
652.75379	5383.075
656.72306	5601.275
660.68952	5839.375
664.65319	5742.375
668.61405	5496.975
672.57211	5439.475
676.52738	5443.475
680.47986	5372.375
684.42955	5282.575
688.37646	5255.475
692.32058	5258.775
696.26192	5349.675
700.20048	5455.675
704.13626	5478.075
708.06928	5436.575
711.99952	5390.975
715.927	5372.475
719.85171	5405.675
723.77365	5431.575
727.69284	5408.275
731.60928	5354.375
735.52295	5339.975
739.43388	5358.175
743.34206	5374.875
747.24749	5389.275
751.15017	5370.075
755.05012	5489.975
758.94733	5793.575
762.8418	6590.375
766.73354	7713.775
770.62254	8598.475
774.50882	8684.775
778.39237	8085.075
782.27321	7202.175
786.15132	6319.375
790.02671	5753.475
793.89938	5473.775
797.76935	5377.975
801.6366	5305.775
805.50115	5271.075
809.36299	5258.975
813.22213	5257.075
817.07857	5229.575
820.93231	5241.375
824.78336	5256.275
828.63172	5259.575
832.47738	5299.675
836.32036	5257.275
840.16066	5251.875
843.99827	5226.375
847.8332	5227.075
851.66546	5197.675
855.49504	5228.675
859.32195	5235.775
863.1462	5240.975
866.96777	5227.475
870.78668	5238.775
874.60293	5233.175
878.41652	5278.975
882.22745	5308.175
886.03573	5328.775
889.84136	5329.975
893.64433	5306.375
897.44466	5304.975
901.24235	5289.475
905.0374	5267.875
908.8298	5228.875
912.61957	5218.175
916.40671	5227.975
920.19121	5257.275
923.97308	5311.975
927.75233	5392.175
931.52895	5450.475
935.30295	5369.175
939.07433	5229.375
942.84309	5120.075
946.60924	5082.775
950.37278	5077.875
954.13371	5056.375
957.89203	5066.775
961.64774	5055.375
965.40086	5053.775
969.15137	5040.375
972.89929	5030.275
976.64461	5037.975
980.38733	5023.575
984.12747	5034.775
987.86502	5055.975
991.59999	5097.375
995.33237	5158.275
999.06217	5244.275
1002.78939	5330.575
1006.51404	5485.575
1010.23611	5607.175
1013.95561	5644.575
1017.67255	5630.675
1021.38692	5579.475
1025.09872	5487.675
1028.80796	5403.275
1032.51465	5387.775
1036.21877	5409.675
1039.92035	5435.575
1043.61937	5482.375
1047.31584	5488.675
1051.00976	5506.575
1054.70114	5491.475
1058.38998	5479.975
1062.07627	5483.275
1065.76003	5548.475
1069.44126	5614.775
1073.11995	5740.575
1076.79611	5873.675
1080.46974	6000.375
1084.14085	6131.675
1087.80943	6231.775
1091.47549	6260.075
1095.13903	6222.575
1098.80005	6080.475
1102.45857	5964.575
1106.11456	5869.175
1109.76805	5841.875
1113.41903	5892.875
1117.06751	6046.175
1120.71348	6246.575
1124.35696	6554.175
1127.99793	6774.075
1131.63641	6611.875
1135.2724	6301.475
1138.90589	6076.375
1142.5369	5962.175
1146.16542	5903.975
1149.79145	5860.875
1153.415	5779.275
1157.03607	5740.175
1160.65467	5775.575
1164.27079	5909.175
1167.88443	6137.075
1171.49561	6500.675
1175.10432	7076.775
1178.71056	7864.375
1182.31434	8510.475
1185.91565	8711.075
1189.51451	8533.375
1193.11091	8244.475
1196.70485	7919.175
1200.29634	7689.275
1203.88538	7448.175
1207.47197	7117.375
1211.05612	6802.775
1214.63782	6572.975
1218.21708	6400.975
1221.79391	6236.175
1225.36829	6161.275
1228.94024	6121.875
1232.50976	6108.775
1236.07685	6118.675
1239.6415	6136.675
1243.20374	6163.775
1246.76355	6218.475
1250.32093	6297.175
1253.8759	6445.175
1257.42845	6701.175
1260.97859	6914.175
1264.52631	7092.875
1268.07163	7243.975
1271.61453	7325.975
1275.15503	7362.075
1278.69312	7361.175
1282.22882	7379.675
1285.76211	7535.375
1289.29301	7741.375
1292.82151	7957.775
1296.34761	8165.175
1299.87133	8535.375
1303.39266	9116.275
1306.9116	10067.975
1310.42815	11034.775
1313.94233	11352.275
1317.45412	10724.075
1320.96354	9826.975
1324.47058	9008.375
1327.97525	8317.775
1331.47754	7932.075
1334.97747	7833.175
1338.47502	7977.575
1341.97022	8311.375
1345.46305	8912.675
1348.95352	9780.575
1352.44163	10771.275
1355.92738	11912.675
1359.41078	13412.075
1362.89183	14609.075
1366.37053	13902.575
1369.84688	11545.875
1373.32088	9366.875
1376.79254	8177.875
1380.26186	7624.975
1383.72883	7304.975
1387.19347	6997.275
1390.65578	6747.575
1394.11575	6547.175
1397.57339	6355.175
1401.0287	6243.975
1404.48168	6216.875
1407.93234	6209.475
1411.38068	6296.475
1414.82669	6370.375
1418.27039	6415.375
1421.71177	6383.175
1425.15083	6326.375
1428.58758	6280.575
1432.02203	6345.675
1435.45416	6429.775
1438.88399	6465.675
1442.31151	6491.575
1445.73673	6522.775
1449.15965	6578.975
1452.58027	6540.775
1455.9986	6466.775
1459.41463	6429.875
1462.82837	6490.375
1466.23982	6637.275
1469.64898	6785.675
1473.05586	6879.275
1476.46045	6961.375
1479.86276	7023.575
1483.26279	7123.475
1486.66054	7314.275
1490.05602	7588.275
1493.44922	8051.375
1496.84016	8793.275
1500.22882	9904.175
1503.61521	11358.675
1506.99934	12824.675
1510.38121	13756.175
1513.76081	13582.975
1517.13816	12312.475
1520.51324	10623.775
1523.88607	9205.775
1527.25665	8365.075
1530.62498	7942.975
1533.99105	7705.975
1537.35488	7602.175
1540.71647	7507.275
1544.07581	7431.575
1547.4329	7361.375
1550.78776	7266.075
1554.14038	7192.775
1557.49077	7196.175
1560.83892	7327.475
1564.18484	7547.775
1567.52853	7869.675
1570.86999	8092.875
1574.20922	8167.475
1577.54624	8031.875
1580.88103	7554.175
1584.2136	7025.575
1587.54395	6702.975
1590.87208	6674.875
1594.19801	6913.375
1597.52172	7232.475
1600.84321	7377.975
1604.16251	7291.775
1607.47959	7132.575
1610.79447	6880.875
1614.10715	6510.675
1617.41763	6167.975
1620.7259	5917.675
1624.03199	5771.875
1627.33587	5752.175
1630.63757	5833.175
1633.93707	6066.675
1637.23439	6459.675
1640.52951	7140.675
1643.82246	8105.275
1647.11321	9169.675
1650.40179	9794.475
1653.68819	9416.275
1656.97241	8203.775
1660.25446	6937.875
1663.53433	6057.175
1666.81203	5528.675
1670.08756	5225.175
1673.36092	5040.475
1676.63211	4917.275
1679.90115	4840.975
1683.16801	4785.875
1686.43272	4734.275
1689.69527	4696.475
1692.95567	4678.575
1696.2139	4646.575
1699.46999	4639.475
1702.72392	4632.875
1705.97571	4624.275
1709.22535	4631.775
1712.47284	4652.075
1715.71819	4623.475
1718.96139	4605.475
1722.20246	4622.175
1725.44139	4584.875
1728.67818	4548.775
1731.91284	4506.475
1735.14537	4485.275
1738.37576	4465.675
1741.60403	4461.675
1744.83017	4453.075
1748.05418	4426.575
1751.27607	4422.275
1754.49584	4411.775
1757.71349	4385.375
1760.92903	4382.875
1764.14244	4390.875
1767.35375	4376.575
1770.56294	4379.275
1773.77002	4351.475
1776.97499	4341.475
1780.17785	4324.375
1783.37861	4305.975
1786.57727	4296.575
1789.77382	4297.175
1792.96828	4284.375
1796.16064	4279.675
1799.3509	4284.275
1802.53907	4266.475
1805.72514	4250.375
1808.90913	4246.175
1812.09102	4225.875
1815.27083	4218.875
1818.44856	4217.975
1821.6242	4194.375
1824.79776	4180.275
1827.96924	4176.375
1831.13864	4158.375
1834.30597	4157.575
1837.47122	4146.375
1840.6344	4143.175
1843.7955	4133.975
1846.95454	4137.175
1850.11151	4144.575
1853.26642	4135.475
1856.41926	4142.075
1859.57004	4146.075
1862.71876	4128.075
1865.86542	4111.275
1869.01003	4124.875
1872.15258	4122.875
1875.29308	4126.475
1878.43152	4103.875
1881.56792	4108.275
1884.70227	4091.175
1887.83457	4079.575
1890.96482	4080.575
1894.09304	4074.375
1897.21921	4066.275
1900.34335	4052.175
1903.46544	4057.475
1906.58551	4044.975
1909.70353	4030.975
1912.81953	4030.175
1915.93349	4022.175
1919.04543	4015.275
1922.15534	4013.675
1925.26322	4005.375
1928.36908	3998.975
1931.47292	3992.375
1934.57473	3979.575
1937.67453	3972.975
1940.77232	3959.575
1943.86808	3947.675
1946.96184	3929.675
1950.05358	3911.975
1953.14331	3911.175
1956.23103	3909.675
1959.31675	3890.875
1962.40046	3880.275
1965.48217	3876.875
1968.56188	3867.875
1971.63959	3860.175
1974.7153	3847.075
1977.78901	3848.175
1980.86073	3827.475
1983.93046	3800.475
1986.99819	3793.475
1990.06394	3794.075
1993.1277	3762.075
1996.18947	3753.975
1999.24925	3745.375
2002.30706	3726.175
2005.36288	3706.975
2008.41672	3706.475
2011.46859	3688.975
2014.51848	3675.775
2017.56639	3678.875
2020.61233	3651.975
2023.6563	3636.075
2026.6983	3635.675
2029.73833	3615.075
2032.7764	3613.475
2035.8125	3597.075
2038.84664	3604.075
2041.87881	3596.675
2044.90903	3586.175
2047.93729	3563.875
2050.96359	3561.975
2053.98794	3555.675
2057.01034	3570.375
2060.03078	3547.175
2063.04927	3550.975
2066.06582	3543.875
2069.08042	3543.475
2072.09307	3530.575
2075.10378	3531.775
2078.11255	3533.175
2081.11938	3541.875
2084.12426	3532.075
2087.12722	3534.275
2090.12824	3537.875
2093.12732	3528.575
2096.12447	3545.875
2099.11969	3535.875
2102.11299	3530.375
2105.10435	3544.575
2108.09379	3543.775
2111.08131	3539.775
2114.0669	3533.575
2117.05057	3541.075
2120.03233	3541.775
2123.01216	3532.575
2125.99008	3537.975
2128.96609	3546.075
2131.94018	3549.575
2134.91236	3546.375
2137.88263	3539.375
2140.851	3544.075
2143.81746	3544.475
2146.78201	3544.175
2149.74466	3544.575
2152.7054	3526.775
2155.66425	3542.975
2158.6212	3545.375
2161.57625	3537.575
2164.52941	3511.875
2167.48067	3537.775
2170.43004	3550.675
2173.37752	3516.375
2176.32311	3524.875
2179.26681	3529.075
2182.20863	3528.775
2185.14856	3531.575
2188.08661	3529.875
2191.02278	3524.075
2193.95707	3516.175
2196.88948	3512.975
2199.82001	3498.075
2202.74867	3499.375
2205.67545	3503.175
2208.60037	3493.275
2211.52341	3505.775
2214.44458	3494.675
2217.36388	3486.275
2220.28132	3468.175
2223.1969	3460.975
2226.11061	3443.275
2229.02246	3433.075
2231.93245	3446.775
2234.84058	3438.675
2237.74686	3431.975
2240.65128	3436.975
2243.55385	3426.075
2246.45456	3428.775
2249.35343	3421.875
2252.25044	3419.675
2255.14561	3400.875
2258.03893	3419.875
2260.93041	3400.375
2263.82004	3422.175
2266.70783	3392.075
2269.59378	3389.975
2272.4779	3372.575
2275.36017	3376.375
2278.24061	3364.775
2281.11922	3351.775
2283.996	3346.175
2286.87094	3347.375
2289.74405	3346.575
2292.61534	3332.975
2295.4848	3327.575
2298.35243	3335.075
2301.21824	3330.475
2304.08223	3308.075
2306.94439	3319.575
2309.80474	3304.975
2312.66327	3313.675
2315.51999	3308.275
2318.37489	3303.575
2321.22797	3310.475
2324.07925	3288.975
2326.92871	3281.475
2329.77637	3274.975
2332.62222	3282.975
2335.46626	3259.075
2338.3085	3262.975
2341.14893	3266.475
2343.98756	3280.175
2346.8244	3272.775
2349.65943	3260.575
2352.49267	3254.875
2355.32411	3260.075
2358.15376	3260.975
2360.98161	3263.275
2363.80768	3274.775
2366.63195	3264.775
2369.45444	3265.575
2372.27514	3266.975
2375.09405	3262.175
2377.91118	3251.875
2380.72652	3250.675
2383.54009	3227.675
2386.35187	3234.575
2389.16188	3207.475
2391.97011	3193.975
2394.77657	3192.975
2397.58125	3190.175
2400.38416	3176.375
2403.18529	3168.175
2405.98466	3173.475
2408.78226	3172.075
2411.57809	3166.675
2414.37216	3161.775
2417.16446	3138.675
2419.955	3138.075
2422.74378	3152.175
2425.5308	3148.975
2428.31606	3142.075
2431.09956	3151.975
2433.88131	3139.175
2436.6613	3132.075
2439.43954	3137.375
2442.21603	3143.575
2444.99077	3135.275
2447.76377	3134.575
2450.53501	3138.075
2453.30451	3138.775
2456.07226	3132.675
2458.83827	3127.575
2461.60254	3121.075
2464.36507	3120.775
2467.12586	3121.075
2469.88492	3103.275
2472.64224	3120.675
2475.39782	3116.275
2478.15167	3114.675
2480.90379	3106.375
2483.65417	3123.175
2486.40283	3126.175
2489.14976	3121.975
2491.89497	3137.775
2494.63845	3121.675
2497.3802	3130.975
2500.12024	3101.975
2502.85855	3110.975
2505.59514	3092.675
2508.33002	3090.575
2511.06318	3087.775
2513.79462	3088.875
2516.52435	3074.375
2519.25237	3053.875
2521.97867	3062.075
2524.70327	3044.175
2527.42616	3029.375
2530.14734	3038.775
2532.86681	3041.275
2535.58458	3052.875
2538.30065	3050.875
2541.01501	3043.975
2543.72768	3031.775
2546.43864	3041.675
2549.14791	3028.175
2551.85548	3025.575
2554.56136	3025.375
2557.26554	3018.175
2559.96803	3012.475
2562.66883	3005.075
2565.36794	2992.475
2568.06536	2987.375
2570.7611	2989.975
2573.45514	2978.275
2576.14751	2977.175
2578.83819	2963.575
2581.52719	2965.775
2584.21451	2960.775
2586.90015	2956.775
2589.58411	2947.775
2592.2664	2940.575
2594.94701	2935.575
2597.62594	2936.375
2600.30321	2949.375
2602.9788	2941.075
2605.65273	2920.475
2608.32498	2933.475
2610.99557	2928.675
2613.66449	2918.575
2616.33175	2918.875
2618.99734	2929.775
2621.66128	2905.675
2624.32355	2910.575
2626.98416	2912.075
2629.64311	2886.575
2632.30041	2878.875
2634.95605	2868.875
2637.61004	2869.475
2640.26238	2875.975
2642.91306	2867.675
2645.56209	2862.075
2648.20948	2871.275
2650.85521	2858.775
2653.4993	2860.475
2656.14175	2865.075
2658.78255	2864.975
2661.42171	2865.575
2664.05923	2868.075
2666.6951	2875.675
2669.32934	2862.975
2671.96194	2857.975
2674.59291	2871.275
2677.22224	2867.575
2679.84993	2849.175
2682.476	2857.075
2685.10043	2849.175
2687.72324	2855.975
2690.34441	2860.775
2692.96396	2849.775
2695.58188	2851.075
2698.19818	2855.375
2700.81285	2844.475
2703.4259	2843.375
2706.03733	2855.175
2708.64714	2867.875
2711.25533	2848.875
2713.86191	2835.475
2716.46687	2846.975
2719.07021	2853.275
2721.67194	2847.075
2724.27206	2844.775
2726.87057	2842.875
2729.46747	2844.475
2732.06276	2844.275
2734.65644	2843.775
2737.24852	2832.875
2739.83899	2826.075
2742.42786	2832.475
2745.01513	2819.875
2747.60079	2832.575
2750.18486	2815.375
2752.76733	2812.775
2755.3482	2811.075
2757.92747	2786.675
2760.50515	2798.375
2763.08123	2793.775
2765.65573	2783.375
2768.22863	2779.975
2770.79994	2763.775
2773.36967	2772.775
2775.9378	2779.475
2778.50435	2776.575
2781.06932	2772.075
2783.6327	2763.475
2786.1945	2762.675
2788.75471	2770.875
2791.31335	2742.075
2793.87041	2748.375
2796.42589	2754.275
2798.97979	2745.175
2801.53212	2740.575
2804.08288	2731.775
2806.63206	2738.675
2809.17967	2734.275
2811.72571	2721.275
2814.27018	2705.375
2816.81308	2715.275
2819.35442	2712.075
2821.89419	2703.275
2824.43239	2692.775
2826.96904	2692.275
2829.50412	2696.575
2832.03763	2676.975
2834.56959	2683.075
2837.1	2674.675
2839.62884	2680.175
2842.15613	2663.575
2844.68186	2665.775
2847.20604	2654.875
2849.72867	2658.775
2852.24974	2655.175
2854.76927	2656.875
2857.28724	2661.875
2859.80367	2636.275
2862.31855	2648.875
2864.83189	2642.775
2867.34368	2651.675
2869.85393	2645.975
2872.36264	2641.775
2874.8698	2642.375
2877.37543	2648.175
2879.87952	2640.075
2882.38207	2624.975
2884.88308	2623.475
2887.38256	2622.475
2889.88051	2621.275
2892.37692	2617.175
2894.8718	2606.175
2897.36515	2607.675
2899.85698	2606.875
2902.34727	2618.375
2904.83604	2615.175
2907.32328	2614.075
2909.809	2623.775
2912.29319	2635.175
2914.77587	2633.475
2917.25702	2635.175
2919.73665	2633.275
2922.21476	2616.275
2924.69136	2610.375
2927.16644	2621.275
2929.64	2612.175
2932.11205	2608.575
2934.58258	2599.775
2937.05161	2600.675
2939.51912	2596.775
2941.98513	2595.575
2944.44962	2595.575
2946.91261	2579.875
2949.37409	2584.975
2951.83407	2569.975
2954.29254	2575.175
2956.74951	2578.375
2959.20498	2578.375
2961.65895	2570.975
2964.11142	2562.275
2966.56239	2558.575
2969.01186	2556.275
2971.45984	2555.075
2973.90632	2550.975
2976.35131	2556.775
2978.7948	2555.475
2981.23681	2540.875
2983.67732	2551.575
2986.11635	2540.575
2988.55388	2536.175
2990.98993	2532.475
2993.4245	2520.775
2995.85758	2520.475
2998.28917	2509.575
3000.71928	2504.875
3003.14791	2498.175
3005.57506	2492.475
3008.00073	2494.275
3010.42493	2476.575
3012.84764	2479.075
3015.26888	2480.675
3017.68865	2469.675
3020.10694	2465.875
3022.52376	2456.075
3024.9391	2444.475
3027.35298	2440.375
3029.76539	2432.675
3032.17632	2442.875
3034.5858	2423.975
3036.9938	2421.175
3039.40034	2412.075
3041.80542	2409.375
3044.20903	2402.475
3046.61118	2399.975
3049.01187	2406.175
3051.4111	2389.175
3053.80888	2386.375
3056.20519	2380.475
3058.60005	2385.975
3060.99345	2384.275
3063.3854	2370.275
3065.7759	2363.275
3068.16494	2358.175
3070.55254	2356.975
3072.93868	2343.075
3075.32338	2336.675
3077.70662	2335.075
3080.08842	2339.975
3082.46878	2325.275
3084.84769	2307.775
3087.22515	2305.675
3089.60118	2311.775
3091.97576	2311.075
3094.3489	2310.675
3096.72061	2304.275
3099.09087	2310.075
3101.4597	2311.075
3103.82709	2301.875
3106.19305	2287.175
3108.55757	2302.175
3110.92066	2281.675
3113.28232	2294.875
3115.64255	2278.475
3118.00134	2278.675
3120.35871	2275.175
3122.71466	2259.275
3125.06917	2261.975
3127.42226	2251.775
3129.77393	2254.275
3132.12417	2259.075
3134.47299	2256.875
3136.82039	2255.175
3139.16636	2254.675
3141.51092	2246.575
3143.85406	2234.775
3146.19579	2232.575
3148.53609	2244.775
3150.87499	2249.875
3153.21246	2246.875
3155.54853	2250.575
3157.88318	2243.175
3160.21642	2242.475
3162.54826	2237.475
3164.87868	2234.575
3167.2077	2229.775
3169.5353	2229.075
3171.86151	2230.375
3174.18631	2225.075
3176.5097	2224.475
3178.83169	2222.975
3181.15228	2205.275
3183.47147	2204.475
3185.78926	2207.775
3188.10565	2189.575
3190.42065	2193.075
3192.73424	2191.675
3195.04645	2190.975
3197.35725	2191.175
3199.66667	2186.775
3201.97469	2183.375
3204.28132	2198.775
3206.58656	2182.475
3208.8904	2183.175
3211.19287	2181.275
3213.49394	2186.375
3215.79363	2184.575
3218.09193	2178.875
3220.38884	2181.775
3222.68438	2188.875
3224.97853	2179.175
3227.2713	2164.275
3229.56269	2171.575
3231.8527	2157.875
3234.14133	2162.575
3236.42858	2160.375
3238.71446	2151.775
