Data from AgNPs_UA_5uM_CRN_500uM_SU_RamanShift__39__11-35-53-146.txt Node

Date: Thu Aug 04 11:35:53 BST 2022
User: TCL
Spectrometer: QEP01345
Trigger mode: 4
Integration Time (sec): 1.000000E0
Scans to average: 10
Electric dark correction enabled: true
Nonlinearity correction enabled: false
Boxcar width: 0
XAxis mode: Raman Shifts
Number of Pixels in Spectrum: 1044
>>>>>Begin Spectral Data<<<<<
46.04893	0.55
50.45542	0.05
54.85868	0.45
59.25871	-0.65
63.6555	-51.65
68.04907	-35.95
72.43941	-67.55
76.82654	-52.85
81.21044	-51.35
85.59113	-44.25
89.96862	-69.25
94.34289	-49.25
98.71396	-70.25
103.08183	-51.05
107.4465	-42.75
111.80798	-45.65
116.16626	-36.25
120.52136	-63.05
124.87327	-40.15
129.222	-48.65
133.56755	-37.05
137.90993	-44.85
142.24913	-30.35
146.58517	-21.05
150.91804	-10.25
155.24774	10.65
159.57429	42.95
163.89768	66.85
168.21792	137.35
172.53501	199.95
176.84895	350.45
181.15975	566.85
185.46741	844.55
189.77193	1195.35
194.07331	1692.55
198.37157	2220.05
202.6667	2759.65
206.9587	3378.05
211.24758	4004.15
215.53334	4724.05
219.81599	5555.55
224.09553	6499.95
228.37195	7504.35
232.64527	8417.95
236.91549	9194.25
241.18261	9569.85
245.44663	9711.55
249.70755	9669.05
253.96539	9666.95
258.22014	9739.35
262.4718	9836.05
266.72039	9815.85
270.96589	9596.15
275.20832	9157.05
279.44768	8769.65
283.68397	8434.65
287.91719	8357.95
292.14735	8546.75
296.37445	9208.75
300.59849	10334.35
304.81948	11929.55
309.03742	13758.75
313.25231	15062.65
317.46415	14913.65
321.67296	13046.65
325.87872	10928.95
330.08145	9689.85
334.28114	9393.65
338.47781	9755.65
342.67145	10443.45
346.86207	11553.05
351.04966	13247.05
355.23424	14904.05
359.4158	15504.55
363.59435	14897.85
367.76989	13863.15
371.94243	12902.45
376.11196	12065.35
380.27849	11484.45
384.44203	11016.95
388.60257	10727.25
392.76012	10786.65
396.91468	11152.05
401.06626	11601.25
405.21485	11611.75
409.36047	10817.45
413.50311	9529.95
417.64277	8324.65
421.77947	7549.35
425.9132	7188.75
430.04396	7040.85
434.17176	7012.25
438.2966	7138.05
442.41849	7411.15
446.53742	7662.45
450.6534	7825.25
454.76644	7805.35
458.87653	7661.85
462.98368	7493.05
467.08789	7290.55
471.18916	7047.85
475.2875	6681.85
479.38291	6395.25
483.4754	6204.05
487.56496	6131.25
491.6516	6031.45
495.73531	6021.05
499.81612	6079.75
503.89401	6281.55
507.96899	6509.85
512.04106	6823.05
516.11023	7158.85
520.1765	7395.45
524.23987	7522.25
528.30034	7480.05
532.35792	7336.25
536.41261	7184.65
540.46441	6916.35
544.51333	6734.15
548.55936	6710.15
552.60252	6899.75
556.64279	7171.95
560.6802	7688.35
564.71473	8863.45
568.7464	10414.65
572.7752	10359.75
576.80114	8406.45
580.82422	6809.25
584.84444	6126.25
588.86181	5907.35
592.87633	5896.75
596.888	6125.35
600.89682	7082.55
604.9028	10277.05
608.90594	18406.35
612.90624	28288.15
616.90371	25500.65
620.89834	13286.35
624.89015	7999.95
628.87913	7457.15
632.86528	8213.45
636.84862	8483.05
640.82913	7475.75
644.80683	6208.35
648.78172	5651.05
652.75379	5849.65
656.72306	6792.05
660.68952	7714.25
664.65319	7200.65
668.61405	5956.15
672.57211	5422.05
676.52738	5418.15
680.47986	5363.75
684.42955	5168.25
688.37646	5087.85
692.32058	5111.65
696.26192	5194.45
700.20048	5355.35
704.13626	5410.95
708.06928	5305.45
711.99952	5250.95
715.927	5339.45
719.85171	5600.75
723.77365	5778.15
727.69284	5581.95
731.60928	5392.45
735.52295	5344.25
739.43388	5418.55
743.34206	5480.25
747.24749	5476.35
751.15017	5496.05
755.05012	5913.65
758.94733	7536.95
762.8418	11145.65
766.73354	15766.75
770.62254	18117.55
774.50882	17177.45
778.39237	15233.05
782.27321	12429.25
786.15132	8997.25
790.02671	6767.05
793.89938	5730.75
797.76935	5417.65
801.6366	5232.55
805.50115	5141.55
809.36299	5092.35
813.22213	5052.15
817.07857	5083.95
820.93231	5113.45
824.78336	5238.35
828.63172	5383.75
832.47738	5443.15
836.32036	5309.55
840.16066	5042.95
843.99827	4887.55
847.8332	4818.75
851.66546	4820.45
855.49504	4816.15
859.32195	4790.85
863.1462	4750.55
866.96777	4745.05
870.78668	4717.05
874.60293	4764.15
878.41652	4841.55
882.22745	5031.65
886.03573	5143.45
889.84136	5115.55
893.64433	5061.35
897.44466	5085.85
901.24235	5099.35
905.0374	5000.45
908.8298	4790.55
912.61957	4634.55
916.40671	4543.35
920.19121	4610.35
923.97308	4861.15
927.75233	5367.85
931.52895	5864.85
935.30295	5585.55
939.07433	4855.75
942.84309	4378.85
946.60924	4212.95
950.37278	4129.35
954.13371	4138.35
957.89203	4117.15
961.64774	4135.95
965.40086	4097.75
969.15137	4053.75
972.89929	4084.65
976.64461	4056.05
980.38733	4066.15
984.12747	4035.05
987.86502	4051.45
991.59999	4085.25
995.33237	4182.25
999.06217	4305.55
1002.78939	4540.35
1006.51404	4904.15
1010.23611	5060.95
1013.95561	4893.05
1017.67255	4655.55
1021.38692	4443.05
1025.09872	4282.75
1028.80796	4186.95
1032.51465	4239.25
1036.21877	4286.65
1039.92035	4372.25
1043.61937	4444.55
1047.31584	4516.05
1051.00976	4553.65
1054.70114	4465.65
1058.38998	4402.95
1062.07627	4368.85
1065.76003	4376.75
1069.44126	4434.25
1073.11995	4567.15
1076.79611	4920.55
1080.46974	5485.05
1084.14085	6368.35
1087.80943	7083.65
1091.47549	7015.65
1095.13903	6284.65
1098.80005	5525.65
1102.45857	5111.65
1106.11456	5088.65
1109.76805	5240.45
1113.41903	5706.45
1117.06751	6508.75
1120.71348	7765.85
1124.35696	9652.05
1127.99793	10885.55
1131.63641	9864.95
1135.2724	7925.45
1138.90589	6612.65
1142.5369	5909.25
1146.16542	5469.45
1149.79145	5140.85
1153.415	5084.95
1157.03607	5161.95
1160.65467	5434.05
1164.27079	5942.35
1167.88443	6687.05
1171.49561	7878.75
1175.10432	9952.85
1178.71056	12781.35
1182.31434	14661.15
1185.91565	14284.15
1189.51451	12457.75
1193.11091	10558.05
1196.70485	9305.85
1200.29634	8840.25
1203.88538	8223.05
1207.47197	7074.85
1211.05612	5978.25
1214.63782	5298.95
1218.21708	4986.95
1221.79391	4868.15
1225.36829	4844.55
1228.94024	4838.95
1232.50976	4829.75
1236.07685	4854.05
1239.6415	4936.05
1243.20374	5078.75
1246.76355	5275.45
1250.32093	5534.45
1253.8759	5925.85
1257.42845	6583.35
1260.97859	7378.95
1264.52631	8139.95
1268.07163	8467.05
1271.61453	8433.05
1275.15503	8125.15
1278.69312	7812.15
1282.22882	8045.25
1285.76211	9132.55
1289.29301	10619.85
1292.82151	11585.85
1296.34761	11969.15
1299.87133	12942.05
1303.39266	15392.15
1306.9116	20040.25
1310.42815	25745.45
1313.94233	27943.15
1317.45412	23746.15
1320.96354	17332.55
1324.47058	12466.55
1327.97525	9535.25
1331.47754	8102.75
1334.97747	7605.15
1338.47502	7826.75
1341.97022	8980.45
1345.46305	11417.45
1348.95352	14915.25
1352.44163	18588.45
1355.92738	23246.15
1359.41078	31315.95
1362.89183	39638.35
1366.37053	37421.15
1369.84688	25496.45
1373.32088	15897.35
1376.79254	11771.25
1380.26186	9871.75
1383.72883	8415.75
1387.19347	7106.55
1390.65578	6146.75
1394.11575	5622.85
1397.57339	5354.15
1401.0287	5167.85
1404.48168	4967.75
1407.93234	4868.45
1411.38068	5016.95
1414.82669	5461.35
1418.27039	5943.85
1421.71177	6017.45
1425.15083	5777.25
1428.58758	5904.65
1432.02203	6587.05
1435.45416	7042.65
1438.88399	6728.15
1442.31151	6258.95
1445.73673	6200.05
1449.15965	6119.05
1452.58027	5958.55
1455.9986	5733.15
1459.41463	5519.55
1462.82837	5533.25
1466.23982	5807.45
1469.64898	6182.25
1473.05586	6296.85
1476.46045	6251.25
1479.86276	6295.95
1483.26279	6616.95
1486.66054	7339.55
1490.05602	8460.95
1493.44922	10301.15
1496.84016	13141.55
1500.22882	17555.65
1503.61521	23790.75
1506.99934	31903.05
1510.38121	40207.75
1513.76081	43759.65
1517.13816	39042.05
1520.51324	29279.25
1523.88607	20170.85
1527.25665	14257.85
1530.62498	10889.25
1533.99105	8929.55
1537.35488	7691.55
1540.71647	6962.35
1544.07581	6661.35
1547.4329	6665.85
1550.78776	6845.55
1554.14038	7224.15
1557.49077	7875.95
1560.83892	9027.95
1564.18484	10791.25
1567.52853	12669.15
1570.86999	13652.85
1574.20922	13707.55
1577.54624	12882.25
1580.88103	10690.55
1584.2136	8137.75
1587.54395	6631.35
1590.87208	6278.15
1594.19801	6763.45
1597.52172	7601.75
1600.84321	7633.95
1604.16251	6747.75
1607.47959	5851.15
1610.79447	5327.65
1614.10715	4908.65
1617.41763	4659.35
1620.7259	4534.65
1624.03199	4600.05
1627.33587	4844.45
1630.63757	5275.95
1633.93707	6105.35
1637.23439	7588.15
1640.52951	10322.35
1643.82246	14987.55
1647.11321	21257.15
1650.40179	26174.75
1653.68819	25676.85
1656.97241	19808.75
1660.25446	13128.25
1663.53433	8672.25
1666.81203	6226.65
1670.08756	4988.15
1673.36092	4290.15
1676.63211	3884.25
1679.90115	3623.85
1683.16801	3436.15
1686.43272	3286.45
1689.69527	3208.85
1692.95567	3105.35
1696.2139	3069.55
1699.46999	3003.75
1702.72392	2992.55
1705.97571	2993.15
1709.22535	2983.95
1712.47284	3020.65
1715.71819	3047.85
1718.96139	3045.35
1722.20246	3015.05
1725.44139	2953.45
1728.67818	2870.25
1731.91284	2787.05
1735.14537	2724.95
1738.37576	2681.05
1741.60403	2650.25
1744.83017	2603.55
1748.05418	2601.45
1751.27607	2571.85
1754.49584	2511.05
1757.71349	2443.05
1760.92903	2414.85
1764.14244	2342.25
1767.35375	2314.35
1770.56294	2252.95
1773.77002	2208.55
1776.97499	2198.25
1780.17785	2142.45
1783.37861	2117.55
1786.57727	2116.55
1789.77382	2043.45
1792.96828	2084.45
1796.16064	2083.55
1799.3509	2061.05
1802.53907	2078.25
1805.72514	2041.65
1808.90913	2015.05
1812.09102	2018.25
1815.27083	2019.35
1818.44856	1997.95
1821.6242	1981.05
1824.79776	1963.25
1827.96924	1956.75
1831.13864	1926.15
1834.30597	1927.45
1837.47122	1884.85
1840.6344	1864.45
1843.7955	1822.45
1846.95454	1802.35
1850.11151	1809.05
1853.26642	1783.85
1856.41926	1791.65
1859.57004	1788.55
1862.71876	1787.35
1865.86542	1805.35
1869.01003	1819.85
1872.15258	1802.05
1875.29308	1822.95
1878.43152	1824.25
1881.56792	1810.35
1884.70227	1787.25
1887.83457	1784.05
1890.96482	1745.05
1894.09304	1747.95
1897.21921	1748.45
1900.34335	1744.35
1903.46544	1724.45
1906.58551	1740.75
1909.70353	1735.65
1912.81953	1728.65
1915.93349	1717.25
1919.04543	1710.75
1922.15534	1687.65
1925.26322	1681.45
1928.36908	1643.15
1931.47292	1628.05
1934.57473	1603.75
1937.67453	1577.75
1940.77232	1517.45
1943.86808	1517.65
1946.96184	1521.15
1950.05358	1495.85
1953.14331	1481.75
1956.23103	1508.25
1959.31675	1493.65
1962.40046	1461.25
1965.48217	1520.45
1968.56188	1537.15
1971.63959	1544.55
1974.7153	1555.45
1977.78901	1540.15
1980.86073	1507.35
1983.93046	1451.15
1986.99819	1368.85
1990.06394	1375.05
1993.1277	1393.45
1996.18947	1373.55
1999.24925	1347.45
2002.30706	1353.85
2005.36288	1343.85
2008.41672	1328.25
2011.46859	1300.65
2014.51848	1291.25
2017.56639	1282.85
2020.61233	1267.85
2023.6563	1281.45
2026.6983	1240.55
2029.73833	1256.45
2032.7764	1272.15
2035.8125	1214.15
2038.84664	1225.85
2041.87881	1223.55
2044.90903	1241.25
2047.93729	1231.75
2050.96359	1198.45
2053.98794	1205.85
2057.01034	1210.85
2060.03078	1182.25
2063.04927	1158.75
2066.06582	1165.35
2069.08042	1132.85
2072.09307	1132.05
2075.10378	1144.65
2078.11255	1136.45
2081.11938	1144.45
2084.12426	1131.65
2087.12722	1136.35
2090.12824	1119.05
2093.12732	1127.65
2096.12447	1132.35
2099.11969	1131.85
2102.11299	1117.95
2105.10435	1136.55
2108.09379	1130.75
2111.08131	1126.75
2114.0669	1141.55
2117.05057	1147.25
2120.03233	1149.15
2123.01216	1188.55
2125.99008	1204.65
2128.96609	1209.75
2131.94018	1218.65
2134.91236	1187.75
2137.88263	1159.75
2140.851	1136.95
2143.81746	1146.35
2146.78201	1116.25
2149.74466	1085.85
2152.7054	1084.15
2155.66425	1066.45
2158.6212	1047.95
2161.57625	1025.25
2164.52941	1004.15
2167.48067	1033.35
2170.43004	1026.15
2173.37752	1054.65
2176.32311	1048.85
2179.26681	1063.25
2182.20863	1067.75
2185.14856	1062.05
2188.08661	1057.25
2191.02278	1051.65
2193.95707	1007.25
2196.88948	996.45
2199.82001	1001.45
2202.74867	981.15
2205.67545	988.45
2208.60037	1007.55
2211.52341	992.65
2214.44458	988.85
2217.36388	988.65
2220.28132	979.55
2223.1969	955.45
2226.11061	965.95
2229.02246	946.05
2231.93245	954.05
2234.84058	940.55
2237.74686	932.55
2240.65128	930.85
2243.55385	949.85
2246.45456	932.45
2249.35343	969.95
2252.25044	974.45
2255.14561	1009.65
2258.03893	1039.15
2260.93041	1064.05
2263.82004	1071.25
2266.70783	1080.55
2269.59378	1061.85
2272.4779	1042.25
2275.36017	1062.75
2278.24061	1041.35
2281.11922	1007.35
2283.996	1017.75
2286.87094	987.05
2289.74405	986.95
2292.61534	972.05
2295.4848	943.65
2298.35243	939.05
2301.21824	917.05
2304.08223	919.45
2306.94439	932.25
2309.80474	929.15
2312.66327	924.85
2315.51999	912.15
2318.37489	909.35
2321.22797	894.75
2324.07925	897.15
2326.92871	894.75
2329.77637	890.65
2332.62222	887.45
2335.46626	877.15
2338.3085	883.15
2341.14893	904.35
2343.98756	915.95
2346.8244	903.25
2349.65943	910.85
2352.49267	928.25
2355.32411	950.55
2358.15376	957.85
2360.98161	973.05
2363.80768	976.25
2366.63195	1007.55
2369.45444	1024.95
2372.27514	1029.95
2375.09405	1038.05
2377.91118	999.85
2380.72652	989.55
2383.54009	984.25
2386.35187	979.45
2389.16188	944.55
2391.97011	929.05
2394.77657	913.05
2397.58125	913.45
2400.38416	895.75
2403.18529	880.35
2405.98466	854.55
2408.78226	865.65
2411.57809	864.55
2414.37216	855.95
2417.16446	856.75
2419.955	846.15
2422.74378	868.65
2425.5308	851.55
2428.31606	877.15
2431.09956	883.95
2433.88131	868.35
2436.6613	889.65
2439.43954	889.35
2442.21603	895.85
2444.99077	900.95
2447.76377	919.85
2450.53501	929.05
2453.30451	925.85
2456.07226	941.85
2458.83827	929.35
2461.60254	890.65
2464.36507	923.65
2467.12586	899.65
2469.88492	916.35
2472.64224	917.45
2475.39782	909.15
2478.15167	945.15
2480.90379	948.05
2483.65417	992.25
2486.40283	1008.65
2489.14976	1029.35
2491.89497	1021.55
2494.63845	1033.15
2497.3802	1009.65
2500.12024	999.05
2502.85855	992.45
2505.59514	976.35
2508.33002	939.45
2511.06318	899.95
2513.79462	879.95
2516.52435	819.45
2519.25237	787.05
2521.97867	789.95
2524.70327	771.25
2527.42616	766.15
2530.14734	775.55
2532.86681	749.15
2535.58458	758.05
2538.30065	751.45
2541.01501	777.05
2543.72768	765.45
2546.43864	781.85
2549.14791	789.95
2551.85548	784.35
2554.56136	791.65
2557.26554	808.65
2559.96803	814.75
2562.66883	820.75
2565.36794	803.25
2568.06536	787.85
2570.7611	817.15
2573.45514	814.75
2576.14751	804.95
2578.83819	788.55
2581.52719	771.95
2584.21451	778.95
2586.90015	752.75
2589.58411	747.35
2592.2664	755.65
2594.94701	757.05
2597.62594	769.15
2600.30321	714.15
2602.9788	738.15
2605.65273	735.85
2608.32498	741.55
2610.99557	768.95
2613.66449	744.55
2616.33175	768.45
2618.99734	767.35
2621.66128	777.65
2624.32355	763.35
2626.98416	740.55
2629.64311	735.45
2632.30041	722.85
2634.95605	696.95
2637.61004	694.05
2640.26238	672.25
2642.91306	663.55
2645.56209	687.75
2648.20948	682.15
2650.85521	671.45
2653.4993	695.95
2656.14175	691.85
2658.78255	697.15
2661.42171	668.85
2664.05923	714.75
2666.6951	729.35
2669.32934	734.35
2671.96194	754.25
2674.59291	740.15
2677.22224	745.65
2679.84993	743.05
2682.476	730.15
2685.10043	725.95
2687.72324	708.75
2690.34441	709.35
2692.96396	706.75
2695.58188	709.75
2698.19818	705.05
2700.81285	683.65
2703.4259	679.65
2706.03733	653.05
2708.64714	668.75
2711.25533	702.65
2713.86191	712.75
2716.46687	708.25
2719.07021	710.25
2721.67194	710.85
2724.27206	722.05
2726.87057	690.85
2729.46747	676.75
2732.06276	679.75
2734.65644	663.35
2737.24852	658.95
2739.83899	640.65
2742.42786	647.85
2745.01513	649.85
2747.60079	619.95
2750.18486	604.65
2752.76733	613.05
2755.3482	602.25
2757.92747	605.85
2760.50515	582.35
2763.08123	573.65
2765.65573	575.65
2768.22863	567.85
2770.79994	566.75
2773.36967	568.85
2775.9378	563.85
2778.50435	567.55
2781.06932	570.45
2783.6327	556.95
2786.1945	587.45
2788.75471	587.95
2791.31335	587.35
2793.87041	597.45
2796.42589	584.35
2798.97979	584.75
2801.53212	605.85
2804.08288	632.65
2806.63206	629.85
2809.17967	627.15
2811.72571	665.85
2814.27018	681.25
2816.81308	684.65
2819.35442	675.15
2821.89419	712.55
2824.43239	714.35
2826.96904	754.05
2829.50412	727.85
2832.03763	722.25
2834.56959	720.45
2837.1	696.85
2839.62884	693.85
2842.15613	686.85
2844.68186	689.85
2847.20604	676.45
2849.72867	678.85
2852.24974	699.95
2854.76927	684.75
2857.28724	658.35
2859.80367	739.05
2862.31855	762.85
2864.83189	770.35
2867.34368	805.45
2869.85393	824.35
2872.36264	808.95
2874.8698	823.05
2877.37543	823.15
2879.87952	801.05
2882.38207	770.45
2884.88308	766.45
2887.38256	751.75
2889.88051	740.55
2892.37692	734.75
2894.8718	706.45
2897.36515	727.75
2899.85698	726.85
2902.34727	732.45
2904.83604	752.45
2907.32328	774.65
2909.809	791.25
2912.29319	807.35
2914.77587	814.55
2917.25702	826.45
2919.73665	810.75
2922.21476	802.45
2924.69136	780.45
2927.16644	737.45
2929.64	719.05
2932.11205	696.15
2934.58258	703.25
2937.05161	688.95
2939.51912	689.25
2941.98513	701.05
2944.44962	689.45
2946.91261	665.05
2949.37409	681.85
2951.83407	679.15
2954.29254	685.85
2956.74951	694.05
2959.20498	683.15
2961.65895	683.45
2964.11142	676.15
2966.56239	673.65
2969.01186	667.35
2971.45984	662.25
2973.90632	653.85
2976.35131	676.45
2978.7948	667.95
2981.23681	659.55
2983.67732	674.85
2986.11635	680.35
2988.55388	659.05
2990.98993	670.65
2993.4245	667.65
2995.85758	662.15
2998.28917	672.45
3000.71928	670.45
3003.14791	672.45
3005.57506	663.15
3008.00073	660.75
3010.42493	605.25
3012.84764	664.45
3015.26888	657.45
3017.68865	651.75
3020.10694	611.15
3022.52376	631.45
3024.9391	629.45
3027.35298	615.25
3029.76539	595.15
3032.17632	588.95
3034.5858	567.65
3036.9938	564.55
3039.40034	542.95
3041.80542	527.35
3044.20903	500.85
3046.61118	495.65
3049.01187	505.45
3051.4111	493.85
3053.80888	490.75
3056.20519	487.45
3058.60005	470.95
3060.99345	507.15
3063.3854	477.85
3065.7759	468.85
3068.16494	465.25
3070.55254	453.15
3072.93868	466.25
3075.32338	456.35
3077.70662	449.65
3080.08842	445.75
3082.46878	435.75
3084.84769	456.05
3087.22515	432.15
3089.60118	444.85
3091.97576	429.55
3094.3489	435.95
3096.72061	422.95
3099.09087	417.55
3101.4597	429.65
3103.82709	412.25
3106.19305	404.55
3108.55757	416.55
3110.92066	405.35
3113.28232	426.65
3115.64255	425.95
3118.00134	428.75
3120.35871	416.75
3122.71466	402.55
3125.06917	419.55
3127.42226	414.95
3129.77393	400.75
3132.12417	416.45
3134.47299	425.05
3136.82039	407.55
3139.16636	388.25
3141.51092	416.45
3143.85406	423.35
3146.19579	401.55
3148.53609	412.85
3150.87499	423.75
3153.21246	414.55
3155.54853	429.85
3157.88318	428.35
3160.21642	429.65
3162.54826	421.85
3164.87868	426.75
3167.2077	387.55
3169.5353	410.95
3171.86151	412.95
3174.18631	387.15
3176.5097	382.75
3178.83169	375.55
3181.15228	375.65
3183.47147	351.75
3185.78926	335.75
3188.10565	349.75
3190.42065	326.15
3192.73424	339.55
3195.04645	335.65
3197.35725	324.85
3199.66667	346.35
3201.97469	336.05
3204.28132	334.95
3206.58656	351.15
3208.8904	364.25
3211.19287	357.15
3213.49394	349.55
3215.79363	348.25
3218.09193	369.65
3220.38884	357.25
3222.68438	359.85
3224.97853	342.45
3227.2713	365.55
3229.56269	349.35
3231.8527	344.95
3234.14133	330.85
3236.42858	337.05
3238.71446	314.85
3240.99896	336.25
3243.28209	316.25
3245.56384	331.35
3247.84423	322.15
3250.12324	329.15
3252.40088	330.35
3254.67715	318.75
3256.95205	313.25
3259.22558	328.75
3261.49775	326.05
3263.76855	321.75
3266.03799	329.95
3268.30606	334.25
3270.57277	339.75
3272.83812	324.45
3275.10211	341.25
3277.36474	358.85
3279.62601	363.55
3281.88593	351.45
3284.14448	344.15
3286.40168	373.15
3288.65753	377.55
3290.91202	388.55
3293.16516	391.05
3295.41695	423.95
3297.66738	437.85
3299.91647	428.55
3302.16421	450.15
3304.4106	424.95
3306.65564	453.65
3308.89933	438.05
3311.14169	446.75
3313.38269	451.05
3315.62236	447.65
3317.86068	454.65
3320.09766	468.35
3322.3333	453.75
3324.5676	463.85
3326.80056	469.95
3329.03219	476.65
3331.26248	-1.15
3333.49143	-0.45
3335.71905	1.25
