Data from AgNPs_UA_50uM_CRN_500uM_SU_RamanShift__85__14-10-00-330.txt Node

Date: Thu Aug 04 14:10:00 BST 2022
User: TCL
Spectrometer: QEP01345
Trigger mode: 4
Integration Time (sec): 1.000000E0
Scans to average: 10
Electric dark correction enabled: true
Nonlinearity correction enabled: false
Boxcar width: 0
XAxis mode: Raman Shifts
Number of Pixels in Spectrum: 1044
>>>>>Begin Spectral Data<<<<<
46.04893	0.7875
50.45542	-0.4125
54.85868	-0.3125
59.25871	-0.5125
63.6555	13.5875
68.04907	10.5875
72.43941	13.7875
76.82654	13.6875
81.21044	13.7875
85.59113	16.6875
89.96862	18.0875
94.34289	17.1875
98.71396	17.6875
103.08183	17.7875
107.4465	16.1875
111.80798	17.6875
116.16626	19.3875
120.52136	18.1875
124.87327	21.3875
129.222	22.1875
133.56755	24.2875
137.90993	26.0875
142.24913	26.3875
146.58517	30.6875
150.91804	36.0875
155.24774	42.4875
159.57429	53.6875
163.89768	71.6875
168.21792	93.3875
172.53501	124.9875
176.84895	174.6875
181.15975	250.0875
185.46741	350.1875
189.77193	480.2875
194.07331	644.9875
198.37157	826.8875
202.6667	1020.0875
206.9587	1225.0875
211.24758	1414.8875
215.53334	1607.1875
219.81599	1805.2875
224.09553	2049.5875
228.37195	2303.2875
232.64527	2575.3875
236.91549	2855.4875
241.18261	3107.6875
245.44663	3343.1875
249.70755	3524.0875
253.96539	3686.4875
258.22014	3846.1875
262.4718	3985.6875
266.72039	4071.8875
270.96589	4111.4875
275.20832	4109.6875
279.44768	4049.4875
283.68397	3993.6875
287.91719	3952.2875
292.14735	3938.2875
296.37445	3990.9875
300.59849	4100.0875
304.81948	4216.9875
309.03742	4329.3875
313.25231	4359.7875
317.46415	4308.2875
321.67296	4175.8875
325.87872	4027.4875
330.08145	3976.5875
334.28114	4001.3875
338.47781	4060.6875
342.67145	4155.2875
346.86207	4257.8875
351.04966	4408.5875
355.23424	4552.2875
359.4158	4676.4875
363.59435	4769.5875
367.76989	4798.7875
371.94243	4825.4875
376.11196	4858.3875
380.27849	4866.8875
384.44203	4886.2875
388.60257	4894.8875
392.76012	4934.6875
396.91468	4964.3875
401.06626	5081.8875
405.21485	5160.5875
409.36047	5108.1875
413.50311	4984.6875
417.64277	4833.2875
421.77947	4771.9875
425.9132	4761.0875
430.04396	4836.5875
434.17176	4943.5875
438.2966	5126.7875
442.41849	5350.1875
446.53742	5638.4875
450.6534	5914.8875
454.76644	6064.1875
458.87653	6057.2875
462.98368	5872.4875
467.08789	5658.2875
471.18916	5403.8875
475.2875	5165.3875
479.38291	4967.9875
483.4754	4845.6875
487.56496	4756.2875
491.6516	4695.3875
495.73531	4654.1875
499.81612	4643.5875
503.89401	4698.1875
507.96899	4695.5875
512.04106	4746.0875
516.11023	4794.8875
520.1765	4864.7875
524.23987	4913.0875
528.30034	4927.7875
532.35792	4917.7875
536.41261	4857.1875
540.46441	4748.5875
544.51333	4743.0875
548.55936	4782.3875
552.60252	4848.4875
556.64279	4931.7875
560.6802	4959.4875
564.71473	4926.4875
568.7464	4947.7875
572.7752	4971.9875
576.80114	4919.6875
580.82422	4928.1875
584.84444	5027.6875
588.86181	5273.5875
592.87633	5549.6875
596.888	5703.1875
600.89682	5830.8875
604.9028	6314.3875
608.90594	7382.3875
612.90624	8273.1875
616.90371	7524.9875
620.89834	5983.9875
624.89015	5401.6875
628.87913	5323.4875
632.86528	5241.5875
636.84862	5123.8875
640.82913	4963.9875
644.80683	4787.9875
648.78172	4698.6875
652.75379	4731.9875
656.72306	4893.3875
660.68952	5061.5875
664.65319	5028.5875
668.61405	4907.6875
672.57211	4907.7875
676.52738	4889.4875
680.47986	4813.9875
684.42955	4754.4875
688.37646	4773.4875
692.32058	4835.2875
696.26192	4899.8875
700.20048	4982.5875
704.13626	4999.9875
708.06928	4901.5875
711.99952	4861.8875
715.927	4895.5875
719.85171	4926.0875
723.77365	4897.2875
727.69284	4841.4875
731.60928	4823.0875
735.52295	4863.6875
739.43388	4881.1875
743.34206	4924.6875
747.24749	4965.1875
751.15017	4992.5875
755.05012	5069.2875
758.94733	5241.8875
762.8418	5614.8875
766.73354	6188.3875
770.62254	6723.6875
774.50882	6919.1875
778.39237	6621.8875
782.27321	6009.5875
786.15132	5462.0875
790.02671	5132.0875
793.89938	4996.9875
797.76935	4930.2875
801.6366	4911.8875
805.50115	4899.0875
809.36299	4866.2875
813.22213	4839.7875
817.07857	4823.4875
820.93231	4829.7875
824.78336	4837.2875
828.63172	4847.0875
832.47738	4869.6875
836.32036	4886.5875
840.16066	4896.8875
843.99827	4918.5875
847.8332	4869.2875
851.66546	4845.6875
855.49504	4874.5875
859.32195	4857.5875
863.1462	4849.6875
866.96777	4812.3875
870.78668	4832.4875
874.60293	4824.6875
878.41652	4847.1875
882.22745	4892.2875
886.03573	4908.7875
889.84136	4887.5875
893.64433	4876.7875
897.44466	4855.0875
901.24235	4848.8875
905.0374	4821.1875
908.8298	4802.8875
912.61957	4815.4875
916.40671	4838.9875
920.19121	4891.1875
923.97308	4977.4875
927.75233	5027.8875
931.52895	5036.4875
935.30295	4975.3875
939.07433	4866.2875
942.84309	4810.5875
946.60924	4774.4875
950.37278	4767.1875
954.13371	4727.4875
957.89203	4696.9875
961.64774	4690.9875
965.40086	4672.4875
969.15137	4670.1875
972.89929	4653.2875
976.64461	4645.2875
980.38733	4669.7875
984.12747	4694.4875
987.86502	4747.2875
991.59999	4840.1875
995.33237	4973.2875
999.06217	5202.2875
1002.78939	5425.2875
1006.51404	5512.5875
1010.23611	5556.1875
1013.95561	5671.9875
1017.67255	5728.9875
1021.38692	5660.5875
1025.09872	5585.4875
1028.80796	5635.5875
1032.51465	5779.8875
1036.21877	5881.1875
1039.92035	5858.8875
1043.61937	5734.2875
1047.31584	5571.1875
1051.00976	5413.6875
1054.70114	5324.1875
1058.38998	5299.8875
1062.07627	5318.2875
1065.76003	5331.1875
1069.44126	5374.7875
1073.11995	5399.9875
1076.79611	5456.1875
1080.46974	5524.0875
1084.14085	5609.2875
1087.80943	5647.6875
1091.47549	5650.1875
1095.13903	5535.9875
1098.80005	5415.4875
1102.45857	5341.5875
1106.11456	5337.6875
1109.76805	5381.5875
1113.41903	5506.1875
1117.06751	5580.3875
1120.71348	5720.3875
1124.35696	5876.6875
1127.99793	5965.2875
1131.63641	5889.5875
1135.2724	5734.1875
1138.90589	5602.8875
1142.5369	5506.3875
1146.16542	5421.9875
1149.79145	5408.4875
1153.415	5414.1875
1157.03607	5450.1875
1160.65467	5541.6875
1164.27079	5710.3875
1167.88443	5969.9875
1171.49561	6355.4875
1175.10432	6960.9875
1178.71056	7732.7875
1182.31434	8495.2875
1185.91565	8975.2875
1189.51451	9013.2875
1193.11091	8652.0875
1196.70485	8067.3875
1200.29634	7482.1875
1203.88538	7024.3875
1207.47197	6637.3875
1211.05612	6357.4875
1214.63782	6242.1875
1218.21708	6259.4875
1221.79391	6311.4875
1225.36829	6345.4875
1228.94024	6348.7875
1232.50976	6307.4875
1236.07685	6313.0875
1239.6415	6392.3875
1243.20374	6436.9875
1246.76355	6434.3875
1250.32093	6493.2875
1253.8759	6690.9875
1257.42845	6916.2875
1260.97859	7175.1875
1264.52631	7381.6875
1268.07163	7536.4875
1271.61453	7628.7875
1275.15503	7717.3875
1278.69312	7856.9875
1282.22882	8017.9875
1285.76211	8268.2875
1289.29301	8543.0875
1292.82151	8774.1875
1296.34761	9020.0875
1299.87133	9336.1875
1303.39266	9823.2875
1306.9116	10549.9875
1310.42815	11333.9875
1313.94233	11622.7875
1317.45412	11404.3875
1320.96354	10920.4875
1324.47058	10450.9875
1327.97525	10134.3875
1331.47754	10153.6875
1334.97747	10412.8875
1338.47502	10636.8875
1341.97022	10766.8875
1345.46305	10866.9875
1348.95352	11132.8875
1352.44163	11592.9875
1355.92738	12250.8875
1359.41078	13025.2875
1362.89183	13349.7875
1366.37053	12629.8875
1369.84688	11185.2875
1373.32088	9867.2875
1376.79254	9023.0875
1380.26186	8650.8875
1383.72883	8418.7875
1387.19347	8112.3875
1390.65578	7743.0875
1394.11575	7463.3875
1397.57339	7346.8875
1401.0287	7387.4875
1404.48168	7600.3875
1407.93234	7892.1875
1411.38068	8139.6875
1414.82669	8171.9875
1418.27039	8015.9875
1421.71177	7817.5875
1425.15083	7758.5875
1428.58758	7888.5875
1432.02203	8112.3875
1435.45416	8271.4875
1438.88399	8288.1875
1442.31151	8221.3875
1445.73673	8162.2875
1449.15965	8087.1875
1452.58027	7917.7875
1455.9986	7694.3875
1459.41463	7640.7875
1462.82837	7729.1875
1466.23982	7940.3875
1469.64898	8179.6875
1473.05586	8387.6875
1476.46045	8547.1875
1479.86276	8658.6875
1483.26279	8710.4875
1486.66054	8753.2875
1490.05602	8827.2875
1493.44922	8967.0875
1496.84016	9217.2875
1500.22882	9601.0875
1503.61521	10164.4875
1506.99934	10696.4875
1510.38121	10952.1875
1513.76081	10697.0875
1517.13816	10035.7875
1520.51324	9290.1875
1523.88607	8798.8875
1527.25665	8539.0875
1530.62498	8523.1875
1533.99105	8542.7875
1537.35488	8587.4875
1540.71647	8594.4875
1544.07581	8517.7875
1547.4329	8327.0875
1550.78776	8064.9875
1554.14038	7820.9875
1557.49077	7632.5875
1560.83892	7554.1875
1564.18484	7559.9875
1567.52853	7628.0875
1570.86999	7709.5875
1574.20922	7698.8875
1577.54624	7636.8875
1580.88103	7400.6875
1584.2136	7224.8875
1587.54395	7246.5875
1590.87208	7657.7875
1594.19801	8434.0875
1597.52172	9401.0875
1600.84321	10068.0875
1604.16251	10032.4875
1607.47959	9352.3875
1610.79447	8380.5875
1614.10715	7523.3875
1617.41763	6855.8875
1620.7259	6455.6875
1624.03199	6294.8875
1627.33587	6304.5875
1630.63757	6480.3875
1633.93707	6906.7875
1637.23439	7565.6875
1640.52951	8415.0875
1643.82246	9339.6875
1647.11321	9968.8875
1650.40179	9796.0875
1653.68819	8854.4875
1656.97241	7633.7875
1660.25446	6606.1875
1663.53433	5924.1875
1666.81203	5514.3875
1670.08756	5276.0875
1673.36092	5107.8875
1676.63211	4998.4875
1679.90115	4926.3875
1683.16801	4857.5875
1686.43272	4800.9875
1689.69527	4779.6875
1692.95567	4764.5875
1696.2139	4743.3875
1699.46999	4728.5875
1702.72392	4734.0875
1705.97571	4727.8875
1709.22535	4720.9875
1712.47284	4719.3875
1715.71819	4710.2875
1718.96139	4696.3875
1722.20246	4696.9875
1725.44139	4671.6875
1728.67818	4653.5875
1731.91284	4626.0875
1735.14537	4586.2875
1738.37576	4593.6875
1741.60403	4569.8875
1744.83017	4546.2875
1748.05418	4538.1875
1751.27607	4527.0875
1754.49584	4519.4875
1757.71349	4508.5875
1760.92903	4512.0875
1764.14244	4506.0875
1767.35375	4501.4875
1770.56294	4499.9875
1773.77002	4486.7875
1776.97499	4487.7875
1780.17785	4468.5875
1783.37861	4464.3875
1786.57727	4446.5875
1789.77382	4457.2875
1792.96828	4444.3875
1796.16064	4455.9875
1799.3509	4437.1875
1802.53907	4437.1875
1805.72514	4431.2875
1808.90913	4419.7875
1812.09102	4411.8875
1815.27083	4397.3875
1818.44856	4395.0875
1821.6242	4368.7875
1824.79776	4376.3875
1827.96924	4358.9875
1831.13864	4332.3875
1834.30597	4356.0875
1837.47122	4346.5875
1840.6344	4338.8875
1843.7955	4331.3875
1846.95454	4332.4875
1850.11151	4349.2875
1853.26642	4336.6875
1856.41926	4334.0875
1859.57004	4350.8875
1862.71876	4341.9875
1865.86542	4344.4875
1869.01003	4336.4875
1872.15258	4347.7875
1875.29308	4349.8875
1878.43152	4327.8875
1881.56792	4328.4875
1884.70227	4325.7875
1887.83457	4344.2875
1890.96482	4334.4875
1894.09304	4323.2875
1897.21921	4307.1875
1900.34335	4300.7875
1903.46544	4297.1875
1906.58551	4287.6875
1909.70353	4280.5875
1912.81953	4293.0875
1915.93349	4288.1875
1919.04543	4279.9875
1922.15534	4289.7875
1925.26322	4264.9875
1928.36908	4281.0875
1931.47292	4260.6875
1934.57473	4272.3875
1937.67453	4250.1875
1940.77232	4240.4875
1943.86808	4237.4875
1946.96184	4225.0875
1950.05358	4203.4875
1953.14331	4199.2875
1956.23103	4181.5875
1959.31675	4165.9875
1962.40046	4158.6875
1965.48217	4147.5875
1968.56188	4137.9875
1971.63959	4121.5875
1974.7153	4127.7875
1977.78901	4108.5875
1980.86073	4099.6875
1983.93046	4079.7875
1986.99819	4077.8875
1990.06394	4060.9875
1993.1277	4059.3875
1996.18947	4033.7875
1999.24925	4022.4875
2002.30706	4010.1875
2005.36288	4001.9875
2008.41672	3976.5875
2011.46859	3970.0875
2014.51848	3960.8875
2017.56639	3939.5875
2020.61233	3937.7875
2023.6563	3915.0875
2026.6983	3914.6875
2029.73833	3910.7875
2032.7764	3890.9875
2035.8125	3884.5875
2038.84664	3887.8875
2041.87881	3883.2875
2044.90903	3874.8875
2047.93729	3866.6875
2050.96359	3864.5875
2053.98794	3863.5875
2057.01034	3862.1875
2060.03078	3866.3875
2063.04927	3872.4875
2066.06582	3859.7875
2069.08042	3849.8875
2072.09307	3838.9875
2075.10378	3831.9875
2078.11255	3832.3875
2081.11938	3850.1875
2084.12426	3827.1875
2087.12722	3825.4875
2090.12824	3823.9875
2093.12732	3839.4875
2096.12447	3835.4875
2099.11969	3835.0875
2102.11299	3836.6875
2105.10435	3831.2875
2108.09379	3821.7875
2111.08131	3819.3875
2114.0669	3828.5875
2117.05057	3826.9875
2120.03233	3822.5875
2123.01216	3825.0875
2125.99008	3836.4875
2128.96609	3840.2875
2131.94018	3833.3875
2134.91236	3832.1875
2137.88263	3834.7875
2140.851	3829.8875
2143.81746	3838.7875
2146.78201	3825.6875
2149.74466	3842.8875
2152.7054	3821.1875
2155.66425	3820.0875
2158.6212	3823.0875
2161.57625	3828.6875
2164.52941	3812.1875
2167.48067	3825.5875
2170.43004	3811.9875
2173.37752	3819.8875
2176.32311	3816.0875
2179.26681	3824.7875
2182.20863	3813.1875
2185.14856	3821.2875
2188.08661	3822.1875
2191.02278	3813.1875
2193.95707	3807.2875
2196.88948	3816.1875
2199.82001	3813.7875
2202.74867	3811.2875
2205.67545	3818.2875
2208.60037	3821.7875
2211.52341	3813.1875
2214.44458	3801.7875
2217.36388	3808.1875
2220.28132	3793.8875
2223.1969	3777.1875
2226.11061	3778.7875
2229.02246	3765.4875
2231.93245	3766.9875
2234.84058	3765.2875
2237.74686	3745.5875
2240.65128	3744.7875
2243.55385	3727.0875
2246.45456	3724.7875
2249.35343	3722.5875
2252.25044	3725.1875
2255.14561	3721.5875
2258.03893	3714.7875
2260.93041	3711.3875
2263.82004	3706.9875
2266.70783	3693.6875
2269.59378	3678.0875
2272.4779	3663.4875
2275.36017	3663.4875
2278.24061	3632.4875
2281.11922	3625.6875
2283.996	3637.4875
2286.87094	3622.3875
2289.74405	3639.7875
2292.61534	3617.0875
2295.4848	3612.7875
2298.35243	3627.0875
2301.21824	3622.3875
2304.08223	3618.3875
2306.94439	3618.1875
2309.80474	3627.6875
2312.66327	3633.9875
2315.51999	3633.4875
2318.37489	3637.9875
2321.22797	3636.7875
2324.07925	3612.4875
2326.92871	3613.8875
2329.77637	3599.9875
2332.62222	3611.3875
2335.46626	3600.0875
2338.3085	3593.9875
2341.14893	3608.3875
2343.98756	3615.1875
2346.8244	3610.5875
2349.65943	3614.5875
2352.49267	3605.8875
2355.32411	3604.0875
2358.15376	3603.7875
2360.98161	3603.0875
2363.80768	3601.4875
2366.63195	3593.1875
2369.45444	3579.7875
2372.27514	3565.7875
2375.09405	3572.6875
2377.91118	3568.9875
2380.72652	3557.2875
2383.54009	3531.0875
2386.35187	3534.6875
2389.16188	3529.8875
2391.97011	3523.9875
2394.77657	3510.0875
2397.58125	3500.0875
2400.38416	3508.3875
2403.18529	3478.2875
2405.98466	3498.6875
2408.78226	3468.3875
2411.57809	3466.7875
2414.37216	3454.8875
2417.16446	3459.1875
2419.955	3457.1875
2422.74378	3455.5875
2425.5308	3452.7875
2428.31606	3449.2875
2431.09956	3449.2875
2433.88131	3436.6875
2436.6613	3433.5875
2439.43954	3438.2875
2442.21603	3438.9875
2444.99077	3430.8875
2447.76377	3433.5875
2450.53501	3427.8875
2453.30451	3434.8875
2456.07226	3430.9875
2458.83827	3437.1875
2461.60254	3430.2875
2464.36507	3429.9875
2467.12586	3413.1875
2469.88492	3418.6875
2472.64224	3414.7875
2475.39782	3424.0875
2478.15167	3406.4875
2480.90379	3409.3875
2483.65417	3415.8875
2486.40283	3426.1875
2489.14976	3428.4875
2491.89497	3436.7875
2494.63845	3440.3875
2497.3802	3431.3875
2500.12024	3412.2875
2502.85855	3423.8875
2505.59514	3425.4875
2508.33002	3426.4875
2511.06318	3405.8875
2513.79462	3406.3875
2516.52435	3405.3875
2519.25237	3391.1875
2521.97867	3392.8875
2524.70327	3378.1875
2527.42616	3383.5875
2530.14734	3377.7875
2532.86681	3399.7875
2535.58458	3386.5875
2538.30065	3378.5875
2541.01501	3386.0875
2543.72768	3382.7875
2546.43864	3369.5875
2549.14791	3373.5875
2551.85548	3368.3875
2554.56136	3369.7875
2557.26554	3359.3875
2559.96803	3351.7875
2562.66883	3352.1875
2565.36794	3345.8875
2568.06536	3345.2875
2570.7611	3336.2875
2573.45514	3326.1875
2576.14751	3324.6875
2578.83819	3320.7875
2581.52719	3340.0875
2584.21451	3321.4875
2586.90015	3321.5875
2589.58411	3324.5875
2592.2664	3318.4875
2594.94701	3318.6875
2597.62594	3319.3875
2600.30321	3325.8875
2602.9788	3311.2875
2605.65273	3316.4875
2608.32498	3310.7875
2610.99557	3318.4875
2613.66449	3313.0875
2616.33175	3314.9875
2618.99734	3328.7875
2621.66128	3313.7875
2624.32355	3315.7875
2626.98416	3322.8875
2629.64311	3318.2875
2632.30041	3312.5875
2634.95605	3310.3875
2637.61004	3296.0875
2640.26238	3299.3875
2642.91306	3302.0875
2645.56209	3291.1875
2648.20948	3285.5875
2650.85521	3286.5875
2653.4993	3280.7875
2656.14175	3278.3875
2658.78255	3287.7875
2661.42171	3284.0875
2664.05923	3293.7875
2666.6951	3302.2875
2669.32934	3292.1875
2671.96194	3288.3875
2674.59291	3288.1875
2677.22224	3287.3875
2679.84993	3296.4875
2682.476	3280.6875
2685.10043	3292.0875
2687.72324	3288.3875
2690.34441	3290.0875
2692.96396	3273.1875
2695.58188	3282.5875
2698.19818	3285.9875
2700.81285	3299.1875
2703.4259	3273.5875
2706.03733	3286.8875
2708.64714	3283.9875
2711.25533	3270.8875
2713.86191	3264.8875
2716.46687	3276.3875
2719.07021	3272.4875
2721.67194	3281.2875
2724.27206	3293.4875
2726.87057	3283.3875
2729.46747	3272.0875
2732.06276	3284.6875
2734.65644	3288.6875
2737.24852	3285.0875
2739.83899	3278.4875
2742.42786	3277.7875
2745.01513	3269.3875
2747.60079	3273.1875
2750.18486	3269.1875
2752.76733	3264.8875
2755.3482	3271.6875
2757.92747	3250.7875
2760.50515	3259.0875
2763.08123	3276.9875
2765.65573	3257.5875
2768.22863	3247.0875
2770.79994	3239.2875
2773.36967	3243.2875
2775.9378	3243.0875
2778.50435	3266.7875
2781.06932	3249.1875
2783.6327	3263.5875
2786.1945	3246.1875
2788.75471	3245.8875
2791.31335	3247.1875
2793.87041	3242.6875
2796.42589	3235.1875
2798.97979	3239.9875
2801.53212	3220.2875
2804.08288	3216.6875
2806.63206	3216.1875
2809.17967	3202.8875
2811.72571	3178.0875
2814.27018	3178.7875
2816.81308	3189.9875
2819.35442	3183.7875
2821.89419	3182.5875
2824.43239	3175.0875
2826.96904	3170.9875
2829.50412	3176.3875
2832.03763	3164.1875
2834.56959	3156.2875
2837.1	3148.2875
2839.62884	3163.5875
2842.15613	3160.4875
2844.68186	3153.6875
2847.20604	3147.5875
2849.72867	3147.6875
2852.24974	3142.7875
2854.76927	3125.7875
2857.28724	3122.7875
2859.80367	3125.0875
2862.31855	3115.2875
2864.83189	3122.4875
2867.34368	3114.0875
2869.85393	3108.0875
2872.36264	3105.9875
2874.8698	3094.0875
2877.37543	3097.8875
2879.87952	3103.0875
2882.38207	3101.5875
2884.88308	3087.3875
2887.38256	3087.7875
2889.88051	3084.4875
2892.37692	3072.4875
2894.8718	3095.3875
2897.36515	3084.7875
2899.85698	3085.4875
2902.34727	3099.2875
2904.83604	3075.6875
2907.32328	3076.9875
2909.809	3079.6875
2912.29319	3086.1875
2914.77587	3099.1875
2917.25702	3098.1875
2919.73665	3100.6875
2922.21476	3081.2875
2924.69136	3083.1875
2927.16644	3083.2875
2929.64	3090.7875
2932.11205	3082.1875
2934.58258	3059.9875
2937.05161	3082.7875
2939.51912	3068.9875
2941.98513	3061.5875
2944.44962	3052.3875
2946.91261	3042.9875
2949.37409	3047.3875
2951.83407	3051.9875
2954.29254	3056.5875
2956.74951	3045.0875
2959.20498	3039.6875
2961.65895	3029.4875
2964.11142	3030.0875
2966.56239	3018.3875
2969.01186	3034.5875
2971.45984	3021.4875
2973.90632	3019.2875
2976.35131	3016.0875
2978.7948	3004.1875
2981.23681	3008.0875
2983.67732	2998.0875
2986.11635	2985.0875
2988.55388	2970.8875
2990.98993	2952.0875
2993.4245	2952.5875
2995.85758	2954.0875
2998.28917	2933.9875
3000.71928	2944.7875
3003.14791	2932.2875
3005.57506	2932.1875
3008.00073	2906.8875
3010.42493	2901.0875
3012.84764	2912.5875
3015.26888	2904.0875
3017.68865	2890.2875
3020.10694	2873.0875
3022.52376	2862.6875
3024.9391	2848.4875
3027.35298	2851.3875
3029.76539	2848.8875
3032.17632	2858.5875
3034.5858	2837.0875
3036.9938	2826.4875
3039.40034	2828.2875
3041.80542	2826.2875
3044.20903	2830.1875
3046.61118	2808.7875
3049.01187	2816.8875
3051.4111	2797.8875
3053.80888	2803.0875
3056.20519	2785.0875
3058.60005	2793.9875
3060.99345	2783.9875
3063.3854	2772.0875
3065.7759	2758.8875
3068.16494	2757.7875
3070.55254	2731.7875
3072.93868	2725.3875
3075.32338	2714.0875
3077.70662	2721.6875
3080.08842	2710.6875
3082.46878	2693.8875
3084.84769	2686.1875
3087.22515	2699.0875
3089.60118	2699.8875
3091.97576	2689.6875
3094.3489	2685.9875
3096.72061	2689.6875
3099.09087	2681.1875
3101.4597	2673.6875
3103.82709	2668.1875
3106.19305	2663.9875
3108.55757	2652.4875
3110.92066	2655.7875
3113.28232	2663.5875
3115.64255	2642.5875
3118.00134	2635.7875
3120.35871	2639.5875
3122.71466	2625.7875
3125.06917	2607.5875
