Data from AgNPs_UA_10uM_CRN_500uM_SU_RamanShift__103__13-22-30-274.txt Node

Date: Thu Aug 04 13:22:30 BST 2022
User: TCL
Spectrometer: QEP01345
Trigger mode: 4
Integration Time (sec): 1.000000E0
Scans to average: 10
Electric dark correction enabled: true
Nonlinearity correction enabled: false
Boxcar width: 0
XAxis mode: Raman Shifts
Number of Pixels in Spectrum: 1044
>>>>>Begin Spectral Data<<<<<
46.04893	-0.7
50.45542	-1.1
54.85868	1
59.25871	0.4
63.6555	20
68.04907	20.3
72.43941	22.1
76.82654	23.3
81.21044	23.5
85.59113	26.1
89.96862	26
94.34289	25.9
98.71396	26.4
103.08183	29.9
107.4465	27.6
111.80798	29.3
116.16626	31.2
120.52136	33.3
124.87327	35.6
129.222	36.7
133.56755	37.8
137.90993	40.4
142.24913	47
146.58517	54.6
150.91804	63.8
155.24774	79.6
159.57429	95.9
163.89768	125.5
168.21792	169.2
172.53501	238.7
176.84895	329
181.15975	473.2
185.46741	663.5
189.77193	926.9
194.07331	1248.1
198.37157	1615.7
202.6667	1989.1
206.9587	2378.3
211.24758	2760.7
215.53334	3159.3
219.81599	3567.2
224.09553	4031.5
228.37195	4549.1
232.64527	5094.3
236.91549	5627.3
241.18261	6134.6
245.44663	6530.7
249.70755	6873.4
253.96539	7149.9
258.22014	7415.3
262.4718	7622.7
266.72039	7757.1
270.96589	7796.7
275.20832	7783.9
279.44768	7668.1
283.68397	7569.5
287.91719	7464.7
292.14735	7469.7
296.37445	7598.7
300.59849	7780
304.81948	8054.1
309.03742	8306.1
313.25231	8435.4
317.46415	8339.8
321.67296	8050.6
325.87872	7761.1
330.08145	7619.3
334.28114	7597
338.47781	7681.8
342.67145	7813.8
346.86207	8035.9
351.04966	8338.7
355.23424	8662.3
359.4158	8876.1
363.59435	9012
367.76989	9048.2
371.94243	9034.1
376.11196	9013.9
380.27849	9012.7
384.44203	9055.7
388.60257	9069.2
392.76012	9143.7
396.91468	9278.7
401.06626	9441.8
405.21485	9459.3
409.36047	9333.1
413.50311	9104.3
417.64277	8838.9
421.77947	8686.9
425.9132	8608
430.04396	8576.5
434.17176	8631.5
438.2966	8742.7
442.41849	8895.8
446.53742	9085.2
450.6534	9261.4
454.76644	9408.1
458.87653	9452.9
462.98368	9445.1
467.08789	9366.7
471.18916	9245.1
475.2875	9036.9
479.38291	8908
483.4754	8788.5
487.56496	8725.3
491.6516	8692.4
495.73531	8701.8
499.81612	8762.9
503.89401	8820.3
507.96899	8870.1
512.04106	8915.5
516.11023	8991.1
520.1765	8997.5
524.23987	9030.2
528.30034	9041.7
532.35792	9021.4
536.41261	8949.4
540.46441	8839.6
544.51333	8811.8
548.55936	8850.9
552.60252	8990
556.64279	9160
560.6802	9249.9
564.71473	9364.5
568.7464	9478.1
572.7752	9433
576.80114	9210.7
580.82422	9032.9
584.84444	8972.1
588.86181	9003.8
592.87633	9071.5
596.888	9262.5
600.89682	9657.9
604.9028	10689.8
608.90594	12866.1
612.90624	14890.8
616.90371	13743.6
620.89834	10838.4
624.89015	9656.5
628.87913	9552.5
632.86528	9703.6
636.84862	9789.1
640.82913	9581.7
644.80683	9238.7
648.78172	9048.5
652.75379	9069.6
656.72306	9360.5
660.68952	9593.1
664.65319	9546.5
668.61405	9413.8
672.57211	9485.4
676.52738	9476
680.47986	9293.8
684.42955	9078.9
688.37646	9062.2
692.32058	9140.7
696.26192	9320.6
700.20048	9473.3
704.13626	9482.1
708.06928	9423.2
711.99952	9275
715.927	9299.4
719.85171	9358
723.77365	9355.8
727.69284	9282.8
731.60928	9210.2
735.52295	9191.4
739.43388	9263.4
743.34206	9270.3
747.24749	9304.8
751.15017	9311.4
755.05012	9403.7
758.94733	9724.1
762.8418	10489.2
766.73354	11641.8
770.62254	12568.9
774.50882	12770.3
778.39237	12370.8
782.27321	11548.7
786.15132	10610.5
790.02671	9942.1
793.89938	9614.1
797.76935	9423.3
801.6366	9329.3
805.50115	9296.3
809.36299	9250.6
813.22213	9248.2
817.07857	9254.9
820.93231	9237
824.78336	9233.7
828.63172	9251
832.47738	9273
836.32036	9256.1
840.16066	9238.2
843.99827	9233.3
847.8332	9227.1
851.66546	9265.3
855.49504	9236.6
859.32195	9268.3
863.1462	9274.6
866.96777	9271.9
870.78668	9273.8
874.60293	9304.2
878.41652	9364.6
882.22745	9422.7
886.03573	9497.1
889.84136	9492.2
893.64433	9439.5
897.44466	9410.8
901.24235	9384.8
905.0374	9346.9
908.8298	9309.7
912.61957	9324
916.40671	9302.3
920.19121	9355.8
923.97308	9400.4
927.75233	9520.5
931.52895	9584.2
935.30295	9528.3
939.07433	9362.3
942.84309	9281.7
946.60924	9236.1
950.37278	9235.7
954.13371	9224.9
957.89203	9190.3
961.64774	9214.5
965.40086	9188.5
969.15137	9149.3
972.89929	9161.2
976.64461	9184.8
980.38733	9165.8
984.12747	9208.3
987.86502	9260.2
991.59999	9315.6
995.33237	9382.2
999.06217	9529.9
1002.78939	9700.6
1006.51404	9886.6
1010.23611	10017.3
1013.95561	10134.8
1017.67255	10169.6
1021.38692	10126.1
1025.09872	10056.1
1028.80796	10023.4
1032.51465	10057.3
1036.21877	10123.7
1039.92035	10170.6
1043.61937	10126.6
1047.31584	10135.7
1051.00976	10067.7
1054.70114	10053.5
1058.38998	10076.1
1062.07627	10143.9
1065.76003	10175.2
1069.44126	10301.9
1073.11995	10501.5
1076.79611	10704.1
1080.46974	10866.9
1084.14085	10938.9
1087.80943	11025.1
1091.47549	11084.6
1095.13903	11077.7
1098.80005	11067
1102.45857	11103
1106.11456	11008
1109.76805	10882
1113.41903	10863.7
1117.06751	10963.5
1120.71348	11156.5
1124.35696	11339.3
1127.99793	11508.3
1131.63641	11343.4
1135.2724	11040.2
1138.90589	10770
1142.5369	10615.9
1146.16542	10506.7
1149.79145	10449.2
1153.415	10376.4
1157.03607	10329.5
1160.65467	10396
1164.27079	10592.3
1167.88443	10884.4
1171.49561	11378
1175.10432	12113
1178.71056	13055.5
1182.31434	13891.6
1185.91565	14228
1189.51451	14229
1193.11091	13982.8
1196.70485	13680.9
1200.29634	13335.2
1203.88538	12950.7
1207.47197	12508
1211.05612	12060.5
1214.63782	11699.3
1218.21708	11421.1
1221.79391	11246.6
1225.36829	11176.5
1228.94024	11133.7
1232.50976	11108.5
1236.07685	11096.7
1239.6415	11110.2
1243.20374	11180.6
1246.76355	11274.9
1250.32093	11386.2
1253.8759	11598.9
1257.42845	11907.1
1260.97859	12240
1264.52631	12540.3
1268.07163	12756.8
1271.61453	12942.4
1275.15503	13014.2
1278.69312	12997.1
1282.22882	13063.2
1285.76211	13183.8
1289.29301	13343.3
1292.82151	13565.8
1296.34761	13863.2
1299.87133	14296.6
1303.39266	15072.7
1306.9116	16197.4
1310.42815	17368.9
1313.94233	17821.6
1317.45412	17320.6
1320.96354	16415.6
1324.47058	15519.5
1327.97525	14743.2
1331.47754	14254.1
1334.97747	14144.3
1338.47502	14311
1341.97022	14776.7
1345.46305	15521.7
1348.95352	16590.9
1352.44163	17744.3
1355.92738	18912.3
1359.41078	20272.8
1362.89183	21135.9
1366.37053	20167.6
1369.84688	17553.5
1373.32088	15196.3
1376.79254	13874.2
1380.26186	13258.2
1383.72883	12848.9
1387.19347	12485.4
1390.65578	12155
1394.11575	11805.2
1397.57339	11545.9
1401.0287	11433.5
1404.48168	11445.6
1407.93234	11522.6
1411.38068	11697.6
1414.82669	11867.4
1418.27039	11938.1
1421.71177	11904.2
1425.15083	11813.2
1428.58758	11796
1432.02203	11861
1435.45416	11945.2
1438.88399	11963.2
1442.31151	11940.3
1445.73673	11927.9
1449.15965	11946
1452.58027	11883.6
1455.9986	11788
1459.41463	11800.7
1462.82837	11862.2
1466.23982	12064.9
1469.64898	12266.2
1473.05586	12441.8
1476.46045	12549.3
1479.86276	12662.7
1483.26279	12832.8
1486.66054	13018.6
1490.05602	13378.7
1493.44922	13919.6
1496.84016	14749.7
1500.22882	15924.8
1503.61521	17378.2
1506.99934	18734.2
1510.38121	19556
1513.76081	19232.3
1517.13816	17882.4
1520.51324	16112.7
1523.88607	14699.2
1527.25665	13822.5
1530.62498	13377.4
1533.99105	13185.3
1537.35488	13086.7
1540.71647	12992.4
1544.07581	12905.5
1547.4329	12822.6
1550.78776	12714
1554.14038	12585
1557.49077	12529.5
1560.83892	12649
1564.18484	12897.8
1567.52853	13214.6
1570.86999	13384.2
1574.20922	13417.7
1577.54624	13234.5
1580.88103	12739.1
1584.2136	12202.6
1587.54395	11935.1
1590.87208	12006.8
1594.19801	12449.4
1597.52172	12975.3
1600.84321	13215
1604.16251	13145.6
1607.47959	12923.4
1610.79447	12529
1614.10715	11927.9
1617.41763	11314.5
1620.7259	10906.1
1624.03199	10665
1627.33587	10610
1630.63757	10737.3
1633.93707	11119.6
1637.23439	11782.2
1640.52951	12808.7
1643.82246	14121.1
1647.11321	15405.8
1650.40179	15834.7
1653.68819	15028.5
1656.97241	13357
1660.25446	11774.6
1663.53433	10707
1666.81203	10062.9
1670.08756	9692.5
1673.36092	9471.9
1676.63211	9303.5
1679.90115	9162
1683.16801	9092.9
1686.43272	8994.5
1689.69527	8963
1692.95567	8917.3
1696.2139	8882.7
1699.46999	8863.5
1702.72392	8850.3
1705.97571	8819.3
1709.22535	8832
1712.47284	8811.1
1715.71819	8841.7
1718.96139	8831
1722.20246	8813.2
1725.44139	8780.2
1728.67818	8727.2
1731.91284	8672.6
1735.14537	8645.4
1738.37576	8618.1
1741.60403	8588.9
1744.83017	8563.2
1748.05418	8547.2
1751.27607	8523
1754.49584	8514.4
1757.71349	8522.4
1760.92903	8506
1764.14244	8472.6
1767.35375	8475.5
1770.56294	8431.6
1773.77002	8428.3
1776.97499	8407.2
1780.17785	8362.9
1783.37861	8336.8
1786.57727	8342.3
1789.77382	8332.1
1792.96828	8318.6
1796.16064	8281.8
1799.3509	8316.9
1802.53907	8273.2
1805.72514	8264.4
1808.90913	8253.1
1812.09102	8214.1
1815.27083	8200.8
1818.44856	8179.8
1821.6242	8162.3
1824.79776	8148.1
1827.96924	8136.6
1831.13864	8117.2
1834.30597	8127.1
1837.47122	8081.3
1840.6344	8080.6
1843.7955	8073.3
1846.95454	8073.7
1850.11151	8070.9
1853.26642	8043.9
1856.41926	8052.7
1859.57004	8081.8
1862.71876	8069
1865.86542	8073.4
1869.01003	8052.4
1872.15258	8025
1875.29308	8004
1878.43152	8000.6
1881.56792	7991.1
1884.70227	7980.4
1887.83457	7943.4
1890.96482	7941.1
1894.09304	7938.6
1897.21921	7914
1900.34335	7922.6
1903.46544	7903.7
1906.58551	7899.6
1909.70353	7883.4
1912.81953	7884
1915.93349	7868.3
1919.04543	7844.5
1922.15534	7841.1
1925.26322	7834.2
1928.36908	7791.9
1931.47292	7788.5
1934.57473	7757
1937.67453	7747.4
1940.77232	7748.6
1943.86808	7701.7
1946.96184	7694.5
1950.05358	7669
1953.14331	7650.7
1956.23103	7628.2
1959.31675	7596
1962.40046	7583.7
1965.48217	7557.9
1968.56188	7541.3
1971.63959	7527.6
1974.7153	7502
1977.78901	7490.9
1980.86073	7479.6
1983.93046	7438.8
1986.99819	7410.5
1990.06394	7390.8
1993.1277	7366.7
1996.18947	7328.3
1999.24925	7322.9
2002.30706	7280
2005.36288	7267.9
2008.41672	7238.1
2011.46859	7207.9
2014.51848	7200.5
2017.56639	7186.7
2020.61233	7148
2023.6563	7118.1
2026.6983	7119.9
2029.73833	7099.7
2032.7764	7078.1
2035.8125	7056.5
2038.84664	7046.2
2041.87881	7039.5
2044.90903	7019.6
2047.93729	6991
2050.96359	6992.1
2053.98794	6959.4
2057.01034	6959.7
2060.03078	6966.1
2063.04927	6953.6
2066.06582	6950.6
2069.08042	6928.8
2072.09307	6930.2
2075.10378	6917.9
2078.11255	6921.1
2081.11938	6903.8
2084.12426	6899.4
2087.12722	6895.7
2090.12824	6909.1
2093.12732	6905.5
2096.12447	6888.3
2099.11969	6899.6
2102.11299	6906.5
2105.10435	6909.3
2108.09379	6901.2
2111.08131	6909.8
2114.0669	6913.9
2117.05057	6930.6
2120.03233	6932.4
2123.01216	6915.8
2125.99008	6929.1
2128.96609	6937.8
2131.94018	6938.7
2134.91236	6947.8
2137.88263	6945.3
2140.851	6922.7
2143.81746	6925.1
2146.78201	6925.6
2149.74466	6928.9
2152.7054	6934.8
2155.66425	6924.8
2158.6212	6900.2
2161.57625	6917.3
2164.52941	6906.6
2167.48067	6891.4
2170.43004	6913.3
2173.37752	6887.6
2176.32311	6894.9
2179.26681	6886.7
2182.20863	6889.6
2185.14856	6900.2
2188.08661	6870.3
2191.02278	6879.2
2193.95707	6875.1
2196.88948	6893.6
2199.82001	6862.4
2202.74867	6867.8
2205.67545	6846.4
2208.60037	6855.6
2211.52341	6836
2214.44458	6839.2
2217.36388	6785.2
2220.28132	6790.7
2223.1969	6754.3
2226.11061	6740.2
2229.02246	6743.3
2231.93245	6727.3
2234.84058	6708.9
2237.74686	6702.9
2240.65128	6686.8
2243.55385	6671.2
2246.45456	6669.8
2249.35343	6663.2
2252.25044	6639.7
2255.14561	6646.5
2258.03893	6641.5
2260.93041	6650
2263.82004	6623.1
2266.70783	6615.1
2269.59378	6612.9
2272.4779	6589.4
2275.36017	6542.7
2278.24061	6536.2
2281.11922	6509.5
2283.996	6514.2
2286.87094	6490.1
2289.74405	6505.6
2292.61534	6486.9
2295.4848	6485.5
2298.35243	6477.7
2301.21824	6441.8
2304.08223	6450.3
2306.94439	6439.6
2309.80474	6448.8
2312.66327	6437.4
2315.51999	6439.2
2318.37489	6437.4
2321.22797	6415.5
2324.07925	6411.4
2326.92871	6388.9
2329.77637	6369.9
2332.62222	6365.9
2335.46626	6347.9
2338.3085	6357.1
2341.14893	6359.2
2343.98756	6349.6
2346.8244	6353.4
2349.65943	6339.7
2352.49267	6325.5
2355.32411	6332.1
2358.15376	6334.5
2360.98161	6344.1
2363.80768	6329.1
2366.63195	6323.6
2369.45444	6305.5
2372.27514	6313.7
2375.09405	6283.4
2377.91118	6271.1
2380.72652	6258
2383.54009	6238
2386.35187	6223.7
2389.16188	6223.4
2391.97011	6193.2
2394.77657	6186.4
2397.58125	6164.1
2400.38416	6158.2
2403.18529	6166.7
2405.98466	6157.7
2408.78226	6125.9
2411.57809	6116.4
2414.37216	6103.4
2417.16446	6111
2419.955	6078.8
2422.74378	6095.5
2425.5308	6087.4
2428.31606	6086.7
2431.09956	6073.3
2433.88131	6058.7
2436.6613	6056.3
2439.43954	6068.5
2442.21603	6050.1
2444.99077	6045.7
2447.76377	6048.9
2450.53501	6047.7
2453.30451	6061.6
2456.07226	6037.2
2458.83827	6028
2461.60254	6008.7
2464.36507	6001.7
2467.12586	5993.6
2469.88492	6003.1
2472.64224	5991.8
2475.39782	6002.2
2478.15167	5986.7
2480.90379	5967.5
2483.65417	5972.5
2486.40283	5974.3
2489.14976	5971.4
2491.89497	5969
2494.63845	5983.8
2497.3802	5968.6
2500.12024	5944.8
2502.85855	5937.3
2505.59514	5957.1
2508.33002	5937.2
2511.06318	5910.5
2513.79462	5888
2516.52435	5891.8
2519.25237	5885.5
2521.97867	5863.3
2524.70327	5839
2527.42616	5845.6
2530.14734	5803
2532.86681	5831.8
2535.58458	5837.7
2538.30065	5845.7
2541.01501	5833.6
2543.72768	5818.2
2546.43864	5807.6
2549.14791	5812.8
2551.85548	5805.6
2554.56136	5785.7
2557.26554	5790.5
2559.96803	5763
2562.66883	5756.5
2565.36794	5731.2
2568.06536	5734.7
2570.7611	5720.8
2573.45514	5703.5
2576.14751	5695
2578.83819	5677.7
2581.52719	5661.1
2584.21451	5676.8
2586.90015	5668.5
2589.58411	5651.5
2592.2664	5634.4
2594.94701	5639.6
2597.62594	5616.8
2600.30321	5611.9
2602.9788	5612.7
2605.65273	5594.2
2608.32498	5614.4
2610.99557	5584.6
2613.66449	5577.7
2616.33175	5575.1
2618.99734	5574.2
2621.66128	5561.2
2624.32355	5558.5
2626.98416	5543.4
2629.64311	5519.1
2632.30041	5509.2
2634.95605	5512.5
2637.61004	5510
2640.26238	5496.9
2642.91306	5502.7
2645.56209	5479.9
2648.20948	5497.3
2650.85521	5485
2653.4993	5472.8
2656.14175	5458.7
2658.78255	5463.9
2661.42171	5458.9
2664.05923	5475
2666.6951	5477.9
2669.32934	5496.1
2671.96194	5474.4
2674.59291	5486
2677.22224	5466.9
2679.84993	5488.1
2682.476	5477
2685.10043	5486.8
2687.72324	5465.5
2690.34441	5479.4
2692.96396	5467.6
2695.58188	5478.9
2698.19818	5464.8
2700.81285	5457.6
2703.4259	5443.9
2706.03733	5428.4
2708.64714	5425.5
2711.25533	5427.9
2713.86191	5422.7
2716.46687	5428
2719.07021	5453.4
2721.67194	5443.3
2724.27206	5414.8
2726.87057	5421.7
2729.46747	5419.1
2732.06276	5429.7
2734.65644	5427.4
2737.24852	5421
2739.83899	5398.2
2742.42786	5397.2
2745.01513	5381.9
2747.60079	5364.5
2750.18486	5366.5
2752.76733	5367.1
2755.3482	5358.6
2757.92747	5336
2760.50515	5325
2763.08123	5334.9
2765.65573	5303
2768.22863	5294.6
2770.79994	5299.6
2773.36967	5294.5
2775.9378	5295.2
2778.50435	5277.3
2781.06932	5280.9
2783.6327	5274.5
2786.1945	5276.9
2788.75471	5273.2
2791.31335	5243.3
2793.87041	5240
2796.42589	5202.4
2798.97979	5211.5
2801.53212	5187.4
2804.08288	5188.1
2806.63206	5170.8
2809.17967	5182.9
2811.72571	5162.7
2814.27018	5157.7
2816.81308	5146.3
2819.35442	5136.1
2821.89419	5117.6
2824.43239	5120.2
2826.96904	5095.8
2829.50412	5099.7
2832.03763	5067.8
2834.56959	5083.5
2837.1	5062.8
2839.62884	5055.5
2842.15613	5068.6
2844.68186	5060.9
2847.20604	5045.4
2849.72867	5032.5
2852.24974	5016.7
2854.76927	5022.6
2857.28724	5006.2
2859.80367	5002.8
2862.31855	5000.8
2864.83189	4990.2
2867.34368	4980.3
2869.85393	4993.8
2872.36264	4969.1
2874.8698	4983.5
2877.37543	4969.4
2879.87952	4950.7
2882.38207	4964.6
2884.88308	4945
2887.38256	4948.8
2889.88051	4949.5
2892.37692	4935.8
2894.8718	4946.9
2897.36515	4921.9
2899.85698	4923
2902.34727	4933.7
2904.83604	4949.5
2907.32328	4939.8
2909.809	4916.6
2912.29319	4949
2914.77587	4946
2917.25702	4963.6
2919.73665	4946.8
2922.21476	4942.8
2924.69136	4917.4
2927.16644	4932.3
2929.64	4916.8
2932.11205	4894.8
2934.58258	4891.4
2937.05161	4891.1
2939.51912	4893.1
2941.98513	4889.2
2944.44962	4874.5
2946.91261	4856.3
2949.37409	4871.4
2951.83407	4871.5
2954.29254	4863.1
2956.74951	4872.4
2959.20498	4859.4
2961.65895	4848.8
2964.11142	4859.2
2966.56239	4821.8
2969.01186	4840.4
2971.45984	4847.9
2973.90632	4822
2976.35131	4815.9
2978.7948	4811.4
2981.23681	4784.8
2983.67732	4784.4
2986.11635	4774.7
2988.55388	4777.2
2990.98993	4757.7
2993.4245	4749.4
2995.85758	4734.3
2998.28917	4718.4
3000.71928	4707.2
3003.14791	4671.8
3005.57506	4698.6
3008.00073	4673.7
3010.42493	4655.3
3012.84764	4655.5
3015.26888	4646
3017.68865	4633.1
3020.10694	4629.9
3022.52376	4610.1
3024.9391	4586.9
3027.35298	4593.5
3029.76539	4577.1
3032.17632	4569.1
3034.5858	4577.1
3036.9938	4557.9
3039.40034	4526.5
3041.80542	4523.7
3044.20903	4517.7
3046.61118	4515.1
3049.01187	4485.3
3051.4111	4483.2
3053.80888	4469.1
3056.20519	4470.6
3058.60005	4455.2
3060.99345	4466.6
3063.3854	4446.8
3065.7759	4437.7
3068.16494	4438.6
3070.55254	4404.8
3072.93868	4382.6
3075.32338	4371.9
3077.70662	4357.4
3080.08842	4358.6
3082.46878	4347.1
3084.84769	4329.6
3087.22515	4323.4
3089.60118	4341.1
3091.97576	4315.8
3094.3489	4309.6
3096.72061	4330.1
3099.09087	4313.7
3101.4597	4320.6
3103.82709	4308.5
3106.19305	4312.1
3108.55757	4295.3
3110.92066	4290.4
3113.28232	4286.7
3115.64255	4264.7
3118.00134	4270.2
3120.35871	4254.5
3122.71466	4226.6
3125.06917	4226.2
3127.42226	4211.2
3129.77393	4206.8
3132.12417	4202.2
3134.47299	4185.9
3136.82039	4190.4
3139.16636	4180.6
3141.51092	4191
3143.85406	4184.8
3146.19579	4187.5
3148.53609	4170.8
3150.87499	4173.4
3153.21246	4172.9
3155.54853	4176.1
3157.88318	4163.1
3160.21642	4156.4
3162.54826	4158.4
3164.87868	4161.1
3167.2077	4157.1
3169.5353	4148.3
3171.86151	4143.8
3174.18631	4127.3
3176.5097	4118.9
3178.83169	4111.4
3181.15228	4108.6
3183.47147	4087.2
3185.78926	4082.9
3188.10565	4057
3190.42065	4059.4
3192.73424	4065.1
3195.04645	4052.4
3197.35725	4043.5
3199.66667	4051.2
3201.97469	4042.2
3204.28132	4032.3
3206.58656	4047.6
3208.8904	4036.9
3211.19287	4042.3
3213.49394	4037.3
3215.79363	4035.9
3218.09193	4053.4
3220.38884	4048.4
3222.68438	4044.1
3224.97853	4047.1
3227.2713	4017.6
3229.56269	4006.6
3231.8527	4019.1
3234.14133	3998.8
3236.42858	3980.8
3238.71446	3987.9
3240.99896	3953.7
3243.28209	3973
3245.56384	3952.3
3247.84423	3947.7
3250.12324	3936.8
3252.40088	3936.8
3254.67715	3932.1
3256.95205	3928
3259.22558	3932.3
3261.49775	3924.9
3263.76855	3928.8
3266.03799	3899.1
3268.30606	3918.6
3270.57277	3921.2
3272.83812	3908.1
3275.10211	3889
3277.36474	3871.4
3279.62601	3865.3
3281.88593	3868.4
3284.14448	3858
3286.40168	3865.4
3288.65753	3852.9
3290.91202	3837.4
3293.16516	3845.6
3295.41695	3838.8
3297.66738	3829.2
3299.91647	3799.2
3302.16421	3772.9
3304.4106	3747.7
3306.65564	3728.8
3308.89933	3710.4
3311.14169	3678.8
3313.38269	3637.6
3315.62236	3619.5
3317.86068	3595
3320.09766	3580.6
3322.3333	3541.7
3324.5676	3515.8
3326.80056	3465.4
3329.03219	3441.4
3331.26248	1.4
3333.49143	-1.8
3335.71905	0.4
