Data from AgNPs_UA_10uM_CRN_500uM_SU_RamanShift__76__13-18-00-269.txt Node

Date: Thu Aug 04 13:18:00 BST 2022
User: TCL
Spectrometer: QEP01345
Trigger mode: 4
Integration Time (sec): 1.000000E0
Scans to average: 10
Electric dark correction enabled: true
Nonlinearity correction enabled: false
Boxcar width: 0
XAxis mode: Raman Shifts
Number of Pixels in Spectrum: 1044
>>>>>Begin Spectral Data<<<<<
46.04893	-0.0875
50.45542	-0.6875
54.85868	0.9125
59.25871	-0.0875
63.6555	22.5125
68.04907	23.2125
72.43941	24.8125
76.82654	24.1125
81.21044	26.0125
85.59113	28.9125
89.96862	30.9125
94.34289	29.6125
98.71396	27.7125
103.08183	32.3125
107.4465	32.8125
111.80798	30.7125
116.16626	31.9125
120.52136	36.9125
124.87327	38.7125
129.222	39.2125
133.56755	41.6125
137.90993	47.4125
142.24913	51.3125
146.58517	57.4125
150.91804	68.1125
155.24774	83.0125
159.57429	107.0125
163.89768	135.1125
168.21792	180.5125
172.53501	251.3125
176.84895	353.4125
181.15975	496.2125
185.46741	704.2125
189.77193	974.9125
194.07331	1309.3125
198.37157	1697.4125
202.6667	2104.9125
206.9587	2497.7125
211.24758	2901.8125
215.53334	3309.7125
219.81599	3727.8125
224.09553	4203.4125
228.37195	4734.3125
232.64527	5280.5125
236.91549	5847.5125
241.18261	6404.1125
245.44663	6846.5125
249.70755	7198.5125
253.96539	7554.6125
258.22014	7843.6125
262.4718	8078.7125
266.72039	8229.2125
270.96589	8286.6125
275.20832	8275.1125
279.44768	8183.8125
283.68397	8065.9125
287.91719	7968.1125
292.14735	7949.9125
296.37445	8041.2125
300.59849	8184.8125
304.81948	8426.3125
309.03742	8602.0125
313.25231	8690.5125
317.46415	8627.7125
321.67296	8410.5125
325.87872	8151.8125
330.08145	8039.9125
334.28114	8044.7125
338.47781	8152.3125
342.67145	8268.7125
346.86207	8475.2125
351.04966	8741.6125
355.23424	9023.5125
359.4158	9239.4125
363.59435	9376.1125
367.76989	9434.1125
371.94243	9485.3125
376.11196	9496.6125
380.27849	9519.2125
384.44203	9588.5125
388.60257	9667.0125
392.76012	9751.0125
396.91468	9889.4125
401.06626	10023.0125
405.21485	10107.5125
409.36047	10029.1125
413.50311	9803.0125
417.64277	9569.2125
421.77947	9465.7125
425.9132	9365.1125
430.04396	9360.3125
434.17176	9406.9125
438.2966	9496.7125
442.41849	9659.3125
446.53742	9873.7125
450.6534	10113.5125
454.76644	10262.0125
458.87653	10345.9125
462.98368	10351.2125
467.08789	10254.9125
471.18916	10134.8125
475.2875	9920.9125
479.38291	9760.5125
483.4754	9624.4125
487.56496	9575.9125
491.6516	9523.1125
495.73531	9507.9125
499.81612	9544.0125
503.89401	9621.9125
507.96899	9669.5125
512.04106	9695.4125
516.11023	9734.2125
520.1765	9771.5125
524.23987	9777.6125
528.30034	9769.9125
532.35792	9778.9125
536.41261	9710.4125
540.46441	9629.4125
544.51333	9568.1125
548.55936	9677.8125
552.60252	9787.5125
556.64279	9932.7125
560.6802	10019.3125
564.71473	10108.0125
568.7464	10164.4125
572.7752	10097.1125
576.80114	9910.9125
580.82422	9790.0125
584.84444	9777.3125
588.86181	9783.4125
592.87633	9891.5125
596.888	10045.6125
600.89682	10501.1125
604.9028	11522.2125
608.90594	13524.2125
612.90624	15359.7125
616.90371	14204.8125
620.89834	11568.8125
624.89015	10524.4125
628.87913	10486.2125
632.86528	10607.0125
636.84862	10639.5125
640.82913	10398.3125
644.80683	10052.4125
648.78172	9858.2125
652.75379	9900.6125
656.72306	10142.9125
660.68952	10412.4125
664.65319	10401.0125
668.61405	10330.5125
672.57211	10443.9125
676.52738	10426.9125
680.47986	10204.8125
684.42955	9977.7125
688.37646	9974.8125
692.32058	10064.3125
696.26192	10250.2125
700.20048	10434.1125
704.13626	10454.6125
708.06928	10330.8125
711.99952	10209.5125
715.927	10174.2125
719.85171	10254.0125
723.77365	10258.4125
727.69284	10201.1125
731.60928	10110.8125
735.52295	10104.9125
739.43388	10151.4125
743.34206	10210.0125
747.24749	10232.7125
751.15017	10209.9125
755.05012	10303.3125
758.94733	10595.5125
762.8418	11293.1125
766.73354	12312.5125
770.62254	13176.7125
774.50882	13440.4125
778.39237	13127.9125
782.27321	12416.4125
786.15132	11568.6125
790.02671	10913.2125
793.89938	10572.0125
797.76935	10397.6125
801.6366	10295.3125
805.50115	10220.5125
809.36299	10203.7125
813.22213	10194.1125
817.07857	10169.7125
820.93231	10184.6125
824.78336	10196.6125
828.63172	10196.2125
832.47738	10212.4125
836.32036	10230.9125
840.16066	10226.5125
843.99827	10213.6125
847.8332	10234.0125
851.66546	10241.0125
855.49504	10248.9125
859.32195	10255.5125
863.1462	10220.0125
866.96777	10263.9125
870.78668	10215.5125
874.60293	10275.1125
878.41652	10318.9125
882.22745	10390.8125
886.03573	10441.2125
889.84136	10456.3125
893.64433	10413.5125
897.44466	10366.5125
901.24235	10340.0125
905.0374	10336.2125
908.8298	10312.0125
912.61957	10287.9125
916.40671	10296.1125
920.19121	10346.3125
923.97308	10393.0125
927.75233	10492.2125
931.52895	10536.5125
935.30295	10488.3125
939.07433	10345.8125
942.84309	10258.9125
946.60924	10233.6125
950.37278	10211.1125
954.13371	10187.7125
957.89203	10194.2125
961.64774	10184.1125
965.40086	10191.6125
969.15137	10144.0125
972.89929	10173.4125
976.64461	10169.6125
980.38733	10186.9125
984.12747	10191.3125
987.86502	10266.8125
991.59999	10334.1125
995.33237	10400.3125
999.06217	10569.0125
1002.78939	10746.1125
1006.51404	10906.8125
1010.23611	11020.2125
1013.95561	11143.4125
1017.67255	11226.1125
1021.38692	11215.7125
1025.09872	11191.0125
1028.80796	11164.8125
1032.51465	11240.9125
1036.21877	11291.0125
1039.92035	11302.7125
1043.61937	11249.5125
1047.31584	11239.7125
1051.00976	11159.6125
1054.70114	11182.4125
1058.38998	11206.5125
1062.07627	11268.1125
1065.76003	11306.6125
1069.44126	11422.9125
1073.11995	11622.9125
1076.79611	11790.5125
1080.46974	11952.6125
1084.14085	12008.7125
1087.80943	12058.2125
1091.47549	12115.8125
1095.13903	12132.0125
1098.80005	12165.5125
1102.45857	12290.6125
1106.11456	12303.6125
1109.76805	12097.7125
1113.41903	12042.7125
1117.06751	12132.0125
1120.71348	12287.8125
1124.35696	12377.4125
1127.99793	12503.9125
1131.63641	12309.0125
1135.2724	12052.7125
1138.90589	11832.6125
1142.5369	11666.7125
1146.16542	11563.2125
1149.79145	11481.4125
1153.415	11378.3125
1157.03607	11382.8125
1160.65467	11462.7125
1164.27079	11696.0125
1167.88443	12041.6125
1171.49561	12529.4125
1175.10432	13245.0125
1178.71056	14143.0125
1182.31434	14985.9125
1185.91565	15392.6125
1189.51451	15515.4125
1193.11091	15407.7125
1196.70485	15078.0125
1200.29634	14667.6125
1203.88538	14191.5125
1207.47197	13709.4125
1211.05612	13217.7125
1214.63782	12807.5125
1218.21708	12510.9125
1221.79391	12419.8125
1225.36829	12394.6125
1228.94024	12367.1125
1232.50976	12339.6125
1236.07685	12349.0125
1239.6415	12391.2125
1243.20374	12441.4125
1246.76355	12515.5125
1250.32093	12616.1125
1253.8759	12786.8125
1257.42845	13105.9125
1260.97859	13452.2125
1264.52631	13779.9125
1268.07163	13993.2125
1271.61453	14147.2125
1275.15503	14238.9125
1278.69312	14291.6125
1282.22882	14359.2125
1285.76211	14481.6125
1289.29301	14625.1125
1292.82151	14825.7125
1296.34761	15072.4125
1299.87133	15508.6125
1303.39266	16216.8125
1306.9116	17255.5125
1310.42815	18332.5125
1313.94233	18794.0125
1317.45412	18471.6125
1320.96354	17678.8125
1324.47058	16858.1125
1327.97525	16189.6125
1331.47754	15759.4125
1334.97747	15699.1125
1338.47502	15932.1125
1341.97022	16512.0125
1345.46305	17283.8125
1348.95352	18300.7125
1352.44163	19387.0125
1355.92738	20463.0125
1359.41078	21557.1125
1362.89183	22096.7125
1366.37053	20935.0125
1369.84688	18546.6125
1373.32088	16378.9125
1376.79254	15090.8125
1380.26186	14468.7125
1383.72883	14129.0125
1387.19347	13791.8125
1390.65578	13436.4125
1394.11575	13062.8125
1397.57339	12817.0125
1401.0287	12694.1125
1404.48168	12752.0125
1407.93234	12913.9125
1411.38068	13177.4125
1414.82669	13365.8125
1418.27039	13412.8125
1421.71177	13340.0125
1425.15083	13275.8125
1428.58758	13206.3125
1432.02203	13248.1125
1435.45416	13312.4125
1438.88399	13294.1125
1442.31151	13219.1125
1445.73673	13197.5125
1449.15965	13191.4125
1452.58027	13131.7125
1455.9986	13090.5125
1459.41463	13063.5125
1462.82837	13171.7125
1466.23982	13376.9125
1469.64898	13584.5125
1473.05586	13787.5125
1476.46045	13935.7125
1479.86276	14100.5125
1483.26279	14259.2125
1486.66054	14438.5125
1490.05602	14856.0125
1493.44922	15411.4125
1496.84016	16186.3125
1500.22882	17280.8125
1503.61521	18497.1125
1506.99934	19603.7125
1510.38121	20194.1125
1513.76081	19791.7125
1517.13816	18535.7125
1520.51324	17069.9125
1523.88607	15816.0125
1527.25665	15094.5125
1530.62498	14707.8125
1533.99105	14557.5125
1537.35488	14444.3125
1540.71647	14344.2125
1544.07581	14240.2125
1547.4329	14086.2125
1550.78776	13951.6125
1554.14038	13823.3125
1557.49077	13747.2125
1560.83892	13886.5125
1564.18484	14100.3125
1567.52853	14294.8125
1570.86999	14423.3125
1574.20922	14463.9125
1577.54624	14285.9125
1580.88103	13831.3125
1584.2136	13369.2125
1587.54395	13185.2125
1590.87208	13316.5125
1594.19801	13794.6125
1597.52172	14421.4125
1600.84321	14728.2125
1604.16251	14654.2125
1607.47959	14367.9125
1610.79447	13884.3125
1614.10715	13259.9125
1617.41763	12604.4125
1620.7259	12112.8125
1624.03199	11862.3125
1627.33587	11818.9125
1630.63757	11962.5125
1633.93707	12384.0125
1637.23439	13096.0125
1640.52951	14153.2125
1643.82246	15393.1125
1647.11321	16512.1125
1650.40179	16743.4125
1653.68819	15791.4125
1656.97241	14157.9125
1660.25446	12675.7125
1663.53433	11664.6125
1666.81203	11070.0125
1670.08756	10713.6125
1673.36092	10489.2125
1676.63211	10328.3125
1679.90115	10202.5125
1683.16801	10098.7125
1686.43272	10022.4125
1689.69527	9964.3125
1692.95567	9913.3125
1696.2139	9897.4125
1699.46999	9880.0125
1702.72392	9855.3125
1705.97571	9849.7125
1709.22535	9850.4125
1712.47284	9849.6125
1715.71819	9860.0125
1718.96139	9824.1125
1722.20246	9827.3125
1725.44139	9793.4125
1728.67818	9740.7125
1731.91284	9681.5125
1735.14537	9635.2125
1738.37576	9604.2125
1741.60403	9572.6125
1744.83017	9572.2125
1748.05418	9547.4125
1751.27607	9521.2125
1754.49584	9513.1125
1757.71349	9494.2125
1760.92903	9484.6125
1764.14244	9457.5125
1767.35375	9422.7125
1770.56294	9446.8125
1773.77002	9423.7125
1776.97499	9381.9125
1780.17785	9353.3125
1783.37861	9355.3125
1786.57727	9326.1125
1789.77382	9325.1125
1792.96828	9303.6125
1796.16064	9299.6125
1799.3509	9274.8125
1802.53907	9271.5125
1805.72514	9258.5125
1808.90913	9214.8125
1812.09102	9186.2125
1815.27083	9178.5125
1818.44856	9128.9125
1821.6242	9107.8125
1824.79776	9102.8125
1827.96924	9102.4125
1831.13864	9093.1125
1834.30597	9069.4125
1837.47122	9050.4125
1840.6344	9042.2125
1843.7955	9030.9125
1846.95454	9044.8125
1850.11151	9031.4125
1853.26642	9016.2125
1856.41926	9014.3125
1859.57004	9005.2125
1862.71876	9040.8125
1865.86542	9009.6125
1869.01003	9005.3125
1872.15258	8979.3125
1875.29308	8964.4125
1878.43152	8973.0125
1881.56792	8958.5125
1884.70227	8942.9125
1887.83457	8917.6125
1890.96482	8902.7125
1894.09304	8883.1125
1897.21921	8858.2125
1900.34335	8856.1125
1903.46544	8856.8125
1906.58551	8849.3125
1909.70353	8834.0125
1912.81953	8832.4125
1915.93349	8808.1125
1919.04543	8812.4125
1922.15534	8773.8125
1925.26322	8781.2125
1928.36908	8749.4125
1931.47292	8734.0125
1934.57473	8718.0125
1937.67453	8684.6125
1940.77232	8672.5125
1943.86808	8644.3125
1946.96184	8621.0125
1950.05358	8601.4125
1953.14331	8567.0125
1956.23103	8551.0125
1959.31675	8498.7125
1962.40046	8482.9125
1965.48217	8452.4125
1968.56188	8437.1125
1971.63959	8432.3125
1974.7153	8404.2125
1977.78901	8392.2125
1980.86073	8372.5125
1983.93046	8338.9125
1986.99819	8286.8125
1990.06394	8275.6125
1993.1277	8252.4125
1996.18947	8190.7125
1999.24925	8171.2125
2002.30706	8143.5125
2005.36288	8116.8125
2008.41672	8082.5125
2011.46859	8063.8125
2014.51848	8059.6125
2017.56639	8031.9125
2020.61233	8001.9125
2023.6563	7978.5125
2026.6983	7971.1125
2029.73833	7939.4125
2032.7764	7919.8125
2035.8125	7889.6125
2038.84664	7896.5125
2041.87881	7866.9125
2044.90903	7864.4125
2047.93729	7861.1125
2050.96359	7814.3125
2053.98794	7803.2125
2057.01034	7801.2125
2060.03078	7784.5125
2063.04927	7786.1125
2066.06582	7775.4125
2069.08042	7768.0125
2072.09307	7750.9125
2075.10378	7747.3125
2078.11255	7731.8125
2081.11938	7750.5125
2084.12426	7723.9125
2087.12722	7716.6125
2090.12824	7707.8125
2093.12732	7730.9125
2096.12447	7734.4125
2099.11969	7716.8125
2102.11299	7712.6125
2105.10435	7735.6125
2108.09379	7731.9125
2111.08131	7722.2125
2114.0669	7713.3125
2117.05057	7721.3125
2120.03233	7746.5125
2123.01216	7743.4125
2125.99008	7745.7125
2128.96609	7744.3125
2131.94018	7754.8125
2134.91236	7741.5125
2137.88263	7752.4125
2140.851	7731.0125
2143.81746	7740.7125
2146.78201	7759.3125
2149.74466	7727.3125
2152.7054	7741.7125
2155.66425	7722.6125
2158.6212	7720.5125
2161.57625	7711.7125
2164.52941	7722.0125
2167.48067	7713.3125
2170.43004	7703.1125
2173.37752	7696.0125
2176.32311	7700.6125
2179.26681	7696.3125
2182.20863	7683.7125
2185.14856	7701.4125
2188.08661	7696.8125
2191.02278	7693.3125
2193.95707	7690.1125
2196.88948	7678.6125
2199.82001	7665.7125
2202.74867	7668.0125
2205.67545	7670.8125
2208.60037	7679.5125
2211.52341	7621.9125
2214.44458	7620.3125
2217.36388	7598.0125
2220.28132	7596.8125
2223.1969	7533.0125
2226.11061	7546.4125
2229.02246	7518.7125
2231.93245	7522.4125
2234.84058	7503.3125
2237.74686	7490.9125
2240.65128	7468.3125
2243.55385	7452.7125
2246.45456	7443.3125
2249.35343	7429.2125
2252.25044	7424.6125
2255.14561	7406.2125
2258.03893	7418.6125
2260.93041	7420.3125
2263.82004	7382.8125
2266.70783	7363.9125
2269.59378	7358.1125
2272.4779	7319.7125
2275.36017	7290.2125
2278.24061	7297.5125
2281.11922	7264.2125
2283.996	7245.5125
2286.87094	7235.3125
2289.74405	7259.9125
2292.61534	7231.5125
2295.4848	7215.5125
2298.35243	7187.6125
2301.21824	7186.2125
2304.08223	7188.2125
2306.94439	7186.2125
2309.80474	7179.3125
2312.66327	7180.1125
2315.51999	7179.3125
2318.37489	7171.6125
2321.22797	7159.1125
2324.07925	7130.4125
2326.92871	7128.6125
2329.77637	7110.9125
2332.62222	7093.8125
2335.46626	7080.0125
2338.3085	7084.9125
2341.14893	7078.4125
2343.98756	7096.4125
2346.8244	7054.4125
2349.65943	7068.9125
2352.49267	7047.0125
2355.32411	7035.1125
2358.15376	7034.4125
2360.98161	7023.6125
2363.80768	7034.4125
2366.63195	7027.6125
2369.45444	7028.2125
2372.27514	7016.3125
2375.09405	6993.0125
2377.91118	6984.6125
2380.72652	6970.0125
2383.54009	6951.1125
2386.35187	6937.8125
2389.16188	6924.9125
2391.97011	6906.9125
2394.77657	6895.3125
2397.58125	6840.6125
2400.38416	6861.8125
2403.18529	6848.5125
2405.98466	6841.5125
2408.78226	6837.8125
2411.57809	6796.1125
2414.37216	6788.0125
2417.16446	6794.9125
2419.955	6788.2125
2422.74378	6765.1125
2425.5308	6775.9125
2428.31606	6766.7125
2431.09956	6757.0125
2433.88131	6752.1125
2436.6613	6737.3125
2439.43954	6737.2125
2442.21603	6708.2125
2444.99077	6714.5125
2447.76377	6724.5125
2450.53501	6724.5125
2453.30451	6707.3125
2456.07226	6680.3125
2458.83827	6699.8125
2461.60254	6682.6125
2464.36507	6664.1125
2467.12586	6641.9125
2469.88492	6651.3125
2472.64224	6666.4125
2475.39782	6650.4125
2478.15167	6620.8125
2480.90379	6621.9125
2483.65417	6626.2125
2486.40283	6615.3125
2489.14976	6628.0125
2491.89497	6611.8125
2494.63845	6632.7125
2497.3802	6613.1125
2500.12024	6607.8125
2502.85855	6585.2125
2505.59514	6593.4125
2508.33002	6570.2125
2511.06318	6545.5125
2513.79462	6546.2125
2516.52435	6531.1125
2519.25237	6527.6125
2521.97867	6505.9125
2524.70327	6512.4125
2527.42616	6486.8125
2530.14734	6462.1125
2532.86681	6473.4125
2535.58458	6482.2125
2538.30065	6477.3125
2541.01501	6473.0125
2543.72768	6464.6125
2546.43864	6449.4125
2549.14791	6416.8125
2551.85548	6429.5125
2554.56136	6428.6125
2557.26554	6405.2125
2559.96803	6409.2125
2562.66883	6369.5125
2565.36794	6365.1125
2568.06536	6343.9125
2570.7611	6329.4125
2573.45514	6321.9125
2576.14751	6307.6125
2578.83819	6291.7125
2581.52719	6301.9125
2584.21451	6291.3125
2586.90015	6282.2125
2589.58411	6270.9125
2592.2664	6253.4125
2594.94701	6251.3125
2597.62594	6241.9125
2600.30321	6228.9125
2602.9788	6219.3125
2605.65273	6244.5125
2608.32498	6206.6125
2610.99557	6201.1125
2613.66449	6186.6125
2616.33175	6187.0125
2618.99734	6184.8125
2621.66128	6177.4125
2624.32355	6158.6125
2626.98416	6128.3125
2629.64311	6132.6125
2632.30041	6146.7125
2634.95605	6113.4125
2637.61004	6128.0125
2640.26238	6104.8125
2642.91306	6106.0125
2645.56209	6094.6125
2648.20948	6086.8125
2650.85521	6083.2125
2653.4993	6070.4125
2656.14175	6066.4125
2658.78255	6051.9125
2661.42171	6055.3125
2664.05923	6077.6125
2666.6951	6071.4125
2669.32934	6076.8125
2671.96194	6076.8125
2674.59291	6080.8125
2677.22224	6081.0125
2679.84993	6078.6125
2682.476	6074.2125
2685.10043	6081.2125
2687.72324	6075.6125
2690.34441	6083.0125
2692.96396	6048.3125
2695.58188	6042.8125
2698.19818	6046.5125
2700.81285	6033.7125
2703.4259	6040.3125
2706.03733	6022.2125
2708.64714	6014.4125
2711.25533	6022.5125
2713.86191	6009.0125
2716.46687	6043.6125
2719.07021	6029.9125
2721.67194	6019.4125
2724.27206	6009.6125
2726.87057	6006.6125
2729.46747	6024.3125
2732.06276	6023.3125
2734.65644	6018.6125
2737.24852	6016.5125
2739.83899	5993.3125
2742.42786	5988.5125
2745.01513	5958.7125
2747.60079	5943.4125
2750.18486	5944.1125
2752.76733	5947.2125
2755.3482	5933.1125
2757.92747	5925.2125
2760.50515	5913.7125
2763.08123	5908.8125
2765.65573	5891.2125
2768.22863	5880.4125
2770.79994	5864.3125
2773.36967	5863.8125
2775.9378	5876.6125
2778.50435	5873.2125
2781.06932	5858.9125
2783.6327	5859.1125
2786.1945	5852.0125
2788.75471	5841.0125
2791.31335	5819.8125
2793.87041	5811.8125
2796.42589	5793.0125
2798.97979	5768.3125
2801.53212	5762.5125
2804.08288	5757.6125
2806.63206	5738.7125
2809.17967	5746.2125
2811.72571	5712.2125
2814.27018	5704.2125
2816.81308	5687.6125
2819.35442	5701.3125
2821.89419	5673.7125
2824.43239	5670.4125
2826.96904	5658.3125
2829.50412	5652.1125
2832.03763	5635.7125
2834.56959	5630.5125
2837.1	5591.6125
2839.62884	5612.6125
2842.15613	5603.1125
2844.68186	5618.6125
2847.20604	5593.6125
2849.72867	5589.0125
2852.24974	5576.8125
2854.76927	5561.7125
2857.28724	5525.7125
2859.80367	5558.9125
2862.31855	5544.2125
2864.83189	5525.2125
2867.34368	5549.0125
2869.85393	5509.1125
2872.36264	5505.2125
2874.8698	5498.1125
2877.37543	5509.1125
2879.87952	5467.3125
2882.38207	5480.7125
2884.88308	5465.1125
2887.38256	5471.4125
2889.88051	5473.3125
2892.37692	5461.8125
2894.8718	5465.9125
2897.36515	5468.3125
2899.85698	5461.6125
2902.34727	5458.1125
2904.83604	5446.1125
2907.32328	5479.4125
2909.809	5462.9125
2912.29319	5462.5125
2914.77587	5475.2125
2917.25702	5473.5125
2919.73665	5480.3125
2922.21476	5473.3125
2924.69136	5458.7125
2927.16644	5456.7125
2929.64	5431.4125
2932.11205	5431.8125
2934.58258	5399.4125
2937.05161	5407.9125
2939.51912	5415.8125
2941.98513	5394.5125
2944.44962	5404.7125
2946.91261	5376.4125
2949.37409	5395.4125
2951.83407	5368.9125
2954.29254	5392.6125
2956.74951	5377.8125
2959.20498	5370.2125
2961.65895	5362.2125
2964.11142	5362.2125
2966.56239	5356.5125
2969.01186	5351.7125
2971.45984	5345.4125
2973.90632	5327.0125
2976.35131	5320.7125
2978.7948	5324.2125
2981.23681	5303.9125
2983.67732	5288.6125
2986.11635	5275.4125
2988.55388	5265.7125
2990.98993	5254.4125
2993.4245	5235.6125
2995.85758	5245.3125
2998.28917	5211.3125
3000.71928	5194.9125
3003.14791	5196.3125
3005.57506	5186.0125
3008.00073	5167.7125
3010.42493	5151.4125
3012.84764	5123.5125
3015.26888	5132.9125
3017.68865	5116.9125
3020.10694	5109.3125
3022.52376	5088.5125
3024.9391	5089.4125
3027.35298	5052.1125
3029.76539	5041.2125
3032.17632	5034.6125
3034.5858	5041.0125
3036.9938	5012.1125
3039.40034	5009.8125
3041.80542	5009.0125
3044.20903	4993.9125
3046.61118	4986.2125
3049.01187	4981.3125
3051.4111	4962.1125
3053.80888	4946.5125
3056.20519	4926.2125
3058.60005	4906.5125
3060.99345	4914.8125
3063.3854	4899.7125
3065.7759	4881.0125
3068.16494	4875.8125
3070.55254	4846.5125
3072.93868	4837.3125
3075.32338	4826.0125
3077.70662	4807.9125
3080.08842	4801.1125
3082.46878	4792.6125
3084.84769	4797.0125
3087.22515	4774.0125
3089.60118	4767.7125
3091.97576	4767.0125
3094.3489	4766.4125
