Data from AgNPs_UA_5uM_CRN_500uM_SU_RamanShift__22__11-33-03-131.txt Node

Date: Thu Aug 04 11:33:03 BST 2022
User: TCL
Spectrometer: QEP01345
Trigger mode: 4
Integration Time (sec): 1.000000E0
Scans to average: 10
Electric dark correction enabled: true
Nonlinearity correction enabled: false
Boxcar width: 0
XAxis mode: Raman Shifts
Number of Pixels in Spectrum: 1044
>>>>>Begin Spectral Data<<<<<
46.04893	0.4125
50.45542	-0.1875
54.85868	0.4125
59.25871	-0.0875
63.6555	-53.1875
68.04907	-35.0875
72.43941	-66.4875
76.82654	-50.5875
81.21044	-51.5875
85.59113	-44.2875
89.96862	-69.7875
94.34289	-50.2875
98.71396	-71.1875
103.08183	-51.0875
107.4465	-42.1875
111.80798	-48.0875
116.16626	-35.6875
120.52136	-63.3875
124.87327	-40.2875
129.222	-51.5875
133.56755	-36.7875
137.90993	-46.7875
142.24913	-30.2875
146.58517	-19.1875
150.91804	-13.5875
155.24774	6.6125
159.57429	41.0125
163.89768	61.8125
168.21792	136.3125
172.53501	199.3125
176.84895	340.2125
181.15975	565.2125
185.46741	830.7125
189.77193	1175.8125
194.07331	1657.0125
198.37157	2171.7125
202.6667	2716.1125
206.9587	3296.7125
211.24758	3926.9125
215.53334	4638.1125
219.81599	5442.1125
224.09553	6380.0125
228.37195	7356.2125
232.64527	8281.9125
236.91549	9016.6125
241.18261	9405.7125
245.44663	9508.5125
249.70755	9452.5125
253.96539	9481.3125
258.22014	9536.4125
262.4718	9630.0125
266.72039	9645.5125
270.96589	9370.7125
275.20832	9000.4125
279.44768	8576.4125
283.68397	8277.2125
287.91719	8194.0125
292.14735	8390.1125
296.37445	9043.2125
300.59849	10167.0125
304.81948	11736.3125
309.03742	13493.4125
313.25231	14768.6125
317.46415	14591.1125
321.67296	12789.8125
325.87872	10670.6125
330.08145	9476.5125
334.28114	9218.5125
338.47781	9550.1125
342.67145	10234.6125
346.86207	11347.1125
351.04966	13004.6125
355.23424	14635.6125
359.4158	15229.8125
363.59435	14607.0125
367.76989	13641.3125
371.94243	12685.1125
376.11196	11887.0125
380.27849	11276.9125
384.44203	10807.5125
388.60257	10551.3125
392.76012	10592.1125
396.91468	10943.6125
401.06626	11382.5125
405.21485	11396.1125
409.36047	10617.0125
413.50311	9362.5125
417.64277	8166.0125
421.77947	7405.5125
425.9132	7060.0125
430.04396	6897.5125
434.17176	6862.0125
438.2966	7015.4125
442.41849	7265.0125
446.53742	7504.8125
450.6534	7661.7125
454.76644	7638.3125
458.87653	7499.3125
462.98368	7331.8125
467.08789	7162.5125
471.18916	6905.4125
475.2875	6580.9125
479.38291	6269.9125
483.4754	6075.6125
487.56496	6009.0125
491.6516	5892.8125
495.73531	5877.0125
499.81612	5972.2125
503.89401	6180.8125
507.96899	6389.1125
512.04106	6715.1125
516.11023	7027.5125
520.1765	7286.3125
524.23987	7375.0125
528.30034	7351.0125
532.35792	7209.7125
536.41261	7029.8125
540.46441	6777.0125
544.51333	6592.9125
548.55936	6585.0125
552.60252	6756.0125
556.64279	7049.1125
560.6802	7547.4125
564.71473	8735.0125
568.7464	10238.0125
572.7752	10203.0125
576.80114	8231.2125
580.82422	6671.1125
584.84444	5984.4125
588.86181	5776.5125
592.87633	5762.3125
596.888	6011.8125
600.89682	6943.1125
604.9028	10042.6125
608.90594	18105.3125
612.90624	27786.2125
616.90371	25054.0125
620.89834	13078.2125
624.89015	7834.6125
628.87913	7304.7125
632.86528	8043.1125
636.84862	8323.0125
640.82913	7356.0125
644.80683	6070.8125
648.78172	5539.3125
652.75379	5747.4125
656.72306	6688.6125
660.68952	7593.9125
664.65319	7080.6125
668.61405	5847.6125
672.57211	5331.7125
676.52738	5319.5125
680.47986	5260.4125
684.42955	5083.8125
688.37646	4988.0125
692.32058	5000.1125
696.26192	5116.2125
700.20048	5256.1125
704.13626	5318.2125
708.06928	5205.8125
711.99952	5155.7125
715.927	5231.0125
719.85171	5487.1125
723.77365	5663.3125
727.69284	5486.3125
731.60928	5296.5125
735.52295	5232.2125
739.43388	5325.6125
743.34206	5362.9125
747.24749	5361.4125
751.15017	5399.7125
755.05012	5823.7125
758.94733	7377.5125
762.8418	10927.0125
766.73354	15491.9125
770.62254	17815.8125
774.50882	16862.8125
778.39237	14974.8125
782.27321	12244.2125
786.15132	8859.3125
790.02671	6638.5125
793.89938	5633.3125
797.76935	5305.5125
801.6366	5147.5125
805.50115	5048.1125
809.36299	5005.3125
813.22213	4966.3125
817.07857	4992.0125
820.93231	5019.8125
824.78336	5149.7125
828.63172	5294.0125
832.47738	5351.1125
836.32036	5217.1125
840.16066	4957.5125
843.99827	4806.8125
847.8332	4729.6125
851.66546	4742.0125
855.49504	4723.6125
859.32195	4723.6125
863.1462	4663.3125
866.96777	4646.8125
870.78668	4639.6125
874.60293	4684.5125
878.41652	4764.9125
882.22745	4947.6125
886.03573	5055.4125
889.84136	5000.1125
893.64433	4983.8125
897.44466	4984.9125
901.24235	4998.6125
905.0374	4919.4125
908.8298	4684.4125
912.61957	4552.6125
916.40671	4447.8125
920.19121	4518.0125
923.97308	4768.2125
927.75233	5247.4125
931.52895	5757.0125
935.30295	5475.4125
939.07433	4761.0125
942.84309	4288.7125
946.60924	4144.4125
950.37278	4065.7125
954.13371	4048.3125
957.89203	4040.8125
961.64774	4064.9125
965.40086	4024.6125
969.15137	3972.5125
972.89929	4005.3125
976.64461	3981.9125
980.38733	3974.5125
984.12747	3955.6125
987.86502	3973.1125
991.59999	4012.3125
995.33237	4096.8125
999.06217	4220.6125
1002.78939	4457.2125
1006.51404	4799.2125
1010.23611	4962.7125
1013.95561	4791.4125
1017.67255	4549.3125
1021.38692	4357.8125
1025.09872	4197.6125
1028.80796	4099.0125
1032.51465	4141.8125
1036.21877	4203.1125
1039.92035	4289.0125
1043.61937	4352.7125
1047.31584	4447.3125
1051.00976	4455.3125
1054.70114	4386.7125
1058.38998	4312.2125
1062.07627	4274.8125
1065.76003	4278.3125
1069.44126	4343.1125
1073.11995	4458.9125
1076.79611	4796.1125
1080.46974	5384.7125
1084.14085	6242.7125
1087.80943	6933.0125
1091.47549	6885.2125
1095.13903	6153.3125
1098.80005	5426.2125
1102.45857	5006.9125
1106.11456	4966.3125
1109.76805	5123.0125
1113.41903	5615.1125
1117.06751	6395.0125
1120.71348	7604.4125
1124.35696	9458.7125
1127.99793	10669.0125
1131.63641	9664.7125
1135.2724	7776.5125
1138.90589	6489.6125
1142.5369	5777.6125
1146.16542	5328.6125
1149.79145	5046.6125
1153.415	4980.5125
1157.03607	5052.0125
1160.65467	5327.1125
1164.27079	5813.5125
1167.88443	6513.6125
1171.49561	7716.2125
1175.10432	9759.7125
1178.71056	12487.7125
1182.31434	14370.7125
1185.91565	13988.8125
1189.51451	12206.2125
1193.11091	10327.1125
1196.70485	9127.8125
1200.29634	8648.8125
1203.88538	8039.9125
1207.47197	6908.7125
1211.05612	5835.9125
1214.63782	5161.4125
1218.21708	4865.2125
1221.79391	4740.1125
1225.36829	4729.2125
1228.94024	4734.1125
1232.50976	4717.4125
1236.07685	4742.4125
1239.6415	4810.0125
1243.20374	4960.4125
1246.76355	5158.2125
1250.32093	5445.0125
1253.8759	5765.1125
1257.42845	6413.6125
1260.97859	7183.2125
1264.52631	7958.3125
1268.07163	8283.7125
1271.61453	8257.4125
1275.15503	7943.9125
1278.69312	7639.8125
1282.22882	7868.6125
1285.76211	8954.2125
1289.29301	10373.6125
1292.82151	11308.1125
1296.34761	11691.8125
1299.87133	12648.5125
1303.39266	15083.9125
1306.9116	19631.7125
1310.42815	25276.1125
1313.94233	27399.5125
1317.45412	23266.6125
1320.96354	17000.0125
1324.47058	12207.5125
1327.97525	9352.4125
1331.47754	7904.3125
1334.97747	7431.5125
1338.47502	7622.3125
1341.97022	8746.1125
1345.46305	11176.3125
1348.95352	14628.0125
1352.44163	18207.7125
1355.92738	22754.4125
1359.41078	30705.0125
1362.89183	38897.1125
1366.37053	36719.0125
1369.84688	25038.8125
1373.32088	15569.7125
1376.79254	11502.0125
1380.26186	9700.5125
1383.72883	8226.2125
1387.19347	6937.8125
1390.65578	6006.8125
1394.11575	5476.9125
1397.57339	5232.4125
1401.0287	5031.5125
1404.48168	4845.0125
1407.93234	4774.8125
1411.38068	4877.5125
1414.82669	5303.7125
1418.27039	5797.1125
1421.71177	5894.7125
1425.15083	5658.1125
1428.58758	5772.1125
1432.02203	6432.1125
1435.45416	6910.8125
1438.88399	6576.9125
1442.31151	6134.1125
1445.73673	6045.9125
1449.15965	5963.4125
1452.58027	5808.8125
1455.9986	5594.2125
1459.41463	5399.2125
1462.82837	5406.3125
1466.23982	5673.0125
1469.64898	6039.4125
1473.05586	6151.2125
1476.46045	6115.9125
1479.86276	6139.7125
1483.26279	6435.0125
1486.66054	7165.6125
1490.05602	8237.5125
1493.44922	10046.9125
1496.84016	12858.5125
1500.22882	17221.4125
1503.61521	23331.3125
1506.99934	31310.8125
1510.38121	39452.2125
1513.76081	42902.3125
1517.13816	38377.2125
1520.51324	28754.9125
1523.88607	19779.9125
1527.25665	13972.7125
1530.62498	10667.8125
1533.99105	8721.7125
1537.35488	7482.0125
1540.71647	6799.2125
1544.07581	6514.2125
1547.4329	6498.5125
1550.78776	6707.8125
1554.14038	7075.6125
1557.49077	7704.4125
1560.83892	8819.8125
1564.18484	10581.0125
1567.52853	12389.4125
1570.86999	13399.1125
1574.20922	13433.3125
1577.54624	12664.0125
1580.88103	10524.3125
1584.2136	7966.6125
1587.54395	6496.1125
1590.87208	6147.0125
1594.19801	6606.1125
1597.52172	7439.5125
1600.84321	7466.8125
1604.16251	6597.5125
1607.47959	5736.1125
1610.79447	5226.7125
1614.10715	4818.0125
1617.41763	4541.6125
1620.7259	4424.7125
1624.03199	4488.3125
1627.33587	4722.6125
1630.63757	5157.2125
1633.93707	5963.7125
1637.23439	7403.7125
1640.52951	10077.1125
1643.82246	14613.4125
1647.11321	20827.0125
1650.40179	25655.4125
1653.68819	25140.6125
1656.97241	19402.8125
1660.25446	12865.8125
1663.53433	8488.9125
1666.81203	6084.3125
1670.08756	4859.1125
1673.36092	4211.6125
1676.63211	3783.2125
1679.90115	3532.4125
1683.16801	3364.6125
1686.43272	3214.8125
1689.69527	3127.1125
1692.95567	3044.6125
1696.2139	2994.6125
1699.46999	2921.2125
1702.72392	2919.5125
1705.97571	2917.0125
1709.22535	2899.6125
1712.47284	2953.2125
1715.71819	2967.4125
1718.96139	2981.7125
1722.20246	2962.2125
1725.44139	2868.5125
1728.67818	2804.0125
1731.91284	2717.9125
1735.14537	2657.9125
1738.37576	2611.8125
1741.60403	2586.4125
1744.83017	2547.9125
1748.05418	2522.1125
1751.27607	2512.8125
1754.49584	2458.3125
1757.71349	2390.0125
1760.92903	2355.9125
1764.14244	2280.8125
1767.35375	2253.6125
1770.56294	2206.7125
1773.77002	2158.5125
1776.97499	2137.9125
1780.17785	2090.9125
1783.37861	2066.7125
1786.57727	2064.3125
1789.77382	1994.7125
1792.96828	2026.3125
1796.16064	2040.0125
1799.3509	2023.2125
1802.53907	2024.1125
1805.72514	1986.5125
1808.90913	1974.3125
1812.09102	1967.2125
1815.27083	1957.1125
1818.44856	1942.4125
1821.6242	1940.4125
1824.79776	1922.7125
1827.96924	1906.8125
1831.13864	1880.3125
1834.30597	1880.3125
1837.47122	1840.5125
1840.6344	1817.2125
1843.7955	1780.5125
1846.95454	1757.3125
1850.11151	1774.8125
1853.26642	1742.3125
1856.41926	1743.7125
1859.57004	1737.4125
1862.71876	1759.5125
1865.86542	1768.6125
1869.01003	1759.1125
1872.15258	1755.5125
1875.29308	1775.8125
1878.43152	1781.7125
1881.56792	1761.9125
1884.70227	1748.0125
1887.83457	1742.2125
1890.96482	1707.7125
1894.09304	1701.4125
1897.21921	1697.7125
1900.34335	1703.1125
1903.46544	1688.0125
1906.58551	1698.3125
1909.70353	1691.5125
1912.81953	1687.1125
1915.93349	1678.9125
1919.04543	1672.6125
1922.15534	1647.5125
1925.26322	1637.7125
1928.36908	1609.0125
1931.47292	1584.2125
1934.57473	1576.3125
1937.67453	1526.8125
1940.77232	1493.2125
1943.86808	1472.5125
1946.96184	1477.4125
1950.05358	1462.4125
1953.14331	1455.4125
1956.23103	1472.7125
1959.31675	1455.0125
1962.40046	1428.2125
1965.48217	1483.4125
1968.56188	1501.6125
1971.63959	1520.0125
1974.7153	1526.8125
1977.78901	1499.6125
1980.86073	1475.0125
1983.93046	1418.7125
1986.99819	1333.9125
1990.06394	1343.0125
1993.1277	1360.8125
1996.18947	1348.1125
1999.24925	1312.5125
2002.30706	1316.6125
2005.36288	1317.9125
2008.41672	1293.3125
2011.46859	1272.2125
2014.51848	1268.2125
2017.56639	1241.8125
2020.61233	1251.8125
2023.6563	1257.8125
2026.6983	1221.9125
2029.73833	1225.7125
2032.7764	1238.5125
2035.8125	1191.0125
2038.84664	1203.4125
2041.87881	1196.1125
2044.90903	1215.8125
2047.93729	1209.3125
2050.96359	1172.2125
2053.98794	1176.3125
2057.01034	1176.0125
2060.03078	1148.7125
2063.04927	1132.2125
2066.06582	1135.1125
2069.08042	1106.7125
2072.09307	1109.4125
2075.10378	1118.3125
2078.11255	1106.2125
2081.11938	1101.1125
2084.12426	1107.7125
2087.12722	1103.2125
2090.12824	1099.3125
2093.12732	1106.6125
2096.12447	1106.6125
2099.11969	1100.0125
2102.11299	1091.0125
2105.10435	1114.9125
2108.09379	1102.7125
2111.08131	1104.2125
2114.0669	1116.8125
2117.05057	1118.8125
2120.03233	1123.4125
2123.01216	1164.8125
2125.99008	1181.6125
2128.96609	1186.3125
2131.94018	1182.1125
2134.91236	1157.7125
2137.88263	1132.4125
2140.851	1123.4125
2143.81746	1118.1125
2146.78201	1088.4125
2149.74466	1056.4125
2152.7054	1058.6125
2155.66425	1043.0125
2158.6212	1019.4125
2161.57625	996.3125
2164.52941	977.3125
2167.48067	995.3125
2170.43004	1005.2125
2173.37752	1025.6125
2176.32311	1025.3125
2179.26681	1035.4125
2182.20863	1038.1125
2185.14856	1032.4125
2188.08661	1032.0125
2191.02278	1024.5125
2193.95707	991.9125
2196.88948	974.7125
2199.82001	983.0125
2202.74867	964.8125
2205.67545	969.8125
2208.60037	982.2125
2211.52341	971.1125
2214.44458	969.1125
2217.36388	972.5125
2220.28132	951.2125
2223.1969	937.9125
2226.11061	940.4125
2229.02246	923.5125
2231.93245	934.8125
2234.84058	923.5125
2237.74686	912.9125
2240.65128	910.3125
2243.55385	930.0125
2246.45456	910.3125
2249.35343	947.6125
2252.25044	953.4125
2255.14561	982.3125
2258.03893	1017.5125
2260.93041	1032.1125
2263.82004	1043.6125
2266.70783	1053.2125
2269.59378	1032.6125
2272.4779	1016.4125
2275.36017	1034.9125
2278.24061	1024.2125
2281.11922	984.4125
2283.996	995.3125
2286.87094	975.8125
2289.74405	962.5125
2292.61534	945.6125
2295.4848	935.8125
2298.35243	907.1125
2301.21824	899.5125
2304.08223	893.1125
2306.94439	901.7125
2309.80474	902.5125
2312.66327	904.6125
2315.51999	888.4125
2318.37489	889.1125
2321.22797	874.5125
2324.07925	879.3125
2326.92871	879.1125
2329.77637	861.5125
2332.62222	870.0125
2335.46626	859.1125
2338.3085	856.9125
2341.14893	884.0125
2343.98756	891.9125
2346.8244	884.7125
2349.65943	888.6125
2352.49267	905.3125
2355.32411	919.7125
2358.15376	932.2125
2360.98161	955.9125
2363.80768	963.1125
2366.63195	985.9125
2369.45444	1007.5125
2372.27514	998.2125
2375.09405	1018.5125
2377.91118	986.3125
2380.72652	967.7125
2383.54009	958.6125
2386.35187	943.1125
2389.16188	920.1125
2391.97011	916.0125
2394.77657	896.0125
2397.58125	890.5125
2400.38416	877.7125
2403.18529	855.3125
2405.98466	846.5125
2408.78226	844.3125
2411.57809	839.4125
2414.37216	838.0125
2417.16446	836.2125
2419.955	821.4125
2422.74378	853.2125
2425.5308	832.5125
2428.31606	850.3125
2431.09956	864.7125
2433.88131	855.1125
2436.6613	877.1125
2439.43954	877.6125
2442.21603	873.3125
2444.99077	873.4125
2447.76377	901.0125
2450.53501	905.7125
2453.30451	901.8125
2456.07226	920.3125
2458.83827	910.4125
2461.60254	873.7125
2464.36507	901.3125
2467.12586	882.3125
2469.88492	895.8125
2472.64224	900.3125
2475.39782	895.9125
2478.15167	921.5125
2480.90379	925.4125
2483.65417	971.5125
2486.40283	992.0125
2489.14976	1005.6125
2491.89497	996.9125
2494.63845	1011.0125
2497.3802	995.6125
2500.12024	981.8125
2502.85855	967.8125
2505.59514	951.3125
2508.33002	917.7125
2511.06318	879.4125
2513.79462	869.2125
2516.52435	804.1125
2519.25237	766.7125
2521.97867	760.1125
2524.70327	757.0125
2527.42616	747.0125
2530.14734	746.6125
2532.86681	731.4125
2535.58458	733.5125
2538.30065	737.7125
2541.01501	762.1125
2543.72768	752.5125
2546.43864	763.4125
2549.14791	769.6125
2551.85548	766.6125
2554.56136	766.4125
2557.26554	791.4125
2559.96803	792.2125
2562.66883	795.9125
2565.36794	791.6125
2568.06536	776.6125
2570.7611	802.0125
2573.45514	788.9125
2576.14751	785.8125
2578.83819	773.7125
2581.52719	762.9125
2584.21451	760.1125
2586.90015	736.6125
2589.58411	723.8125
2592.2664	737.0125
2594.94701	746.5125
2597.62594	744.9125
2600.30321	691.6125
2602.9788	719.4125
2605.65273	723.6125
2608.32498	723.5125
2610.99557	753.6125
2613.66449	734.8125
2616.33175	749.0125
2618.99734	747.6125
2621.66128	755.7125
2624.32355	747.7125
2626.98416	729.3125
2629.64311	717.1125
2632.30041	706.1125
2634.95605	689.5125
2637.61004	669.0125
2640.26238	649.1125
2642.91306	650.3125
2645.56209	671.5125
2648.20948	659.2125
2650.85521	647.5125
2653.4993	680.5125
2656.14175	676.2125
2658.78255	672.8125
2661.42171	652.7125
2664.05923	697.7125
2666.6951	715.7125
2669.32934	724.5125
2671.96194	737.4125
2674.59291	728.4125
2677.22224	729.8125
2679.84993	722.5125
2682.476	710.7125
2685.10043	707.5125
2687.72324	688.6125
2690.34441	686.4125
2692.96396	685.1125
2695.58188	701.6125
2698.19818	683.7125
2700.81285	670.2125
2703.4259	662.0125
2706.03733	644.1125
2708.64714	653.4125
2711.25533	680.7125
2713.86191	692.1125
2716.46687	689.7125
2719.07021	683.4125
2721.67194	696.7125
2724.27206	704.4125
2726.87057	676.5125
2729.46747	665.9125
2732.06276	667.5125
2734.65644	644.9125
2737.24852	647.6125
2739.83899	619.9125
2742.42786	626.2125
2745.01513	631.7125
2747.60079	607.6125
2750.18486	590.2125
2752.76733	593.3125
2755.3482	583.5125
2757.92747	578.5125
2760.50515	565.4125
2763.08123	556.3125
2765.65573	569.0125
2768.22863	556.8125
2770.79994	550.2125
2773.36967	551.6125
2775.9378	554.8125
2778.50435	555.5125
2781.06932	557.7125
2783.6327	548.0125
2786.1945	574.6125
2788.75471	563.3125
2791.31335	568.0125
2793.87041	569.5125
2796.42589	568.1125
2798.97979	570.9125
2801.53212	587.7125
2804.08288	615.4125
2806.63206	615.7125
2809.17967	609.4125
2811.72571	649.2125
2814.27018	659.1125
2816.81308	677.0125
2819.35442	659.0125
2821.89419	698.6125
2824.43239	691.4125
2826.96904	732.8125
2829.50412	709.0125
2832.03763	709.6125
2834.56959	700.6125
2837.1	677.5125
2839.62884	676.1125
2842.15613	668.2125
2844.68186	677.7125
2847.20604	655.4125
2849.72867	662.2125
2852.24974	680.4125
2854.76927	670.9125
2857.28724	640.3125
2859.80367	723.9125
2862.31855	745.4125
2864.83189	752.3125
2867.34368	774.1125
2869.85393	800.1125
2872.36264	792.1125
2874.8698	801.8125
2877.37543	803.1125
2879.87952	785.7125
2882.38207	751.4125
2884.88308	755.8125
2887.38256	731.2125
2889.88051	717.8125
2892.37692	711.0125
2894.8718	694.3125
2897.36515	709.3125
2899.85698	704.9125
2902.34727	708.5125
2904.83604	732.6125
2907.32328	757.8125
2909.809	774.1125
2912.29319	786.0125
2914.77587	797.6125
2917.25702	800.0125
2919.73665	793.9125
2922.21476	780.5125
2924.69136	752.5125
2927.16644	724.5125
2929.64	702.2125
2932.11205	679.4125
2934.58258	688.6125
2937.05161	672.9125
2939.51912	665.5125
2941.98513	685.0125
2944.44962	666.2125
2946.91261	648.6125
2949.37409	659.0125
2951.83407	657.9125
2954.29254	673.1125
2956.74951	680.9125
2959.20498	659.2125
2961.65895	668.2125
2964.11142	661.8125
2966.56239	663.4125
2969.01186	650.7125
2971.45984	645.2125
2973.90632	640.9125
2976.35131	654.9125
2978.7948	646.0125
2981.23681	645.3125
2983.67732	653.4125
2986.11635	658.4125
2988.55388	635.8125
2990.98993	649.0125
2993.4245	649.6125
2995.85758	644.9125
2998.28917	657.4125
3000.71928	658.0125
3003.14791	657.5125
3005.57506	647.8125
3008.00073	643.9125
3010.42493	588.3125
3012.84764	643.6125
3015.26888	650.0125
3017.68865	644.3125
3020.10694	596.9125
3022.52376	618.6125
3024.9391	609.2125
3027.35298	600.6125
3029.76539	569.6125
3032.17632	574.9125
3034.5858	556.0125
3036.9938	551.4125
3039.40034	535.4125
3041.80542	510.4125
3044.20903	488.0125
3046.61118	483.4125
3049.01187	496.9125
3051.4111	478.7125
3053.80888	473.6125
3056.20519	474.8125
3058.60005	464.8125
3060.99345	481.1125
3063.3854	463.7125
3065.7759	453.6125
3068.16494	448.6125
3070.55254	440.6125
3072.93868	454.3125
3075.32338	449.6125
3077.70662	441.0125
3080.08842	432.6125
3082.46878	421.3125
3084.84769	444.8125
3087.22515	419.1125
3089.60118	430.9125
3091.97576	413.5125
3094.3489	422.9125
3096.72061	420.6125
3099.09087	399.1125
3101.4597	417.4125
3103.82709	408.6125
3106.19305	395.0125
3108.55757	407.5125
3110.92066	403.9125
3113.28232	414.0125
3115.64255	417.3125
3118.00134	419.0125
3120.35871	403.1125
3122.71466	392.5125
3125.06917	411.3125
3127.42226	403.4125
3129.77393	387.4125
3132.12417	402.8125
3134.47299	418.7125
3136.82039	401.7125
3139.16636	378.9125
3141.51092	405.5125
3143.85406	412.9125
3146.19579	396.5125
3148.53609	391.3125
3150.87499	408.5125
3153.21246	400.7125
3155.54853	416.7125
3157.88318	419.2125
