Data from AgNPs_UA_10uM_CRN_500uM_SU_RamanShift__92__13-20-40-272.txt Node

Date: Thu Aug 04 13:20:40 BST 2022
User: TCL
Spectrometer: QEP01345
Trigger mode: 4
Integration Time (sec): 1.000000E0
Scans to average: 10
Electric dark correction enabled: true
Nonlinearity correction enabled: false
Boxcar width: 0
XAxis mode: Raman Shifts
Number of Pixels in Spectrum: 1044
>>>>>Begin Spectral Data<<<<<
46.04893	-0.3875
50.45542	-0.1875
54.85868	0.8125
59.25871	-0.6875
63.6555	21.2125
68.04907	20.2125
72.43941	21.9125
76.82654	22.1125
81.21044	24.1125
85.59113	23.7125
89.96862	25.1125
94.34289	23.8125
98.71396	27.0125
103.08183	28.0125
107.4465	28.9125
111.80798	29.9125
116.16626	30.1125
120.52136	33.3125
124.87327	34.3125
129.222	36.2125
133.56755	37.4125
137.90993	42.5125
142.24913	45.7125
146.58517	52.1125
150.91804	62.2125
155.24774	76.5125
159.57429	94.9125
163.89768	124.4125
168.21792	164.2125
172.53501	226.3125
176.84895	318.2125
181.15975	458.8125
185.46741	646.6125
189.77193	894.7125
194.07331	1207.5125
198.37157	1549.9125
202.6667	1915.1125
206.9587	2287.2125
211.24758	2655.0125
215.53334	3027.1125
219.81599	3411.0125
224.09553	3851.9125
228.37195	4343.3125
232.64527	4865.5125
236.91549	5393.7125
241.18261	5864.2125
245.44663	6254.8125
249.70755	6586.4125
253.96539	6879.4125
258.22014	7120.8125
262.4718	7343.8125
266.72039	7463.2125
270.96589	7526.7125
275.20832	7483.5125
279.44768	7393.9125
283.68397	7264.3125
287.91719	7197.2125
292.14735	7201.4125
296.37445	7313.1125
300.59849	7472.7125
304.81948	7705.4125
309.03742	7908.1125
313.25231	8036.1125
317.46415	7987.4125
321.67296	7717.4125
325.87872	7458.6125
330.08145	7343.4125
334.28114	7334.8125
338.47781	7403.4125
342.67145	7538.6125
346.86207	7738.3125
351.04966	7988.8125
355.23424	8286.4125
359.4158	8493.5125
363.59435	8595.7125
367.76989	8680.7125
371.94243	8673.3125
376.11196	8666.3125
380.27849	8653.3125
384.44203	8707.1125
388.60257	8764.1125
392.76012	8823.4125
396.91468	8947.5125
401.06626	9081.5125
405.21485	9113.5125
409.36047	9051.3125
413.50311	8818.4125
417.64277	8553.4125
421.77947	8421.2125
425.9132	8357.7125
430.04396	8352.9125
434.17176	8410.5125
438.2966	8527.4125
442.41849	8644.7125
446.53742	8847.8125
450.6534	9058.2125
454.76644	9189.0125
458.87653	9245.9125
462.98368	9267.7125
467.08789	9178.9125
471.18916	9033.3125
475.2875	8854.1125
479.38291	8666.1125
483.4754	8577.5125
487.56496	8487.6125
491.6516	8479.1125
495.73531	8457.4125
499.81612	8507.8125
503.89401	8566.0125
507.96899	8622.5125
512.04106	8657.8125
516.11023	8683.6125
520.1765	8743.3125
524.23987	8740.0125
528.30034	8750.1125
532.35792	8727.0125
536.41261	8666.7125
540.46441	8562.5125
544.51333	8552.5125
548.55936	8597.7125
552.60252	8741.7125
556.64279	8847.9125
560.6802	8987.1125
564.71473	9078.6125
568.7464	9140.7125
572.7752	9099.6125
576.80114	8931.4125
580.82422	8802.5125
584.84444	8760.8125
588.86181	8801.3125
592.87633	8882.8125
596.888	9066.8125
600.89682	9448.3125
604.9028	10421.8125
608.90594	12395.0125
612.90624	14239.7125
616.90371	13153.6125
620.89834	10499.5125
624.89015	9485.5125
628.87913	9431.9125
632.86528	9529.9125
636.84862	9516.9125
640.82913	9290.1125
644.80683	8932.7125
648.78172	8776.1125
652.75379	8755.8125
656.72306	9043.0125
660.68952	9303.9125
664.65319	9263.8125
668.61405	9169.6125
672.57211	9241.3125
676.52738	9233.3125
680.47986	9015.2125
684.42955	8834.9125
688.37646	8823.6125
692.32058	8927.7125
696.26192	9089.7125
700.20048	9247.4125
704.13626	9264.5125
708.06928	9140.3125
711.99952	9035.9125
715.927	9032.3125
719.85171	9102.2125
723.77365	9099.2125
727.69284	9013.2125
731.60928	8929.8125
735.52295	8956.4125
739.43388	8991.5125
743.34206	9048.0125
747.24749	9032.9125
751.15017	9064.2125
755.05012	9156.1125
758.94733	9427.0125
762.8418	10163.9125
766.73354	11199.6125
770.62254	12017.8125
774.50882	12218.1125
778.39237	11861.6125
782.27321	11119.5125
786.15132	10287.6125
790.02671	9673.2125
793.89938	9352.9125
797.76935	9220.6125
801.6366	9157.4125
805.50115	9085.2125
809.36299	9038.5125
813.22213	9019.1125
817.07857	9020.6125
820.93231	8999.0125
824.78336	9004.0125
828.63172	9017.9125
832.47738	9039.5125
836.32036	9040.2125
840.16066	9061.6125
843.99827	9058.3125
847.8332	9058.3125
851.66546	9036.9125
855.49504	9079.2125
859.32195	9063.2125
863.1462	9060.4125
866.96777	9031.4125
870.78668	9031.9125
874.60293	9079.6125
878.41652	9112.0125
882.22745	9200.8125
886.03573	9231.8125
889.84136	9249.4125
893.64433	9197.4125
897.44466	9153.6125
901.24235	9145.3125
905.0374	9103.5125
908.8298	9092.2125
912.61957	9053.6125
916.40671	9093.2125
920.19121	9158.8125
923.97308	9232.4125
927.75233	9302.8125
931.52895	9387.1125
935.30295	9346.5125
939.07433	9189.4125
942.84309	9085.4125
946.60924	9066.9125
950.37278	9024.3125
954.13371	8994.7125
957.89203	9000.0125
961.64774	8979.3125
965.40086	8959.7125
969.15137	8972.7125
972.89929	8949.9125
976.64461	8951.5125
980.38733	8974.5125
984.12747	8995.5125
987.86502	9046.5125
991.59999	9125.4125
995.33237	9240.9125
999.06217	9439.4125
1002.78939	9635.1125
1006.51404	9778.0125
1010.23611	9865.1125
1013.95561	9966.4125
1017.67255	10019.7125
1021.38692	10035.7125
1025.09872	10014.0125
1028.80796	10053.7125
1032.51465	10187.9125
1036.21877	10315.3125
1039.92035	10311.5125
1043.61937	10189.6125
1047.31584	10115.5125
1051.00976	9970.2125
1054.70114	9941.3125
1058.38998	9937.4125
1062.07627	9982.4125
1065.76003	10021.0125
1069.44126	10111.0125
1073.11995	10235.2125
1076.79611	10430.1125
1080.46974	10575.7125
1084.14085	10670.6125
1087.80943	10735.8125
1091.47549	10795.6125
1095.13903	10757.5125
1098.80005	10723.7125
1102.45857	10763.1125
1106.11456	10720.6125
1109.76805	10633.4125
1113.41903	10620.4125
1117.06751	10729.1125
1120.71348	10898.0125
1124.35696	11069.8125
1127.99793	11177.4125
1131.63641	10994.2125
1135.2724	10730.0125
1138.90589	10504.0125
1142.5369	10356.2125
1146.16542	10269.1125
1149.79145	10186.8125
1153.415	10083.6125
1157.03607	10106.3125
1160.65467	10210.9125
1164.27079	10415.8125
1167.88443	10746.3125
1171.49561	11274.8125
1175.10432	11977.6125
1178.71056	12922.5125
1182.31434	13764.1125
1185.91565	14161.9125
1189.51451	14113.2125
1193.11091	13850.6125
1196.70485	13460.4125
1200.29634	13082.6125
1203.88538	12650.9125
1207.47197	12195.1125
1211.05612	11754.0125
1214.63782	11383.0125
1218.21708	11200.2125
1221.79391	11108.0125
1225.36829	11101.7125
1228.94024	11091.4125
1232.50976	10995.5125
1236.07685	10977.5125
1239.6415	10969.0125
1243.20374	11000.8125
1246.76355	11091.6125
1250.32093	11214.8125
1253.8759	11413.2125
1257.42845	11689.5125
1260.97859	12045.4125
1264.52631	12344.0125
1268.07163	12586.0125
1271.61453	12753.8125
1275.15503	12864.5125
1278.69312	12966.6125
1282.22882	13064.0125
1285.76211	13208.6125
1289.29301	13335.3125
1292.82151	13558.6125
1296.34761	13806.1125
1299.87133	14252.4125
1303.39266	15020.5125
1306.9116	16187.8125
1310.42815	17442.4125
1313.94233	17996.7125
1317.45412	17598.4125
1320.96354	16674.2125
1324.47058	15712.3125
1327.97525	14887.8125
1331.47754	14377.9125
1334.97747	14223.8125
1338.47502	14400.1125
1341.97022	14836.4125
1345.46305	15534.4125
1348.95352	16523.7125
1352.44163	17532.7125
1355.92738	18636.4125
1359.41078	19876.1125
1362.89183	20705.4125
1366.37053	19715.0125
1369.84688	17278.0125
1373.32088	15009.0125
1376.79254	13753.8125
1380.26186	13115.4125
1383.72883	12785.1125
1387.19347	12472.0125
1390.65578	12071.6125
1394.11575	11766.7125
1397.57339	11562.2125
1401.0287	11493.9125
1404.48168	11529.5125
1407.93234	11633.5125
1411.38068	11781.1125
1414.82669	11905.0125
1418.27039	11963.5125
1421.71177	11896.4125
1425.15083	11825.6125
1428.58758	11780.6125
1432.02203	11888.6125
1435.45416	11954.0125
1438.88399	11947.9125
1442.31151	11910.8125
1445.73673	11912.5125
1449.15965	11871.9125
1452.58027	11830.0125
1455.9986	11773.1125
1459.41463	11723.6125
1462.82837	11835.3125
1466.23982	12022.1125
1469.64898	12209.0125
1473.05586	12387.5125
1476.46045	12550.8125
1479.86276	12689.3125
1483.26279	12796.7125
1486.66054	12971.5125
1490.05602	13310.0125
1493.44922	13782.3125
1496.84016	14520.4125
1500.22882	15546.1125
1503.61521	16812.4125
1506.99934	18019.1125
1510.38121	18672.6125
1513.76081	18418.0125
1517.13816	17208.8125
1520.51324	15683.7125
1523.88607	14438.9125
1527.25665	13640.2125
1530.62498	13278.4125
1533.99105	13107.8125
1537.35488	12976.4125
1540.71647	12880.2125
1544.07581	12808.0125
1547.4329	12701.7125
1550.78776	12520.6125
1554.14038	12428.6125
1557.49077	12384.1125
1560.83892	12491.8125
1564.18484	12722.2125
1567.52853	12954.8125
1570.86999	13101.5125
1574.20922	13122.6125
1577.54624	12939.5125
1580.88103	12512.8125
1584.2136	12039.2125
1587.54395	11841.3125
1590.87208	12004.9125
1594.19801	12541.0125
1597.52172	13166.8125
1600.84321	13463.0125
1604.16251	13359.0125
1607.47959	13018.8125
1610.79447	12516.7125
1614.10715	11894.7125
1617.41763	11270.6125
1620.7259	10834.8125
1624.03199	10600.5125
1627.33587	10534.7125
1630.63757	10736.3125
1633.93707	11148.2125
1637.23439	11857.9125
1640.52951	12860.5125
1643.82246	14117.0125
1647.11321	15195.7125
1650.40179	15486.8125
1653.68819	14621.1125
1656.97241	13025.3125
1660.25446	11508.8125
1663.53433	10485.0125
1666.81203	9883.5125
1670.08756	9527.7125
1673.36092	9294.8125
1676.63211	9176.5125
1679.90115	9047.3125
1683.16801	8934.9125
1686.43272	8845.4125
1689.69527	8810.5125
1692.95567	8773.0125
1696.2139	8751.9125
1699.46999	8735.3125
1702.72392	8722.7125
1705.97571	8695.4125
1709.22535	8705.1125
1712.47284	8721.8125
1715.71819	8704.2125
1718.96139	8693.5125
1722.20246	8699.6125
1725.44139	8641.0125
1728.67818	8587.4125
1731.91284	8549.6125
1735.14537	8520.0125
1738.37576	8476.4125
1741.60403	8453.4125
1744.83017	8410.4125
1748.05418	8416.0125
1751.27607	8392.1125
1754.49584	8385.6125
1757.71349	8379.8125
1760.92903	8365.7125
1764.14244	8328.1125
1767.35375	8325.1125
1770.56294	8303.5125
1773.77002	8316.1125
1776.97499	8280.0125
1780.17785	8254.8125
1783.37861	8228.0125
1786.57727	8240.7125
1789.77382	8207.4125
1792.96828	8218.5125
1796.16064	8187.8125
1799.3509	8181.5125
1802.53907	8184.8125
1805.72514	8164.8125
1808.90913	8131.7125
1812.09102	8132.0125
1815.27083	8109.9125
1818.44856	8078.6125
1821.6242	8047.7125
1824.79776	8035.7125
1827.96924	8032.3125
1831.13864	8021.7125
1834.30597	8000.4125
1837.47122	7986.7125
1840.6344	7968.6125
1843.7955	7978.2125
1846.95454	7965.3125
1850.11151	7959.5125
1853.26642	7970.9125
1856.41926	7965.9125
1859.57004	7963.1125
1862.71876	7980.9125
1865.86542	7966.7125
1869.01003	7946.9125
1872.15258	7927.0125
1875.29308	7910.0125
1878.43152	7912.0125
1881.56792	7906.4125
1884.70227	7906.6125
1887.83457	7882.4125
1890.96482	7864.1125
1894.09304	7833.0125
1897.21921	7847.8125
1900.34335	7824.3125
1903.46544	7812.1125
1906.58551	7799.5125
1909.70353	7797.4125
1912.81953	7809.4125
1915.93349	7811.8125
1919.04543	7755.8125
1922.15534	7763.7125
1925.26322	7760.1125
1928.36908	7716.0125
1931.47292	7720.6125
1934.57473	7705.9125
1937.67453	7700.8125
1940.77232	7668.0125
1943.86808	7654.0125
1946.96184	7648.9125
1950.05358	7604.2125
1953.14331	7588.4125
1956.23103	7574.9125
1959.31675	7552.1125
1962.40046	7504.2125
1965.48217	7514.9125
1968.56188	7449.2125
1971.63959	7429.0125
1974.7153	7430.5125
1977.78901	7425.0125
1980.86073	7406.9125
1983.93046	7350.0125
1986.99819	7342.2125
1990.06394	7336.5125
1993.1277	7305.6125
1996.18947	7262.8125
1999.24925	7262.3125
2002.30706	7214.7125
2005.36288	7207.8125
2008.41672	7175.9125
2011.46859	7153.8125
2014.51848	7147.1125
2017.56639	7113.4125
2020.61233	7094.8125
2023.6563	7067.3125
2026.6983	7061.3125
2029.73833	7041.2125
2032.7764	7017.4125
2035.8125	6987.1125
2038.84664	7003.7125
2041.87881	6984.2125
2044.90903	6964.1125
2047.93729	6961.9125
2050.96359	6952.7125
2053.98794	6938.5125
2057.01034	6910.8125
2060.03078	6913.0125
2063.04927	6909.2125
2066.06582	6901.7125
2069.08042	6885.0125
2072.09307	6888.9125
2075.10378	6871.5125
2078.11255	6863.3125
2081.11938	6864.8125
2084.12426	6858.5125
2087.12722	6834.0125
2090.12824	6853.3125
2093.12732	6836.3125
2096.12447	6839.2125
2099.11969	6859.6125
2102.11299	6872.3125
2105.10435	6838.6125
2108.09379	6867.5125
2111.08131	6862.1125
2114.0669	6849.3125
2117.05057	6872.7125
2120.03233	6854.8125
2123.01216	6870.1125
2125.99008	6865.1125
2128.96609	6881.3125
2131.94018	6881.2125
2134.91236	6871.7125
2137.88263	6871.2125
2140.851	6868.3125
2143.81746	6874.2125
2146.78201	6868.3125
2149.74466	6860.8125
2152.7054	6873.8125
2155.66425	6885.6125
2158.6212	6880.7125
2161.57625	6845.6125
2164.52941	6864.2125
2167.48067	6850.0125
2170.43004	6852.1125
2173.37752	6829.6125
2176.32311	6844.7125
2179.26681	6842.2125
2182.20863	6849.4125
2185.14856	6863.8125
2188.08661	6859.7125
2191.02278	6866.9125
2193.95707	6850.3125
2196.88948	6823.9125
2199.82001	6812.8125
2202.74867	6843.7125
2205.67545	6834.1125
2208.60037	6841.7125
2211.52341	6825.4125
2214.44458	6798.0125
2217.36388	6782.6125
2220.28132	6777.4125
2223.1969	6749.3125
2226.11061	6717.8125
2229.02246	6720.5125
2231.93245	6690.8125
2234.84058	6671.8125
2237.74686	6680.1125
2240.65128	6673.1125
2243.55385	6663.2125
2246.45456	6646.0125
2249.35343	6625.9125
2252.25044	6635.8125
2255.14561	6625.3125
2258.03893	6615.7125
2260.93041	6620.4125
2263.82004	6601.3125
2266.70783	6589.5125
2269.59378	6558.1125
2272.4779	6554.2125
2275.36017	6513.5125
2278.24061	6507.9125
2281.11922	6497.5125
2283.996	6493.7125
2286.87094	6468.1125
2289.74405	6449.9125
2292.61534	6457.8125
2295.4848	6444.5125
2298.35243	6439.9125
2301.21824	6431.1125
2304.08223	6433.1125
2306.94439	6443.1125
2309.80474	6425.1125
2312.66327	6420.7125
2315.51999	6424.4125
2318.37489	6411.3125
2321.22797	6414.8125
2324.07925	6381.9125
2326.92871	6402.1125
2329.77637	6374.3125
2332.62222	6357.5125
2335.46626	6385.2125
2338.3085	6365.6125
2341.14893	6361.2125
2343.98756	6372.4125
2346.8244	6357.0125
2349.65943	6343.1125
2352.49267	6350.2125
2355.32411	6353.2125
2358.15376	6341.7125
2360.98161	6338.8125
2363.80768	6331.2125
2366.63195	6315.5125
2369.45444	6319.5125
2372.27514	6288.3125
2375.09405	6277.9125
2377.91118	6272.2125
2380.72652	6254.7125
2383.54009	6253.1125
2386.35187	6225.6125
2389.16188	6227.9125
2391.97011	6205.8125
2394.77657	6187.5125
2397.58125	6164.9125
2400.38416	6185.9125
2403.18529	6171.2125
2405.98466	6153.2125
2408.78226	6134.6125
2411.57809	6119.6125
2414.37216	6119.3125
2417.16446	6085.9125
2419.955	6100.2125
2422.74378	6093.3125
2425.5308	6075.1125
2428.31606	6075.1125
2431.09956	6071.9125
2433.88131	6080.5125
2436.6613	6080.2125
2439.43954	6051.9125
2442.21603	6063.6125
2444.99077	6036.5125
2447.76377	6044.1125
2450.53501	6042.5125
2453.30451	6045.7125
2456.07226	6026.9125
2458.83827	6016.9125
2461.60254	6001.6125
2464.36507	5984.9125
2467.12586	5966.6125
2469.88492	5978.0125
2472.64224	6006.5125
2475.39782	5999.8125
2478.15167	5989.5125
2480.90379	5984.3125
2483.65417	5963.1125
2486.40283	5966.9125
2489.14976	5998.1125
2491.89497	5978.5125
2494.63845	5985.5125
2497.3802	5959.3125
2500.12024	5961.9125
2502.85855	5942.3125
2505.59514	5964.3125
2508.33002	5951.2125
2511.06318	5925.2125
2513.79462	5897.9125
2516.52435	5927.0125
2519.25237	5891.1125
2521.97867	5875.1125
2524.70327	5875.5125
2527.42616	5857.0125
2530.14734	5848.3125
2532.86681	5846.6125
2535.58458	5866.0125
2538.30065	5855.9125
2541.01501	5855.2125
2543.72768	5838.7125
2546.43864	5845.1125
2549.14791	5810.8125
2551.85548	5828.3125
2554.56136	5806.0125
2557.26554	5813.7125
2559.96803	5792.6125
2562.66883	5775.7125
2565.36794	5759.9125
2568.06536	5734.7125
2570.7611	5732.4125
2573.45514	5738.0125
2576.14751	5724.4125
2578.83819	5719.9125
2581.52719	5708.1125
2584.21451	5695.6125
2586.90015	5702.6125
2589.58411	5697.9125
2592.2664	5690.7125
2594.94701	5670.8125
2597.62594	5650.8125
2600.30321	5647.2125
2602.9788	5651.7125
2605.65273	5648.3125
2608.32498	5645.9125
2610.99557	5639.3125
2613.66449	5629.0125
2616.33175	5623.8125
2618.99734	5616.7125
2621.66128	5618.4125
2624.32355	5598.5125
2626.98416	5586.2125
2629.64311	5591.3125
2632.30041	5585.1125
2634.95605	5585.0125
2637.61004	5569.2125
2640.26238	5539.1125
2642.91306	5547.9125
2645.56209	5549.4125
2648.20948	5539.7125
2650.85521	5528.4125
2653.4993	5547.2125
2656.14175	5515.4125
2658.78255	5529.4125
2661.42171	5505.0125
2664.05923	5521.3125
2666.6951	5522.4125
2669.32934	5550.8125
2671.96194	5533.2125
2674.59291	5527.0125
2677.22224	5532.1125
2679.84993	5544.3125
2682.476	5533.7125
2685.10043	5527.6125
2687.72324	5529.4125
2690.34441	5522.1125
2692.96396	5517.3125
2695.58188	5518.6125
2698.19818	5497.0125
2700.81285	5479.7125
2703.4259	5495.4125
2706.03733	5499.2125
2708.64714	5467.6125
2711.25533	5467.3125
2713.86191	5482.3125
2716.46687	5501.2125
2719.07021	5498.2125
2721.67194	5475.7125
2724.27206	5478.9125
2726.87057	5485.5125
2729.46747	5473.5125
2732.06276	5476.3125
2734.65644	5463.8125
2737.24852	5463.4125
2739.83899	5441.1125
2742.42786	5424.7125
2745.01513	5415.5125
2747.60079	5408.4125
2750.18486	5402.6125
2752.76733	5429.8125
2755.3482	5413.0125
2757.92747	5392.4125
2760.50515	5378.8125
2763.08123	5370.5125
2765.65573	5355.4125
2768.22863	5373.0125
2770.79994	5356.9125
2773.36967	5343.4125
2775.9378	5344.7125
2778.50435	5328.9125
2781.06932	5336.4125
2783.6327	5333.0125
2786.1945	5343.6125
2788.75471	5315.9125
2791.31335	5306.1125
2793.87041	5296.9125
2796.42589	5280.3125
2798.97979	5280.8125
2801.53212	5255.6125
2804.08288	5221.0125
2806.63206	5238.8125
2809.17967	5234.1125
2811.72571	5226.5125
2814.27018	5201.2125
2816.81308	5220.5125
2819.35442	5194.9125
2821.89419	5169.6125
2824.43239	5177.3125
2826.96904	5173.1125
2829.50412	5170.0125
2832.03763	5153.7125
2834.56959	5128.3125
2837.1	5131.0125
2839.62884	5122.3125
2842.15613	5115.4125
2844.68186	5125.0125
2847.20604	5106.3125
2849.72867	5105.4125
2852.24974	5086.8125
2854.76927	5082.2125
2857.28724	5070.4125
2859.80367	5049.6125
2862.31855	5052.9125
2864.83189	5042.4125
2867.34368	5052.8125
2869.85393	5042.6125
2872.36264	5027.0125
2874.8698	5032.9125
2877.37543	5026.9125
2879.87952	5020.9125
2882.38207	5020.5125
2884.88308	5015.1125
2887.38256	5016.3125
2889.88051	5003.8125
2892.37692	4998.0125
2894.8718	4997.7125
2897.36515	5009.6125
2899.85698	4991.4125
2902.34727	4993.1125
2904.83604	5017.0125
2907.32328	5009.7125
2909.809	5016.7125
2912.29319	5030.2125
2914.77587	5019.3125
2917.25702	5028.1125
2919.73665	5028.4125
2922.21476	5018.3125
2924.69136	4994.7125
2927.16644	5006.4125
2929.64	4987.5125
2932.11205	4976.4125
2934.58258	4961.9125
2937.05161	4961.0125
2939.51912	4966.6125
2941.98513	4956.9125
2944.44962	4944.7125
2946.91261	4952.7125
2949.37409	4944.7125
2951.83407	4942.2125
2954.29254	4933.1125
2956.74951	4936.5125
2959.20498	4925.6125
2961.65895	4922.7125
2964.11142	4929.5125
2966.56239	4906.5125
2969.01186	4908.9125
2971.45984	4890.2125
2973.90632	4889.4125
2976.35131	4888.0125
2978.7948	4873.3125
2981.23681	4870.8125
2983.67732	4852.7125
2986.11635	4852.2125
2988.55388	4829.1125
2990.98993	4822.1125
2993.4245	4819.1125
2995.85758	4795.0125
2998.28917	4790.9125
3000.71928	4761.9125
3003.14791	4762.6125
3005.57506	4744.2125
3008.00073	4747.0125
3010.42493	4722.4125
3012.84764	4720.4125
3015.26888	4715.2125
3017.68865	4712.3125
3020.10694	4688.8125
3022.52376	4677.8125
3024.9391	4665.8125
3027.35298	4642.4125
3029.76539	4635.7125
3032.17632	4630.8125
3034.5858	4635.3125
3036.9938	4631.7125
3039.40034	4606.4125
3041.80542	4597.3125
3044.20903	4585.3125
3046.61118	4593.3125
3049.01187	4570.1125
3051.4111	4567.6125
3053.80888	4545.2125
3056.20519	4546.9125
3058.60005	4516.4125
3060.99345	4523.8125
3063.3854	4515.3125
3065.7759	4488.1125
3068.16494	4480.2125
3070.55254	4471.9125
3072.93868	4448.3125
3075.32338	4432.6125
3077.70662	4428.3125
3080.08842	4434.8125
3082.46878	4407.4125
3084.84769	4405.3125
3087.22515	4392.1125
3089.60118	4395.3125
3091.97576	4408.6125
3094.3489	4390.6125
3096.72061	4385.7125
3099.09087	4383.4125
3101.4597	4368.3125
3103.82709	4386.4125
3106.19305	4373.3125
