Data from AgNPs_UA_5uM_CRN_500uM_SU_RamanShift__43__11-36-33-147.txt Node

Date: Thu Aug 04 11:36:33 BST 2022
User: TCL
Spectrometer: QEP01345
Trigger mode: 4
Integration Time (sec): 1.000000E0
Scans to average: 10
Electric dark correction enabled: true
Nonlinearity correction enabled: false
Boxcar width: 0
XAxis mode: Raman Shifts
Number of Pixels in Spectrum: 1044
>>>>>Begin Spectral Data<<<<<
46.04893	0.95
50.45542	-0.55
54.85868	1.55
59.25871	-0.95
63.6555	-56.65
68.04907	-36.75
72.43941	-66.65
76.82654	-52.25
81.21044	-53.65
85.59113	-46.65
89.96862	-71.25
94.34289	-52.95
98.71396	-73.15
103.08183	-52.25
107.4465	-43.65
111.80798	-51.15
116.16626	-38.25
120.52136	-67.35
124.87327	-43.45
129.222	-54.65
133.56755	-39.45
137.90993	-49.25
142.24913	-38.25
146.58517	-24.95
150.91804	-21.45
155.24774	-1.65
159.57429	29.35
163.89768	44.45
168.21792	108.65
172.53501	160.95
176.84895	288.15
181.15975	484.15
185.46741	723.95
189.77193	1027.85
194.07331	1468.95
198.37157	1925.05
202.6667	2398.35
206.9587	2937.85
211.24758	3504.85
215.53334	4117.75
219.81599	4848.35
224.09553	5690.55
228.37195	6564.65
232.64527	7397.25
236.91549	8073.15
241.18261	8406.45
245.44663	8491.65
249.70755	8452.55
253.96539	8427.95
258.22014	8475.25
262.4718	8530.55
266.72039	8530.75
270.96589	8322.15
275.20832	7981.75
279.44768	7631.75
283.68397	7364.95
287.91719	7299.15
292.14735	7480.15
296.37445	8011.85
300.59849	9014.45
304.81948	10389.05
309.03742	11969.45
313.25231	13089.85
317.46415	12931.25
321.67296	11376.45
325.87872	9507.45
330.08145	8424.15
334.28114	8206.55
338.47781	8483.65
342.67145	9053.25
346.86207	10021.45
351.04966	11500.75
355.23424	12982.55
359.4158	13548.45
363.59435	13034.15
367.76989	12148.85
371.94243	11286.55
376.11196	10554.85
380.27849	10031.05
384.44203	9633.65
388.60257	9411.65
392.76012	9456.25
396.91468	9782.15
401.06626	10186.55
405.21485	10152.95
409.36047	9527.55
413.50311	8416.45
417.64277	7383.05
421.77947	6732.65
425.9132	6422.55
430.04396	6277.85
434.17176	6258.65
438.2966	6368.95
442.41849	6591.65
446.53742	6793.75
450.6534	6939.85
454.76644	6938.15
458.87653	6835.05
462.98368	6690.85
467.08789	6529.65
471.18916	6306.25
475.2875	5994.35
479.38291	5746.85
483.4754	5583.95
487.56496	5519.85
491.6516	5453.35
495.73531	5432.55
499.81612	5519.35
503.89401	5692.75
507.96899	5909.05
512.04106	6170.75
516.11023	6474.55
520.1765	6700.65
524.23987	6800.65
528.30034	6751.15
532.35792	6583.45
536.41261	6418.35
540.46441	6187.55
544.51333	6016.25
548.55936	6001.95
552.60252	6152.25
556.64279	6384.05
560.6802	6833.15
564.71473	7807.85
568.7464	9045.65
572.7752	9002.55
576.80114	7374.15
580.82422	6051.15
584.84444	5509.75
588.86181	5317.35
592.87633	5323.15
596.888	5540.35
600.89682	6372.55
604.9028	9063.75
608.90594	15953.05
612.90624	24342.95
616.90371	22097.15
620.89834	11701.05
624.89015	7108.45
628.87913	6611.95
632.86528	7264.15
636.84862	7574.45
640.82913	6747.45
644.80683	5656.05
648.78172	5182.05
652.75379	5322.05
656.72306	6116.25
660.68952	6903.45
664.65319	6480.95
668.61405	5439.15
672.57211	4998.95
676.52738	4983.75
680.47986	4918.35
684.42955	4781.15
688.37646	4680.95
692.32058	4702.25
696.26192	4784.15
700.20048	4910.05
704.13626	4954.35
708.06928	4867.05
711.99952	4824.75
715.927	4890.55
719.85171	5117.85
723.77365	5263.35
727.69284	5115.95
731.60928	4966.25
735.52295	4906.05
739.43388	4972.05
743.34206	5015.15
747.24749	5010.05
751.15017	5041.95
755.05012	5390.45
758.94733	6732.85
762.8418	9839.05
766.73354	13851.45
770.62254	15866.25
774.50882	15029.55
778.39237	13468.15
782.27321	11171.65
786.15132	8183.25
790.02671	6200.45
793.89938	5278.55
797.76935	4983.75
801.6366	4834.05
805.50115	4748.05
809.36299	4689.25
813.22213	4665.75
817.07857	4684.45
820.93231	4721.15
824.78336	4824.45
828.63172	4941.95
832.47738	5001.05
836.32036	4897.95
840.16066	4669.35
843.99827	4535.65
847.8332	4497.85
851.66546	4494.15
855.49504	4473.15
859.32195	4475.75
863.1462	4418.65
866.96777	4398.55
870.78668	4401.45
874.60293	4433.85
878.41652	4500.25
882.22745	4663.15
886.03573	4754.85
889.84136	4714.55
893.64433	4695.15
897.44466	4706.65
901.24235	4723.15
905.0374	4634.15
908.8298	4422.55
912.61957	4309.05
916.40671	4224.85
920.19121	4291.55
923.97308	4492.65
927.75233	4912.35
931.52895	5334.15
935.30295	5100.25
939.07433	4475.95
942.84309	4079.85
946.60924	3938.15
950.37278	3865.85
954.13371	3864.05
957.89203	3852.85
961.64774	3843.75
965.40086	3840.55
969.15137	3799.25
972.89929	3832.25
976.64461	3794.15
980.38733	3802.75
984.12747	3783.35
987.86502	3802.65
991.59999	3821.45
995.33237	3908.85
999.06217	3995.15
1002.78939	4184.45
1006.51404	4508.15
1010.23611	4658.15
1013.95561	4508.75
1017.67255	4300.55
1021.38692	4150.65
1025.09872	4005.15
1028.80796	3910.75
1032.51465	3954.45
1036.21877	3996.65
1039.92035	4080.15
1043.61937	4146.25
1047.31584	4221.25
1051.00976	4238.05
1054.70114	4157.55
1058.38998	4108.85
1062.07627	4059.65
1065.76003	4079.75
1069.44126	4132.75
1073.11995	4221.05
1076.79611	4510.35
1080.46974	5040.85
1084.14085	5795.85
1087.80943	6448.15
1091.47549	6378.35
1095.13903	5745.95
1098.80005	5100.15
1102.45857	4748.55
1106.11456	4702.05
1109.76805	4816.65
1113.41903	5231.85
1117.06751	5892.55
1120.71348	6981.45
1124.35696	8595.95
1127.99793	9730.05
1131.63641	8898.55
1135.2724	7171.95
1138.90589	6045.35
1142.5369	5417.15
1146.16542	5018.35
1149.79145	4706.45
1153.415	4667.05
1157.03607	4718.75
1160.65467	4949.55
1164.27079	5360.65
1167.88443	5948.35
1171.49561	6983.85
1175.10432	8766.85
1178.71056	11283.25
1182.31434	13100.25
1185.91565	12843.75
1189.51451	11220.95
1193.11091	9471.65
1196.70485	8413.55
1200.29634	7929.45
1203.88538	7414.65
1207.47197	6390.05
1211.05612	5445.15
1214.63782	4838.05
1218.21708	4553.55
1221.79391	4456.75
1225.36829	4426.25
1228.94024	4435.75
1232.50976	4429.55
1236.07685	4428.45
1239.6415	4485.65
1243.20374	4601.35
1246.76355	4763.45
1250.32093	4973.15
1253.8759	5242.35
1257.42845	5746.65
1260.97859	6416.45
1264.52631	7073.45
1268.07163	7407.25
1271.61453	7470.25
1275.15503	7249.65
1278.69312	7001.05
1282.22882	7189.15
1285.76211	8139.75
1289.29301	9382.85
1292.82151	10263.15
1296.34761	10638.65
1299.87133	11470.75
1303.39266	13595.95
1306.9116	17654.65
1310.42815	22505.45
1313.94233	24101.65
1317.45412	20319.25
1320.96354	14934.55
1324.47058	10916.95
1327.97525	8427.45
1331.47754	7184.25
1334.97747	6790.85
1338.47502	6967.65
1341.97022	7934.25
1345.46305	10082.05
1348.95352	13165.35
1352.44163	16298.55
1355.92738	20106.45
1359.41078	26879.05
1362.89183	34237.45
1366.37053	32782.35
1369.84688	22590.65
1373.32088	14036.95
1376.79254	10385.25
1380.26186	8778.15
1383.72883	7533.95
1387.19347	6385.05
1390.65578	5514.25
1394.11575	5040.45
1397.57339	4806.05
1401.0287	4652.55
1404.48168	4478.35
1407.93234	4387.85
1411.38068	4485.15
1414.82669	4837.55
1418.27039	5257.55
1421.71177	5349.25
1425.15083	5143.65
1428.58758	5165.15
1432.02203	5648.75
1435.45416	5999.15
1438.88399	5740.75
1442.31151	5395.45
1445.73673	5341.65
1449.15965	5325.55
1452.58027	5210.35
1455.9986	5027.05
1459.41463	4882.05
1462.82837	4906.25
1466.23982	5158.85
1469.64898	5507.25
1473.05586	5624.65
1476.46045	5597.75
1479.86276	5617.75
1483.26279	5890.15
1486.66054	6510.75
1490.05602	7512.55
1493.44922	9106.45
1496.84016	11685.45
1500.22882	15632.25
1503.61521	21235.35
1506.99934	28360.75
1510.38121	35267.15
1513.76081	37719.25
1517.13816	33053.15
1520.51324	24453.55
1523.88607	16821.05
1527.25665	12035.15
1530.62498	9343.95
1533.99105	7812.05
1537.35488	6806.75
1540.71647	6229.25
1544.07581	5996.15
1547.4329	6015.25
1550.78776	6170.45
1554.14038	6506.85
1557.49077	7022.85
1560.83892	7926.85
1564.18484	9352.85
1567.52853	10997.45
1570.86999	11992.55
1574.20922	12146.65
1577.54624	11504.55
1580.88103	9626.35
1584.2136	7326.75
1587.54395	5986.95
1590.87208	5654.25
1594.19801	6036.35
1597.52172	6753.85
1600.84321	6778.45
1604.16251	5973.15
1607.47959	5252.05
1610.79447	4812.85
1614.10715	4462.45
1617.41763	4204.55
1620.7259	4076.05
1624.03199	4136.05
1627.33587	4312.45
1630.63757	4665.25
1633.93707	5331.55
1637.23439	6515.45
1640.52951	8701.55
1643.82246	12431.45
1647.11321	17528.75
1650.40179	21683.65
1653.68819	21405.35
1656.97241	16709.55
1660.25446	11222.35
1663.53433	7503.55
1666.81203	5485.45
1670.08756	4432.85
1673.36092	3867.45
1676.63211	3508.55
1679.90115	3293.05
1683.16801	3138.55
1686.43272	3007.65
1689.69527	2945.95
1692.95567	2860.65
1696.2139	2826.25
1699.46999	2756.65
1702.72392	2753.95
1705.97571	2756.65
1709.22535	2740.55
1712.47284	2793.55
1715.71819	2819.75
1718.96139	2834.15
1722.20246	2789.65
1725.44139	2739.75
1728.67818	2675.85
1731.91284	2601.25
1735.14537	2546.25
1738.37576	2498.15
1741.60403	2500.25
1744.83017	2453.75
1748.05418	2446.55
1751.27607	2422.35
1754.49584	2380.15
1757.71349	2326.45
1760.92903	2288.75
1764.14244	2232.15
1767.35375	2209.45
1770.56294	2159.65
1773.77002	2119.25
1776.97499	2110.45
1780.17785	2068.65
1783.37861	2043.55
1786.57727	2044.65
1789.77382	1972.15
1792.96828	2005.75
1796.16064	2032.45
1799.3509	2002.65
1802.53907	2021.25
1805.72514	1984.95
1808.90913	1952.75
1812.09102	1962.85
1815.27083	1959.95
1818.44856	1928.55
1821.6242	1916.25
1824.79776	1903.75
1827.96924	1893.95
1831.13864	1868.95
1834.30597	1867.45
1837.47122	1825.35
1840.6344	1816.15
1843.7955	1783.25
1846.95454	1764.25
1850.11151	1783.15
1853.26642	1737.55
1856.41926	1752.35
1859.57004	1753.55
1862.71876	1753.25
1865.86542	1767.15
1869.01003	1763.85
1872.15258	1746.35
1875.29308	1777.45
1878.43152	1782.75
1881.56792	1757.15
1884.70227	1738.35
1887.83457	1751.45
1890.96482	1714.35
1894.09304	1721.45
1897.21921	1710.55
1900.34335	1719.85
1903.46544	1702.75
1906.58551	1717.05
1909.70353	1709.05
1912.81953	1704.85
1915.93349	1689.15
1919.04543	1676.05
1922.15534	1652.15
1925.26322	1659.65
1928.36908	1627.35
1931.47292	1615.45
1934.57473	1605.25
1937.67453	1569.15
1940.77232	1531.05
1943.86808	1525.65
1946.96184	1514.95
1950.05358	1508.65
1953.14331	1498.15
1956.23103	1507.65
1959.31675	1499.95
1962.40046	1462.05
1965.48217	1511.45
1968.56188	1530.55
1971.63959	1543.95
1974.7153	1554.75
1977.78901	1535.25
1980.86073	1501.45
1983.93046	1459.25
1986.99819	1378.25
1990.06394	1392.45
1993.1277	1409.15
1996.18947	1395.75
1999.24925	1362.35
2002.30706	1366.65
2005.36288	1365.35
2008.41672	1351.65
2011.46859	1321.95
2014.51848	1321.15
2017.56639	1304.15
2020.61233	1299.15
2023.6563	1309.55
2026.6983	1267.05
2029.73833	1274.55
2032.7764	1290.95
2035.8125	1253.35
2038.84664	1262.35
2041.87881	1244.65
2044.90903	1269.35
2047.93729	1254.45
2050.96359	1224.95
2053.98794	1242.75
2057.01034	1235.15
2060.03078	1215.35
2063.04927	1200.55
2066.06582	1197.35
2069.08042	1178.35
2072.09307	1181.45
2075.10378	1172.05
2078.11255	1173.85
2081.11938	1181.75
2084.12426	1179.15
2087.12722	1172.25
2090.12824	1169.75
2093.12732	1165.75
2096.12447	1185.65
2099.11969	1167.25
2102.11299	1161.85
2105.10435	1183.75
2108.09379	1172.65
2111.08131	1169.85
2114.0669	1182.85
2117.05057	1180.35
2120.03233	1182.25
2123.01216	1221.15
2125.99008	1239.75
2128.96609	1229.75
2131.94018	1238.25
2134.91236	1217.15
2137.88263	1197.45
2140.851	1188.25
2143.81746	1192.25
2146.78201	1161.65
2149.74466	1133.75
2152.7054	1133.95
2155.66425	1116.95
2158.6212	1109.15
2161.57625	1082.95
2164.52941	1063.35
2167.48067	1081.35
2170.43004	1083.75
2173.37752	1107.95
2176.32311	1106.15
2179.26681	1110.35
2182.20863	1126.65
2185.14856	1123.05
2188.08661	1112.05
2191.02278	1105.95
2193.95707	1079.15
2196.88948	1062.75
2199.82001	1069.05
2202.74867	1058.25
2205.67545	1060.35
2208.60037	1061.05
2211.52341	1066.65
2214.44458	1055.05
2217.36388	1054.55
2220.28132	1039.15
2223.1969	1022.35
2226.11061	1026.65
2229.02246	1015.35
2231.93245	1022.75
2234.84058	1008.85
2237.74686	1000.25
2240.65128	1006.45
2243.55385	1021.15
2246.45456	1000.65
2249.35343	1034.45
2252.25044	1026.75
2255.14561	1061.15
2258.03893	1078.85
2260.93041	1092.15
2263.82004	1116.55
2266.70783	1109.45
2269.59378	1100.15
2272.4779	1079.95
2275.36017	1104.65
2278.24061	1086.85
2281.11922	1055.85
2283.996	1065.05
2286.87094	1044.05
2289.74405	1046.75
2292.61534	1021.95
2295.4848	1007.85
2298.35243	996.85
2301.21824	977.45
2304.08223	986.75
2306.94439	977.65
2309.80474	988.65
2312.66327	991.05
2315.51999	979.95
2318.37489	977.85
2321.22797	957.15
2324.07925	963.65
2326.92871	959.95
2329.77637	946.45
2332.62222	955.35
2335.46626	952.35
2338.3085	943.15
2341.14893	967.05
2343.98756	976.15
2346.8244	957.65
2349.65943	973.75
2352.49267	977.55
2355.32411	993.35
2358.15376	1001.85
2360.98161	1024.25
2363.80768	1026.35
2366.63195	1053.75
2369.45444	1066.45
2372.27514	1068.55
2375.09405	1085.35
2377.91118	1050.45
2380.72652	1041.25
2383.54009	1029.95
2386.35187	1022.15
2389.16188	1003.85
2391.97011	987.35
2394.77657	969.05
2397.58125	967.55
2400.38416	949.75
2403.18529	937.05
2405.98466	921.95
2408.78226	927.55
2411.57809	921.45
2414.37216	910.95
2417.16446	912.35
2419.955	901.85
2422.74378	924.25
2425.5308	910.05
2428.31606	916.65
2431.09956	930.85
2433.88131	924.05
2436.6613	942.25
2439.43954	941.75
2442.21603	932.75
2444.99077	935.95
2447.76377	959.75
2450.53501	955.05
2453.30451	959.95
2456.07226	978.85
2458.83827	971.15
2461.60254	927.55
2464.36507	966.65
2467.12586	956.05
2469.88492	958.95
2472.64224	958.65
2475.39782	962.25
2478.15167	985.95
2480.90379	992.25
2483.65417	1024.15
2486.40283	1048.85
2489.14976	1064.35
2491.89497	1055.55
2494.63845	1061.35
2497.3802	1045.35
2500.12024	1038.65
2502.85855	1018.25
2505.59514	1005.55
2508.33002	984.25
2511.06318	946.35
2513.79462	924.15
2516.52435	870.95
2519.25237	838.55
2521.97867	836.65
2524.70327	830.65
2527.42616	822.45
2530.14734	828.25
2532.86681	807.65
2535.58458	808.45
2538.30065	806.85
2541.01501	831.05
2543.72768	823.45
2546.43864	835.55
2549.14791	840.55
2551.85548	832.75
2554.56136	837.25
2557.26554	853.15
2559.96803	858.55
2562.66883	868.45
2565.36794	856.95
2568.06536	832.55
2570.7611	862.95
2573.45514	848.65
2576.14751	854.25
2578.83819	836.35
2581.52719	826.15
2584.21451	830.95
2586.90015	807.85
2589.58411	796.75
2592.2664	812.05
2594.94701	820.95
2597.62594	822.55
2600.30321	760.75
2602.9788	790.05
2605.65273	782.05
2608.32498	794.65
2610.99557	818.45
2613.66449	788.35
2616.33175	813.75
2618.99734	816.05
2621.66128	815.45
2624.32355	802.05
2626.98416	788.45
2629.64311	778.15
2632.30041	767.55
2634.95605	743.65
2637.61004	729.25
2640.26238	721.55
2642.91306	716.65
2645.56209	734.65
2648.20948	726.85
2650.85521	717.25
2653.4993	742.25
2656.14175	739.65
2658.78255	736.05
2661.42171	719.95
2664.05923	753.65
2666.6951	766.55
2669.32934	773.95
2671.96194	791.95
2674.59291	784.15
2677.22224	788.55
2679.84993	778.35
2682.476	769.15
2685.10043	763.65
2687.72324	751.95
2690.34441	749.95
2692.96396	743.15
2695.58188	756.75
2698.19818	742.75
2700.81285	731.85
2703.4259	727.75
2706.03733	700.55
2708.64714	713.15
2711.25533	750.55
2713.86191	755.25
2716.46687	750.05
2719.07021	751.05
2721.67194	745.65
2724.27206	757.05
2726.87057	738.05
2729.46747	727.65
2732.06276	727.55
2734.65644	709.05
2737.24852	705.35
2739.83899	677.95
2742.42786	690.45
2745.01513	699.95
2747.60079	676.35
2750.18486	653.15
2752.76733	660.25
2755.3482	654.95
2757.92747	653.55
2760.50515	632.15
2763.08123	632.85
2765.65573	632.55
2768.22863	625.85
2770.79994	614.35
2773.36967	621.05
2775.9378	617.65
2778.50435	618.05
2781.06932	619.85
2783.6327	612.05
2786.1945	640.15
2788.75471	631.85
2791.31335	628.45
2793.87041	646.25
2796.42589	635.25
2798.97979	635.25
2801.53212	650.75
2804.08288	675.15
2806.63206	668.85
2809.17967	659.55
2811.72571	699.35
2814.27018	704.55
2816.81308	720.05
2819.35442	697.95
2821.89419	737.85
2824.43239	731.65
2826.96904	761.45
2829.50412	748.85
2832.03763	738.15
2834.56959	736.55
2837.1	718.75
2839.62884	716.05
2842.15613	710.95
2844.68186	719.35
2847.20604	690.95
2849.72867	702.25
2852.24974	718.45
2854.76927	703.85
2857.28724	673.85
2859.80367	757.85
2862.31855	780.65
2864.83189	781.35
2867.34368	798.45
2869.85393	822.55
2872.36264	813.05
2874.8698	817.95
2877.37543	821.55
2879.87952	801.25
2882.38207	774.55
2884.88308	771.15
2887.38256	759.45
2889.88051	748.15
2892.37692	743.25
2894.8718	719.45
2897.36515	734.75
2899.85698	739.35
2902.34727	738.65
2904.83604	752.45
2907.32328	784.05
2909.809	801.55
2912.29319	814.45
2914.77587	832.75
2917.25702	836.35
2919.73665	822.65
2922.21476	807.95
2924.69136	795.95
2927.16644	760.55
2929.64	741.65
2932.11205	722.35
2934.58258	724.35
2937.05161	709.75
2939.51912	713.15
2941.98513	721.45
2944.44962	714.15
2946.91261	690.65
2949.37409	699.65
2951.83407	700.65
2954.29254	702.35
2956.74951	711.85
2959.20498	695.85
2961.65895	699.55
2964.11142	699.75
2966.56239	693.25
2969.01186	689.95
2971.45984	685.85
2973.90632	679.55
2976.35131	695.75
2978.7948	690.75
2981.23681	682.65
2983.67732	701.25
2986.11635	699.45
2988.55388	679.05
2990.98993	690.65
2993.4245	692.45
2995.85758	685.35
2998.28917	696.35
3000.71928	682.95
3003.14791	691.55
3005.57506	686.55
3008.00073	681.95
3010.42493	612.95
3012.84764	678.75
3015.26888	678.35
3017.68865	674.25
3020.10694	632.75
3022.52376	652.95
3024.9391	641.25
3027.35298	625.65
3029.76539	603.75
3032.17632	610.55
3034.5858	590.95
3036.9938	589.65
3039.40034	568.25
3041.80542	555.05
3044.20903	541.85
3046.61118	531.45
3049.01187	546.25
3051.4111	526.75
3053.80888	520.55
3056.20519	524.45
3058.60005	507.65
3060.99345	536.15
3063.3854	513.85
3065.7759	503.85
3068.16494	503.05
3070.55254	497.85
3072.93868	511.05
3075.32338	501.25
3077.70662	494.65
3080.08842	487.95
3082.46878	474.95
3084.84769	496.65
3087.22515	472.85
3089.60118	494.15
3091.97576	469.35
3094.3489	484.35
3096.72061	475.75
3099.09087	462.85
3101.4597	475.85
3103.82709	466.35
3106.19305	456.65
3108.55757	465.65
3110.92066	455.05
3113.28232	471.45
3115.64255	474.95
3118.00134	472.25
3120.35871	456.35
3122.71466	446.45
3125.06917	463.55
3127.42226	457.25
3129.77393	445.55
3132.12417	459.15
3134.47299	473.55
3136.82039	452.65
3139.16636	433.25
3141.51092	458.75
3143.85406	463.25
3146.19579	448.85
3148.53609	452.95
3150.87499	455.75
3153.21246	461.95
3155.54853	459.75
3157.88318	465.15
3160.21642	468.75
3162.54826	463.65
3164.87868	466.45
3167.2077	422.85
3169.5353	444.75
3171.86151	451.65
3174.18631	436.25
3176.5097	429.95
3178.83169	427.05
3181.15228	423.45
3183.47147	404.85
3185.78926	386.55
3188.10565	405.05
3190.42065	385.45
3192.73424	394.45
3195.04645	387.75
3197.35725	382.05
3199.66667	398.75
3201.97469	392.15
3204.28132	381.25
3206.58656	403.75
3208.8904	411.75
3211.19287	407.45
3213.49394	399.25
3215.79363	396.95
3218.09193	413.45
3220.38884	409.25
3222.68438	403.35
3224.97853	389.05
3227.2713	410.65
3229.56269	392.25
3231.8527	395.05
3234.14133	378.75
3236.42858	387.45
3238.71446	368.55
3240.99896	382.85
3243.28209	367.05
3245.56384	378.85
3247.84423	370.95
3250.12324	383.45
3252.40088	378.55
3254.67715	363.75
3256.95205	358.35
3259.22558	375.75
3261.49775	372.05
3263.76855	370.05
3266.03799	376.25
3268.30606	373.15
3270.57277	383.75
3272.83812	367.25
3275.10211	376.55
3277.36474	401.25
3279.62601	397.25
3281.88593	382.05
3284.14448	370.35
3286.40168	404.45
3288.65753	402.95
3290.91202	411.45
3293.16516	401.75
3295.41695	435.25
3297.66738	447.55
3299.91647	434.15
3302.16421	450.55
3304.4106	418.25
3306.65564	449.05
3308.89933	427.75
3311.14169	438.45
3313.38269	442.35
3315.62236	436.55
3317.86068	436.95
3320.09766	447.85
3322.3333	431.45
3324.5676	437.55
3326.80056	439.25
3329.03219	452.55
3331.26248	-1.05
3333.49143	-0.55
3335.71905	0.65
