Data from AgNPs_UA_5uM_CRN_500uM_SU_RamanShift__296__12-18-43-199.txt Node

Date: Thu Aug 04 12:18:43 BST 2022
User: TCL
Spectrometer: QEP01345
Trigger mode: 4
Integration Time (sec): 1.000000E0
Scans to average: 10
Electric dark correction enabled: true
Nonlinearity correction enabled: false
Boxcar width: 0
XAxis mode: Raman Shifts
Number of Pixels in Spectrum: 1044
>>>>>Begin Spectral Data<<<<<
46.04893	-0.7875
50.45542	0.6125
54.85868	0.2125
59.25871	0.2125
63.6555	-58.5875
68.04907	-40.6875
72.43941	-73.3875
76.82654	-56.0875
81.21044	-56.2875
85.59113	-50.8875
89.96862	-76.1875
94.34289	-55.1875
98.71396	-77.0875
103.08183	-57.3875
107.4465	-52.9875
111.80798	-57.5875
116.16626	-46.1875
120.52136	-76.0875
124.87327	-52.3875
129.222	-63.4875
133.56755	-52.0875
137.90993	-65.7875
142.24913	-53.1875
146.58517	-45.6875
150.91804	-41.5875
155.24774	-31.4875
159.57429	-13.0875
163.89768	-10.0875
168.21792	33.3125
172.53501	53.3125
176.84895	135.7125
181.15975	261.1125
185.46741	406.1125
189.77193	588.1125
194.07331	875.8125
198.37157	1142.2125
202.6667	1416.1125
206.9587	1740.1125
211.24758	2042.1125
215.53334	2361.5125
219.81599	2722.8125
224.09553	3108.9125
228.37195	3533.7125
232.64527	3970.3125
236.91549	4436.7125
241.18261	4771.7125
245.44663	5035.5125
249.70755	5217.0125
253.96539	5323.1125
258.22014	5428.7125
262.4718	5498.2125
266.72039	5543.5125
270.96589	5514.9125
275.20832	5416.3125
279.44768	5327.5125
283.68397	5196.0125
287.91719	5180.3125
292.14735	5206.0125
296.37445	5394.0125
300.59849	5671.3125
304.81948	6005.8125
309.03742	6392.6125
313.25231	6641.0125
317.46415	6609.7125
321.67296	6204.2125
325.87872	5825.9125
330.08145	5600.9125
334.28114	5559.7125
338.47781	5604.6125
342.67145	5745.3125
346.86207	5970.3125
351.04966	6326.2125
355.23424	6684.5125
359.4158	6948.9125
363.59435	6984.4125
367.76989	6925.2125
371.94243	6812.7125
376.11196	6678.9125
380.27849	6596.6125
384.44203	6512.4125
388.60257	6501.1125
392.76012	6502.9125
396.91468	6614.5125
401.06626	6748.6125
405.21485	6804.5125
409.36047	6626.4125
413.50311	6290.0125
417.64277	6013.5125
421.77947	5814.4125
425.9132	5741.7125
430.04396	5747.3125
434.17176	5769.9125
438.2966	5861.8125
442.41849	5925.2125
446.53742	6029.1125
450.6534	6143.1125
454.76644	6217.4125
458.87653	6227.7125
462.98368	6173.3125
467.08789	6107.6125
471.18916	6025.0125
475.2875	5883.7125
479.38291	5780.2125
483.4754	5699.7125
487.56496	5651.5125
491.6516	5621.1125
495.73531	5622.3125
499.81612	5659.8125
503.89401	5739.8125
507.96899	5794.1125
512.04106	5876.0125
516.11023	5965.8125
520.1765	6046.6125
524.23987	6092.9125
528.30034	6084.5125
532.35792	5971.6125
536.41261	5932.2125
540.46441	5819.9125
544.51333	5786.3125
548.55936	5847.9125
552.60252	5964.8125
556.64279	6070.0125
560.6802	6191.4125
564.71473	6319.5125
568.7464	6492.0125
572.7752	6470.8125
576.80114	6183.1125
580.82422	5969.1125
584.84444	5873.8125
588.86181	5847.6125
592.87633	5878.4125
596.888	5996.4125
600.89682	6369.2125
604.9028	7337.7125
608.90594	9404.2125
612.90624	11750.5125
616.90371	10901.0125
620.89834	7795.2125
624.89015	6467.5125
628.87913	6242.2125
632.86528	6417.2125
636.84862	6566.7125
640.82913	6432.7125
644.80683	6105.2125
648.78172	5886.5125
652.75379	5921.1125
656.72306	6169.2125
660.68952	6410.4125
664.65319	6307.4125
668.61405	6069.4125
672.57211	5999.1125
676.52738	5990.7125
680.47986	5888.6125
684.42955	5817.2125
688.37646	5758.6125
692.32058	5745.6125
696.26192	5827.2125
700.20048	5941.9125
704.13626	5959.2125
708.06928	5924.8125
711.99952	5882.4125
715.927	5877.3125
719.85171	5890.7125
723.77365	5966.9125
727.69284	5938.5125
731.60928	5893.9125
735.52295	5880.4125
739.43388	5920.4125
743.34206	5936.6125
747.24749	5950.7125
751.15017	5978.8125
755.05012	6065.2125
758.94733	6456.1125
762.8418	7299.9125
766.73354	8656.6125
770.62254	9678.0125
774.50882	9780.7125
778.39237	9219.3125
782.27321	8283.5125
786.15132	7187.7125
790.02671	6525.7125
793.89938	6151.8125
797.76935	6029.1125
801.6366	5943.8125
805.50115	5885.2125
809.36299	5875.2125
813.22213	5865.5125
817.07857	5844.9125
820.93231	5844.5125
824.78336	5875.8125
828.63172	5885.5125
832.47738	5892.1125
836.32036	5887.0125
840.16066	5868.8125
843.99827	5858.7125
847.8332	5832.5125
851.66546	5843.5125
855.49504	5837.0125
859.32195	5883.4125
863.1462	5871.1125
866.96777	5845.0125
870.78668	5854.7125
874.60293	5871.2125
878.41652	5891.3125
882.22745	5952.3125
886.03573	5994.3125
889.84136	5984.7125
893.64433	5989.6125
897.44466	5979.5125
901.24235	5971.5125
905.0374	5958.8125
908.8298	5925.4125
912.61957	5879.7125
916.40671	5844.7125
920.19121	5911.8125
923.97308	5995.5125
927.75233	6048.4125
931.52895	6109.2125
935.30295	6070.7125
939.07433	5909.4125
942.84309	5789.0125
946.60924	5774.2125
950.37278	5735.8125
954.13371	5727.7125
957.89203	5715.7125
961.64774	5740.4125
965.40086	5725.4125
969.15137	5686.1125
972.89929	5740.9125
976.64461	5709.9125
980.38733	5739.5125
984.12747	5729.9125
987.86502	5741.2125
991.59999	5767.5125
995.33237	5841.8125
999.06217	5900.3125
1002.78939	5985.5125
1006.51404	6101.1125
1010.23611	6207.1125
1013.95561	6267.5125
1017.67255	6241.8125
1021.38692	6234.3125
1025.09872	6170.1125
1028.80796	6095.8125
1032.51465	6094.9125
1036.21877	6077.3125
1039.92035	6123.6125
1043.61937	6161.3125
1047.31584	6224.4125
1051.00976	6259.8125
1054.70114	6264.4125
1058.38998	6255.4125
1062.07627	6268.0125
1065.76003	6298.6125
1069.44126	6357.9125
1073.11995	6448.6125
1076.79611	6604.2125
1080.46974	6732.1125
1084.14085	6907.6125
1087.80943	7025.6125
1091.47549	7052.6125
1095.13903	6968.4125
1098.80005	6868.0125
1102.45857	6763.6125
1106.11456	6728.2125
1109.76805	6657.2125
1113.41903	6774.1125
1117.06751	6966.8125
1120.71348	7226.0125
1124.35696	7630.3125
1127.99793	7893.8125
1131.63641	7755.8125
1135.2724	7337.6125
1138.90589	7029.9125
1142.5369	6829.9125
1146.16542	6693.1125
1149.79145	6619.3125
1153.415	6560.6125
1157.03607	6567.7125
1160.65467	6659.6125
1164.27079	6887.5125
1167.88443	7131.6125
1171.49561	7613.7125
1175.10432	8238.0125
1178.71056	9167.9125
1182.31434	9988.0125
1185.91565	10244.4125
1189.51451	10100.8125
1193.11091	9838.4125
1196.70485	9565.8125
1200.29634	9305.8125
1203.88538	8988.1125
1207.47197	8546.4125
1211.05612	8062.2125
1214.63782	7613.9125
1218.21708	7369.5125
1221.79391	7210.0125
1225.36829	7144.4125
1228.94024	7142.4125
1232.50976	7160.8125
1236.07685	7188.2125
1239.6415	7191.4125
1243.20374	7201.3125
1246.76355	7255.4125
1250.32093	7313.7125
1253.8759	7391.0125
1257.42845	7570.2125
1260.97859	7763.2125
1264.52631	8012.7125
1268.07163	8191.4125
1271.61453	8318.7125
1275.15503	8377.0125
1278.69312	8372.4125
1282.22882	8447.4125
1285.76211	8627.8125
1289.29301	8899.1125
1292.82151	9144.4125
1296.34761	9394.7125
1299.87133	9785.5125
1303.39266	10509.7125
1306.9116	11658.3125
1310.42815	12901.6125
1313.94233	13340.9125
1317.45412	12560.3125
1320.96354	11422.5125
1324.47058	10405.0125
1327.97525	9610.2125
1331.47754	9207.7125
1334.97747	9099.1125
1338.47502	9199.0125
1341.97022	9555.6125
1345.46305	10332.6125
1348.95352	11440.5125
1352.44163	12792.1125
1355.92738	14221.1125
1359.41078	15933.0125
1362.89183	17481.7125
1366.37053	16871.5125
1369.84688	13998.3125
1373.32088	11222.6125
1376.79254	9724.5125
1380.26186	9003.4125
1383.72883	8565.0125
1387.19347	8153.7125
1390.65578	7792.3125
1394.11575	7528.5125
1397.57339	7373.1125
1401.0287	7268.5125
1404.48168	7209.2125
1407.93234	7215.8125
1411.38068	7234.1125
1414.82669	7303.2125
1418.27039	7396.0125
1421.71177	7388.4125
1425.15083	7284.5125
1428.58758	7200.3125
1432.02203	7218.1125
1435.45416	7314.1125
1438.88399	7287.5125
1442.31151	7309.9125
1445.73673	7351.9125
1449.15965	7389.0125
1452.58027	7413.9125
1455.9986	7412.0125
1459.41463	7425.5125
1462.82837	7536.6125
1466.23982	7731.6125
1469.64898	7926.1125
1473.05586	8092.4125
1476.46045	8189.6125
1479.86276	8272.6125
1483.26279	8389.3125
1486.66054	8599.8125
1490.05602	8912.8125
1493.44922	9462.3125
1496.84016	10368.4125
1500.22882	11786.5125
1503.61521	13586.6125
1506.99934	15445.2125
1510.38121	16639.1125
1513.76081	16484.2125
1517.13816	14812.8125
1520.51324	12627.2125
1523.88607	10900.0125
1527.25665	9907.3125
1530.62498	9416.6125
1533.99105	9198.3125
1537.35488	9094.3125
1540.71647	8976.7125
1544.07581	8849.8125
1547.4329	8696.3125
1550.78776	8547.7125
1554.14038	8460.9125
1557.49077	8438.0125
1560.83892	8517.3125
1564.18484	8752.4125
1567.52853	9122.9125
1570.86999	9438.3125
1574.20922	9593.7125
1577.54624	9481.7125
1580.88103	8949.3125
1584.2136	8256.7125
1587.54395	7823.2125
1590.87208	7747.9125
1594.19801	7917.5125
1597.52172	8280.2125
1600.84321	8405.9125
1604.16251	8292.4125
1607.47959	8062.2125
1610.79447	7896.6125
1614.10715	7597.6125
1617.41763	7323.0125
1620.7259	7030.3125
1624.03199	6876.1125
1627.33587	6789.7125
1630.63757	6865.1125
1633.93707	7062.6125
1637.23439	7493.5125
1640.52951	8186.7125
1643.82246	9190.2125
1647.11321	10386.4125
1650.40179	11132.3125
1653.68819	10804.1125
1656.97241	9562.6125
1660.25446	8117.0125
1663.53433	7094.2125
1666.81203	6478.2125
1670.08756	6138.4125
1673.36092	5940.1125
1676.63211	5796.3125
1679.90115	5715.6125
1683.16801	5626.9125
1686.43272	5555.4125
1689.69527	5516.1125
1692.95567	5442.3125
1696.2139	5422.0125
1699.46999	5381.8125
1702.72392	5376.6125
1705.97571	5401.8125
1709.22535	5372.6125
1712.47284	5406.3125
1715.71819	5413.7125
1718.96139	5404.6125
1722.20246	5388.2125
1725.44139	5361.7125
1728.67818	5335.6125
1731.91284	5278.3125
1735.14537	5241.2125
1738.37576	5210.9125
1741.60403	5203.1125
1744.83017	5156.4125
1748.05418	5176.1125
1751.27607	5174.6125
1754.49584	5127.5125
1757.71349	5099.6125
1760.92903	5088.2125
1764.14244	5043.1125
1767.35375	5058.4125
1770.56294	5054.9125
1773.77002	5031.0125
1776.97499	5029.5125
1780.17785	5016.8125
1783.37861	4990.3125
1786.57727	5021.4125
1789.77382	4952.4125
1792.96828	4979.9125
1796.16064	4985.0125
1799.3509	4970.0125
1802.53907	4977.0125
1805.72514	4937.3125
1808.90913	4917.5125
1812.09102	4922.0125
1815.27083	4910.2125
1818.44856	4895.8125
1821.6242	4899.2125
1824.79776	4865.6125
1827.96924	4862.2125
1831.13864	4842.8125
1834.30597	4850.1125
1837.47122	4829.5125
1840.6344	4814.3125
1843.7955	4785.4125
1846.95454	4803.9125
1850.11151	4816.6125
1853.26642	4775.5125
1856.41926	4777.7125
1859.57004	4790.7125
1862.71876	4767.9125
1865.86542	4774.3125
1869.01003	4759.6125
1872.15258	4735.5125
1875.29308	4746.6125
1878.43152	4768.7125
1881.56792	4741.9125
1884.70227	4715.4125
1887.83457	4726.2125
1890.96482	4688.5125
1894.09304	4704.1125
1897.21921	4707.7125
1900.34335	4702.0125
1903.46544	4657.9125
1906.58551	4696.8125
1909.70353	4693.8125
1912.81953	4678.8125
1915.93349	4670.5125
1919.04543	4650.3125
1922.15534	4634.3125
1925.26322	4631.7125
1928.36908	4616.9125
1931.47292	4605.8125
1934.57473	4618.5125
1937.67453	4585.6125
1940.77232	4564.6125
1943.86808	4561.3125
1946.96184	4557.7125
1950.05358	4523.7125
1953.14331	4522.9125
1956.23103	4517.7125
1959.31675	4502.3125
1962.40046	4434.6125
1965.48217	4464.3125
1968.56188	4472.6125
1971.63959	4439.1125
1974.7153	4445.8125
1977.78901	4437.2125
1980.86073	4414.0125
1983.93046	4361.4125
1986.99819	4308.5125
1990.06394	4307.9125
1993.1277	4340.9125
1996.18947	4322.6125
1999.24925	4287.4125
2002.30706	4297.8125
2005.36288	4271.0125
2008.41672	4265.1125
2011.46859	4240.2125
2014.51848	4217.9125
2017.56639	4207.6125
2020.61233	4192.8125
2023.6563	4195.1125
2026.6983	4147.1125
2029.73833	4150.8125
2032.7764	4147.2125
2035.8125	4109.0125
2038.84664	4117.3125
2041.87881	4098.2125
2044.90903	4111.7125
2047.93729	4102.5125
2050.96359	4061.5125
2053.98794	4093.0125
2057.01034	4096.3125
2060.03078	4072.1125
2063.04927	4069.7125
2066.06582	4051.6125
2069.08042	4045.7125
2072.09307	4057.0125
2075.10378	4052.1125
2078.11255	4035.5125
2081.11938	4046.1125
2084.12426	4037.0125
2087.12722	4018.8125
2090.12824	4021.9125
2093.12732	4031.2125
2096.12447	4036.7125
2099.11969	4030.3125
2102.11299	4023.3125
2105.10435	4028.5125
2108.09379	4040.3125
2111.08131	4027.1125
2114.0669	4013.2125
2117.05057	4021.9125
2120.03233	4011.2125
2123.01216	4035.9125
2125.99008	4030.5125
2128.96609	4026.6125
2131.94018	4046.9125
2134.91236	4045.5125
2137.88263	4032.8125
2140.851	4025.9125
2143.81746	4061.6125
2146.78201	4039.7125
2149.74466	4034.6125
2152.7054	4043.7125
2155.66425	4023.3125
2158.6212	4020.0125
2161.57625	4001.3125
2164.52941	3984.4125
2167.48067	4001.4125
2170.43004	3987.0125
2173.37752	4006.5125
2176.32311	3999.4125
2179.26681	3982.5125
2182.20863	4002.9125
2185.14856	3991.6125
2188.08661	3985.4125
2191.02278	4005.0125
2193.95707	3980.2125
2196.88948	3967.4125
2199.82001	3986.6125
2202.74867	3952.8125
2205.67545	3972.1125
2208.60037	3980.1125
2211.52341	3941.4125
2214.44458	3934.1125
2217.36388	3921.0125
2220.28132	3919.2125
2223.1969	3886.7125
2226.11061	3910.5125
2229.02246	3876.5125
2231.93245	3886.3125
2234.84058	3870.9125
2237.74686	3851.3125
2240.65128	3847.6125
2243.55385	3864.9125
2246.45456	3833.2125
2249.35343	3842.6125
2252.25044	3813.5125
2255.14561	3834.3125
2258.03893	3834.5125
2260.93041	3822.7125
2263.82004	3813.7125
2266.70783	3813.2125
2269.59378	3797.4125
2272.4779	3771.2125
2275.36017	3786.6125
2278.24061	3770.4125
2281.11922	3719.8125
2283.996	3752.7125
2286.87094	3734.7125
2289.74405	3727.5125
2292.61534	3734.4125
2295.4848	3715.0125
2298.35243	3711.1125
2301.21824	3711.6125
2304.08223	3708.5125
2306.94439	3711.6125
2309.80474	3697.1125
2312.66327	3697.5125
2315.51999	3676.7125
2318.37489	3684.0125
2321.22797	3651.8125
2324.07925	3652.4125
2326.92871	3645.6125
2329.77637	3648.1125
2332.62222	3630.8125
2335.46626	3605.7125
2338.3085	3599.9125
2341.14893	3622.0125
2343.98756	3631.3125
2346.8244	3598.2125
2349.65943	3589.6125
2352.49267	3604.7125
2355.32411	3611.6125
2358.15376	3603.6125
2360.98161	3616.2125
2363.80768	3579.0125
2366.63195	3595.1125
2369.45444	3597.2125
2372.27514	3585.5125
2375.09405	3616.0125
2377.91118	3585.1125
2380.72652	3553.9125
2383.54009	3557.0125
2386.35187	3566.9125
2389.16188	3544.3125
2391.97011	3528.2125
2394.77657	3522.3125
2397.58125	3518.4125
2400.38416	3521.4125
2403.18529	3485.4125
2405.98466	3480.8125
2408.78226	3486.3125
2411.57809	3474.5125
2414.37216	3459.6125
2417.16446	3455.6125
2419.955	3444.7125
2422.74378	3456.5125
2425.5308	3434.6125
2428.31606	3451.2125
2431.09956	3445.7125
2433.88131	3430.6125
2436.6613	3441.3125
2439.43954	3430.7125
2442.21603	3426.1125
2444.99077	3398.1125
2447.76377	3423.0125
2450.53501	3423.8125
2453.30451	3408.7125
2456.07226	3416.9125
2458.83827	3415.5125
2461.60254	3356.7125
2464.36507	3402.7125
2467.12586	3372.3125
2469.88492	3375.3125
2472.64224	3384.1125
2475.39782	3362.2125
2478.15167	3363.6125
2480.90379	3372.3125
2483.65417	3388.7125
2486.40283	3392.3125
2489.14976	3391.6125
2491.89497	3358.7125
2494.63845	3386.9125
2497.3802	3368.8125
2500.12024	3360.1125
2502.85855	3355.5125
2505.59514	3359.4125
2508.33002	3347.9125
2511.06318	3332.2125
2513.79462	3339.0125
2516.52435	3289.3125
2519.25237	3264.3125
2521.97867	3276.8125
2524.70327	3270.6125
2527.42616	3278.1125
2530.14734	3286.1125
2532.86681	3264.3125
2535.58458	3265.9125
2538.30065	3250.1125
2541.01501	3262.8125
2543.72768	3239.2125
2546.43864	3243.0125
2549.14791	3231.8125
2551.85548	3213.5125
2554.56136	3225.2125
2557.26554	3219.4125
2559.96803	3224.3125
2562.66883	3211.1125
2565.36794	3195.6125
2568.06536	3173.7125
2570.7611	3181.7125
2573.45514	3178.3125
2576.14751	3174.5125
2578.83819	3149.2125
2581.52719	3143.5125
2584.21451	3152.2125
2586.90015	3134.3125
2589.58411	3115.5125
2592.2664	3130.8125
2594.94701	3114.5125
2597.62594	3117.6125
2600.30321	3056.2125
2602.9788	3071.8125
2605.65273	3067.1125
2608.32498	3084.1125
2610.99557	3080.3125
2613.66449	3055.0125
2616.33175	3087.7125
2618.99734	3068.0125
2621.66128	3078.7125
2624.32355	3055.8125
2626.98416	3046.1125
2629.64311	3041.1125
2632.30041	3036.6125
2634.95605	3027.8125
2637.61004	3002.2125
2640.26238	2986.8125
2642.91306	2998.4125
2645.56209	3014.1125
2648.20948	3000.4125
2650.85521	2989.4125
2653.4993	3015.8125
2656.14175	2993.1125
2658.78255	2992.8125
2661.42171	2966.2125
2664.05923	2996.1125
2666.6951	3004.5125
2669.32934	3013.0125
2671.96194	3030.6125
2674.59291	2997.6125
2677.22224	3005.9125
2679.84993	2999.1125
2682.476	2984.6125
2685.10043	2987.7125
2687.72324	2971.8125
2690.34441	2979.5125
2692.96396	2969.7125
2695.58188	2981.6125
2698.19818	2973.3125
2700.81285	2979.8125
2703.4259	2962.4125
2706.03733	2925.8125
2708.64714	2925.0125
2711.25533	2957.0125
2713.86191	2962.8125
2716.46687	2967.2125
2719.07021	2965.6125
2721.67194	2954.8125
2724.27206	2966.3125
2726.87057	2954.6125
2729.46747	2948.2125
2732.06276	2957.6125
2734.65644	2930.3125
2737.24852	2930.1125
2739.83899	2920.4125
2742.42786	2926.6125
2745.01513	2934.0125
2747.60079	2916.0125
2750.18486	2903.8125
2752.76733	2897.3125
2755.3482	2897.7125
2757.92747	2895.9125
2760.50515	2883.6125
2763.08123	2877.5125
2765.65573	2876.2125
2768.22863	2871.3125
2770.79994	2854.5125
2773.36967	2860.9125
2775.9378	2850.1125
2778.50435	2852.4125
2781.06932	2842.0125
2783.6327	2822.4125
2786.1945	2841.0125
2788.75471	2832.7125
2791.31335	2827.2125
2793.87041	2833.8125
2796.42589	2805.5125
2798.97979	2792.7125
2801.53212	2810.8125
2804.08288	2831.4125
2806.63206	2795.7125
2809.17967	2775.4125
2811.72571	2784.4125
2814.27018	2789.1125
2816.81308	2774.2125
2819.35442	2742.5125
2821.89419	2764.5125
2824.43239	2735.0125
2826.96904	2765.0125
2829.50412	2754.6125
2832.03763	2743.0125
2834.56959	2744.8125
2837.1	2751.7125
2839.62884	2754.5125
2842.15613	2742.7125
2844.68186	2749.0125
2847.20604	2715.9125
2849.72867	2723.0125
2852.24974	2716.6125
2854.76927	2687.8125
2857.28724	2648.4125
2859.80367	2704.5125
2862.31855	2712.2125
2864.83189	2707.9125
2867.34368	2702.1125
2869.85393	2719.2125
2872.36264	2669.8125
2874.8698	2696.9125
2877.37543	2703.9125
2879.87952	2687.7125
2882.38207	2668.6125
2884.88308	2678.2125
2887.38256	2679.5125
2889.88051	2684.4125
2892.37692	2679.5125
2894.8718	2636.2125
2897.36515	2675.5125
2899.85698	2664.3125
2902.34727	2659.8125
2904.83604	2661.0125
2907.32328	2680.3125
2909.809	2681.7125
2912.29319	2684.3125
2914.77587	2678.5125
2917.25702	2700.5125
2919.73665	2706.8125
2922.21476	2705.7125
2924.69136	2712.2125
2927.16644	2679.0125
2929.64	2678.1125
2932.11205	2669.2125
2934.58258	2658.0125
2937.05161	2657.5125
2939.51912	2653.7125
2941.98513	2674.5125
2944.44962	2656.5125
2946.91261	2617.4125
2949.37409	2631.2125
2951.83407	2630.6125
2954.29254	2618.5125
2956.74951	2609.4125
2959.20498	2602.2125
2961.65895	2605.3125
2964.11142	2599.2125
2966.56239	2604.2125
2969.01186	2607.9125
2971.45984	2596.3125
2973.90632	2569.0125
2976.35131	2596.0125
2978.7948	2578.9125
2981.23681	2568.0125
2983.67732	2574.7125
2986.11635	2571.6125
2988.55388	2529.8125
2990.98993	2542.0125
2993.4245	2536.8125
2995.85758	2528.4125
2998.28917	2522.7125
3000.71928	2499.1125
3003.14791	2513.0125
3005.57506	2497.7125
3008.00073	2477.2125
3010.42493	2426.5125
3012.84764	2482.1125
3015.26888	2474.4125
3017.68865	2473.1125
3020.10694	2426.1125
3022.52376	2437.8125
3024.9391	2453.9125
3027.35298	2436.1125
3029.76539	2411.1125
3032.17632	2425.9125
3034.5858	2410.8125
3036.9938	2412.7125
3039.40034	2418.4125
3041.80542	2402.1125
3044.20903	2381.9125
3046.61118	2391.0125
3049.01187	2394.4125
3051.4111	2371.1125
3053.80888	2366.8125
3056.20519	2362.7125
3058.60005	2343.3125
3060.99345	2370.7125
3063.3854	2346.8125
3065.7759	2333.3125
3068.16494	2321.0125
3070.55254	2312.7125
3072.93868	2337.5125
3075.32338	2312.9125
3077.70662	2305.7125
3080.08842	2289.0125
3082.46878	2300.7125
3084.84769	2300.2125
3087.22515	2293.4125
3089.60118	2294.2125
3091.97576	2276.6125
3094.3489	2286.4125
3096.72061	2280.3125
3099.09087	2264.1125
3101.4597	2281.2125
3103.82709	2274.2125
3106.19305	2261.6125
3108.55757	2270.5125
3110.92066	2248.0125
3113.28232	2261.3125
3115.64255	2261.6125
3118.00134	2249.9125
3120.35871	2236.4125
3122.71466	2219.9125
