Data from AgNPs_UA_10uM_CRN_500uM_SU_RamanShift__74__13-17-40-268.txt Node

Date: Thu Aug 04 13:17:40 BST 2022
User: TCL
Spectrometer: QEP01345
Trigger mode: 4
Integration Time (sec): 1.000000E0
Scans to average: 10
Electric dark correction enabled: true
Nonlinearity correction enabled: false
Boxcar width: 0
XAxis mode: Raman Shifts
Number of Pixels in Spectrum: 1044
>>>>>Begin Spectral Data<<<<<
46.04893	0.975
50.45542	-1.525
54.85868	1.375
59.25871	0.075
63.6555	23.875
68.04907	24.775
72.43941	24.275
76.82654	26.875
81.21044	25.675
85.59113	28.975
89.96862	28.375
94.34289	29.875
98.71396	29.375
103.08183	32.375
107.4465	30.675
111.80798	31.975
116.16626	33.075
120.52136	36.975
124.87327	40.775
129.222	41.275
133.56755	41.275
137.90993	46.375
142.24913	51.375
146.58517	59.175
150.91804	68.575
155.24774	84.575
159.57429	106.475
163.89768	139.975
168.21792	181.975
172.53501	251.975
176.84895	355.775
181.15975	509.275
185.46741	707.475
189.77193	994.075
194.07331	1332.475
198.37157	1721.775
202.6667	2119.575
206.9587	2535.975
211.24758	2948.075
215.53334	3347.275
219.81599	3785.675
224.09553	4264.375
228.37195	4794.275
232.64527	5373.975
236.91549	5936.575
241.18261	6478.575
245.44663	6939.575
249.70755	7309.975
253.96539	7648.075
258.22014	7932.075
262.4718	8181.775
266.72039	8342.975
270.96589	8407.575
275.20832	8371.675
279.44768	8290.775
283.68397	8163.175
287.91719	8074.275
292.14735	8057.875
296.37445	8136.875
300.59849	8315.675
304.81948	8522.675
309.03742	8700.475
313.25231	8810.975
317.46415	8713.775
321.67296	8500.375
325.87872	8266.275
330.08145	8158.375
334.28114	8141.375
338.47781	8245.775
342.67145	8383.675
346.86207	8581.275
351.04966	8840.775
355.23424	9155.975
359.4158	9360.675
363.59435	9491.575
367.76989	9547.275
371.94243	9604.075
376.11196	9621.175
380.27849	9642.375
384.44203	9711.975
388.60257	9784.175
392.76012	9876.875
396.91468	10024.975
401.06626	10164.075
405.21485	10240.975
409.36047	10149.975
413.50311	9920.275
417.64277	9720.875
421.77947	9539.775
425.9132	9482.275
430.04396	9461.875
434.17176	9497.375
438.2966	9606.075
442.41849	9765.975
446.53742	9963.475
450.6534	10183.175
454.76644	10364.575
458.87653	10448.775
462.98368	10461.575
467.08789	10376.275
471.18916	10247.675
475.2875	10049.475
479.38291	9855.775
483.4754	9739.975
487.56496	9653.675
491.6516	9650.975
495.73531	9623.375
499.81612	9685.375
503.89401	9766.575
507.96899	9797.675
512.04106	9805.075
516.11023	9877.475
520.1765	9886.475
524.23987	9905.775
528.30034	9893.875
532.35792	9904.975
536.41261	9854.775
540.46441	9745.075
544.51333	9725.475
548.55936	9781.275
552.60252	9880.175
556.64279	10060.375
560.6802	10164.175
564.71473	10223.575
568.7464	10285.375
572.7752	10192.475
576.80114	10037.675
580.82422	9899.075
584.84444	9853.775
588.86181	9876.175
592.87633	9958.975
596.888	10144.275
600.89682	10592.375
604.9028	11643.575
608.90594	13673.775
612.90624	15530.775
616.90371	14309.775
620.89834	11676.675
624.89015	10633.475
628.87913	10583.475
632.86528	10690.575
636.84862	10742.775
640.82913	10527.075
644.80683	10187.475
648.78172	9982.175
652.75379	9996.075
656.72306	10258.875
660.68952	10543.575
664.65319	10532.875
668.61405	10464.075
672.57211	10570.975
676.52738	10604.575
680.47986	10313.575
684.42955	10113.175
688.37646	10068.075
692.32058	10162.475
696.26192	10350.075
700.20048	10555.975
704.13626	10573.375
708.06928	10453.475
711.99952	10299.075
715.927	10294.875
719.85171	10354.875
723.77365	10350.475
727.69284	10281.775
731.60928	10195.575
735.52295	10203.875
739.43388	10249.875
743.34206	10283.875
747.24749	10301.375
751.15017	10304.375
755.05012	10400.475
758.94733	10699.975
762.8418	11393.075
766.73354	12416.975
770.62254	13290.575
774.50882	13519.175
778.39237	13244.075
782.27321	12549.475
786.15132	11684.375
790.02671	11028.675
793.89938	10699.175
797.76935	10505.475
801.6366	10402.975
805.50115	10333.075
809.36299	10293.875
813.22213	10277.675
817.07857	10300.675
820.93231	10293.775
824.78336	10283.875
828.63172	10311.075
832.47738	10322.875
836.32036	10319.575
840.16066	10320.575
843.99827	10309.775
847.8332	10312.975
851.66546	10315.075
855.49504	10347.675
859.32195	10337.075
863.1462	10333.575
866.96777	10320.375
870.78668	10350.175
874.60293	10373.775
878.41652	10400.075
882.22745	10468.475
886.03573	10528.475
889.84136	10532.675
893.64433	10511.175
897.44466	10477.775
901.24235	10436.775
905.0374	10431.575
908.8298	10428.875
912.61957	10385.375
916.40671	10392.475
920.19121	10401.475
923.97308	10485.075
927.75233	10556.075
931.52895	10644.275
935.30295	10568.575
939.07433	10455.475
942.84309	10358.775
946.60924	10309.175
950.37278	10312.475
954.13371	10284.475
957.89203	10262.675
961.64774	10266.875
965.40086	10265.875
969.15137	10242.375
972.89929	10224.775
976.64461	10223.375
980.38733	10312.675
984.12747	10289.575
987.86502	10349.575
991.59999	10401.075
995.33237	10485.575
999.06217	10637.475
1002.78939	10772.475
1006.51404	10941.275
1010.23611	11095.775
1013.95561	11205.375
1017.67255	11285.175
1021.38692	11280.475
1025.09872	11236.775
1028.80796	11208.875
1032.51465	11239.775
1036.21877	11301.075
1039.92035	11334.675
1043.61937	11300.575
1047.31584	11264.775
1051.00976	11245.675
1054.70114	11230.775
1058.38998	11276.675
1062.07627	11355.775
1065.76003	11375.975
1069.44126	11523.575
1073.11995	11749.375
1076.79611	11951.575
1080.46974	12036.475
1084.14085	12109.275
1087.80943	12148.675
1091.47549	12219.875
1095.13903	12251.175
1098.80005	12282.775
1102.45857	12454.475
1106.11456	12431.975
1109.76805	12220.875
1113.41903	12168.675
1117.06751	12262.775
1120.71348	12399.475
1124.35696	12511.175
1127.99793	12596.075
1131.63641	12432.575
1135.2724	12165.475
1138.90589	11949.975
1142.5369	11775.975
1146.16542	11645.875
1149.79145	11554.775
1153.415	11477.475
1157.03607	11453.475
1160.65467	11543.275
1164.27079	11785.475
1167.88443	12113.575
1171.49561	12608.175
1175.10432	13297.075
1178.71056	14183.775
1182.31434	14985.675
1185.91565	15419.575
1189.51451	15526.075
1193.11091	15421.475
1196.70485	15150.075
1200.29634	14757.375
1203.88538	14339.275
1207.47197	13830.775
1211.05612	13312.875
1214.63782	12857.875
1218.21708	12597.375
1221.79391	12448.675
1225.36829	12413.875
1228.94024	12365.375
1232.50976	12380.775
1236.07685	12420.175
1239.6415	12469.075
1243.20374	12512.975
1246.76355	12582.875
1250.32093	12677.875
1253.8759	12860.075
1257.42845	13148.975
1260.97859	13502.675
1264.52631	13830.375
1268.07163	14045.675
1271.61453	14195.775
1275.15503	14261.975
1278.69312	14286.275
1282.22882	14350.675
1285.76211	14453.375
1289.29301	14612.075
1292.82151	14809.475
1296.34761	15076.075
1299.87133	15506.375
1303.39266	16205.875
1306.9116	17213.075
1310.42815	18241.175
1313.94233	18705.475
1317.45412	18330.875
1320.96354	17584.275
1324.47058	16816.175
1327.97525	16119.075
1331.47754	15717.975
1334.97747	15663.775
1338.47502	15928.075
1341.97022	16443.775
1345.46305	17288.175
1348.95352	18347.575
1352.44163	19464.675
1355.92738	20541.775
1359.41078	21615.975
1362.89183	22118.675
1366.37053	20963.475
1369.84688	18552.575
1373.32088	16368.875
1376.79254	15136.375
1380.26186	14522.375
1383.72883	14098.175
1387.19347	13803.175
1390.65578	13425.975
1394.11575	13060.975
1397.57339	12814.275
1401.0287	12667.775
1404.48168	12745.275
1407.93234	12887.175
1411.38068	13132.975
1414.82669	13367.875
1418.27039	13421.075
1421.71177	13353.775
1425.15083	13266.075
1428.58758	13186.175
1432.02203	13226.475
1435.45416	13280.075
1438.88399	13232.375
1442.31151	13140.875
1445.73673	13164.275
1449.15965	13129.675
1452.58027	13079.975
1455.9986	13063.175
1459.41463	13040.275
1462.82837	13142.875
1466.23982	13332.875
1469.64898	13554.475
1473.05586	13728.275
1476.46045	13899.875
1479.86276	14068.375
1483.26279	14251.275
1486.66054	14489.375
1490.05602	14838.275
1493.44922	15442.575
1496.84016	16241.075
1500.22882	17354.875
1503.61521	18617.975
1506.99934	19741.575
1510.38121	20269.775
1513.76081	19871.775
1517.13816	18631.075
1520.51324	17081.675
1523.88607	15847.575
1527.25665	15123.375
1530.62498	14716.875
1533.99105	14544.175
1537.35488	14445.175
1540.71647	14337.675
1544.07581	14252.175
1547.4329	14097.375
1550.78776	13952.575
1554.14038	13830.275
1557.49077	13786.375
1560.83892	13895.975
1564.18484	14120.775
1567.52853	14320.775
1570.86999	14453.975
1574.20922	14466.075
1577.54624	14333.075
1580.88103	13882.675
1584.2136	13416.275
1587.54395	13177.875
1590.87208	13310.175
1594.19801	13754.075
1597.52172	14332.075
1600.84321	14620.075
1604.16251	14545.375
1607.47959	14276.475
1610.79447	13864.875
1614.10715	13231.875
1617.41763	12605.475
1620.7259	12144.875
1624.03199	11888.975
1627.33587	11835.375
1630.63757	11955.775
1633.93707	12342.275
1637.23439	13074.175
1640.52951	14104.875
1643.82246	15397.475
1647.11321	16490.575
1650.40179	16766.675
1653.68819	15842.075
1656.97241	14192.675
1660.25446	12679.675
1663.53433	11709.675
1666.81203	11101.375
1670.08756	10737.175
1673.36092	10556.875
1676.63211	10376.775
1679.90115	10233.875
1683.16801	10176.875
1686.43272	10115.775
1689.69527	9996.075
1692.95567	9976.775
1696.2139	9945.875
1699.46999	9926.275
1702.72392	9907.575
1705.97571	9884.275
1709.22535	9891.475
1712.47284	9903.175
1715.71819	9884.875
1718.96139	9863.575
1722.20246	9863.775
1725.44139	9841.975
1728.67818	9771.075
1731.91284	9725.875
1735.14537	9682.275
1738.37576	9644.675
1741.60403	9616.875
1744.83017	9593.475
1748.05418	9590.775
1751.27607	9565.275
1754.49584	9538.475
1757.71349	9543.675
1760.92903	9521.075
1764.14244	9485.175
1767.35375	9475.875
1770.56294	9465.075
1773.77002	9435.075
1776.97499	9432.475
1780.17785	9405.275
1783.37861	9375.775
1786.57727	9340.075
1789.77382	9345.575
1792.96828	9334.575
1796.16064	9324.475
1799.3509	9297.175
1802.53907	9296.975
1805.72514	9271.375
1808.90913	9237.375
1812.09102	9244.175
1815.27083	9201.575
1818.44856	9170.875
1821.6242	9172.375
1824.79776	9135.975
1827.96924	9134.575
1831.13864	9118.175
1834.30597	9100.175
1837.47122	9090.975
1840.6344	9045.775
1843.7955	9075.175
1846.95454	9045.975
1850.11151	9068.475
1853.26642	9055.275
1856.41926	9044.875
1859.57004	9048.375
1862.71876	9040.175
1865.86542	9052.675
1869.01003	9036.975
1872.15258	9007.475
1875.29308	8997.575
1878.43152	8988.575
1881.56792	8981.775
1884.70227	8953.875
1887.83457	8932.275
1890.96482	8900.875
1894.09304	8907.775
1897.21921	8880.075
1900.34335	8854.875
1903.46544	8848.575
1906.58551	8871.175
1909.70353	8870.175
1912.81953	8845.875
1915.93349	8837.275
1919.04543	8806.175
1922.15534	8788.075
1925.26322	8773.775
1928.36908	8750.775
1931.47292	8741.375
1934.57473	8720.575
1937.67453	8716.275
1940.77232	8687.175
1943.86808	8655.675
1946.96184	8634.075
1950.05358	8607.475
1953.14331	8606.575
1956.23103	8559.575
1959.31675	8507.075
1962.40046	8497.675
1965.48217	8462.975
1968.56188	8458.275
1971.63959	8445.675
1974.7153	8417.675
1977.78901	8402.575
1980.86073	8372.075
1983.93046	8342.675
1986.99819	8306.975
1990.06394	8302.375
1993.1277	8269.675
1996.18947	8219.575
1999.24925	8190.875
2002.30706	8156.275
2005.36288	8142.675
2008.41672	8089.775
2011.46859	8057.275
2014.51848	8058.075
2017.56639	8029.675
2020.61233	7997.175
2023.6563	7991.575
2026.6983	7964.475
2029.73833	7941.775
2032.7764	7915.675
2035.8125	7894.475
2038.84664	7902.075
2041.87881	7869.475
2044.90903	7854.175
2047.93729	7840.575
2050.96359	7852.475
2053.98794	7819.475
2057.01034	7814.275
2060.03078	7813.375
2063.04927	7793.875
2066.06582	7787.575
2069.08042	7767.975
2072.09307	7748.575
2075.10378	7754.075
2078.11255	7737.875
2081.11938	7739.575
2084.12426	7719.075
2087.12722	7718.875
2090.12824	7695.775
2093.12732	7710.675
2096.12447	7716.775
2099.11969	7744.775
2102.11299	7721.875
2105.10435	7727.175
2108.09379	7739.375
2111.08131	7711.775
2114.0669	7723.575
2117.05057	7740.975
2120.03233	7743.975
2123.01216	7735.175
2125.99008	7731.675
2128.96609	7728.375
2131.94018	7749.275
2134.91236	7753.075
2137.88263	7752.575
2140.851	7747.975
2143.81746	7742.375
2146.78201	7747.475
2149.74466	7742.875
2152.7054	7726.575
2155.66425	7722.375
2158.6212	7734.675
2161.57625	7701.175
2164.52941	7693.375
2167.48067	7697.075
2170.43004	7697.975
2173.37752	7688.775
2176.32311	7693.675
2179.26681	7689.975
2182.20863	7686.775
2185.14856	7697.575
2188.08661	7684.675
2191.02278	7684.875
2193.95707	7679.675
2196.88948	7675.475
2199.82001	7675.775
2202.74867	7644.175
2205.67545	7666.475
2208.60037	7644.775
2211.52341	7628.575
2214.44458	7612.675
2217.36388	7573.075
2220.28132	7571.075
2223.1969	7546.175
2226.11061	7518.875
2229.02246	7504.175
2231.93245	7490.075
2234.84058	7509.775
2237.74686	7479.375
2240.65128	7463.775
2243.55385	7439.275
2246.45456	7431.175
2249.35343	7422.375
2252.25044	7410.975
2255.14561	7402.375
2258.03893	7406.575
2260.93041	7392.075
2263.82004	7375.075
2266.70783	7351.675
2269.59378	7335.975
2272.4779	7302.775
2275.36017	7290.275
2278.24061	7266.475
2281.11922	7255.675
2283.996	7229.375
2286.87094	7228.475
2289.74405	7246.675
2292.61534	7222.475
2295.4848	7186.175
2298.35243	7200.775
2301.21824	7177.475
2304.08223	7183.675
2306.94439	7160.175
2309.80474	7169.175
2312.66327	7171.275
2315.51999	7146.175
2318.37489	7130.475
2321.22797	7138.475
2324.07925	7116.475
2326.92871	7092.575
2329.77637	7086.575
2332.62222	7056.375
2335.46626	7065.175
2338.3085	7048.175
2341.14893	7054.775
2343.98756	7059.275
2346.8244	7038.975
2349.65943	7042.975
2352.49267	7028.175
2355.32411	7008.275
2358.15376	6998.575
2360.98161	7009.975
2363.80768	7014.275
2366.63195	6995.175
2369.45444	6994.175
2372.27514	6986.775
2375.09405	6960.975
2377.91118	6937.475
2380.72652	6947.375
2383.54009	6910.075
2386.35187	6921.675
2389.16188	6899.375
2391.97011	6875.475
2394.77657	6855.575
2397.58125	6838.675
2400.38416	6830.375
2403.18529	6810.875
2405.98466	6801.475
2408.78226	6793.875
2411.57809	6779.275
2414.37216	6761.175
2417.16446	6736.275
2419.955	6755.075
2422.74378	6759.375
2425.5308	6745.775
2428.31606	6749.475
2431.09956	6735.175
2433.88131	6727.275
2436.6613	6703.575
2439.43954	6681.475
2442.21603	6696.175
2444.99077	6694.175
2447.76377	6706.675
2450.53501	6694.275
2453.30451	6693.075
2456.07226	6671.175
2458.83827	6660.275
2461.60254	6640.975
2464.36507	6634.175
2467.12586	6611.575
2469.88492	6632.475
2472.64224	6613.175
2475.39782	6619.375
2478.15167	6604.575
2480.90379	6604.775
2483.65417	6598.675
2486.40283	6588.475
2489.14976	6604.875
2491.89497	6580.175
2494.63845	6575.375
2497.3802	6573.075
2500.12024	6555.075
2502.85855	6555.475
2505.59514	6562.975
2508.33002	6519.775
2511.06318	6530.675
2513.79462	6511.575
2516.52435	6507.275
2519.25237	6496.675
2521.97867	6474.875
2524.70327	6457.675
2527.42616	6442.875
2530.14734	6435.175
2532.86681	6444.175
2535.58458	6451.775
2538.30065	6439.375
2541.01501	6439.275
2543.72768	6413.675
2546.43864	6417.975
2549.14791	6381.375
2551.85548	6390.275
2554.56136	6401.375
2557.26554	6369.675
2559.96803	6354.475
2562.66883	6332.075
2565.36794	6333.475
2568.06536	6293.475
2570.7611	6291.975
2573.45514	6275.675
2576.14751	6277.075
2578.83819	6246.475
2581.52719	6240.975
2584.21451	6256.975
2586.90015	6262.975
2589.58411	6232.475
2592.2664	6215.175
2594.94701	6204.575
2597.62594	6188.975
2600.30321	6168.775
2602.9788	6192.575
2605.65273	6154.175
2608.32498	6150.375
2610.99557	6149.575
2613.66449	6149.175
2616.33175	6144.375
2618.99734	6150.175
2621.66128	6122.275
2624.32355	6110.175
2626.98416	6098.975
2629.64311	6095.175
2632.30041	6077.775
2634.95605	6059.975
2637.61004	6044.775
2640.26238	6044.175
2642.91306	6040.675
2645.56209	6060.075
2648.20948	6019.575
2650.85521	6028.375
2653.4993	6032.175
2656.14175	6021.875
2658.78255	6009.375
2661.42171	5993.675
2664.05923	6008.275
2666.6951	6023.175
2669.32934	6041.775
2671.96194	6018.875
2674.59291	6030.575
2677.22224	6024.275
2679.84993	6029.275
2682.476	6010.175
2685.10043	6029.375
2687.72324	6016.375
2690.34441	5985.675
2692.96396	6002.775
2695.58188	6012.175
2698.19818	5981.075
2700.81285	5981.775
2703.4259	5991.175
2706.03733	5981.475
2708.64714	5953.175
2711.25533	5979.675
2713.86191	5964.275
2716.46687	5967.675
2719.07021	5953.675
2721.67194	5970.075
2724.27206	5955.975
2726.87057	5962.375
2729.46747	5975.875
2732.06276	5968.675
2734.65644	5944.975
2737.24852	5942.375
2739.83899	5924.975
2742.42786	5935.075
2745.01513	5905.475
2747.60079	5900.875
2750.18486	5884.175
2752.76733	5878.675
2755.3482	5879.275
2757.92747	5861.175
2760.50515	5857.175
2763.08123	5848.075
2765.65573	5817.075
2768.22863	5825.675
2770.79994	5804.275
2773.36967	5810.975
2775.9378	5807.375
2778.50435	5790.775
2781.06932	5795.975
2783.6327	5787.975
2786.1945	5785.375
2788.75471	5782.275
2791.31335	5754.975
2793.87041	5740.375
2796.42589	5728.475
2798.97979	5714.875
2801.53212	5699.475
2804.08288	5702.275
2806.63206	5678.475
2809.17967	5664.275
2811.72571	5659.575
2814.27018	5651.175
2816.81308	5634.675
2819.35442	5637.675
2821.89419	5613.375
2824.43239	5605.175
2826.96904	5597.375
2829.50412	5616.475
2832.03763	5569.975
2834.56959	5561.475
2837.1	5558.975
2839.62884	5544.475
2842.15613	5536.175
2844.68186	5542.775
2847.20604	5535.175
2849.72867	5526.875
2852.24974	5501.875
2854.76927	5495.575
2857.28724	5484.075
2859.80367	5483.075
2862.31855	5487.075
2864.83189	5475.575
2867.34368	5478.275
2869.85393	5466.375
2872.36264	5454.975
2874.8698	5427.775
2877.37543	5429.075
2879.87952	5423.275
2882.38207	5432.975
2884.88308	5419.875
2887.38256	5424.575
2889.88051	5387.075
2892.37692	5397.575
2894.8718	5393.675
2897.36515	5390.575
2899.85698	5392.175
2902.34727	5384.075
2904.83604	5396.575
2907.32328	5395.475
2909.809	5394.475
2912.29319	5407.175
2914.77587	5399.675
2917.25702	5401.075
2919.73665	5392.875
2922.21476	5400.175
2924.69136	5394.475
2927.16644	5382.975
2929.64	5373.575
2932.11205	5360.975
2934.58258	5335.275
2937.05161	5349.075
2939.51912	5340.475
2941.98513	5329.975
2944.44962	5332.475
2946.91261	5325.975
2949.37409	5316.575
2951.83407	5313.475
2954.29254	5311.575
2956.74951	5296.875
2959.20498	5287.275
2961.65895	5294.775
2964.11142	5287.275
2966.56239	5278.075
2969.01186	5291.575
2971.45984	5278.075
2973.90632	5263.175
2976.35131	5255.175
2978.7948	5242.975
2981.23681	5245.075
2983.67732	5237.575
2986.11635	5211.675
2988.55388	5194.975
2990.98993	5185.175
2993.4245	5188.675
2995.85758	5151.375
2998.28917	5152.775
3000.71928	5148.475
3003.14791	5107.775
3005.57506	5108.075
3008.00073	5095.175
3010.42493	5065.975
3012.84764	5062.975
3015.26888	5082.575
3017.68865	5041.075
3020.10694	5037.475
3022.52376	5026.975
3024.9391	5013.975
3027.35298	4985.975
3029.76539	4975.975
3032.17632	4970.975
3034.5858	4974.975
3036.9938	4959.775
3039.40034	4943.875
3041.80542	4948.775
3044.20903	4922.975
3046.61118	4916.475
3049.01187	4907.875
3051.4111	4881.575
3053.80888	4893.775
3056.20519	4864.275
3058.60005	4828.275
3060.99345	4847.975
3063.3854	4847.375
3065.7759	4818.575
3068.16494	4808.475
3070.55254	4789.675
3072.93868	4772.575
3075.32338	4759.675
3077.70662	4762.975
3080.08842	4738.375
3082.46878	4738.075
3084.84769	4704.475
3087.22515	4700.975
3089.60118	4717.775
3091.97576	4709.175
3094.3489	4694.475
3096.72061	4691.975
3099.09087	4674.875
3101.4597	4683.775
3103.82709	4687.375
3106.19305	4674.675
3108.55757	4665.075
3110.92066	4659.375
3113.28232	4663.475
3115.64255	4630.275
3118.00134	4631.175
3120.35871	4612.375
3122.71466	4614.375
3125.06917	4601.475
3127.42226	4579.075
3129.77393	4583.775
3132.12417	4555.075
3134.47299	4563.375
3136.82039	4539.975
3139.16636	4546.375
3141.51092	4533.475
3143.85406	4533.475
3146.19579	4530.975
3148.53609	4525.975
3150.87499	4514.275
3153.21246	4533.275
3155.54853	4521.475
3157.88318	4518.175
3160.21642	4496.675
3162.54826	4509.475
3164.87868	4499.475
3167.2077	4495.175
3169.5353	4483.375
3171.86151	4467.175
3174.18631	4479.975
3176.5097	4452.375
3178.83169	4462.775
3181.15228	4437.275
3183.47147	4439.575
3185.78926	4432.075
3188.10565	4420.875
3190.42065	4392.675
3192.73424	4393.075
3195.04645	4384.775
3197.35725	4385.175
3199.66667	4380.275
3201.97469	4378.475
3204.28132	4366.575
