Data from AgNPs_UA_10uM_CRN_500uM_SU_RamanShift__77__13-18-10-269.txt Node

Date: Thu Aug 04 13:18:10 BST 2022
User: TCL
Spectrometer: QEP01345
Trigger mode: 4
Integration Time (sec): 1.000000E0
Scans to average: 10
Electric dark correction enabled: true
Nonlinearity correction enabled: false
Boxcar width: 0
XAxis mode: Raman Shifts
Number of Pixels in Spectrum: 1044
>>>>>Begin Spectral Data<<<<<
46.04893	0.925
50.45542	-1.275
54.85868	0.525
59.25871	-0.575
63.6555	20.825
68.04907	22.325
72.43941	23.125
76.82654	23.025
81.21044	25.525
85.59113	25.525
89.96862	28.125
94.34289	27.225
98.71396	27.725
103.08183	29.325
107.4465	32.125
111.80798	31.425
116.16626	33.125
120.52136	33.925
124.87327	36.925
129.222	37.025
133.56755	40.725
137.90993	43.925
142.24913	50.325
146.58517	56.825
150.91804	66.525
155.24774	84.225
159.57429	102.125
163.89768	135.925
168.21792	182.025
172.53501	245.525
176.84895	345.625
181.15975	498.125
185.46741	697.725
189.77193	972.125
194.07331	1302.125
198.37157	1679.025
202.6667	2073.625
206.9587	2473.725
211.24758	2870.725
215.53334	3254.025
219.81599	3684.125
224.09553	4166.925
228.37195	4675.025
232.64527	5229.525
236.91549	5797.125
241.18261	6332.925
245.44663	6775.425
249.70755	7130.725
253.96539	7467.725
258.22014	7736.625
262.4718	7986.925
266.72039	8143.725
270.96589	8208.925
275.20832	8200.625
279.44768	8102.025
283.68397	7958.125
287.91719	7870.525
292.14735	7857.925
296.37445	7955.625
300.59849	8112.325
304.81948	8328.925
309.03742	8514.425
313.25231	8605.225
317.46415	8525.125
321.67296	8310.625
325.87872	8064.325
330.08145	7973.225
334.28114	7958.425
338.47781	8043.925
342.67145	8183.825
346.86207	8360.925
351.04966	8651.425
355.23424	8921.425
359.4158	9155.025
363.59435	9257.425
367.76989	9350.425
371.94243	9384.225
376.11196	9395.225
380.27849	9420.325
384.44203	9494.925
388.60257	9576.125
392.76012	9652.725
396.91468	9774.125
401.06626	9918.325
405.21485	9982.725
409.36047	9920.225
413.50311	9700.025
417.64277	9479.225
421.77947	9339.425
425.9132	9257.825
430.04396	9251.025
434.17176	9296.125
438.2966	9402.025
442.41849	9567.625
446.53742	9781.425
450.6534	10001.825
454.76644	10133.125
458.87653	10217.425
462.98368	10225.425
467.08789	10138.425
471.18916	10021.525
475.2875	9808.425
479.38291	9642.025
483.4754	9528.625
487.56496	9435.725
491.6516	9404.425
495.73531	9419.625
499.81612	9445.625
503.89401	9521.525
507.96899	9583.125
512.04106	9586.625
516.11023	9630.125
520.1765	9668.725
524.23987	9681.125
528.30034	9698.325
532.35792	9675.725
536.41261	9586.425
540.46441	9488.425
544.51333	9492.925
548.55936	9559.325
552.60252	9646.825
556.64279	9800.525
560.6802	9936.825
564.71473	10020.525
568.7464	10055.625
572.7752	10003.225
576.80114	9819.025
580.82422	9703.125
584.84444	9664.825
588.86181	9720.525
592.87633	9765.425
596.888	9965.325
600.89682	10403.825
604.9028	11424.125
608.90594	13406.525
612.90624	15207.625
616.90371	14052.525
620.89834	11441.725
624.89015	10447.225
628.87913	10390.225
632.86528	10507.825
636.84862	10540.025
640.82913	10289.825
644.80683	9952.325
648.78172	9740.325
652.75379	9762.825
656.72306	10026.225
660.68952	10326.525
664.65319	10292.525
668.61405	10229.425
672.57211	10319.125
676.52738	10328.625
680.47986	10095.625
684.42955	9892.825
688.37646	9845.725
692.32058	9936.625
696.26192	10137.325
700.20048	10327.625
704.13626	10359.325
708.06928	10212.125
711.99952	10090.325
715.927	10071.825
719.85171	10139.125
723.77365	10142.125
727.69284	10066.725
731.60928	10003.025
735.52295	9988.325
739.43388	10032.225
743.34206	10099.725
747.24749	10074.525
751.15017	10110.625
755.05012	10183.225
758.94733	10483.125
762.8418	11180.325
766.73354	12197.725
770.62254	13028.325
774.50882	13286.525
778.39237	12975.425
782.27321	12257.925
786.15132	11423.725
790.02671	10802.225
793.89938	10460.425
797.76935	10287.825
801.6366	10179.125
805.50115	10142.725
809.36299	10078.225
813.22213	10101.025
817.07857	10095.425
820.93231	10074.125
824.78336	10071.925
828.63172	10103.225
832.47738	10097.325
836.32036	10088.125
840.16066	10098.725
843.99827	10117.625
847.8332	10127.225
851.66546	10139.325
855.49504	10114.725
859.32195	10124.125
863.1462	10157.825
866.96777	10130.425
870.78668	10139.125
874.60293	10163.625
878.41652	10186.425
882.22745	10292.725
886.03573	10343.425
889.84136	10334.125
893.64433	10298.825
897.44466	10258.725
901.24235	10247.325
905.0374	10237.225
908.8298	10159.025
912.61957	10193.725
916.40671	10222.225
920.19121	10219.925
923.97308	10267.625
927.75233	10375.025
931.52895	10473.525
935.30295	10380.925
939.07433	10239.025
942.84309	10163.225
946.60924	10143.925
950.37278	10119.925
954.13371	10092.025
957.89203	10093.125
961.64774	10090.125
965.40086	10055.625
969.15137	10061.425
972.89929	10062.925
976.64461	10052.125
980.38733	10073.325
984.12747	10124.025
987.86502	10147.125
991.59999	10220.325
995.33237	10307.125
999.06217	10471.225
1002.78939	10655.425
1006.51404	10817.525
1010.23611	10909.025
1013.95561	11052.925
1017.67255	11124.125
1021.38692	11118.325
1025.09872	11096.625
1028.80796	11092.225
1032.51465	11155.625
1036.21877	11243.625
1039.92035	11232.225
1043.61937	11200.525
1047.31584	11142.825
1051.00976	11075.825
1054.70114	11074.225
1058.38998	11080.125
1062.07627	11155.225
1065.76003	11209.825
1069.44126	11309.725
1073.11995	11492.825
1076.79611	11707.025
1080.46974	11816.925
1084.14085	11896.125
1087.80943	11971.825
1091.47549	11994.725
1095.13903	12005.325
1098.80005	12036.625
1102.45857	12138.725
1106.11456	12157.025
1109.76805	11972.325
1113.41903	11914.925
1117.06751	12000.525
1120.71348	12158.525
1124.35696	12296.025
1127.99793	12327.825
1131.63641	12209.125
1135.2724	11957.625
1138.90589	11732.925
1142.5369	11534.625
1146.16542	11452.225
1149.79145	11335.525
1153.415	11274.225
1157.03607	11314.125
1160.65467	11381.825
1164.27079	11589.425
1167.88443	11929.525
1171.49561	12421.525
1175.10432	13133.525
1178.71056	14036.125
1182.31434	14861.425
1185.91565	15268.425
1189.51451	15390.025
1193.11091	15231.625
1196.70485	14936.025
1200.29634	14511.725
1203.88538	14090.325
1207.47197	13570.225
1211.05612	13089.725
1214.63782	12691.225
1218.21708	12433.825
1221.79391	12315.825
1225.36829	12291.625
1228.94024	12264.825
1232.50976	12252.825
1236.07685	12255.325
1239.6415	12275.525
1243.20374	12347.925
1246.76355	12403.625
1250.32093	12510.825
1253.8759	12697.725
1257.42845	12980.725
1260.97859	13344.525
1264.52631	13657.725
1268.07163	13891.625
1271.61453	14055.625
1275.15503	14134.625
1278.69312	14191.125
1282.22882	14287.225
1285.76211	14379.725
1289.29301	14538.625
1292.82151	14747.325
1296.34761	14997.625
1299.87133	15417.125
1303.39266	16141.625
1306.9116	17193.525
1310.42815	18271.125
1313.94233	18749.825
1317.45412	18405.925
1320.96354	17621.625
1324.47058	16821.025
1327.97525	16096.525
1331.47754	15675.625
1334.97747	15650.025
1338.47502	15880.625
1341.97022	16399.225
1345.46305	17181.925
1348.95352	18206.825
1352.44163	19292.025
1355.92738	20336.425
1359.41078	21418.225
1362.89183	21959.125
1366.37053	20824.225
1369.84688	18455.425
1373.32088	16237.425
1376.79254	15020.025
1380.26186	14371.625
1383.72883	13998.225
1387.19347	13700.025
1390.65578	13324.325
1394.11575	12992.425
1397.57339	12770.425
1401.0287	12653.025
1404.48168	12684.325
1407.93234	12841.125
1411.38068	13093.825
1414.82669	13297.725
1418.27039	13330.625
1421.71177	13278.525
1425.15083	13176.825
1428.58758	13125.325
1432.02203	13196.925
1435.45416	13264.925
1438.88399	13197.225
1442.31151	13144.525
1445.73673	13145.925
1449.15965	13123.925
1452.58027	13043.725
1455.9986	13004.725
1459.41463	12985.725
1462.82837	13108.725
1466.23982	13296.125
1469.64898	13516.125
1473.05586	13696.425
1476.46045	13845.825
1479.86276	14017.425
1483.26279	14169.225
1486.66054	14409.925
1490.05602	14724.325
1493.44922	15319.125
1496.84016	16063.425
1500.22882	17141.125
1503.61521	18358.625
1506.99934	19470.725
1510.38121	20021.725
1513.76081	19669.625
1517.13816	18441.625
1520.51324	16926.625
1523.88607	15723.925
1527.25665	14989.025
1530.62498	14640.025
1533.99105	14462.525
1537.35488	14365.825
1540.71647	14281.025
1544.07581	14145.025
1547.4329	14037.925
1550.78776	13894.425
1554.14038	13716.225
1557.49077	13668.925
1560.83892	13772.825
1564.18484	13998.525
1567.52853	14189.825
1570.86999	14323.025
1574.20922	14359.525
1577.54624	14218.025
1580.88103	13754.025
1584.2136	13306.625
1587.54395	13116.525
1590.87208	13261.025
1594.19801	13741.325
1597.52172	14339.125
1600.84321	14687.225
1604.16251	14590.625
1607.47959	14288.625
1610.79447	13798.225
1614.10715	13175.825
1617.41763	12516.425
1620.7259	12060.625
1624.03199	11801.925
1627.33587	11747.225
1630.63757	11911.525
1633.93707	12295.925
1637.23439	13038.925
1640.52951	14077.725
1643.82246	15364.325
1647.11321	16396.425
1650.40179	16647.025
1653.68819	15718.225
1656.97241	14070.025
1660.25446	12570.125
1663.53433	11574.625
1666.81203	10979.525
1670.08756	10640.925
1673.36092	10400.925
1676.63211	10243.625
1679.90115	10135.025
1683.16801	10036.725
1686.43272	9936.425
1689.69527	9887.325
1692.95567	9836.825
1696.2139	9830.025
1699.46999	9789.425
1702.72392	9777.825
1705.97571	9766.025
1709.22535	9764.825
1712.47284	9772.425
1715.71819	9774.425
1718.96139	9764.525
1722.20246	9742.925
1725.44139	9738.925
1728.67818	9652.225
1731.91284	9614.925
1735.14537	9568.825
1738.37576	9535.025
1741.60403	9498.925
1744.83017	9479.725
1748.05418	9472.425
1751.27607	9457.225
1754.49584	9437.725
1757.71349	9422.125
1760.92903	9424.025
1764.14244	9384.325
1767.35375	9366.825
1770.56294	9354.825
1773.77002	9325.025
1776.97499	9310.025
1780.17785	9278.125
1783.37861	9257.325
1786.57727	9240.125
1789.77382	9249.125
1792.96828	9214.525
1796.16064	9216.125
1799.3509	9210.425
1802.53907	9205.525
1805.72514	9187.125
1808.90913	9147.825
1812.09102	9130.625
1815.27083	9107.825
1818.44856	9076.125
1821.6242	9046.525
1824.79776	9019.125
1827.96924	9043.325
1831.13864	9024.525
1834.30597	9021.225
1837.47122	8978.425
1840.6344	8973.625
1843.7955	8956.325
1846.95454	8960.725
1850.11151	8951.525
1853.26642	8955.825
1856.41926	8954.425
1859.57004	8975.825
1862.71876	8954.725
1865.86542	8955.425
1869.01003	8944.025
1872.15258	8919.125
1875.29308	8907.125
1878.43152	8916.025
1881.56792	8903.125
1884.70227	8876.525
1887.83457	8837.425
1890.96482	8854.825
1894.09304	8796.825
1897.21921	8800.125
1900.34335	8805.425
1903.46544	8783.825
1906.58551	8772.425
1909.70353	8786.425
1912.81953	8785.525
1915.93349	8751.725
1919.04543	8722.325
1922.15534	8712.525
1925.26322	8702.925
1928.36908	8694.125
1931.47292	8667.925
1934.57473	8654.625
1937.67453	8626.925
1940.77232	8604.425
1943.86808	8600.825
1946.96184	8570.725
1950.05358	8532.325
1953.14331	8524.325
1956.23103	8490.125
1959.31675	8456.325
1962.40046	8445.425
1965.48217	8425.725
1968.56188	8374.825
1971.63959	8360.625
1974.7153	8347.325
1977.78901	8344.125
1980.86073	8300.425
1983.93046	8279.225
1986.99819	8236.125
1990.06394	8213.025
1993.1277	8201.125
1996.18947	8160.025
1999.24925	8133.325
2002.30706	8088.525
2005.36288	8072.025
2008.41672	8032.625
2011.46859	8031.625
2014.51848	7999.225
2017.56639	7950.025
2020.61233	7957.225
2023.6563	7952.325
2026.6983	7903.325
2029.73833	7889.525
2032.7764	7879.725
2035.8125	7848.025
2038.84664	7840.625
2041.87881	7805.425
2044.90903	7808.125
2047.93729	7802.325
2050.96359	7775.425
2053.98794	7748.025
2057.01034	7770.325
2060.03078	7749.725
2063.04927	7752.025
2066.06582	7732.325
2069.08042	7736.825
2072.09307	7727.625
2075.10378	7699.825
2078.11255	7691.025
2081.11938	7689.525
2084.12426	7689.525
2087.12722	7676.625
2090.12824	7658.025
2093.12732	7659.125
2096.12447	7672.225
2099.11969	7676.125
2102.11299	7685.525
2105.10435	7678.525
2108.09379	7689.225
2111.08131	7683.925
2114.0669	7691.725
2117.05057	7684.225
2120.03233	7700.925
2123.01216	7709.325
2125.99008	7692.325
2128.96609	7712.325
2131.94018	7705.125
2134.91236	7718.425
2137.88263	7686.325
2140.851	7696.825
2143.81746	7699.125
2146.78201	7708.525
2149.74466	7687.325
2152.7054	7682.925
2155.66425	7688.425
2158.6212	7698.525
2161.57625	7675.825
2164.52941	7686.925
2167.48067	7679.725
2170.43004	7651.225
2173.37752	7668.025
2176.32311	7664.425
2179.26681	7631.925
2182.20863	7648.425
2185.14856	7672.825
2188.08661	7660.425
2191.02278	7658.125
2193.95707	7660.725
2196.88948	7644.125
2199.82001	7649.725
2202.74867	7622.325
2205.67545	7639.825
2208.60037	7624.025
2211.52341	7611.125
2214.44458	7582.825
2217.36388	7560.125
2220.28132	7554.425
2223.1969	7508.125
2226.11061	7500.525
2229.02246	7484.625
2231.93245	7467.025
2234.84058	7466.325
2237.74686	7457.725
2240.65128	7430.225
2243.55385	7423.725
2246.45456	7420.825
2249.35343	7408.925
2252.25044	7381.925
2255.14561	7390.725
2258.03893	7410.125
2260.93041	7380.325
2263.82004	7339.725
2266.70783	7334.925
2269.59378	7312.025
2272.4779	7298.525
2275.36017	7272.025
2278.24061	7271.725
2281.11922	7248.025
2283.996	7211.425
2286.87094	7209.725
2289.74405	7218.225
2292.61534	7202.225
2295.4848	7169.625
2298.35243	7180.325
2301.21824	7148.025
2304.08223	7142.725
2306.94439	7165.025
2309.80474	7141.125
2312.66327	7158.525
2315.51999	7122.825
2318.37489	7138.325
2321.22797	7127.725
2324.07925	7128.025
2326.92871	7077.225
2329.77637	7092.325
2332.62222	7068.225
2335.46626	7052.225
2338.3085	7044.425
2341.14893	7041.525
2343.98756	7053.125
2346.8244	7053.425
2349.65943	7017.025
2352.49267	7021.325
2355.32411	7012.325
2358.15376	6994.725
2360.98161	7014.225
2363.80768	7035.825
2366.63195	6994.525
2369.45444	7003.825
2372.27514	6979.825
2375.09405	6967.225
2377.91118	6956.525
2380.72652	6927.325
2383.54009	6934.025
2386.35187	6909.225
2389.16188	6889.025
2391.97011	6879.325
2394.77657	6861.025
2397.58125	6840.925
2400.38416	6847.025
2403.18529	6820.025
2405.98466	6814.025
2408.78226	6798.725
2411.57809	6782.825
2414.37216	6757.925
2417.16446	6758.225
2419.955	6761.825
2422.74378	6748.925
2425.5308	6748.425
2428.31606	6751.425
2431.09956	6726.425
2433.88131	6721.925
2436.6613	6704.925
2439.43954	6722.625
2442.21603	6697.325
2444.99077	6697.425
2447.76377	6702.625
2450.53501	6696.025
2453.30451	6689.425
2456.07226	6662.925
2458.83827	6655.525
2461.60254	6655.525
2464.36507	6617.325
2467.12586	6621.625
2469.88492	6625.825
2472.64224	6625.925
2475.39782	6621.125
2478.15167	6629.925
2480.90379	6583.725
2483.65417	6591.825
2486.40283	6584.425
2489.14976	6604.025
2491.89497	6622.025
2494.63845	6599.925
2497.3802	6605.825
2500.12024	6580.925
2502.85855	6560.525
2505.59514	6554.625
2508.33002	6555.525
2511.06318	6546.825
2513.79462	6519.625
2516.52435	6525.725
2519.25237	6520.325
2521.97867	6479.925
2524.70327	6494.625
2527.42616	6474.025
2530.14734	6458.825
2532.86681	6457.825
2535.58458	6459.325
2538.30065	6460.425
2541.01501	6449.425
2543.72768	6442.225
2546.43864	6437.825
2549.14791	6415.125
2551.85548	6411.125
2554.56136	6394.825
2557.26554	6386.625
2559.96803	6372.125
2562.66883	6363.425
2565.36794	6352.725
2568.06536	6334.125
2570.7611	6304.025
2573.45514	6301.225
2576.14751	6313.425
2578.83819	6271.125
2581.52719	6279.625
2584.21451	6259.425
2586.90015	6270.625
2589.58411	6259.225
2592.2664	6240.025
2594.94701	6242.425
2597.62594	6224.725
2600.30321	6209.225
2602.9788	6209.025
2605.65273	6198.125
2608.32498	6181.325
2610.99557	6160.125
2613.66449	6189.425
2616.33175	6162.625
2618.99734	6175.425
2621.66128	6150.725
2624.32355	6145.425
2626.98416	6140.625
2629.64311	6125.625
2632.30041	6112.025
2634.95605	6127.825
2637.61004	6100.425
2640.26238	6083.125
2642.91306	6077.325
2645.56209	6082.325
2648.20948	6071.325
2650.85521	6066.025
2653.4993	6053.225
2656.14175	6060.125
2658.78255	6050.225
2661.42171	6038.725
2664.05923	6063.725
2666.6951	6067.325
2669.32934	6068.125
2671.96194	6066.825
2674.59291	6068.725
2677.22224	6065.825
2679.84993	6056.525
2682.476	6037.525
2685.10043	6050.425
2687.72324	6050.725
2690.34441	6041.225
2692.96396	6052.325
2695.58188	6047.525
2698.19818	6034.625
2700.81285	6049.925
2703.4259	6017.225
2706.03733	6008.925
2708.64714	6004.725
2711.25533	5993.725
2713.86191	5987.925
2716.46687	6023.425
2719.07021	5998.825
2721.67194	6006.025
2724.27206	6001.825
2726.87057	5995.525
2729.46747	5998.525
2732.06276	5997.925
2734.65644	5993.425
2737.24852	5993.325
2739.83899	5962.725
2742.42786	5959.125
2745.01513	5958.225
2747.60079	5928.925
2750.18486	5949.825
2752.76733	5924.825
2755.3482	5925.725
2757.92747	5913.825
2760.50515	5895.525
2763.08123	5900.725
2765.65573	5894.425
2768.22863	5870.325
2770.79994	5857.325
2773.36967	5860.825
2775.9378	5853.525
2778.50435	5840.425
2781.06932	5850.725
2783.6327	5853.125
2786.1945	5842.425
2788.75471	5828.925
2791.31335	5802.225
2793.87041	5807.225
2796.42589	5783.725
2798.97979	5764.725
2801.53212	5751.425
2804.08288	5754.125
2806.63206	5740.325
2809.17967	5729.525
2811.72571	5720.325
2814.27018	5715.525
2816.81308	5683.825
2819.35442	5671.825
2821.89419	5675.425
2824.43239	5660.425
2826.96904	5645.525
2829.50412	5646.925
2832.03763	5649.725
2834.56959	5638.725
2837.1	5589.725
2839.62884	5603.525
2842.15613	5604.525
2844.68186	5588.625
2847.20604	5606.025
2849.72867	5568.325
2852.24974	5571.225
2854.76927	5550.225
2857.28724	5534.325
2859.80367	5531.225
2862.31855	5525.225
2864.83189	5548.225
2867.34368	5522.525
2869.85393	5521.125
2872.36264	5516.525
2874.8698	5508.025
2877.37543	5488.825
2879.87952	5490.825
2882.38207	5492.425
2884.88308	5481.625
2887.38256	5472.925
2889.88051	5471.525
2892.37692	5456.125
2894.8718	5459.125
2897.36515	5454.725
2899.85698	5455.325
2902.34727	5465.825
2904.83604	5454.225
2907.32328	5456.125
2909.809	5464.325
2912.29319	5484.125
2914.77587	5460.625
2917.25702	5465.025
2919.73665	5467.625
2922.21476	5462.025
2924.69136	5435.625
2927.16644	5448.725
2929.64	5420.925
2932.11205	5427.825
2934.58258	5414.925
2937.05161	5416.325
2939.51912	5406.925
2941.98513	5402.425
2944.44962	5392.125
2946.91261	5372.725
2949.37409	5403.625
2951.83407	5358.725
2954.29254	5390.325
2956.74951	5368.625
2959.20498	5354.425
2961.65895	5351.625
2964.11142	5361.525
2966.56239	5363.225
2969.01186	5356.125
2971.45984	5348.925
2973.90632	5338.725
2976.35131	5318.025
2978.7948	5317.625
2981.23681	5303.725
2983.67732	5302.725
2986.11635	5270.325
2988.55388	5262.925
2990.98993	5254.125
2993.4245	5242.725
2995.85758	5213.825
2998.28917	5211.525
3000.71928	5209.225
3003.14791	5171.425
3005.57506	5171.825
3008.00073	5167.625
3010.42493	5154.825
3012.84764	5128.125
3015.26888	5124.925
3017.68865	5117.125
3020.10694	5111.025
3022.52376	5078.625
3024.9391	5083.825
3027.35298	5041.625
3029.76539	5049.025
3032.17632	5046.625
3034.5858	5044.725
3036.9938	5028.825
3039.40034	5013.425
3041.80542	4995.425
3044.20903	4994.125
3046.61118	4982.125
3049.01187	4968.925
3051.4111	4958.625
3053.80888	4945.525
3056.20519	4928.025
3058.60005	4909.125
3060.99345	4911.625
3063.3854	4907.125
3065.7759	4880.825
3068.16494	4866.625
3070.55254	4845.625
3072.93868	4846.425
3075.32338	4820.925
3077.70662	4804.625
3080.08842	4805.525
3082.46878	4794.325
3084.84769	4793.425
3087.22515	4779.125
3089.60118	4775.825
3091.97576	4749.325
3094.3489	4764.525
3096.72061	4746.925
3099.09087	4747.625
3101.4597	4742.025
3103.82709	4745.825
3106.19305	4740.925
3108.55757	4740.525
3110.92066	4725.125
3113.28232	4711.425
3115.64255	4705.725
3118.00134	4693.925
3120.35871	4680.725
3122.71466	4666.725
3125.06917	4665.125
3127.42226	4649.325
3129.77393	4640.725
3132.12417	4610.125
3134.47299	4619.325
3136.82039	4615.425
3139.16636	4601.625
3141.51092	4617.625
3143.85406	4617.525
3146.19579	4595.525
3148.53609	4614.825
3150.87499	4608.725
3153.21246	4601.925
3155.54853	4592.125
3157.88318	4579.125
3160.21642	4583.125
3162.54826	4565.725
3164.87868	4566.625
3167.2077	4567.725
3169.5353	4554.925
3171.86151	4549.625
3174.18631	4529.425
3176.5097	4526.125
3178.83169	4512.025
3181.15228	4527.725
3183.47147	4506.625
3185.78926	4500.425
3188.10565	4473.125
3190.42065	4460.625
3192.73424	4451.525
3195.04645	4464.125
3197.35725	4461.525
3199.66667	4434.425
3201.97469	4431.525
3204.28132	4427.025
