Data from AgNPs_UA_5uM_CRN_500uM_SU_RamanShift__113__11-48-13-154.txt Node

Date: Thu Aug 04 11:48:13 BST 2022
User: TCL
Spectrometer: QEP01345
Trigger mode: 4
Integration Time (sec): 1.000000E0
Scans to average: 10
Electric dark correction enabled: true
Nonlinearity correction enabled: false
Boxcar width: 0
XAxis mode: Raman Shifts
Number of Pixels in Spectrum: 1044
>>>>>Begin Spectral Data<<<<<
46.04893	-0.025
50.45542	0.075
54.85868	-0.025
59.25871	0.075
63.6555	-59.425
68.04907	-40.325
72.43941	-74.625
76.82654	-58.725
81.21044	-58.625
85.59113	-52.225
89.96862	-74.625
94.34289	-57.125
98.71396	-81.125
103.08183	-60.525
107.4465	-51.325
111.80798	-58.425
116.16626	-47.525
120.52136	-76.625
124.87327	-53.525
129.222	-66.425
133.56755	-54.525
137.90993	-70.125
142.24913	-56.825
146.58517	-49.125
150.91804	-48.725
155.24774	-41.225
159.57429	-22.525
163.89768	-24.925
168.21792	14.175
172.53501	25.975
176.84895	88.575
181.15975	201.875
185.46741	314.975
189.77193	452.475
194.07331	689.875
198.37157	921.175
202.6667	1134.175
206.9587	1405.375
211.24758	1641.675
215.53334	1881.875
219.81599	2146.375
224.09553	2447.175
228.37195	2766.075
232.64527	3121.575
236.91549	3499.775
241.18261	3843.775
245.44663	4152.975
249.70755	4360.175
253.96539	4538.975
258.22014	4655.475
262.4718	4727.875
266.72039	4772.575
270.96589	4751.475
275.20832	4697.075
279.44768	4611.775
283.68397	4531.475
287.91719	4449.375
292.14735	4428.875
296.37445	4473.975
300.59849	4540.275
304.81948	4641.975
309.03742	4747.975
313.25231	4813.575
317.46415	4814.475
321.67296	4651.475
325.87872	4511.975
330.08145	4480.575
334.28114	4476.675
338.47781	4516.875
342.67145	4609.075
346.86207	4711.575
351.04966	4872.175
355.23424	5013.275
359.4158	5140.075
363.59435	5189.075
367.76989	5235.275
371.94243	5242.375
376.11196	5227.875
380.27849	5268.675
384.44203	5285.775
388.60257	5307.475
392.76012	5342.375
396.91468	5428.175
401.06626	5525.175
405.21485	5549.075
409.36047	5512.875
413.50311	5409.375
417.64277	5343.875
421.77947	5255.675
425.9132	5239.875
430.04396	5270.275
434.17176	5308.275
438.2966	5395.775
442.41849	5482.775
446.53742	5579.475
450.6534	5667.075
454.76644	5734.775
458.87653	5778.975
462.98368	5799.975
467.08789	5791.175
471.18916	5815.975
475.2875	5791.575
479.38291	5737.875
483.4754	5624.575
487.56496	5597.675
491.6516	5532.975
495.73531	5511.775
499.81612	5515.575
503.89401	5573.475
507.96899	5595.575
512.04106	5639.375
516.11023	5689.375
520.1765	5748.975
524.23987	5778.875
528.30034	5836.575
532.35792	5804.875
536.41261	5795.075
540.46441	5730.175
544.51333	5697.075
548.55936	5756.875
552.60252	5849.575
556.64279	5909.775
560.6802	5967.475
564.71473	5976.875
568.7464	6010.375
572.7752	5978.775
576.80114	5872.275
580.82422	5816.975
584.84444	5828.775
588.86181	5850.275
592.87633	5853.375
596.888	5927.975
600.89682	6135.875
604.9028	6547.875
608.90594	7408.275
612.90624	8291.975
616.90371	7873.175
620.89834	6672.275
624.89015	6198.175
628.87913	6123.475
632.86528	6201.275
636.84862	6273.175
640.82913	6231.675
644.80683	6166.975
648.78172	6138.575
652.75379	6129.775
656.72306	6192.575
660.68952	6258.975
664.65319	6229.175
668.61405	6154.475
672.57211	6153.075
676.52738	6200.375
680.47986	6159.175
684.42955	6131.975
688.37646	6091.175
692.32058	6063.275
696.26192	6133.275
700.20048	6215.575
704.13626	6242.075
708.06928	6210.675
711.99952	6166.575
715.927	6132.975
719.85171	6137.475
723.77365	6182.375
727.69284	6145.575
731.60928	6183.675
735.52295	6154.975
739.43388	6216.675
743.34206	6211.975
747.24749	6228.775
751.15017	6235.575
755.05012	6248.075
758.94733	6416.075
762.8418	6712.775
766.73354	7204.075
770.62254	7640.775
774.50882	7730.275
778.39237	7550.275
782.27321	7150.475
786.15132	6737.175
790.02671	6482.675
793.89938	6286.675
797.76935	6258.575
801.6366	6243.575
805.50115	6217.975
809.36299	6215.675
813.22213	6230.775
817.07857	6220.775
820.93231	6216.775
824.78336	6213.975
828.63172	6226.675
832.47738	6233.775
836.32036	6265.175
840.16066	6266.875
843.99827	6276.575
847.8332	6263.975
851.66546	6298.475
855.49504	6314.975
859.32195	6347.175
863.1462	6358.275
866.96777	6373.175
870.78668	6357.075
874.60293	6372.275
878.41652	6382.875
882.22745	6431.275
886.03573	6446.275
889.84136	6420.175
893.64433	6440.175
897.44466	6412.375
901.24235	6383.375
905.0374	6424.675
908.8298	6381.975
912.61957	6375.975
916.40671	6328.975
920.19121	6397.075
923.97308	6457.875
927.75233	6438.575
931.52895	6488.875
935.30295	6509.475
939.07433	6468.975
942.84309	6381.775
946.60924	6380.675
950.37278	6334.075
954.13371	6367.075
957.89203	6363.775
961.64774	6396.175
965.40086	6349.375
969.15137	6328.275
972.89929	6357.675
976.64461	6341.375
980.38733	6392.475
984.12747	6374.175
987.86502	6419.275
991.59999	6456.275
995.33237	6553.075
999.06217	6669.075
1002.78939	6798.075
1006.51404	6966.075
1010.23611	7088.975
1013.95561	7153.775
1017.67255	7202.875
1021.38692	7215.575
1025.09872	7098.575
1028.80796	6948.075
1032.51465	6925.575
1036.21877	6914.175
1039.92035	6973.475
1043.61937	6995.975
1047.31584	7018.075
1051.00976	7035.075
1054.70114	7024.075
1058.38998	7014.175
1062.07627	7041.975
1065.76003	7104.775
1069.44126	7225.675
1073.11995	7356.275
1076.79611	7529.975
1080.46974	7587.475
1084.14085	7634.475
1087.80943	7633.575
1091.47549	7735.475
1095.13903	7842.675
1098.80005	7855.375
1102.45857	7690.175
1106.11456	7506.075
1109.76805	7336.775
1113.41903	7335.375
1117.06751	7353.675
1120.71348	7428.675
1124.35696	7566.675
1127.99793	7662.875
1131.63641	7677.875
1135.2724	7553.475
1138.90589	7503.675
1142.5369	7473.275
1146.16542	7544.775
1149.79145	7546.675
1153.415	7426.675
1157.03607	7290.175
1160.65467	7244.075
1164.27079	7345.175
1167.88443	7447.375
1171.49561	7618.075
1175.10432	7872.875
1178.71056	8241.875
1182.31434	8642.975
1185.91565	8860.075
1189.51451	8963.475
1193.11091	9029.375
1196.70485	9047.975
1200.29634	9036.875
1203.88538	8973.575
1207.47197	8863.375
1211.05612	8779.375
1214.63782	8696.575
1218.21708	8537.775
1221.79391	8289.875
1225.36829	8048.275
1228.94024	7939.775
1232.50976	7930.375
1236.07685	7927.275
1239.6415	7946.575
1243.20374	7991.875
1246.76355	8046.175
1250.32093	8178.675
1253.8759	8339.075
1257.42845	8626.775
1260.97859	8849.575
1264.52631	8977.975
1268.07163	8970.575
1271.61453	8992.275
1275.15503	8978.275
1278.69312	8989.775
1282.22882	9023.075
1285.76211	9095.875
1289.29301	9128.375
1292.82151	9245.075
1296.34761	9386.875
1299.87133	9648.175
1303.39266	9995.675
1306.9116	10419.475
1310.42815	10831.075
1313.94233	11003.275
1317.45412	10828.875
1320.96354	10581.375
1324.47058	10253.875
1327.97525	9954.975
1331.47754	9750.275
1334.97747	9759.375
1338.47502	9903.175
1341.97022	10246.175
1345.46305	10719.375
1348.95352	11237.875
1352.44163	11741.475
1355.92738	12100.075
1359.41078	12440.375
1362.89183	12583.175
1366.37053	11983.275
1369.84688	10788.075
1373.32088	9716.175
1376.79254	9170.875
1380.26186	8874.075
1383.72883	8697.775
1387.19347	8536.775
1390.65578	8422.975
1394.11575	8294.075
1397.57339	8190.775
1401.0287	8137.975
1404.48168	8127.075
1407.93234	8188.275
1411.38068	8230.875
1414.82669	8286.075
1418.27039	8277.875
1421.71177	8261.775
1425.15083	8188.875
1428.58758	8194.175
1432.02203	8221.975
1435.45416	8306.475
1438.88399	8348.675
1442.31151	8422.675
1445.73673	8552.075
1449.15965	8652.375
1452.58027	8661.675
1455.9986	8669.175
1459.41463	8689.175
1462.82837	8771.475
1466.23982	8927.875
1469.64898	9079.675
1473.05586	9162.975
1476.46045	9157.775
1479.86276	9116.075
1483.26279	9073.975
1486.66054	9091.975
1490.05602	9156.675
1493.44922	9379.775
1496.84016	9728.475
1500.22882	10299.675
1503.61521	10949.475
1506.99934	11506.975
1510.38121	11775.475
1513.76081	11624.575
1517.13816	11053.075
1520.51324	10340.975
1523.88607	9788.475
1527.25665	9482.775
1530.62498	9310.975
1533.99105	9261.275
1537.35488	9284.175
1540.71647	9357.175
1544.07581	9440.975
1547.4329	9426.375
1550.78776	9348.075
1554.14038	9100.175
1557.49077	8912.575
1560.83892	8820.275
1564.18484	8831.475
1567.52853	8854.375
1570.86999	8932.275
1574.20922	8915.775
1577.54624	8864.375
1580.88103	8669.175
1584.2136	8428.975
1587.54395	8405.675
1590.87208	8453.475
1594.19801	8673.975
1597.52172	8996.175
1600.84321	9269.875
1604.16251	9401.775
1607.47959	9348.675
1610.79447	9143.175
1614.10715	8749.275
1617.41763	8329.375
1620.7259	8010.275
1624.03199	7829.575
1627.33587	7757.675
1630.63757	7774.175
1633.93707	7956.375
1637.23439	8281.775
1640.52951	8721.775
1643.82246	9270.575
1647.11321	9757.075
1650.40179	9867.375
1653.68819	9521.875
1656.97241	8813.075
1660.25446	8069.075
1663.53433	7568.675
1666.81203	7208.875
1670.08756	7015.775
1673.36092	6895.175
1676.63211	6789.075
1679.90115	6725.275
1683.16801	6670.775
1686.43272	6600.475
1689.69527	6565.475
1692.95567	6503.075
1696.2139	6490.975
1699.46999	6436.975
1702.72392	6458.675
1705.97571	6459.675
1709.22535	6442.075
1712.47284	6481.675
1715.71819	6482.975
1718.96139	6471.475
1722.20246	6460.775
1725.44139	6464.375
1728.67818	6428.375
1731.91284	6387.675
1735.14537	6388.375
1738.37576	6353.375
1741.60403	6360.075
1744.83017	6330.875
1748.05418	6339.775
1751.27607	6334.975
1754.49584	6321.575
1757.71349	6270.275
1760.92903	6293.575
1764.14244	6230.775
1767.35375	6269.675
1770.56294	6235.275
1773.77002	6227.175
1776.97499	6218.575
1780.17785	6232.675
1783.37861	6222.375
1786.57727	6236.575
1789.77382	6174.775
1792.96828	6214.575
1796.16064	6220.575
1799.3509	6201.575
1802.53907	6199.575
1805.72514	6176.975
1808.90913	6131.275
1812.09102	6141.375
1815.27083	6144.375
1818.44856	6145.275
1821.6242	6140.975
1824.79776	6117.775
1827.96924	6098.875
1831.13864	6063.475
1834.30597	6098.775
1837.47122	6064.075
1840.6344	6050.975
1843.7955	6052.575
1846.95454	6053.575
1850.11151	6081.175
1853.26642	6041.975
1856.41926	6028.475
1859.57004	6045.975
1862.71876	6047.775
1865.86542	6040.775
1869.01003	6044.075
1872.15258	6011.875
1875.29308	6038.975
1878.43152	6010.675
1881.56792	5999.575
1884.70227	5972.675
1887.83457	5987.275
1890.96482	5961.275
1894.09304	5955.675
1897.21921	5942.875
1900.34335	5961.175
1903.46544	5940.375
1906.58551	5962.175
1909.70353	5969.075
1912.81953	5952.375
1915.93349	5944.075
1919.04543	5904.275
1922.15534	5897.475
1925.26322	5907.475
1928.36908	5880.575
1931.47292	5893.475
1934.57473	5875.675
1937.67453	5865.775
1940.77232	5825.375
1943.86808	5826.775
1946.96184	5822.075
1950.05358	5789.675
1953.14331	5761.075
1956.23103	5778.475
1959.31675	5746.975
1962.40046	5693.075
1965.48217	5710.375
1968.56188	5710.075
1971.63959	5693.075
1974.7153	5688.175
1977.78901	5664.775
1980.86073	5647.375
1983.93046	5585.675
1986.99819	5530.175
1990.06394	5546.575
1993.1277	5581.375
1996.18947	5552.675
1999.24925	5515.675
2002.30706	5510.775
2005.36288	5501.775
2008.41672	5487.775
2011.46859	5472.175
2014.51848	5456.375
2017.56639	5439.075
2020.61233	5401.575
2023.6563	5406.675
2026.6983	5351.775
2029.73833	5382.175
2032.7764	5380.375
2035.8125	5329.875
2038.84664	5335.475
2041.87881	5328.975
2044.90903	5340.975
2047.93729	5306.075
2050.96359	5295.475
2053.98794	5285.575
2057.01034	5302.175
2060.03078	5281.675
2063.04927	5262.075
2066.06582	5284.175
2069.08042	5276.275
2072.09307	5265.475
2075.10378	5267.075
2078.11255	5272.275
2081.11938	5273.075
2084.12426	5249.675
2087.12722	5241.975
2090.12824	5251.175
2093.12732	5252.375
2096.12447	5271.475
2099.11969	5251.675
2102.11299	5243.275
2105.10435	5280.575
2108.09379	5273.375
2111.08131	5245.775
2114.0669	5260.175
2117.05057	5246.875
2120.03233	5249.875
2123.01216	5274.975
2125.99008	5271.575
2128.96609	5254.775
2131.94018	5287.075
2134.91236	5271.775
2137.88263	5267.375
2140.851	5258.575
2143.81746	5291.775
2146.78201	5284.675
2149.74466	5277.775
2152.7054	5292.375
2155.66425	5276.775
2158.6212	5275.575
2161.57625	5253.675
2164.52941	5230.975
2167.48067	5257.475
2170.43004	5246.375
2173.37752	5258.275
2176.32311	5240.475
2179.26681	5249.275
2182.20863	5249.075
2185.14856	5246.975
2188.08661	5249.975
2191.02278	5271.975
2193.95707	5242.475
2196.88948	5222.975
2199.82001	5221.575
2202.74867	5228.475
2205.67545	5220.175
2208.60037	5228.975
2211.52341	5197.675
2214.44458	5194.475
2217.36388	5197.775
2220.28132	5174.975
2223.1969	5143.275
2226.11061	5159.975
2229.02246	5123.175
2231.93245	5146.275
2234.84058	5121.975
2237.74686	5116.875
2240.65128	5100.875
2243.55385	5103.475
2246.45456	5064.375
2249.35343	5089.975
2252.25044	5076.375
2255.14561	5076.475
2258.03893	5062.975
2260.93041	5041.575
2263.82004	5033.275
2266.70783	5022.075
2269.59378	5015.575
2272.4779	4991.775
2275.36017	4998.275
2278.24061	4981.575
2281.11922	4940.675
2283.996	4956.175
2286.87094	4931.475
2289.74405	4950.375
2292.61534	4950.475
2295.4848	4947.475
2298.35243	4931.875
2301.21824	4929.975
2304.08223	4920.775
2306.94439	4937.075
2309.80474	4930.475
2312.66327	4921.575
2315.51999	4897.475
2318.37489	4910.975
2321.22797	4882.175
2324.07925	4884.175
2326.92871	4868.875
2329.77637	4845.375
2332.62222	4853.075
2335.46626	4836.975
2338.3085	4821.575
2341.14893	4825.375
2343.98756	4852.175
2346.8244	4817.375
2349.65943	4794.775
2352.49267	4811.375
2355.32411	4821.975
2358.15376	4812.775
2360.98161	4826.775
2363.80768	4795.475
2366.63195	4801.375
2369.45444	4810.675
2372.27514	4799.275
2375.09405	4794.075
2377.91118	4752.775
2380.72652	4742.175
2383.54009	4740.175
2386.35187	4755.575
2389.16188	4714.975
2391.97011	4718.175
2394.77657	4717.575
2397.58125	4704.375
2400.38416	4718.975
2403.18529	4696.875
2405.98466	4667.975
2408.78226	4685.075
2411.57809	4672.375
2414.37216	4652.875
2417.16446	4668.175
2419.955	4638.175
2422.74378	4660.875
2425.5308	4640.175
2428.31606	4635.375
2431.09956	4647.675
2433.88131	4608.275
2436.6613	4622.575
2439.43954	4625.275
2442.21603	4618.175
2444.99077	4596.375
2447.76377	4606.475
2450.53501	4584.675
2453.30451	4589.875
2456.07226	4589.075
2458.83827	4572.775
2461.60254	4528.575
2464.36507	4556.775
2467.12586	4530.375
2469.88492	4550.075
2472.64224	4557.375
2475.39782	4521.175
2478.15167	4539.675
2480.90379	4527.475
2483.65417	4550.275
2486.40283	4539.375
2489.14976	4548.575
2491.89497	4534.375
2494.63845	4533.375
2497.3802	4508.875
2500.12024	4510.175
2502.85855	4512.975
2505.59514	4508.475
2508.33002	4504.775
2511.06318	4476.975
2513.79462	4484.375
2516.52435	4459.575
2519.25237	4445.475
2521.97867	4449.975
2524.70327	4453.575
2527.42616	4451.275
2530.14734	4448.175
2532.86681	4450.275
2535.58458	4443.275
2538.30065	4439.775
2541.01501	4453.475
2543.72768	4428.875
2546.43864	4436.275
2549.14791	4418.775
2551.85548	4412.875
2554.56136	4396.375
2557.26554	4417.575
2559.96803	4398.575
2562.66883	4383.375
2565.36794	4352.275
2568.06536	4337.275
2570.7611	4346.375
2573.45514	4350.375
2576.14751	4327.175
2578.83819	4300.375
2581.52719	4297.075
2584.21451	4308.175
2586.90015	4279.275
2589.58411	4259.975
2592.2664	4265.175
2594.94701	4268.975
2597.62594	4277.075
2600.30321	4202.675
2602.9788	4224.675
2605.65273	4222.675
2608.32498	4215.675
2610.99557	4247.375
2613.66449	4210.975
2616.33175	4214.375
2618.99734	4215.175
2621.66128	4209.675
2624.32355	4181.275
2626.98416	4190.675
2629.64311	4179.775
2632.30041	4151.675
2634.95605	4153.175
2637.61004	4145.075
2640.26238	4126.575
2642.91306	4124.475
2645.56209	4150.075
2648.20948	4150.975
2650.85521	4117.875
2653.4993	4140.975
2656.14175	4124.375
2658.78255	4114.975
2661.42171	4079.675
2664.05923	4134.275
2666.6951	4128.275
2669.32934	4135.875
2671.96194	4141.975
2674.59291	4131.275
2677.22224	4130.475
2679.84993	4128.475
2682.476	4130.675
2685.10043	4106.575
2687.72324	4107.675
2690.34441	4104.975
2692.96396	4101.275
2695.58188	4124.175
2698.19818	4118.375
2700.81285	4097.175
2703.4259	4095.875
2706.03733	4061.175
2708.64714	4047.975
2711.25533	4085.275
2713.86191	4097.875
2716.46687	4079.475
2719.07021	4063.275
2721.67194	4059.975
2724.27206	4077.975
2726.87057	4081.675
2729.46747	4072.775
2732.06276	4083.475
2734.65644	4061.375
2737.24852	4060.575
2739.83899	4032.075
2742.42786	4064.275
2745.01513	4063.575
2747.60079	4044.075
2750.18486	4029.375
2752.76733	4037.675
2755.3482	4020.075
2757.92747	4016.775
2760.50515	4005.375
2763.08123	3992.175
2765.65573	3999.275
2768.22863	3974.475
2770.79994	3955.675
2773.36967	3968.775
2775.9378	3951.675
2778.50435	3950.575
2781.06932	3949.075
2783.6327	3920.475
2786.1945	3954.575
2788.75471	3929.675
2791.31335	3940.475
2793.87041	3929.975
2796.42589	3883.375
2798.97979	3897.975
2801.53212	3896.975
2804.08288	3893.775
2806.63206	3880.575
2809.17967	3859.375
2811.72571	3867.275
2814.27018	3870.575
2816.81308	3845.275
2819.35442	3819.475
2821.89419	3831.075
2824.43239	3798.575
2826.96904	3835.675
2829.50412	3803.975
2832.03763	3806.775
2834.56959	3798.275
2837.1	3793.675
2839.62884	3777.375
2842.15613	3774.075
2844.68186	3782.275
2847.20604	3742.775
2849.72867	3755.175
2852.24974	3739.975
2854.76927	3717.075
2857.28724	3664.375
2859.80367	3720.275
2862.31855	3709.975
2864.83189	3706.575
2867.34368	3699.975
2869.85393	3703.775
2872.36264	3669.375
2874.8698	3682.675
2877.37543	3690.675
2879.87952	3694.875
2882.38207	3653.275
2884.88308	3665.075
2887.38256	3671.375
2889.88051	3651.775
2892.37692	3665.375
2894.8718	3649.875
2897.36515	3663.775
2899.85698	3657.875
2902.34727	3649.375
2904.83604	3655.075
2907.32328	3651.575
2909.809	3664.475
2912.29319	3654.775
2914.77587	3653.875
2917.25702	3678.175
2919.73665	3659.175
2922.21476	3672.175
2924.69136	3654.875
2927.16644	3653.475
2929.64	3662.175
2932.11205	3619.875
2934.58258	3639.075
2937.05161	3644.575
2939.51912	3631.775
2941.98513	3643.875
2944.44962	3623.375
2946.91261	3591.375
2949.37409	3623.975
2951.83407	3603.175
2954.29254	3607.675
2956.74951	3594.975
2959.20498	3589.875
2961.65895	3591.575
2964.11142	3569.175
2966.56239	3565.675
2969.01186	3572.475
2971.45984	3561.875
2973.90632	3549.575
2976.35131	3561.875
2978.7948	3546.975
2981.23681	3539.075
2983.67732	3539.675
2986.11635	3535.175
2988.55388	3493.475
2990.98993	3499.575
2993.4245	3479.375
2995.85758	3478.875
2998.28917	3466.775
3000.71928	3477.275
3003.14791	3451.675
3005.57506	3432.675
3008.00073	3425.375
3010.42493	3384.575
3012.84764	3424.775
3015.26888	3408.375
3017.68865	3396.975
3020.10694	3358.475
3022.52376	3370.575
3024.9391	3362.575
3027.35298	3358.975
3029.76539	3341.275
3032.17632	3344.175
3034.5858	3325.175
3036.9938	3338.875
3039.40034	3328.475
3041.80542	3319.275
3044.20903	3296.775
3046.61118	3312.275
3049.01187	3312.375
3051.4111	3282.075
3053.80888	3261.575
3056.20519	3258.775
3058.60005	3253.775
3060.99345	3268.975
3063.3854	3238.075
3065.7759	3224.075
3068.16494	3206.675
3070.55254	3204.275
3072.93868	3207.875
3075.32338	3204.275
3077.70662	3187.975
3080.08842	3186.675
3082.46878	3162.475
3084.84769	3187.875
3087.22515	3156.175
3089.60118	3180.875
3091.97576	3162.375
3094.3489	3173.575
3096.72061	3157.475
3099.09087	3143.475
3101.4597	3155.175
3103.82709	3139.175
3106.19305	3121.875
3108.55757	3136.275
3110.92066	3121.775
3113.28232	3122.275
3115.64255	3118.575
3118.00134	3109.675
3120.35871	3088.675
3122.71466	3061.175
3125.06917	3070.475
3127.42226	3062.975
3129.77393	3043.775
3132.12417	3062.775
3134.47299	3068.775
3136.82039	3042.175
3139.16636	3002.075
3141.51092	3034.775
3143.85406	3049.775
3146.19579	3024.875
3148.53609	3019.875
3150.87499	3024.875
3153.21246	3023.475
3155.54853	3031.975
3157.88318	3024.475
3160.21642	3029.175
3162.54826	3021.275
3164.87868	3025.375
3167.2077	2965.775
3169.5353	3007.875
3171.86151	2994.675
3174.18631	2986.175
3176.5097	2981.075
3178.83169	2981.775
3181.15228	2980.475
3183.47147	2952.175
3185.78926	2933.275
3188.10565	2942.175
3190.42065	2926.775
3192.73424	2930.175
3195.04645	2921.675
3197.35725	2906.575
3199.66667	2904.775
3201.97469	2911.475
3204.28132	2912.475
3206.58656	2922.675
3208.8904	2917.175
3211.19287	2898.075
3213.49394	2896.075
3215.79363	2893.275
3218.09193	2917.775
3220.38884	2895.475
3222.68438	2894.575
3224.97853	2867.875
3227.2713	2897.575
3229.56269	2872.575
3231.8527	2878.275
3234.14133	2858.475
3236.42858	2852.475
