Data from AgNPs_UA_10uM_CRN_500uM_SU_RamanShift__134__13-27-40-280.txt Node

Date: Thu Aug 04 13:27:40 BST 2022
User: TCL
Spectrometer: QEP01345
Trigger mode: 4
Integration Time (sec): 1.000000E0
Scans to average: 10
Electric dark correction enabled: true
Nonlinearity correction enabled: false
Boxcar width: 0
XAxis mode: Raman Shifts
Number of Pixels in Spectrum: 1044
>>>>>Begin Spectral Data<<<<<
46.04893	0.1875
50.45542	-1.6125
54.85868	1.7875
59.25871	-0.2125
63.6555	20.6875
68.04907	19.6875
72.43941	21.2875
76.82654	23.4875
81.21044	23.0875
85.59113	26.2875
89.96862	25.7875
94.34289	26.7875
98.71396	26.3875
103.08183	28.9875
107.4465	30.6875
111.80798	29.7875
116.16626	29.4875
120.52136	33.6875
124.87327	32.9875
129.222	36.7875
133.56755	37.1875
137.90993	41.8875
142.24913	47.8875
146.58517	53.8875
150.91804	63.7875
155.24774	76.4875
159.57429	96.0875
163.89768	127.1875
168.21792	165.2875
172.53501	233.3875
176.84895	327.4875
181.15975	466.2875
185.46741	660.1875
189.77193	914.6875
194.07331	1228.9875
198.37157	1584.3875
202.6667	1963.3875
206.9587	2320.1875
211.24758	2701.8875
215.53334	3087.4875
219.81599	3483.8875
224.09553	3947.9875
228.37195	4431.5875
232.64527	4959.0875
236.91549	5497.3875
241.18261	5968.6875
245.44663	6364.9875
249.70755	6694.0875
253.96539	6968.0875
258.22014	7223.4875
262.4718	7449.8875
266.72039	7582.6875
270.96589	7651.6875
275.20832	7606.3875
279.44768	7507.8875
283.68397	7410.8875
287.91719	7303.0875
292.14735	7316.0875
296.37445	7422.1875
300.59849	7631.3875
304.81948	7914.0875
309.03742	8139.1875
313.25231	8249.3875
317.46415	8164.0875
321.67296	7846.6875
325.87872	7561.8875
330.08145	7441.4875
334.28114	7416.5875
338.47781	7515.5875
342.67145	7658.7875
346.86207	7877.9875
351.04966	8165.7875
355.23424	8466.8875
359.4158	8697.9875
363.59435	8841.2875
367.76989	8906.0875
371.94243	8886.4875
376.11196	8887.3875
380.27849	8856.0875
384.44203	8888.0875
388.60257	8916.0875
392.76012	8972.8875
396.91468	9095.3875
401.06626	9257.3875
405.21485	9300.0875
409.36047	9183.8875
413.50311	8902.2875
417.64277	8655.9875
421.77947	8484.2875
425.9132	8427.3875
430.04396	8452.5875
434.17176	8506.6875
438.2966	8639.9875
442.41849	8863.9875
446.53742	9100.9875
450.6534	9321.1875
454.76644	9470.4875
458.87653	9500.0875
462.98368	9424.0875
467.08789	9296.9875
471.18916	9119.6875
475.2875	8906.3875
479.38291	8714.0875
483.4754	8582.3875
487.56496	8485.5875
491.6516	8439.2875
495.73531	8445.5875
499.81612	8468.5875
503.89401	8546.3875
507.96899	8613.2875
512.04106	8659.4875
516.11023	8707.0875
520.1765	8752.6875
524.23987	8800.4875
528.30034	8807.7875
532.35792	8737.9875
536.41261	8668.1875
540.46441	8557.5875
544.51333	8538.8875
548.55936	8597.7875
552.60252	8729.0875
556.64279	8885.1875
560.6802	8986.0875
564.71473	9071.3875
568.7464	9186.1875
572.7752	9186.0875
576.80114	9012.6875
580.82422	8862.5875
584.84444	8882.0875
588.86181	8962.1875
592.87633	9124.3875
596.888	9307.1875
600.89682	9688.0875
604.9028	10707.2875
608.90594	12873.7875
612.90624	14907.7875
616.90371	13694.3875
620.89834	10737.0875
624.89015	9625.8875
628.87913	9549.4875
632.86528	9567.7875
636.84862	9520.0875
640.82913	9240.8875
644.80683	8879.9875
648.78172	8692.1875
652.75379	8728.4875
656.72306	9033.3875
660.68952	9296.9875
664.65319	9240.5875
668.61405	9078.5875
672.57211	9082.4875
676.52738	9083.8875
680.47986	8939.5875
684.42955	8788.8875
688.37646	8751.7875
692.32058	8867.3875
696.26192	9020.6875
700.20048	9166.5875
704.13626	9176.2875
708.06928	9056.3875
711.99952	8952.3875
715.927	8958.8875
719.85171	9055.7875
723.77365	9046.7875
727.69284	8970.1875
731.60928	8879.6875
735.52295	8873.5875
739.43388	8955.9875
743.34206	9011.3875
747.24749	9006.8875
751.15017	9047.7875
755.05012	9154.4875
758.94733	9501.7875
762.8418	10295.8875
766.73354	11456.9875
770.62254	12424.6875
774.50882	12629.4875
778.39237	12091.4875
782.27321	11174.2875
786.15132	10238.6875
790.02671	9583.7875
793.89938	9297.1875
797.76935	9169.7875
801.6366	9086.7875
805.50115	9037.2875
809.36299	8981.5875
813.22213	8964.9875
817.07857	8960.0875
820.93231	8939.7875
824.78336	8942.3875
828.63172	8953.5875
832.47738	8978.8875
836.32036	9002.4875
840.16066	9039.1875
843.99827	9040.1875
847.8332	8998.8875
851.66546	8991.2875
855.49504	9015.0875
859.32195	8998.4875
863.1462	8995.8875
866.96777	8979.3875
870.78668	8990.8875
874.60293	8967.4875
878.41652	9018.3875
882.22745	9097.1875
886.03573	9160.1875
889.84136	9157.9875
893.64433	9112.6875
897.44466	9048.9875
901.24235	9050.5875
905.0374	9023.3875
908.8298	8987.7875
912.61957	8994.8875
916.40671	9024.0875
920.19121	9094.6875
923.97308	9173.0875
927.75233	9295.3875
931.52895	9383.0875
935.30295	9312.9875
939.07433	9116.1875
942.84309	9011.4875
946.60924	8959.4875
950.37278	8937.3875
954.13371	8880.3875
957.89203	8867.3875
961.64774	8831.1875
965.40086	8829.5875
969.15137	8805.5875
972.89929	8812.5875
976.64461	8812.5875
980.38733	8863.0875
984.12747	8883.3875
987.86502	8942.3875
991.59999	9054.2875
995.33237	9203.6875
999.06217	9467.5875
1002.78939	9721.2875
1006.51404	9858.3875
1010.23611	9953.0875
1013.95561	10026.8875
1017.67255	10115.5875
1021.38692	10124.0875
1025.09872	10144.5875
1028.80796	10245.2875
1032.51465	10482.4875
1036.21877	10643.4875
1039.92035	10620.8875
1043.61937	10463.0875
1047.31584	10244.2875
1051.00976	10034.4875
1054.70114	9939.5875
1058.38998	9923.2875
1062.07627	9925.7875
1065.76003	9927.1875
1069.44126	9982.6875
1073.11995	10091.3875
1076.79611	10263.9875
1080.46974	10396.5875
1084.14085	10498.1875
1087.80943	10621.2875
1091.47549	10621.5875
1095.13903	10549.7875
1098.80005	10438.1875
1102.45857	10435.8875
1106.11456	10429.3875
1109.76805	10371.7875
1113.41903	10440.1875
1117.06751	10585.4875
1120.71348	10808.7875
1124.35696	11028.0875
1127.99793	11144.5875
1131.63641	10993.3875
1135.2724	10686.5875
1138.90589	10439.0875
1142.5369	10238.0875
1146.16542	10112.8875
1149.79145	10025.3875
1153.415	10006.6875
1157.03607	10029.8875
1160.65467	10147.0875
1164.27079	10391.1875
1167.88443	10784.3875
1171.49561	11378.3875
1175.10432	12301.7875
1178.71056	13457.2875
1182.31434	14398.0875
1185.91565	14816.7875
1189.51451	14682.8875
1193.11091	14188.7875
1196.70485	13663.3875
1200.29634	13094.5875
1203.88538	12599.6875
1207.47197	12101.0875
1211.05612	11628.8875
1214.63782	11303.2875
1218.21708	11152.8875
1221.79391	11198.8875
1225.36829	11272.0875
1228.94024	11221.7875
1232.50976	11105.5875
1236.07685	11026.5875
1239.6415	11019.0875
1243.20374	11020.7875
1246.76355	11107.6875
1250.32093	11239.2875
1253.8759	11470.3875
1257.42845	11803.7875
1260.97859	12134.3875
1264.52631	12480.7875
1268.07163	12744.5875
1271.61453	12994.9875
1275.15503	13151.6875
1278.69312	13359.8875
1282.22882	13528.4875
1285.76211	13711.6875
1289.29301	13856.9875
1292.82151	14124.8875
1296.34761	14448.6875
1299.87133	14995.1875
1303.39266	15982.4875
1306.9116	17377.8875
1310.42815	18876.7875
1313.94233	19573.0875
1317.45412	19074.3875
1320.96354	17935.5875
1324.47058	16740.1875
1327.97525	15758.5875
1331.47754	15175.0875
1334.97747	15011.2875
1338.47502	15169.6875
1341.97022	15593.4875
1345.46305	16305.7875
1348.95352	17211.1875
1352.44163	18259.6875
1355.92738	19452.5875
1359.41078	21014.2875
1362.89183	22130.1875
1366.37053	20991.4875
1369.84688	18230.8875
1373.32088	15666.6875
1376.79254	14279.9875
1380.26186	13579.4875
1383.72883	13229.9875
1387.19347	12875.9875
1390.65578	12470.0875
1394.11575	12162.9875
1397.57339	11985.4875
1401.0287	11968.1875
1404.48168	12020.8875
1407.93234	12158.6875
1411.38068	12330.6875
1414.82669	12467.9875
1418.27039	12477.8875
1421.71177	12367.7875
1425.15083	12271.2875
1428.58758	12223.3875
1432.02203	12414.2875
1435.45416	12574.8875
1438.88399	12599.1875
1442.31151	12520.3875
1445.73673	12510.6875
1449.15965	12464.9875
1452.58027	12387.7875
1455.9986	12292.5875
1459.41463	12250.3875
1462.82837	12368.9875
1466.23982	12563.1875
1469.64898	12778.4875
1473.05586	12955.8875
1476.46045	13127.8875
1479.86276	13260.3875
1483.26279	13373.2875
1486.66054	13575.6875
1490.05602	13903.0875
1493.44922	14401.2875
1496.84016	15106.7875
1500.22882	16190.6875
1503.61521	17485.6875
1506.99934	18854.1875
1510.38121	19656.8875
1513.76081	19440.5875
1517.13816	18161.9875
1520.51324	16453.1875
1523.88607	15073.1875
1527.25665	14230.4875
1530.62498	13798.9875
1533.99105	13590.2875
1537.35488	13421.2875
1540.71647	13323.9875
1544.07581	13186.7875
1547.4329	13097.9875
1550.78776	12933.9875
1554.14038	12823.9875
1557.49077	12803.5875
1560.83892	12915.5875
1564.18484	13127.7875
1567.52853	13384.5875
1570.86999	13498.6875
1574.20922	13503.7875
1577.54624	13328.9875
1580.88103	12825.1875
1584.2136	12340.9875
1587.54395	12215.9875
1590.87208	12516.2875
1594.19801	13275.6875
1597.52172	14137.9875
1600.84321	14503.8875
1604.16251	14303.8875
1607.47959	13739.3875
1610.79447	13014.1875
1614.10715	12198.7875
1617.41763	11489.4875
1620.7259	11017.6875
1624.03199	10809.0875
1627.33587	10798.9875
1630.63757	11041.6875
1633.93707	11607.4875
1637.23439	12480.3875
1640.52951	13639.5875
1643.82246	14973.8875
1647.11321	16107.4875
1650.40179	16340.6875
1653.68819	15262.5875
1656.97241	13394.3875
1660.25446	11728.3875
1663.53433	10585.8875
1666.81203	9948.5875
1670.08756	9541.2875
1673.36092	9304.9875
1676.63211	9139.2875
1679.90115	9001.4875
1683.16801	8906.6875
1686.43272	8842.5875
1689.69527	8785.5875
1692.95567	8755.2875
1696.2139	8693.3875
1699.46999	8714.0875
1702.72392	8692.6875
1705.97571	8668.5875
1709.22535	8668.5875
1712.47284	8680.8875
1715.71819	8698.7875
1718.96139	8632.8875
1722.20246	8641.9875
1725.44139	8618.0875
1728.67818	8551.3875
1731.91284	8499.0875
1735.14537	8462.6875
1738.37576	8451.7875
1741.60403	8408.7875
1744.83017	8381.7875
1748.05418	8374.2875
1751.27607	8382.4875
1754.49584	8339.5875
1757.71349	8337.9875
1760.92903	8322.5875
1764.14244	8309.9875
1767.35375	8300.3875
1770.56294	8287.7875
1773.77002	8299.5875
1776.97499	8252.2875
1780.17785	8210.4875
1783.37861	8215.4875
1786.57727	8187.8875
1789.77382	8195.0875
1792.96828	8163.8875
1796.16064	8168.1875
1799.3509	8155.9875
1802.53907	8156.1875
1805.72514	8137.5875
1808.90913	8132.7875
1812.09102	8104.8875
1815.27083	8071.9875
1818.44856	8054.4875
1821.6242	8020.5875
1824.79776	8024.9875
1827.96924	8016.8875
1831.13864	7989.9875
1834.30597	7975.8875
1837.47122	7962.5875
1840.6344	7956.1875
1843.7955	7962.8875
1846.95454	7952.3875
1850.11151	7966.2875
1853.26642	7951.8875
1856.41926	7960.8875
1859.57004	7957.3875
1862.71876	7953.4875
1865.86542	7978.7875
1869.01003	7935.1875
1872.15258	7922.8875
1875.29308	7921.9875
1878.43152	7933.9875
1881.56792	7918.5875
1884.70227	7878.3875
1887.83457	7890.6875
1890.96482	7873.4875
1894.09304	7838.0875
1897.21921	7837.8875
1900.34335	7819.8875
1903.46544	7825.1875
1906.58551	7833.6875
1909.70353	7820.5875
1912.81953	7848.0875
1915.93349	7811.5875
1919.04543	7800.9875
1922.15534	7774.6875
1925.26322	7787.3875
1928.36908	7749.4875
1931.47292	7724.4875
1934.57473	7725.2875
1937.67453	7714.5875
1940.77232	7718.0875
1943.86808	7676.2875
1946.96184	7664.4875
1950.05358	7630.4875
1953.14331	7627.1875
1956.23103	7581.3875
1959.31675	7565.5875
1962.40046	7554.0875
1965.48217	7513.5875
1968.56188	7479.5875
1971.63959	7473.2875
1974.7153	7468.9875
1977.78901	7463.1875
1980.86073	7442.3875
1983.93046	7424.3875
1986.99819	7380.4875
1990.06394	7360.6875
1993.1277	7329.5875
1996.18947	7313.4875
1999.24925	7276.3875
2002.30706	7269.8875
2005.36288	7224.8875
2008.41672	7190.1875
2011.46859	7207.4875
2014.51848	7165.4875
2017.56639	7153.0875
2020.61233	7120.1875
2023.6563	7131.2875
2026.6983	7084.4875
2029.73833	7071.0875
2032.7764	7064.7875
2035.8125	7071.4875
2038.84664	7033.3875
2041.87881	7032.9875
2044.90903	7017.7875
2047.93729	7007.3875
2050.96359	6996.2875
2053.98794	7000.1875
2057.01034	6992.1875
2060.03078	6994.6875
2063.04927	6980.9875
2066.06582	6956.0875
2069.08042	6954.4875
2072.09307	6961.0875
2075.10378	6940.7875
2078.11255	6925.5875
2081.11938	6939.3875
2084.12426	6897.9875
2087.12722	6904.7875
2090.12824	6914.1875
2093.12732	6908.3875
2096.12447	6926.4875
2099.11969	6908.8875
2102.11299	6941.1875
2105.10435	6915.0875
2108.09379	6918.6875
2111.08131	6910.8875
2114.0669	6926.9875
2117.05057	6928.0875
2120.03233	6953.3875
2123.01216	6955.5875
2125.99008	6947.8875
2128.96609	6935.2875
2131.94018	6965.9875
2134.91236	6948.9875
2137.88263	6947.4875
2140.851	6950.2875
2143.81746	6956.8875
2146.78201	6967.2875
2149.74466	6933.6875
2152.7054	6943.9875
2155.66425	6959.9875
2158.6212	6939.4875
2161.57625	6944.5875
2164.52941	6920.4875
2167.48067	6920.5875
2170.43004	6908.2875
2173.37752	6903.7875
2176.32311	6937.8875
2179.26681	6952.8875
2182.20863	6948.9875
2185.14856	6944.5875
2188.08661	6933.0875
2191.02278	6939.0875
2193.95707	6931.3875
2196.88948	6924.9875
2199.82001	6913.5875
2202.74867	6915.6875
2205.67545	6951.5875
2208.60037	6912.5875
2211.52341	6892.9875
2214.44458	6891.2875
2217.36388	6872.9875
2220.28132	6868.3875
2223.1969	6859.4875
2226.11061	6835.4875
2229.02246	6809.7875
2231.93245	6826.4875
2234.84058	6795.4875
2237.74686	6781.6875
2240.65128	6784.3875
2243.55385	6755.5875
2246.45456	6749.4875
2249.35343	6747.1875
2252.25044	6723.3875
2255.14561	6734.1875
2258.03893	6742.3875
2260.93041	6733.9875
2263.82004	6701.8875
2266.70783	6691.8875
2269.59378	6675.2875
2272.4779	6662.2875
2275.36017	6638.7875
2278.24061	6630.3875
2281.11922	6605.6875
2283.996	6606.9875
2286.87094	6595.1875
2289.74405	6581.7875
2292.61534	6577.6875
2295.4848	6575.0875
2298.35243	6561.0875
2301.21824	6553.6875
2304.08223	6544.6875
2306.94439	6569.6875
2309.80474	6554.1875
2312.66327	6553.6875
2315.51999	6539.8875
2318.37489	6572.9875
2321.22797	6528.3875
2324.07925	6551.3875
2326.92871	6533.1875
2329.77637	6532.1875
2332.62222	6502.5875
2335.46626	6519.4875
2338.3085	6503.7875
2341.14893	6505.2875
2343.98756	6534.4875
2346.8244	6522.1875
2349.65943	6546.3875
2352.49267	6516.8875
2355.32411	6510.0875
2358.15376	6499.8875
2360.98161	6503.3875
2363.80768	6511.0875
2366.63195	6478.3875
2369.45444	6457.8875
2372.27514	6470.5875
2375.09405	6456.7875
2377.91118	6421.4875
2380.72652	6430.6875
2383.54009	6416.2875
2386.35187	6393.1875
2389.16188	6374.4875
2391.97011	6365.8875
2394.77657	6341.6875
2397.58125	6319.2875
2400.38416	6341.0875
2403.18529	6324.7875
2405.98466	6301.6875
2408.78226	6283.0875
2411.57809	6273.9875
2414.37216	6269.5875
2417.16446	6263.7875
2419.955	6240.3875
2422.74378	6246.0875
2425.5308	6239.5875
2428.31606	6249.0875
2431.09956	6238.7875
2433.88131	6212.6875
2436.6613	6231.5875
2439.43954	6231.8875
2442.21603	6205.3875
2444.99077	6198.6875
2447.76377	6212.5875
2450.53501	6216.1875
2453.30451	6201.7875
2456.07226	6199.1875
2458.83827	6180.1875
2461.60254	6174.6875
2464.36507	6162.8875
2467.12586	6145.4875
2469.88492	6161.6875
2472.64224	6157.3875
2475.39782	6146.8875
2478.15167	6153.4875
2480.90379	6154.8875
2483.65417	6155.8875
2486.40283	6144.0875
2489.14976	6168.3875
2491.89497	6165.2875
2494.63845	6174.2875
2497.3802	6147.9875
2500.12024	6141.2875
2502.85855	6126.4875
2505.59514	6149.9875
2508.33002	6132.4875
2511.06318	6114.7875
2513.79462	6102.4875
2516.52435	6080.2875
2519.25237	6080.5875
2521.97867	6070.5875
2524.70327	6068.5875
2527.42616	6062.3875
2530.14734	6045.2875
2532.86681	6044.2875
2535.58458	6053.7875
2538.30065	6068.1875
2541.01501	6057.8875
2543.72768	6042.7875
2546.43864	6022.0875
2549.14791	6022.2875
2551.85548	6027.2875
2554.56136	6017.7875
2557.26554	6010.8875
2559.96803	5997.4875
2562.66883	5969.2875
2565.36794	5978.7875
2568.06536	5951.0875
2570.7611	5951.6875
2573.45514	5941.7875
2576.14751	5937.5875
2578.83819	5925.2875
2581.52719	5930.9875
2584.21451	5923.9875
2586.90015	5928.8875
2589.58411	5925.5875
2592.2664	5928.9875
2594.94701	5903.0875
2597.62594	5897.2875
2600.30321	5889.5875
2602.9788	5878.3875
2605.65273	5882.4875
2608.32498	5881.0875
2610.99557	5875.0875
2613.66449	5877.8875
2616.33175	5861.2875
2618.99734	5869.4875
2621.66128	5870.5875
2624.32355	5857.8875
2626.98416	5860.5875
2629.64311	5839.8875
2632.30041	5850.6875
2634.95605	5849.3875
2637.61004	5817.9875
2640.26238	5816.9875
2642.91306	5822.9875
2645.56209	5803.7875
2648.20948	5817.0875
2650.85521	5788.0875
2653.4993	5785.0875
2656.14175	5779.5875
2658.78255	5764.9875
2661.42171	5788.3875
2664.05923	5787.1875
2666.6951	5787.9875
2669.32934	5794.7875
2671.96194	5825.4875
2674.59291	5802.9875
2677.22224	5802.0875
2679.84993	5794.3875
2682.476	5791.3875
2685.10043	5787.2875
2687.72324	5790.4875
2690.34441	5783.4875
2692.96396	5756.5875
2695.58188	5774.5875
2698.19818	5776.9875
2700.81285	5763.7875
2703.4259	5750.4875
2706.03733	5738.4875
2708.64714	5742.4875
2711.25533	5742.2875
2713.86191	5739.7875
2716.46687	5753.4875
2719.07021	5758.0875
2721.67194	5749.0875
2724.27206	5744.8875
2726.87057	5741.9875
2729.46747	5761.7875
2732.06276	5749.2875
2734.65644	5735.7875
2737.24852	5733.0875
2739.83899	5708.0875
2742.42786	5725.5875
2745.01513	5702.1875
2747.60079	5672.0875
2750.18486	5673.9875
2752.76733	5687.5875
2755.3482	5668.4875
2757.92747	5681.2875
2760.50515	5664.1875
2763.08123	5658.2875
2765.65573	5640.5875
2768.22863	5654.3875
2770.79994	5644.7875
2773.36967	5636.0875
2775.9378	5627.5875
2778.50435	5625.2875
2781.06932	5625.7875
2783.6327	5631.1875
2786.1945	5627.1875
2788.75471	5611.0875
2791.31335	5601.6875
2793.87041	5601.0875
2796.42589	5586.8875
2798.97979	5554.6875
2801.53212	5546.7875
2804.08288	5541.0875
2806.63206	5546.8875
2809.17967	5526.8875
2811.72571	5530.8875
2814.27018	5518.9875
2816.81308	5501.0875
2819.35442	5484.0875
2821.89419	5483.5875
2824.43239	5495.8875
2826.96904	5470.2875
2829.50412	5489.8875
2832.03763	5443.3875
2834.56959	5448.3875
2837.1	5413.6875
2839.62884	5424.8875
2842.15613	5432.0875
2844.68186	5425.3875
2847.20604	5432.9875
2849.72867	5411.7875
2852.24974	5408.3875
2854.76927	5386.9875
2857.28724	5376.6875
2859.80367	5371.3875
2862.31855	5375.1875
2864.83189	5375.2875
2867.34368	5377.0875
2869.85393	5367.7875
2872.36264	5348.2875
2874.8698	5360.4875
2877.37543	5355.8875
2879.87952	5352.4875
2882.38207	5327.0875
2884.88308	5332.7875
2887.38256	5338.2875
2889.88051	5330.1875
2892.37692	5319.8875
2894.8718	5310.6875
2897.36515	5333.5875
2899.85698	5331.7875
2902.34727	5323.4875
2904.83604	5341.6875
2907.32328	5342.4875
2909.809	5341.4875
2912.29319	5346.0875
2914.77587	5346.2875
2917.25702	5363.3875
2919.73665	5350.2875
2922.21476	5334.9875
2924.69136	5324.5875
2927.16644	5327.3875
2929.64	5317.4875
2932.11205	5306.0875
2934.58258	5279.1875
2937.05161	5286.4875
2939.51912	5300.6875
2941.98513	5288.4875
2944.44962	5277.0875
2946.91261	5254.8875
2949.37409	5281.7875
2951.83407	5260.9875
2954.29254	5254.7875
2956.74951	5248.6875
2959.20498	5249.2875
2961.65895	5240.5875
2964.11142	5263.4875
2966.56239	5236.6875
2969.01186	5256.2875
2971.45984	5238.1875
2973.90632	5213.8875
2976.35131	5216.5875
2978.7948	5209.1875
2981.23681	5179.2875
2983.67732	5194.1875
2986.11635	5161.7875
2988.55388	5151.3875
2990.98993	5140.7875
2993.4245	5132.5875
2995.85758	5125.8875
2998.28917	5102.2875
3000.71928	5095.7875
3003.14791	5071.9875
3005.57506	5075.4875
3008.00073	5055.4875
3010.42493	5053.3875
3012.84764	5035.9875
3015.26888	5035.7875
3017.68865	5036.8875
3020.10694	5022.3875
3022.52376	5011.3875
3024.9391	4992.8875
3027.35298	4962.5875
3029.76539	4947.4875
3032.17632	4948.4875
3034.5858	4943.1875
3036.9938	4936.9875
3039.40034	4932.5875
3041.80542	4922.4875
3044.20903	4902.9875
3046.61118	4902.0875
3049.01187	4884.8875
3051.4111	4876.7875
3053.80888	4861.6875
3056.20519	4863.8875
3058.60005	4833.2875
3060.99345	4830.9875
3063.3854	4812.5875
3065.7759	4795.5875
3068.16494	4792.6875
3070.55254	4791.0875
3072.93868	4776.8875
3075.32338	4753.1875
3077.70662	4737.8875
3080.08842	4728.8875
3082.46878	4723.0875
3084.84769	4719.5875
3087.22515	4708.6875
3089.60118	4697.3875
3091.97576	4708.2875
3094.3489	4690.7875
3096.72061	4692.8875
3099.09087	4682.8875
3101.4597	4696.3875
3103.82709	4691.4875
3106.19305	4683.2875
