Data from AgNPs_UA_50uM_CRN_500uM_SU_RamanShift__1__13-56-00-314.txt Node

Date: Thu Aug 04 13:56:00 BST 2022
User: TCL
Spectrometer: QEP01345
Trigger mode: 4
Integration Time (sec): 1.000000E0
Scans to average: 10
Electric dark correction enabled: true
Nonlinearity correction enabled: false
Boxcar width: 0
XAxis mode: Raman Shifts
Number of Pixels in Spectrum: 1044
>>>>>Begin Spectral Data<<<<<
46.04893	2.375
50.45542	-0.725
54.85868	-0.825
59.25871	-0.525
63.6555	14.875
68.04907	14.075
72.43941	15.075
76.82654	17.275
81.21044	15.975
85.59113	19.375
89.96862	18.475
94.34289	20.075
98.71396	19.975
103.08183	19.375
107.4465	17.475
111.80798	18.475
116.16626	22.375
120.52136	22.275
124.87327	25.275
129.222	27.875
133.56755	29.275
137.90993	31.075
142.24913	32.875
146.58517	37.575
150.91804	44.075
155.24774	51.675
159.57429	68.575
163.89768	86.775
168.21792	115.975
172.53501	156.975
176.84895	227.975
181.15975	329.075
185.46741	457.875
189.77193	627.775
194.07331	851.475
198.37157	1107.375
202.6667	1364.475
206.9587	1627.475
211.24758	1900.375
215.53334	2162.475
219.81599	2479.475
224.09553	2809.475
228.37195	3198.175
232.64527	3592.275
236.91549	3984.075
241.18261	4312.375
245.44663	4561.575
249.70755	4767.475
253.96539	4905.575
258.22014	5039.075
262.4718	5143.375
266.72039	5233.075
270.96589	5245.975
275.20832	5205.075
279.44768	5111.875
283.68397	5020.575
287.91719	4984.775
292.14735	4992.975
296.37445	5113.975
300.59849	5328.075
304.81948	5593.975
309.03742	5858.475
313.25231	6028.975
317.46415	5974.975
321.67296	5681.175
325.87872	5342.775
330.08145	5171.575
334.28114	5162.575
338.47781	5210.275
342.67145	5343.475
346.86207	5527.275
351.04966	5792.875
355.23424	6072.675
359.4158	6236.875
363.59435	6306.375
367.76989	6282.875
371.94243	6221.575
376.11196	6154.375
380.27849	6102.375
384.44203	6059.675
388.60257	6052.175
392.76012	6093.875
396.91468	6189.275
401.06626	6295.575
405.21485	6321.675
409.36047	6177.175
413.50311	5931.875
417.64277	5663.175
421.77947	5509.675
425.9132	5471.875
430.04396	5483.975
434.17176	5525.575
438.2966	5593.975
442.41849	5699.275
446.53742	5825.175
450.6534	5919.875
454.76644	5984.075
458.87653	5972.175
462.98368	5949.275
467.08789	5899.875
471.18916	5816.875
475.2875	5690.275
479.38291	5570.375
483.4754	5510.975
487.56496	5446.775
491.6516	5431.575
495.73531	5426.875
499.81612	5427.375
503.89401	5460.275
507.96899	5516.775
512.04106	5581.375
516.11023	5688.975
520.1765	5740.275
524.23987	5770.775
528.30034	5762.575
532.35792	5735.675
536.41261	5677.175
540.46441	5567.175
544.51333	5541.775
548.55936	5570.675
552.60252	5680.975
556.64279	5775.475
560.6802	5845.975
564.71473	5925.675
568.7464	6050.875
572.7752	6047.475
576.80114	5834.375
580.82422	5680.375
584.84444	5614.275
588.86181	5603.875
592.87633	5622.075
596.888	5753.775
600.89682	6036.775
604.9028	6848.275
608.90594	8609.175
612.90624	10466.875
616.90371	9619.575
620.89834	7069.975
624.89015	5996.275
628.87913	5844.275
632.86528	5977.875
636.84862	6096.075
640.82913	5948.875
644.80683	5741.775
648.78172	5616.175
652.75379	5604.675
656.72306	5775.575
660.68952	6004.275
664.65319	5918.975
668.61405	5682.275
672.57211	5638.775
676.52738	5641.775
680.47986	5582.175
684.42955	5517.875
688.37646	5451.175
692.32058	5500.975
696.26192	5586.075
700.20048	5663.175
704.13626	5691.475
708.06928	5655.875
711.99952	5605.775
715.927	5620.375
719.85171	5626.275
723.77365	5650.675
727.69284	5617.475
731.60928	5583.475
735.52295	5560.875
739.43388	5579.475
743.34206	5591.575
747.24749	5607.075
751.15017	5622.275
755.05012	5684.775
758.94733	5977.575
762.8418	6659.875
766.73354	7677.275
770.62254	8490.275
774.50882	8585.075
778.39237	8098.775
782.27321	7269.175
786.15132	6483.375
790.02671	5963.575
793.89938	5691.775
797.76935	5589.575
801.6366	5532.475
805.50115	5520.975
809.36299	5496.375
813.22213	5466.575
817.07857	5475.175
820.93231	5459.975
824.78336	5472.075
828.63172	5506.275
832.47738	5522.675
836.32036	5494.375
840.16066	5474.375
843.99827	5454.475
847.8332	5451.375
851.66546	5456.875
855.49504	5478.875
859.32195	5490.275
863.1462	5485.175
866.96777	5480.875
870.78668	5494.475
874.60293	5494.375
878.41652	5532.175
882.22745	5558.375
886.03573	5598.575
889.84136	5601.375
893.64433	5578.575
897.44466	5558.575
901.24235	5528.575
905.0374	5527.175
908.8298	5496.475
912.61957	5475.875
916.40671	5471.575
920.19121	5511.975
923.97308	5567.975
927.75233	5629.075
931.52895	5677.375
935.30295	5601.975
939.07433	5492.175
942.84309	5390.475
946.60924	5371.775
950.37278	5356.175
954.13371	5357.275
957.89203	5337.675
961.64774	5342.575
965.40086	5329.275
969.15137	5316.475
972.89929	5313.475
976.64461	5321.375
980.38733	5318.875
984.12747	5328.975
987.86502	5352.475
991.59999	5386.475
995.33237	5450.375
999.06217	5525.275
1002.78939	5664.675
1006.51404	5802.375
1010.23611	5921.875
1013.95561	5954.375
1017.67255	5966.975
1021.38692	5912.975
1025.09872	5820.975
1028.80796	5697.175
1032.51465	5675.075
1036.21877	5694.975
1039.92035	5731.175
1043.61937	5776.475
1047.31584	5790.175
1051.00976	5792.975
1054.70114	5780.475
1058.38998	5754.575
1062.07627	5771.275
1065.76003	5818.375
1069.44126	5934.375
1073.11995	6069.375
1076.79611	6221.275
1080.46974	6355.475
1084.14085	6431.875
1087.80943	6533.375
1091.47549	6590.975
1095.13903	6602.275
1098.80005	6479.375
1102.45857	6335.675
1106.11456	6196.775
1109.76805	6126.975
1113.41903	6155.475
1117.06751	6280.175
1120.71348	6469.375
1124.35696	6757.675
1127.99793	6940.075
1131.63641	6825.475
1135.2724	6559.675
1138.90589	6337.075
1142.5369	6227.475
1146.16542	6237.075
1149.79145	6229.075
1153.415	6093.975
1157.03607	6028.075
1160.65467	6037.375
1164.27079	6164.175
1167.88443	6361.675
1171.49561	6676.875
1175.10432	7238.575
1178.71056	7957.475
1182.31434	8569.175
1185.91565	8738.275
1189.51451	8606.475
1193.11091	8360.575
1196.70485	8103.975
1200.29634	7925.175
1203.88538	7718.775
1207.47197	7428.075
1211.05612	7203.875
1214.63782	7030.575
1218.21708	6816.775
1221.79391	6637.375
1225.36829	6522.975
1228.94024	6466.975
1232.50976	6425.475
1236.07685	6430.575
1239.6415	6436.275
1243.20374	6468.175
1246.76355	6524.075
1250.32093	6629.475
1253.8759	6810.075
1257.42845	7079.275
1260.97859	7291.875
1264.52631	7475.275
1268.07163	7629.075
1271.61453	7664.375
1275.15503	7714.275
1278.69312	7684.075
1282.22882	7706.575
1285.76211	7821.875
1289.29301	8016.275
1292.82151	8189.175
1296.34761	8387.875
1299.87133	8703.775
1303.39266	9259.775
1306.9116	10110.775
1310.42815	10977.975
1313.94233	11226.775
1317.45412	10683.075
1320.96354	9882.675
1324.47058	9159.275
1327.97525	8544.775
1331.47754	8171.875
1334.97747	8107.075
1338.47502	8247.275
1341.97022	8601.575
1345.46305	9214.275
1348.95352	9995.675
1352.44163	10890.975
1355.92738	11897.075
1359.41078	13137.275
1362.89183	14165.475
1366.37053	13485.975
1369.84688	11358.075
1373.32088	9388.875
1376.79254	8300.675
1380.26186	7819.075
1383.72883	7510.475
1387.19347	7256.675
1390.65578	7004.075
1394.11575	6798.675
1397.57339	6643.575
1401.0287	6554.475
1404.48168	6485.975
1407.93234	6512.775
1411.38068	6579.375
1414.82669	6650.475
1418.27039	6669.175
1421.71177	6642.575
1425.15083	6563.275
1428.58758	6551.375
1432.02203	6588.475
1435.45416	6688.475
1438.88399	6724.575
1442.31151	6764.775
1445.73673	6828.275
1449.15965	6875.975
1452.58027	6850.075
1455.9986	6808.975
1459.41463	6769.475
1462.82837	6821.975
1466.23982	6983.975
1469.64898	7129.775
1473.05586	7244.875
1476.46045	7264.575
1479.86276	7316.275
1483.26279	7398.175
1486.66054	7553.875
1490.05602	7801.275
1493.44922	8207.975
1496.84016	8871.675
1500.22882	9884.375
1503.61521	11202.575
1506.99934	12497.275
1510.38121	13287.075
1513.76081	13080.075
1517.13816	11928.175
1520.51324	10454.275
1523.88607	9216.875
1527.25665	8467.075
1530.62498	8117.275
1533.99105	7912.575
1537.35488	7825.275
1540.71647	7775.775
1544.07581	7728.875
1547.4329	7686.275
1550.78776	7576.275
1554.14038	7495.075
1557.49077	7457.075
1560.83892	7506.475
1564.18484	7681.175
1567.52853	7969.875
1570.86999	8184.275
1574.20922	8266.375
1577.54624	8105.975
1580.88103	7674.575
1584.2136	7220.475
1587.54395	6932.475
1590.87208	6924.775
1594.19801	7157.575
1597.52172	7478.275
1600.84321	7620.375
1604.16251	7600.975
1607.47959	7482.675
1610.79447	7221.175
1614.10715	6835.775
1617.41763	6446.175
1620.7259	6185.275
1624.03199	6041.375
1627.33587	5991.775
1630.63757	6051.075
1633.93707	6260.875
1637.23439	6656.175
1640.52951	7256.875
1643.82246	8110.475
1647.11321	9067.275
1650.40179	9579.975
1653.68819	9231.675
1656.97241	8153.075
1660.25446	7020.975
1663.53433	6217.675
1666.81203	5753.475
1670.08756	5482.775
1673.36092	5298.175
1676.63211	5204.775
1679.90115	5108.075
1683.16801	5071.575
1686.43272	5002.275
1689.69527	4981.675
1692.95567	4960.975
1696.2139	4932.875
1699.46999	4908.275
1702.72392	4936.275
1705.97571	4906.275
1709.22535	4905.175
1712.47284	4896.375
1715.71819	4919.975
1718.96139	4899.675
1722.20246	4905.175
1725.44139	4877.175
1728.67818	4841.375
1731.91284	4808.175
1735.14537	4791.075
1738.37576	4772.975
1741.60403	4754.975
1744.83017	4740.375
1748.05418	4744.175
1751.27607	4725.175
1754.49584	4705.975
1757.71349	4699.175
1760.92903	4693.375
1764.14244	4674.875
1767.35375	4671.475
1770.56294	4668.375
1773.77002	4662.775
1776.97499	4632.875
1780.17785	4625.275
1783.37861	4604.075
1786.57727	4594.375
1789.77382	4590.475
1792.96828	4581.075
1796.16064	4564.975
1799.3509	4577.975
1802.53907	4565.075
1805.72514	4546.275
1808.90913	4533.775
1812.09102	4527.775
1815.27083	4516.775
1818.44856	4484.475
1821.6242	4493.775
1824.79776	4482.375
1827.96924	4468.975
1831.13864	4469.675
1834.30597	4446.675
1837.47122	4436.575
1840.6344	4430.675
1843.7955	4442.875
1846.95454	4445.475
1850.11151	4431.675
1853.26642	4430.275
1856.41926	4431.875
1859.57004	4438.375
1862.71876	4432.875
1865.86542	4412.375
1869.01003	4414.875
1872.15258	4409.275
1875.29308	4418.375
1878.43152	4392.775
1881.56792	4400.175
1884.70227	4388.275
1887.83457	4370.575
1890.96482	4374.975
1894.09304	4365.575
1897.21921	4364.075
1900.34335	4345.275
1903.46544	4330.575
1906.58551	4341.075
1909.70353	4325.475
1912.81953	4322.775
1915.93349	4323.075
1919.04543	4321.375
1922.15534	4311.275
1925.26322	4303.375
1928.36908	4289.875
1931.47292	4292.175
1934.57473	4278.775
1937.67453	4273.875
1940.77232	4244.775
1943.86808	4225.475
1946.96184	4221.275
1950.05358	4203.475
1953.14331	4203.675
1956.23103	4184.375
1959.31675	4159.375
1962.40046	4161.775
1965.48217	4152.375
1968.56188	4142.475
1971.63959	4148.775
1974.7153	4146.575
1977.78901	4115.075
1980.86073	4105.475
1983.93046	4084.175
1986.99819	4078.375
1990.06394	4054.675
1993.1277	4042.775
1996.18947	4026.175
1999.24925	4016.875
2002.30706	3997.275
2005.36288	3977.775
2008.41672	3981.275
2011.46859	3968.775
2014.51848	3957.875
2017.56639	3940.675
2020.61233	3932.475
2023.6563	3916.075
2026.6983	3897.975
2029.73833	3892.375
2032.7764	3880.975
2035.8125	3863.675
2038.84664	3850.775
2041.87881	3847.675
2044.90903	3844.975
2047.93729	3831.575
2050.96359	3830.175
2053.98794	3829.675
2057.01034	3815.875
2060.03078	3820.075
2063.04927	3834.575
2066.06582	3815.375
2069.08042	3805.875
2072.09307	3785.875
2075.10378	3800.575
2078.11255	3800.075
2081.11938	3801.475
2084.12426	3807.175
2087.12722	3807.275
2090.12824	3797.775
2093.12732	3803.175
2096.12447	3808.575
2099.11969	3803.075
2102.11299	3796.675
2105.10435	3803.075
2108.09379	3813.975
2111.08131	3802.175
2114.0669	3800.075
2117.05057	3803.075
2120.03233	3794.375
2123.01216	3825.575
2125.99008	3812.875
2128.96609	3819.475
2131.94018	3814.175
2134.91236	3807.675
2137.88263	3801.775
2140.851	3821.175
2143.81746	3818.075
2146.78201	3820.675
2149.74466	3810.375
2152.7054	3814.275
2155.66425	3806.775
2158.6212	3809.875
2161.57625	3794.475
2164.52941	3802.975
2167.48067	3803.775
2170.43004	3804.175
2173.37752	3795.975
2176.32311	3797.575
2179.26681	3804.475
2182.20863	3795.575
2185.14856	3793.575
2188.08661	3785.475
2191.02278	3788.275
2193.95707	3775.375
2196.88948	3785.875
2199.82001	3771.475
2202.74867	3766.975
2205.67545	3760.775
2208.60037	3761.475
2211.52341	3772.575
2214.44458	3759.375
2217.36388	3742.775
2220.28132	3742.875
2223.1969	3709.575
2226.11061	3712.275
2229.02246	3700.675
2231.93245	3722.175
2234.84058	3707.175
2237.74686	3697.575
2240.65128	3700.475
2243.55385	3690.375
2246.45456	3674.975
2249.35343	3691.375
2252.25044	3672.775
2255.14561	3667.575
2258.03893	3673.275
2260.93041	3657.675
2263.82004	3673.975
2266.70783	3653.075
2269.59378	3644.875
2272.4779	3632.975
2275.36017	3617.275
2278.24061	3603.675
2281.11922	3597.575
2283.996	3602.175
2286.87094	3595.675
2289.74405	3589.275
2292.61534	3587.775
2295.4848	3594.275
2298.35243	3609.975
2301.21824	3577.175
2304.08223	3578.275
2306.94439	3571.375
2309.80474	3578.675
2312.66327	3567.975
2315.51999	3565.775
2318.37489	3563.275
2321.22797	3551.175
2324.07925	3544.775
2326.92871	3528.175
2329.77637	3525.575
2332.62222	3524.975
2335.46626	3511.675
2338.3085	3523.275
2341.14893	3519.575
2343.98756	3523.675
2346.8244	3519.275
2349.65943	3506.075
2352.49267	3509.775
2355.32411	3499.175
2358.15376	3496.175
2360.98161	3511.175
2363.80768	3519.675
2366.63195	3513.875
2369.45444	3504.575
2372.27514	3511.375
2375.09405	3495.275
2377.91118	3506.975
2380.72652	3485.075
2383.54009	3475.175
2386.35187	3463.875
2389.16188	3439.475
2391.97011	3457.175
2394.77657	3441.075
2397.58125	3434.275
2400.38416	3433.675
2403.18529	3415.775
2405.98466	3425.875
2408.78226	3419.275
2411.57809	3408.175
2414.37216	3400.175
2417.16446	3402.875
2419.955	3400.475
2422.74378	3398.775
2425.5308	3395.275
2428.31606	3404.175
2431.09956	3388.275
2433.88131	3383.275
2436.6613	3375.675
2439.43954	3388.975
2442.21603	3384.075
2444.99077	3389.875
2447.76377	3385.675
2450.53501	3373.675
2453.30451	3363.875
2456.07226	3383.475
2458.83827	3373.175
2461.60254	3364.375
2464.36507	3365.275
2467.12586	3360.475
2469.88492	3347.275
2472.64224	3347.075
2475.39782	3362.575
2478.15167	3333.575
2480.90379	3348.475
2483.65417	3346.675
2486.40283	3356.575
2489.14976	3367.475
2491.89497	3376.175
2494.63845	3367.675
2497.3802	3348.475
2500.12024	3336.875
2502.85855	3344.675
2505.59514	3344.275
2508.33002	3338.075
2511.06318	3323.375
2513.79462	3325.075
2516.52435	3312.475
2519.25237	3294.775
2521.97867	3281.775
2524.70327	3287.275
2527.42616	3282.775
2530.14734	3279.775
2532.86681	3280.175
2535.58458	3281.875
2538.30065	3286.175
2541.01501	3280.975
2543.72768	3274.075
2546.43864	3290.275
2549.14791	3265.475
2551.85548	3260.575
2554.56136	3269.675
2557.26554	3260.375
2559.96803	3252.375
2562.66883	3255.875
2565.36794	3232.075
2568.06536	3234.675
2570.7611	3214.975
2573.45514	3221.475
2576.14751	3218.375
2578.83819	3193.875
2581.52719	3181.175
2584.21451	3191.475
2586.90015	3178.875
2589.58411	3181.175
2592.2664	3165.975
2594.94701	3159.175
2597.62594	3166.175
2600.30321	3175.475
2602.9788	3155.375
2605.65273	3148.375
2608.32498	3150.875
2610.99557	3144.375
2613.66449	3153.575
2616.33175	3152.275
2618.99734	3137.375
2621.66128	3132.275
2624.32355	3122.275
2626.98416	3120.175
2629.64311	3100.975
2632.30041	3099.275
2634.95605	3092.975
2637.61004	3073.675
2640.26238	3079.175
2642.91306	3082.675
2645.56209	3083.675
2648.20948	3089.475
2650.85521	3086.575
2653.4993	3071.475
2656.14175	3079.675
2658.78255	3080.475
2661.42171	3085.075
2664.05923	3088.075
2666.6951	3092.375
2669.32934	3080.775
2671.96194	3078.375
2674.59291	3066.075
2677.22224	3081.975
2679.84993	3088.675
2682.476	3077.675
2685.10043	3075.375
2687.72324	3083.775
2690.34441	3073.075
2692.96396	3070.575
2695.58188	3071.975
2698.19818	3067.775
2700.81285	3077.975
2703.4259	3073.675
2706.03733	3069.275
2708.64714	3076.475
2711.25533	3061.175
2713.86191	3047.075
2716.46687	3064.375
2719.07021	3053.475
2721.67194	3066.075
2724.27206	3052.275
2726.87057	3061.675
2729.46747	3051.575
2732.06276	3055.075
2734.65644	3048.975
2737.24852	3051.475
2739.83899	3064.375
2742.42786	3045.375
2745.01513	3023.475
2747.60079	3038.075
2750.18486	3036.275
2752.76733	3041.075
2755.3482	3031.075
2757.92747	3018.975
2760.50515	3010.475
2763.08123	3004.675
2765.65573	2990.775
2768.22863	2985.175
2770.79994	2986.075
2773.36967	2979.175
2775.9378	2965.275
2778.50435	2982.375
2781.06932	2977.975
2783.6327	2964.575
2786.1945	2969.575
2788.75471	2966.675
2791.31335	2954.275
2793.87041	2954.175
2796.42589	2956.175
2798.97979	2959.475
2801.53212	2950.675
2804.08288	2956.675
2806.63206	2932.575
2809.17967	2930.075
2811.72571	2935.075
2814.27018	2915.575
2816.81308	2909.375
2819.35442	2904.775
2821.89419	2896.775
2824.43239	2887.275
2826.96904	2899.775
2829.50412	2902.675
2832.03763	2883.075
2834.56959	2865.575
2837.1	2862.375
2839.62884	2855.475
2842.15613	2866.975
2844.68186	2856.275
2847.20604	2848.175
2849.72867	2842.575
2852.24974	2846.475
2854.76927	2843.875
2857.28724	2832.375
2859.80367	2844.875
2862.31855	2829.975
2864.83189	2831.475
2867.34368	2835.875
2869.85393	2829.975
2872.36264	2834.575
2874.8698	2829.975
2877.37543	2822.375
2879.87952	2816.275
2882.38207	2800.775
2884.88308	2813.175
2887.38256	2803.575
2889.88051	2786.475
2892.37692	2795.875
2894.8718	2800.975
2897.36515	2783.375
2899.85698	2782.675
2902.34727	2792.875
2904.83604	2782.075
2907.32328	2799.375
2909.809	2790.175
2912.29319	2799.975
2914.77587	2818.675
2917.25702	2808.875
2919.73665	2815.375
2922.21476	2799.475
2924.69136	2790.275
2927.16644	2791.075
2929.64	2788.575
2932.11205	2783.675
2934.58258	2775.375
2937.05161	2769.975
2939.51912	2773.275
2941.98513	2775.675
2944.44962	2766.175
2946.91261	2756.375
2949.37409	2755.075
2951.83407	2754.175
2954.29254	2760.575
2956.74951	2747.375
2959.20498	2745.275
2961.65895	2737.875
2964.11142	2732.775
2966.56239	2731.475
2969.01186	2729.575
2971.45984	2721.575
2973.90632	2740.675
2976.35131	2721.275
2978.7948	2728.375
2981.23681	2713.775
2983.67732	2708.775
2986.11635	2700.375
2988.55388	2705.375
2990.98993	2706.775
2993.4245	2693.975
2995.85758	2687.075
2998.28917	2682.175
3000.71928	2676.575
3003.14791	2655.575
3005.57506	2669.775
3008.00073	2665.175
3010.42493	2649.275
3012.84764	2649.175
3015.26888	2644.675
3017.68865	2630.575
3020.10694	2625.375
3022.52376	2617.875
3024.9391	2615.775
3027.35298	2601.875
3029.76539	2598.475
3032.17632	2586.975
3034.5858	2578.675
3036.9938	2577.975
3039.40034	2584.175
3041.80542	2570.875
3044.20903	2560.675
3046.61118	2578.175
3049.01187	2562.475
3051.4111	2554.075
3053.80888	2545.175
3056.20519	2552.175
3058.60005	2544.775
3060.99345	2541.075
3063.3854	2544.575
3065.7759	2518.275
3068.16494	2510.575
3070.55254	2512.575
3072.93868	2500.575
3075.32338	2501.175
3077.70662	2483.475
3080.08842	2472.575
3082.46878	2471.875
3084.84769	2463.275
3087.22515	2473.175
3089.60118	2470.675
3091.97576	2455.075
3094.3489	2461.875
3096.72061	2469.475
3099.09087	2465.975
3101.4597	2457.775
3103.82709	2460.775
3106.19305	2449.975
3108.55757	2449.875
3110.92066	2437.975
3113.28232	2441.575
3115.64255	2446.575
3118.00134	2422.175
3120.35871	2430.475
3122.71466	2426.275
3125.06917	2410.475
3127.42226	2409.175
3129.77393	2408.175
3132.12417	2395.775
3134.47299	2403.275
3136.82039	2398.375
3139.16636	2390.675
3141.51092	2395.775
3143.85406	2386.075
3146.19579	2389.775
3148.53609	2392.975
3150.87499	2385.175
3153.21246	2380.075
3155.54853	2390.975
3157.88318	2396.975
3160.21642	2397.375
3162.54826	2383.275
3164.87868	2384.175
3167.2077	2369.875
3169.5353	2368.675
3171.86151	2363.175
3174.18631	2374.775
3176.5097	2364.475
3178.83169	2357.775
3181.15228	2351.675
3183.47147	2346.675
3185.78926	2345.275
3188.10565	2344.075
3190.42065	2337.575
3192.73424	2336.075
3195.04645	2330.275
3197.35725	2328.275
3199.66667	2332.875
3201.97469	2329.175
3204.28132	2322.675
3206.58656	2336.975
3208.8904	2330.975
3211.19287	2323.075
3213.49394	2326.175
3215.79363	2325.175
3218.09193	2323.375
3220.38884	2327.375
3222.68438	2322.575
3224.97853	2316.075
3227.2713	2323.475
3229.56269	2316.875
3231.8527	2294.475
3234.14133	2297.375
3236.42858	2304.675
3238.71446	2290.875
